set title 'mp-35200 - Density of States'
set xlabel 'Energy (eV)'
set ylabel 'DOS (states/eV)'
set grid
set xrange [-10:10]
set yrange [0:7.404]
set xzeroaxis lt -1
set terminal png size 800,600
set output 'mp-35200_dos_gnuplot.png'
plot '-' using 1:2 with lines title 'DOS'
-20.969500 0.000000
-20.945900 0.000000
-20.922300 0.000000
-20.898700 0.000000
-20.875100 0.000000
-20.851600 0.000000
-20.828000 0.000000
-20.804400 0.000000
-20.780800 0.000000
-20.757200 0.000000
-20.733600 0.000000
-20.710000 0.000000
-20.686400 0.000000
-20.662800 0.000000
-20.639200 0.000000
-20.615600 0.000000
-20.592000 0.000000
-20.568400 0.000000
-20.544800 0.000000
-20.521200 0.000000
-20.497600 0.000000
-20.474000 0.000000
-20.450400 0.000000
-20.426800 0.000000
-20.403200 0.000000
-20.379600 0.000000
-20.356000 0.000000
-20.332400 0.000000
-20.308800 0.000000
-20.285200 0.000000
-20.261600 0.000000
-20.238100 0.000000
-20.214500 0.000000
-20.190900 0.000000
-20.167300 0.000000
-20.143700 0.000000
-20.120100 0.000000
-20.096500 0.000000
-20.072900 0.000000
-20.049300 0.000000
-20.025700 0.000000
-20.002100 0.000000
-19.978500 0.000000
-19.954900 0.000000
-19.931300 0.000000
-19.907700 0.000000
-19.884100 0.000000
-19.860500 0.000000
-19.836900 0.000000
-19.813300 0.000000
-19.789700 0.000000
-19.766100 0.000000
-19.742500 0.000000
-19.718900 0.000000
-19.695300 0.000000
-19.671700 0.000000
-19.648100 0.000000
-19.624600 0.000000
-19.601000 0.000000
-19.577400 0.000000
-19.553800 0.000000
-19.530200 0.000000
-19.506600 0.000000
-19.483000 0.000000
-19.459400 0.000000
-19.435800 0.000000
-19.412200 0.000000
-19.388600 0.000000
-19.365000 0.000000
-19.341400 0.000000
-19.317800 0.000000
-19.294200 0.000000
-19.270600 0.000000
-19.247000 0.000000
-19.223400 0.000000
-19.199800 0.000000
-19.176200 0.000000
-19.152600 0.000000
-19.129000 0.000000
-19.105400 0.000000
-19.081800 0.000000
-19.058200 0.000000
-19.034700 0.000000
-19.011100 0.000000
-18.987500 0.000000
-18.963900 0.000000
-18.940300 0.000000
-18.916700 0.000000
-18.893100 0.000000
-18.869500 0.000000
-18.845900 0.000000
-18.822300 0.000000
-18.798700 0.000000
-18.775100 0.000000
-18.751500 0.000000
-18.727900 0.000000
-18.704300 0.000000
-18.680700 0.000000
-18.657100 0.000000
-18.633500 0.000000
-18.609900 0.000000
-18.586300 0.000000
-18.562700 0.000000
-18.539100 0.000000
-18.515500 0.000000
-18.491900 0.000000
-18.468300 0.000000
-18.444700 0.000000
-18.421200 0.000000
-18.397600 0.000000
-18.374000 0.000000
-18.350400 0.000000
-18.326800 0.000000
-18.303200 0.000000
-18.279600 0.000000
-18.256000 0.000000
-18.232400 0.000000
-18.208800 0.000000
-18.185200 0.000000
-18.161600 0.000000
-18.138000 0.000000
-18.114400 0.000000
-18.090800 0.000000
-18.067200 0.000000
-18.043600 0.000000
-18.020000 0.000000
-17.996400 0.000000
-17.972800 0.000000
-17.949200 0.000000
-17.925600 0.000000
-17.902000 0.000000
-17.878400 0.000000
-17.854800 0.000000
-17.831200 0.000000
-17.807700 0.000000
-17.784100 0.000000
-17.760500 0.000000
-17.736900 0.000000
-17.713300 0.000000
-17.689700 0.000000
-17.666100 0.000000
-17.642500 0.000000
-17.618900 0.000000
-17.595300 0.000000
-17.571700 0.000000
-17.548100 0.000000
-17.524500 0.000000
-17.500900 0.000000
-17.477300 0.000000
-17.453700 0.000000
-17.430100 0.000000
-17.406500 0.174800
-17.382900 0.262600
-17.359300 0.325900
-17.335700 0.395600
-17.312100 0.447200
-17.288500 0.498400
-17.264900 0.539200
-17.241300 0.586500
-17.217800 0.636700
-17.194200 0.676700
-17.170600 0.720300
-17.147000 0.759800
-17.123400 0.801000
-17.099800 0.843300
-17.076200 0.888500
-17.052600 0.933000
-17.029000 0.976400
-17.005400 1.021900
-16.981800 1.067300
-16.958200 1.115400
-16.934600 1.166800
-16.911000 1.220700
-16.887400 1.278400
-16.863800 1.342100
-16.840200 1.416600
-16.816600 1.510500
-16.793000 1.617700
-16.769400 1.770500
-16.745800 2.104700
-16.722200 2.364000
-16.698600 2.249400
-16.675000 2.031100
-16.651400 2.138900
-16.627800 2.181400
-16.604300 2.512000
-16.580700 1.237100
-16.557100 1.211000
-16.533500 1.108500
-16.509900 1.349800
-16.486300 1.344700
-16.462700 1.622000
-16.439100 2.678100
-16.415500 2.348200
-16.391900 1.897800
-16.368300 1.723500
-16.344700 1.632400
-16.321100 1.591000
-16.297500 1.566200
-16.273900 1.557200
-16.250300 1.530400
-16.226700 1.472700
-16.203100 1.426600
-16.179500 1.409700
-16.155900 1.361300
-16.132300 1.327500
-16.108700 1.290300
-16.085100 1.249600
-16.061500 1.190200
-16.037900 1.198200
-16.014400 1.147000
-15.990800 1.100600
-15.967200 0.962000
-15.943600 0.838700
-15.920000 0.755200
-15.896400 0.692500
-15.872800 0.636000
-15.849200 0.593000
-15.825600 0.615000
-15.802000 1.480700
-15.778400 4.736800
-15.754800 9.012600
-15.731200 9.160200
-15.707600 7.944100
-15.684000 6.013000
-15.660400 5.306400
-15.636800 5.219500
-15.613200 5.277900
-15.589600 5.786800
-15.566000 5.315000
-15.542400 5.002900
-15.518800 4.733900
-15.495200 4.643200
-15.471600 4.657900
-15.448000 4.423400
-15.424400 3.705600
-15.400900 3.906200
-15.377300 4.317400
-15.353700 4.073600
-15.330100 4.275000
-15.306500 4.873200
-15.282900 5.439300
-15.259300 3.873300
-15.235700 1.953400
-15.212100 2.674000
-15.188500 3.883100
-15.164900 5.664900
-15.141300 4.716400
-15.117700 4.375200
-15.094100 4.261800
-15.070500 4.485200
-15.046900 4.511100
-15.023300 4.623600
-14.999700 4.699900
-14.976100 1.630800
-14.952500 0.000000
-14.928900 0.000000
-14.905300 0.000000
-14.881700 0.000000
-14.858100 0.000000
-14.834500 0.000000
-14.810900 0.000000
-14.787400 0.000000
-14.763800 0.000000
-14.740200 0.000000
-14.716600 0.000000
-14.693000 0.000000
-14.669400 0.000000
-14.645800 0.000000
-14.622200 0.000000
-14.598600 0.000000
-14.575000 0.000000
-14.551400 0.000000
-14.527800 0.000000
-14.504200 0.000000
-14.480600 0.000000
-14.457000 0.000000
-14.433400 0.000000
-14.409800 0.000000
-14.386200 0.000000
-14.362600 0.000000
-14.339000 0.000000
-14.315400 0.000000
-14.291800 0.000000
-14.268200 0.000000
-14.244600 0.000000
-14.221000 0.000000
-14.197500 0.000000
-14.173900 0.000000
-14.150300 0.000000
-14.126700 0.000000
-14.103100 0.000000
-14.079500 0.000000
-14.055900 0.000000
-14.032300 0.000000
-14.008700 0.000000
-13.985100 0.000000
-13.961500 0.000000
-13.937900 0.000000
-13.914300 0.000000
-13.890700 0.000000
-13.867100 0.000000
-13.843500 0.000000
-13.819900 0.000000
-13.796300 0.000000
-13.772700 0.000000
-13.749100 0.000000
-13.725500 0.000000
-13.701900 0.000000
-13.678300 0.000000
-13.654700 0.000000
-13.631100 0.000000
-13.607500 0.000000
-13.584000 0.000000
-13.560400 0.000000
-13.536800 0.000000
-13.513200 0.000000
-13.489600 0.000000
-13.466000 0.000000
-13.442400 0.000000
-13.418800 0.000000
-13.395200 0.000000
-13.371600 0.000000
-13.348000 0.000000
-13.324400 0.000000
-13.300800 0.000000
-13.277200 0.000000
-13.253600 0.000000
-13.230000 0.000000
-13.206400 0.000000
-13.182800 0.000000
-13.159200 0.000000
-13.135600 0.000000
-13.112000 0.000000
-13.088400 0.000000
-13.064800 0.000000
-13.041200 0.000000
-13.017600 0.000000
-12.994000 0.000000
-12.970500 0.000000
-12.946900 0.000000
-12.923300 0.000000
-12.899700 0.000000
-12.876100 0.000000
-12.852500 0.000000
-12.828900 0.000000
-12.805300 0.000000
-12.781700 0.000000
-12.758100 0.000000
-12.734500 0.000000
-12.710900 0.000000
-12.687300 0.000000
-12.663700 0.000000
-12.640100 0.000000
-12.616500 0.000000
-12.592900 0.000000
-12.569300 0.000000
-12.545700 0.000000
-12.522100 0.000000
-12.498500 0.000000
-12.474900 0.000000
-12.451300 0.000000
-12.427700 0.000000
-12.404100 0.000000
-12.380600 0.000000
-12.357000 0.000000
-12.333400 0.000000
-12.309800 0.000000
-12.286200 0.000000
-12.262600 0.000000
-12.239000 0.000000
-12.215400 0.000000
-12.191800 0.000000
-12.168200 0.000000
-12.144600 0.000000
-12.121000 0.000000
-12.097400 0.000000
-12.073800 0.000000
-12.050200 0.000000
-12.026600 0.000000
-12.003000 0.000000
-11.979400 0.000000
-11.955800 0.000000
-11.932200 0.000000
-11.908600 0.000000
-11.885000 0.000000
-11.861400 0.000000
-11.837800 0.000000
-11.814200 0.000000
-11.790600 0.000000
-11.767100 0.000000
-11.743500 0.000000
-11.719900 0.000000
-11.696300 0.000000
-11.672700 0.000000
-11.649100 0.000000
-11.625500 0.000000
-11.601900 0.000000
-11.578300 0.000000
-11.554700 0.000000
-11.531100 0.000000
-11.507500 0.000000
-11.483900 0.000000
-11.460300 0.000000
-11.436700 0.000000
-11.413100 0.000000
-11.389500 0.000000
-11.365900 0.000000
-11.342300 0.000000
-11.318700 0.000000
-11.295100 0.000000
-11.271500 0.000000
-11.247900 0.000000
-11.224300 0.000000
-11.200700 0.000000
-11.177100 0.000000
-11.153600 0.000000
-11.130000 0.000000
-11.106400 0.000000
-11.082800 0.000000
-11.059200 0.000000
-11.035600 0.000000
-11.012000 0.000000
-10.988400 0.000000
-10.964800 0.000000
-10.941200 0.000000
-10.917600 0.000000
-10.894000 0.000000
-10.870400 0.000000
-10.846800 0.000000
-10.823200 0.000000
-10.799600 0.000000
-10.776000 0.000000
-10.752400 0.000000
-10.728800 0.000000
-10.705200 0.000000
-10.681600 0.000000
-10.658000 0.000000
-10.634400 0.000000
-10.610800 0.000000
-10.587200 0.000000
-10.563700 0.000000
-10.540100 0.000000
-10.516500 0.000000
-10.492900 0.000000
-10.469300 0.000000
-10.445700 0.000000
-10.422100 0.000000
-10.398500 0.000000
-10.374900 0.000000
-10.351300 0.000000
-10.327700 0.000000
-10.304100 0.000000
-10.280500 0.000000
-10.256900 0.000000
-10.233300 0.000000
-10.209700 0.000000
-10.186100 0.000000
-10.162500 0.000000
-10.138900 0.000000
-10.115300 0.000000
-10.091700 0.000000
-10.068100 0.000000
-10.044500 0.000000
-10.020900 0.000000
-9.997300 0.000000
-9.973700 0.000000
-9.950200 0.000000
-9.926600 0.000000
-9.903000 0.000000
-9.879400 0.000000
-9.855800 0.000000
-9.832200 0.000000
-9.808600 0.000000
-9.785000 0.000000
-9.761400 0.000000
-9.737800 0.000000
-9.714200 0.000000
-9.690600 0.000000
-9.667000 0.000000
-9.643400 0.000000
-9.619800 0.000000
-9.596200 0.000000
-9.572600 0.000000
-9.549000 0.000000
-9.525400 0.000000
-9.501800 0.000000
-9.478200 0.000000
-9.454600 0.000000
-9.431000 0.000000
-9.407400 0.000000
-9.383800 0.000000
-9.360300 0.000000
-9.336700 0.000000
-9.313100 0.000000
-9.289500 0.000000
-9.265900 0.000000
-9.242300 0.000000
-9.218700 0.000000
-9.195100 0.000000
-9.171500 0.000000
-9.147900 0.000000
-9.124300 0.000000
-9.100700 0.000000
-9.077100 0.000000
-9.053500 0.000000
-9.029900 0.000000
-9.006300 0.000000
-8.982700 0.000000
-8.959100 0.000000
-8.935500 0.000000
-8.911900 0.000000
-8.888300 0.000000
-8.864700 0.000000
-8.841100 0.000000
-8.817500 0.000000
-8.793900 0.000000
-8.770300 0.000000
-8.746800 0.000000
-8.723200 0.000000
-8.699600 0.000000
-8.676000 0.000000
-8.652400 0.000000
-8.628800 0.000000
-8.605200 0.000000
-8.581600 0.000000
-8.558000 0.000000
-8.534400 0.000000
-8.510800 0.000000
-8.487200 0.000000
-8.463600 0.000000
-8.440000 0.000000
-8.416400 0.000000
-8.392800 0.000000
-8.369200 0.000000
-8.345600 0.000000
-8.322000 0.000000
-8.298400 0.000000
-8.274800 0.000000
-8.251200 0.000000
-8.227600 0.000000
-8.204000 0.000000
-8.180400 0.000000
-8.156800 0.000000
-8.133300 0.000000
-8.109700 0.000000
-8.086100 0.000000
-8.062500 0.000000
-8.038900 0.000000
-8.015300 0.000000
-7.991700 0.000000
-7.968100 0.000000
-7.944500 0.000000
-7.920900 0.000000
-7.897300 0.000000
-7.873700 0.000000
-7.850100 0.000000
-7.826500 0.000000
-7.802900 0.000000
-7.779300 0.000000
-7.755700 0.000000
-7.732100 0.000000
-7.708500 0.000000
-7.684900 0.000000
-7.661300 0.000000
-7.637700 0.000000
-7.614100 0.000000
-7.590500 0.000000
-7.566900 0.000000
-7.543400 0.000000
-7.519800 0.000000
-7.496200 0.000000
-7.472600 0.000000
-7.449000 0.000000
-7.425400 0.000000
-7.401800 0.000000
-7.378200 0.000000
-7.354600 0.000000
-7.331000 0.000000
-7.307400 0.000000
-7.283800 0.000000
-7.260200 0.000000
-7.236600 0.000000
-7.213000 0.000000
-7.189400 0.000000
-7.165800 0.000000
-7.142200 0.000000
-7.118600 0.000000
-7.095000 0.000000
-7.071400 0.000000
-7.047800 0.000000
-7.024200 0.000000
-7.000600 0.000000
-6.977000 0.000000
-6.953400 0.000000
-6.929900 0.000000
-6.906300 0.000000
-6.882700 0.000000
-6.859100 0.000000
-6.835500 0.000000
-6.811900 0.000000
-6.788300 0.000000
-6.764700 0.020900
-6.741100 0.050200
-6.717500 0.073900
-6.693900 0.085000
-6.670300 0.097800
-6.646700 0.111900
-6.623100 0.122300
-6.599500 0.130200
-6.575900 0.141000
-6.552300 0.152300
-6.528700 0.162400
-6.505100 0.170800
-6.481500 0.179500
-6.457900 0.188600
-6.434300 0.197900
-6.410700 0.206400
-6.387100 0.214000
-6.363500 0.221800
-6.339900 0.230300
-6.316400 0.239100
-6.292800 0.248100
-6.269200 0.257300
-6.245600 0.265700
-6.222000 0.273800
-6.198400 0.282100
-6.174800 0.290600
-6.151200 0.299300
-6.127600 0.308200
-6.104000 0.316700
-6.080400 0.325100
-6.056800 0.333800
-6.033200 0.342700
-6.009600 0.351600
-5.986000 0.360700
-5.962400 0.370100
-5.938800 0.379600
-5.915200 0.389200
-5.891600 0.398800
-5.868000 0.408400
-5.844400 0.418200
-5.820800 0.428200
-5.797200 0.438300
-5.773600 0.448700
-5.750000 0.459300
-5.726500 0.470000
-5.702900 0.480800
-5.679300 0.491900
-5.655700 0.503400
-5.632100 0.515100
-5.608500 0.527100
-5.584900 0.539400
-5.561300 0.551900
-5.537700 0.564700
-5.514100 0.578000
-5.490500 0.592300
-5.466900 0.607700
-5.443300 0.624800
-5.419700 0.644700
-5.396100 0.664500
-5.372500 0.685200
-5.348900 0.706700
-5.325300 0.730200
-5.301700 0.777300
-5.278100 0.814400
-5.254500 0.892900
-5.230900 0.888700
-5.207300 0.891000
-5.183700 0.862300
-5.160100 0.848200
-5.136500 0.847700
-5.113000 0.867400
-5.089400 0.939300
-5.065800 1.013300
-5.042200 1.070500
-5.018600 1.119200
-4.995000 1.112500
-4.971400 1.085900
-4.947800 1.080600
-4.924200 1.157200
-4.900600 1.261800
-4.877000 1.322500
-4.853400 1.161600
-4.829800 1.046100
-4.806200 1.070200
-4.782600 0.934800
-4.759000 0.898600
-4.735400 0.858800
-4.711800 0.851300
-4.688200 0.866200
-4.664600 0.966800
-4.641000 1.043700
-4.617400 1.350500
-4.593800 1.322800
-4.570200 1.258600
-4.546600 1.236900
-4.523000 1.230300
-4.499500 1.276500
-4.475900 1.169700
-4.452300 1.130200
-4.428700 1.122300
-4.405100 1.106900
-4.381500 1.080600
-4.357900 1.056300
-4.334300 1.042500
-4.310700 1.034700
-4.287100 1.038700
-4.263500 1.048700
-4.239900 1.056500
-4.216300 1.052500
-4.192700 1.010700
-4.169100 1.015500
-4.145500 1.006800
-4.121900 0.980400
-4.098300 0.955800
-4.074700 0.950200
-4.051100 0.930300
-4.027500 0.959700
-4.003900 1.020500
-3.980300 0.966400
-3.956700 0.664800
-3.933100 0.532300
-3.909600 0.436900
-3.886000 0.372800
-3.862400 0.746000
-3.838800 0.681600
-3.815200 0.736200
-3.791600 0.819900
-3.768000 0.864500
-3.744400 0.924300
-3.720800 0.946900
-3.697200 0.967500
-3.673600 0.959700
-3.650000 0.986900
-3.626400 1.082800
-3.602800 1.178400
-3.579200 1.269700
-3.555600 1.364700
-3.532000 1.477100
-3.508400 1.608700
-3.484800 1.818000
-3.461200 2.000700
-3.437600 2.098400
-3.414000 2.140700
-3.390400 2.139600
-3.366800 2.180300
-3.343200 2.137100
-3.319600 2.205100
-3.296100 2.427000
-3.272500 2.391900
-3.248900 2.243200
-3.225300 2.071800
-3.201700 2.014000
-3.178100 1.951700
-3.154500 1.882800
-3.130900 1.921300
-3.107300 2.131200
-3.083700 2.353100
-3.060100 2.365200
-3.036500 2.170400
-3.012900 2.047700
-2.989300 1.971700
-2.965700 1.917400
-2.942100 1.887300
-2.918500 1.884100
-2.894900 1.869600
-2.871300 1.816100
-2.847700 1.790600
-2.824100 1.782400
-2.800500 1.772600
-2.776900 1.775800
-2.753300 1.780400
-2.729700 1.799800
-2.706100 1.877300
-2.682600 1.682500
-2.659000 1.271100
-2.635400 1.177100
-2.611800 0.997300
-2.588200 0.941600
-2.564600 0.873500
-2.541000 0.903400
-2.517400 0.981100
-2.493800 1.098900
-2.470200 1.242400
-2.446600 1.652900
-2.423000 2.025000
-2.399400 2.020400
-2.375800 2.035600
-2.352200 2.010600
-2.328600 2.230100
-2.305000 2.706200
-2.281400 3.001900
-2.257800 2.645200
-2.234200 2.896500
-2.210600 3.128900
-2.187000 3.053100
-2.163400 3.049200
-2.139800 2.792800
-2.116200 2.881600
-2.092700 2.979000
-2.069100 3.594900
-2.045500 4.183700
-2.021900 4.115100
-1.998300 3.992500
-1.974700 4.183800
-1.951100 4.388400
-1.927500 4.652000
-1.903900 3.305500
-1.880300 2.420900
-1.856700 1.343800
-1.833100 1.740500
-1.809500 2.657300
-1.785900 3.509800
-1.762300 3.960700
-1.738700 5.129400
-1.715100 3.281400
-1.691500 3.069000
-1.667900 2.651200
-1.644300 2.308900
-1.620700 2.289500
-1.597100 2.749300
-1.573500 3.062800
-1.549900 3.087200
-1.526300 4.073400
-1.502700 3.395500
-1.479200 3.246500
-1.455600 2.972000
-1.432000 2.872600
-1.408400 3.172200
-1.384800 2.538700
-1.361200 2.351600
-1.337600 2.288700
-1.314000 2.288000
-1.290400 2.316000
-1.266800 2.414600
-1.243200 2.515300
-1.219600 2.733300
-1.196000 3.172000
-1.172400 3.238000
-1.148800 3.443700
-1.125200 3.636000
-1.101600 3.223900
-1.078000 3.503200
-1.054400 3.313000
-1.030800 2.539500
-1.007200 2.063300
-0.983600 1.773400
-0.960000 1.522400
-0.936400 1.557400
-0.912800 1.549900
-0.889300 1.561800
-0.865700 1.602100
-0.842100 1.640800
-0.818500 1.681100
-0.794900 2.020100
-0.771300 2.171800
-0.747700 2.414400
-0.724100 2.757000
-0.700500 2.670000
-0.676900 2.996800
-0.653300 3.003700
-0.629700 2.821200
-0.606100 2.614400
-0.582500 2.488300
-0.558900 2.373600
-0.535300 2.391700
-0.511700 2.431500
-0.488100 2.476900
-0.464500 2.540900
-0.440900 2.627900
-0.417300 2.739600
-0.393700 3.064400
-0.370100 3.000600
-0.346500 2.365300
-0.322900 2.405700
-0.299300 2.589200
-0.275800 3.120800
-0.252200 2.929800
-0.228600 2.908200
-0.205000 3.276900
-0.181400 3.216300
-0.157800 2.789700
-0.134200 2.700500
-0.110600 2.447900
-0.087000 2.226400
-0.063400 2.247900
-0.039800 2.555500
-0.016200 2.877400
0.007400 3.510000
0.031000 3.659500
0.054600 3.927600
0.078200 3.384700
0.101800 3.306700
0.125400 3.462300
0.149000 3.360500
0.172600 3.522500
0.196200 3.480100
0.219800 3.505200
0.243400 3.388200
0.267000 3.457300
0.290600 3.468500
0.314200 3.421400
0.337700 3.477100
0.361300 3.539000
0.384900 3.845100
0.408500 4.516700
0.432100 4.545900
0.455700 5.149200
0.479300 4.913600
0.502900 5.033500
0.526500 5.348300
0.550100 5.323900
0.573700 5.945500
0.597300 6.730700
0.620900 6.336700
0.644500 6.293400
0.668100 5.897900
0.691700 5.666600
0.715300 4.809800
0.738900 4.462900
0.762500 4.266500
0.786100 4.276100
0.809700 4.911000
0.833300 5.742800
0.856900 6.077700
0.880500 6.305200
0.904100 6.496900
0.927600 5.749900
0.951200 5.025300
0.974800 4.862400
0.998400 4.740300
1.022000 4.160100
1.045600 3.951200
1.069200 3.829500
1.092800 3.699900
1.116400 3.822200
1.140000 3.754400
1.163600 3.807600
1.187200 3.626300
1.210800 3.157400
1.234400 2.601900
1.258000 2.813100
1.281600 2.218500
1.305200 2.282200
1.328800 3.017200
1.352400 3.298200
1.376000 3.498200
1.399600 3.475500
1.423200 3.062900
1.446800 2.876900
1.470400 2.757900
1.494000 2.662100
1.517600 2.590600
1.541100 2.555700
1.564700 2.545600
1.588300 2.512200
1.611900 2.508100
1.635500 2.424400
1.659100 2.337400
1.682700 2.233400
1.706300 2.192800
1.729900 2.136300
1.753500 2.327700
1.777100 1.737300
1.800700 0.269800
1.824300 0.000000
1.847900 0.000000
1.871500 0.000000
1.895100 0.000000
1.918700 0.000000
1.942300 0.000000
1.965900 0.000000
1.989500 0.000000
2.013100 0.000000
2.036700 0.000000
2.060300 0.000000
2.083900 0.000000
2.107500 0.000000
2.131100 0.000000
2.154600 0.000000
2.178200 0.000000
2.201800 0.000000
2.225400 0.000000
2.249000 0.000000
2.272600 0.000000
2.296200 0.000000
2.319800 0.000000
2.343400 0.000000
2.367000 0.000000
2.390600 0.000000
2.414200 0.000000
2.437800 0.000000
2.461400 0.000000
2.485000 0.000000
2.508600 0.000000
2.532200 0.000000
2.555800 0.000000
2.579400 0.000000
2.603000 0.000000
2.626600 0.000000
2.650200 0.000000
2.673800 0.000000
2.697400 0.000000
2.721000 0.000000
2.744500 0.000000
2.768100 0.000000
2.791700 0.000000
2.815300 0.000000
2.838900 0.000000
2.862500 0.000000
2.886100 0.000000
2.909700 0.000000
2.933300 0.000000
2.956900 0.000000
2.980500 0.000000
3.004100 0.000000
3.027700 0.000000
3.051300 0.000000
3.074900 0.000000
3.098500 0.000000
3.122100 0.000000
3.145700 0.000000
3.169300 0.000000
3.192900 0.000000
3.216500 0.000000
3.240100 0.000000
3.263700 0.000000
3.287300 0.000000
3.310900 0.000000
3.334500 0.000000
3.358000 0.000000
3.381600 0.000000
3.405200 0.000000
3.428800 0.000000
3.452400 0.000000
3.476000 0.000000
3.499600 0.000000
3.523200 0.000000
3.546800 0.000000
3.570400 0.000000
3.594000 0.000000
3.617600 0.000000
3.641200 0.000000
3.664800 0.000000
3.688400 0.000000
3.712000 0.000000
3.735600 0.000000
3.759200 0.000000
3.782800 0.000000
3.806400 0.000000
3.830000 0.000000
3.853600 0.000000
3.877200 0.000000
3.900800 0.000000
3.924400 0.000000
3.948000 0.000000
3.971500 0.000000
3.995100 0.000000
4.018700 0.000000
4.042300 0.000000
4.065900 0.000000
4.089500 0.000000
4.113100 0.000000
4.136700 0.000000
4.160300 0.000000
4.183900 0.000000
4.207500 0.000000
4.231100 0.000000
4.254700 0.000000
4.278300 0.000000
4.301900 0.000000
4.325500 0.000000
4.349100 0.000000
4.372700 0.000000
4.396300 0.000000
4.419900 0.000000
4.443500 0.000000
4.467100 0.000000
4.490700 0.000000
4.514300 0.000000
4.537900 0.000000
4.561400 0.000000
4.585000 0.000000
4.608600 0.000000
4.632200 0.000000
4.655800 0.000000
4.679400 0.000000
4.703000 0.000000
4.726600 0.000000
4.750200 0.000000
4.773800 0.000000
4.797400 0.000000
4.821000 0.000000
4.844600 0.000000
4.868200 0.000000
4.891800 0.000000
4.915400 0.000000
4.939000 0.000000
4.962600 0.000000
4.986200 0.000000
5.009800 0.000000
5.033400 0.000000
5.057000 0.000000
5.080600 0.000000
5.104200 0.000000
5.127800 0.000000
5.151400 0.000000
5.174900 0.000000
5.198500 0.000000
5.222100 0.000000
5.245700 0.000000
5.269300 0.000000
5.292900 0.000000
5.316500 0.000000
5.340100 0.000000
5.363700 0.000000
5.387300 0.000000
5.410900 0.000000
5.434500 0.000000
5.458100 0.000000
5.481700 0.000000
5.505300 0.000000
5.528900 0.000000
5.552500 0.000000
5.576100 0.000000
5.599700 0.000000
5.623300 0.000000
5.646900 0.000000
5.670500 0.000000
5.694100 0.000000
5.717700 0.000000
5.741300 0.000000
5.764900 0.000000
5.788400 0.000000
5.812000 0.000000
5.835600 0.000000
5.859200 0.000000
5.882800 0.000000
5.906400 0.000000
5.930000 0.000000
5.953600 0.000000
5.977200 0.000000
6.000800 0.000000
6.024400 0.000000
6.048000 0.000000
6.071600 0.000000
6.095200 0.000000
6.118800 0.000000
6.142400 0.000000
6.166000 0.000000
6.189600 0.000000
6.213200 0.000000
6.236800 0.000000
6.260400 0.000000
6.284000 0.000000
6.307600 0.000000
6.331200 0.000000
6.354800 0.000000
6.378300 0.000000
6.401900 0.000000
6.425500 0.000000
6.449100 0.000000
6.472700 0.000000
6.496300 0.000000
6.519900 0.000000
6.543500 0.000000
6.567100 0.000000
6.590700 0.000000
6.614300 0.000000
6.637900 0.000000
6.661500 0.000000
6.685100 0.000000
6.708700 0.000000
6.732300 0.000000
6.755900 0.000000
6.779500 0.000000
6.803100 0.000000
6.826700 0.000000
6.850300 0.000000
6.873900 0.000000
6.897500 0.000000
6.921100 0.000000
6.944700 0.000000
6.968300 0.000000
6.991800 0.000000
7.015400 0.000000
7.039000 0.000000
7.062600 0.000000
7.086200 0.000000
7.109800 0.000000
7.133400 0.000000
7.157000 0.000000
7.180600 0.000000
7.204200 0.000000
7.227800 0.000000
7.251400 0.000000
7.275000 0.000000
7.298600 0.000000
7.322200 0.000000
7.345800 0.000000
7.369400 0.000000
7.393000 0.000000
7.416600 0.000000
7.440200 0.000000
7.463800 0.000000
7.487400 0.000000
7.511000 0.000000
7.534600 0.000000
7.558200 0.000000
7.581700 0.000000
7.605300 0.000000
7.628900 0.000000
7.652500 0.000000
7.676100 0.000000
7.699700 0.000000
7.723300 0.000000
7.746900 0.000000
7.770500 0.000000
7.794100 0.000000
7.817700 0.000000
7.841300 0.000000
7.864900 0.000000
7.888500 0.000000
7.912100 0.000000
7.935700 0.000000
7.959300 0.000000
7.982900 0.000000
8.006500 0.000000
8.030100 0.000000
8.053700 0.000000
8.077300 0.000000
8.100900 0.000000
8.124500 0.000000
8.148100 0.000000
8.171700 0.000000
8.195200 0.000000
8.218800 0.000000
8.242400 0.000000
8.266000 0.004700
8.289600 0.016400
8.313200 0.026700
8.336800 0.035500
8.360400 0.042800
8.384000 0.046800
8.407600 0.051000
8.431200 0.055700
8.454800 0.060900
8.478400 0.066100
8.502000 0.070700
8.525600 0.074600
8.549200 0.077800
8.572800 0.081400
8.596400 0.085600
8.620000 0.089800
8.643600 0.094200
8.667200 0.098000
8.690800 0.101400
8.714400 0.105000
8.738000 0.108600
8.761600 0.112300
8.785200 0.116100
8.808700 0.119900
8.832300 0.123800
8.855900 0.127600
8.879500 0.131300
8.903100 0.134700
8.926700 0.138100
8.950300 0.141800
8.973900 0.145600
8.997500 0.149400
9.021100 0.153200
9.044700 0.157100
9.068300 0.161000
9.091900 0.164900
9.115500 0.168600
9.139100 0.172300
9.162700 0.176000
9.186300 0.179800
9.209900 0.183700
9.233500 0.187500
9.257100 0.191500
9.280700 0.195400
9.304300 0.199400
9.327900 0.203500
9.351500 0.207500
9.375100 0.211600
9.398600 0.215600
9.422200 0.219700
9.445800 0.223800
9.469400 0.228000
9.493000 0.232200
9.516600 0.236500
9.540200 0.240700
9.563800 0.245000
9.587400 0.249400
9.611000 0.253800
9.634600 0.258200
9.658200 0.262600
9.681800 0.267100
9.705400 0.271700
9.729000 0.276300
9.752600 0.280900
9.776200 0.285500
9.799800 0.290200
9.823400 0.294900
9.847000 0.299700
9.870600 0.304500
9.894200 0.309300
9.917800 0.314300
9.941400 0.319400
9.965000 0.324600
9.988600 0.329800
10.012100 0.335000
10.035700 0.340300
10.059300 0.345700
10.082900 0.351100
10.106500 0.356500
10.130100 0.362000
10.153700 0.367500
10.177300 0.373100
10.200900 0.397400
10.224500 0.423700
10.248100 0.444100
10.271700 0.458200
10.295300 0.472500
10.318900 0.488100
10.342500 0.504700
10.366100 0.520600
10.389700 0.536300
10.413300 0.551100
10.436900 0.567500
10.460500 0.584700
10.484100 0.610900
10.507700 0.634400
10.531300 0.654200
10.554900 0.670200
10.578500 0.682200
10.602100 0.695600
10.625600 0.726400
10.649200 0.744300
10.672800 0.750600
10.696400 0.709000
10.720000 0.703700
10.743600 0.702100
10.767200 0.704300
10.790800 0.712700
10.814400 0.727900
10.838000 0.747300
10.861600 0.780400
10.885200 0.821300
10.908800 0.882100
10.932400 0.929200
10.956000 0.943800
10.979600 0.972700
11.003200 1.009800
11.026800 1.059500
11.050400 1.121200
11.074000 1.197200
11.097600 1.209300
11.121200 1.264100
11.144800 1.312000
11.168400 1.367100
11.192000 1.437600
11.215500 1.538400
11.239100 1.650600
11.262700 1.724100
11.286300 1.794600
11.309900 1.810600
11.333500 1.859900
11.357100 1.830400
11.380700 1.844900
11.404300 1.937700
11.427900 1.932600
11.451500 1.930500
11.475100 1.893500
11.498700 1.890800
11.522300 1.946800
11.545900 2.057000
11.569500 2.190500
11.593100 2.255400
11.616700 2.340200
11.640300 2.465100
11.663900 2.638600
11.687500 2.493800
11.711100 2.429800
11.734700 2.278600
11.758300 2.085500
11.781900 1.789000
11.805500 1.458000
11.829000 1.226500
11.852600 1.145200
11.876200 0.984700
11.899800 1.227600
11.923400 1.677400
11.947000 1.905100
11.970600 2.197700
11.994200 2.347700
12.017800 2.484900
12.041400 2.244100
12.065000 2.100900
12.088600 1.850800
12.112200 1.446900
12.135800 1.206700
12.159400 1.181700
12.183000 1.349900
12.206600 1.626700
12.230200 1.659700
12.253800 1.315400
12.277400 1.234600
12.301000 1.221500
12.324600 1.370500
12.348200 1.421300
12.371800 1.427800
12.395400 1.386300
12.419000 1.356500
12.442500 1.374100
12.466100 1.439000
12.489700 1.498600
12.513300 1.432400
12.536900 1.251400
12.560500 1.162900
12.584100 1.116800
12.607700 1.090400
12.631300 1.059800
12.654900 1.025500
12.678500 0.989500
12.702100 0.951400
12.725700 0.923500
12.749300 0.908600
12.772900 0.899200
12.796500 0.874900
12.820100 0.830100
12.843700 0.768800
12.867300 0.752200
12.890900 0.724100
12.914500 0.699300
12.938100 0.681900
12.961700 0.658200
12.985300 0.624700
13.008900 0.591200
13.032400 0.557200
13.056000 0.524000
13.079600 0.493700
13.103200 0.462900
13.126800 0.456200
13.150400 0.442600
13.174000 0.428300
13.197600 0.414600
13.221200 0.403800
13.244800 0.396600
13.268400 0.398500
13.292000 0.415300
13.315600 0.448400
13.339200 0.495400
13.362800 0.551100
13.386400 0.596100
13.410000 0.626500
13.433600 0.611400
13.457200 0.619400
13.480800 0.637300
13.504400 0.666500
13.528000 0.720700
13.551600 0.783900
13.575200 0.887000
13.598800 0.962900
13.622400 1.008900
13.645900 1.049200
13.669500 1.085600
13.693100 1.110700
13.716700 1.121400
13.740300 1.137500
13.763900 1.161600
13.787500 1.181300
13.811100 1.281600
13.834700 1.357800
13.858300 1.418800
13.881900 1.469100
13.905500 1.476700
13.929100 1.518600
13.952700 1.571800
13.976300 1.631500
13.999900 1.700500
14.023500 1.791600
14.047100 1.927700
14.070700 2.111200
14.094300 2.296100
14.117900 2.249700
14.141500 2.227500
14.165100 2.157700
14.188700 1.767000
14.212300 1.570300
14.235800 1.569600
14.259400 1.583400
14.283000 1.602500
14.306600 1.643800
14.330200 1.869300
14.353800 1.811400
14.377400 1.852500
14.401000 1.949700
14.424600 2.090000
14.448200 2.115700
14.471800 2.048900
14.495400 1.940600
14.519000 1.852500
14.542600 1.830000
14.566200 1.824000
14.589800 1.856800
14.613400 2.054600
14.637000 2.405800
14.660600 2.441500
14.684200 2.261800
14.707800 2.462100
14.731400 2.364100
14.755000 2.384600
14.778600 2.138000
14.802200 1.852300
14.825800 1.715600
14.849300 1.655100
14.872900 1.634500
14.896500 1.724600
14.920100 1.594300
14.943700 1.622500
14.967300 1.777800
14.990900 2.091900
15.014500 2.362700
15.038100 2.381800
15.061700 2.335500
15.085300 2.268200
15.108900 2.573300
15.132500 1.787900
15.156100 1.609500
15.179700 1.484100
15.203300 2.450400
15.226900 2.275900
15.250500 2.333500
15.274100 2.324400
15.297700 2.131800
15.321300 2.111000
15.344900 2.073100
15.368500 2.084200
15.392100 2.050300
15.415700 2.085500
15.439300 2.216700
15.462800 2.489700
15.486400 2.576400
15.510000 2.420500
15.533600 2.323600
15.557200 2.248000
15.580800 2.269600
15.604400 2.416500
15.628000 2.345300
15.651600 2.333800
15.675200 2.756100
15.698800 2.865800
15.722400 2.707000
15.746000 2.815500
15.769600 2.556200
15.793200 2.604400
15.816800 2.781200
15.840400 2.966200
15.864000 3.145900
15.887600 3.205400
15.911200 3.273300
15.934800 3.853600
15.958400 3.334400
15.982000 3.099200
16.005600 3.162000
16.029200 3.471700
16.052700 4.164400
16.076300 4.195100
16.099900 4.620600
16.123500 4.795300
16.147100 4.760000
16.170700 4.939200
16.194300 5.478900
16.217900 6.164100
16.241500 5.683400
16.265100 5.425800
16.288700 5.172000
16.312300 5.417200
16.335900 5.226800
16.359500 4.326900
16.383100 4.595100
16.406700 4.021300
16.430300 4.281800
16.453900 4.216900
16.477500 4.748200
16.501100 5.616400
16.524700 3.675300
16.548300 3.572400
16.571900 3.490200
16.595500 3.194500
16.619100 3.338000
16.642700 3.691000
16.666200 3.409900
16.689800 3.076500
16.713400 3.059800
16.737000 3.362700
16.760600 4.048900
16.784200 5.383700
16.807800 6.379900
16.831400 5.456700
16.855000 4.784900
16.878600 4.102700
16.902200 3.792500
16.925800 5.295300
16.949400 6.638600
16.973000 4.548100
16.996600 4.422500
17.020200 3.934900
17.043800 3.489900
17.067400 2.884900
17.091000 2.090000
17.114600 1.452400
17.138200 1.297500
17.161800 1.196600
17.185400 1.539600
17.209000 1.887000
17.232600 1.793200
17.256200 2.175000
17.279700 2.892800
17.303300 2.680800
17.326900 2.757600
17.350500 2.855800
17.374100 2.747700
17.397700 2.897000
17.421300 3.063200
17.444900 3.142600
17.468500 2.768300
17.492100 2.496200
17.515700 2.242600
17.539300 2.103100
17.562900 0.827400
17.586500 0.755400
17.610100 0.873600
17.633700 1.649700
17.657300 2.332800
17.680900 3.022900
17.704500 3.340200
17.728100 3.369400
17.751700 3.360700
17.775300 2.796000
17.798900 2.379200
17.822500 2.123000
17.846100 1.810600
17.869600 1.561600
17.893200 1.384400
17.916800 1.282700
17.940400 1.245100
17.964000 1.341900
17.987600 1.635900
18.011200 2.064600
18.034800 2.279100
18.058400 2.496900
18.082000 2.511500
18.105600 2.466500
18.129200 2.212300
18.152800 1.922700
18.176400 1.738300
18.200000 1.745800
18.223600 1.667700
18.247200 1.663800
18.270800 1.662500
18.294400 1.719800
18.318000 1.870200
18.341600 1.954600
18.365200 1.939800
18.388800 1.926300
18.412400 1.903900
18.436000 1.924700
18.459600 1.988600
18.483100 1.996400
18.506700 2.046000
18.530300 1.993100
18.553900 2.012400
18.577500 2.039000
18.601100 2.036700
18.624700 1.997500
18.648300 1.991300
18.671900 1.857000
18.695500 1.685400
18.719100 1.751800
18.742700 1.793900
18.766300 1.747400
18.789900 1.858200
18.813500 2.005000
18.837100 2.119400
18.860700 2.258300
18.884300 2.446900
18.907900 3.144100
18.931500 2.471400
18.955100 2.041800
18.978700 1.883500
19.002300 1.745000
19.025900 1.652000
19.049500 1.576500
19.073100 1.570300
19.096600 1.506900
19.120200 1.447800
19.143800 1.371000
19.167400 1.319500
19.191000 1.283600
19.214600 1.292400
19.238200 1.322800
19.261800 1.379900
19.285400 1.498200
19.309000 1.614300
19.332600 1.768000
19.356200 1.930600
19.379800 1.962300
19.403400 1.886600
19.427000 1.813900
19.450600 1.742300
19.474200 1.608300
19.497800 1.710400
19.521400 1.700000
19.545000 1.709900
19.568600 1.700200
19.592200 1.667300
19.615800 1.564400
19.639400 1.623100
19.663000 1.704500
19.686500 1.748900
19.710100 1.781500
19.733700 1.731800
19.757300 1.576900
19.780900 1.466100
19.804500 1.381000
19.828100 1.291000
19.851700 1.185200
19.875300 1.081800
19.898900 0.978900
19.922500 0.870000
19.946100 0.778800
19.969700 0.710100
19.993300 0.641700
20.016900 0.603700
20.040500 0.588000
20.064100 0.572700
20.087700 0.557700
20.111300 0.542800
20.134900 0.528000
20.158500 0.513300
20.182100 0.500000
20.205700 0.492500
20.229300 0.491700
20.252900 0.562600
20.276500 0.544600
20.300000 0.571200
20.323600 0.598600
20.347200 0.626500
20.370800 0.655000
20.394400 0.680900
20.418000 0.706500
20.441600 0.739500
20.465200 0.946700
20.488800 1.059400
20.512400 1.196300
20.536000 1.238400
20.559600 1.329900
20.583200 1.427700
20.606800 1.532900
20.630400 1.804700
20.654000 1.970500
20.677600 2.379300
20.701200 2.227600
20.724800 2.274600
20.748400 2.113300
20.772000 1.898400
20.795600 1.832400
20.819200 1.770500
20.842800 1.715200
20.866400 1.776800
20.890000 1.662700
20.913500 1.601000
20.937100 1.520000
20.960700 1.450400
20.984300 1.387900
21.007900 1.338700
21.031500 1.304700
21.055100 1.275900
21.078700 1.250400
21.102300 1.226900
21.125900 1.206200
21.149500 1.188500
21.173100 1.171800
21.196700 1.155500
21.220300 1.139000
21.243900 1.124600
21.267500 1.111300
21.291100 1.099100
21.314700 1.087500
21.338300 1.076300
21.361900 1.064600
21.385500 1.053200
21.409100 1.042400
21.432700 1.032300
21.456300 1.023200
21.479900 1.015400
21.503400 1.009200
21.527000 1.003800
21.550600 0.999000
21.574200 0.993600
21.597800 0.986000
21.621400 0.980500
21.645000 0.986200
21.668600 0.997700
21.692200 1.039200
21.715800 1.042300
21.739400 1.047200
21.763000 1.045700
21.786600 1.033400
21.810200 1.018500
21.833800 1.005100
21.857400 1.001900
21.881000 0.993600
21.904600 0.943300
21.928200 0.919000
21.951800 0.913100
21.975400 1.004400
21.999000 1.018800
22.022600 1.030100
22.046200 1.053900
22.069800 1.111100
22.093400 1.405800
22.116900 1.507800
22.140500 1.527800
22.164100 1.381700
22.187700 1.297400
22.211300 1.327600
22.234900 1.326300
22.258500 1.315200
22.282100 1.305200
22.305700 1.296600
22.329300 1.289700
22.352900 1.365700
22.376500 1.367000
22.400100 1.360800
22.423700 1.356800
22.447300 1.393200
22.470900 1.435700
22.494500 1.451200
22.518100 1.487700
22.541700 1.582100
22.565300 1.422500
22.588900 1.378600
22.612500 1.343400
22.636100 1.299800
22.659700 1.257600
22.683300 1.234800
22.706800 1.228700
22.730400 1.222100
22.754000 1.211000
22.777600 1.214800
22.801200 1.224100
22.824800 1.244300
22.848400 1.272700
22.872000 1.306900
22.895600 1.350100
22.919200 1.391700
22.942800 1.446000
22.966400 1.517100
22.990000 1.546500
23.013600 1.541700
23.037200 1.513800
23.060800 1.501800
23.084400 1.486300
23.108000 1.416600
23.131600 1.274000
23.155200 1.185100
23.178800 1.159400
23.202400 1.085500
23.226000 1.064100
23.249600 1.159300
23.273200 1.299100
23.296800 1.471300
23.320300 1.570300
23.343900 1.622300
23.367500 1.644600
23.391100 1.617200
23.414700 1.544100
23.438300 1.576100
23.461900 1.560100
23.485500 1.504000
23.509100 1.440200
23.532700 1.361700
23.556300 1.432800
23.579900 1.380600
23.603500 1.057300
23.627100 0.896900
23.650700 0.801800
23.674300 0.660400
23.697900 0.504600
23.721500 0.394500
23.745100 0.320000
23.768700 0.269300
23.792300 0.235800
23.815900 0.232400
23.839500 0.198700
23.863100 0.154700
23.886700 0.115900
23.910300 0.078700
23.933800 0.043200
23.957400 0.020200
23.981000 0.012600
24.004600 0.007000
24.028200 0.002800
24.051800 0.001100
24.075400 0.000100
24.099000 0.000000
24.122600 0.000000
24.146200 0.000000
24.169800 0.000000
24.193400 0.000000
24.217000 0.000000
24.240600 0.000000
24.264200 0.000000
24.287800 0.000000
24.311400 0.000000
24.335000 0.000000
24.358600 0.000000
24.382200 0.000000
24.405800 0.000000
24.429400 0.000000
24.453000 0.000000
24.476600 0.000000
24.500200 0.000000
24.523700 0.000000
24.547300 0.000000
24.570900 0.000000
24.594500 0.000000
24.618100 0.000000
24.641700 0.000000
24.665300 0.000000
24.688900 0.000000
24.712500 0.000000
24.736100 0.000000
24.759700 0.000000
24.783300 0.000000
24.806900 0.000000
24.830500 0.000000
24.854100 0.000000
24.877700 0.000000
24.901300 0.000000
24.924900 0.000000
24.948500 0.000000
24.972100 0.000000
24.995700 0.000000
25.019300 0.000000
25.042900 0.000000
25.066500 0.000000
25.090100 0.000000
25.113700 0.000000
25.137200 0.000000
25.160800 0.000000
25.184400 0.000000
25.208000 0.000000
25.231600 0.000000
25.255200 0.000000
25.278800 0.000000
25.302400 0.000000
25.326000 0.000000
25.349600 0.000000
25.373200 0.000000
25.396800 0.000000
25.420400 0.000000
25.444000 0.000000
25.467600 0.000000
25.491200 0.000000
25.514800 0.000000
25.538400 0.000000
25.562000 0.000000
25.585600 0.000000
25.609200 0.000000
25.632800 0.000000
25.656400 0.000000
25.680000 0.000000
25.703600 0.000000
25.727200 0.000000
25.750700 0.000000
25.774300 0.000000
25.797900 0.000000
25.821500 0.000000
25.845100 0.000000
25.868700 0.000000
25.892300 0.000000
25.915900 0.000000
25.939500 0.000000
25.963100 0.000000
25.986700 0.000000
26.010300 0.000000
26.033900 0.000000
26.057500 0.000000
26.081100 0.000000
26.104700 0.000000
26.128300 0.000000
26.151900 0.000000
26.175500 0.000000
26.199100 0.000000
26.222700 0.000000
e
