set title 'mp-1220519 - Density of States'
set xlabel 'Energy (eV)'
set ylabel 'DOS (states/eV)'
set grid
set xrange [-10:10]
set yrange [0:12.493]
set xzeroaxis lt -1
set terminal png size 800,600
set output 'mp-1220519_dos_gnuplot.png'
plot '-' using 1:2 with lines title 'DOS'
-31.843300 0.000000
-31.814700 0.000000
-31.786200 0.000000
-31.757700 0.000000
-31.729100 0.000000
-31.700600 0.000000
-31.672100 0.000000
-31.643500 0.000000
-31.615000 0.000000
-31.586500 0.000000
-31.557900 0.000000
-31.529400 0.000000
-31.500900 0.000000
-31.472300 0.000000
-31.443800 0.000000
-31.415300 0.000000
-31.386700 0.000000
-31.358200 0.000000
-31.329700 0.000000
-31.301100 0.000000
-31.272600 0.000000
-31.244100 0.000000
-31.215500 0.000000
-31.187000 0.000000
-31.158400 0.000000
-31.129900 0.000000
-31.101400 0.000000
-31.072800 0.000000
-31.044300 0.000000
-31.015800 0.000000
-30.987200 0.000000
-30.958700 0.000000
-30.930200 0.000000
-30.901600 0.000000
-30.873100 0.000000
-30.844600 0.000000
-30.816000 0.000000
-30.787500 0.000000
-30.759000 0.000000
-30.730400 0.000000
-30.701900 0.000000
-30.673400 0.000000
-30.644800 0.000000
-30.616300 0.000000
-30.587800 0.000000
-30.559200 0.000000
-30.530700 0.000000
-30.502200 0.000000
-30.473600 0.000000
-30.445100 0.000000
-30.416500 0.000000
-30.388000 0.000000
-30.359500 0.000000
-30.330900 0.000000
-30.302400 0.000000
-30.273900 0.000000
-30.245300 0.000000
-30.216800 0.000000
-30.188300 0.000000
-30.159700 0.000000
-30.131200 0.000000
-30.102700 0.000000
-30.074100 0.000000
-30.045600 0.000000
-30.017100 0.000000
-29.988500 0.000000
-29.960000 0.000000
-29.931500 0.000000
-29.902900 0.000000
-29.874400 0.000000
-29.845900 0.000000
-29.817300 0.000000
-29.788800 0.000000
-29.760200 0.000000
-29.731700 0.000000
-29.703200 0.000000
-29.674600 0.000000
-29.646100 0.000000
-29.617600 0.000000
-29.589000 0.000000
-29.560500 0.000000
-29.532000 0.000000
-29.503400 0.000000
-29.474900 0.000000
-29.446400 0.000000
-29.417800 0.000000
-29.389300 0.000000
-29.360800 0.000000
-29.332200 0.000000
-29.303700 0.000000
-29.275200 0.000000
-29.246600 0.440900
-29.218100 0.669300
-29.189600 1.187500
-29.161000 1.397900
-29.132500 1.530100
-29.104000 1.618200
-29.075400 1.683800
-29.046900 1.891900
-29.018300 1.827900
-28.989800 2.088900
-28.961300 2.306000
-28.932700 2.566300
-28.904200 2.669300
-28.875700 2.802500
-28.847100 3.134400
-28.818600 3.975300
-28.790100 5.195700
-28.761500 6.181800
-28.733000 12.025800
-28.704500 6.406800
-28.675900 5.752500
-28.647400 5.219300
-28.618900 4.794000
-28.590300 4.669000
-28.561800 4.566600
-28.533300 7.024000
-28.504700 6.576200
-28.476200 5.987700
-28.447700 7.410400
-28.419100 8.082500
-28.390600 6.808000
-28.362100 6.788400
-28.333500 7.329800
-28.305000 12.486500
-28.276400 8.268300
-28.247900 14.175100
-28.219400 12.444400
-28.190800 10.717500
-28.162300 8.694700
-28.133800 8.270100
-28.105200 14.310000
-28.076700 105.182600
-28.048200 5.301600
-28.019600 10.559100
-27.991100 8.828300
-27.962600 5.892300
-27.934000 6.602800
-27.905500 8.463800
-27.877000 8.070200
-27.848400 3.621200
-27.819900 3.427200
-27.791400 3.398600
-27.762800 3.394300
-27.734300 3.395900
-27.705800 3.395900
-27.677200 3.452200
-27.648700 3.518700
-27.620100 3.561800
-27.591600 3.666900
-27.563100 3.772600
-27.534500 3.919900
-27.506000 4.083800
-27.477500 4.233600
-27.448900 4.458000
-27.420400 4.724000
-27.391900 5.261700
-27.363300 5.785000
-27.334800 6.487700
-27.306300 10.130500
-27.277700 6.880800
-27.249200 5.415100
-27.220700 3.899400
-27.192100 3.451600
-27.163600 2.984100
-27.135100 2.237800
-27.106500 2.236800
-27.078000 1.488300
-27.049500 0.000000
-27.020900 0.000000
-26.992400 0.000000
-26.963900 0.000000
-26.935300 0.000000
-26.906800 0.000000
-26.878200 0.000000
-26.849700 0.000000
-26.821200 0.000000
-26.792600 0.000000
-26.764100 0.000000
-26.735600 0.000000
-26.707000 0.000000
-26.678500 0.000000
-26.650000 0.000000
-26.621400 0.000000
-26.592900 0.000000
-26.564400 0.000000
-26.535800 0.000000
-26.507300 0.000000
-26.478800 0.000000
-26.450200 0.000000
-26.421700 0.000000
-26.393200 0.000000
-26.364600 0.000000
-26.336100 0.000000
-26.307600 0.000000
-26.279000 0.000000
-26.250500 0.000000
-26.222000 0.000000
-26.193400 0.000000
-26.164900 0.000000
-26.136300 0.000000
-26.107800 0.000000
-26.079300 0.000000
-26.050700 0.000000
-26.022200 0.000000
-25.993700 0.000000
-25.965100 0.000000
-25.936600 0.000000
-25.908100 0.000000
-25.879500 0.000000
-25.851000 0.000000
-25.822500 0.000000
-25.793900 0.000000
-25.765400 0.000000
-25.736900 0.000000
-25.708300 0.000000
-25.679800 0.000000
-25.651300 0.000000
-25.622700 0.000000
-25.594200 0.000000
-25.565700 0.000000
-25.537100 0.000000
-25.508600 0.000000
-25.480000 0.000000
-25.451500 0.000000
-25.423000 0.000000
-25.394400 0.000000
-25.365900 0.000000
-25.337400 0.000000
-25.308800 0.000000
-25.280300 0.000000
-25.251800 0.000000
-25.223200 0.000000
-25.194700 0.000000
-25.166200 0.000000
-25.137600 0.000000
-25.109100 0.000000
-25.080600 0.000000
-25.052000 0.000000
-25.023500 0.000000
-24.995000 0.000000
-24.966400 0.000000
-24.937900 0.000000
-24.909400 0.000000
-24.880800 0.000000
-24.852300 0.000000
-24.823800 0.000000
-24.795200 0.000000
-24.766700 0.000000
-24.738100 0.000000
-24.709600 0.000000
-24.681100 0.000000
-24.652500 0.000000
-24.624000 0.000000
-24.595500 0.000000
-24.566900 0.000000
-24.538400 0.000000
-24.509900 0.000000
-24.481300 0.000000
-24.452800 0.000000
-24.424300 0.000000
-24.395700 0.000000
-24.367200 0.000000
-24.338700 0.000000
-24.310100 0.000000
-24.281600 0.000000
-24.253100 0.000000
-24.224500 0.000000
-24.196000 0.000000
-24.167500 0.000000
-24.138900 0.000000
-24.110400 0.000000
-24.081900 0.000000
-24.053300 0.000000
-24.024800 0.000000
-23.996200 0.000000
-23.967700 0.000000
-23.939200 0.000000
-23.910600 0.000000
-23.882100 0.000000
-23.853600 0.000000
-23.825000 0.000000
-23.796500 0.000000
-23.768000 0.000000
-23.739400 0.000000
-23.710900 0.000000
-23.682400 0.000000
-23.653800 0.000000
-23.625300 0.000000
-23.596800 0.000000
-23.568200 0.000000
-23.539700 0.000000
-23.511200 0.000000
-23.482600 0.000000
-23.454100 0.000000
-23.425600 0.000000
-23.397000 0.000000
-23.368500 0.000000
-23.339900 0.000000
-23.311400 0.000000
-23.282900 0.000000
-23.254300 0.000000
-23.225800 0.000000
-23.197300 0.000000
-23.168700 0.000000
-23.140200 0.000000
-23.111700 0.000000
-23.083100 0.000000
-23.054600 0.000000
-23.026100 0.000000
-22.997500 0.000000
-22.969000 0.000000
-22.940500 0.000000
-22.911900 0.000000
-22.883400 0.000000
-22.854900 0.000000
-22.826300 0.000000
-22.797800 0.000000
-22.769300 0.000000
-22.740700 0.000000
-22.712200 0.000000
-22.683700 0.000000
-22.655100 0.000000
-22.626600 0.000000
-22.598000 0.000000
-22.569500 0.000000
-22.541000 0.000000
-22.512400 0.000000
-22.483900 0.000000
-22.455400 0.000000
-22.426800 0.000000
-22.398300 0.000000
-22.369800 0.000000
-22.341200 0.000000
-22.312700 0.000000
-22.284200 0.000000
-22.255600 0.000000
-22.227100 0.000000
-22.198600 0.000000
-22.170000 0.000000
-22.141500 0.000000
-22.113000 0.000000
-22.084400 0.000000
-22.055900 0.000000
-22.027400 0.000000
-21.998800 0.000000
-21.970300 0.000000
-21.941800 0.000000
-21.913200 0.000000
-21.884700 0.000000
-21.856100 0.000000
-21.827600 0.000000
-21.799100 0.000000
-21.770500 0.000000
-21.742000 0.000000
-21.713500 0.000000
-21.684900 0.000000
-21.656400 0.000000
-21.627900 0.000000
-21.599300 0.000000
-21.570800 0.000000
-21.542300 0.000000
-21.513700 0.000000
-21.485200 0.000000
-21.456700 0.000000
-21.428100 0.000000
-21.399600 0.000000
-21.371100 0.000000
-21.342500 0.000000
-21.314000 0.000000
-21.285500 0.000000
-21.256900 0.000000
-21.228400 0.000000
-21.199800 0.000000
-21.171300 0.000000
-21.142800 0.000000
-21.114200 0.000000
-21.085700 0.000000
-21.057200 0.000000
-21.028600 0.000000
-21.000100 0.000000
-20.971600 0.000000
-20.943000 0.000000
-20.914500 0.000000
-20.886000 0.000000
-20.857400 0.000000
-20.828900 0.000000
-20.800400 0.000000
-20.771800 0.000000
-20.743300 0.000000
-20.714800 0.000000
-20.686200 0.000000
-20.657700 0.000000
-20.629200 0.000000
-20.600600 0.000000
-20.572100 0.000000
-20.543600 0.000000
-20.515000 0.000000
-20.486500 0.000000
-20.457900 0.000000
-20.429400 0.000000
-20.400900 0.000000
-20.372300 0.000000
-20.343800 0.000000
-20.315300 0.000000
-20.286700 0.000000
-20.258200 0.000000
-20.229700 0.000000
-20.201100 0.000000
-20.172600 0.000000
-20.144100 0.000000
-20.115500 0.000000
-20.087000 0.000000
-20.058500 0.000000
-20.029900 0.000000
-20.001400 0.000000
-19.972900 0.000000
-19.944300 0.000000
-19.915800 0.000000
-19.887300 0.000000
-19.858700 0.000000
-19.830200 0.000000
-19.801700 0.000000
-19.773100 0.000000
-19.744600 0.000000
-19.716000 0.000000
-19.687500 0.000000
-19.659000 0.000000
-19.630400 0.000000
-19.601900 0.000000
-19.573400 0.000000
-19.544800 0.000000
-19.516300 0.000000
-19.487800 0.000000
-19.459200 0.000000
-19.430700 0.000000
-19.402200 0.000000
-19.373600 0.000000
-19.345100 0.000000
-19.316600 0.000000
-19.288000 0.000000
-19.259500 0.000000
-19.231000 0.000000
-19.202400 0.000000
-19.173900 0.000000
-19.145400 0.000000
-19.116800 0.000000
-19.088300 0.000000
-19.059700 0.000000
-19.031200 0.000000
-19.002700 0.000000
-18.974100 0.000000
-18.945600 0.000000
-18.917100 0.000000
-18.888500 0.000000
-18.860000 0.000000
-18.831500 0.000000
-18.802900 0.000000
-18.774400 0.000000
-18.745900 0.000000
-18.717300 0.000000
-18.688800 0.000000
-18.660300 0.000000
-18.631700 0.000000
-18.603200 0.000000
-18.574700 0.000000
-18.546100 0.000000
-18.517600 0.000000
-18.489100 0.000000
-18.460500 0.000000
-18.432000 0.000000
-18.403500 0.000000
-18.374900 0.000000
-18.346400 0.000000
-18.317800 0.000000
-18.289300 0.000000
-18.260800 0.000000
-18.232200 0.000000
-18.203700 0.000000
-18.175200 0.000000
-18.146600 0.000000
-18.118100 0.000000
-18.089600 0.000000
-18.061000 0.000000
-18.032500 0.000000
-18.004000 0.000000
-17.975400 0.000000
-17.946900 0.000000
-17.918400 0.000000
-17.889800 0.000000
-17.861300 0.000000
-17.832800 0.000000
-17.804200 0.000000
-17.775700 0.000000
-17.747200 0.000000
-17.718600 0.000000
-17.690100 0.000000
-17.661600 0.000000
-17.633000 0.000000
-17.604500 0.000000
-17.575900 0.000000
-17.547400 0.000000
-17.518900 0.000000
-17.490300 0.000000
-17.461800 0.000000
-17.433300 0.000000
-17.404700 0.000000
-17.376200 0.000000
-17.347700 0.000000
-17.319100 0.000000
-17.290600 0.000000
-17.262100 0.000000
-17.233500 0.000000
-17.205000 0.000000
-17.176500 0.000000
-17.147900 0.000000
-17.119400 0.000000
-17.090900 0.000000
-17.062300 0.000000
-17.033800 0.000000
-17.005300 0.000000
-16.976700 0.000000
-16.948200 0.000000
-16.919600 0.000000
-16.891100 0.000000
-16.862600 0.000000
-16.834000 0.000000
-16.805500 0.000000
-16.777000 0.000000
-16.748400 0.000000
-16.719900 0.000000
-16.691400 0.000000
-16.662800 0.000000
-16.634300 0.000000
-16.605800 0.000000
-16.577200 0.000000
-16.548700 0.000000
-16.520200 0.000000
-16.491600 0.000000
-16.463100 0.000000
-16.434600 0.000000
-16.406000 0.000000
-16.377500 0.000000
-16.349000 0.000000
-16.320400 0.000000
-16.291900 0.000000
-16.263400 0.000000
-16.234800 0.000000
-16.206300 0.000000
-16.177700 0.000000
-16.149200 0.000000
-16.120700 0.000000
-16.092100 0.000000
-16.063600 0.000000
-16.035100 0.000000
-16.006500 0.000000
-15.978000 0.000000
-15.949500 0.000000
-15.920900 0.000000
-15.892400 0.000000
-15.863900 0.000000
-15.835300 0.000000
-15.806800 0.000000
-15.778300 0.000000
-15.749700 0.000000
-15.721200 0.000000
-15.692700 0.000000
-15.664100 0.000000
-15.635600 0.000000
-15.607100 0.000000
-15.578500 0.000000
-15.550000 0.000000
-15.521500 0.000000
-15.492900 0.000000
-15.464400 0.000000
-15.435800 0.000000
-15.407300 0.000000
-15.378800 0.000000
-15.350200 0.000000
-15.321700 0.000000
-15.293200 0.000000
-15.264600 0.000000
-15.236100 0.000000
-15.207600 0.000000
-15.179000 0.000000
-15.150500 0.000000
-15.122000 0.000000
-15.093400 0.000000
-15.064900 0.000000
-15.036400 0.000000
-15.007800 0.000000
-14.979300 0.000000
-14.950800 0.000000
-14.922200 0.000000
-14.893700 0.000000
-14.865200 0.000000
-14.836600 0.000000
-14.808100 0.000000
-14.779500 0.000000
-14.751000 0.000000
-14.722500 0.000000
-14.693900 0.000000
-14.665400 0.000000
-14.636900 0.000000
-14.608300 0.000000
-14.579800 0.000000
-14.551300 0.000000
-14.522700 0.000000
-14.494200 0.000000
-14.465700 0.000000
-14.437100 0.000000
-14.408600 0.000000
-14.380100 0.000000
-14.351500 0.000000
-14.323000 0.000000
-14.294500 0.000000
-14.265900 0.000000
-14.237400 0.000000
-14.208900 0.000000
-14.180300 0.000000
-14.151800 0.000000
-14.123300 0.000000
-14.094700 0.000000
-14.066200 0.000000
-14.037600 0.000000
-14.009100 0.000000
-13.980600 0.000000
-13.952000 0.000000
-13.923500 0.000000
-13.895000 0.000000
-13.866400 0.000000
-13.837900 0.000000
-13.809400 0.000000
-13.780800 0.000000
-13.752300 0.000000
-13.723800 0.000000
-13.695200 0.000000
-13.666700 0.000000
-13.638200 0.000000
-13.609600 0.000000
-13.581100 0.000000
-13.552600 0.000000
-13.524000 0.000000
-13.495500 0.000000
-13.467000 0.000000
-13.438400 0.000000
-13.409900 0.000000
-13.381400 0.000000
-13.352800 0.000000
-13.324300 0.000000
-13.295700 0.000000
-13.267200 0.000000
-13.238700 0.000000
-13.210100 0.000000
-13.181600 0.000000
-13.153100 0.000000
-13.124500 0.000000
-13.096000 0.000000
-13.067500 0.000000
-13.038900 0.000000
-13.010400 0.000000
-12.981900 0.000000
-12.953300 0.000000
-12.924800 0.000000
-12.896300 0.000000
-12.867700 0.000000
-12.839200 0.000000
-12.810700 0.000000
-12.782100 0.000000
-12.753600 0.000000
-12.725100 0.000000
-12.696500 0.000000
-12.668000 0.000000
-12.639400 0.000000
-12.610900 0.000000
-12.582400 0.000000
-12.553800 0.000000
-12.525300 0.000000
-12.496800 0.000000
-12.468200 0.000000
-12.439700 0.000000
-12.411200 0.000000
-12.382600 0.000000
-12.354100 0.000000
-12.325600 0.161600
-12.297000 0.443300
-12.268500 0.422300
-12.240000 0.362600
-12.211400 0.401200
-12.182900 0.440900
-12.154400 0.469700
-12.125800 0.443800
-12.097300 0.446300
-12.068800 0.462900
-12.040200 0.479400
-12.011700 0.496000
-11.983200 0.514400
-11.954600 0.536700
-11.926100 0.554400
-11.897500 0.573400
-11.869000 0.592500
-11.840500 0.611500
-11.811900 0.636900
-11.783400 0.667500
-11.754900 0.716500
-11.726300 0.787800
-11.697800 0.831900
-11.669300 0.875900
-11.640700 0.946800
-11.612200 1.013200
-11.583700 1.304900
-11.555100 1.495700
-11.526600 1.993800
-11.498100 1.906100
-11.469500 1.686200
-11.441000 1.589700
-11.412500 1.907700
-11.383900 3.746200
-11.355400 3.508200
-11.326900 0.000000
-11.298300 0.000000
-11.269800 0.000000
-11.241300 0.000000
-11.212700 0.108800
-11.184200 0.369500
-11.155600 0.525200
-11.127100 0.506100
-11.098600 0.542200
-11.070000 0.583000
-11.041500 0.591000
-11.013000 0.593700
-10.984400 0.621900
-10.955900 0.651800
-10.927400 0.686200
-10.898800 0.722100
-10.870300 0.754500
-10.841800 0.786400
-10.813200 0.826200
-10.784700 0.875400
-10.756200 0.951500
-10.727600 1.035600
-10.699100 1.116700
-10.670600 1.200200
-10.642000 1.405200
-10.613500 1.662700
-10.585000 2.258500
-10.556400 2.255000
-10.527900 2.119500
-10.499300 1.845000
-10.470800 2.112300
-10.442300 3.588500
-10.413700 7.202700
-10.385200 8.676900
-10.356700 5.875300
-10.328100 3.838100
-10.299600 3.245800
-10.271100 2.802900
-10.242500 2.154500
-10.214000 1.797300
-10.185500 1.424800
-10.156900 1.108100
-10.128400 0.769500
-10.099900 0.658400
-10.071300 0.283200
-10.042800 0.000000
-10.014300 0.000000
-9.985700 0.000000
-9.957200 0.000000
-9.928700 0.000000
-9.900100 0.000000
-9.871600 0.000000
-9.843100 0.000000
-9.814500 0.000000
-9.786000 0.000000
-9.757400 0.000000
-9.728900 0.000000
-9.700400 0.000000
-9.671800 0.000000
-9.643300 0.000000
-9.614800 0.000000
-9.586200 0.000000
-9.557700 0.000000
-9.529200 0.000000
-9.500600 0.000000
-9.472100 0.000000
-9.443600 0.000000
-9.415000 0.000000
-9.386500 0.000000
-9.358000 0.000000
-9.329400 0.000000
-9.300900 0.000000
-9.272400 0.000000
-9.243800 0.000000
-9.215300 0.000000
-9.186800 0.000000
-9.158200 0.000000
-9.129700 0.000000
-9.101200 0.000000
-9.072600 0.000000
-9.044100 0.000000
-9.015500 0.000000
-8.987000 0.000000
-8.958500 0.000000
-8.929900 0.000000
-8.901400 0.000000
-8.872900 0.000000
-8.844300 0.000000
-8.815800 0.000000
-8.787300 0.000000
-8.758700 0.000000
-8.730200 0.000000
-8.701700 0.000000
-8.673100 0.000000
-8.644600 0.000000
-8.616100 0.000000
-8.587500 0.000000
-8.559000 0.000000
-8.530500 0.000000
-8.501900 0.000000
-8.473400 0.000000
-8.444900 0.000000
-8.416300 0.000000
-8.387800 0.000000
-8.359200 0.000000
-8.330700 0.000000
-8.302200 0.000000
-8.273600 0.000000
-8.245100 0.000000
-8.216600 0.000000
-8.188000 0.000000
-8.159500 0.000000
-8.131000 0.000000
-8.102400 0.000000
-8.073900 0.000000
-8.045400 0.000000
-8.016800 0.000000
-7.988300 0.000000
-7.959800 0.000000
-7.931200 0.000000
-7.902700 0.000000
-7.874200 0.000000
-7.845600 0.000000
-7.817100 0.000000
-7.788600 0.000000
-7.760000 0.000000
-7.731500 0.000000
-7.703000 0.000000
-7.674400 0.000000
-7.645900 0.000000
-7.617300 0.000000
-7.588800 0.000000
-7.560300 0.000000
-7.531700 0.000000
-7.503200 0.000000
-7.474700 0.000000
-7.446100 0.000000
-7.417600 0.000000
-7.389100 0.000000
-7.360500 0.000000
-7.332000 0.000000
-7.303500 0.000000
-7.274900 0.000000
-7.246400 0.000000
-7.217900 0.000000
-7.189300 0.000000
-7.160800 0.000000
-7.132300 0.000000
-7.103700 0.000000
-7.075200 0.000000
-7.046700 0.000000
-7.018100 0.000000
-6.989600 0.000000
-6.961100 0.000000
-6.932500 0.000000
-6.904000 0.000000
-6.875400 0.000000
-6.846900 0.000000
-6.818400 0.000000
-6.789800 0.000000
-6.761300 0.000000
-6.732800 0.000000
-6.704200 0.000000
-6.675700 0.000000
-6.647200 0.000000
-6.618600 0.000000
-6.590100 0.000000
-6.561600 0.000000
-6.533000 0.000000
-6.504500 0.000000
-6.476000 0.000000
-6.447400 0.000000
-6.418900 0.000000
-6.390400 0.000000
-6.361800 0.000000
-6.333300 0.000000
-6.304800 0.000000
-6.276200 0.000000
-6.247700 0.000000
-6.219100 0.000000
-6.190600 0.000000
-6.162100 0.000000
-6.133500 0.000000
-6.105000 0.000000
-6.076500 0.000000
-6.047900 0.000000
-6.019400 0.000000
-5.990900 0.000000
-5.962300 0.000000
-5.933800 0.000000
-5.905300 0.000000
-5.876700 0.000000
-5.848200 0.000000
-5.819700 0.000000
-5.791100 0.000000
-5.762600 0.000000
-5.734100 0.000000
-5.705500 0.000000
-5.677000 0.000000
-5.648500 0.000000
-5.619900 0.000000
-5.591400 0.000000
-5.562900 0.000000
-5.534300 0.000000
-5.505800 0.000000
-5.477200 0.000000
-5.448700 0.000000
-5.420200 0.000000
-5.391600 0.000000
-5.363100 0.000000
-5.334600 0.000000
-5.306000 0.000000
-5.277500 0.000000
-5.249000 0.000000
-5.220400 0.000000
-5.191900 0.000000
-5.163400 0.000000
-5.134800 0.000000
-5.106300 0.000000
-5.077800 0.000000
-5.049200 0.000000
-5.020700 0.000000
-4.992200 0.000000
-4.963600 0.000000
-4.935100 0.000000
-4.906600 0.000000
-4.878000 0.000000
-4.849500 0.000000
-4.821000 0.000000
-4.792400 0.000000
-4.763900 0.000000
-4.735300 0.000000
-4.706800 0.000000
-4.678300 0.000000
-4.649700 0.000000
-4.621200 0.000000
-4.592700 0.000000
-4.564100 0.000000
-4.535600 0.000000
-4.507100 0.000000
-4.478500 0.000000
-4.450000 0.000000
-4.421500 0.000000
-4.392900 0.000000
-4.364400 0.000000
-4.335900 0.000000
-4.307300 0.000000
-4.278800 0.000000
-4.250300 0.000000
-4.221700 0.000000
-4.193200 0.000000
-4.164700 0.000000
-4.136100 0.000000
-4.107600 0.000000
-4.079000 0.000000
-4.050500 0.000000
-4.022000 0.000000
-3.993400 0.000000
-3.964900 0.000000
-3.936400 0.000000
-3.907800 0.000000
-3.879300 0.000000
-3.850800 0.000000
-3.822200 0.000000
-3.793700 0.000000
-3.765200 0.000000
-3.736600 0.000000
-3.708100 0.000000
-3.679600 0.000000
-3.651000 0.000000
-3.622500 0.000000
-3.594000 0.000000
-3.565400 0.000000
-3.536900 0.000000
-3.508400 0.000000
-3.479800 0.000000
-3.451300 0.000000
-3.422800 0.000000
-3.394200 0.000000
-3.365700 0.000000
-3.337100 0.000000
-3.308600 0.000000
-3.280100 0.000000
-3.251500 0.000000
-3.223000 0.000000
-3.194500 0.000000
-3.165900 0.000000
-3.137400 0.000000
-3.108900 0.000000
-3.080300 0.000000
-3.051800 0.000000
-3.023300 0.000000
-2.994700 0.000000
-2.966200 0.000000
-2.937700 0.000000
-2.909100 1.696500
-2.880600 1.417900
-2.852100 1.749600
-2.823500 2.125600
-2.795000 2.120300
-2.766500 2.088900
-2.737900 1.824200
-2.709400 1.425800
-2.680900 1.207500
-2.652300 1.113400
-2.623800 1.091700
-2.595200 1.420600
-2.566700 2.142900
-2.538200 2.492100
-2.509600 2.470300
-2.481100 2.449300
-2.452600 2.312300
-2.424000 2.126000
-2.395500 3.446000
-2.367000 3.221200
-2.338400 3.285100
-2.309900 3.756000
-2.281400 3.015700
-2.252800 3.277700
-2.224300 3.638800
-2.195800 2.736000
-2.167200 2.704000
-2.138700 2.959300
-2.110200 3.588000
-2.081600 3.852800
-2.053100 2.682700
-2.024600 2.633600
-1.996000 2.163500
-1.967500 1.444300
-1.938900 1.436300
-1.910400 1.388000
-1.881900 1.611200
-1.853300 1.768700
-1.824800 2.208900
-1.796300 1.872000
-1.767700 1.735500
-1.739200 1.568300
-1.710700 1.642200
-1.682100 1.726600
-1.653600 1.804300
-1.625100 1.908400
-1.596500 2.769700
-1.568000 1.385200
-1.539500 1.728200
-1.510900 0.463000
-1.482400 0.233200
-1.453900 0.240200
-1.425300 0.246900
-1.396800 0.253500
-1.368300 0.419200
-1.339700 0.603600
-1.311200 0.623200
-1.282700 0.663200
-1.254100 0.684600
-1.225600 0.686500
-1.197000 1.261400
-1.168500 1.643300
-1.140000 1.952000
-1.111400 1.937500
-1.082900 2.269700
-1.054400 2.365300
-1.025800 2.265400
-0.997300 2.002900
-0.968800 1.520800
-0.940200 1.497400
-0.911700 1.600700
-0.883200 2.177600
-0.854600 2.955400
-0.826100 5.227600
-0.797600 6.010200
-0.769000 7.160600
-0.740500 6.742800
-0.712000 5.738200
-0.683400 7.740900
-0.654900 7.242600
-0.626400 6.412700
-0.597800 6.328900
-0.569300 11.357600
-0.540800 5.292500
-0.512200 3.226400
-0.483700 3.091400
-0.455100 3.047500
-0.426600 2.482100
-0.398100 3.030300
-0.369500 3.564800
-0.341000 4.331300
-0.312500 4.250700
-0.283900 3.429300
-0.255400 3.067800
-0.226900 2.727200
-0.198300 3.044800
-0.169800 4.144100
-0.141300 3.930700
-0.112700 3.438100
-0.084200 2.679500
-0.055700 1.571500
-0.027100 1.203300
0.001400 1.113500
0.029900 1.442400
0.058500 1.208400
0.087000 1.252800
0.115500 1.579000
0.144100 2.248100
0.172600 2.358200
0.201200 1.872600
0.229700 1.436700
0.258200 1.430700
0.286800 1.384200
0.315300 1.318800
0.343800 1.410500
0.372400 1.438000
0.400900 1.339100
0.429400 1.289200
0.458000 1.458900
0.486500 1.711800
0.515000 2.165700
0.543600 1.798900
0.572100 1.431400
0.600600 1.356700
0.629200 1.297400
0.657700 1.226400
0.686200 1.158800
0.714800 1.101800
0.743300 1.197000
0.771800 1.418400
0.800400 1.542300
0.828900 1.581900
0.857400 1.717200
0.886000 2.083100
0.914500 2.415300
0.943100 2.351400
0.971600 2.258100
1.000100 2.269200
1.028700 2.172800
1.057200 2.054400
1.085700 1.993300
1.114300 1.997000
1.142800 2.072300
1.171300 2.061400
1.199900 2.049900
1.228400 2.028500
1.256900 2.099600
1.285500 2.220500
1.314000 2.204200
1.342500 2.535000
1.371100 3.493900
1.399600 2.503800
1.428100 2.326200
1.456700 2.204200
1.485200 2.032800
1.513700 2.095700
1.542300 1.953600
1.570800 2.055900
1.599300 2.281800
1.627900 2.391700
1.656400 2.387200
1.685000 2.487500
1.713500 2.383600
1.742000 1.992800
1.770600 2.443900
1.799100 3.207000
1.827600 2.798400
1.856200 3.075200
1.884700 3.493400
1.913200 3.777000
1.941800 3.853400
1.970300 3.344000
1.998800 3.709400
2.027400 3.555600
2.055900 2.464800
2.084400 1.982400
2.113000 1.384700
2.141500 1.550400
2.170000 1.568500
2.198600 1.874800
2.227100 2.577400
2.255600 2.714900
2.284200 2.364300
2.312700 2.176600
2.341300 2.879700
2.369800 3.242000
2.398300 3.120600
2.426900 2.896000
2.455400 2.555400
2.483900 1.771400
2.512500 1.927400
2.541000 2.357200
2.569500 3.132200
2.598100 3.228400
2.626600 2.638900
2.655100 2.325800
2.683700 1.640000
2.712200 1.453000
2.740700 1.326800
2.769300 1.250800
2.797800 1.549400
2.826300 1.568300
2.854900 1.414800
2.883400 1.324100
2.911900 1.417700
2.940500 1.515000
2.969000 1.617300
2.997500 1.729000
3.026100 1.807700
3.054600 1.899100
3.083200 1.623400
3.111700 1.503900
3.140200 1.522000
3.168800 1.595800
3.197300 1.702500
3.225800 1.804800
3.254400 1.922400
3.282900 2.179800
3.311400 2.369900
3.340000 2.452600
3.368500 2.400100
3.397000 2.516300
3.425600 3.436000
3.454100 2.339000
3.482600 1.771800
3.511200 1.513700
3.539700 1.405200
3.568200 1.669900
3.596800 2.137600
3.625300 2.840700
3.653800 2.717500
3.682400 2.954300
3.710900 2.636400
3.739400 2.062200
3.768000 2.340700
3.796500 1.999300
3.825100 1.702100
3.853600 2.007600
3.882100 2.286100
3.910700 2.280100
3.939200 2.075800
3.967700 2.131700
3.996300 2.183200
4.024800 2.773800
4.053300 3.064400
4.081900 3.458900
4.110400 3.250700
4.138900 2.569600
4.167500 2.445300
4.196000 2.484200
4.224500 2.733400
4.253100 3.090900
4.281600 3.470800
4.310100 3.066300
4.338700 2.272700
4.367200 1.847400
4.395700 1.677000
4.424300 1.586800
4.452800 1.661300
4.481400 2.192600
4.509900 2.839400
4.538400 3.668000
4.567000 4.081700
4.595500 3.464700
4.624000 3.648700
4.652600 2.278300
4.681100 2.101300
4.709600 2.065700
4.738200 2.146200
4.766700 2.364500
4.795200 2.321900
4.823800 2.641000
4.852300 2.729500
4.880800 2.622100
4.909400 2.529900
4.937900 2.665100
4.966400 3.023300
4.995000 3.423900
5.023500 3.832000
5.052000 4.205000
5.080600 3.848200
5.109100 3.762600
5.137600 2.967300
5.166200 3.106100
5.194700 2.319200
5.223300 2.248300
5.251800 2.441200
5.280300 2.538600
5.308900 2.677200
5.337400 2.418600
5.365900 2.364600
5.394500 2.487700
5.423000 2.532400
5.451500 2.712400
5.480100 2.895900
5.508600 2.974000
5.537100 3.103900
5.565700 3.166100
5.594200 3.259300
5.622700 3.543500
5.651300 4.035800
5.679800 3.461600
5.708300 3.527000
5.736900 3.679300
5.765400 3.640200
5.793900 3.555800
5.822500 3.428500
5.851000 3.073800
5.879500 2.771000
5.908100 2.696500
5.936600 2.757500
5.965200 2.731800
5.993700 2.698700
6.022200 3.303000
6.050800 3.614200
6.079300 3.677800
6.107800 3.649000
6.136400 3.723900
6.164900 3.808200
6.193400 3.856200
6.222000 3.232400
6.250500 3.005800
6.279000 3.081400
6.307600 3.109000
6.336100 3.033200
6.364600 3.090600
6.393200 3.221000
6.421700 3.313600
6.450200 3.678000
6.478800 4.267600
6.507300 3.741500
6.535800 3.934400
6.564400 4.417700
6.592900 4.206800
6.621500 3.403500
6.650000 2.515400
6.678500 1.889700
6.707100 1.822100
6.735600 1.767100
6.764100 1.754700
6.792700 1.681200
6.821200 1.566800
6.849700 1.998900
6.878300 2.848000
6.906800 2.715500
6.935300 2.020000
6.963900 1.843700
6.992400 1.755000
7.020900 1.698200
7.049500 1.510900
7.078000 1.506500
7.106500 1.519700
7.135100 1.587000
7.163600 1.807700
7.192100 1.854900
7.220700 1.852800
7.249200 1.875900
7.277700 1.848600
7.306300 1.980700
7.334800 1.872900
7.363400 1.937400
7.391900 2.257300
7.420400 4.054000
7.449000 3.896100
7.477500 3.367800
7.506000 3.132700
7.534600 3.211700
7.563100 3.010500
7.591600 2.624700
7.620200 2.435400
7.648700 2.221100
7.677200 1.770700
7.705800 1.312400
7.734300 1.133600
7.762800 0.915600
7.791400 0.943400
7.819900 0.960500
7.848400 0.935800
7.877000 0.934700
7.905500 0.935500
7.934000 0.960300
7.962600 1.047900
7.991100 1.346100
8.019600 1.428100
8.048200 1.156400
8.076700 0.974300
8.105300 0.786700
8.133800 0.784900
8.162300 0.806100
8.190900 0.978800
8.219400 1.277900
8.247900 1.294300
8.276500 1.271200
8.305000 1.194100
8.333500 1.985200
8.362100 1.499000
8.390600 1.520200
8.419100 1.375000
8.447700 1.383100
8.476200 1.892300
8.504700 2.375500
8.533300 2.977300
8.561800 2.827100
8.590300 2.320500
8.618900 1.972400
8.647400 1.916900
8.675900 2.296100
8.704500 2.610500
8.733000 2.793700
8.761600 2.762200
8.790100 2.635900
8.818600 2.279300
8.847200 2.289600
8.875700 2.216900
8.904200 2.071500
8.932800 1.802200
8.961300 1.788600
8.989800 1.773100
9.018400 1.776700
9.046900 1.780300
9.075400 1.858400
9.104000 1.877200
9.132500 1.877500
9.161000 1.924800
9.189600 2.258500
9.218100 1.737300
9.246600 1.758200
9.275200 1.838100
9.303700 1.896800
9.332200 2.090700
9.360800 2.351600
9.389300 2.611200
9.417800 2.831900
9.446400 2.634700
9.474900 2.654800
9.503500 2.665900
9.532000 2.476600
9.560500 2.300900
9.589100 2.519900
9.617600 2.238500
9.646100 2.134400
9.674700 2.731100
9.703200 3.705600
9.731700 4.293300
9.760300 3.754100
9.788800 2.916500
9.817300 2.486200
9.845900 1.764200
9.874400 1.480000
9.902900 1.319800
9.931500 1.236900
9.960000 1.229100
9.988500 1.284100
10.017100 1.322400
10.045600 1.359300
10.074100 1.361500
10.102700 1.355100
10.131200 1.216500
10.159700 0.993900
10.188300 1.022000
10.216800 0.908200
10.245400 0.852200
10.273900 0.812700
10.302400 0.780800
10.331000 0.840900
10.359500 0.759100
10.388000 0.653200
10.416600 0.671000
10.445100 0.687500
10.473600 0.721700
10.502200 1.228200
10.530700 1.312500
10.559200 1.080300
10.587800 1.143400
10.616300 1.186100
10.644800 1.226600
10.673400 1.308800
10.701900 1.455000
10.730400 1.610100
10.759000 1.771300
10.787500 1.979000
10.816000 2.258100
10.844600 2.365900
10.873100 2.202800
10.901700 1.696200
10.930200 1.478700
10.958700 1.215800
10.987300 1.036200
11.015800 0.933700
11.044300 0.889600
11.072900 0.908400
11.101400 0.997200
11.129900 0.963900
11.158500 1.006500
11.187000 1.049900
11.215500 1.086000
11.244100 1.178300
11.272600 1.848000
11.301100 1.332300
11.329700 1.192000
11.358200 1.227900
11.386700 1.537200
11.415300 1.199900
11.443800 1.155700
11.472300 1.137900
11.500900 1.119200
11.529400 1.098900
11.557900 1.074900
11.586500 1.040200
11.615000 1.033200
11.643600 1.053500
11.672100 1.076400
11.700600 1.091000
11.729200 1.092400
11.757700 1.086700
11.786200 1.079100
11.814800 1.098000
11.843300 1.139200
11.871800 1.162300
11.900400 1.150300
11.928900 1.184300
11.957400 1.226500
11.986000 1.291200
12.014500 1.404500
12.043000 1.481600
12.071600 1.554700
12.100100 1.554000
12.128600 1.524400
12.157200 1.452300
12.185700 1.372600
12.214200 1.347500
12.242800 1.329800
12.271300 1.326900
12.299800 1.316600
12.328400 1.309900
12.356900 1.313700
12.385500 1.294100
12.414000 1.274300
12.442500 1.250400
12.471100 1.264500
12.499600 1.258500
12.528100 1.199600
12.556700 1.201700
12.585200 1.204100
12.613700 1.290200
12.642300 1.221800
12.670800 1.125500
12.699300 1.119800
12.727900 1.141400
12.756400 1.185800
12.784900 1.288000
12.813500 1.193400
12.842000 1.176500
12.870500 1.180200
12.899100 1.158300
12.927600 1.157800
12.956100 1.081100
12.984700 1.066600
13.013200 1.040800
13.041800 1.097300
13.070300 1.123400
13.098800 1.136600
13.127400 1.167100
13.155900 1.302900
13.184400 1.023100
13.213000 0.881700
13.241500 0.833600
13.270000 0.859000
13.298600 0.866100
13.327100 0.921400
13.355600 0.943600
13.384200 0.987100
13.412700 1.024500
13.441200 1.092700
13.469800 1.198700
13.498300 1.269100
13.526800 1.268800
13.555400 1.248000
13.583900 1.303800
13.612400 1.353200
13.641000 1.360500
13.669500 1.337900
13.698000 1.338800
13.726600 1.386000
13.755100 1.447400
13.783700 1.530000
13.812200 1.609300
13.840700 1.642200
13.869300 1.667000
13.897800 1.668200
13.926300 1.687600
13.954900 1.710800
13.983400 1.699800
14.011900 1.762000
14.040500 1.806900
14.069000 1.831100
14.097500 1.790200
14.126100 1.748600
14.154600 1.748900
14.183100 1.830200
14.211700 1.942200
14.240200 1.776100
14.268700 1.653200
14.297300 1.408300
14.325800 1.283700
14.354300 1.202700
14.382900 1.179600
14.411400 1.145300
14.439900 1.092200
14.468500 1.060500
14.497000 1.062600
14.525600 1.092200
14.554100 1.137900
14.582600 1.202300
14.611200 1.288900
14.639700 1.385100
14.668200 1.504700
14.696800 1.610300
14.725300 1.589900
14.753800 1.561000
14.782400 1.559800
14.810900 1.594200
14.839400 1.516800
14.868000 1.450200
14.896500 1.357800
14.925000 1.264200
14.953600 1.296000
14.982100 1.278200
15.010600 1.302500
15.039200 1.262300
15.067700 1.329800
15.096200 1.399200
15.124800 1.541400
15.153300 1.646200
15.181900 1.695200
15.210400 1.787100
15.238900 1.821400
15.267500 1.833100
15.296000 1.796200
15.324500 1.725600
15.353100 1.667800
15.381600 1.687600
15.410100 1.495400
15.438700 1.392000
15.467200 1.300100
15.495700 1.315300
15.524300 1.358700
15.552800 1.328600
15.581300 1.336700
15.609900 1.454200
15.638400 1.553700
15.666900 1.630500
15.695500 1.670000
15.724000 1.916100
15.752500 2.024500
15.781100 1.959100
15.809600 1.799600
15.838100 1.681800
15.866700 1.509900
15.895200 1.409600
15.923800 1.323500
15.952300 1.231900
15.980800 1.175100
16.009400 1.088600
16.037900 1.100900
16.066400 1.162900
16.095000 1.195700
16.123500 1.171000
16.152000 1.176800
16.180600 1.185300
16.209100 1.167300
16.237600 1.176800
16.266200 1.230100
16.294700 1.300100
16.323200 1.307700
16.351800 1.336400
16.380300 1.436600
16.408800 1.467500
16.437400 1.501500
16.465900 1.513400
16.494400 1.567800
16.523000 1.663100
16.551500 1.719500
16.580000 1.687200
16.608600 1.703300
16.637100 1.723200
16.665700 1.766500
16.694200 1.795000
16.722700 1.733900
16.751300 1.590900
16.779800 1.673300
16.808300 1.458100
16.836900 1.746800
16.865400 1.495200
16.893900 1.516200
16.922500 1.528200
16.951000 1.583300
16.979500 1.589700
17.008100 1.598700
17.036600 1.583100
17.065100 1.557600
17.093700 1.594600
17.122200 1.614700
17.150700 1.628900
17.179300 1.635000
17.207800 1.662600
17.236300 1.707200
17.264900 1.733000
17.293400 1.755300
17.322000 1.764900
17.350500 1.723700
17.379000 1.750800
17.407600 1.710000
17.436100 1.722300
17.464600 1.808800
17.493200 1.944300
17.521700 1.813000
17.550200 1.728000
17.578800 1.963600
17.607300 1.799700
17.635800 1.761300
17.664400 1.697700
17.692900 1.637700
17.721400 1.586500
17.750000 1.566500
17.778500 1.565200
17.807000 1.559100
17.835600 1.631800
17.864100 1.680200
17.892600 1.701600
17.921200 1.697800
17.949700 1.832800
17.978200 1.624700
18.006800 1.606900
18.035300 1.644500
18.063900 1.737600
18.092400 1.836600
18.120900 1.848500
18.149500 1.749100
18.178000 1.672100
18.206500 1.646300
18.235100 1.625600
18.263600 1.611300
18.292100 1.588700
18.320700 1.569000
18.349200 1.562300
18.377700 1.594400
18.406300 1.558700
18.434800 1.572000
18.463300 1.600600
18.491900 1.642500
18.520400 1.710200
18.548900 1.792800
18.577500 1.852300
18.606000 1.854500
18.634500 1.943100
18.663100 2.064100
18.691600 2.113300
18.720100 2.108300
18.748700 2.052600
18.777200 2.068000
18.805800 2.238400
18.834300 2.087200
18.862800 2.027900
18.891400 1.965000
18.919900 1.851400
18.948400 1.934300
18.977000 2.103200
19.005500 2.251700
19.034000 2.422000
19.062600 2.546000
19.091100 2.917300
19.119600 3.118900
19.148200 3.031900
19.176700 2.544000
19.205200 2.248200
19.233800 2.069500
19.262300 1.937400
19.290800 1.802400
19.319400 1.675900
19.347900 1.793400
19.376400 1.800400
19.405000 1.792200
19.433500 1.810000
19.462100 1.895700
19.490600 1.884000
19.519100 1.883400
19.547700 1.724500
19.576200 1.725600
19.604700 1.829800
19.633300 1.839500
19.661800 1.763900
19.690300 1.746900
19.718900 2.003200
19.747400 1.753500
19.775900 1.669400
19.804500 1.620100
19.833000 1.650200
19.861500 1.620700
19.890100 1.624900
19.918600 1.597900
19.947100 1.797500
19.975700 1.847100
20.004200 1.798500
20.032700 1.899300
20.061300 2.001700
20.089800 2.348200
20.118300 2.399900
20.146900 2.577600
20.175400 3.407800
20.204000 2.991100
20.232500 2.833400
20.261000 2.679400
20.289600 2.677600
20.318100 2.509600
20.346600 2.283100
20.375200 2.240900
20.403700 2.302100
20.432200 2.421100
20.460800 2.340600
20.489300 2.240700
20.517800 2.338400
20.546400 2.911500
20.574900 3.576400
20.603400 1.913900
20.632000 1.611100
20.660500 1.523700
20.689000 1.638400
20.717600 1.888800
20.746100 2.109500
20.774600 1.816100
20.803200 1.862000
20.831700 1.877200
20.860200 1.853900
20.888800 1.781100
20.917300 1.784200
20.945900 1.826100
20.974400 1.957000
21.002900 2.110500
21.031500 2.369000
21.060000 2.786300
21.088500 2.442300
21.117100 2.274900
21.145600 2.317600
21.174100 2.356000
21.202700 2.174400
21.231200 1.877300
21.259700 1.636800
21.288300 1.419400
21.316800 1.192100
21.345300 1.011100
21.373900 0.843500
21.402400 0.712800
21.430900 0.675300
21.459500 0.644000
21.488000 0.618300
21.516500 0.600400
21.545100 0.587300
21.573600 0.741100
21.602200 0.737800
21.630700 0.708300
21.659200 0.599400
21.687800 0.593200
21.716300 0.434100
21.744800 0.245300
21.773400 0.226300
21.801900 0.210100
21.830400 0.194700
21.859000 0.180500
21.887500 0.169500
21.916000 0.158700
21.944600 0.151400
21.973100 0.151800
22.001600 0.145000
22.030200 0.135900
22.058700 0.124600
22.087200 0.111100
22.115800 0.095400
22.144300 0.061200
22.172800 0.048400
22.201400 0.042300
22.229900 0.036600
22.258400 0.031300
22.287000 0.026400
22.315500 0.021900
22.344100 0.017700
22.372600 0.013900
22.401100 0.010500
22.429700 0.007500
22.458200 0.004800
22.486700 0.002500
22.515300 0.000600
22.543800 0.000000
22.572300 0.000000
22.600900 0.000000
22.629400 0.000000
22.657900 0.000000
22.686500 0.000000
22.715000 0.000000
22.743500 0.000000
22.772100 0.000000
22.800600 0.000000
22.829100 0.000000
22.857700 0.000000
22.886200 0.000000
22.914700 0.000000
22.943300 0.000000
22.971800 0.000000
23.000300 0.000000
23.028900 0.000000
23.057400 0.000000
23.086000 0.000000
23.114500 0.000000
23.143000 0.000000
23.171600 0.000000
23.200100 0.000000
23.228600 0.000000
23.257200 0.000000
23.285700 0.000000
23.314200 0.000000
23.342800 0.000000
23.371300 0.000000
23.399800 0.000000
23.428400 0.000000
23.456900 0.000000
23.485400 0.000000
23.514000 0.000000
23.542500 0.000000
23.571000 0.000000
23.599600 0.000000
23.628100 0.000000
23.656600 0.000000
23.685200 0.000000
23.713700 0.000000
23.742300 0.000000
23.770800 0.000000
23.799300 0.000000
23.827900 0.000000
23.856400 0.000000
23.884900 0.000000
23.913500 0.000000
23.942000 0.000000
23.970500 0.000000
23.999100 0.000000
24.027600 0.000000
24.056100 0.000000
24.084700 0.000000
24.113200 0.000000
24.141700 0.000000
24.170300 0.000000
24.198800 0.000000
24.227300 0.000000
24.255900 0.000000
24.284400 0.000000
24.312900 0.000000
24.341500 0.000000
24.370000 0.000000
24.398500 0.000000
24.427100 0.000000
24.455600 0.000000
24.484200 0.000000
24.512700 0.000000
24.541200 0.000000
24.569800 0.000000
24.598300 0.000000
24.626800 0.000000
24.655400 0.000000
24.683900 0.000000
24.712400 0.000000
24.741000 0.000000
24.769500 0.000000
24.798000 0.000000
24.826600 0.000000
24.855100 0.000000
24.883600 0.000000
24.912200 0.000000
24.940700 0.000000
24.969200 0.000000
24.997800 0.000000
25.026300 0.000000
25.054800 0.000000
25.083400 0.000000
25.111900 0.000000
25.140400 0.000000
25.169000 0.000000
25.197500 0.000000
25.226100 0.000000
e
