set title 'mp-976765 - Density of States'
set xlabel 'Energy (eV)'
set ylabel 'DOS (states/eV)'
set grid
set xrange [-10:10]
set yrange [0:44.691]
set xzeroaxis lt -1
set terminal png size 800,600
set output 'mp-976765_dos_gnuplot.png'
plot '-' using 1:2 with lines title 'DOS'
-25.744400 0.000000
-25.717300 0.000000
-25.690100 0.000000
-25.663000 0.000000
-25.635800 0.000000
-25.608600 0.000000
-25.581500 0.000000
-25.554300 0.000000
-25.527200 0.000000
-25.500000 0.000000
-25.472800 0.000000
-25.445700 0.000000
-25.418500 0.000000
-25.391400 0.000000
-25.364200 0.000000
-25.337000 0.000000
-25.309900 0.000000
-25.282700 0.000000
-25.255500 0.000000
-25.228400 0.000000
-25.201200 0.000000
-25.174100 0.000000
-25.146900 0.000000
-25.119700 0.000000
-25.092600 0.000000
-25.065400 0.000000
-25.038300 0.000000
-25.011100 0.000000
-24.983900 0.000000
-24.956800 0.000000
-24.929600 0.000000
-24.902400 0.000000
-24.875300 0.000000
-24.848100 0.000000
-24.821000 0.000000
-24.793800 0.000000
-24.766600 0.000000
-24.739500 0.000000
-24.712300 0.000000
-24.685200 0.000000
-24.658000 0.000000
-24.630800 0.000000
-24.603700 0.000000
-24.576500 0.000000
-24.549400 0.000000
-24.522200 0.000000
-24.495000 0.000000
-24.467900 0.000000
-24.440700 0.000000
-24.413500 0.000000
-24.386400 0.000000
-24.359200 0.000000
-24.332100 0.000000
-24.304900 0.000000
-24.277700 0.000000
-24.250600 0.000000
-24.223400 0.000000
-24.196300 0.000000
-24.169100 0.000000
-24.141900 0.000000
-24.114800 0.000000
-24.087600 0.000000
-24.060400 0.000000
-24.033300 0.000000
-24.006100 0.000000
-23.979000 0.000000
-23.951800 0.000000
-23.924600 0.000000
-23.897500 0.000000
-23.870300 0.000000
-23.843200 0.000000
-23.816000 0.000000
-23.788800 0.000000
-23.761700 0.000000
-23.734500 0.000000
-23.707400 0.000000
-23.680200 0.000000
-23.653000 0.000000
-23.625900 0.000000
-23.598700 0.000000
-23.571500 0.000000
-23.544400 0.000000
-23.517200 0.000000
-23.490100 0.000000
-23.462900 0.000000
-23.435700 0.000200
-23.408600 0.006600
-23.381400 0.119400
-23.354300 1.241000
-23.327100 7.487800
-23.299900 26.301100
-23.272800 53.867600
-23.245600 64.325200
-23.218400 44.709400
-23.191300 18.032300
-23.164100 4.203200
-23.137000 0.563600
-23.109800 0.043300
-23.082600 0.001900
-23.055500 0.000000
-23.028300 0.000000
-23.001200 0.000000
-22.974000 0.000000
-22.946800 0.000000
-22.919700 0.000000
-22.892500 0.000200
-22.865400 0.007000
-22.838200 0.136600
-22.811000 1.557500
-22.783900 10.387500
-22.756700 40.704700
-22.729500 93.996300
-22.702400 128.040200
-22.675200 102.775800
-22.648100 48.470200
-22.620900 13.372100
-22.593700 2.146700
-22.566600 0.199400
-22.539400 0.010700
-22.512300 0.000300
-22.485100 0.000000
-22.457900 0.000000
-22.430800 0.000000
-22.403600 0.000000
-22.376400 0.000000
-22.349300 0.000000
-22.322100 0.000000
-22.295000 0.000000
-22.267800 0.000000
-22.240600 0.000000
-22.213500 0.000000
-22.186300 0.000000
-22.159200 0.000000
-22.132000 0.000000
-22.104800 0.000000
-22.077700 0.000000
-22.050500 0.000000
-22.023400 0.000000
-21.996200 0.000000
-21.969000 0.000000
-21.941900 0.000000
-21.914700 0.000000
-21.887500 0.000000
-21.860400 0.000000
-21.833200 0.000000
-21.806100 0.000000
-21.778900 0.000000
-21.751700 0.000000
-21.724600 0.000000
-21.697400 0.000000
-21.670300 0.000000
-21.643100 0.000000
-21.615900 0.000000
-21.588800 0.000000
-21.561600 0.000000
-21.534400 0.000000
-21.507300 0.000000
-21.480100 0.000000
-21.453000 0.000000
-21.425800 0.000000
-21.398600 0.000000
-21.371500 0.000000
-21.344300 0.000000
-21.317200 0.000000
-21.290000 0.000000
-21.262800 0.000000
-21.235700 0.000000
-21.208500 0.000000
-21.181400 0.000000
-21.154200 0.000000
-21.127000 0.000000
-21.099900 0.000000
-21.072700 0.000000
-21.045500 0.000000
-21.018400 0.000000
-20.991200 0.000000
-20.964100 0.000000
-20.936900 0.000000
-20.909700 0.000000
-20.882600 0.000000
-20.855400 0.000000
-20.828300 0.000000
-20.801100 0.000000
-20.773900 0.000000
-20.746800 0.000000
-20.719600 0.000000
-20.692400 0.000000
-20.665300 0.000000
-20.638100 0.000000
-20.611000 0.000000
-20.583800 0.000000
-20.556600 0.000000
-20.529500 0.000000
-20.502300 0.000000
-20.475200 0.000000
-20.448000 0.000000
-20.420800 0.000000
-20.393700 0.000000
-20.366500 0.000000
-20.339400 0.000000
-20.312200 0.000000
-20.285000 0.000000
-20.257900 0.000000
-20.230700 0.000000
-20.203500 0.000000
-20.176400 0.000000
-20.149200 0.000000
-20.122100 0.000000
-20.094900 0.000000
-20.067700 0.000000
-20.040600 0.000000
-20.013400 0.000000
-19.986300 0.000000
-19.959100 0.000000
-19.931900 0.000000
-19.904800 0.000000
-19.877600 0.000000
-19.850400 0.000000
-19.823300 0.000000
-19.796100 0.000000
-19.769000 0.000000
-19.741800 0.000000
-19.714600 0.000000
-19.687500 0.000000
-19.660300 0.000000
-19.633200 0.000000
-19.606000 0.000000
-19.578800 0.000000
-19.551700 0.000000
-19.524500 0.000000
-19.497400 0.000000
-19.470200 0.000000
-19.443000 0.000000
-19.415900 0.000000
-19.388700 0.000000
-19.361500 0.000000
-19.334400 0.000000
-19.307200 0.000000
-19.280100 0.000000
-19.252900 0.000000
-19.225700 0.000000
-19.198600 0.000000
-19.171400 0.000000
-19.144300 0.000000
-19.117100 0.000000
-19.089900 0.000000
-19.062800 0.000000
-19.035600 0.000000
-19.008400 0.000000
-18.981300 0.000000
-18.954100 0.000000
-18.927000 0.000000
-18.899800 0.000000
-18.872600 0.000000
-18.845500 0.000000
-18.818300 0.000000
-18.791200 0.000000
-18.764000 0.000000
-18.736800 0.000000
-18.709700 0.000000
-18.682500 0.000000
-18.655400 0.000000
-18.628200 0.000000
-18.601000 0.000000
-18.573900 0.000000
-18.546700 0.000000
-18.519500 0.000000
-18.492400 0.000000
-18.465200 0.000000
-18.438100 0.000000
-18.410900 0.000000
-18.383700 0.000000
-18.356600 0.000000
-18.329400 0.000000
-18.302300 0.000000
-18.275100 0.000000
-18.247900 0.000000
-18.220800 0.000000
-18.193600 0.000000
-18.166400 0.000000
-18.139300 0.000000
-18.112100 0.000000
-18.085000 0.000000
-18.057800 0.000000
-18.030600 0.000000
-18.003500 0.000000
-17.976300 0.000000
-17.949200 0.000000
-17.922000 0.000000
-17.894800 0.000000
-17.867700 0.000000
-17.840500 0.000000
-17.813400 0.000000
-17.786200 0.000000
-17.759000 0.000000
-17.731900 0.000000
-17.704700 0.000000
-17.677500 0.000000
-17.650400 0.000000
-17.623200 0.000000
-17.596100 0.000000
-17.568900 0.000000
-17.541700 0.000000
-17.514600 0.000000
-17.487400 0.000000
-17.460300 0.000000
-17.433100 0.000000
-17.405900 0.000000
-17.378800 0.000000
-17.351600 0.000000
-17.324400 0.000000
-17.297300 0.000000
-17.270100 0.000000
-17.243000 0.000000
-17.215800 0.000000
-17.188600 0.000000
-17.161500 0.000000
-17.134300 0.000000
-17.107200 0.000000
-17.080000 0.000000
-17.052800 0.000000
-17.025700 0.000000
-16.998500 0.000000
-16.971400 0.000000
-16.944200 0.000000
-16.917000 0.000000
-16.889900 0.000000
-16.862700 0.000000
-16.835500 0.000000
-16.808400 0.000000
-16.781200 0.000000
-16.754100 0.000000
-16.726900 0.000000
-16.699700 0.000000
-16.672600 0.000000
-16.645400 0.000000
-16.618300 0.000000
-16.591100 0.000000
-16.563900 0.000000
-16.536800 0.000000
-16.509600 0.000000
-16.482400 0.000000
-16.455300 0.000000
-16.428100 0.000000
-16.401000 0.000000
-16.373800 0.000000
-16.346600 0.000000
-16.319500 0.000000
-16.292300 0.000000
-16.265200 0.000000
-16.238000 0.000000
-16.210800 0.000000
-16.183700 0.000000
-16.156500 0.000000
-16.129400 0.000000
-16.102200 0.000000
-16.075000 0.000000
-16.047900 0.000000
-16.020700 0.000000
-15.993500 0.000000
-15.966400 0.000000
-15.939200 0.000000
-15.912100 0.000000
-15.884900 0.000000
-15.857700 0.000000
-15.830600 0.000000
-15.803400 0.000000
-15.776300 0.000000
-15.749100 0.000000
-15.721900 0.000000
-15.694800 0.000000
-15.667600 0.000000
-15.640400 0.000000
-15.613300 0.000000
-15.586100 0.000000
-15.559000 0.000000
-15.531800 0.000000
-15.504600 0.000000
-15.477500 0.000000
-15.450300 0.000000
-15.423200 0.000000
-15.396000 0.000000
-15.368800 0.000000
-15.341700 0.000000
-15.314500 0.000000
-15.287400 0.000000
-15.260200 0.000000
-15.233000 0.000000
-15.205900 0.000000
-15.178700 0.000000
-15.151500 0.000000
-15.124400 0.000000
-15.097200 0.000000
-15.070100 0.000000
-15.042900 0.000000
-15.015700 0.000000
-14.988600 0.000000
-14.961400 0.000000
-14.934300 0.000000
-14.907100 0.000000
-14.879900 0.000000
-14.852800 0.000000
-14.825600 0.000000
-14.798400 0.000000
-14.771300 0.000000
-14.744100 0.000000
-14.717000 0.000000
-14.689800 0.000000
-14.662600 0.000000
-14.635500 0.000000
-14.608300 0.000000
-14.581200 0.000000
-14.554000 0.000000
-14.526800 0.000000
-14.499700 0.000000
-14.472500 0.000000
-14.445400 0.000000
-14.418200 0.000000
-14.391000 0.000000
-14.363900 0.000000
-14.336700 0.000000
-14.309500 0.000000
-14.282400 0.000000
-14.255200 0.000000
-14.228100 0.000000
-14.200900 0.000000
-14.173700 0.000000
-14.146600 0.000000
-14.119400 0.000000
-14.092300 0.000000
-14.065100 0.000000
-14.037900 0.000000
-14.010800 0.000000
-13.983600 0.000000
-13.956400 0.000000
-13.929300 0.000000
-13.902100 0.000000
-13.875000 0.000000
-13.847800 0.000000
-13.820600 0.000000
-13.793500 0.000000
-13.766300 0.000000
-13.739200 0.000000
-13.712000 0.000000
-13.684800 0.000000
-13.657700 0.000000
-13.630500 0.000000
-13.603300 0.000000
-13.576200 0.000000
-13.549000 0.000000
-13.521900 0.000000
-13.494700 0.000000
-13.467500 0.000000
-13.440400 0.000000
-13.413200 0.000000
-13.386100 0.000000
-13.358900 0.000000
-13.331700 0.000000
-13.304600 0.000000
-13.277400 0.000000
-13.250300 0.000000
-13.223100 0.000000
-13.195900 0.000000
-13.168800 0.000000
-13.141600 0.000000
-13.114400 0.000000
-13.087300 0.000000
-13.060100 0.000000
-13.033000 0.000000
-13.005800 0.000000
-12.978600 0.000000
-12.951500 0.000000
-12.924300 0.000000
-12.897200 0.000000
-12.870000 0.000000
-12.842800 0.000000
-12.815700 0.000000
-12.788500 0.000000
-12.761300 0.000000
-12.734200 0.000000
-12.707000 0.000000
-12.679900 0.000000
-12.652700 0.000000
-12.625500 0.000000
-12.598400 0.000000
-12.571200 0.000000
-12.544100 0.000000
-12.516900 0.000000
-12.489700 0.000000
-12.462600 0.000000
-12.435400 0.000000
-12.408300 0.000000
-12.381100 0.000000
-12.353900 0.000000
-12.326800 0.000000
-12.299600 0.000000
-12.272400 0.000000
-12.245300 0.000000
-12.218100 0.000000
-12.191000 0.000000
-12.163800 0.000000
-12.136600 0.000000
-12.109500 0.000000
-12.082300 0.000000
-12.055200 0.000000
-12.028000 0.000000
-12.000800 0.000000
-11.973700 0.000000
-11.946500 0.000000
-11.919300 0.000000
-11.892200 0.000000
-11.865000 0.000000
-11.837900 0.000000
-11.810700 0.000000
-11.783500 0.000000
-11.756400 0.000000
-11.729200 0.000000
-11.702100 0.000000
-11.674900 0.000000
-11.647700 0.000000
-11.620600 0.000000
-11.593400 0.000000
-11.566300 0.000000
-11.539100 0.000000
-11.511900 0.000000
-11.484800 0.000000
-11.457600 0.000000
-11.430400 0.000000
-11.403300 0.000000
-11.376100 0.000000
-11.349000 0.000000
-11.321800 0.000000
-11.294600 0.000000
-11.267500 0.000000
-11.240300 0.000000
-11.213200 0.000000
-11.186000 0.000000
-11.158800 0.000000
-11.131700 0.000000
-11.104500 0.000000
-11.077300 0.000000
-11.050200 0.000000
-11.023000 0.000000
-10.995900 0.000000
-10.968700 0.000000
-10.941500 0.000000
-10.914400 0.000000
-10.887200 0.000000
-10.860100 0.000000
-10.832900 0.000000
-10.805700 0.000000
-10.778600 0.000000
-10.751400 0.000000
-10.724300 0.000000
-10.697100 0.000000
-10.669900 0.000000
-10.642800 0.000000
-10.615600 0.000000
-10.588400 0.000000
-10.561300 0.000000
-10.534100 0.000000
-10.507000 0.000000
-10.479800 0.000000
-10.452600 0.000000
-10.425500 0.000000
-10.398300 0.000000
-10.371200 0.000000
-10.344000 0.000000
-10.316800 0.000000
-10.289700 0.000000
-10.262500 0.000000
-10.235300 0.000000
-10.208200 0.000000
-10.181000 0.000000
-10.153900 0.000000
-10.126700 0.000000
-10.099500 0.000000
-10.072400 0.000000
-10.045200 0.000000
-10.018100 0.000000
-9.990900 0.000000
-9.963700 0.000000
-9.936600 0.000000
-9.909400 0.000000
-9.882300 0.000000
-9.855100 0.000000
-9.827900 0.000000
-9.800800 0.000000
-9.773600 0.000000
-9.746400 0.000000
-9.719300 0.000000
-9.692100 0.000000
-9.665000 0.000000
-9.637800 0.000000
-9.610600 0.000000
-9.583500 0.000000
-9.556300 0.000000
-9.529200 0.000000
-9.502000 0.000000
-9.474800 0.000000
-9.447700 0.000000
-9.420500 0.000000
-9.393300 0.000000
-9.366200 0.000000
-9.339000 0.000000
-9.311900 0.000000
-9.284700 0.000000
-9.257500 0.000000
-9.230400 0.000000
-9.203200 0.000000
-9.176100 0.000000
-9.148900 0.000000
-9.121700 0.000000
-9.094600 0.000000
-9.067400 0.000000
-9.040300 0.000000
-9.013100 0.000000
-8.985900 0.000000
-8.958800 0.000000
-8.931600 0.000000
-8.904400 0.000000
-8.877300 0.000000
-8.850100 0.000000
-8.823000 0.000000
-8.795800 0.000000
-8.768600 0.000000
-8.741500 0.000000
-8.714300 0.000000
-8.687200 0.000000
-8.660000 0.000000
-8.632800 0.000000
-8.605700 0.000000
-8.578500 0.000000
-8.551300 0.000000
-8.524200 0.000000
-8.497000 0.000000
-8.469900 0.000000
-8.442700 0.000000
-8.415500 0.000000
-8.388400 0.000000
-8.361200 0.000000
-8.334100 0.000000
-8.306900 0.000000
-8.279700 0.000000
-8.252600 0.000000
-8.225400 0.000000
-8.198300 0.000000
-8.171100 0.000000
-8.143900 0.000000
-8.116800 0.000000
-8.089600 0.000000
-8.062400 0.000000
-8.035300 0.000000
-8.008100 0.000000
-7.981000 0.000000
-7.953800 0.000000
-7.926600 0.000000
-7.899500 0.000000
-7.872300 0.000000
-7.845200 0.000000
-7.818000 0.000000
-7.790800 0.000000
-7.763700 0.000000
-7.736500 0.000000
-7.709300 0.000000
-7.682200 0.000000
-7.655000 0.000000
-7.627900 0.000000
-7.600700 0.000000
-7.573500 0.000000
-7.546400 0.000000
-7.519200 0.000000
-7.492100 0.000000
-7.464900 0.000000
-7.437700 0.000000
-7.410600 0.000000
-7.383400 0.000000
-7.356300 0.000000
-7.329100 0.000000
-7.301900 0.000000
-7.274800 0.000000
-7.247600 0.000000
-7.220400 0.000000
-7.193300 0.000000
-7.166100 0.000000
-7.139000 0.000000
-7.111800 0.000000
-7.084600 0.000000
-7.057500 0.000000
-7.030300 0.000000
-7.003200 0.000000
-6.976000 0.000000
-6.948800 0.000000
-6.921700 0.000000
-6.894500 0.000000
-6.867300 0.000000
-6.840200 0.000000
-6.813000 0.000000
-6.785900 0.000000
-6.758700 0.000000
-6.731500 0.000000
-6.704400 0.000000
-6.677200 0.000000
-6.650100 0.000000
-6.622900 0.000000
-6.595700 0.000000
-6.568600 0.000000
-6.541400 0.000000
-6.514300 0.000000
-6.487100 0.000000
-6.459900 0.000000
-6.432800 0.000000
-6.405600 0.000000
-6.378400 0.000000
-6.351300 0.000000
-6.324100 0.000000
-6.297000 0.000000
-6.269800 0.000000
-6.242600 0.000000
-6.215500 0.000000
-6.188300 0.000000
-6.161200 0.000000
-6.134000 0.000000
-6.106800 0.000000
-6.079700 0.000000
-6.052500 0.000000
-6.025300 0.000000
-5.998200 0.000000
-5.971000 0.000000
-5.943900 0.000000
-5.916700 0.000000
-5.889500 0.000000
-5.862400 0.000000
-5.835200 0.000000
-5.808100 0.000000
-5.780900 0.000000
-5.753700 0.000000
-5.726600 0.000000
-5.699400 0.000000
-5.672300 0.000000
-5.645100 0.000000
-5.617900 0.000000
-5.590800 0.000000
-5.563600 0.000000
-5.536400 0.000000
-5.509300 0.000000
-5.482100 0.000000
-5.455000 0.000000
-5.427800 0.000000
-5.400600 0.000000
-5.373500 0.000000
-5.346300 0.000000
-5.319200 0.000000
-5.292000 0.000000
-5.264800 0.000000
-5.237700 0.000000
-5.210500 0.000000
-5.183300 0.000000
-5.156200 0.000000
-5.129000 0.000000
-5.101900 0.000000
-5.074700 0.000000
-5.047500 0.000000
-5.020400 0.000000
-4.993200 0.000000
-4.966100 0.000000
-4.938900 0.000000
-4.911700 0.000000
-4.884600 0.000000
-4.857400 0.000000
-4.830300 0.000000
-4.803100 0.000000
-4.775900 0.000000
-4.748800 0.000000
-4.721600 0.000000
-4.694400 0.000000
-4.667300 0.000000
-4.640100 0.000000
-4.613000 0.000000
-4.585800 0.000000
-4.558600 0.000000
-4.531500 0.000000
-4.504300 0.000000
-4.477200 0.000000
-4.450000 0.000000
-4.422800 0.000000
-4.395700 0.000000
-4.368500 0.000000
-4.341300 0.000000
-4.314200 0.000000
-4.287000 0.000000
-4.259900 0.000000
-4.232700 0.000000
-4.205500 0.000000
-4.178400 0.000000
-4.151200 0.000000
-4.124100 0.000000
-4.096900 0.000000
-4.069700 0.000000
-4.042600 0.000000
-4.015400 0.000000
-3.988300 0.000000
-3.961100 0.000000
-3.933900 0.000000
-3.906800 0.000000
-3.879600 0.000000
-3.852400 0.000000
-3.825300 0.000000
-3.798100 0.000000
-3.771000 0.000000
-3.743800 0.000000
-3.716600 0.000000
-3.689500 0.000000
-3.662300 0.000000
-3.635200 0.000000
-3.608000 0.000000
-3.580800 0.000000
-3.553700 0.000000
-3.526500 0.000000
-3.499300 0.000000
-3.472200 0.000000
-3.445000 0.000200
-3.417900 0.002100
-3.390700 0.011900
-3.363500 0.040800
-3.336400 0.088400
-3.309200 0.126500
-3.282100 0.140700
-3.254900 0.186800
-3.227700 0.295000
-3.200600 0.353800
-3.173400 0.294300
-3.146300 0.244400
-3.119100 0.297500
-3.091900 0.369500
-3.064800 0.382000
-3.037600 0.390000
-3.010400 0.453600
-2.983300 0.517400
-2.956100 0.532300
-2.929000 0.561700
-2.901800 0.586700
-2.874600 0.500600
-2.847500 0.380900
-2.820300 0.417300
-2.793200 0.581400
-2.766000 0.668300
-2.738800 0.689000
-2.711700 0.751100
-2.684500 0.809600
-2.657300 0.849300
-2.630200 0.869400
-2.603000 0.885400
-2.575900 0.904600
-2.548700 0.837000
-2.521500 0.738900
-2.494400 0.750100
-2.467200 0.877300
-2.440100 1.079900
-2.412900 1.362600
-2.385700 1.762300
-2.358600 2.123900
-2.331400 2.226900
-2.304300 2.272700
-2.277100 2.548900
-2.249900 2.955300
-2.222800 3.461600
-2.195600 4.341100
-2.168400 5.758000
-2.141300 7.552100
-2.114100 9.631700
-2.087000 12.558500
-2.059800 17.687300
-2.032600 25.810300
-2.005500 34.460400
-1.978300 39.291300
-1.951200 40.052600
-1.924000 40.495700
-1.896800 40.628300
-1.869700 35.434600
-1.842500 23.947000
-1.815300 12.412800
-1.788200 5.686100
-1.761000 3.079300
-1.733900 2.360500
-1.706700 2.265600
-1.679500 2.314200
-1.652400 2.423800
-1.625200 2.675400
-1.598100 2.886400
-1.570900 2.857700
-1.543700 2.810200
-1.516600 2.908100
-1.489400 3.058600
-1.462200 3.183300
-1.435100 3.026000
-1.407900 2.459300
-1.380800 1.951100
-1.353600 1.882000
-1.326400 1.989600
-1.299300 1.794500
-1.272100 1.256700
-1.245000 0.769100
-1.217800 0.492500
-1.190600 0.285000
-1.163500 0.114900
-1.136300 0.028800
-1.109200 0.004300
-1.082000 0.000400
-1.054800 0.000000
-1.027700 0.000000
-1.000500 0.000000
-0.973300 0.000000
-0.946200 0.000000
-0.919000 0.000000
-0.891900 0.000000
-0.864700 0.000000
-0.837500 0.000000
-0.810400 0.000000
-0.783200 0.000000
-0.756100 0.000000
-0.728900 0.000000
-0.701700 0.000000
-0.674600 0.000000
-0.647400 0.000000
-0.620200 0.000000
-0.593100 0.000000
-0.565900 0.000000
-0.538800 0.000000
-0.511600 0.000000
-0.484400 0.000000
-0.457300 0.000000
-0.430100 0.000000
-0.403000 0.000000
-0.375800 0.000000
-0.348600 0.000000
-0.321500 0.000000
-0.294300 0.000000
-0.267200 0.000000
-0.240000 0.000000
-0.212800 0.000000
-0.185700 0.000000
-0.158500 0.000400
-0.131300 0.005200
-0.104200 0.034800
-0.077000 0.131700
-0.049900 0.284200
-0.022700 0.350300
0.004500 0.247900
0.031600 0.111100
0.058800 0.087400
0.085900 0.221100
0.113100 0.468600
0.140300 0.645500
0.167400 0.588700
0.194600 0.457600
0.221800 0.522200
0.248900 0.676200
0.276100 0.614100
0.303200 0.393300
0.330400 0.339000
0.357600 0.573800
0.384700 0.970200
0.411900 1.280900
0.439000 1.236600
0.466200 0.892800
0.493400 0.637700
0.520500 0.715800
0.547700 0.986500
0.574800 1.083600
0.602000 0.906200
0.629200 0.790500
0.656300 1.019400
0.683500 1.423800
0.710700 1.610900
0.737800 1.641100
0.765000 2.008100
0.792100 2.734200
0.819300 3.273900
0.846500 3.170700
0.873600 2.385600
0.900800 1.501700
0.927900 1.186900
0.955100 1.504600
0.982300 2.065500
1.009400 2.281500
1.036600 1.887200
1.063800 1.248200
1.090900 0.759300
1.118100 0.522200
1.145200 0.574300
1.172400 0.903600
1.199600 1.379500
1.226700 1.666100
1.253900 1.460200
1.281000 0.989500
1.308200 0.670300
1.335400 0.668500
1.362500 0.927100
1.389700 1.201900
1.416800 1.321300
1.444000 1.308600
1.471200 1.204000
1.498300 1.000300
1.525500 0.749500
1.552700 0.624000
1.579800 0.721900
1.607000 0.913700
1.634100 1.015800
1.661300 0.960300
1.688500 0.824100
1.715600 0.864400
1.742800 1.295200
1.769900 1.767200
1.797100 1.718200
1.824300 1.307400
1.851400 1.064600
1.878600 1.133800
1.905800 1.338800
1.932900 1.470400
1.960100 1.470200
1.987200 1.352900
2.014400 1.205100
2.041600 1.199700
2.068700 1.299100
2.095900 1.296900
2.123000 1.227300
2.150200 1.409900
2.177400 1.818100
2.204500 1.939600
2.231700 1.584800
2.258800 1.174800
2.286000 1.082800
2.313200 1.169100
2.340300 1.116900
2.367500 0.927400
2.394700 0.822400
2.421800 0.984300
2.449000 1.422300
2.476100 1.850800
2.503300 2.007000
2.530500 2.030000
2.557600 1.995300
2.584800 1.745600
2.611900 1.479100
2.639100 1.538300
2.666300 1.944800
2.693400 2.483700
2.720600 2.751900
2.747800 2.463600
2.774900 1.831700
2.802100 1.292000
2.829200 1.178000
2.856400 1.448700
2.883600 1.683400
2.910700 1.598200
2.937900 1.344600
2.965000 1.245200
2.992200 1.395300
3.019400 1.588400
3.046500 1.622000
3.073700 1.506000
3.100800 1.428900
3.128000 1.683700
3.155200 2.255800
3.182300 2.579500
3.209500 2.353900
3.236700 2.135900
3.263800 2.149200
3.291000 1.929300
3.318100 1.614900
3.345300 1.564500
3.372500 1.534400
3.399600 1.350300
3.426800 1.278100
3.453900 1.484700
3.481100 1.647200
3.508300 1.436400
3.535400 1.092500
3.562600 0.899200
3.589800 0.758500
3.616900 0.615500
3.644100 0.553100
3.671200 0.690400
3.698400 1.257000
3.725600 2.222600
3.752700 2.859900
3.779900 2.608700
3.807000 2.041800
3.834200 1.874400
3.861400 1.972900
3.888500 1.939100
3.915700 1.674300
3.942800 1.263200
3.970000 0.867400
3.997200 0.644400
4.024300 0.671300
4.051500 0.997600
4.078700 1.481300
4.105800 1.740200
4.133000 1.681300
4.160100 1.399300
4.187300 0.937800
4.214500 0.618400
4.241600 0.742000
4.268800 1.259300
4.295900 1.888500
4.323100 2.151000
4.350300 1.847900
4.377400 1.388600
4.404600 1.122500
4.431800 1.015000
4.458900 1.013000
4.486100 1.101500
4.513200 1.262000
4.540400 1.450700
4.567600 1.496400
4.594700 1.315800
4.621900 1.109900
4.649000 1.068900
4.676200 1.142900
4.703400 1.155800
4.730500 1.010900
4.757700 0.865700
4.784800 0.919500
4.812000 1.078500
4.839200 1.095400
4.866300 0.931000
4.893500 0.762200
4.920700 0.762400
4.947800 0.961200
4.975000 1.191900
5.002100 1.236600
5.029300 1.089900
5.056500 0.832600
5.083600 0.631600
5.110800 0.850200
5.137900 1.549000
5.165100 2.151700
5.192300 2.113800
5.219400 1.600700
5.246600 1.047700
5.273800 0.599900
5.300900 0.308900
5.328100 0.330100
5.355200 0.761600
5.382400 1.474100
5.409600 2.189700
5.436700 2.636000
5.463900 2.549700
5.491000 2.024100
5.518200 1.590100
5.545400 1.511600
5.572500 1.605500
5.599700 1.640800
5.626800 1.580100
5.654000 1.611500
5.681200 1.809000
5.708300 1.988700
5.735500 2.046400
5.762700 2.198000
5.789800 2.561500
5.817000 2.742000
5.844100 2.561400
5.871300 2.419500
5.898500 2.416100
5.925600 2.389200
5.952800 2.317100
5.979900 2.110000
6.007100 1.847600
6.034300 1.683400
6.061400 1.642500
6.088600 1.834400
6.115800 2.076000
6.142900 1.858700
6.170100 1.325900
6.197200 1.091100
6.224400 1.305400
6.251600 1.700400
6.278700 1.914000
6.305900 1.854300
6.333000 1.788400
6.360200 1.852000
6.387400 1.858300
6.414500 1.701300
6.441700 1.491400
6.468800 1.372900
6.496000 1.522600
6.523200 2.026700
6.550300 2.736000
6.577500 3.128500
6.604700 2.888600
6.631800 2.716500
6.659000 3.161300
6.686100 3.501200
6.713300 3.229700
6.740500 3.023100
6.767600 3.019600
6.794800 2.637500
6.821900 2.246400
6.849100 2.477100
6.876300 2.952300
6.903400 3.020700
6.930600 2.750400
6.957800 2.670600
6.984900 2.890100
7.012100 2.885700
7.039200 2.424900
7.066400 1.988500
7.093600 1.874300
7.120700 1.825400
7.147900 1.682000
7.175000 1.648800
7.202200 1.862600
7.229400 2.157800
7.256500 2.276500
7.283700 2.204700
7.310800 2.084800
7.338000 2.057200
7.365200 2.293700
7.392300 2.692500
7.419500 2.911800
7.446700 2.787000
7.473800 2.324300
7.501000 1.807600
7.528100 1.716500
7.555300 1.979500
7.582500 2.020400
7.609600 1.777900
7.636800 1.670500
7.663900 1.884400
7.691100 2.349000
7.718300 2.976400
7.745400 3.401800
7.772600 3.106800
7.799800 2.398900
7.826900 2.017100
7.854100 2.093300
7.881200 2.377500
7.908400 2.701400
7.935600 2.868900
7.962700 2.673900
7.989900 2.354400
8.017000 2.252200
8.044200 2.424000
8.071400 2.855700
8.098500 3.357300
8.125700 3.606700
8.152800 3.526100
8.180000 3.320300
8.207200 3.093900
8.234300 2.893700
8.261500 2.797300
8.288700 2.732600
8.315800 2.645800
8.343000 2.565900
8.370100 2.357700
8.397300 1.889600
8.424500 1.397000
8.451600 1.130500
8.478800 1.215100
8.505900 1.699900
8.533100 2.291100
8.560300 2.632200
8.587400 2.530600
8.614600 1.934000
8.641800 1.254200
8.668900 0.977600
8.696100 1.156800
8.723200 1.646500
8.750400 2.270400
8.777600 2.854700
8.804700 3.352400
8.831900 3.747600
8.859000 3.815300
8.886200 3.230800
8.913400 2.155400
8.940500 1.304600
8.967700 1.209700
8.994800 1.784200
9.022000 2.645900
9.049200 3.314300
9.076300 3.342300
9.103500 3.019800
9.130700 2.956400
9.157800 3.038000
9.185000 3.062500
9.212100 3.255000
9.239300 3.629100
9.266500 3.803300
9.293600 3.597200
9.320800 3.384900
9.347900 3.384500
9.375100 3.309200
9.402300 2.974600
9.429400 2.606300
9.456600 2.406500
9.483800 2.149800
9.510900 1.718500
9.538100 1.417400
9.565200 1.378400
9.592400 1.513700
9.619600 1.787000
9.646700 2.073000
9.673900 2.178400
9.701000 2.095600
9.728200 1.982500
9.755400 1.927000
9.782500 1.869400
9.809700 1.912900
9.836900 2.251500
9.864000 2.636100
9.891200 2.686200
9.918300 2.468400
9.945500 2.396600
9.972700 2.571300
9.999800 2.673300
10.027000 2.617700
10.054100 2.599300
10.081300 2.597700
10.108500 2.337000
10.135600 1.959300
10.162800 2.007100
10.189900 2.459100
10.217100 2.728000
10.244300 2.577600
10.271400 2.232600
10.298600 1.931500
10.325800 1.833200
10.352900 1.958000
10.380100 2.184400
10.407200 2.447800
10.434400 2.665000
10.461600 2.858700
10.488700 3.256400
10.515900 3.624300
10.543000 3.536800
10.570200 3.112200
10.597400 2.572600
10.624500 1.958600
10.651700 1.541000
10.678900 1.547400
10.706000 1.739900
10.733200 1.995000
10.760300 2.353400
10.787500 2.626500
10.814700 2.643000
10.841800 2.271100
10.869000 1.539700
10.896100 0.923700
10.923300 0.840500
10.950500 1.192600
10.977600 1.656500
11.004800 2.070600
11.031900 2.429000
11.059100 2.635600
11.086300 2.818800
11.113400 3.357200
11.140600 3.908200
11.167800 3.734000
11.194900 3.006600
11.222100 2.490600
11.249200 2.323000
11.276400 2.223400
11.303600 2.248600
11.330700 2.269300
11.357900 2.150900
11.385000 2.274400
11.412200 2.625600
11.439400 2.759200
11.466500 2.597600
11.493700 2.259100
11.520900 1.882800
11.548000 1.653600
11.575200 1.514600
11.602300 1.290700
11.629500 1.086900
11.656700 0.966700
11.683800 0.823700
11.711000 0.788700
11.738100 1.048600
11.765300 1.430500
11.792500 1.651600
11.819600 1.722800
11.846800 1.794100
11.873900 1.905100
11.901100 2.046600
11.928300 2.244700
11.955400 2.512400
11.982600 2.692800
12.009800 2.557100
12.036900 2.212200
12.064100 1.964100
12.091200 1.799800
12.118400 1.581000
12.145600 1.618400
12.172700 2.218100
12.199900 2.984600
12.227000 3.413800
12.254200 3.593100
12.281400 3.762700
12.308500 3.651500
12.335700 2.921600
12.362900 2.044500
12.390000 1.701700
12.417200 1.912200
12.444300 2.361800
12.471500 2.793500
12.498700 3.043200
12.525800 3.038000
12.553000 2.861800
12.580100 2.764700
12.607300 2.867500
12.634500 2.910200
12.661600 2.602000
12.688800 2.102600
12.715900 1.741300
12.743100 1.610300
12.770300 1.697000
12.797400 2.025000
12.824600 2.509900
12.851800 2.754600
12.878900 2.485100
12.906100 2.139300
12.933200 2.198900
12.960400 2.570500
12.987600 3.135800
13.014700 3.753600
13.041900 3.868300
13.069000 3.246900
13.096200 2.528400
13.123400 2.234200
13.150500 2.200400
13.177700 2.305800
13.204900 2.819700
13.232000 3.798900
13.259200 4.675400
13.286300 4.845500
13.313500 4.454800
13.340700 4.148900
13.367800 4.021800
13.395000 3.703900
13.422100 3.284100
13.449300 3.123500
13.476500 3.210600
13.503600 3.327500
13.530800 3.404300
13.557900 3.576700
13.585100 3.984900
13.612300 4.311900
13.639400 4.026200
13.666600 3.201200
13.693800 2.396700
13.720900 1.924000
13.748100 1.810900
13.775200 2.024100
13.802400 2.365800
13.829600 2.661200
13.856700 2.924500
13.883900 3.172700
13.911000 3.349400
13.938200 3.529400
13.965400 3.928900
13.992500 4.375100
14.019700 4.410400
14.046900 3.924700
14.074000 3.279000
14.101200 2.720400
14.128300 2.274200
14.155500 2.209500
14.182700 2.512000
14.209800 2.633200
14.237000 2.441400
14.264100 2.339100
14.291300 2.406900
14.318500 2.336700
14.345600 2.168200
14.372800 2.257600
14.399900 2.720300
14.427100 3.360900
14.454300 3.838800
14.481400 4.031900
14.508600 3.956900
14.535800 3.669500
14.562900 3.576700
14.590100 3.782700
14.617200 3.720900
14.644400 3.275100
14.671600 2.926200
14.698700 2.768300
14.725900 2.647100
14.753000 2.559000
14.780200 2.442700
14.807400 2.366800
14.834500 2.552400
14.861700 2.846600
14.888900 2.919100
14.916000 2.841200
14.943200 2.863600
14.970300 2.995700
14.997500 3.069500
15.024700 2.942200
15.051800 2.663300
15.079000 2.568900
15.106100 2.727100
15.133300 2.853600
15.160500 2.939300
15.187600 3.038600
15.214800 3.134800
15.241900 3.355300
15.269100 3.671800
15.296300 3.987400
15.323400 4.453400
15.350600 4.879600
15.377800 4.654500
15.404900 3.910400
15.432100 3.368600
15.459200 3.250200
15.486400 3.279000
15.513600 3.301200
15.540700 3.343400
15.567900 3.206100
15.595000 2.604400
15.622200 1.770900
15.649400 1.266200
15.676500 1.280200
15.703700 1.681300
15.730900 2.374700
15.758000 3.177800
15.785200 3.495800
15.812300 3.005900
15.839500 2.445000
15.866700 2.556500
15.893800 3.022700
15.921000 3.138600
15.948100 2.842900
15.975300 2.594800
16.002500 2.661300
16.029600 3.007700
16.056800 3.356200
16.083900 3.452100
16.111100 3.394500
16.138300 3.413300
16.165400 3.606400
16.192600 3.798600
16.219800 3.516800
16.246900 2.706000
16.274100 2.028200
16.301200 1.825300
16.328400 1.943600
16.355600 2.470400
16.382700 3.351900
16.409900 3.992600
16.437000 4.238900
16.464200 4.327500
16.491400 4.024600
16.518500 3.350400
16.545700 2.946800
16.572900 3.155400
16.600000 3.534900
16.627200 3.586200
16.654300 3.649500
16.681500 4.153300
16.708700 4.567800
16.735800 4.138600
16.763000 3.200100
16.790100 2.614700
16.817300 2.499600
16.844500 2.480300
16.871600 2.481000
16.898800 2.638100
16.925900 2.845800
16.953100 2.836200
16.980300 2.434600
17.007400 1.774800
17.034600 1.315400
17.061800 1.407800
17.088900 2.155300
17.116100 3.306900
17.143200 4.059200
17.170400 3.971600
17.197600 3.684600
17.224700 3.878200
17.251900 4.338200
17.279000 4.505800
17.306200 4.389300
17.333400 4.237100
17.360500 4.027800
17.387700 3.741800
17.414900 3.358700
17.442000 2.865100
17.469200 2.583400
17.496300 2.772600
17.523500 3.066800
17.550700 3.037100
17.577800 2.968600
17.605000 3.447400
17.632100 4.248700
17.659300 4.543600
17.686500 4.296900
17.713600 4.102200
17.740800 4.189400
17.767900 4.340500
17.795100 4.232800
17.822300 3.880200
17.849400 3.594000
17.876600 3.310300
17.903800 2.689800
17.930900 2.065100
17.958100 2.068400
17.985200 2.595100
18.012400 3.173900
18.039600 3.632400
18.066700 3.901700
18.093900 3.979900
18.121000 3.938700
18.148200 3.647500
18.175400 3.082400
18.202500 2.535300
18.229700 2.188900
18.256900 2.131400
18.284000 2.559700
18.311200 3.398100
18.338300 4.241300
18.365500 4.677100
18.392700 4.467000
18.419800 3.906900
18.447000 3.623200
18.474100 3.571900
18.501300 3.324200
18.528500 2.964200
18.555600 2.749500
18.582800 2.719200
18.609900 2.791800
18.637100 2.874300
18.664300 2.940100
18.691400 3.062900
18.718600 3.253400
18.745800 3.322800
18.772900 3.140900
18.800100 2.903600
18.827200 2.926500
18.854400 3.213800
18.881600 3.508100
18.908700 3.681300
18.935900 3.816000
18.963000 3.971500
18.990200 4.014600
19.017400 3.940400
19.044500 3.962700
19.071700 4.060300
19.098900 4.164900
19.126000 4.225500
19.153200 4.043300
19.180300 3.743100
19.207500 3.645700
19.234700 3.531200
19.261800 3.140200
19.289000 2.852700
19.316100 2.844700
19.343300 2.831600
19.370500 2.737400
19.397600 2.719200
19.424800 2.868200
19.451900 3.095600
19.479100 3.448700
19.506300 3.978200
19.533400 4.316900
19.560600 4.145700
19.587800 3.760000
19.614900 3.637900
19.642100 3.732100
19.669200 3.838400
19.696400 3.936800
19.723600 3.903000
19.750700 3.606800
19.777900 3.109700
19.805000 2.650000
19.832200 2.410100
19.859400 2.312300
19.886500 2.464200
19.913700 3.079500
19.940900 3.635200
19.968000 3.616900
19.995200 3.350400
20.022300 3.080900
20.049500 2.652000
20.076700 2.189100
20.103800 2.123700
20.131000 2.617300
20.158100 3.196000
20.185300 3.250300
20.212500 3.010100
20.239600 3.194600
20.266800 3.975000
20.293900 5.018800
20.321100 5.951200
20.348300 6.271000
20.375400 5.628300
20.402600 4.477600
20.429800 3.731500
20.456900 3.533900
20.484100 3.211500
20.511200 2.736600
20.538400 2.837400
20.565600 3.485400
20.592700 3.734000
20.619900 3.309400
20.647000 2.881500
20.674200 2.685800
20.701400 2.597100
20.728500 2.901700
20.755700 3.628100
20.782900 4.274200
20.810000 4.593800
20.837200 4.615300
20.864300 4.404600
20.891500 4.247400
20.918700 4.292400
20.945800 4.300500
20.973000 4.143900
21.000100 3.967500
21.027300 3.882600
21.054500 3.760300
21.081600 3.359900
21.108800 2.626800
21.135900 1.827100
21.163100 1.396900
21.190300 1.667500
21.217400 2.436500
21.244600 2.873200
21.271800 2.695800
21.298900 2.650300
21.326100 3.102800
21.353200 3.673300
21.380400 4.029200
21.407600 4.007500
21.434700 3.690200
21.461900 3.306500
21.489000 3.023000
21.516200 3.009900
21.543400 3.358100
21.570500 3.908100
21.597700 4.249800
21.624900 4.454400
21.652000 4.775200
21.679200 4.669300
21.706300 3.948900
21.733500 3.395900
21.760700 3.501800
21.787800 4.108900
21.815000 4.478500
21.842100 3.950800
21.869300 3.196500
21.896500 3.111900
21.923600 3.374300
21.950800 3.348800
21.978000 2.985800
22.005100 2.432500
22.032300 1.901700
22.059400 1.625300
22.086600 1.623200
22.113800 1.870400
22.140900 2.367800
22.168100 2.889700
22.195200 3.216900
22.222400 3.422700
22.249600 3.560100
22.276700 3.638100
22.303900 3.636700
22.331000 3.378000
22.358200 2.773000
22.385400 2.161600
22.412500 2.077600
22.439700 2.655200
22.466900 3.539000
22.494000 4.279500
22.521200 4.496800
22.548300 4.059400
22.575500 3.345000
22.602700 2.932000
22.629800 3.139900
22.657000 3.802800
22.684100 4.392000
22.711300 4.634300
22.738500 4.744500
22.765600 4.792100
22.792800 4.605700
22.820000 4.457000
22.847100 4.654600
22.874300 4.669500
22.901400 4.073100
22.928600 3.574100
22.955800 3.739700
22.982900 3.954400
23.010100 3.621900
23.037200 2.968900
23.064400 2.371400
23.091600 1.995000
23.118700 2.032600
23.145900 2.514300
23.173000 3.043300
23.200200 3.259800
23.227400 3.265800
23.254500 3.235500
23.281700 3.012400
23.308900 2.742700
23.336000 2.897500
23.363200 3.321900
23.390300 3.445800
23.417500 3.226500
23.444700 3.016200
23.471800 2.997000
23.499000 3.291500
23.526100 3.802300
23.553300 4.150000
23.580500 4.125800
23.607600 3.867600
23.634800 3.670000
23.662000 3.759400
23.689100 4.198600
23.716300 4.716700
23.743400 4.870900
23.770600 4.543800
23.797800 4.079700
23.824900 3.869000
23.852100 3.832400
23.879200 3.675800
23.906400 3.394100
23.933600 3.275000
23.960700 3.580800
23.987900 4.188800
24.015000 4.728500
24.042200 4.887800
24.069400 4.546800
24.096500 3.910400
24.123700 3.369200
24.150900 3.010100
24.178000 2.655000
24.205200 2.358400
24.232300 2.302100
24.259500 2.298300
24.286700 2.014800
24.313800 1.722400
24.341000 2.008000
24.368100 2.701500
24.395300 3.104600
24.422500 3.127600
24.449600 3.170900
24.476800 3.234000
24.504000 3.088400
24.531100 2.903800
24.558300 2.930700
24.585400 3.067900
24.612600 3.044600
24.639800 2.946300
24.666900 3.137300
24.694100 3.465900
24.721200 3.408100
24.748400 3.054800
24.775600 2.939200
24.802700 2.996200
24.829900 2.943200
24.857000 3.125000
24.884200 3.923900
24.911400 4.812400
24.938500 4.890100
24.965700 4.047500
24.992900 2.922300
25.020000 2.135100
25.047200 1.823300
25.074300 1.908600
25.101500 2.203500
25.128700 2.247900
25.155800 1.815700
25.183000 1.266700
25.210100 1.051100
25.237300 1.184900
25.264500 1.400800
25.291600 1.687700
25.318800 2.236500
25.346000 2.767700
25.373100 2.833100
25.400300 2.512400
25.427400 2.188300
25.454600 2.061700
25.481800 1.922400
25.508900 1.682200
25.536100 1.734500
25.563200 2.122700
25.590400 2.194700
25.617600 1.641300
25.644700 0.957200
25.671900 0.620600
25.699000 0.591700
25.726200 0.619200
25.753400 0.549900
25.780500 0.364100
25.807700 0.167500
25.834900 0.083700
25.862000 0.118500
25.889200 0.173700
25.916300 0.158400
25.943500 0.123600
25.970700 0.224600
25.997800 0.527700
26.025000 0.861400
26.052100 0.977100
26.079300 0.840000
26.106500 0.562000
26.133600 0.277300
26.160800 0.094500
26.188000 0.021200
26.215100 0.003100
26.242300 0.000300
26.269400 0.000000
26.296600 0.000000
26.323800 0.000000
26.350900 0.000000
26.378100 0.000000
26.405200 0.000000
26.432400 0.000000
26.459600 0.000000
26.486700 0.000000
26.513900 0.000000
26.541000 0.000000
26.568200 0.000000
26.595400 0.000000
26.622500 0.000000
26.649700 0.000000
26.676900 0.000000
26.704000 0.000000
26.731200 0.000000
26.758300 0.000000
26.785500 0.000000
26.812700 0.000000
26.839800 0.000000
26.867000 0.000000
26.894100 0.000000
26.921300 0.000000
26.948500 0.000000
26.975600 0.000000
27.002800 0.000000
27.030000 0.000000
27.057100 0.000000
27.084300 0.000000
27.111400 0.000000
27.138600 0.000000
27.165800 0.000000
27.192900 0.000000
27.220100 0.000000
27.247200 0.000000
27.274400 0.000000
27.301600 0.000000
27.328700 0.000000
27.355900 0.000000
27.383000 0.000000
27.410200 0.000000
27.437400 0.000000
27.464500 0.000000
27.491700 0.000000
27.518900 0.000000
27.546000 0.000000
27.573200 0.000000
27.600300 0.000000
27.627500 0.000000
27.654700 0.000000
27.681800 0.000000
27.709000 0.000000
27.736100 0.000000
27.763300 0.000000
27.790500 0.000000
27.817600 0.000000
27.844800 0.000000
27.872000 0.000000
27.899100 0.000000
27.926300 0.000000
27.953400 0.000000
27.980600 0.000000
28.007800 0.000000
28.034900 0.000000
28.062100 0.000000
28.089200 0.000000
28.116400 0.000000
28.143600 0.000000
28.170700 0.000000
28.197900 0.000000
28.225000 0.000000
28.252200 0.000000
28.279400 0.000000
28.306500 0.000000
28.333700 0.000000
28.360900 0.000000
28.388000 0.000000
28.415200 0.000000
28.442300 0.000000
28.469500 0.000000
28.496700 0.000000
28.523800 0.000000
28.551000 0.000000
28.578100 0.000000
e
