set title 'mp-1423 - Density of States'
set xlabel 'Energy (eV)'
set ylabel 'DOS (states/eV)'
set grid
set xrange [-10:10]
set yrange [0:5.600]
set xzeroaxis lt -1
set terminal png size 800,600
set output 'mp-1423_dos_gnuplot.png'
plot '-' using 1:2 with lines title 'DOS'
-21.164000 0.000000
-21.145400 0.000000
-21.126700 0.000000
-21.108100 0.000000
-21.089500 0.000000
-21.070800 0.000000
-21.052200 0.000000
-21.033600 0.000000
-21.015000 0.000000
-20.996300 0.000000
-20.977700 0.000000
-20.959100 0.000000
-20.940400 0.000000
-20.921800 0.000000
-20.903200 0.000000
-20.884600 0.000000
-20.865900 0.000000
-20.847300 0.000000
-20.828700 0.000000
-20.810100 0.000000
-20.791400 0.000000
-20.772800 0.000000
-20.754200 0.000000
-20.735500 0.000000
-20.716900 0.000000
-20.698300 0.000000
-20.679700 0.000000
-20.661000 0.000000
-20.642400 0.000000
-20.623800 0.000000
-20.605200 0.000000
-20.586500 0.000000
-20.567900 0.000000
-20.549300 0.000000
-20.530600 0.000000
-20.512000 0.000000
-20.493400 0.000000
-20.474800 0.000000
-20.456100 0.000000
-20.437500 0.000000
-20.418900 0.000000
-20.400300 0.000000
-20.381600 0.000000
-20.363000 0.000000
-20.344400 0.000000
-20.325700 0.000000
-20.307100 0.000000
-20.288500 0.000000
-20.269900 0.000000
-20.251200 0.000000
-20.232600 0.000000
-20.214000 0.000000
-20.195400 0.000000
-20.176700 0.000000
-20.158100 0.000000
-20.139500 0.000000
-20.120800 0.000000
-20.102200 0.000000
-20.083600 0.000000
-20.065000 0.000000
-20.046300 0.000000
-20.027700 0.000000
-20.009100 0.000000
-19.990500 0.000000
-19.971800 0.000000
-19.953200 0.000000
-19.934600 0.000000
-19.915900 0.000000
-19.897300 0.000000
-19.878700 0.000000
-19.860100 0.000000
-19.841400 0.000000
-19.822800 0.000000
-19.804200 0.000000
-19.785600 0.000000
-19.766900 0.000000
-19.748300 0.000000
-19.729700 0.000000
-19.711000 0.000000
-19.692400 0.000000
-19.673800 0.000000
-19.655200 0.000000
-19.636500 0.000000
-19.617900 0.000000
-19.599300 0.000000
-19.580600 0.000000
-19.562000 0.000000
-19.543400 0.000000
-19.524800 0.000000
-19.506100 0.000000
-19.487500 0.000000
-19.468900 0.159300
-19.450300 4.401100
-19.431600 6.765500
-19.413000 7.195200
-19.394400 7.953100
-19.375700 10.562000
-19.357100 12.827800
-19.338500 10.438400
-19.319900 7.086200
-19.301200 6.797100
-19.282600 8.154000
-19.264000 8.968200
-19.245400 8.098800
-19.226700 7.753500
-19.208100 7.716400
-19.189500 8.022000
-19.170800 7.847000
-19.152200 8.296700
-19.133600 9.081300
-19.115000 10.249000
-19.096300 12.452500
-19.077700 13.243000
-19.059100 14.978700
-19.040500 14.039100
-19.021800 2.231300
-19.003200 2.815700
-18.984600 3.514800
-18.965900 4.398700
-18.947300 5.586500
-18.928700 7.384800
-18.910100 10.559800
-18.891400 19.042100
-18.872800 20.430900
-18.854200 9.956600
-18.835600 5.913400
-18.816900 3.397100
-18.798300 1.158300
-18.779700 0.000000
-18.761000 0.000000
-18.742400 0.000000
-18.723800 0.000000
-18.705200 0.000000
-18.686500 0.000000
-18.667900 0.000000
-18.649300 0.000000
-18.630700 0.000000
-18.612000 0.000000
-18.593400 0.000000
-18.574800 0.000000
-18.556100 0.000000
-18.537500 0.000000
-18.518900 0.000000
-18.500300 0.000000
-18.481600 0.000000
-18.463000 0.000000
-18.444400 0.000000
-18.425700 0.000000
-18.407100 0.000000
-18.388500 0.000000
-18.369900 0.000000
-18.351200 0.000000
-18.332600 0.000000
-18.314000 0.000000
-18.295400 0.000000
-18.276700 0.000000
-18.258100 0.000000
-18.239500 0.000000
-18.220800 0.000000
-18.202200 0.000000
-18.183600 0.000000
-18.165000 0.000000
-18.146300 0.000000
-18.127700 0.000000
-18.109100 0.000000
-18.090500 0.000000
-18.071800 0.000000
-18.053200 0.000000
-18.034600 0.000000
-18.015900 0.000000
-17.997300 0.000000
-17.978700 0.000000
-17.960100 0.000000
-17.941400 0.000000
-17.922800 0.000000
-17.904200 0.000000
-17.885600 0.000000
-17.866900 0.000000
-17.848300 0.000000
-17.829700 0.000000
-17.811000 0.000000
-17.792400 0.000000
-17.773800 0.000000
-17.755200 0.000000
-17.736500 0.000000
-17.717900 0.000000
-17.699300 0.000000
-17.680700 0.000000
-17.662000 0.000000
-17.643400 0.000000
-17.624800 0.000000
-17.606100 0.000000
-17.587500 0.000000
-17.568900 0.000000
-17.550300 0.000000
-17.531600 0.000000
-17.513000 0.000000
-17.494400 0.000000
-17.475800 0.000000
-17.457100 0.000000
-17.438500 0.000000
-17.419900 0.000000
-17.401200 0.000000
-17.382600 0.000000
-17.364000 0.000000
-17.345400 0.000000
-17.326700 0.000000
-17.308100 0.000000
-17.289500 0.000000
-17.270800 0.000000
-17.252200 0.000000
-17.233600 0.000000
-17.215000 0.000000
-17.196300 0.000000
-17.177700 0.000000
-17.159100 0.000000
-17.140500 0.000000
-17.121800 0.000000
-17.103200 0.000000
-17.084600 0.000000
-17.065900 0.000000
-17.047300 0.000000
-17.028700 0.000000
-17.010100 0.000000
-16.991400 0.000000
-16.972800 0.000000
-16.954200 0.000000
-16.935600 0.000000
-16.916900 0.000000
-16.898300 0.000000
-16.879700 0.000000
-16.861000 0.000000
-16.842400 0.000000
-16.823800 0.000000
-16.805200 0.000000
-16.786500 0.000000
-16.767900 0.000000
-16.749300 0.000000
-16.730700 0.000000
-16.712000 0.000000
-16.693400 0.000000
-16.674800 0.000000
-16.656100 0.000000
-16.637500 0.000000
-16.618900 0.000000
-16.600300 0.000000
-16.581600 0.000000
-16.563000 0.000000
-16.544400 0.000000
-16.525800 0.000000
-16.507100 0.000000
-16.488500 0.000000
-16.469900 0.000000
-16.451200 0.000000
-16.432600 0.000000
-16.414000 0.000000
-16.395400 0.000000
-16.376700 0.000000
-16.358100 0.000000
-16.339500 0.000000
-16.320900 0.000000
-16.302200 0.000000
-16.283600 0.000000
-16.265000 0.000000
-16.246300 0.000000
-16.227700 0.000000
-16.209100 0.000000
-16.190500 0.000000
-16.171800 0.000000
-16.153200 0.000000
-16.134600 0.000000
-16.115900 0.000000
-16.097300 0.000000
-16.078700 0.000000
-16.060100 0.000000
-16.041400 0.000000
-16.022800 0.000000
-16.004200 0.000000
-15.985600 0.000000
-15.966900 0.000000
-15.948300 0.000000
-15.929700 0.000000
-15.911000 0.000000
-15.892400 0.000000
-15.873800 0.000000
-15.855200 0.000000
-15.836500 0.000000
-15.817900 0.000000
-15.799300 0.000000
-15.780700 0.000000
-15.762000 0.000000
-15.743400 0.000000
-15.724800 0.000000
-15.706100 0.000000
-15.687500 0.000000
-15.668900 0.000000
-15.650300 0.000000
-15.631600 0.000000
-15.613000 0.000000
-15.594400 0.000000
-15.575800 0.000000
-15.557100 0.000000
-15.538500 0.000000
-15.519900 0.000000
-15.501200 0.000000
-15.482600 0.000000
-15.464000 0.000000
-15.445400 0.000000
-15.426700 0.000000
-15.408100 0.000000
-15.389500 0.000000
-15.370900 0.000000
-15.352200 0.000000
-15.333600 0.000000
-15.315000 0.000000
-15.296300 0.000000
-15.277700 0.000000
-15.259100 0.000000
-15.240500 0.000000
-15.221800 0.000000
-15.203200 0.000000
-15.184600 0.000000
-15.166000 0.000000
-15.147300 0.000000
-15.128700 0.000000
-15.110100 0.000000
-15.091400 0.000000
-15.072800 0.000000
-15.054200 0.000000
-15.035600 0.000000
-15.016900 0.000000
-14.998300 0.000000
-14.979700 0.000000
-14.961000 0.000000
-14.942400 0.000000
-14.923800 0.000000
-14.905200 0.000000
-14.886500 0.000000
-14.867900 0.000000
-14.849300 0.000000
-14.830700 0.000000
-14.812000 0.000000
-14.793400 0.000000
-14.774800 0.000000
-14.756100 0.000000
-14.737500 0.000000
-14.718900 0.000000
-14.700300 0.000000
-14.681600 0.000000
-14.663000 0.000000
-14.644400 0.000000
-14.625800 0.000000
-14.607100 0.000000
-14.588500 0.000000
-14.569900 0.000000
-14.551200 0.000000
-14.532600 0.000000
-14.514000 0.000000
-14.495400 0.000000
-14.476700 0.000000
-14.458100 0.000000
-14.439500 0.000000
-14.420900 0.000000
-14.402200 0.000000
-14.383600 0.000000
-14.365000 0.000000
-14.346300 0.000000
-14.327700 0.000000
-14.309100 0.000000
-14.290500 0.000000
-14.271800 0.000000
-14.253200 0.000000
-14.234600 0.000000
-14.216000 0.000000
-14.197300 0.000000
-14.178700 0.000000
-14.160100 0.000000
-14.141400 0.000000
-14.122800 0.000000
-14.104200 0.000000
-14.085600 0.000000
-14.066900 0.000000
-14.048300 0.000000
-14.029700 0.000000
-14.011100 0.000000
-13.992400 0.000000
-13.973800 0.000000
-13.955200 0.000000
-13.936500 0.000000
-13.917900 0.000000
-13.899300 0.000000
-13.880700 0.000000
-13.862000 0.000000
-13.843400 0.000000
-13.824800 0.000000
-13.806100 0.000000
-13.787500 0.000000
-13.768900 0.000000
-13.750300 0.000000
-13.731600 0.000000
-13.713000 0.000000
-13.694400 0.000000
-13.675800 0.000000
-13.657100 0.000000
-13.638500 0.000000
-13.619900 0.000000
-13.601200 0.000000
-13.582600 0.000000
-13.564000 0.000000
-13.545400 0.000000
-13.526700 0.000000
-13.508100 0.000000
-13.489500 0.000000
-13.470900 0.000000
-13.452200 0.000000
-13.433600 0.000000
-13.415000 0.000000
-13.396300 0.000000
-13.377700 0.000000
-13.359100 0.000000
-13.340500 0.000000
-13.321800 0.000000
-13.303200 0.000000
-13.284600 0.000000
-13.266000 0.000000
-13.247300 0.000000
-13.228700 0.000000
-13.210100 0.000000
-13.191400 0.000000
-13.172800 0.000000
-13.154200 0.000000
-13.135600 0.000000
-13.116900 0.000000
-13.098300 0.000000
-13.079700 0.000000
-13.061100 0.000000
-13.042400 0.000000
-13.023800 0.000000
-13.005200 0.000000
-12.986500 0.000000
-12.967900 0.000000
-12.949300 0.000000
-12.930700 0.000000
-12.912000 0.000000
-12.893400 0.000000
-12.874800 0.000000
-12.856200 0.000000
-12.837500 0.000000
-12.818900 0.000000
-12.800300 0.000000
-12.781600 0.000000
-12.763000 0.000000
-12.744400 0.000000
-12.725800 0.000000
-12.707100 0.000000
-12.688500 0.000000
-12.669900 0.000000
-12.651200 0.000000
-12.632600 0.000000
-12.614000 0.000000
-12.595400 0.000000
-12.576700 0.000000
-12.558100 0.000000
-12.539500 0.000000
-12.520900 0.000000
-12.502200 0.000000
-12.483600 0.000000
-12.465000 0.000000
-12.446300 0.000000
-12.427700 0.000000
-12.409100 0.000000
-12.390500 0.000000
-12.371800 0.000000
-12.353200 0.000000
-12.334600 0.000000
-12.316000 0.000000
-12.297300 0.000000
-12.278700 0.000000
-12.260100 0.000000
-12.241400 0.000000
-12.222800 0.000000
-12.204200 0.000000
-12.185600 0.000000
-12.166900 0.000000
-12.148300 0.000000
-12.129700 0.000000
-12.111100 0.000000
-12.092400 0.000000
-12.073800 0.000000
-12.055200 0.000000
-12.036500 0.000000
-12.017900 0.000000
-11.999300 0.000000
-11.980700 0.000000
-11.962000 0.000000
-11.943400 0.000000
-11.924800 0.000000
-11.906200 0.000000
-11.887500 0.000000
-11.868900 0.000000
-11.850300 0.000000
-11.831600 0.000000
-11.813000 0.000000
-11.794400 0.000000
-11.775800 0.000000
-11.757100 0.000000
-11.738500 0.000000
-11.719900 0.000000
-11.701300 0.000000
-11.682600 0.000000
-11.664000 0.000000
-11.645400 0.000000
-11.626700 0.000000
-11.608100 0.000000
-11.589500 0.000000
-11.570900 0.000000
-11.552200 0.000000
-11.533600 0.000000
-11.515000 0.000000
-11.496300 0.000000
-11.477700 0.000000
-11.459100 0.000000
-11.440500 0.000000
-11.421800 0.000000
-11.403200 0.000000
-11.384600 0.000000
-11.366000 0.000000
-11.347300 0.000000
-11.328700 0.000000
-11.310100 0.000000
-11.291400 0.000000
-11.272800 0.000000
-11.254200 0.000000
-11.235600 0.000000
-11.216900 0.000000
-11.198300 0.000000
-11.179700 0.000000
-11.161100 0.000000
-11.142400 0.000000
-11.123800 0.000000
-11.105200 0.000000
-11.086500 0.000000
-11.067900 0.000000
-11.049300 0.000000
-11.030700 0.000000
-11.012000 0.000000
-10.993400 0.000000
-10.974800 0.000000
-10.956200 0.000000
-10.937500 0.000000
-10.918900 0.000000
-10.900300 0.000000
-10.881600 0.000000
-10.863000 0.011500
-10.844400 0.085300
-10.825800 0.121100
-10.807100 0.151200
-10.788500 0.180800
-10.769900 0.216500
-10.751300 0.236400
-10.732600 0.264000
-10.714000 0.289500
-10.695400 0.315500
-10.676700 0.345100
-10.658100 0.379800
-10.639500 0.410000
-10.620900 0.440400
-10.602200 0.471900
-10.583600 0.509100
-10.565000 0.549600
-10.546400 0.599900
-10.527700 0.650700
-10.509100 0.704700
-10.490500 0.782800
-10.471800 0.874300
-10.453200 1.055700
-10.434600 1.164900
-10.416000 1.187300
-10.397300 1.255600
-10.378700 1.667700
-10.360100 2.029700
-10.341500 2.492400
-10.322800 3.081500
-10.304200 3.176400
-10.285600 3.499900
-10.266900 3.921200
-10.248300 4.160600
-10.229700 4.223500
-10.211100 4.288900
-10.192400 4.370400
-10.173800 4.472200
-10.155200 4.635600
-10.136500 4.864000
-10.117900 5.535300
-10.099300 4.806000
-10.080700 3.976100
-10.062000 3.617700
-10.043400 3.243600
-10.024800 3.065600
-10.006200 2.842300
-9.987500 2.756900
-9.968900 2.552200
-9.950300 2.428800
-9.931600 2.320800
-9.913000 2.288400
-9.894400 1.985700
-9.875800 1.179200
-9.857100 0.514500
-9.838500 0.000000
-9.819900 0.000000
-9.801300 0.000000
-9.782600 0.000000
-9.764000 0.000000
-9.745400 0.000000
-9.726700 0.000000
-9.708100 0.000000
-9.689500 0.000000
-9.670900 0.000000
-9.652200 0.000000
-9.633600 0.000000
-9.615000 0.000000
-9.596400 0.000000
-9.577700 0.000000
-9.559100 0.000000
-9.540500 0.000000
-9.521800 0.000000
-9.503200 0.000000
-9.484600 0.000000
-9.466000 0.000000
-9.447300 0.000000
-9.428700 0.000000
-9.410100 0.000000
-9.391500 0.000000
-9.372800 0.000000
-9.354200 0.000000
-9.335600 0.000000
-9.316900 0.000000
-9.298300 0.000000
-9.279700 0.000000
-9.261100 0.000000
-9.242400 0.000000
-9.223800 0.000000
-9.205200 0.000000
-9.186600 0.000000
-9.167900 0.000000
-9.149300 0.000000
-9.130700 0.000000
-9.112000 0.000000
-9.093400 0.000000
-9.074800 0.000000
-9.056200 0.000000
-9.037500 0.000000
-9.018900 0.000000
-9.000300 0.000000
-8.981600 0.000000
-8.963000 0.000000
-8.944400 0.000000
-8.925800 0.000000
-8.907100 0.000000
-8.888500 0.000000
-8.869900 0.000000
-8.851300 0.000000
-8.832600 0.000000
-8.814000 0.000000
-8.795400 0.000000
-8.776700 0.000000
-8.758100 0.000000
-8.739500 0.000000
-8.720900 0.000000
-8.702200 0.000000
-8.683600 0.000000
-8.665000 0.000000
-8.646400 0.000000
-8.627700 0.000000
-8.609100 0.000000
-8.590500 0.000000
-8.571800 0.000000
-8.553200 0.000000
-8.534600 0.000000
-8.516000 0.000000
-8.497300 0.000000
-8.478700 0.000000
-8.460100 0.000000
-8.441500 0.000000
-8.422800 0.000000
-8.404200 0.000000
-8.385600 0.000000
-8.366900 0.000000
-8.348300 0.000000
-8.329700 0.000000
-8.311100 0.000000
-8.292400 0.000000
-8.273800 0.000000
-8.255200 0.000000
-8.236600 0.000000
-8.217900 0.000000
-8.199300 0.000000
-8.180700 0.000000
-8.162000 0.000000
-8.143400 0.000000
-8.124800 0.000000
-8.106200 0.000000
-8.087500 0.000000
-8.068900 0.000000
-8.050300 0.000000
-8.031700 0.000000
-8.013000 0.000000
-7.994400 0.000000
-7.975800 0.000000
-7.957100 0.000000
-7.938500 0.000000
-7.919900 0.000000
-7.901300 0.000000
-7.882600 0.000000
-7.864000 0.000000
-7.845400 0.000000
-7.826700 0.000000
-7.808100 0.000000
-7.789500 0.000000
-7.770900 0.000000
-7.752200 0.000000
-7.733600 0.000000
-7.715000 0.000000
-7.696400 0.000000
-7.677700 0.000000
-7.659100 0.000000
-7.640500 0.000000
-7.621800 0.000000
-7.603200 0.000000
-7.584600 0.000000
-7.566000 0.000000
-7.547300 0.000000
-7.528700 0.000000
-7.510100 0.000000
-7.491500 0.000000
-7.472800 0.000000
-7.454200 0.000000
-7.435600 0.000000
-7.416900 0.000000
-7.398300 0.000000
-7.379700 0.000000
-7.361100 0.000000
-7.342400 0.000000
-7.323800 0.000000
-7.305200 0.000000
-7.286600 0.000000
-7.267900 0.000000
-7.249300 0.000000
-7.230700 0.000000
-7.212000 0.000000
-7.193400 0.000000
-7.174800 0.000000
-7.156200 0.000000
-7.137500 0.000000
-7.118900 0.000000
-7.100300 0.000000
-7.081700 0.000000
-7.063000 0.000000
-7.044400 0.000000
-7.025800 0.000000
-7.007100 0.000000
-6.988500 0.000000
-6.969900 0.000000
-6.951300 0.000000
-6.932600 0.000000
-6.914000 0.000000
-6.895400 0.000000
-6.876800 0.000000
-6.858100 0.000000
-6.839500 0.000000
-6.820900 0.000000
-6.802200 0.000000
-6.783600 0.000000
-6.765000 0.000000
-6.746400 0.000000
-6.727700 0.000000
-6.709100 0.000000
-6.690500 0.000000
-6.671800 0.000000
-6.653200 0.000000
-6.634600 0.000000
-6.616000 0.000000
-6.597300 0.000000
-6.578700 0.000000
-6.560100 0.000000
-6.541500 0.000000
-6.522800 0.000000
-6.504200 0.000000
-6.485600 0.000000
-6.466900 0.000000
-6.448300 0.000000
-6.429700 0.000000
-6.411100 0.000000
-6.392400 0.000000
-6.373800 0.000000
-6.355200 0.000000
-6.336600 0.000000
-6.317900 0.000000
-6.299300 0.000000
-6.280700 0.000000
-6.262000 0.000000
-6.243400 0.000000
-6.224800 0.000000
-6.206200 0.000000
-6.187500 0.000000
-6.168900 0.000000
-6.150300 0.000000
-6.131700 0.000000
-6.113000 0.000000
-6.094400 0.000000
-6.075800 0.000000
-6.057100 0.000000
-6.038500 0.000000
-6.019900 0.000000
-6.001300 0.000000
-5.982600 0.000000
-5.964000 0.000000
-5.945400 0.000000
-5.926800 0.000000
-5.908100 0.000000
-5.889500 0.000000
-5.870900 0.000000
-5.852200 0.000000
-5.833600 0.000000
-5.815000 0.000000
-5.796400 0.000000
-5.777700 0.000000
-5.759100 0.000000
-5.740500 0.000000
-5.721900 0.000000
-5.703200 0.000000
-5.684600 0.000000
-5.666000 0.000000
-5.647300 0.000000
-5.628700 0.000000
-5.610100 0.000000
-5.591500 0.000000
-5.572800 0.000000
-5.554200 0.000000
-5.535600 0.000000
-5.516900 0.000000
-5.498300 0.000000
-5.479700 0.000000
-5.461100 0.000000
-5.442400 0.000000
-5.423800 0.000000
-5.405200 0.000000
-5.386600 0.000000
-5.367900 0.000000
-5.349300 0.000000
-5.330700 0.000000
-5.312000 0.000000
-5.293400 0.000000
-5.274800 0.000000
-5.256200 0.000000
-5.237500 0.000000
-5.218900 0.000000
-5.200300 0.000000
-5.181700 0.000000
-5.163000 0.000000
-5.144400 0.000000
-5.125800 0.000000
-5.107100 0.000000
-5.088500 0.000000
-5.069900 0.000000
-5.051300 0.000000
-5.032600 0.000000
-5.014000 0.000000
-4.995400 0.000000
-4.976800 0.000000
-4.958100 0.000000
-4.939500 0.000000
-4.920900 0.000000
-4.902200 0.000000
-4.883600 0.000000
-4.865000 0.000000
-4.846400 0.000000
-4.827700 0.000000
-4.809100 0.000000
-4.790500 0.000000
-4.771900 0.000000
-4.753200 0.000000
-4.734600 0.000000
-4.716000 0.000000
-4.697300 0.000000
-4.678700 0.000000
-4.660100 0.000000
-4.641500 0.000000
-4.622800 0.000000
-4.604200 0.000000
-4.585600 0.000000
-4.567000 0.000000
-4.548300 0.000000
-4.529700 0.000000
-4.511100 0.000000
-4.492400 0.000000
-4.473800 0.000000
-4.455200 0.000000
-4.436600 0.000000
-4.417900 0.000000
-4.399300 0.000000
-4.380700 0.000000
-4.362000 0.000000
-4.343400 0.000000
-4.324800 0.000000
-4.306200 0.000000
-4.287500 0.000000
-4.268900 0.000000
-4.250300 0.000000
-4.231700 0.000000
-4.213000 0.000000
-4.194400 0.000000
-4.175800 0.000000
-4.157100 0.000000
-4.138500 0.000000
-4.119900 0.000000
-4.101300 0.000000
-4.082600 0.000000
-4.064000 0.000000
-4.045400 0.000000
-4.026800 0.000000
-4.008100 0.000000
-3.989500 0.000000
-3.970900 0.000000
-3.952200 0.000000
-3.933600 0.000000
-3.915000 0.000000
-3.896400 0.000000
-3.877700 0.000000
-3.859100 0.000000
-3.840500 0.000000
-3.821900 0.000000
-3.803200 0.000000
-3.784600 0.000000
-3.766000 0.000000
-3.747300 0.000000
-3.728700 0.000000
-3.710100 0.000000
-3.691500 0.000000
-3.672800 0.000000
-3.654200 0.000000
-3.635600 0.000000
-3.617000 0.000000
-3.598300 0.000000
-3.579700 0.000000
-3.561100 0.000000
-3.542400 0.000000
-3.523800 0.000000
-3.505200 0.000000
-3.486600 0.000000
-3.467900 0.000000
-3.449300 0.000000
-3.430700 0.000000
-3.412100 0.000000
-3.393400 0.000000
-3.374800 0.000000
-3.356200 0.000000
-3.337500 0.000000
-3.318900 0.000000
-3.300300 0.000000
-3.281700 0.000000
-3.263000 0.000000
-3.244400 0.000000
-3.225800 0.000000
-3.207100 0.000000
-3.188500 0.000000
-3.169900 0.000000
-3.151300 0.000000
-3.132600 0.000000
-3.114000 0.000000
-3.095400 0.000000
-3.076800 0.000000
-3.058100 0.000000
-3.039500 0.000000
-3.020900 0.000000
-3.002200 0.000000
-2.983600 0.000000
-2.965000 0.000000
-2.946400 0.000000
-2.927700 0.000000
-2.909100 0.000000
-2.890500 0.016200
-2.871900 0.156300
-2.853200 0.255000
-2.834600 0.337500
-2.816000 0.413200
-2.797300 0.480900
-2.778700 0.560800
-2.760100 0.639800
-2.741500 0.704000
-2.722800 0.806500
-2.704200 0.909100
-2.685600 1.072200
-2.667000 1.240000
-2.648300 1.553800
-2.629700 2.157500
-2.611100 3.295000
-2.592400 2.456100
-2.573800 2.213300
-2.555200 2.069600
-2.536600 1.990700
-2.517900 1.938600
-2.499300 1.881800
-2.480700 1.838200
-2.462100 1.807800
-2.443400 1.790700
-2.424800 1.785100
-2.406200 1.797500
-2.387500 1.832900
-2.368900 1.954200
-2.350300 1.836800
-2.331700 1.787400
-2.313000 1.731000
-2.294400 1.668900
-2.275800 1.622500
-2.257200 1.582700
-2.238500 1.561200
-2.219900 1.517400
-2.201300 1.483000
-2.182600 1.446800
-2.164000 1.411800
-2.145400 1.380700
-2.126800 1.354200
-2.108100 1.335600
-2.089500 1.310700
-2.070900 1.288400
-2.052200 1.265400
-2.033600 1.240300
-2.015000 1.217300
-1.996400 1.195200
-1.977700 1.175600
-1.959100 1.161500
-1.940500 1.150200
-1.921900 1.133200
-1.903200 1.118100
-1.884600 1.099300
-1.866000 1.081000
-1.847300 1.080400
-1.828700 1.065800
-1.810100 1.040600
-1.791500 0.988800
-1.772800 0.954500
-1.754200 0.925600
-1.735600 0.901500
-1.717000 0.880700
-1.698300 0.862700
-1.679700 0.846900
-1.661100 0.834600
-1.642400 0.825100
-1.623800 0.810700
-1.605200 0.791800
-1.586600 0.777700
-1.567900 0.764000
-1.549300 0.747500
-1.530700 0.733600
-1.512100 0.721100
-1.493400 0.708600
-1.474800 0.698900
-1.456200 0.703800
-1.437500 0.714600
-1.418900 0.722900
-1.400300 0.734900
-1.381700 0.752100
-1.363000 0.769200
-1.344400 0.783900
-1.325800 0.779700
-1.307200 0.777700
-1.288500 0.752700
-1.269900 0.730300
-1.251300 0.680600
-1.232600 0.661600
-1.214000 0.670600
-1.195400 0.660000
-1.176800 0.681700
-1.158100 0.652000
-1.139500 0.604700
-1.120900 0.567400
-1.102300 0.538100
-1.083600 0.524400
-1.065000 0.560000
-1.046400 0.546400
-1.027700 0.563300
-1.009100 0.581600
-0.990500 0.595900
-0.971900 0.616200
-0.953200 0.638300
-0.934600 0.662100
-0.916000 0.696300
-0.897400 0.716500
-0.878700 0.749000
-0.860100 0.776600
-0.841500 0.808600
-0.822800 0.808400
-0.804200 0.861000
-0.785600 0.934200
-0.767000 1.021100
-0.748300 1.113300
-0.729700 1.225100
-0.711100 1.395000
-0.692400 1.594600
-0.673800 1.610000
-0.655200 1.620600
-0.636600 1.661000
-0.617900 1.717100
-0.599300 1.768500
-0.580700 1.794300
-0.562100 1.848800
-0.543400 1.909200
-0.524800 1.964100
-0.506200 2.023600
-0.487500 2.103400
-0.468900 2.170500
-0.450300 2.248000
-0.431700 2.357300
-0.413000 2.426500
-0.394400 2.467800
-0.375800 2.550700
-0.357200 2.549900
-0.338500 2.546200
-0.319900 2.587900
-0.301300 2.617100
-0.282600 2.604800
-0.264000 2.450600
-0.245400 2.403400
-0.226800 2.337900
-0.208100 2.171500
-0.189500 1.999200
-0.170900 1.827400
-0.152300 1.676900
-0.133600 1.547700
-0.115000 1.417600
-0.096400 1.312000
-0.077700 1.747200
-0.059100 2.412600
-0.040500 2.819000
-0.021900 3.472300
-0.003200 3.691500
0.015400 4.164100
0.034000 4.879000
0.052600 5.091100
0.071300 4.148200
0.089900 3.822300
0.108500 3.574700
0.127200 3.236200
0.145800 3.009000
0.164400 2.863800
0.183000 2.748400
0.201700 2.652400
0.220300 2.562300
0.238900 2.473800
0.257500 2.395300
0.276200 2.316600
0.294800 2.255200
0.313400 2.201400
0.332100 2.154000
0.350700 2.109200
0.369300 2.070000
0.387900 2.051500
0.406600 2.062000
0.425200 2.100100
0.443800 2.131000
0.462500 2.138100
0.481100 2.068500
0.499700 2.017400
0.518300 1.970800
0.537000 1.929700
0.555600 1.896000
0.574200 1.870100
0.592800 1.877300
0.611500 1.882600
0.630100 1.919100
0.648700 1.904200
0.667400 1.891100
0.686000 1.898000
0.704600 1.959500
0.723200 1.930900
0.741900 1.885100
0.760500 1.861900
0.779100 1.858000
0.797700 1.849100
0.816400 1.748500
0.835000 1.625000
0.853600 1.518000
0.872300 1.516500
0.890900 1.541300
0.909500 1.593500
0.928100 1.627600
0.946800 1.658700
0.965400 1.776700
0.984000 1.805500
1.002600 1.842800
1.021300 2.023200
1.039900 2.195700
1.058500 2.056400
1.077200 1.802500
1.095800 1.665500
1.114400 1.626000
1.133000 1.563900
1.151700 1.535300
1.170300 1.510900
1.188900 1.490400
1.207500 1.466800
1.226200 1.437500
1.244800 1.408400
1.263400 1.383100
1.282100 1.375900
1.300700 1.365200
1.319300 1.365700
1.337900 1.373700
1.356600 1.384600
1.375200 1.378100
1.393800 1.378400
1.412400 1.386000
1.431100 1.397000
1.449700 1.366700
1.468300 1.358900
1.487000 1.362400
1.505600 1.365800
1.524200 1.370700
1.542800 1.379600
1.561500 1.416400
1.580100 1.386200
1.598700 1.389200
1.617400 1.409600
1.636000 1.446200
1.654600 1.496000
1.673200 1.574200
1.691900 1.703500
1.710500 1.749800
1.729100 1.763300
1.747700 1.743000
1.766400 1.739900
1.785000 1.764000
1.803600 1.750900
1.822300 1.748100
1.840900 1.754600
1.859500 1.741200
1.878100 1.738700
1.896800 1.768900
1.915400 1.761700
1.934000 1.769300
1.952600 1.758600
1.971300 1.766100
1.989900 1.788800
2.008500 1.788300
2.027200 1.596200
2.045800 1.403100
2.064400 1.276000
2.083000 1.174300
2.101700 1.106600
2.120300 0.962300
2.138900 0.861200
2.157500 0.776100
2.176200 0.669900
2.194800 0.593500
2.213400 0.553100
2.232100 0.537500
2.250700 0.499600
2.269300 0.445100
2.287900 0.404400
2.306600 0.374500
2.325200 0.367700
2.343800 0.261900
2.362400 0.249100
2.381100 0.110700
2.399700 0.113400
2.418300 0.116200
2.437000 0.119000
2.455600 0.121900
2.474200 0.124900
2.492800 0.128100
2.511500 0.131300
2.530100 0.134900
2.548700 0.138600
2.567300 0.142700
2.586000 0.146900
2.604600 0.151100
2.623200 0.155200
2.641900 0.161700
2.660500 0.166300
2.679100 0.166800
2.697700 0.169000
2.716400 0.171700
2.735000 0.174500
2.753600 0.177500
2.772300 0.180500
2.790900 0.183600
2.809500 0.186800
2.828100 0.190100
2.846800 0.193700
2.865400 0.197400
2.884000 0.201100
2.902600 0.204900
2.921300 0.208700
2.939900 0.212500
2.958500 0.216000
2.977200 0.218900
2.995800 0.221900
3.014400 0.228000
3.033000 0.229900
3.051700 0.232100
3.070300 0.234600
3.088900 0.237500
3.107500 0.240700
3.126200 0.244100
3.144800 0.247600
3.163400 0.251100
3.182100 0.254800
3.200700 0.258500
3.219300 0.262400
3.237900 0.266300
3.256600 0.270400
3.275200 0.274400
3.293800 0.278400
3.312400 0.282400
3.331100 0.286100
3.349700 0.289500
3.368300 0.292400
3.387000 0.295200
3.405600 0.300800
3.424200 0.304000
3.442800 0.306500
3.461500 0.309300
3.480100 0.312400
3.498700 0.315600
3.517300 0.319000
3.536000 0.322500
3.554600 0.326000
3.573200 0.329700
3.591900 0.333500
3.610500 0.337400
3.629100 0.341500
3.647700 0.345800
3.666400 0.350300
3.685000 0.354800
3.703600 0.359400
3.722200 0.363800
3.740900 0.367900
3.759500 0.371700
3.778100 0.375200
3.796800 0.378500
3.815400 0.385200
3.834000 0.389000
3.852600 0.392000
3.871300 0.395400
3.889900 0.399000
3.908500 0.402900
3.927200 0.407100
3.945800 0.411400
3.964400 0.415900
3.983000 0.420700
4.001700 0.427700
4.020300 0.436600
4.038900 0.446800
4.057500 0.458200
4.076200 0.470600
4.094800 0.483100
4.113400 0.495600
4.132100 0.505500
4.150700 0.513800
4.169300 0.534300
4.187900 0.537700
4.206600 0.545600
4.225200 0.555000
4.243800 0.565600
4.262400 0.577300
4.281100 0.590400
4.299700 0.604700
4.318300 0.620300
4.337000 0.641100
4.355600 0.668700
4.374200 0.664600
4.392800 0.669000
4.411500 0.670100
4.430100 0.668500
4.448700 0.667200
4.467300 0.666500
4.486000 0.666000
4.504600 0.666500
4.523200 0.670600
4.541900 0.679500
4.560500 0.688000
4.579100 0.695200
4.597700 0.700500
4.616400 0.701900
4.635000 0.701300
4.653600 0.699100
4.672200 0.695100
4.690900 0.692800
4.709500 0.694400
4.728100 0.696100
4.746800 0.697600
4.765400 0.699800
4.784000 0.702900
4.802600 0.707200
4.821300 0.715300
4.839900 0.725000
4.858500 0.735000
4.877100 0.744400
4.895800 0.754200
4.914400 0.766500
4.933000 0.779700
4.951700 0.788400
4.970300 0.795900
4.988900 0.801000
5.007500 0.807400
5.026200 0.815300
5.044800 0.820900
5.063400 0.817100
5.082100 0.812200
5.100700 0.813800
5.119300 0.816900
5.137900 0.820700
5.156600 0.825800
5.175200 0.832000
5.193800 0.836900
5.212400 0.841700
5.231100 0.848000
5.249700 0.861800
5.268300 0.876800
5.287000 0.890000
5.305600 0.898600
5.324200 0.900600
5.342800 0.907900
5.361500 0.914700
5.380100 0.918400
5.398700 0.917900
5.417300 0.919200
5.436000 0.922300
5.454600 0.928900
5.473200 0.935200
5.491900 0.939100
5.510500 0.942100
5.529100 0.943100
5.547700 0.942600
5.566400 0.942700
5.585000 0.943500
5.603600 0.944800
5.622200 0.946900
5.640900 0.948800
5.659500 0.950700
5.678100 0.953200
5.696800 0.956600
5.715400 0.960400
5.734000 0.964400
5.752600 0.969600
5.771300 0.975500
5.789900 0.980700
5.808500 0.985800
5.827100 0.990900
5.845800 0.996200
5.864400 1.001700
5.883000 1.007500
5.901700 1.013700
5.920300 1.020300
5.938900 1.024400
5.957500 1.028800
5.976200 1.033100
5.994800 1.037900
6.013400 1.044000
6.032000 1.050300
6.050700 1.056000
6.069300 1.062100
6.087900 1.068700
6.106600 1.075600
6.125200 1.083000
6.143800 1.090200
6.162400 1.094400
6.181100 1.097800
6.199700 1.107800
6.218300 1.138900
6.237000 1.140600
6.255600 1.130900
6.274200 1.125500
6.292800 1.130700
6.311500 1.135900
6.330100 1.140900
6.348700 1.146100
6.367300 1.149400
6.386000 1.147800
6.404600 1.142700
6.423200 1.134900
6.441900 1.127200
6.460500 1.124800
6.479100 1.122900
6.497700 1.118100
6.516400 1.113400
6.535000 1.109700
6.553600 1.106300
6.572200 1.103700
6.590900 1.101700
6.609500 1.100700
6.628100 1.108900
6.646800 1.107000
6.665400 1.107400
6.684000 1.110500
6.702600 1.112900
6.721300 1.114200
6.739900 1.123400
6.758500 1.139500
6.777100 1.160000
6.795800 1.182900
6.814400 1.196700
6.833000 1.207100
6.851700 1.226100
6.870300 1.248300
6.888900 1.268600
6.907500 1.271900
6.926200 1.254100
6.944800 1.240100
6.963400 1.224300
6.982000 1.211200
7.000700 1.203600
7.019300 1.201800
7.037900 1.202800
7.056600 1.207300
7.075200 1.215900
7.093800 1.230700
7.112400 1.246700
7.131100 1.263000
7.149700 1.279800
7.168300 1.297000
7.186900 1.318300
7.205600 1.357400
7.224200 1.386600
7.242800 1.417200
7.261500 1.453600
7.280100 1.485300
7.298700 1.508900
7.317300 1.526500
7.336000 1.543200
7.354600 1.565500
7.373200 1.576600
7.391800 1.575500
7.410500 1.577400
7.429100 1.598000
7.447700 1.611500
7.466400 1.641600
7.485000 1.638200
7.503600 1.637000
7.522200 1.631500
7.540900 1.638100
7.559500 1.625600
7.578100 1.612500
7.596800 1.583600
7.615400 1.556300
7.634000 1.534600
7.652600 1.518900
7.671300 1.504800
7.689900 1.491400
7.708500 1.472000
7.727100 1.426900
7.745800 1.378100
7.764400 1.346800
7.783000 1.332400
7.801700 1.321100
7.820300 1.296300
7.838900 1.289600
7.857500 1.264100
7.876200 1.244900
7.894800 1.227900
7.913400 1.213600
7.932000 1.212600
7.950700 1.213400
7.969300 1.217200
7.987900 1.229900
8.006600 1.240400
8.025200 1.249400
8.043800 1.255200
8.062400 1.263700
8.081100 1.289900
8.099700 1.293100
8.118300 1.292200
8.136900 1.287700
8.155600 1.279200
8.174200 1.277700
8.192800 1.284400
8.211500 1.284600
8.230100 1.279200
8.248700 1.257400
8.267300 1.236200
8.286000 1.213100
8.304600 1.182700
8.323200 1.159200
8.341800 1.165300
8.360500 1.167900
8.379100 1.175500
8.397700 1.181900
8.416400 1.190200
8.435000 1.208400
8.453600 1.225100
8.472200 1.235200
8.490900 1.245000
8.509500 1.253000
8.528100 1.261900
8.546700 1.273200
8.565400 1.286600
8.584000 1.305600
8.602600 1.336100
8.621300 1.380300
8.639900 1.440900
8.658500 1.516900
8.677100 1.591400
8.695800 1.676400
8.714400 1.781000
8.733000 1.846500
8.751700 1.906700
8.770300 1.913900
8.788900 1.958300
8.807500 1.982200
8.826200 2.083900
8.844800 2.200800
8.863400 2.426600
8.882000 2.411000
8.900700 2.284800
8.919300 2.256600
8.937900 2.161500
8.956600 2.082900
8.975200 2.060200
8.993800 2.072000
9.012400 2.043100
9.031100 2.164900
9.049700 1.988800
9.068300 1.976100
9.086900 1.981600
9.105600 2.004200
9.124200 2.031900
9.142800 2.056500
9.161500 2.094700
9.180100 2.137600
9.198700 2.171200
9.217300 2.219500
9.236000 2.286000
9.254600 2.330600
9.273200 2.333200
9.291800 2.372000
9.310500 2.430100
9.329100 2.516700
9.347700 2.549500
9.366400 2.574700
9.385000 2.586900
9.403600 2.599700
9.422200 2.617600
9.440900 2.661400
9.459500 2.662700
9.478100 2.725400
9.496700 2.799100
9.515400 2.816900
9.534000 2.743900
9.552600 2.674500
9.571300 2.672700
9.589900 2.660000
9.608500 2.593300
9.627100 2.575300
9.645800 2.553500
9.664400 2.533000
9.683000 2.530700
9.701600 2.484700
9.720300 2.413100
9.738900 2.403000
9.757500 2.427200
9.776200 2.441900
9.794800 2.434700
9.813400 2.407700
9.832000 2.337900
9.850700 2.287100
9.869300 2.277300
9.887900 2.274300
9.906600 2.288200
9.925200 2.320700
9.943800 2.331000
9.962400 2.345100
9.981100 2.369800
9.999700 2.345100
10.018300 2.316400
10.036900 2.312200
10.055600 2.329800
10.074200 2.299700
10.092800 2.334100
10.111500 2.298900
10.130100 2.250200
10.148700 2.190100
10.167300 2.161300
10.186000 2.146000
10.204600 2.129900
10.223200 2.119300
10.241800 2.089100
10.260500 2.062200
10.279100 2.043100
10.297700 2.021500
10.316400 2.001800
10.335000 1.987800
10.353600 1.967700
10.372200 1.932700
10.390900 1.917700
10.409500 1.926200
10.428100 1.939200
10.446700 1.955600
10.465400 1.983700
10.484000 1.992100
10.502600 1.971800
10.521300 1.971500
10.539900 1.967600
10.558500 1.960500
10.577100 1.986800
10.595800 2.032500
10.614400 1.955700
10.633000 1.901000
10.651600 1.886300
10.670300 1.886900
10.688900 1.867300
10.707500 1.848200
10.726200 1.864500
10.744800 1.899400
10.763400 1.901300
10.782000 1.888300
10.800700 1.890300
10.819300 1.893100
10.837900 1.905500
10.856500 1.938600
10.875200 1.978200
10.893800 1.978100
10.912400 1.978200
10.931100 1.932600
10.949700 1.902900
10.968300 1.894100
10.986900 1.900100
11.005600 1.908400
11.024200 1.932400
11.042800 1.930100
11.061500 1.938200
11.080100 1.835600
11.098700 1.798900
11.117300 1.790700
11.136000 1.751300
11.154600 1.685100
11.173200 1.591200
11.191800 1.544500
11.210500 1.579600
11.229100 1.622200
11.247700 1.681900
11.266400 1.739700
11.285000 1.814700
11.303600 1.876000
11.322200 1.945000
11.340900 2.020800
11.359500 2.059700
11.378100 2.122000
11.396700 2.233600
11.415400 2.342600
11.434000 2.413600
11.452600 2.408200
11.471300 2.325000
11.489900 2.293800
11.508500 2.289300
11.527100 2.244200
11.545800 2.202600
11.564400 2.129000
11.583000 2.037100
11.601600 2.028100
11.620300 2.073100
11.638900 2.172900
11.657500 2.142800
11.676200 2.111700
11.694800 2.091000
11.713400 2.062100
11.732000 2.035100
11.750700 1.998000
11.769300 1.995300
11.787900 1.999700
11.806500 2.001600
11.825200 2.010000
11.843800 2.040000
11.862400 2.069300
11.881100 2.077200
11.899700 2.090200
11.918300 2.093600
11.936900 2.107600
11.955600 2.114400
11.974200 2.098200
11.992800 2.082800
12.011400 2.066500
12.030100 2.044000
12.048700 1.997800
12.067300 1.972400
12.086000 1.961900
12.104600 1.953600
12.123200 1.928400
12.141800 1.910400
12.160500 1.890600
12.179100 1.874700
12.197700 1.865400
12.216400 1.864300
12.235000 1.862400
12.253600 1.862700
12.272200 1.866300
12.290900 1.888300
12.309500 1.919600
12.328100 1.957400
12.346700 2.021200
12.365400 2.018500
12.384000 2.008200
12.402600 2.019500
12.421300 2.019800
12.439900 2.022700
12.458500 2.047100
12.477100 2.049800
12.495800 2.041100
12.514400 2.051900
12.533000 2.097700
12.551600 2.066200
12.570300 1.947400
12.588900 1.819100
12.607500 1.757600
12.626200 1.713400
12.644800 1.705700
12.663400 1.699800
12.682000 1.690400
12.700700 1.645600
12.719300 1.609200
12.737900 1.604300
12.756500 1.597800
12.775200 1.571300
12.793800 1.557300
12.812400 1.565100
12.831100 1.574600
12.849700 1.595500
12.868300 1.635600
12.886900 1.605600
12.905600 1.593300
12.924200 1.595200
12.942800 1.602600
12.961400 1.614300
12.980100 1.633300
12.998700 1.666900
13.017300 1.733600
13.036000 1.686600
13.054600 1.653500
13.073200 1.661200
13.091800 1.682800
13.110500 1.706300
13.129100 1.729800
13.147700 1.769500
13.166300 1.840600
13.185000 1.833300
13.203600 1.701000
13.222200 1.591100
13.240900 1.535500
13.259500 1.531500
13.278100 1.527000
13.296700 1.514700
13.315400 1.515000
13.334000 1.517100
13.352600 1.500700
13.371300 1.528700
13.389900 1.562200
13.408500 1.626900
13.427100 1.676600
13.445800 1.712100
13.464400 1.811900
13.483000 1.860600
13.501600 1.970400
13.520300 2.000500
13.538900 1.986000
13.557500 1.983400
13.576200 2.008100
13.594800 1.998400
13.613400 1.986400
13.632000 1.969100
13.650700 1.940900
13.669300 1.913400
13.687900 1.812400
13.706500 1.674700
13.725200 1.600200
13.743800 1.510500
13.762400 1.434000
13.781100 1.371500
13.799700 1.292600
13.818300 1.247900
13.836900 1.151900
13.855600 1.067000
13.874200 1.031300
13.892800 0.987100
13.911400 0.951300
13.930100 0.888200
13.948700 0.789300
13.967300 0.689000
13.986000 0.627800
14.004600 0.583800
14.023200 0.551000
14.041800 0.503400
14.060500 0.476900
14.079100 0.432400
14.097700 0.398400
14.116300 0.372000
14.135000 0.325300
14.153600 0.295000
14.172200 0.267100
14.190900 0.238500
14.209500 0.213700
14.228100 0.195000
14.246700 0.160600
14.265400 0.138800
14.284000 0.116500
14.302600 0.095400
14.321200 0.076000
14.339900 0.056200
14.358500 0.037500
14.377100 0.009200
14.395800 0.000100
14.414400 0.000000
14.433000 0.000000
14.451600 0.000000
14.470300 0.000000
14.488900 0.000000
14.507500 0.000000
14.526200 0.000000
14.544800 0.000000
14.563400 0.000000
14.582000 0.000000
14.600700 0.000000
14.619300 0.000000
14.637900 0.000000
14.656500 0.000000
14.675200 0.000000
14.693800 0.000000
14.712400 0.000000
14.731100 0.000000
14.749700 0.000000
14.768300 0.000000
14.786900 0.000000
14.805600 0.000000
14.824200 0.000000
14.842800 0.000000
14.861400 0.000000
14.880100 0.000000
14.898700 0.000000
14.917300 0.000000
14.936000 0.000000
14.954600 0.000000
14.973200 0.000000
14.991800 0.000000
15.010500 0.000000
15.029100 0.000000
15.047700 0.000000
15.066300 0.000000
15.085000 0.000000
15.103600 0.000000
15.122200 0.000000
15.140900 0.000000
15.159500 0.000000
15.178100 0.000000
15.196700 0.000000
15.215400 0.000000
15.234000 0.000000
15.252600 0.000000
15.271200 0.000000
15.289900 0.000000
15.308500 0.000000
15.327100 0.000000
15.345800 0.000000
15.364400 0.000000
15.383000 0.000000
15.401600 0.000000
15.420300 0.000000
15.438900 0.000000
15.457500 0.000000
15.476100 0.000000
15.494800 0.000000
15.513400 0.000000
15.532000 0.000000
15.550700 0.000000
15.569300 0.000000
15.587900 0.000000
15.606500 0.000000
15.625200 0.000000
15.643800 0.000000
15.662400 0.000000
15.681100 0.000000
15.699700 0.000000
15.718300 0.000000
15.736900 0.000000
15.755600 0.000000
15.774200 0.000000
15.792800 0.000000
15.811400 0.000000
15.830100 0.000000
15.848700 0.000000
15.867300 0.000000
15.886000 0.000000
15.904600 0.000000
15.923200 0.000000
15.941800 0.000000
15.960500 0.000000
15.979100 0.000000
15.997700 0.000000
16.016300 0.000000
16.035000 0.000000
16.053600 0.000000
16.072200 0.000000
16.090900 0.000000
e
