set title 'mp-306 - Density of States'
set xlabel 'Energy (eV)'
set ylabel 'DOS (states/eV)'
set grid
set xrange [-10:10]
set yrange [0:39.049]
set xzeroaxis lt -1
set terminal png size 800,600
set output 'mp-306_dos_gnuplot.png'
plot '-' using 1:2 with lines title 'DOS'
-22.384200 0.000000
-22.359900 0.000000
-22.335600 0.000000
-22.311300 0.000000
-22.287000 0.000000
-22.262700 0.000000
-22.238400 0.000000
-22.214100 0.000000
-22.189800 0.000000
-22.165500 0.000000
-22.141200 0.000000
-22.116900 0.000000
-22.092600 0.000000
-22.068300 0.000000
-22.044000 0.000000
-22.019700 0.000000
-21.995400 0.000000
-21.971100 0.000000
-21.946800 0.000000
-21.922500 0.000000
-21.898200 0.000000
-21.873900 0.000000
-21.849600 0.000000
-21.825200 0.000000
-21.800900 0.000000
-21.776600 0.000000
-21.752300 0.000000
-21.728000 0.000000
-21.703700 0.000000
-21.679400 0.000000
-21.655100 0.000000
-21.630800 0.000000
-21.606500 0.000000
-21.582200 0.000000
-21.557900 0.000000
-21.533600 0.000000
-21.509300 0.000000
-21.485000 0.000000
-21.460700 0.000000
-21.436400 0.000000
-21.412100 0.000000
-21.387800 0.000000
-21.363500 0.000000
-21.339200 0.000000
-21.314900 0.000000
-21.290600 0.000000
-21.266300 0.000000
-21.242000 0.000000
-21.217700 0.000000
-21.193400 0.000000
-21.169100 0.000000
-21.144800 0.000000
-21.120500 0.000000
-21.096200 0.000000
-21.071900 0.000000
-21.047600 0.000000
-21.023300 0.000000
-20.999000 0.000000
-20.974700 0.000000
-20.950300 0.000000
-20.926000 0.000000
-20.901700 0.000000
-20.877400 0.000000
-20.853100 0.000000
-20.828800 0.000000
-20.804500 0.000000
-20.780200 0.000000
-20.755900 0.000000
-20.731600 0.000000
-20.707300 0.000000
-20.683000 0.000000
-20.658700 0.000000
-20.634400 0.000000
-20.610100 0.000000
-20.585800 0.000000
-20.561500 0.000000
-20.537200 0.000000
-20.512900 0.000000
-20.488600 0.000000
-20.464300 0.000000
-20.440000 0.000000
-20.415700 0.000000
-20.391400 0.000000
-20.367100 0.000000
-20.342800 0.000000
-20.318500 0.000000
-20.294200 0.000000
-20.269900 0.000000
-20.245600 0.000000
-20.221300 0.000000
-20.197000 0.000000
-20.172700 0.001100
-20.148400 0.156200
-20.124100 0.573700
-20.099800 1.343100
-20.075400 2.279800
-20.051100 2.774000
-20.026800 3.013600
-20.002500 2.661600
-19.978200 2.873700
-19.953900 3.088200
-19.929600 3.304700
-19.905300 3.515400
-19.881000 4.235100
-19.856700 5.235000
-19.832400 6.546700
-19.808100 6.788900
-19.783800 7.735100
-19.759500 8.718800
-19.735200 11.850200
-19.710900 6.778300
-19.686600 6.057000
-19.662300 5.575200
-19.638000 5.173500
-19.613700 4.851200
-19.589400 4.572300
-19.565100 4.486700
-19.540800 4.630200
-19.516500 4.933500
-19.492200 5.763100
-19.467900 7.915900
-19.443600 13.228300
-19.419300 11.962000
-19.395000 5.111000
-19.370700 3.246900
-19.346400 1.793700
-19.322100 2.066300
-19.297800 2.463900
-19.273500 3.019000
-19.249200 4.670200
-19.224900 5.369700
-19.200500 7.092900
-19.176200 11.331000
-19.151900 18.863500
-19.127600 13.959000
-19.103300 2.976700
-19.079000 0.000000
-19.054700 0.000000
-19.030400 0.000000
-19.006100 0.000000
-18.981800 0.000000
-18.957500 0.000000
-18.933200 0.023900
-18.908900 0.373700
-18.884600 1.140500
-18.860300 2.324300
-18.836000 19.509700
-18.811700 17.325200
-18.787400 6.696900
-18.763100 5.234200
-18.738800 4.904700
-18.714500 4.752100
-18.690200 5.926100
-18.665900 4.569500
-18.641600 5.026800
-18.617300 5.522200
-18.593000 6.057200
-18.568700 13.287600
-18.544400 7.658700
-18.520100 6.481900
-18.495800 5.526900
-18.471500 4.793600
-18.447200 4.286400
-18.422900 4.010700
-18.398600 3.814400
-18.374300 3.682000
-18.349900 3.874700
-18.325600 4.236000
-18.301300 4.743900
-18.277000 5.284500
-18.252700 5.853300
-18.228400 12.841300
-18.204100 11.253400
-18.179800 9.491900
-18.155500 7.751600
-18.131200 6.659100
-18.106900 5.197600
-18.082600 4.132300
-18.058300 3.585100
-18.034000 3.312500
-18.009700 3.041800
-17.985400 31.909500
-17.961100 18.461800
-17.936800 29.004100
-17.912500 56.733000
-17.888200 45.627300
-17.863900 33.205400
-17.839600 22.141500
-17.815300 6.303600
-17.791000 0.000000
-17.766700 0.000000
-17.742400 0.000000
-17.718100 0.000000
-17.693800 0.000000
-17.669500 0.000000
-17.645200 0.000000
-17.620900 0.000000
-17.596600 0.000000
-17.572300 0.000000
-17.548000 0.000000
-17.523700 0.000000
-17.499400 0.000000
-17.475000 0.000000
-17.450700 0.000000
-17.426400 0.000000
-17.402100 0.000000
-17.377800 0.000000
-17.353500 0.000000
-17.329200 0.000000
-17.304900 0.000000
-17.280600 0.000000
-17.256300 0.000000
-17.232000 0.000000
-17.207700 0.000000
-17.183400 0.000000
-17.159100 0.000000
-17.134800 0.000000
-17.110500 0.000000
-17.086200 0.000000
-17.061900 0.000000
-17.037600 0.000000
-17.013300 0.000000
-16.989000 0.000000
-16.964700 0.000000
-16.940400 0.000000
-16.916100 0.000000
-16.891800 0.000000
-16.867500 0.000000
-16.843200 0.000000
-16.818900 0.000000
-16.794600 0.000000
-16.770300 0.000000
-16.746000 0.000000
-16.721700 0.000000
-16.697400 0.000000
-16.673100 0.000000
-16.648800 0.000000
-16.624500 0.000000
-16.600100 0.000000
-16.575800 0.000000
-16.551500 0.000000
-16.527200 0.000000
-16.502900 0.000000
-16.478600 0.000000
-16.454300 0.000000
-16.430000 0.000000
-16.405700 0.000000
-16.381400 0.000000
-16.357100 0.000000
-16.332800 0.000000
-16.308500 0.000000
-16.284200 0.000000
-16.259900 0.000000
-16.235600 0.000000
-16.211300 0.000000
-16.187000 0.000000
-16.162700 0.000000
-16.138400 0.000000
-16.114100 0.000000
-16.089800 0.000000
-16.065500 0.000000
-16.041200 0.000000
-16.016900 0.000000
-15.992600 0.000000
-15.968300 0.000000
-15.944000 0.000000
-15.919700 0.000000
-15.895400 0.000000
-15.871100 0.000000
-15.846800 0.000000
-15.822500 0.000000
-15.798200 0.000000
-15.773900 0.000000
-15.749600 0.000000
-15.725200 0.000000
-15.700900 0.000000
-15.676600 0.000000
-15.652300 0.000000
-15.628000 0.000000
-15.603700 0.000000
-15.579400 0.000000
-15.555100 0.000000
-15.530800 0.000000
-15.506500 0.000000
-15.482200 0.000000
-15.457900 0.000000
-15.433600 0.000000
-15.409300 0.000000
-15.385000 0.000000
-15.360700 0.000000
-15.336400 0.000000
-15.312100 0.000000
-15.287800 0.000000
-15.263500 0.000000
-15.239200 0.000000
-15.214900 0.000000
-15.190600 0.000000
-15.166300 0.000000
-15.142000 0.000000
-15.117700 0.000000
-15.093400 0.000000
-15.069100 0.000000
-15.044800 0.000000
-15.020500 0.000000
-14.996200 0.000000
-14.971900 0.000000
-14.947600 0.000000
-14.923300 0.000000
-14.899000 0.000000
-14.874700 0.000000
-14.850300 0.000000
-14.826000 0.000000
-14.801700 0.000000
-14.777400 0.000000
-14.753100 0.000000
-14.728800 0.000000
-14.704500 0.000000
-14.680200 0.000000
-14.655900 0.000000
-14.631600 0.000000
-14.607300 0.000000
-14.583000 0.000000
-14.558700 0.000000
-14.534400 0.000000
-14.510100 0.000000
-14.485800 0.000000
-14.461500 0.000000
-14.437200 0.000000
-14.412900 0.000000
-14.388600 0.000000
-14.364300 0.000000
-14.340000 0.000000
-14.315700 0.000000
-14.291400 0.000000
-14.267100 0.000000
-14.242800 0.000000
-14.218500 0.000000
-14.194200 0.000000
-14.169900 0.000000
-14.145600 0.000000
-14.121300 0.000000
-14.097000 0.000000
-14.072700 0.000000
-14.048400 0.000000
-14.024100 0.000000
-13.999800 0.000000
-13.975400 0.000000
-13.951100 0.000000
-13.926800 0.000000
-13.902500 0.000000
-13.878200 0.000000
-13.853900 0.000000
-13.829600 0.000000
-13.805300 0.000000
-13.781000 0.000000
-13.756700 0.000000
-13.732400 0.000000
-13.708100 0.000000
-13.683800 0.000000
-13.659500 0.000000
-13.635200 0.000000
-13.610900 0.000000
-13.586600 0.000000
-13.562300 0.000000
-13.538000 0.000000
-13.513700 0.000000
-13.489400 0.000000
-13.465100 0.000000
-13.440800 0.000000
-13.416500 0.000000
-13.392200 0.000000
-13.367900 0.000000
-13.343600 0.000000
-13.319300 0.000000
-13.295000 0.000000
-13.270700 0.000000
-13.246400 0.000000
-13.222100 0.000000
-13.197800 0.000000
-13.173500 0.000000
-13.149200 0.000000
-13.124900 0.000000
-13.100500 0.000000
-13.076200 0.000000
-13.051900 0.000000
-13.027600 0.000000
-13.003300 0.000000
-12.979000 0.000000
-12.954700 0.000000
-12.930400 0.000000
-12.906100 0.000000
-12.881800 0.000000
-12.857500 0.000000
-12.833200 0.000000
-12.808900 0.000000
-12.784600 0.000000
-12.760300 0.000000
-12.736000 0.000000
-12.711700 0.000000
-12.687400 0.000000
-12.663100 0.000000
-12.638800 0.000000
-12.614500 0.000000
-12.590200 0.000000
-12.565900 0.000000
-12.541600 0.000000
-12.517300 0.000000
-12.493000 0.000000
-12.468700 0.000000
-12.444400 0.000000
-12.420100 0.000000
-12.395800 0.000000
-12.371500 0.000000
-12.347200 0.000000
-12.322900 0.000000
-12.298600 0.000000
-12.274300 0.000000
-12.250000 0.000000
-12.225600 0.000000
-12.201300 0.000000
-12.177000 0.000000
-12.152700 0.000000
-12.128400 0.000000
-12.104100 0.000000
-12.079800 0.000000
-12.055500 0.000000
-12.031200 0.000000
-12.006900 0.000000
-11.982600 0.000000
-11.958300 0.000000
-11.934000 0.000000
-11.909700 0.000000
-11.885400 0.000000
-11.861100 0.000000
-11.836800 0.000000
-11.812500 0.000000
-11.788200 0.000000
-11.763900 0.000000
-11.739600 0.000000
-11.715300 0.000000
-11.691000 0.000000
-11.666700 0.000000
-11.642400 0.000000
-11.618100 0.000000
-11.593800 0.000000
-11.569500 0.000000
-11.545200 0.000000
-11.520900 0.000000
-11.496600 0.000000
-11.472300 0.000000
-11.448000 0.000000
-11.423700 0.000000
-11.399400 0.000000
-11.375100 0.000000
-11.350700 0.000000
-11.326400 0.000000
-11.302100 0.000000
-11.277800 0.000000
-11.253500 0.000000
-11.229200 0.000000
-11.204900 0.000000
-11.180600 0.000000
-11.156300 0.000000
-11.132000 0.000000
-11.107700 0.000000
-11.083400 0.000000
-11.059100 0.000000
-11.034800 0.000000
-11.010500 0.000000
-10.986200 0.000000
-10.961900 0.000000
-10.937600 0.000000
-10.913300 0.000000
-10.889000 0.000000
-10.864700 0.000000
-10.840400 0.000000
-10.816100 0.000000
-10.791800 0.000000
-10.767500 0.000000
-10.743200 0.000000
-10.718900 0.000000
-10.694600 0.000000
-10.670300 0.000000
-10.646000 0.000000
-10.621700 0.000000
-10.597400 0.000000
-10.573100 0.000000
-10.548800 0.000000
-10.524500 0.000000
-10.500200 0.000000
-10.475800 0.000000
-10.451500 0.000000
-10.427200 0.000000
-10.402900 0.000000
-10.378600 0.000000
-10.354300 0.000000
-10.330000 0.000000
-10.305700 0.000000
-10.281400 0.000000
-10.257100 0.000000
-10.232800 0.000000
-10.208500 0.000000
-10.184200 0.000000
-10.159900 0.000000
-10.135600 0.000000
-10.111300 0.000000
-10.087000 0.000000
-10.062700 0.000000
-10.038400 0.000000
-10.014100 0.000000
-9.989800 0.000000
-9.965500 0.000000
-9.941200 0.000000
-9.916900 0.000000
-9.892600 0.000000
-9.868300 0.000000
-9.844000 0.000000
-9.819700 0.000000
-9.795400 0.000000
-9.771100 0.000000
-9.746800 0.000000
-9.722500 0.000000
-9.698200 0.000000
-9.673900 0.000000
-9.649600 0.000000
-9.625300 0.000000
-9.600900 0.000000
-9.576600 0.000000
-9.552300 0.000000
-9.528000 0.000000
-9.503700 0.000000
-9.479400 0.000000
-9.455100 0.000000
-9.430800 0.000000
-9.406500 0.000000
-9.382200 0.000000
-9.357900 0.000000
-9.333600 0.000000
-9.309300 0.000000
-9.285000 0.000000
-9.260700 0.000000
-9.236400 0.000000
-9.212100 0.000000
-9.187800 0.000000
-9.163500 0.000000
-9.139200 0.000000
-9.114900 0.030900
-9.090600 0.537800
-9.066300 1.664000
-9.042000 4.247100
-9.017700 13.945100
-8.993400 21.684200
-8.969100 15.782100
-8.944800 14.835200
-8.920500 5.469500
-8.896200 3.458400
-8.871900 1.749600
-8.847600 0.888600
-8.823300 0.632000
-8.799000 1.090900
-8.774700 1.634200
-8.750400 1.788300
-8.726000 2.069900
-8.701700 2.470200
-8.677400 2.990300
-8.653100 3.883900
-8.628800 5.473000
-8.604500 7.650900
-8.580200 10.313700
-8.555900 18.093000
-8.531600 21.847200
-8.507300 5.335700
-8.483000 0.000500
-8.458700 0.025600
-8.434400 0.088700
-8.410100 0.189900
-8.385800 0.325300
-8.361500 0.447800
-8.337200 0.587000
-8.312900 0.742800
-8.288600 0.915400
-8.264300 1.104700
-8.240000 1.310700
-8.215700 2.055400
-8.191400 4.041400
-8.167100 7.210200
-8.142800 17.322500
-8.118500 16.120300
-8.094200 15.554000
-8.069900 8.577700
-8.045600 3.690200
-8.021300 0.000000
-7.997000 0.000000
-7.972700 0.000000
-7.948400 0.000000
-7.924100 0.000000
-7.899800 0.000000
-7.875500 0.000000
-7.851100 0.000000
-7.826800 0.000000
-7.802500 0.000000
-7.778200 0.000000
-7.753900 0.000000
-7.729600 0.000000
-7.705300 0.000000
-7.681000 0.000000
-7.656700 0.000000
-7.632400 4.600600
-7.608100 3.870500
-7.583800 3.714600
-7.559500 3.703500
-7.535200 4.606700
-7.510900 5.822900
-7.486600 7.360300
-7.462300 10.114400
-7.438000 14.518200
-7.413700 13.203100
-7.389400 4.058200
-7.365100 2.810700
-7.340800 1.761800
-7.316500 1.036300
-7.292200 0.613500
-7.267900 0.398500
-7.243600 0.415300
-7.219300 0.654000
-7.195000 0.893900
-7.170700 1.148000
-7.146400 1.416400
-7.122100 1.700100
-7.097800 2.046700
-7.073500 2.481700
-7.049200 3.417200
-7.024900 4.828000
-7.000600 6.181400
-6.976200 7.024900
-6.951900 10.456500
-6.927600 17.518800
-6.903300 12.149000
-6.879000 6.677600
-6.854700 1.697000
-6.830400 0.551500
-6.806100 0.580200
-6.781800 0.834000
-6.757500 1.235900
-6.733200 1.595500
-6.708900 1.967200
-6.684600 2.523100
-6.660300 3.197500
-6.636000 3.990600
-6.611700 5.354100
-6.587400 11.867000
-6.563100 35.498900
-6.538800 11.749900
-6.514500 6.271500
-6.490200 1.700800
-6.465900 0.607500
-6.441600 0.809600
-6.417300 1.033900
-6.393000 1.280300
-6.368700 1.548900
-6.344400 1.839600
-6.320100 2.152500
-6.295800 2.633900
-6.271500 3.460000
-6.247200 5.714800
-6.222900 6.433100
-6.198600 6.451300
-6.174300 7.116900
-6.150000 8.482800
-6.125700 10.245800
-6.101300 8.176900
-6.077000 2.143300
-6.052700 1.207600
-6.028400 4.199400
-6.004100 2.718100
-5.979800 2.897300
-5.955500 3.223300
-5.931200 3.689100
-5.906900 4.437000
-5.882600 5.786100
-5.858300 6.885000
-5.834000 7.906400
-5.809700 9.080000
-5.785400 10.482900
-5.761100 12.914700
-5.736800 16.785700
-5.712500 11.287200
-5.688200 5.683300
-5.663900 4.414500
-5.639600 5.145100
-5.615300 7.371400
-5.591000 9.473500
-5.566700 15.398100
-5.542400 11.368500
-5.518100 2.504800
-5.493800 1.468500
-5.469500 0.707200
-5.445200 0.221000
-5.420900 0.009900
-5.396600 0.000000
-5.372300 0.000000
-5.348000 0.000000
-5.323700 0.000000
-5.299400 0.000000
-5.275100 0.000000
-5.250800 0.000000
-5.226400 0.000000
-5.202100 0.000000
-5.177800 0.000000
-5.153500 0.000000
-5.129200 0.000000
-5.104900 0.000000
-5.080600 0.000000
-5.056300 0.000000
-5.032000 0.000000
-5.007700 0.000000
-4.983400 0.000000
-4.959100 0.000000
-4.934800 0.000000
-4.910500 0.000000
-4.886200 0.000000
-4.861900 0.000000
-4.837600 0.000000
-4.813300 0.253800
-4.789000 1.501300
-4.764700 2.731300
-4.740400 3.937300
-4.716100 5.120100
-4.691800 7.936700
-4.667500 10.885200
-4.643200 9.493200
-4.618900 7.258300
-4.594600 5.381100
-4.570300 4.391900
-4.546000 3.767900
-4.521700 3.263400
-4.497400 2.878700
-4.473100 2.664900
-4.448800 2.218900
-4.424500 1.826600
-4.400200 1.427900
-4.375900 1.158500
-4.351500 0.992600
-4.327200 0.829300
-4.302900 0.668600
-4.278600 0.510400
-4.254300 0.372300
-4.230000 0.375000
-4.205700 1.279400
-4.181400 3.073300
-4.157100 5.657300
-4.132800 8.848600
-4.108500 7.315000
-4.084200 6.025400
-4.059900 6.522000
-4.035600 7.246100
-4.011300 7.474300
-3.987000 6.089100
-3.962700 5.494400
-3.938400 4.713000
-3.914100 4.039600
-3.889800 3.581300
-3.865500 3.283200
-3.841200 3.106300
-3.816900 3.049700
-3.792600 3.054100
-3.768300 4.193500
-3.744000 5.261000
-3.719700 5.444700
-3.695400 5.674600
-3.671100 5.787700
-3.646800 5.426300
-3.622500 4.413700
-3.598200 3.502000
-3.573900 3.028500
-3.549600 3.302100
-3.525300 4.085900
-3.501000 6.101300
-3.476600 11.824700
-3.452300 4.618700
-3.428000 1.421600
-3.403700 0.582900
-3.379400 0.653400
-3.355100 6.837100
-3.330800 15.546700
-3.306500 21.440100
-3.282200 8.765900
-3.257900 6.857900
-3.233600 5.319200
-3.209300 4.148300
-3.185000 3.250300
-3.160700 3.709800
-3.136400 3.715300
-3.112100 2.591600
-3.087800 4.016100
-3.063500 7.094800
-3.039200 9.067500
-3.014900 10.134900
-2.990600 10.385100
-2.966300 9.659300
-2.942000 10.516300
-2.917700 9.946300
-2.893400 8.795000
-2.869100 9.463500
-2.844800 10.236400
-2.820500 6.857700
-2.796200 6.221700
-2.771900 6.297100
-2.747600 6.626700
-2.723300 7.775900
-2.699000 8.056600
-2.674700 5.796800
-2.650400 3.233400
-2.626100 2.422500
-2.601700 1.798800
-2.577400 1.451800
-2.553100 1.308800
-2.528800 2.946700
-2.504500 4.301600
-2.480200 5.461900
-2.455900 6.674400
-2.431600 7.601500
-2.407300 7.924500
-2.383000 8.060600
-2.358700 8.009600
-2.334400 7.200700
-2.310100 4.050900
-2.285800 2.903300
-2.261500 2.452800
-2.237200 2.672900
-2.212900 3.090200
-2.188600 3.468500
-2.164300 3.807800
-2.140000 4.120800
-2.115700 4.508100
-2.091400 5.521100
-2.067100 6.706300
-2.042800 7.894900
-2.018500 8.170900
-1.994200 9.130300
-1.969900 9.172900
-1.945600 5.655500
-1.921300 6.105300
-1.897000 8.757700
-1.872700 16.635700
-1.848400 12.613100
-1.824100 7.686100
-1.799800 7.145300
-1.775500 7.093300
-1.751200 7.365800
-1.726800 7.835300
-1.702500 12.272800
-1.678200 12.819500
-1.653900 13.814200
-1.629600 14.254000
-1.605300 14.387700
-1.581000 11.632800
-1.556700 9.744600
-1.532400 8.549800
-1.508100 5.014300
-1.483800 8.317200
-1.459500 17.960500
-1.435200 9.374800
-1.410900 9.143500
-1.386600 15.227700
-1.362300 19.145000
-1.338000 16.916600
-1.313700 5.381100
-1.289400 4.569200
-1.265100 14.228700
-1.240800 13.397600
-1.216500 11.527900
-1.192200 10.829900
-1.167900 12.107700
-1.143600 13.296700
-1.119300 12.508600
-1.095000 7.956700
-1.070700 8.200400
-1.046400 22.226500
-1.022100 16.428800
-0.997800 14.572400
-0.973500 12.340900
-0.949200 10.163700
-0.924900 8.743300
-0.900600 7.541700
-0.876300 13.615800
-0.851900 15.143500
-0.827600 16.174200
-0.803300 17.532600
-0.779000 13.292800
-0.754700 17.828800
-0.730400 26.886900
-0.706100 24.932900
-0.681800 18.154400
-0.657500 16.722000
-0.633200 29.744800
-0.608900 25.467300
-0.584600 17.386700
-0.560300 19.497700
-0.536000 26.931800
-0.511700 25.087100
-0.487400 25.763100
-0.463100 0.979800
-0.438800 0.000000
-0.414500 0.000000
-0.390200 0.000000
-0.365900 0.000000
-0.341600 0.000000
-0.317300 0.000000
-0.293000 0.000000
-0.268700 0.000000
-0.244400 0.000000
-0.220100 0.000000
-0.195800 0.000000
-0.171500 0.000000
-0.147200 0.000000
-0.122900 0.000000
-0.098600 0.000000
-0.074300 0.000000
-0.050000 0.000000
-0.025700 0.000000
-0.001400 0.000000
0.023000 0.000000
0.047300 0.000000
0.071600 0.000000
0.095900 0.000000
0.120200 0.000000
0.144500 0.000000
0.168800 0.000000
0.193100 0.000000
0.217400 0.000000
0.241700 0.000000
0.266000 0.000000
0.290300 0.000000
0.314600 0.000000
0.338900 0.000000
0.363200 0.000000
0.387500 0.000000
0.411800 0.000000
0.436100 0.000000
0.460400 0.000000
0.484700 0.000000
0.509000 0.000000
0.533300 0.000000
0.557600 0.000000
0.581900 0.000000
0.606200 0.000000
0.630500 0.000000
0.654800 0.000000
0.679100 0.000000
0.703400 0.000000
0.727700 0.000000
0.752000 0.000000
0.776300 0.000000
0.800600 0.000000
0.824900 0.000000
0.849200 0.000000
0.873600 0.000000
0.897900 0.000000
0.922200 0.000000
0.946500 0.000000
0.970800 0.000000
0.995100 0.000000
1.019400 0.000000
1.043700 0.000000
1.068000 0.000000
1.092300 0.000000
1.116600 0.000000
1.140900 0.000000
1.165200 0.000000
1.189500 0.000000
1.213800 0.000000
1.238100 0.000000
1.262400 0.000000
1.286700 0.000000
1.311000 0.000000
1.335300 0.000000
1.359600 0.000000
1.383900 0.000000
1.408200 0.000000
1.432500 0.000000
1.456800 0.000000
1.481100 0.000000
1.505400 0.000000
1.529700 0.000000
1.554000 0.000000
1.578300 0.000000
1.602600 0.000000
1.626900 0.000000
1.651200 0.000000
1.675500 0.000000
1.699800 0.000000
1.724100 0.000000
1.748500 0.000000
1.772800 0.000000
1.797100 0.000000
1.821400 0.000000
1.845700 0.000000
1.870000 0.000000
1.894300 0.000000
1.918600 0.000000
1.942900 0.000000
1.967200 0.000000
1.991500 0.000000
2.015800 0.000000
2.040100 0.000000
2.064400 0.000000
2.088700 0.000000
2.113000 0.000000
2.137300 0.000000
2.161600 0.000000
2.185900 0.000000
2.210200 0.000000
2.234500 0.000000
2.258800 0.000000
2.283100 0.000000
2.307400 0.000000
2.331700 0.000000
2.356000 0.000000
2.380300 0.000000
2.404600 0.000000
2.428900 0.000000
2.453200 0.000000
2.477500 0.000000
2.501800 0.000000
2.526100 0.000000
2.550400 0.000000
2.574700 0.000000
2.599000 0.000000
2.623400 0.000000
2.647700 0.000000
2.672000 0.000000
2.696300 0.000000
2.720600 0.000000
2.744900 0.000000
2.769200 0.000000
2.793500 0.000000
2.817800 0.000000
2.842100 0.000000
2.866400 0.000000
2.890700 0.000000
2.915000 0.000000
2.939300 0.000000
2.963600 0.000000
2.987900 0.000000
3.012200 0.000000
3.036500 0.000000
3.060800 0.000000
3.085100 0.000000
3.109400 0.000000
3.133700 0.000000
3.158000 0.000000
3.182300 0.000000
3.206600 0.000000
3.230900 0.000000
3.255200 0.000000
3.279500 0.000000
3.303800 0.000000
3.328100 0.000000
3.352400 0.000000
3.376700 0.000000
3.401000 0.000000
3.425300 0.000000
3.449600 0.000000
3.473900 0.000000
3.498300 0.000000
3.522600 0.000000
3.546900 0.000000
3.571200 0.000000
3.595500 0.000000
3.619800 0.000000
3.644100 0.000000
3.668400 0.000000
3.692700 0.000000
3.717000 0.000000
3.741300 0.000000
3.765600 0.000000
3.789900 0.000000
3.814200 0.000000
3.838500 0.000000
3.862800 0.000000
3.887100 0.000000
3.911400 0.000000
3.935700 0.000000
3.960000 0.000000
3.984300 0.000000
4.008600 0.000000
4.032900 0.000000
4.057200 0.000000
4.081500 0.000000
4.105800 0.000000
4.130100 0.000000
4.154400 0.000000
4.178700 0.000000
4.203000 0.000000
4.227300 0.000000
4.251600 0.000000
4.275900 0.000000
4.300200 0.000000
4.324500 0.000000
4.348800 0.000000
4.373200 0.000000
4.397500 0.000000
4.421800 0.000000
4.446100 0.000000
4.470400 0.000000
4.494700 0.000000
4.519000 0.000000
4.543300 0.000000
4.567600 0.000000
4.591900 0.000000
4.616200 0.000000
4.640500 0.000000
4.664800 0.000000
4.689100 0.000000
4.713400 0.000000
4.737700 0.000000
4.762000 0.000000
4.786300 0.000000
4.810600 0.000000
4.834900 0.000000
4.859200 0.000000
4.883500 0.000000
4.907800 0.000000
4.932100 0.000000
4.956400 0.000000
4.980700 0.000000
5.005000 0.000000
5.029300 0.000000
5.053600 0.000000
5.077900 0.000000
5.102200 0.000000
5.126500 0.000000
5.150800 0.000000
5.175100 0.000000
5.199400 0.000000
5.223700 0.000000
5.248100 0.000000
5.272400 0.000000
5.296700 0.000000
5.321000 0.000000
5.345300 0.000000
5.369600 0.000000
5.393900 0.000000
5.418200 0.000000
5.442500 0.000000
5.466800 0.000000
5.491100 0.000000
5.515400 0.000000
5.539700 0.000000
5.564000 0.000000
5.588300 0.000000
5.612600 0.000000
5.636900 0.000000
5.661200 0.000000
5.685500 0.000000
5.709800 0.000000
5.734100 0.000000
5.758400 0.000000
5.782700 0.000000
5.807000 0.000000
5.831300 0.000000
5.855600 0.000000
5.879900 0.016700
5.904200 0.359700
5.928500 0.886500
5.952800 1.581400
5.977100 2.334200
6.001400 2.255500
6.025700 2.278500
6.050000 2.155100
6.074300 2.436900
6.098600 2.729300
6.123000 3.032800
6.147300 3.223200
6.171600 3.466500
6.195900 3.699900
6.220200 3.907900
6.244500 3.977600
6.268800 4.189400
6.293100 4.524700
6.317400 4.880200
6.341700 5.268400
6.366000 5.407200
6.390300 5.323000
6.414600 5.241000
6.438900 5.177500
6.463200 5.149000
6.487500 5.075700
6.511800 4.372200
6.536100 3.597300
6.560400 3.448400
6.584700 3.359600
6.609000 3.272700
6.633300 3.184000
6.657600 3.092700
6.681900 2.999500
6.706200 2.905400
6.730500 2.643000
6.754800 2.559800
6.779100 2.481100
6.803400 2.406400
6.827700 2.391200
6.852000 2.390800
6.876300 2.400100
6.900600 2.419200
6.924900 2.448400
6.949200 2.488400
6.973500 2.539300
6.997900 2.601600
7.022200 2.775400
7.046500 3.133600
7.070800 3.692100
7.095100 4.438000
7.119400 4.938100
7.143700 6.086100
7.168000 5.404700
7.192300 4.773500
7.216600 4.192800
7.240900 3.664700
7.265200 3.187900
7.289500 2.762400
7.313800 2.388300
7.338100 2.164900
7.362400 1.986500
7.386700 1.812400
7.411000 1.713400
7.435300 1.731500
7.459600 1.696300
7.483900 1.684600
7.508200 1.715700
7.532500 1.747000
7.556800 1.778400
7.581100 1.810000
7.605400 1.841800
7.629700 1.873600
7.654000 1.905700
7.678300 1.943000
7.702600 2.143600
7.726900 2.437600
7.751200 2.825200
7.775500 3.306200
7.799800 3.890600
7.824100 4.748000
7.848400 5.120000
7.872800 5.041000
7.897100 4.679300
7.921400 3.792500
7.945700 2.342100
7.970000 0.775700
7.994300 0.884300
8.018600 1.029700
8.042900 1.227900
8.067200 1.456700
8.091500 1.716000
8.115800 3.489600
8.140100 9.404100
8.164400 10.629400
8.188700 11.896200
8.213000 5.806800
8.237300 4.797800
8.261600 3.899200
8.285900 3.111100
8.310200 2.339700
8.334500 1.752200
8.358800 1.292000
8.383100 0.944400
8.407400 0.780700
8.431700 1.095800
8.456000 1.478900
8.480300 1.865600
8.504600 2.256100
8.528900 2.650300
8.553200 3.048300
8.577500 3.449900
8.601800 3.855300
8.626100 4.264400
8.650400 4.677200
8.674700 16.327900
8.699000 15.494800
8.723300 5.412400
8.747700 2.622300
8.772000 1.416700
8.796300 1.024800
8.820600 0.798500
8.844900 0.710400
8.869200 0.744600
8.893500 0.989600
8.917800 1.454800
8.942100 2.196500
8.966400 3.596800
8.990700 5.063700
9.015000 5.754700
9.039300 6.410600
9.063600 6.979000
9.087900 7.737300
9.112200 8.565200
9.136500 8.756300
9.160800 6.880200
9.185100 5.902100
9.209400 4.972000
9.233700 3.948700
9.258000 2.754100
9.282300 1.834600
9.306600 1.190100
9.330900 0.902900
9.355200 0.895400
9.379500 1.095100
9.403800 1.419300
9.428100 2.052600
9.452400 3.156700
9.476700 4.688600
9.501000 6.082900
9.525300 7.137000
9.549600 7.679500
9.573900 7.267800
9.598200 6.778700
9.622600 6.286200
9.646900 6.054200
9.671200 6.068100
9.695500 6.227100
9.719800 6.773900
9.744100 7.469900
9.768400 6.987500
9.792700 3.942400
9.817000 3.608200
9.841300 3.418100
9.865600 3.320100
9.889900 3.129900
9.914200 2.973800
9.938500 2.872600
9.962800 2.832500
9.987100 2.853600
10.011400 2.929200
10.035700 3.036700
10.060000 3.172900
10.084300 3.328100
10.108600 3.901900
10.132900 5.832400
10.157200 3.385300
10.181500 3.404500
10.205800 3.407900
10.230100 3.395400
10.254400 3.370400
10.278700 3.360700
10.303000 3.317200
10.327300 3.118700
10.351600 3.161700
10.375900 3.230700
10.400200 3.297600
10.424500 3.370300
10.448800 3.416300
10.473100 3.484200
10.497500 3.787000
10.521800 2.653400
10.546100 2.703700
10.570400 2.833100
10.594700 3.127300
10.619000 3.339300
10.643300 3.469100
10.667600 3.656000
10.691900 3.762000
10.716200 3.748900
10.740500 3.643600
10.764800 3.446100
10.789100 3.488800
10.813400 3.649700
10.837700 3.653900
10.862000 1.724100
10.886300 0.000000
10.910600 0.000000
10.934900 0.000000
10.959200 0.000000
10.983500 0.000000
11.007800 0.000000
11.032100 0.000000
11.056400 0.000000
11.080700 0.000000
11.105000 0.000000
11.129300 0.000000
11.153600 0.000000
11.177900 0.000000
11.202200 0.000000
11.226500 0.000000
11.250800 0.000000
11.275100 0.000000
11.299400 0.000000
11.323700 0.000000
11.348000 0.357800
11.372400 1.214500
11.396700 2.481700
11.421000 4.072900
11.445300 5.845900
11.469600 4.829200
11.493900 4.191100
11.518200 3.544400
11.542500 2.889000
11.566800 2.857600
11.591100 3.012400
11.615400 3.192500
11.639700 3.376200
11.664000 3.916900
11.688300 4.114400
11.712600 4.270800
11.736900 4.370300
11.761200 4.327800
11.785500 4.037700
11.809800 3.659500
11.834100 3.278300
11.858400 3.275000
11.882700 3.303300
11.907000 3.350100
11.931300 3.417900
11.955600 3.522100
11.979900 3.687500
12.004200 3.918900
12.028500 4.173200
12.052800 4.332100
12.077100 4.390400
12.101400 4.348200
12.125700 4.341300
12.150000 4.358500
12.174300 4.372400
12.198600 4.400700
12.222900 4.458700
12.247300 4.630200
12.271600 4.679900
12.295900 4.627500
12.320200 4.792600
12.344500 4.996100
12.368800 8.151300
12.393100 9.440100
12.417400 8.236600
12.441700 7.078000
12.466000 6.227900
12.490300 5.754300
12.514600 5.321400
12.538900 4.927500
12.563200 4.575900
12.587500 4.337700
12.611800 4.174900
12.636100 4.049400
12.660400 3.974600
12.684700 3.901000
12.709000 3.828600
12.733300 3.757500
12.757600 3.947200
12.781900 4.159400
12.806200 4.243100
12.830500 4.415400
12.854800 4.473900
12.879100 4.208100
12.903400 3.503400
12.927700 2.969100
12.952000 3.073600
12.976300 3.278900
13.000600 3.895100
13.024900 4.783900
13.049200 5.070100
13.073500 4.449900
13.097800 3.995000
13.122200 4.085000
13.146500 7.402600
13.170800 8.776500
13.195100 9.954700
13.219400 7.637500
13.243700 7.584900
13.268000 7.293700
13.292300 6.864700
13.316600 6.749700
13.340900 6.803800
13.365200 7.116100
13.389500 7.605000
13.413800 7.540000
13.438100 7.584500
13.462400 7.548400
13.486700 7.547300
13.511000 7.535800
13.535300 7.478700
13.559600 7.133500
13.583900 6.409000
13.608200 5.153700
13.632500 4.460200
13.656800 4.040500
13.681100 3.760800
13.705400 3.552300
13.729700 3.458900
13.754000 4.208700
13.778300 5.010200
13.802600 6.474200
13.826900 8.142000
13.851200 9.380300
13.875500 8.629400
13.899800 8.225100
13.924100 7.716800
13.948400 7.100700
13.972700 6.541100
13.997100 5.913900
14.021400 5.165700
14.045700 4.296500
14.070000 3.400600
14.094300 2.104700
14.118600 1.965300
14.142900 2.822700
14.167200 4.782500
14.191500 10.742500
14.215800 13.010800
14.240100 14.024500
14.264400 10.998100
14.288700 10.710600
14.313000 10.124800
14.337300 9.240700
14.361600 9.476800
14.385900 9.597100
14.410200 8.044800
14.434500 7.236800
14.458800 8.029900
14.483100 8.878600
14.507400 9.354700
14.531700 6.664400
14.556000 4.480300
14.580300 3.002000
14.604600 2.261700
14.628900 2.856500
14.653200 2.994200
14.677500 3.612800
14.701800 4.599700
14.726100 5.258300
14.750400 5.614900
14.774700 5.549100
14.799000 5.583800
14.823300 5.301300
14.847600 5.100700
14.872000 5.025800
14.896300 5.036800
14.920600 5.133600
14.944900 5.561500
14.969200 5.707500
14.993500 5.414100
15.017800 3.803900
15.042100 2.406400
15.066400 2.035900
15.090700 2.019300
15.115000 2.076500
15.139300 2.170500
15.163600 2.479800
15.187900 4.163700
15.212200 7.018300
15.236500 11.043800
15.260800 16.624700
15.285100 12.975500
15.309400 8.651600
15.333700 7.397500
15.358000 6.773500
15.382300 7.393900
15.406600 8.836500
15.430900 14.166200
15.455200 15.393800
15.479500 14.256900
15.503800 11.175600
15.528100 5.533000
15.552400 2.626700
15.576700 2.938000
15.601000 3.591200
15.625300 5.054000
15.649600 6.414400
15.673900 7.774400
15.698200 8.970900
15.722500 9.140200
15.746900 8.888000
15.771200 8.635500
15.795500 7.752000
15.819800 7.427000
15.844100 7.073100
15.868400 2.952400
15.892700 4.977300
15.917000 7.899100
15.941300 9.314600
15.965600 9.436300
15.989900 8.834900
16.014200 8.261700
16.038500 7.478100
16.062800 6.676500
16.087100 5.956000
16.111400 5.375600
16.135700 5.247500
16.160000 6.310700
16.184300 9.052900
16.208600 7.422000
16.232900 6.105500
16.257200 5.712100
16.281500 5.347300
16.305800 4.515900
16.330100 4.446800
16.354400 4.405000
16.378700 4.390500
16.403000 4.410600
16.427300 4.491700
16.451600 4.765100
16.475900 5.313900
16.500200 6.068000
16.524500 6.858700
16.548800 7.586300
16.573100 7.989000
16.597400 7.974900
16.621800 7.489500
16.646100 7.163200
16.670400 6.377500
16.694700 7.461600
16.719000 9.720100
16.743300 12.300600
16.767600 12.783700
16.791900 9.071900
16.816200 8.070800
16.840500 8.202400
16.864800 8.843800
16.889100 11.017600
16.913400 10.373900
16.937700 8.510500
16.962000 5.281900
16.986300 2.385000
17.010600 2.763600
17.034900 5.583500
17.059200 10.852200
17.083500 14.831900
17.107800 17.170000
17.132100 13.485900
17.156400 9.440100
17.180700 5.742900
17.205000 3.541200
17.229300 4.209300
17.253600 5.369000
17.277900 4.715300
17.302200 4.185900
17.326500 4.010600
17.350800 3.720400
17.375100 3.403700
17.399400 3.756000
17.423700 5.299000
17.448000 6.291600
17.472300 6.629000
17.496700 7.048600
17.521000 7.592700
17.545300 7.433400
17.569600 7.148700
17.593900 8.847100
17.618200 11.938900
17.642500 12.635200
17.666800 8.706700
17.691100 7.212800
17.715400 6.251500
17.739700 5.403000
17.764000 5.070700
17.788300 4.823100
17.812600 4.597300
17.836900 4.401800
17.861200 4.231700
17.885500 5.287000
17.909800 5.523600
17.934100 4.891300
17.958400 4.939800
17.982700 5.041300
18.007000 5.045900
18.031300 5.211000
18.055600 5.415000
18.079900 4.966800
18.104200 5.165100
18.128500 5.414400
18.152800 5.618900
18.177100 5.842900
18.201400 6.367400
18.225700 8.414100
18.250000 7.818600
18.274300 7.233100
18.298600 6.809900
18.322900 6.404100
18.347200 6.047400
18.371600 5.718500
18.395900 5.408000
18.420200 5.117100
18.444500 4.841800
18.468800 4.620500
18.493100 4.435200
18.517400 4.298300
18.541700 4.162400
18.566000 4.644000
18.590300 5.375400
18.614600 5.169200
18.638900 5.420500
18.663200 5.462600
18.687500 5.273000
18.711800 4.888100
18.736100 4.559600
18.760400 4.310500
18.784700 3.965200
18.809000 3.439300
18.833300 2.984500
18.857600 2.901600
18.881900 2.957300
18.906200 4.543000
18.930500 4.968100
18.954800 5.255200
18.979100 5.522900
19.003400 9.715300
19.027700 7.413100
19.052000 5.769500
19.076300 4.161700
19.100600 1.382400
19.124900 1.452800
19.149200 1.875400
19.173500 2.395500
19.197800 3.007000
19.222100 4.037200
19.246500 5.820200
19.270800 7.027500
19.295100 7.635900
19.319400 7.387600
19.343700 6.543600
19.368000 5.229400
19.392300 3.679200
19.416600 2.325100
19.440900 1.119800
19.465200 0.472100
19.489500 0.558300
19.513800 1.217500
19.538100 2.547900
19.562400 5.441700
19.586700 5.704800
19.611000 6.071400
19.635300 6.376100
19.659600 6.618800
19.683900 6.845900
19.708200 7.342600
19.732500 6.394400
19.756800 3.826800
19.781100 2.663000
19.805400 2.302500
19.829700 1.997400
19.854000 1.747900
19.878300 1.553700
19.902600 1.450100
19.926900 1.474400
19.951200 1.499800
19.975500 1.586100
19.999800 1.802600
20.024100 2.152400
20.048400 2.600300
20.072700 3.099900
20.097100 3.651200
20.121400 4.261400
20.145700 5.285300
20.170000 6.176700
20.194300 7.135400
20.218600 7.575500
20.242900 7.702800
20.267200 7.521800
20.291500 6.353700
20.315800 4.991400
20.340100 4.255100
20.364400 3.577000
20.388700 2.813800
20.413000 2.070500
20.437300 1.607400
20.461600 1.431800
20.485900 1.285100
20.510200 1.258400
20.534500 1.372500
20.558800 1.894500
20.583100 2.279800
20.607400 2.607200
20.631700 3.012900
20.656000 4.962900
20.680300 7.626400
20.704600 9.400500
20.728900 8.891500
20.753200 7.473500
20.777500 6.387800
20.801800 5.634600
20.826100 4.571200
20.850400 3.780600
20.874700 3.203200
20.899000 2.650500
20.923300 2.063700
20.947600 1.555400
20.972000 1.128200
20.996300 0.761100
21.020600 0.445000
21.044900 0.200200
21.069200 0.240700
21.093500 0.629300
21.117800 1.013800
21.142100 1.357400
21.166400 1.756600
21.190700 2.319900
21.215000 3.691300
21.239300 4.716200
21.263600 5.964800
21.287900 7.760700
21.312200 9.275600
21.336500 8.937000
21.360800 8.107700
21.385100 6.847700
21.409400 5.877400
21.433700 4.857000
21.458000 3.786300
21.482300 2.676100
21.506600 2.134100
21.530900 1.992700
21.555200 1.848600
21.579500 1.697300
21.603800 1.561100
21.628100 1.923900
21.652400 2.460500
21.676700 3.107300
21.701000 4.884200
21.725300 11.899200
21.749600 13.918600
21.773900 12.359800
21.798200 9.634100
21.822500 7.044300
21.846900 5.017900
21.871200 3.212400
21.895500 2.167400
21.919800 1.815800
21.944100 1.573100
21.968400 1.637300
21.992700 3.069100
22.017000 6.110400
22.041300 9.774400
22.065600 14.032600
22.089900 11.659300
22.114200 8.169400
22.138500 5.697600
22.162800 3.912700
22.187100 2.760900
22.211400 2.301900
22.235700 3.498100
22.260000 4.287300
22.284300 5.884800
22.308600 5.905300
22.332900 6.311600
22.357200 7.398100
22.381500 8.701200
22.405800 11.508000
22.430100 17.141600
22.454400 11.943600
22.478700 4.227500
22.503000 1.000600
22.527300 0.016900
22.551600 0.404200
22.575900 5.133200
22.600200 12.189800
22.624500 13.041800
22.648800 9.460400
22.673100 6.993800
22.697400 4.689000
22.721800 4.052500
22.746100 5.199000
22.770400 7.801200
22.794700 9.059000
22.819000 9.861000
22.843300 10.048800
22.867600 9.117600
22.891900 7.790400
22.916200 6.606600
22.940500 5.915400
22.964800 6.411900
22.989100 7.045800
23.013400 9.611100
23.037700 9.372100
23.062000 8.312100
23.086300 7.331100
23.110600 7.076100
23.134900 6.915700
23.159200 6.788700
23.183500 7.156200
23.207800 7.346300
23.232100 5.424700
23.256400 4.642300
23.280700 4.215100
23.305000 4.149100
23.329300 4.380000
23.353600 5.177000
23.377900 4.489200
23.402200 5.136300
23.426500 6.083800
23.450800 6.866000
23.475100 7.493500
23.499400 7.856700
23.523700 6.941200
23.548000 5.741700
23.572300 5.075200
23.596700 4.513600
23.621000 3.489100
23.645300 2.865800
23.669600 2.313600
23.693900 2.495400
23.718200 2.519800
23.742500 2.305100
23.766800 2.229900
23.791100 2.177100
23.815400 2.368800
23.839700 1.897100
23.864000 1.271000
23.888300 1.127500
23.912600 1.003500
23.936900 0.892800
23.961200 0.795600
23.985500 0.633200
24.009800 0.008600
24.034100 0.000000
24.058400 0.000000
24.082700 0.000000
24.107000 0.000000
24.131300 0.000000
24.155600 0.000000
24.179900 0.000000
24.204200 0.000000
24.228500 0.000000
24.252800 0.000000
24.277100 0.000000
24.301400 0.000000
24.325700 0.000000
24.350000 0.000000
24.374300 0.000000
24.398600 0.000000
24.422900 0.000000
24.447200 0.000000
24.471600 0.000000
24.495900 0.000000
24.520200 0.000000
24.544500 0.000000
24.568800 0.000000
24.593100 0.000000
24.617400 0.000000
24.641700 0.000000
24.666000 0.000000
24.690300 0.000000
24.714600 0.000000
24.738900 0.000000
24.763200 0.000000
24.787500 0.000000
24.811800 0.000000
24.836100 0.000000
24.860400 0.000000
24.884700 0.000000
24.909000 0.000000
24.933300 0.000000
24.957600 0.000000
24.981900 0.000000
25.006200 0.000000
25.030500 0.000000
25.054800 0.000000
25.079100 0.000000
25.103400 0.000000
25.127700 0.000000
25.152000 0.000000
25.176300 0.000000
25.200600 0.000000
25.224900 0.000000
25.249200 0.000000
25.273500 0.000000
25.297800 0.000000
25.322100 0.000000
25.346500 0.000000
25.370800 0.000000
25.395100 0.000000
25.419400 0.000000
25.443700 0.000000
25.468000 0.000000
25.492300 0.000000
25.516600 0.000000
25.540900 0.000000
25.565200 0.000000
25.589500 0.000000
25.613800 0.000000
25.638100 0.000000
25.662400 0.000000
25.686700 0.000000
25.711000 0.000000
25.735300 0.000000
25.759600 0.000000
25.783900 0.000000
25.808200 0.000000
25.832500 0.000000
25.856800 0.000000
25.881100 0.000000
25.905400 0.000000
25.929700 0.000000
25.954000 0.000000
25.978300 0.000000
26.002600 0.000000
26.026900 0.000000
26.051200 0.000000
26.075500 0.000000
26.099800 0.000000
26.124100 0.000000
26.148400 0.000000
26.172700 0.000000
26.197000 0.000000
26.221400 0.000000
e
