set title 'mp-1220501 - Density of States'
set xlabel 'Energy (eV)'
set ylabel 'DOS (states/eV)'
set grid
set xrange [-10:10]
set yrange [0:16.689]
set xzeroaxis lt -1
set terminal png size 800,600
set output 'mp-1220501_dos_gnuplot.png'
plot '-' using 1:2 with lines title 'DOS'
-28.356000 0.000000
-28.326200 0.000000
-28.296500 0.000000
-28.266700 0.000000
-28.236900 0.000000
-28.207200 0.000000
-28.177400 0.000000
-28.147700 0.000000
-28.117900 0.000000
-28.088200 0.000000
-28.058400 0.000000
-28.028700 0.000000
-27.998900 0.000000
-27.969200 0.000000
-27.939400 0.000000
-27.909600 0.000000
-27.879900 0.000000
-27.850100 0.000000
-27.820400 0.000000
-27.790600 0.000000
-27.760900 0.000000
-27.731100 0.000000
-27.701400 0.000000
-27.671600 0.000000
-27.641800 0.000000
-27.612100 0.000000
-27.582300 0.000000
-27.552600 0.000000
-27.522800 0.000000
-27.493100 0.000000
-27.463300 0.000000
-27.433600 0.000000
-27.403800 0.000000
-27.374000 0.000000
-27.344300 0.000000
-27.314500 0.000000
-27.284800 0.000000
-27.255000 0.000000
-27.225300 0.000000
-27.195500 0.000000
-27.165800 0.000000
-27.136000 0.000000
-27.106300 0.000000
-27.076500 0.000000
-27.046700 0.000000
-27.017000 0.000000
-26.987200 0.000000
-26.957500 0.000000
-26.927700 0.000000
-26.898000 0.000000
-26.868200 0.000000
-26.838500 0.000000
-26.808700 0.000000
-26.778900 0.000000
-26.749200 0.000000
-26.719400 0.000000
-26.689700 0.000000
-26.659900 0.000000
-26.630200 0.000000
-26.600400 0.000000
-26.570700 0.000000
-26.540900 0.000000
-26.511100 0.000000
-26.481400 0.000000
-26.451600 0.000000
-26.421900 0.000000
-26.392100 0.000000
-26.362400 0.000000
-26.332600 0.000000
-26.302900 0.000000
-26.273100 0.000000
-26.243400 0.000000
-26.213600 0.000000
-26.183800 0.000000
-26.154100 0.000000
-26.124300 0.000000
-26.094600 0.000000
-26.064800 0.000000
-26.035100 0.000000
-26.005300 0.000000
-25.975600 0.000000
-25.945800 0.000000
-25.916000 0.000000
-25.886300 0.000000
-25.856500 0.000000
-25.826800 0.000000
-25.797000 0.000000
-25.767300 0.000000
-25.737500 0.000000
-25.707800 0.000000
-25.678000 0.000000
-25.648200 13.258800
-25.618500 6.142500
-25.588700 7.007100
-25.559000 9.132800
-25.529200 13.907200
-25.499500 18.053200
-25.469700 19.137200
-25.440000 17.666600
-25.410200 25.319900
-25.380400 4.476600
-25.350700 6.479200
-25.320900 14.501600
-25.291200 18.805900
-25.261400 23.804800
-25.231700 17.220800
-25.201900 23.463000
-25.172200 23.020600
-25.142400 22.611700
-25.112700 17.911500
-25.082900 15.138400
-25.053100 14.898500
-25.023400 15.396700
-24.993600 33.584100
-24.963900 17.209600
-24.934100 13.886500
-24.904400 10.439100
-24.874600 15.039800
-24.844900 26.698200
-24.815100 37.426900
-24.785300 31.485000
-24.755600 15.175700
-24.725800 13.817400
-24.696100 9.498000
-24.666300 28.023700
-24.636600 34.030200
-24.606800 13.088300
-24.577100 3.660600
-24.547300 5.778000
-24.517500 5.649200
-24.487800 5.946100
-24.458000 7.104200
-24.428300 8.621400
-24.398500 12.256700
-24.368800 32.105200
-24.339000 12.234600
-24.309300 9.766800
-24.279500 7.576900
-24.249800 5.071800
-24.220000 0.000000
-24.190200 0.000000
-24.160500 0.000000
-24.130700 0.000000
-24.101000 0.000000
-24.071200 0.000000
-24.041500 0.000000
-24.011700 0.000000
-23.982000 0.000000
-23.952200 0.000000
-23.922400 0.000000
-23.892700 0.000000
-23.862900 0.000000
-23.833200 0.000000
-23.803400 0.000000
-23.773700 0.000000
-23.743900 0.000000
-23.714200 0.000000
-23.684400 0.000000
-23.654600 0.000000
-23.624900 0.000000
-23.595100 0.000000
-23.565400 0.000000
-23.535600 0.000000
-23.505900 0.000000
-23.476100 0.000000
-23.446400 0.000000
-23.416600 0.000000
-23.386900 0.000000
-23.357100 0.000000
-23.327300 0.000000
-23.297600 0.000000
-23.267800 0.000000
-23.238100 0.000000
-23.208300 0.000000
-23.178600 0.000000
-23.148800 0.000000
-23.119100 0.000000
-23.089300 0.000000
-23.059500 0.000000
-23.029800 0.000000
-23.000000 0.000000
-22.970300 0.000000
-22.940500 0.000000
-22.910800 0.000000
-22.881000 0.000000
-22.851300 0.000000
-22.821500 0.000000
-22.791700 0.000000
-22.762000 0.000000
-22.732200 0.000000
-22.702500 0.000000
-22.672700 0.000000
-22.643000 0.000000
-22.613200 0.000000
-22.583500 0.000000
-22.553700 0.000000
-22.523900 0.000000
-22.494200 0.000000
-22.464400 0.000000
-22.434700 0.000000
-22.404900 0.000000
-22.375200 0.000000
-22.345400 0.000000
-22.315700 0.000000
-22.285900 0.000000
-22.256200 0.000000
-22.226400 0.000000
-22.196600 0.000000
-22.166900 0.000000
-22.137100 0.000000
-22.107400 0.000000
-22.077600 0.000000
-22.047900 0.000000
-22.018100 0.000000
-21.988400 0.000000
-21.958600 0.000000
-21.928800 0.000000
-21.899100 0.000000
-21.869300 0.000000
-21.839600 0.000000
-21.809800 0.000000
-21.780100 0.000000
-21.750300 0.000000
-21.720600 0.000000
-21.690800 0.000000
-21.661000 0.000000
-21.631300 0.000000
-21.601500 0.000000
-21.571800 0.000000
-21.542000 0.000000
-21.512300 0.000000
-21.482500 0.000000
-21.452800 0.000000
-21.423000 0.000000
-21.393300 0.000000
-21.363500 0.000000
-21.333700 0.000000
-21.304000 0.000000
-21.274200 0.000000
-21.244500 0.000000
-21.214700 0.000000
-21.185000 0.000000
-21.155200 0.000000
-21.125500 0.000000
-21.095700 0.000000
-21.065900 0.000000
-21.036200 0.000000
-21.006400 0.000000
-20.976700 0.000000
-20.946900 0.000000
-20.917200 0.000000
-20.887400 0.000000
-20.857700 0.000000
-20.827900 0.000000
-20.798100 0.000000
-20.768400 0.000000
-20.738600 0.000000
-20.708900 0.000000
-20.679100 0.000000
-20.649400 0.000000
-20.619600 0.000000
-20.589900 0.000000
-20.560100 0.000000
-20.530300 0.000000
-20.500600 0.000000
-20.470800 0.000000
-20.441100 0.000000
-20.411300 0.000000
-20.381600 0.000000
-20.351800 0.000000
-20.322100 0.000000
-20.292300 0.000000
-20.262600 0.000000
-20.232800 0.000000
-20.203000 0.000000
-20.173300 0.000000
-20.143500 0.000000
-20.113800 0.000000
-20.084000 0.000000
-20.054300 0.000000
-20.024500 0.000000
-19.994800 0.000000
-19.965000 0.000000
-19.935200 0.000000
-19.905500 0.000000
-19.875700 0.000000
-19.846000 0.000000
-19.816200 0.000000
-19.786500 0.000000
-19.756700 0.000000
-19.727000 0.000000
-19.697200 0.000000
-19.667400 0.000000
-19.637700 0.000000
-19.607900 0.000000
-19.578200 0.000000
-19.548400 0.000000
-19.518700 0.000000
-19.488900 0.000000
-19.459200 0.000000
-19.429400 0.000000
-19.399700 0.000000
-19.369900 0.000000
-19.340100 0.000000
-19.310400 0.000000
-19.280600 0.000000
-19.250900 0.000000
-19.221100 0.000000
-19.191400 0.000000
-19.161600 0.000000
-19.131900 0.000000
-19.102100 0.000000
-19.072300 0.000000
-19.042600 0.000000
-19.012800 0.000000
-18.983100 0.000000
-18.953300 0.000000
-18.923600 0.000000
-18.893800 0.000000
-18.864100 0.000000
-18.834300 0.000000
-18.804500 0.000000
-18.774800 0.000000
-18.745000 0.000000
-18.715300 0.000000
-18.685500 0.000000
-18.655800 0.000000
-18.626000 0.000000
-18.596300 0.000000
-18.566500 0.000000
-18.536800 0.000000
-18.507000 0.000000
-18.477200 0.000000
-18.447500 0.000000
-18.417700 0.000000
-18.388000 0.000000
-18.358200 0.000000
-18.328500 0.000000
-18.298700 0.000000
-18.269000 0.000000
-18.239200 0.000000
-18.209400 0.000000
-18.179700 0.000000
-18.149900 0.000000
-18.120200 0.000000
-18.090400 0.000000
-18.060700 0.000000
-18.030900 0.000000
-18.001200 0.000000
-17.971400 0.000000
-17.941600 0.000000
-17.911900 0.000000
-17.882100 0.000000
-17.852400 0.000000
-17.822600 0.000000
-17.792900 0.000000
-17.763100 0.000000
-17.733400 0.000000
-17.703600 0.000000
-17.673800 0.000000
-17.644100 0.000000
-17.614300 0.000000
-17.584600 0.000000
-17.554800 0.000000
-17.525100 0.000000
-17.495300 0.000000
-17.465600 0.000000
-17.435800 0.000000
-17.406100 0.000000
-17.376300 0.000000
-17.346500 0.000000
-17.316800 0.000000
-17.287000 0.000000
-17.257300 0.000000
-17.227500 0.000000
-17.197800 0.000000
-17.168000 0.000000
-17.138300 0.000000
-17.108500 0.000000
-17.078700 0.000000
-17.049000 0.000000
-17.019200 0.000000
-16.989500 0.000000
-16.959700 0.000000
-16.930000 0.000000
-16.900200 0.000000
-16.870500 0.000000
-16.840700 0.000000
-16.810900 0.000000
-16.781200 0.000000
-16.751400 0.000000
-16.721700 0.000000
-16.691900 0.000000
-16.662200 0.000000
-16.632400 0.000000
-16.602700 0.000000
-16.572900 0.000000
-16.543200 0.000000
-16.513400 0.000000
-16.483600 0.000000
-16.453900 0.000000
-16.424100 0.000000
-16.394400 0.000000
-16.364600 0.000000
-16.334900 0.000000
-16.305100 0.000000
-16.275400 0.000000
-16.245600 0.000000
-16.215800 0.000000
-16.186100 0.000000
-16.156300 0.000000
-16.126600 0.000000
-16.096800 0.000000
-16.067100 0.000000
-16.037300 0.000000
-16.007600 0.000000
-15.977800 0.000000
-15.948000 0.000000
-15.918300 0.000000
-15.888500 0.000000
-15.858800 0.000000
-15.829000 0.000000
-15.799300 0.000000
-15.769500 0.000000
-15.739800 0.000000
-15.710000 0.000000
-15.680300 0.000000
-15.650500 0.000000
-15.620700 0.000000
-15.591000 0.000000
-15.561200 0.000000
-15.531500 0.000000
-15.501700 0.000000
-15.472000 0.000000
-15.442200 0.000000
-15.412500 0.000000
-15.382700 0.000000
-15.352900 0.000000
-15.323200 0.000000
-15.293400 0.000000
-15.263700 0.000000
-15.233900 0.000000
-15.204200 0.000000
-15.174400 0.000000
-15.144700 0.000000
-15.114900 0.000000
-15.085100 0.000000
-15.055400 0.000000
-15.025600 0.000000
-14.995900 0.000000
-14.966100 0.000000
-14.936400 0.000000
-14.906600 0.000000
-14.876900 0.000000
-14.847100 0.000000
-14.817300 0.000000
-14.787600 0.000000
-14.757800 0.000000
-14.728100 0.000000
-14.698300 0.000000
-14.668600 0.000000
-14.638800 0.000000
-14.609100 0.000000
-14.579300 0.000000
-14.549600 0.000000
-14.519800 0.000000
-14.490000 0.000000
-14.460300 0.000000
-14.430500 0.000000
-14.400800 0.000000
-14.371000 0.000000
-14.341300 0.000000
-14.311500 0.000000
-14.281800 0.000000
-14.252000 0.000000
-14.222200 0.000000
-14.192500 0.000000
-14.162700 0.000000
-14.133000 0.000000
-14.103200 0.000000
-14.073500 0.000000
-14.043700 0.000000
-14.014000 0.000000
-13.984200 0.000000
-13.954400 0.000000
-13.924700 0.000000
-13.894900 0.000000
-13.865200 0.000000
-13.835400 0.000000
-13.805700 0.000000
-13.775900 0.000000
-13.746200 0.000000
-13.716400 0.000000
-13.686700 0.000000
-13.656900 0.000000
-13.627100 0.000000
-13.597400 0.000000
-13.567600 0.000000
-13.537900 0.000000
-13.508100 0.000000
-13.478400 0.000000
-13.448600 0.000000
-13.418900 0.000000
-13.389100 0.000000
-13.359300 0.000000
-13.329600 0.000000
-13.299800 0.000000
-13.270100 0.000000
-13.240300 0.000000
-13.210600 0.000000
-13.180800 0.000000
-13.151100 0.000000
-13.121300 0.000000
-13.091500 0.000000
-13.061800 0.000000
-13.032000 0.000000
-13.002300 0.000000
-12.972500 0.000000
-12.942800 0.000000
-12.913000 0.000000
-12.883300 0.000000
-12.853500 0.000000
-12.823800 0.000000
-12.794000 0.000000
-12.764200 0.000000
-12.734500 0.000000
-12.704700 0.000000
-12.675000 0.000000
-12.645200 0.000000
-12.615500 0.000000
-12.585700 0.000000
-12.556000 0.000000
-12.526200 0.000000
-12.496400 0.000000
-12.466700 0.000000
-12.436900 0.000000
-12.407200 0.000000
-12.377400 0.000000
-12.347700 0.000000
-12.317900 0.000000
-12.288200 0.000000
-12.258400 0.000000
-12.228600 0.000000
-12.198900 0.000000
-12.169100 0.000000
-12.139400 0.000000
-12.109600 0.000000
-12.079900 0.000000
-12.050100 0.000000
-12.020400 0.000000
-11.990600 0.000000
-11.960800 0.000000
-11.931100 0.000000
-11.901300 0.000000
-11.871600 0.000000
-11.841800 0.000000
-11.812100 0.000000
-11.782300 0.000000
-11.752600 0.000000
-11.722800 0.000000
-11.693100 0.000000
-11.663300 0.000000
-11.633500 0.000000
-11.603800 0.000000
-11.574000 0.000000
-11.544300 0.000000
-11.514500 0.000000
-11.484800 0.000000
-11.455000 0.000000
-11.425300 0.000000
-11.395500 0.000000
-11.365700 0.000000
-11.336000 0.000000
-11.306200 0.000000
-11.276500 0.000000
-11.246700 0.000000
-11.217000 0.000000
-11.187200 0.000000
-11.157500 0.000000
-11.127700 0.000000
-11.097900 0.000000
-11.068200 0.000000
-11.038400 0.000000
-11.008700 0.000000
-10.978900 0.000000
-10.949200 0.000000
-10.919400 0.000000
-10.889700 0.000000
-10.859900 0.000000
-10.830200 0.000000
-10.800400 0.000000
-10.770600 0.000000
-10.740900 0.000000
-10.711100 0.000000
-10.681400 0.000000
-10.651600 0.000000
-10.621900 0.000000
-10.592100 0.000000
-10.562400 0.000000
-10.532600 0.000000
-10.502800 0.000000
-10.473100 0.000000
-10.443300 0.000000
-10.413600 0.000000
-10.383800 0.000000
-10.354100 0.000000
-10.324300 0.000000
-10.294600 0.000000
-10.264800 0.000000
-10.235000 0.000000
-10.205300 0.000000
-10.175500 0.000000
-10.145800 0.000000
-10.116000 0.000000
-10.086300 0.000000
-10.056500 0.000000
-10.026800 0.000000
-9.997000 0.000000
-9.967200 0.000000
-9.937500 0.000000
-9.907700 0.000000
-9.878000 0.000000
-9.848200 0.000000
-9.818500 0.000000
-9.788700 0.000000
-9.759000 0.000000
-9.729200 0.000000
-9.699500 0.000000
-9.669700 0.000000
-9.639900 0.000000
-9.610200 0.000000
-9.580400 0.000000
-9.550700 0.000000
-9.520900 0.000000
-9.491200 0.000000
-9.461400 0.000000
-9.431700 0.000000
-9.401900 0.000000
-9.372100 0.000000
-9.342400 0.000000
-9.312600 0.000000
-9.282900 0.000000
-9.253100 0.000000
-9.223400 0.000000
-9.193600 0.000000
-9.163900 0.000000
-9.134100 0.000000
-9.104300 0.000000
-9.074600 0.000000
-9.044800 0.000000
-9.015100 0.000000
-8.985300 0.000000
-8.955600 0.000000
-8.925800 0.000000
-8.896100 0.000000
-8.866300 0.000000
-8.836600 0.000000
-8.806800 0.000000
-8.777000 0.000000
-8.747300 0.000000
-8.717500 0.000000
-8.687800 0.000000
-8.658000 0.000000
-8.628300 0.000000
-8.598500 0.000000
-8.568800 0.000000
-8.539000 0.000000
-8.509200 0.000000
-8.479500 0.000000
-8.449700 0.000000
-8.420000 0.000000
-8.390200 0.000000
-8.360500 0.000000
-8.330700 0.000000
-8.301000 0.000000
-8.271200 0.000000
-8.241400 0.000000
-8.211700 0.000000
-8.181900 0.000000
-8.152200 0.000000
-8.122400 0.000000
-8.092700 0.000000
-8.062900 0.000000
-8.033200 0.000000
-8.003400 0.000000
-7.973700 0.000000
-7.943900 0.000000
-7.914100 0.000000
-7.884400 0.000000
-7.854600 0.000000
-7.824900 0.000000
-7.795100 0.000000
-7.765400 0.000000
-7.735600 0.000000
-7.705900 0.000000
-7.676100 0.000000
-7.646300 0.000000
-7.616600 0.000000
-7.586800 0.000000
-7.557100 0.000000
-7.527300 0.000000
-7.497600 0.000000
-7.467800 0.000000
-7.438100 0.000000
-7.408300 0.000000
-7.378500 0.000000
-7.348800 0.000000
-7.319000 0.000000
-7.289300 0.000000
-7.259500 0.000000
-7.229800 0.000000
-7.200000 0.000000
-7.170300 0.000000
-7.140500 0.000000
-7.110700 0.000000
-7.081000 0.000000
-7.051200 0.000000
-7.021500 0.000000
-6.991700 0.000000
-6.962000 0.000000
-6.932200 0.000000
-6.902500 0.000000
-6.872700 0.000000
-6.843000 0.000000
-6.813200 0.000000
-6.783400 0.000000
-6.753700 0.000000
-6.723900 0.000000
-6.694200 0.000000
-6.664400 0.000000
-6.634700 0.000000
-6.604900 0.000000
-6.575200 0.000000
-6.545400 0.000000
-6.515600 0.000000
-6.485900 0.000000
-6.456100 0.000000
-6.426400 0.000000
-6.396600 0.000000
-6.366900 0.009900
-6.337100 0.068600
-6.307400 0.174800
-6.277600 0.298900
-6.247800 0.423000
-6.218100 0.495600
-6.188300 0.452500
-6.158600 0.363200
-6.128800 0.376700
-6.099100 0.390200
-6.069300 0.403700
-6.039600 0.417200
-6.009800 0.430700
-5.980100 0.444200
-5.950300 0.457700
-5.920500 0.470200
-5.890800 0.474600
-5.861000 0.471800
-5.831300 0.469000
-5.801500 0.466100
-5.771800 0.467100
-5.742000 0.475500
-5.712300 0.484900
-5.682500 0.494300
-5.652700 0.503700
-5.623000 0.513100
-5.593200 0.522500
-5.563500 0.531900
-5.533700 0.541300
-5.504000 0.550700
-5.474200 0.560100
-5.444500 0.570300
-5.414700 0.654000
-5.384900 0.782600
-5.355200 0.950900
-5.325400 1.044000
-5.295700 1.169400
-5.265900 1.339200
-5.236200 1.462800
-5.206400 1.450200
-5.176700 1.525900
-5.146900 1.600700
-5.117200 1.671900
-5.087400 1.740200
-5.057600 1.807100
-5.027900 1.875500
-4.998100 1.950100
-4.968400 2.029100
-4.938600 2.501000
-4.908900 3.395100
-4.879100 6.516100
-4.849400 5.924000
-4.819600 4.445800
-4.789800 3.844700
-4.760100 3.949800
-4.730300 4.054400
-4.700600 4.159100
-4.670800 4.385600
-4.641100 5.353400
-4.611300 5.452400
-4.581600 5.595600
-4.551800 7.812700
-4.522000 7.294600
-4.492300 5.624200
-4.462500 5.126100
-4.432800 4.971100
-4.403000 3.281200
-4.373300 0.000000
-4.343500 0.000000
-4.313800 0.000000
-4.284000 0.000000
-4.254200 1.997100
-4.224500 5.256300
-4.194700 9.039400
-4.165000 6.552400
-4.135200 5.582500
-4.105500 6.211400
-4.075700 7.812900
-4.046000 5.085300
-4.016200 4.207000
-3.986500 3.527500
-3.956700 3.192400
-3.926900 2.377000
-3.897200 2.062100
-3.867400 1.747300
-3.837700 1.432400
-3.807900 0.000000
-3.778200 0.000000
-3.748400 0.000000
-3.718700 0.000000
-3.688900 0.000000
-3.659100 0.000000
-3.629400 0.000000
-3.599600 0.000000
-3.569900 0.000000
-3.540100 0.000000
-3.510400 0.000000
-3.480600 0.000000
-3.450900 0.000000
-3.421100 0.000000
-3.391300 0.000000
-3.361600 0.000000
-3.331800 0.000000
-3.302100 0.000000
-3.272300 0.000000
-3.242600 0.000000
-3.212800 0.000000
-3.183100 0.000000
-3.153300 0.000000
-3.123600 0.000000
-3.093800 0.000000
-3.064000 0.000000
-3.034300 0.000000
-3.004500 0.000000
-2.974800 0.000000
-2.945000 0.000000
-2.915300 0.000000
-2.885500 0.000000
-2.855800 0.000000
-2.826000 0.000000
-2.796200 0.000000
-2.766500 0.000000
-2.736700 0.000000
-2.707000 0.000000
-2.677200 0.000000
-2.647500 0.000000
-2.617700 0.000000
-2.588000 0.000000
-2.558200 0.000000
-2.528400 0.000000
-2.498700 0.000000
-2.468900 0.000000
-2.439200 0.000000
-2.409400 0.000000
-2.379700 0.000000
-2.349900 0.000000
-2.320200 0.000000
-2.290400 0.000000
-2.260600 0.000000
-2.230900 0.000000
-2.201100 0.000000
-2.171400 0.000000
-2.141600 0.000000
-2.111900 0.000000
-2.082100 0.000000
-2.052400 0.000000
-2.022600 0.000000
-1.992900 0.000000
-1.963100 0.000000
-1.933300 0.000000
-1.903600 0.000000
-1.873800 0.000000
-1.844100 0.000000
-1.814300 0.000000
-1.784600 0.000000
-1.754800 0.000000
-1.725100 0.000000
-1.695300 0.000000
-1.665500 0.000000
-1.635800 0.000000
-1.606000 0.000000
-1.576300 0.000000
-1.546500 0.000000
-1.516800 0.000000
-1.487000 0.000000
-1.457300 0.000000
-1.427500 0.000000
-1.397700 0.000000
-1.368000 0.000000
-1.338200 0.000000
-1.308500 0.000000
-1.278700 0.000000
-1.249000 0.000000
-1.219200 0.000000
-1.189500 0.000000
-1.159700 0.000000
-1.130000 0.000000
-1.100200 0.000000
-1.070400 0.000000
-1.040700 0.000000
-1.010900 0.000000
-0.981200 0.000000
-0.951400 0.000000
-0.921700 0.000000
-0.891900 0.000000
-0.862200 0.000000
-0.832400 0.000000
-0.802600 0.000000
-0.772900 0.000000
-0.743100 0.000000
-0.713400 0.000000
-0.683600 0.000000
-0.653900 0.000000
-0.624100 0.000000
-0.594400 0.000000
-0.564600 0.000000
-0.534800 0.000000
-0.505100 0.000000
-0.475300 0.000900
-0.445600 0.019300
-0.415800 0.051600
-0.386100 0.096600
-0.356300 0.160400
-0.326600 0.234300
-0.296800 0.308200
-0.267100 0.352100
-0.237300 0.350300
-0.207500 0.349800
-0.177800 0.649300
-0.148000 0.876800
-0.118300 1.170300
-0.088500 1.320400
-0.058800 1.269900
-0.029000 1.285700
0.000700 1.342300
0.030500 1.398800
0.060300 1.455500
0.090000 1.510000
0.119800 1.543900
0.149500 1.569700
0.179300 1.599500
0.209000 1.632600
0.238800 1.671800
0.268500 1.724700
0.298300 1.795600
0.328100 1.909000
0.357800 2.065800
0.387600 2.191200
0.417300 2.316500
0.447100 2.441800
0.476800 2.567100
0.506600 2.913000
0.536300 3.095600
0.566100 3.173700
0.595900 3.226200
0.625600 5.155700
0.655400 4.046100
0.685100 1.306500
0.714900 1.164400
0.744600 1.624900
0.774400 1.832900
0.804100 2.192400
0.833900 2.691900
0.863600 3.884400
0.893400 6.907400
0.923200 6.025300
0.952900 3.478600
0.982700 3.098100
1.012400 2.825100
1.042200 2.767300
1.071900 3.594600
1.101700 3.938800
1.131400 3.594000
1.161200 3.746900
1.191000 3.678400
1.220700 4.156200
1.250500 4.731300
1.280200 3.743500
1.310000 1.375300
1.339700 0.431200
1.369500 0.056900
1.399200 0.324900
1.429000 1.459300
1.458800 3.585300
1.488500 5.215000
1.518300 7.062600
1.548000 6.515400
1.577800 6.174400
1.607500 6.198100
1.637300 6.741400
1.667000 7.672300
1.696800 8.822000
1.726500 4.941400
1.756300 6.420800
1.786100 12.251400
1.815800 15.171600
1.845600 14.554200
1.875300 4.372000
1.905100 1.944000
1.934800 1.459700
1.964600 3.642500
1.994300 5.015700
2.024100 5.786500
2.053900 7.134700
2.083600 6.900200
2.113400 7.628500
2.143100 9.388800
2.172900 5.197700
2.202600 4.187700
2.232400 10.482700
2.262100 15.167900
2.291900 10.121800
2.321700 7.490300
2.351400 4.085900
2.381200 3.921700
2.410900 4.180800
2.440700 4.990800
2.470400 6.063100
2.500200 9.197900
2.529900 8.714400
2.559700 8.114700
2.589400 5.584200
2.619200 5.092100
2.649000 5.090900
2.678700 5.215400
2.708500 5.628700
2.738200 8.873400
2.768000 10.826700
2.797700 9.873400
2.827500 12.088100
2.857200 10.890700
2.887000 6.385400
2.916800 5.618300
2.946500 4.704500
2.976300 3.147000
3.006000 2.763000
3.035800 2.458300
3.065500 2.173800
3.095300 1.956700
3.125000 2.079800
3.154800 2.717100
3.184600 4.748900
3.214300 13.298300
3.244100 8.163300
3.273800 6.116200
3.303600 4.904200
3.333300 4.335200
3.363100 3.858400
3.392800 3.405100
3.422600 3.549000
3.452400 3.180000
3.482100 2.308800
3.511900 2.146900
3.541600 2.017100
3.571400 1.925100
3.601100 1.865300
3.630900 1.890400
3.660600 1.959400
3.690400 2.028600
3.720100 2.097500
3.749900 2.161900
3.779700 2.132800
3.809400 1.866800
3.839200 1.309800
3.868900 1.048600
3.898700 0.950900
3.928400 0.928400
3.958200 0.931200
3.987900 1.164500
4.017700 1.299000
4.047500 1.219200
4.077200 1.108900
4.107000 1.220500
4.136700 1.475900
4.166500 1.748800
4.196200 2.036500
4.226000 2.396300
4.255700 3.459400
4.285500 3.398500
4.315300 3.262300
4.345000 3.228700
4.374800 3.306100
4.404500 3.449300
4.434300 3.273100
4.464000 3.007100
4.493800 2.856900
4.523500 2.811000
4.553300 2.589100
4.583000 2.251300
4.612800 2.241800
4.642600 2.538700
4.672300 2.995100
4.702100 3.177300
4.731800 3.717600
4.761600 4.280400
4.791300 7.449000
4.821100 7.378000
4.850800 6.784600
4.880600 4.465600
4.910400 4.176800
4.940100 4.221300
4.969900 4.484400
4.999600 5.070000
5.029400 7.540000
5.059100 5.480500
5.088900 2.678600
5.118600 1.045900
5.148400 0.425100
5.178200 0.444900
5.207900 0.457500
5.237700 0.440100
5.267400 0.386300
5.297200 0.627600
5.326900 1.228800
5.356700 1.635700
5.386400 2.686700
5.416200 3.990100
5.446000 5.092000
5.475700 5.355600
5.505500 6.418500
5.535200 4.197900
5.565000 3.939800
5.594700 3.692800
5.624500 3.375700
5.654200 3.134800
5.684000 2.920400
5.713700 2.823900
5.743500 2.814000
5.773300 2.581300
5.803000 2.584900
5.832800 3.161000
5.862500 2.765400
5.892300 3.822300
5.922000 4.169600
5.951800 4.641500
5.981500 5.252200
6.011300 6.247100
6.041100 4.259200
6.070800 3.635200
6.100600 3.318500
6.130300 3.116600
6.160100 2.787600
6.189800 2.712000
6.219600 2.791400
6.249300 3.045000
6.279100 3.730600
6.308900 4.755700
6.338600 3.984900
6.368400 3.497700
6.398100 3.621000
6.427900 3.767500
6.457600 3.777400
6.487400 3.537700
6.517100 2.617900
6.546900 1.378100
6.576600 1.328100
6.606400 1.489000
6.636200 1.700100
6.665900 2.412200
6.695700 3.003300
6.725400 3.182200
6.755200 3.151500
6.784900 3.046100
6.814700 2.957200
6.844400 2.887800
6.874200 2.894500
6.904000 2.956800
6.933700 3.051800
6.963500 3.202900
6.993200 3.436300
7.023000 4.062600
7.052700 4.551400
7.082500 3.527200
7.112200 3.489000
7.142000 3.334700
7.171800 3.177400
7.201500 3.092700
7.231300 3.017300
7.261000 3.008900
7.290800 3.133700
7.320500 3.307500
7.350300 3.114600
7.380000 3.335000
7.409800 3.405300
7.439500 3.469600
7.469300 3.572700
7.499100 3.645000
7.528800 3.640000
7.558600 3.565800
7.588300 3.575100
7.618100 3.671400
7.647800 3.572800
7.677600 3.322800
7.707300 3.336200
7.737100 3.861100
7.766900 4.369700
7.796600 4.100400
7.826400 4.001000
7.856100 4.051400
7.885900 4.079900
7.915600 4.147300
7.945400 4.267800
7.975100 4.307200
8.004900 4.354400
8.034700 4.430300
8.064400 4.698000
8.094200 5.068200
8.123900 5.308700
8.153700 5.741600
8.183400 6.218000
8.213200 6.311400
8.242900 6.003500
8.272700 5.861600
8.302500 5.478300
8.332200 4.940700
8.362000 4.912600
8.391700 5.255100
8.421500 5.587900
8.451200 5.453700
8.481000 4.711400
8.510700 4.305600
8.540500 4.344500
8.570200 4.667000
8.600000 4.574900
8.629800 4.608800
8.659500 4.676100
8.689300 5.097400
8.719000 6.062100
8.748800 6.857700
8.778500 6.719300
8.808300 7.162000
8.838000 6.602000
8.867800 6.541300
8.897600 6.573600
8.927300 6.839900
8.957100 6.104700
8.986800 5.243900
9.016600 5.042800
9.046300 5.374500
9.076100 6.297300
9.105800 7.285000
9.135600 7.994900
9.165400 8.040600
9.195100 7.270200
9.224900 6.687000
9.254600 5.580200
9.284400 4.977400
9.314100 4.963400
9.343900 5.231700
9.373600 5.852100
9.403400 7.234900
9.433100 7.994300
9.462900 8.450800
9.492700 6.735000
9.522400 5.807300
9.552200 5.721300
9.581900 5.442100
9.611700 5.778600
9.641400 7.001100
9.671200 7.455400
9.700900 7.375900
9.730700 6.964400
9.760500 5.860000
9.790200 5.606700
9.820000 5.178300
9.849700 4.944300
9.879500 4.787800
9.909200 4.738500
9.939000 4.533200
9.968700 4.460500
9.998500 4.522200
10.028300 4.416500
10.058000 4.315300
10.087800 4.872100
10.117500 9.946700
10.147300 3.270100
10.177000 2.788800
10.206800 2.974800
10.236500 3.273600
10.266300 3.739300
10.296000 4.837900
10.325800 7.804200
10.355600 10.082900
10.385300 6.626800
10.415100 5.041100
10.444800 5.093900
10.474600 4.663000
10.504300 4.390800
10.534100 3.956000
10.563800 3.594200
10.593600 3.884800
10.623400 5.014800
10.653100 4.283900
10.682900 4.123400
10.712600 4.107100
10.742400 4.015800
10.772100 4.005100
10.801900 4.592200
10.831600 4.979400
10.861400 5.316400
10.891200 5.704500
10.920900 6.091200
10.950700 6.536800
10.980400 6.170300
11.010200 5.605900
11.039900 5.431000
11.069700 5.474900
11.099400 6.346200
11.129200 5.575600
11.159000 5.357000
11.188700 5.058400
11.218500 4.695200
11.248200 4.527700
11.278000 4.352800
11.307700 4.353600
11.337500 3.178400
11.367200 2.942700
11.397000 2.823500
11.426700 2.628000
11.456500 2.452100
11.486300 2.231700
11.516000 2.507400
11.545800 3.642700
11.575500 4.418600
11.605300 4.504500
11.635000 4.631600
11.664800 4.960600
11.694500 5.318300
11.724300 6.520300
11.754100 7.044300
11.783800 5.702100
11.813600 4.592800
11.843300 4.047300
11.873100 3.230000
11.902800 1.865800
11.932600 1.525100
11.962300 1.578100
11.992100 1.637100
12.021900 1.643200
12.051600 1.747000
12.081400 1.851900
12.111100 1.971800
12.140900 2.107800
12.170600 2.246300
12.200400 2.473600
12.230100 3.497300
12.259900 4.865300
12.289600 5.261100
12.319400 5.159800
12.349200 4.740200
12.378900 4.415800
12.408700 3.972600
12.438400 3.453200
12.468200 2.945600
12.497900 3.145900
12.527700 3.408800
12.557400 2.892300
12.587200 2.977800
12.617000 2.865200
12.646700 3.146000
12.676500 3.117800
12.706200 2.852300
12.736000 2.881600
12.765700 3.053400
12.795500 3.277300
12.825200 3.462500
12.855000 3.705300
12.884800 4.327700
12.914500 5.256100
12.944300 4.906000
12.974000 4.961500
13.003800 2.825600
13.033500 2.363000
13.063300 2.037200
13.093000 2.140300
13.122800 2.177200
13.152600 2.231500
13.182300 2.314500
13.212100 2.570100
13.241800 2.619200
13.271600 2.771600
13.301300 2.937000
13.331100 2.856200
13.360800 2.853600
13.390600 2.721300
13.420300 2.816300
13.450100 3.949800
13.479900 4.057700
13.509600 4.278700
13.539400 4.793900
13.569100 4.893500
13.598900 4.769500
13.628600 4.410500
13.658400 4.073800
13.688100 3.652300
13.717900 3.331000
13.747700 3.480800
13.777400 3.811000
13.807200 5.587500
13.836900 4.059400
13.866700 4.529800
13.896400 3.095400
13.926200 3.160300
13.955900 2.969100
13.985700 2.844500
14.015500 2.751500
14.045200 2.611700
14.075000 2.447900
14.104700 2.300100
14.134500 2.169700
14.164200 2.152000
14.194000 2.146600
14.223700 2.080100
14.253500 2.256900
14.283200 2.777700
14.313000 2.645700
14.342800 2.434400
14.372500 2.355000
14.402300 2.295500
14.432000 2.247100
14.461800 2.165300
14.491500 1.996600
14.521300 1.791100
14.551000 1.699800
14.580800 1.645800
14.610600 1.615000
14.640300 1.577800
14.670100 1.528700
14.699800 1.482800
14.729600 1.426900
14.759300 1.378100
14.789100 1.333500
14.818800 1.291600
14.848600 1.243900
14.878400 1.207300
14.908100 1.183700
14.937900 1.165100
14.967600 1.149300
14.997400 1.137000
15.027100 1.129000
15.056900 1.158000
15.086600 1.226300
15.116400 1.346800
15.146100 1.564100
15.175900 1.683400
15.205700 1.690500
15.235400 1.681300
15.265200 1.613100
15.294900 1.499300
15.324700 1.502500
15.354400 1.683400
15.384200 1.810000
15.413900 1.759600
15.443700 1.703000
15.473500 1.674200
15.503200 1.654900
15.533000 1.671000
15.562700 1.665200
15.592500 1.652600
15.622200 1.685600
15.652000 1.700200
15.681700 1.719200
15.711500 1.695600
15.741300 1.809700
15.771000 1.728300
15.800800 1.722400
15.830500 1.786700
15.860300 1.784500
15.890000 1.773600
15.919800 1.786100
15.949500 1.860100
15.979300 1.972800
16.009100 2.059500
16.038800 2.133200
16.068600 2.217200
16.098300 2.336100
16.128100 2.506400
16.157800 2.722600
16.187600 2.065900
16.217300 2.015600
16.247100 1.989800
16.276800 2.334800
16.306600 2.876700
16.336400 2.741200
16.366100 2.435400
16.395900 2.308600
16.425600 2.225600
16.455400 2.171700
16.485100 2.135500
16.514900 2.736800
16.544600 2.679900
16.574400 2.676700
16.604200 2.653200
16.633900 2.586600
16.663700 2.397800
16.693400 2.258100
16.723200 2.372200
16.752900 2.423700
16.782700 2.394400
16.812400 2.240200
16.842200 2.005600
16.872000 1.810700
16.901700 1.749300
16.931500 1.730400
16.961200 1.506400
16.991000 1.494500
17.020700 1.505800
17.050500 1.595200
17.080200 1.682100
17.110000 1.887400
17.139700 1.986100
17.169500 2.503700
17.199300 2.416000
17.229000 2.521300
17.258800 2.818400
17.288500 2.927200
17.318300 2.874000
17.348000 2.904900
17.377800 2.962200
17.407500 2.997700
17.437300 3.197900
17.467100 3.123400
17.496800 2.548400
17.526600 2.090000
17.556300 1.783700
17.586100 1.285400
17.615800 0.767400
17.645600 0.481400
17.675300 0.273700
17.705100 0.254700
17.734900 0.431200
17.764600 0.836900
17.794400 1.566800
17.824100 2.452800
17.853900 3.020600
17.883600 3.583200
17.913400 4.171900
17.943100 4.792500
17.972900 4.179100
18.002600 3.876100
18.032400 3.380600
18.062200 2.586100
18.091900 2.543500
18.121700 2.536100
18.151400 2.750100
18.181200 2.816200
18.210900 2.879100
18.240700 3.117000
18.270400 3.700200
18.300200 4.584400
18.330000 5.350100
18.359700 5.765400
18.389500 4.988200
18.419200 2.962000
18.449000 2.676700
18.478700 2.482300
18.508500 2.454400
18.538200 1.558400
18.568000 1.504300
18.597800 1.485400
18.627500 1.484200
18.657300 1.477200
18.687000 1.504800
18.716800 1.562400
18.746500 1.574800
18.776300 1.561700
18.806000 1.863200
18.835800 2.016600
18.865600 2.073100
18.895300 2.175900
18.925100 2.904000
18.954800 2.741100
18.984600 2.788700
19.014300 2.746200
19.044100 2.760000
19.073800 2.780100
19.103600 2.764300
19.133300 2.716700
19.163100 2.705900
19.192900 2.773100
19.222600 2.970400
19.252400 3.347700
19.282100 3.649600
19.311900 3.885100
19.341600 4.275100
19.371400 4.673800
19.401100 4.940600
19.430900 5.689000
19.460700 5.636400
19.490400 4.869400
19.520200 4.215200
19.549900 3.775700
19.579700 3.323900
19.609400 3.121000
19.639200 3.029100
19.668900 3.109800
19.698700 3.282900
19.728500 3.447100
19.758200 3.860700
19.788000 4.353200
19.817700 4.224900
19.847500 3.984200
19.877200 3.820000
19.907000 3.488400
19.936700 3.063800
19.966500 2.690600
19.996200 2.222600
20.026000 2.320700
20.055800 2.551200
20.085500 3.400300
20.115300 4.119400
20.145000 4.241600
20.174800 4.671400
20.204500 5.172200
20.234300 5.112200
20.264000 4.908000
20.293800 6.066400
20.323600 4.487700
20.353300 4.168600
20.383100 4.255400
20.412800 3.970400
20.442600 3.376600
20.472300 3.367800
20.502100 3.592100
20.531800 3.653000
20.561600 3.784800
20.591400 3.781700
20.621100 5.236700
20.650900 4.595300
20.680600 4.661900
20.710400 4.836300
20.740100 4.947900
20.769900 5.006000
20.799600 5.221700
20.829400 5.475400
20.859100 5.299800
20.888900 4.986000
20.918700 4.668300
20.948400 4.361800
20.978200 4.034500
21.007900 3.725300
21.037700 3.491500
21.067400 3.190000
21.097200 2.998300
21.126900 2.825800
21.156700 2.770700
21.186500 2.728500
21.216200 2.625500
21.246000 2.511500
21.275700 2.427000
21.305500 2.388700
21.335200 2.348600
21.365000 2.316400
21.394700 2.412800
21.424500 2.633100
21.454300 2.960600
21.484000 3.352700
21.513800 4.129300
21.543500 5.283600
21.573300 3.798500
21.603000 3.905900
21.632800 3.967900
21.662500 4.424100
21.692300 4.605400
21.722100 4.299300
21.751800 4.124100
21.781600 4.198000
21.811300 4.095000
21.841100 4.054100
21.870800 3.555000
21.900600 3.111200
21.930300 2.957700
21.960100 3.083000
21.989800 3.065400
22.019600 2.617600
22.049400 2.346200
22.079100 2.473700
22.108900 2.482600
22.138600 2.430200
22.168400 2.373100
22.198100 2.383700
22.227900 2.362200
22.257600 2.352700
22.287400 2.282600
22.317200 2.253700
22.346900 2.162100
22.376700 2.119500
22.406400 2.116800
22.436200 2.137800
22.465900 2.289300
22.495700 2.721600
22.525400 2.932600
22.555200 2.763600
22.585000 2.486100
22.614700 2.256200
22.644500 2.129500
22.674200 2.083200
22.704000 2.122900
22.733700 2.289200
22.763500 2.465300
22.793200 2.520000
22.823000 2.520300
22.852700 2.533700
22.882500 2.291200
22.912300 2.592300
22.942000 3.022000
22.971800 3.661400
23.001500 4.161400
23.031300 4.217900
23.061000 4.295300
23.090800 4.497200
23.120500 4.419600
23.150300 4.396700
23.180100 4.318000
23.209800 4.290500
23.239600 3.526500
23.269300 3.542300
23.299100 3.474100
23.328800 3.365300
23.358600 3.288900
23.388300 3.326500
23.418100 3.604000
23.447900 4.076900
23.477600 4.764100
23.507400 5.261000
23.537100 5.541800
23.566900 5.435600
23.596600 4.765100
23.626400 4.270200
23.656100 3.929000
23.685900 3.756200
23.715700 3.654500
23.745400 3.657900
23.775200 3.588900
23.804900 3.544500
23.834700 3.691000
23.864400 3.855600
23.894200 4.046300
23.923900 3.958200
23.953700 4.033500
23.983400 4.451100
24.013200 4.355900
24.043000 4.459800
24.072700 4.500200
24.102500 4.138400
24.132200 3.872300
24.162000 3.553300
24.191700 3.388400
24.221500 3.211200
24.251200 3.057500
24.281000 2.792300
24.310800 2.381200
24.340500 2.221500
24.370300 2.131100
24.400000 2.067300
24.429800 2.021100
24.459500 2.002800
24.489300 2.019200
24.519000 2.054300
24.548800 2.106800
24.578600 2.211100
24.608300 2.323400
24.638100 2.426000
24.667800 2.511800
24.697600 2.568200
24.727300 2.691400
24.757100 2.784600
24.786800 2.800200
24.816600 2.733400
24.846300 2.697100
24.876100 2.639000
24.905900 2.569400
24.935600 2.517200
24.965400 2.482200
24.995100 2.458400
25.024900 2.405900
25.054600 2.475600
25.084400 2.523000
25.114100 2.558600
25.143900 2.584000
25.173700 2.620400
25.203400 2.670500
25.233200 2.710400
25.262900 2.703600
25.292700 2.714600
25.322400 2.700100
25.352200 2.672300
25.381900 2.723300
25.411700 2.390700
25.441500 2.315100
25.471200 2.259600
25.501000 2.256300
25.530700 2.283100
25.560500 2.260100
25.590200 2.206900
25.620000 2.127400
25.649700 2.056200
25.679500 2.141900
25.709200 2.654900
25.739000 2.149000
25.768800 2.023000
25.798500 1.931800
25.828300 1.875100
25.858000 1.887100
25.887800 1.905300
25.917500 2.158300
25.947300 2.452500
25.977000 2.563300
26.006800 2.638400
26.036600 2.715400
26.066300 2.822600
26.096100 2.971700
26.125800 3.008100
26.155600 2.934400
26.185300 3.094600
26.215100 2.665400
26.244800 2.734700
26.274600 2.367900
26.304400 1.969200
26.334100 1.646600
26.363900 1.545500
26.393600 1.470100
26.423400 1.388100
26.453100 1.397100
26.482900 1.470900
26.512600 1.487100
26.542400 1.619800
26.572200 1.790800
26.601900 2.293600
26.631700 4.141100
26.661400 4.524900
26.691200 4.701500
26.720900 5.016100
26.750700 5.813400
26.780400 7.905400
26.810200 7.227300
26.839900 4.120600
26.869700 3.480400
26.899500 2.984500
26.929200 2.213800
26.959000 1.807400
26.988700 1.544100
27.018500 1.405800
27.048200 1.284600
27.078000 1.198500
27.107700 1.197700
27.137500 1.248700
27.167300 1.420500
27.197000 1.543800
27.226800 1.708500
27.256500 2.115200
27.286300 2.395500
27.316000 2.226900
27.345800 2.101400
27.375500 1.987200
27.405300 1.955900
27.435100 1.998200
27.464800 2.053500
27.494600 2.511600
27.524300 2.728300
27.554100 3.076500
27.583800 3.636400
27.613600 6.003800
27.643300 3.464000
27.673100 3.297000
27.702800 4.354000
27.732600 3.244200
27.762400 2.900200
27.792100 2.643200
27.821900 2.523700
27.851600 2.383900
27.881400 2.325000
27.911100 2.165200
27.940900 1.784900
27.970600 1.610100
28.000400 1.409200
28.030200 1.044500
28.059900 0.687900
28.089700 0.592300
28.119400 0.574000
28.149200 0.514000
28.178900 0.434000
28.208700 0.359800
28.238400 0.306600
28.268200 0.269300
28.298000 0.234800
28.327700 0.207800
28.357500 0.200200
28.387200 0.195500
28.417000 0.160100
28.446700 0.038100
28.476500 0.000000
28.506200 0.000000
28.536000 0.000000
28.565700 0.000000
28.595500 0.000000
28.625300 0.000000
28.655000 0.000000
28.684800 0.000000
28.714500 0.000000
28.744300 0.000000
28.774000 0.000000
28.803800 0.000000
28.833500 0.000000
28.863300 0.000000
28.893100 0.000000
28.922800 0.000000
28.952600 0.000000
28.982300 0.000000
29.012100 0.000000
29.041800 0.000000
29.071600 0.000000
29.101300 0.000000
29.131100 0.000000
29.160900 0.000000
29.190600 0.000000
29.220400 0.000000
29.250100 0.000000
29.279900 0.000000
29.309600 0.000000
29.339400 0.000000
29.369100 0.000000
29.398900 0.000000
29.428700 0.000000
29.458400 0.000000
29.488200 0.000000
29.517900 0.000000
29.547700 0.000000
29.577400 0.000000
29.607200 0.000000
29.636900 0.000000
29.666700 0.000000
29.696400 0.000000
29.726200 0.000000
29.756000 0.000000
29.785700 0.000000
29.815500 0.000000
29.845200 0.000000
29.875000 0.000000
29.904700 0.000000
29.934500 0.000000
29.964200 0.000000
29.994000 0.000000
30.023800 0.000000
30.053500 0.000000
30.083300 0.000000
30.113000 0.000000
30.142800 0.000000
30.172500 0.000000
30.202300 0.000000
30.232000 0.000000
30.261800 0.000000
30.291600 0.000000
30.321300 0.000000
30.351100 0.000000
30.380800 0.000000
30.410600 0.000000
30.440300 0.000000
30.470100 0.000000
30.499800 0.000000
30.529600 0.000000
30.559300 0.000000
30.589100 0.000000
30.618900 0.000000
30.648600 0.000000
30.678400 0.000000
30.708100 0.000000
30.737900 0.000000
30.767600 0.000000
30.797400 0.000000
30.827100 0.000000
30.856900 0.000000
30.886700 0.000000
30.916400 0.000000
30.946200 0.000000
30.975900 0.000000
31.005700 0.000000
31.035400 0.000000
31.065200 0.000000
31.094900 0.000000
31.124700 0.000000
31.154500 0.000000
e
