set title 'mp-555410 - Density of States'
set xlabel 'Energy (eV)'
set ylabel 'DOS (states/eV)'
set grid
set xrange [-10:10]
set yrange [0:149.829]
set xzeroaxis lt -1
set terminal png size 800,600
set output 'mp-555410_dos_gnuplot.png'
plot '-' using 1:2 with lines title 'DOS'
-12.505800 0.000000
-12.490200 0.000000
-12.474500 0.000000
-12.458800 0.000000
-12.443200 0.000000
-12.427500 0.000000
-12.411800 0.000000
-12.396200 0.000000
-12.380500 0.000000
-12.364800 0.000000
-12.349100 0.000000
-12.333500 0.000000
-12.317800 0.000000
-12.302100 0.000000
-12.286500 0.000000
-12.270800 0.000000
-12.255100 0.000000
-12.239500 0.000000
-12.223800 0.000000
-12.208100 0.000000
-12.192400 0.000000
-12.176800 0.000000
-12.161100 0.000000
-12.145400 0.000000
-12.129800 0.000000
-12.114100 0.000000
-12.098400 0.000000
-12.082700 0.000000
-12.067100 0.000000
-12.051400 0.000000
-12.035700 0.000000
-12.020100 0.000000
-12.004400 0.000000
-11.988700 0.000000
-11.973100 0.000000
-11.957400 0.000000
-11.941700 0.000000
-11.926000 0.000000
-11.910400 0.000000
-11.894700 0.000000
-11.879000 0.000000
-11.863400 0.000000
-11.847700 0.000000
-11.832000 0.000000
-11.816300 0.000000
-11.800700 0.000000
-11.785000 0.000000
-11.769300 0.000000
-11.753700 0.000000
-11.738000 0.000000
-11.722300 0.000000
-11.706700 0.000000
-11.691000 0.000000
-11.675300 0.000000
-11.659600 0.000000
-11.644000 0.000000
-11.628300 0.000000
-11.612600 0.000000
-11.597000 0.000000
-11.581300 0.000000
-11.565600 0.000000
-11.550000 0.000000
-11.534300 0.000000
-11.518600 0.000000
-11.502900 0.000000
-11.487300 0.000000
-11.471600 0.000000
-11.455900 0.000000
-11.440300 0.000000
-11.424600 0.000000
-11.408900 0.000000
-11.393200 0.000000
-11.377600 0.000000
-11.361900 0.000000
-11.346200 0.000000
-11.330600 0.000000
-11.314900 0.000000
-11.299200 0.000000
-11.283600 0.000000
-11.267900 0.000000
-11.252200 0.000000
-11.236500 0.000000
-11.220900 0.000000
-11.205200 0.000000
-11.189500 0.000000
-11.173900 0.000000
-11.158200 0.000000
-11.142500 0.000000
-11.126900 0.000000
-11.111200 0.000000
-11.095500 0.000000
-11.079800 0.000200
-11.064200 0.026100
-11.048500 0.083900
-11.032800 0.156800
-11.017200 0.244600
-11.001500 0.355800
-10.985800 0.481300
-10.970100 0.606800
-10.954500 0.732300
-10.938800 0.857700
-10.923100 0.983000
-10.907500 1.143900
-10.891800 1.317200
-10.876100 1.497500
-10.860500 1.684800
-10.844800 1.879200
-10.829100 1.917400
-10.813400 1.953500
-10.797800 2.005600
-10.782100 2.086500
-10.766400 2.158400
-10.750800 2.217300
-10.735100 2.336300
-10.719400 2.473100
-10.703700 2.566800
-10.688100 2.664900
-10.672400 2.767400
-10.656700 2.876700
-10.641100 2.995500
-10.625400 3.123600
-10.609700 3.259000
-10.594100 3.401000
-10.578400 3.549800
-10.562700 3.705200
-10.547000 3.860500
-10.531400 3.896300
-10.515700 3.858500
-10.500000 4.017500
-10.484400 4.187900
-10.468700 4.369600
-10.453000 4.562700
-10.437400 4.782400
-10.421700 5.057900
-10.406000 5.350500
-10.390300 5.711200
-10.374700 6.091000
-10.359000 6.467300
-10.343300 6.839800
-10.327700 7.260700
-10.312000 8.247700
-10.296300 9.625400
-10.280600 10.181200
-10.265000 10.305500
-10.249300 10.490100
-10.233600 10.784600
-10.218000 11.266800
-10.202300 12.015600
-10.186600 12.986200
-10.171000 13.766300
-10.155300 14.069800
-10.139600 14.088100
-10.123900 13.833500
-10.108300 13.503300
-10.092600 19.574000
-10.076900 12.150600
-10.061300 12.581000
-10.045600 15.256500
-10.029900 16.683200
-10.014200 16.333100
-9.998600 16.439900
-9.982900 13.867200
-9.967200 11.916400
-9.951600 12.031500
-9.935900 15.588900
-9.920200 48.614600
-9.904600 0.532600
-9.888900 0.000000
-9.873200 0.000000
-9.857500 0.000000
-9.841900 0.000000
-9.826200 0.000000
-9.810500 0.000000
-9.794900 0.000000
-9.779200 0.000000
-9.763500 0.000000
-9.747900 0.000000
-9.732200 0.000000
-9.716500 0.000000
-9.700800 0.000000
-9.685200 0.000000
-9.669500 0.000000
-9.653800 0.000000
-9.638200 0.000000
-9.622500 0.000000
-9.606800 0.000000
-9.591100 0.000000
-9.575500 0.000000
-9.559800 0.000000
-9.544100 0.000000
-9.528500 0.000000
-9.512800 0.000000
-9.497100 0.000000
-9.481500 0.000000
-9.465800 0.000000
-9.450100 0.000000
-9.434400 0.000000
-9.418800 0.000000
-9.403100 0.000000
-9.387400 0.000000
-9.371800 0.000000
-9.356100 0.000000
-9.340400 0.000000
-9.324800 0.000000
-9.309100 0.000000
-9.293400 0.000000
-9.277700 0.000000
-9.262100 0.000000
-9.246400 0.000000
-9.230700 0.000000
-9.215100 0.000000
-9.199400 0.000000
-9.183700 0.000000
-9.168000 0.000000
-9.152400 0.000000
-9.136700 0.000000
-9.121000 0.000000
-9.105400 0.000000
-9.089700 0.000000
-9.074000 0.000000
-9.058400 0.000000
-9.042700 0.000000
-9.027000 0.000000
-9.011300 0.000000
-8.995700 0.000000
-8.980000 0.000000
-8.964300 0.000000
-8.948700 0.000000
-8.933000 0.000000
-8.917300 0.000000
-8.901600 0.000000
-8.886000 0.000000
-8.870300 0.000000
-8.854600 0.000000
-8.839000 0.000000
-8.823300 0.000000
-8.807600 0.000000
-8.792000 0.000000
-8.776300 0.000000
-8.760600 0.000000
-8.744900 0.000000
-8.729300 0.000000
-8.713600 0.000000
-8.697900 0.000000
-8.682300 0.000000
-8.666600 0.000000
-8.650900 0.000000
-8.635300 0.000000
-8.619600 0.000000
-8.603900 0.000000
-8.588200 0.000000
-8.572600 0.000000
-8.556900 0.000000
-8.541200 0.000000
-8.525600 0.000000
-8.509900 0.000000
-8.494200 0.000000
-8.478500 0.000000
-8.462900 0.000000
-8.447200 0.000000
-8.431500 0.000000
-8.415900 0.000000
-8.400200 0.000000
-8.384500 0.000000
-8.368900 0.000000
-8.353200 0.000000
-8.337500 0.000000
-8.321800 0.000000
-8.306200 0.000000
-8.290500 0.000000
-8.274800 0.000000
-8.259200 0.000000
-8.243500 0.000000
-8.227800 0.000000
-8.212100 0.000000
-8.196500 0.000000
-8.180800 0.000000
-8.165100 0.000000
-8.149500 0.000000
-8.133800 0.000000
-8.118100 0.000000
-8.102500 0.000000
-8.086800 0.000000
-8.071100 0.000000
-8.055400 0.000000
-8.039800 0.000000
-8.024100 0.000000
-8.008400 0.000000
-7.992800 0.000000
-7.977100 0.000000
-7.961400 0.000000
-7.945800 0.000000
-7.930100 0.000000
-7.914400 0.000000
-7.898700 0.000000
-7.883100 0.000000
-7.867400 0.000000
-7.851700 0.000000
-7.836100 0.000000
-7.820400 0.000000
-7.804700 0.000000
-7.789000 0.000000
-7.773400 0.000000
-7.757700 0.000000
-7.742000 0.000000
-7.726400 0.000000
-7.710700 0.000000
-7.695000 0.000000
-7.679400 0.000000
-7.663700 0.000000
-7.648000 0.000000
-7.632300 0.000000
-7.616700 0.000000
-7.601000 0.000000
-7.585300 0.000000
-7.569700 0.000000
-7.554000 0.000000
-7.538300 0.000000
-7.522700 0.000000
-7.507000 0.000000
-7.491300 0.000000
-7.475600 0.000000
-7.460000 0.000000
-7.444300 0.000000
-7.428600 0.000000
-7.413000 0.000000
-7.397300 0.000000
-7.381600 0.000000
-7.365900 0.000000
-7.350300 0.000000
-7.334600 0.000000
-7.318900 0.000000
-7.303300 0.000000
-7.287600 0.000000
-7.271900 0.000000
-7.256300 0.000000
-7.240600 0.000000
-7.224900 0.000000
-7.209200 0.000000
-7.193600 0.000000
-7.177900 0.000000
-7.162200 0.000000
-7.146600 0.000000
-7.130900 0.000000
-7.115200 0.000000
-7.099500 0.000000
-7.083900 0.000000
-7.068200 0.000000
-7.052500 0.000000
-7.036900 0.000000
-7.021200 0.000000
-7.005500 0.000000
-6.989900 0.000000
-6.974200 0.000000
-6.958500 0.000000
-6.942800 0.000000
-6.927200 0.000000
-6.911500 0.000000
-6.895800 0.000000
-6.880200 0.000000
-6.864500 0.000000
-6.848800 0.000000
-6.833200 0.000000
-6.817500 0.000000
-6.801800 0.000000
-6.786100 0.000000
-6.770500 0.000000
-6.754800 0.000000
-6.739100 0.000000
-6.723500 0.000000
-6.707800 0.000000
-6.692100 0.000000
-6.676400 0.000000
-6.660800 0.000000
-6.645100 0.000000
-6.629400 0.000000
-6.613800 0.000000
-6.598100 0.000000
-6.582400 0.000000
-6.566800 0.000000
-6.551100 0.000000
-6.535400 0.000000
-6.519700 0.000000
-6.504100 0.000000
-6.488400 0.000000
-6.472700 0.000000
-6.457100 0.000000
-6.441400 0.000000
-6.425700 0.000000
-6.410100 0.000000
-6.394400 0.000000
-6.378700 0.000000
-6.363000 0.000000
-6.347400 0.000000
-6.331700 0.000000
-6.316000 0.000000
-6.300400 0.000000
-6.284700 0.000000
-6.269000 0.000000
-6.253300 0.000000
-6.237700 0.000000
-6.222000 0.000000
-6.206300 0.000000
-6.190700 0.000000
-6.175000 0.000000
-6.159300 0.000000
-6.143700 0.000000
-6.128000 0.000000
-6.112300 0.000000
-6.096600 0.000000
-6.081000 0.000000
-6.065300 0.000000
-6.049600 0.000000
-6.034000 0.000000
-6.018300 0.000000
-6.002600 0.000000
-5.986900 0.000000
-5.971300 0.000000
-5.955600 0.000000
-5.939900 0.000000
-5.924300 0.000000
-5.908600 0.000000
-5.892900 0.000000
-5.877300 0.000000
-5.861600 0.000000
-5.845900 0.000000
-5.830200 0.000000
-5.814600 0.000000
-5.798900 0.000000
-5.783200 0.000000
-5.767600 0.000000
-5.751900 0.000000
-5.736200 0.000000
-5.720600 0.000000
-5.704900 0.000000
-5.689200 0.000000
-5.673500 0.000000
-5.657900 0.000000
-5.642200 0.000000
-5.626500 0.000000
-5.610900 0.000000
-5.595200 0.000000
-5.579500 0.000000
-5.563800 0.000000
-5.548200 0.000000
-5.532500 0.000000
-5.516800 0.000000
-5.501200 0.000000
-5.485500 0.000000
-5.469800 0.000000
-5.454200 0.000000
-5.438500 0.000000
-5.422800 0.000000
-5.407100 0.000000
-5.391500 0.000000
-5.375800 0.000000
-5.360100 0.000000
-5.344500 0.000000
-5.328800 0.000000
-5.313100 0.000000
-5.297400 0.000000
-5.281800 0.000000
-5.266100 0.000000
-5.250400 0.000000
-5.234800 0.000000
-5.219100 0.000000
-5.203400 0.000000
-5.187800 0.000000
-5.172100 0.000000
-5.156400 0.000000
-5.140700 0.000000
-5.125100 0.000000
-5.109400 0.000000
-5.093700 0.000000
-5.078100 0.000000
-5.062400 0.000000
-5.046700 0.000000
-5.031100 0.000000
-5.015400 0.000000
-4.999700 0.000000
-4.984000 0.000000
-4.968400 0.000000
-4.952700 0.000000
-4.937000 0.000000
-4.921400 0.000000
-4.905700 0.000000
-4.890000 0.000000
-4.874300 0.000000
-4.858700 0.000000
-4.843000 0.000000
-4.827300 0.000000
-4.811700 0.000000
-4.796000 0.000000
-4.780300 0.000000
-4.764700 0.000000
-4.749000 0.000000
-4.733300 0.000000
-4.717600 0.000000
-4.702000 0.000000
-4.686300 0.000000
-4.670600 0.000000
-4.655000 0.000000
-4.639300 0.000000
-4.623600 0.000000
-4.608000 0.000000
-4.592300 0.000000
-4.576600 0.000000
-4.560900 0.000000
-4.545300 0.000000
-4.529600 0.000000
-4.513900 0.000000
-4.498300 0.000000
-4.482600 0.000000
-4.466900 0.000000
-4.451200 0.000000
-4.435600 0.000000
-4.419900 0.000000
-4.404200 0.000000
-4.388600 0.013200
-4.372900 25.291700
-4.357200 55.776400
-4.341600 44.080900
-4.325900 61.857100
-4.310200 111.837600
-4.294500 74.419200
-4.278900 97.047100
-4.263200 90.954600
-4.247500 112.218900
-4.231900 88.458900
-4.216200 67.554500
-4.200500 72.394800
-4.184800 58.197000
-4.169200 57.090400
-4.153500 47.177700
-4.137800 52.727600
-4.122200 54.476200
-4.106500 42.926800
-4.090800 41.392700
-4.075200 50.346100
-4.059500 42.861300
-4.043800 42.522700
-4.028100 24.738100
-4.012500 15.691300
-3.996800 17.817200
-3.981100 12.186400
-3.965500 38.457700
-3.949800 37.460100
-3.934100 78.598500
-3.918500 99.808600
-3.902800 136.207900
-3.887100 86.575900
-3.871400 109.034300
-3.855800 89.276500
-3.840100 46.692300
-3.824400 27.931000
-3.808800 27.216100
-3.793100 24.973000
-3.777400 23.177600
-3.761700 22.296000
-3.746100 21.486400
-3.730400 20.977900
-3.714700 39.068400
-3.699100 18.242200
-3.683400 22.012000
-3.667700 13.870200
-3.652100 13.713300
-3.636400 17.736300
-3.620700 17.117500
-3.605000 25.580700
-3.589400 16.516000
-3.573700 5.022500
-3.558000 0.000000
-3.542400 0.000000
-3.526700 0.000000
-3.511000 0.000000
-3.495300 0.000000
-3.479700 0.000000
-3.464000 0.000000
-3.448300 0.000000
-3.432700 0.000000
-3.417000 0.000000
-3.401300 0.000000
-3.385700 0.000000
-3.370000 0.000000
-3.354300 0.000000
-3.338600 0.000000
-3.323000 0.000000
-3.307300 0.000000
-3.291600 0.000000
-3.276000 0.000000
-3.260300 0.000000
-3.244600 0.000000
-3.229000 0.000200
-3.213300 0.002200
-3.197600 0.006700
-3.181900 0.013600
-3.166300 0.022900
-3.150600 0.034600
-3.134900 0.048700
-3.119300 0.065200
-3.103600 0.084200
-3.087900 0.105500
-3.072200 0.129200
-3.056600 0.155400
-3.040900 0.184000
-3.025200 0.214900
-3.009600 0.247900
-2.993900 0.281900
-2.978200 0.316800
-2.962600 0.352700
-2.946900 0.389600
-2.931200 0.427500
-2.915500 0.466400
-2.899900 0.506300
-2.884200 0.547100
-2.868500 0.609600
-2.852900 5.367500
-2.837200 4.586400
-2.821500 7.041900
-2.805900 9.128700
-2.790200 7.577700
-2.774500 7.293800
-2.758800 6.724700
-2.743200 6.024700
-2.727500 5.848800
-2.711800 5.641900
-2.696200 5.573400
-2.680500 6.647900
-2.664800 7.838100
-2.649100 10.015100
-2.633500 10.444300
-2.617800 9.035500
-2.602100 7.328600
-2.586500 6.580500
-2.570800 5.969300
-2.555100 5.501400
-2.539500 7.468900
-2.523800 7.315900
-2.508100 6.421300
-2.492400 5.159200
-2.476800 5.260300
-2.461100 5.423300
-2.445400 5.641500
-2.429800 5.793900
-2.414100 5.835600
-2.398400 5.709700
-2.382700 5.416000
-2.367100 5.021900
-2.351400 5.018400
-2.335700 5.137400
-2.320100 5.366300
-2.304400 5.405000
-2.288700 5.200200
-2.273100 4.939000
-2.257400 4.690500
-2.241700 4.317400
-2.226000 4.166400
-2.210400 4.135100
-2.194700 4.100000
-2.179000 4.061400
-2.163400 4.019000
-2.147700 3.973000
-2.132000 4.280900
-2.116400 4.601900
-2.100700 4.441900
-2.085000 4.099500
-2.069300 4.074600
-2.053700 4.052900
-2.038000 4.034400
-2.022300 3.988100
-2.006700 3.919400
-1.991000 3.850300
-1.975300 3.780700
-1.959600 3.710000
-1.944000 3.638700
-1.928300 3.566900
-1.912600 3.494300
-1.897000 3.421200
-1.881300 3.346300
-1.865600 3.263500
-1.850000 3.177400
-1.834300 3.091000
-1.818600 3.004500
-1.802900 2.917900
-1.787300 2.830600
-1.771600 2.742400
-1.755900 2.467200
-1.740300 2.417500
-1.724600 2.371000
-1.708900 2.327500
-1.693300 2.286900
-1.677600 2.247800
-1.661900 2.209200
-1.646200 2.171100
-1.630600 2.135200
-1.614900 2.101100
-1.599200 2.066400
-1.583600 2.031300
-1.567900 1.995500
-1.552200 1.959300
-1.536500 1.922500
-1.520900 1.885200
-1.505200 1.847300
-1.489500 1.808600
-1.473900 1.769100
-1.458200 1.728700
-1.442500 1.688100
-1.426900 1.652100
-1.411200 1.618200
-1.395500 1.586600
-1.379800 1.557400
-1.364200 1.530400
-1.348500 1.505800
-1.332800 1.483500
-1.317200 1.463600
-1.301500 1.446700
-1.285800 1.433200
-1.270100 1.422800
-1.254500 1.414200
-1.238800 1.406600
-1.223100 1.378500
-1.207500 1.351400
-1.191800 1.952900
-1.176100 4.015300
-1.160500 5.667800
-1.144800 6.910600
-1.129100 7.507900
-1.113400 6.706900
-1.097800 6.166000
-1.082100 5.679200
-1.066400 5.175500
-1.050800 4.745000
-1.035100 4.445100
-1.019400 4.215100
-1.003800 4.050600
-0.988100 3.917100
-0.972400 3.804900
-0.956700 3.703000
-0.941100 3.606500
-0.925400 3.419000
-0.909700 3.234100
-0.894100 3.051600
-0.878400 2.871500
-0.862700 2.701400
-0.847000 2.549700
-0.831400 2.416600
-0.815700 4.447400
-0.800000 4.121700
-0.784400 3.877000
-0.768700 3.712700
-0.753000 3.628300
-0.737400 3.601400
-0.721700 3.620400
-0.706000 3.673000
-0.690300 3.726500
-0.674700 3.800400
-0.659000 3.901400
-0.643300 4.029500
-0.627700 4.184800
-0.612000 4.367200
-0.596300 4.576700
-0.580600 4.813300
-0.565000 5.077100
-0.549300 5.368000
-0.533600 5.649900
-0.518000 6.031300
-0.502300 6.022400
-0.486600 5.505000
-0.471000 5.543300
-0.455300 5.562600
-0.439600 5.576200
-0.423900 5.585600
-0.408300 5.590800
-0.392600 5.592200
-0.376900 5.583200
-0.361300 5.559200
-0.345600 8.446500
-0.329900 6.880800
-0.314300 6.893700
-0.298600 6.905900
-0.282900 6.908400
-0.267200 6.890000
-0.251600 6.858400
-0.235900 6.822600
-0.220200 6.781500
-0.204600 6.743400
-0.188900 6.704700
-0.173200 6.663100
-0.157500 6.619400
-0.141900 6.559200
-0.126200 6.505900
-0.110500 6.562100
-0.094900 7.289300
-0.079200 7.728900
-0.063500 7.877600
-0.047900 7.825100
-0.032200 7.790600
-0.016500 7.707600
-0.000800 7.568100
0.014800 7.469500
0.030500 7.436900
0.046200 7.415100
0.061800 7.404000
0.077500 7.403600
0.093200 7.309800
0.108800 7.469000
0.124500 7.639200
0.140200 7.805000
0.155900 7.961900
0.171500 8.106600
0.187200 8.238400
0.202900 8.336400
0.218500 8.386800
0.234200 8.388100
0.249900 8.348900
0.265600 8.208500
0.281200 8.060200
0.296900 7.945600
0.312600 7.723500
0.328200 7.684500
0.343900 7.643500
0.359600 7.596000
0.375200 7.537700
0.390900 7.468900
0.406600 7.389600
0.422300 7.051100
0.437900 7.022800
0.453600 8.837600
0.469300 9.016900
0.484900 9.239600
0.500600 9.333800
0.516300 9.129100
0.532000 8.834700
0.547600 8.633500
0.563300 8.523600
0.579000 8.485300
0.594600 8.484100
0.610300 8.547300
0.626000 8.656500
0.641600 8.683900
0.657300 8.685500
0.673000 8.669000
0.688700 8.634600
0.704300 8.586500
0.720000 8.530800
0.735700 8.460600
0.751300 8.371500
0.767000 8.330000
0.782700 8.333000
0.798300 8.329300
0.814000 8.204700
0.829700 8.247600
0.845400 8.272700
0.861000 8.216100
0.876700 8.067700
0.892400 7.597500
0.908000 7.373500
0.923700 7.283000
0.939400 7.281200
0.955100 7.277200
0.970700 7.269300
0.986400 7.091400
1.002100 6.881400
1.017700 6.675300
1.033400 6.472900
1.049100 6.269200
1.064700 6.060800
1.080400 5.849700
1.096100 5.637100
1.111800 5.433900
1.127400 5.216600
1.143100 4.931300
1.158800 4.795900
1.174400 4.673400
1.190100 4.554800
1.205800 4.440000
1.221500 4.329200
1.237100 4.234200
1.252800 4.138000
1.268500 4.044600
1.284100 3.954000
1.299800 3.859500
1.315500 3.762100
1.331100 3.661300
1.346800 3.557000
1.362500 3.448900
1.378200 3.337100
1.393800 3.223000
1.409500 3.110100
1.425200 2.998700
1.440800 2.891600
1.456500 2.803500
1.472200 2.731600
1.487800 2.664800
1.503500 2.603000
1.519200 2.554800
1.534900 2.568700
1.550500 2.574600
1.566200 2.576000
1.581900 2.511200
1.597500 2.401600
1.613200 2.245300
1.628900 2.076300
1.644600 1.908600
1.660200 1.745300
1.675900 1.587100
1.691600 1.433900
1.707200 1.285800
1.722900 1.147800
1.738600 1.017000
1.754200 0.887100
1.769900 0.758100
1.785600 0.629900
1.801300 0.502600
1.816900 0.376300
1.832600 0.279300
1.848300 0.195000
1.863900 0.121800
1.879600 0.059500
1.895300 0.013100
1.910900 0.000000
1.926600 0.000000
1.942300 0.000000
1.958000 0.000000
1.973600 0.000000
1.989300 0.000000
2.005000 0.000000
2.020600 0.000000
2.036300 0.000000
2.052000 0.000000
2.067700 0.000000
2.083300 0.000000
2.099000 0.000000
2.114700 0.000000
2.130300 0.000000
2.146000 0.000000
2.161700 0.000000
2.177300 0.000000
2.193000 0.000000
2.208700 0.000000
2.224400 0.000000
2.240000 0.000000
2.255700 0.000000
2.271400 0.000000
2.287000 0.000000
2.302700 0.000000
2.318400 0.000000
2.334100 0.000000
2.349700 0.000000
2.365400 0.000000
2.381100 0.000000
2.396700 0.000000
2.412400 0.000000
2.428100 0.000000
2.443700 0.000000
2.459400 0.000000
2.475100 0.000000
2.490800 0.000000
2.506400 0.000000
2.522100 0.000000
2.537800 0.000000
2.553400 0.000000
2.569100 0.000000
2.584800 0.000000
2.600400 0.000000
2.616100 0.000000
2.631800 0.000000
2.647500 0.000000
2.663100 0.000000
2.678800 0.000000
2.694500 0.000000
2.710100 0.000000
2.725800 0.000000
2.741500 0.000000
2.757200 0.000000
2.772800 0.000000
2.788500 0.000000
2.804200 0.000000
2.819800 0.000000
2.835500 0.000000
2.851200 0.000000
2.866800 0.000000
2.882500 0.000000
2.898200 0.000000
2.913900 0.000000
2.929500 0.000000
2.945200 0.000000
2.960900 0.000000
2.976500 0.000000
2.992200 0.000000
3.007900 0.000000
3.023500 0.000000
3.039200 0.000000
3.054900 0.000000
3.070600 0.000000
3.086200 0.000000
3.101900 0.000000
3.117600 0.000000
3.133200 0.000000
3.148900 0.000000
3.164600 0.000000
3.180300 0.000000
3.195900 0.000000
3.211600 0.000000
3.227300 0.000000
3.242900 0.000000
3.258600 0.000000
3.274300 0.000000
3.289900 0.000000
3.305600 0.000000
3.321300 0.000000
3.337000 0.000000
3.352600 0.000000
3.368300 0.000000
3.384000 0.000000
3.399600 0.000000
3.415300 0.000000
3.431000 0.000000
3.446700 0.000000
3.462300 0.000000
3.478000 0.000000
3.493700 0.000000
3.509300 0.000000
3.525000 0.000000
3.540700 0.000000
3.556300 0.000000
3.572000 0.000000
3.587700 0.000000
3.603400 0.000000
3.619000 0.000000
3.634700 0.000000
3.650400 0.000000
3.666000 0.000000
3.681700 0.000000
3.697400 0.000000
3.713000 0.000000
3.728700 0.000000
3.744400 0.000000
3.760100 0.000000
3.775700 0.000000
3.791400 0.000000
3.807100 0.000000
3.822700 0.000000
3.838400 0.000000
3.854100 0.000000
3.869800 0.000000
3.885400 0.000000
3.901100 0.000000
3.916800 0.000000
3.932400 0.000000
3.948100 0.000000
3.963800 0.000000
3.979400 0.000000
3.995100 0.000100
4.010800 0.000400
4.026500 0.000800
4.042100 0.001400
4.057800 0.002000
4.073500 0.002900
4.089100 0.003800
4.104800 0.004900
4.120500 0.006200
4.136200 0.007600
4.151800 0.009100
4.167500 0.010700
4.183200 0.012500
4.198800 0.014400
4.214500 0.016400
4.230200 0.018500
4.245800 0.020600
4.261500 0.022900
4.277200 0.025200
4.292900 0.027700
4.308500 0.030200
4.324200 0.032800
4.339900 0.035500
4.355500 0.038300
4.371200 0.041200
4.386900 0.044200
4.402500 0.047200
4.418200 0.050400
4.433900 0.053600
4.449600 0.056900
4.465200 0.060300
4.480900 0.063900
4.496600 0.067400
4.512200 0.071100
4.527900 0.074900
4.543600 0.078800
4.559300 0.082700
4.574900 0.086800
4.590600 0.090900
4.606300 0.095400
4.621900 0.101200
4.637600 0.107000
4.653300 0.112900
4.668900 0.118700
4.684600 0.124600
4.700300 0.130500
4.716000 0.136500
4.731600 0.142400
4.747300 0.148400
4.763000 0.154300
4.778600 0.160300
4.794300 0.166400
4.810000 0.172400
4.825600 0.178400
4.841300 0.184500
4.857000 0.190600
4.872700 0.196700
4.888300 0.202800
4.904000 0.208900
4.919700 0.215000
4.935300 0.221200
4.951000 0.227400
4.966700 0.233600
4.982400 0.239800
4.998000 0.246000
5.013700 0.252300
5.029400 0.258500
5.045000 0.267600
5.060700 0.278300
5.076400 0.292300
5.092000 0.307400
5.107700 0.322900
5.123400 0.339600
5.139100 0.356600
5.154700 0.373800
5.170400 0.391300
5.186100 0.409100
5.201700 0.427100
5.217400 0.445400
5.233100 0.464000
5.248800 0.482900
5.264400 0.502000
5.280100 0.521400
5.295800 0.542300
5.311400 0.566200
5.327100 0.622800
5.342800 0.744500
5.358400 0.932400
5.374100 1.184500
5.389800 1.492400
5.405500 1.792000
5.421100 1.999500
5.436800 2.179900
5.452500 2.339200
5.468100 2.432800
5.483800 2.501500
5.499500 2.562900
5.515100 2.632800
5.530800 2.712900
5.546500 2.786800
5.562200 2.852900
5.577800 2.906200
5.593500 2.947000
5.609200 2.985600
5.624800 3.025300
5.640500 3.220600
5.656200 3.412000
5.671900 3.566200
5.687500 3.664700
5.703200 3.735100
5.718900 3.805000
5.734500 3.874400
5.750200 3.943400
5.765900 4.011900
5.781500 4.079900
5.797200 4.147500
5.812900 4.214600
5.828600 4.295900
5.844200 4.371400
5.859900 4.440800
5.875600 4.504100
5.891200 4.563200
5.906900 4.662900
5.922600 4.822000
5.938300 5.023200
5.953900 5.183800
5.969600 5.421800
5.985300 5.605900
6.000900 5.735200
6.016600 5.840100
6.032300 5.933800
6.047900 6.444700
6.063600 6.917600
6.079300 7.322600
6.095000 7.705500
6.110600 8.124400
6.126300 8.458600
6.142000 8.717300
6.157600 9.048400
6.173300 9.009100
6.189000 8.551000
6.204600 7.756300
6.220300 7.019000
6.236000 6.608000
6.251700 6.548000
6.267300 6.659500
6.283000 6.793700
6.298700 6.888300
6.314300 6.943200
6.330000 6.958600
6.345700 6.941900
6.361400 7.017300
6.377000 7.075700
6.392700 7.063200
6.408400 6.977800
6.424000 6.815400
6.439700 6.533300
6.455400 5.455800
6.471000 4.973400
6.486700 4.553900
6.502400 4.208700
6.518100 3.937600
6.533700 3.740700
6.549400 3.620500
6.565100 3.546300
6.580700 3.484000
6.596400 3.433600
6.612100 3.395100
6.627700 3.475200
6.643400 3.627200
6.659100 4.051500
6.674800 4.303400
6.690400 4.551500
6.706100 4.765700
6.721800 4.925100
6.737400 5.029800
6.753100 5.079800
6.768800 5.050200
6.784500 4.947400
6.800100 4.782800
6.815800 4.476800
6.831500 3.998300
6.847100 3.421800
6.862800 3.231600
6.878500 3.078100
6.894100 2.963200
6.909800 2.886700
6.925500 2.848700
6.941200 2.849100
6.956800 2.903900
6.972500 2.977300
6.988200 3.058700
7.003800 3.148200
7.019500 3.245700
7.035200 3.351300
7.050900 3.464900
7.066500 3.586600
7.082200 3.716300
7.097900 3.854000
7.113500 3.999800
7.129200 4.162000
7.144900 4.957100
7.160500 4.224500
7.176200 4.276000
7.191900 4.411600
7.207600 4.263200
7.223200 3.984000
7.238900 3.778800
7.254600 3.569200
7.270200 3.372600
7.285900 3.233900
7.301600 3.198000
7.317200 3.422500
7.332900 3.908000
7.348600 4.626800
7.364300 5.538500
7.379900 5.952100
7.395600 6.140100
7.411300 6.145200
7.426900 5.801800
7.442600 5.251500
7.458300 4.761900
7.474000 4.332900
7.489600 5.941400
7.505300 5.180300
7.521000 5.369900
7.536600 5.766600
7.552300 6.410800
7.568000 8.121800
7.583600 8.560400
7.599300 8.307300
7.615000 7.990000
7.630700 7.613100
7.646300 7.176700
7.662000 6.681000
7.677700 6.126000
7.693300 5.804800
7.709000 5.963700
7.724700 4.637300
7.740300 3.208400
7.756000 2.310500
7.771700 1.826800
7.787400 1.601800
7.803000 1.581400
7.818700 1.513200
7.834400 1.777200
7.850000 2.195900
7.865700 2.786100
7.881400 3.548000
7.897100 4.481400
7.912700 7.515100
7.928400 9.079600
7.944100 10.226200
7.959700 10.954900
7.975400 10.662800
7.991100 10.252000
8.006700 9.772000
8.022400 8.919500
8.038100 8.028000
8.053800 7.313100
8.069400 6.949400
8.085100 6.944600
8.100800 5.899900
8.116400 3.612100
8.132100 2.033200
8.147800 2.064800
8.163500 2.184000
8.179100 2.347000
8.194800 2.514800
8.210500 2.684200
8.226100 2.855100
8.241800 3.027700
8.257500 3.201900
8.273100 3.379700
8.288800 3.575400
8.304500 3.777400
8.320200 3.950800
8.335800 4.094700
8.351500 4.239700
8.367200 4.408700
8.382800 4.571500
8.398500 4.714700
8.414200 4.844200
8.429800 4.957500
8.445500 5.049900
8.461200 5.121200
8.476900 5.126200
8.492500 5.020200
8.508200 4.997000
8.523900 5.136900
8.539500 5.154800
8.555200 5.003200
8.570900 4.800600
8.586600 4.543200
8.602200 4.230900
8.617900 3.863700
8.633600 3.441700
8.649200 2.972900
8.664900 2.698400
8.680600 2.365700
8.696200 2.110900
8.711900 1.939600
8.727600 1.852000
8.743300 1.971800
8.758900 2.227000
8.774600 2.529600
8.790300 2.881100
8.805900 3.378600
8.821600 4.370200
8.837300 5.516300
8.853000 7.665500
8.868600 10.166100
8.884300 12.929900
8.900000 16.749600
8.915600 16.576400
8.931300 14.392300
8.947000 10.447700
8.962600 7.310200
8.978300 6.556700
8.994000 6.036300
9.009700 5.670800
9.025300 5.309600
9.041000 4.929500
9.056700 4.569700
9.072300 4.229900
9.088000 3.910300
9.103700 3.613600
9.119300 3.436100
9.135000 3.563500
9.150700 3.759000
9.166400 4.008700
9.182000 4.302300
9.197700 4.639800
9.213400 5.021200
9.229000 5.506900
9.244700 6.742700
9.260400 7.427200
9.276100 7.497100
9.291700 7.255200
9.307400 6.791500
9.323100 6.451000
9.338700 6.227200
9.354400 6.125200
9.370100 6.097200
9.385700 6.119300
9.401400 6.233500
9.417100 6.586200
9.432800 6.806500
9.448400 6.890800
9.464100 6.839300
9.479800 6.651900
9.495400 6.328600
9.511100 6.588000
9.526800 5.929000
9.542400 5.689200
9.558100 5.507500
9.573800 5.395200
9.589500 5.334300
9.605100 5.296400
9.620800 5.280900
9.636500 5.287900
9.652100 5.314900
9.667800 5.454400
9.683500 5.482600
9.699200 5.523000
9.714800 5.622500
9.730500 5.757800
9.746200 5.896700
9.761800 6.024600
9.777500 6.059500
9.793200 6.076600
9.808800 6.072100
9.824500 6.046400
9.840200 6.000400
9.855900 5.937600
9.871500 5.904000
9.887200 5.867200
9.902900 5.797200
9.918500 5.732200
9.934200 5.782100
9.949900 5.858500
9.965600 5.925600
9.981200 5.968100
9.996900 5.968900
10.012600 5.928000
10.028200 5.845400
10.043900 6.667300
10.059600 7.099900
10.075200 6.903400
10.090900 5.672100
10.106600 4.951400
10.122300 4.755700
10.137900 4.646200
10.153600 4.545700
10.169300 4.503700
10.184900 4.464300
10.200600 4.430700
10.216300 4.405700
10.231900 4.389300
10.247600 4.383500
10.263300 4.399500
10.279000 4.450100
10.294600 4.573900
10.310300 4.625300
10.326000 4.697500
10.341600 4.789800
10.357300 5.045900
10.373000 5.547000
10.388700 6.144600
10.404300 6.979700
10.420000 8.958300
10.435700 9.268700
10.451300 9.041200
10.467000 8.275500
10.482700 5.899800
10.498300 4.451100
10.514000 3.995900
10.529700 3.833200
10.545400 3.718300
10.561000 3.677200
10.576700 3.649000
10.592400 3.623500
10.608000 3.600600
10.623700 3.580300
10.639400 3.562600
10.655100 3.550400
10.670700 3.556400
10.686400 3.627700
10.702100 3.711000
10.717700 3.802300
10.733400 3.901400
10.749100 4.008500
10.764700 4.123200
10.780400 4.253400
10.796100 4.387900
10.811800 4.480200
10.827400 4.522000
10.843100 4.511300
10.858800 4.447000
10.874400 4.329000
10.890100 4.157100
10.905800 3.929900
10.921400 3.653300
10.937100 3.332300
10.952800 3.096800
10.968500 3.026800
10.984100 2.971900
10.999800 2.879600
11.015500 2.810100
11.031100 2.761400
11.046800 2.733400
11.062500 2.732200
11.078200 2.757100
11.093800 2.800700
11.109500 2.860600
11.125200 2.924700
11.140800 2.997000
11.156500 3.065000
11.172200 3.128900
11.187800 3.188500
11.203500 3.244000
11.219200 3.295200
11.234900 3.342200
11.250500 3.563300
11.266200 3.788000
11.281900 3.945900
11.297500 4.036900
11.313200 4.061100
11.328900 4.018500
11.344500 3.867900
11.360200 3.727300
11.375900 3.597600
11.391600 3.478700
11.407200 3.371600
11.422900 3.286600
11.438600 3.226600
11.454200 3.192100
11.469900 3.183900
11.485600 3.182400
11.501300 3.182800
11.516900 3.186900
11.532600 3.194500
11.548300 3.205600
11.563900 3.220100
11.579600 3.238100
11.595300 3.264500
11.610900 3.299100
11.626600 3.334500
11.642300 3.353600
11.658000 3.562100
11.673600 4.138300
11.689300 4.959600
11.705000 6.142500
11.720600 5.424100
11.736300 3.886500
11.752000 3.774900
11.767700 3.642200
11.783300 3.488400
11.799000 3.313500
11.814700 3.117500
11.830300 2.914600
11.846000 2.863400
11.861700 3.030800
11.877300 3.175700
11.893000 3.281100
11.908700 3.375200
11.924400 3.459000
11.940000 3.532700
11.955700 3.596200
11.971400 3.645000
11.987000 3.666200
12.002700 3.660300
12.018400 3.634500
12.034000 4.516300
12.049700 4.027000
12.065400 3.918200
12.081100 3.820400
12.096700 3.733500
12.112400 3.657500
12.128100 3.594800
12.143700 3.565600
12.159400 3.574200
12.175100 3.620500
12.190800 3.704700
12.206400 3.826600
12.222100 3.986300
12.237800 4.375800
12.253400 4.864900
12.269100 5.321400
12.284800 5.609900
12.300400 5.615100
12.316100 5.614800
12.331800 5.612000
12.347500 5.606800
12.363100 5.599000
12.378800 5.588600
12.394500 5.575800
12.410100 5.560500
12.425800 5.542600
12.441500 5.522300
12.457100 5.500700
12.472800 5.472900
12.488500 5.449800
12.504200 5.415600
12.519800 5.233900
12.535500 4.987800
12.551200 4.144300
12.566800 3.795500
12.582500 3.664100
12.598200 3.634400
12.613900 3.668800
12.629500 3.722500
12.645200 3.795300
12.660900 3.887400
12.676500 3.998900
12.692200 4.130000
12.707900 4.280500
12.723500 4.450200
12.739200 4.636100
12.754900 4.837500
12.770600 5.120300
12.786200 5.485700
12.801900 5.862400
12.817600 6.201200
12.833200 6.501600
12.848900 6.764000
12.864600 6.990100
12.880300 7.206800
12.895900 7.585400
12.911600 7.430800
12.927300 6.636000
12.942900 6.133100
12.958600 5.563800
12.974300 4.809400
12.989900 4.075200
13.005600 3.363200
13.021300 2.740700
13.037000 2.748600
13.052600 2.796200
13.068300 2.883700
13.084000 3.010900
13.099600 3.177800
13.115300 3.374200
13.131000 3.577200
13.146600 3.786800
13.162300 4.072800
13.178000 4.353500
13.193700 4.610200
13.209300 4.845600
13.225000 5.065200
13.240700 5.291400
13.256300 5.539100
13.272000 5.809300
13.287700 8.038100
13.303400 6.664700
13.319000 5.974600
13.334700 5.573900
13.350400 4.858100
13.366000 4.559300
13.381700 4.452600
13.397400 4.308100
13.413000 4.126000
13.428700 3.906100
13.444400 3.738200
13.460100 3.713900
13.475700 3.781900
13.491400 3.849300
13.507100 3.914000
13.522700 3.976000
13.538400 4.035800
13.554100 4.122800
13.569800 4.163000
13.585400 4.155100
13.601100 4.114900
13.616800 4.042400
13.632400 3.937500
13.648100 3.800400
13.663800 3.525800
13.679400 3.088700
13.695100 2.792500
13.710800 2.623500
13.726500 2.586000
13.742100 2.631700
13.757800 2.685100
13.773500 2.742100
13.789100 2.802500
13.804800 2.866000
13.820500 2.923200
13.836100 2.980500
13.851800 3.046600
13.867500 3.113100
13.883200 3.170100
13.898800 3.194900
13.914500 3.104200
13.930200 2.797600
13.945800 2.333300
13.961500 2.221500
13.977200 2.115800
13.992900 2.163600
14.008500 2.555000
14.024200 3.150300
14.039900 3.665400
14.055500 4.100300
14.071200 4.455100
14.086900 4.721500
14.102500 4.898600
14.118200 5.087800
14.133900 5.289900
14.149600 5.481800
14.165200 5.632000
14.180900 5.773600
14.196600 5.905800
14.212200 6.028600
14.227900 6.127800
14.243600 6.179200
14.259200 6.344900
14.274900 6.703000
14.290600 6.984000
14.306300 7.189600
14.321900 7.404100
14.337600 8.055900
14.353300 8.521000
14.368900 8.709100
14.384600 8.629100
14.400300 8.829100
14.416000 8.818000
14.431600 8.556300
14.447300 8.044000
14.463000 7.394400
14.478600 7.007300
14.494300 6.658500
14.510000 6.331700
14.525600 5.997000
14.541300 5.603700
14.557000 5.163200
14.572700 4.728200
14.588300 4.328900
14.604000 3.928400
14.619700 3.505800
14.635300 3.059300
14.651000 2.588500
14.666700 2.097000
14.682400 1.776600
14.698000 1.919300
14.713700 2.081600
14.729400 2.259800
14.745000 2.474400
14.760700 2.799600
14.776400 3.242200
14.792000 3.602500
14.807700 3.742000
14.823400 3.862200
14.839100 3.963500
14.854700 4.047200
14.870400 4.117000
14.886100 4.231300
14.901700 4.299900
14.917400 4.350000
14.933100 4.381600
14.948700 4.367300
14.964400 4.351500
14.980100 4.339400
14.995800 4.378600
15.011400 4.504000
15.027100 4.650400
15.042800 4.817800
15.058400 5.006200
15.074100 5.231400
15.089800 5.522600
15.105500 5.926400
15.121100 6.554500
15.136800 7.271200
15.152500 7.129800
15.168100 6.483400
15.183800 6.508500
15.199500 6.476800
15.215100 6.388300
15.230800 6.241600
15.246500 6.023600
15.262200 5.722300
15.277800 5.345100
15.293500 5.299800
15.309200 5.254500
15.324800 5.213100
15.340500 5.178100
15.356200 5.255500
15.371800 5.238200
15.387500 5.240800
15.403200 5.244500
15.418900 5.246900
15.434500 5.261400
15.450200 5.269800
15.465900 5.279500
15.481500 5.281700
15.497200 5.275600
15.512900 5.261000
15.528600 5.237100
15.544200 5.167000
15.559900 5.004400
15.575600 4.755000
15.591200 4.423000
15.606900 4.018000
15.622600 3.677200
15.638200 3.546900
15.653900 3.622400
15.669600 3.812800
15.685300 4.033200
15.700900 4.096100
15.716600 4.048100
15.732300 4.032700
15.747900 4.049700
15.763600 4.099200
15.779300 4.181700
15.795000 4.279400
15.810600 4.373200
15.826300 4.464800
15.842000 4.556300
15.857600 4.647900
15.873300 4.737200
15.889000 4.815000
15.904600 4.886500
15.920300 4.949600
15.936000 5.007700
15.951700 5.062500
15.967300 5.114100
15.983000 5.162400
15.998700 5.207500
16.014300 5.071700
16.030000 5.028700
16.045700 5.088900
16.061300 5.206300
16.077000 5.377400
16.092700 5.543400
16.108400 5.798500
16.124000 5.961500
16.139700 5.997200
16.155400 5.905400
16.171000 5.687300
16.186700 5.685400
16.202400 5.730900
16.218100 5.733600
16.233700 5.693500
16.249400 5.610500
16.265100 5.484700
16.280700 5.188900
16.296400 4.819400
16.312100 4.580800
16.327700 4.414100
16.343400 4.244100
16.359100 4.024100
16.374800 3.750200
16.390400 3.446300
16.406100 3.280100
16.421800 3.116400
16.437400 2.955700
16.453100 2.798200
16.468800 2.702900
16.484500 2.700800
16.500100 2.739300
16.515800 2.778800
16.531500 2.819700
16.547100 2.873200
16.562800 2.944400
16.578500 3.033000
16.594100 3.139300
16.609800 3.263000
16.625500 3.404300
16.641200 3.588700
16.656800 3.838800
16.672500 4.028500
16.688200 4.157800
16.703800 4.226700
16.719500 4.235100
16.735200 4.108900
16.750800 3.934600
16.766500 3.809700
16.782200 3.730500
16.797900 3.896000
16.813500 3.891900
16.829200 3.701700
16.844900 3.536600
16.860500 3.396600
16.876200 3.281700
16.891900 3.191900
16.907600 3.127700
16.923200 3.150100
16.938900 3.300700
16.954600 3.579500
16.970200 3.663100
16.985900 3.681800
17.001600 3.694500
17.017200 3.702600
17.032900 3.951500
17.048600 4.002600
17.064300 4.007400
17.079900 3.997200
17.095600 3.972100
17.111300 3.932000
17.126900 3.876900
17.142600 3.806900
17.158300 3.721900
17.173900 3.621900
17.189600 3.507000
17.205300 3.350000
17.221000 3.099400
17.236600 2.836900
17.252300 2.562500
17.268000 2.276400
17.283600 1.978400
17.299300 1.667400
17.315000 1.250700
17.330700 0.854600
17.346300 0.527900
17.362000 0.280500
17.377700 0.112500
17.393300 0.023900
17.409000 0.000200
17.424700 0.000000
17.440300 0.000000
17.456000 0.000000
17.471700 0.000000
17.487400 0.000000
17.503000 0.000000
17.518700 0.000000
17.534400 0.000000
17.550000 0.000000
17.565700 0.000000
17.581400 0.000000
17.597100 0.000000
17.612700 0.000000
17.628400 0.000000
17.644100 0.000000
17.659700 0.000000
17.675400 0.000000
17.691100 0.000000
17.706700 0.000000
17.722400 0.000000
17.738100 0.000000
17.753800 0.000000
17.769400 0.000000
17.785100 0.000000
17.800800 0.000000
17.816400 0.000000
17.832100 0.000000
17.847800 0.000000
17.863400 0.000000
17.879100 0.000000
17.894800 0.000000
17.910500 0.000000
17.926100 0.000000
17.941800 0.000000
17.957500 0.000000
17.973100 0.000000
17.988800 0.000000
18.004500 0.000000
18.020200 0.000000
18.035800 0.000000
18.051500 0.000000
18.067200 0.000000
18.082800 0.000000
18.098500 0.000000
18.114200 0.000000
18.129800 0.000000
18.145500 0.000000
18.161200 0.000000
18.176900 0.000000
18.192500 0.000000
18.208200 0.000000
18.223900 0.000000
18.239500 0.000000
18.255200 0.000000
18.270900 0.000000
18.286600 0.000000
18.302200 0.000000
18.317900 0.000000
18.333600 0.000000
18.349200 0.000000
18.364900 0.000000
18.380600 0.000000
18.396200 0.000000
18.411900 0.000000
18.427600 0.000000
18.443300 0.000000
18.458900 0.000000
18.474600 0.000000
18.490300 0.000000
18.505900 0.000000
18.521600 0.000000
18.537300 0.000000
18.552900 0.000000
18.568600 0.000000
18.584300 0.000000
18.600000 0.000000
18.615600 0.000000
18.631300 0.000000
18.647000 0.000000
18.662600 0.000000
18.678300 0.000000
18.694000 0.000000
18.709700 0.000000
18.725300 0.000000
18.741000 0.000000
18.756700 0.000000
18.772300 0.000000
18.788000 0.000000
18.803700 0.000000
18.819300 0.000000
18.835000 0.000000
e
