set title 'mp-974613 - Density of States'
set xlabel 'Energy (eV)'
set ylabel 'DOS (states/eV)'
set grid
set xrange [-10:10]
set yrange [0:5.269]
set xzeroaxis lt -1
set terminal png size 800,600
set output 'mp-974613_dos_gnuplot.png'
plot '-' using 1:2 with lines title 'DOS'
-33.688700 0.000000
-33.653700 0.000000
-33.618600 0.000000
-33.583600 0.000000
-33.548500 0.000000
-33.513500 0.000000
-33.478400 0.000000
-33.443400 0.000000
-33.408400 0.000000
-33.373300 0.000000
-33.338300 0.000000
-33.303200 0.000000
-33.268200 0.000000
-33.233100 0.000000
-33.198100 0.000000
-33.163100 0.000000
-33.128000 0.000000
-33.093000 0.000000
-33.057900 0.000000
-33.022900 0.000000
-32.987900 0.000000
-32.952800 0.000000
-32.917800 0.000000
-32.882700 0.000000
-32.847700 0.000000
-32.812600 0.000000
-32.777600 0.000000
-32.742600 0.000000
-32.707500 0.000000
-32.672500 0.000000
-32.637400 0.000000
-32.602400 0.000000
-32.567300 0.000000
-32.532300 0.000000
-32.497300 0.000000
-32.462200 0.000000
-32.427200 0.000000
-32.392100 0.000000
-32.357100 0.000000
-32.322000 0.000000
-32.287000 0.000000
-32.252000 0.000000
-32.216900 0.000000
-32.181900 0.000000
-32.146800 0.000000
-32.111800 0.000000
-32.076800 0.000000
-32.041700 0.000000
-32.006700 0.000000
-31.971600 0.000000
-31.936600 0.000000
-31.901500 0.000000
-31.866500 0.000000
-31.831500 0.000000
-31.796400 0.000000
-31.761400 0.000000
-31.726300 0.000000
-31.691300 0.000000
-31.656200 0.000000
-31.621200 0.000000
-31.586200 0.000000
-31.551100 0.000000
-31.516100 0.000000
-31.481000 0.000000
-31.446000 0.000000
-31.410900 0.000000
-31.375900 0.000000
-31.340900 0.000000
-31.305800 0.000000
-31.270800 0.000000
-31.235700 0.000000
-31.200700 0.000000
-31.165700 0.000000
-31.130600 0.000000
-31.095600 0.000000
-31.060500 0.000000
-31.025500 0.000000
-30.990400 0.000000
-30.955400 0.000000
-30.920400 0.000000
-30.885300 0.000000
-30.850300 0.000000
-30.815200 0.000000
-30.780200 0.000000
-30.745100 0.000000
-30.710100 0.000000
-30.675100 0.000000
-30.640000 0.000000
-30.605000 0.000000
-30.569900 0.000000
-30.534900 0.000000
-30.499800 35.459500
-30.464800 0.000000
-30.429800 0.000000
-30.394700 0.000000
-30.359700 0.000000
-30.324600 0.000000
-30.289600 0.000000
-30.254600 0.000000
-30.219500 0.000000
-30.184500 0.000000
-30.149400 0.000000
-30.114400 0.000000
-30.079300 0.000000
-30.044300 0.000000
-30.009300 0.000000
-29.974200 0.000000
-29.939200 0.000000
-29.904100 0.000000
-29.869100 0.000000
-29.834000 0.000000
-29.799000 0.000000
-29.764000 0.000000
-29.728900 0.000000
-29.693900 0.000000
-29.658800 0.000000
-29.623800 0.000000
-29.588800 0.000000
-29.553700 0.000000
-29.518700 0.000000
-29.483600 0.000000
-29.448600 0.000000
-29.413500 0.000000
-29.378500 0.000000
-29.343500 0.000000
-29.308400 0.000000
-29.273400 0.000000
-29.238300 0.000000
-29.203300 0.000000
-29.168200 0.000000
-29.133200 0.000000
-29.098200 0.000000
-29.063100 0.000000
-29.028100 0.000000
-28.993000 0.000000
-28.958000 0.000000
-28.922900 0.000000
-28.887900 0.000000
-28.852900 0.000000
-28.817800 0.000000
-28.782800 0.000000
-28.747700 0.000000
-28.712700 0.000000
-28.677700 0.000000
-28.642600 0.000000
-28.607600 0.000000
-28.572500 0.000000
-28.537500 0.000000
-28.502400 0.000000
-28.467400 0.000000
-28.432400 0.000000
-28.397300 0.000000
-28.362300 0.000000
-28.327200 0.000000
-28.292200 0.000000
-28.257100 0.000000
-28.222100 0.000000
-28.187100 0.000000
-28.152000 0.000000
-28.117000 0.000000
-28.081900 0.000000
-28.046900 0.000000
-28.011800 0.000000
-27.976800 0.000000
-27.941800 0.000000
-27.906700 0.000000
-27.871700 0.000000
-27.836600 0.000000
-27.801600 0.000000
-27.766600 0.000000
-27.731500 0.000000
-27.696500 0.000000
-27.661400 0.000000
-27.626400 0.000000
-27.591300 0.000000
-27.556300 0.000000
-27.521300 0.000000
-27.486200 0.000000
-27.451200 0.000000
-27.416100 0.000000
-27.381100 0.000000
-27.346000 0.000000
-27.311000 0.000000
-27.276000 0.000000
-27.240900 0.000000
-27.205900 0.000000
-27.170800 0.000000
-27.135800 0.000000
-27.100700 0.000000
-27.065700 0.000000
-27.030700 0.000000
-26.995600 0.000000
-26.960600 0.000000
-26.925500 0.000000
-26.890500 0.000000
-26.855500 0.000000
-26.820400 0.000000
-26.785400 0.000000
-26.750300 0.000000
-26.715300 0.000000
-26.680200 0.000000
-26.645200 0.000000
-26.610200 0.000000
-26.575100 0.000000
-26.540100 0.000000
-26.505000 0.000000
-26.470000 0.000000
-26.434900 0.000000
-26.399900 0.000000
-26.364900 0.000000
-26.329800 0.000000
-26.294800 0.000000
-26.259700 0.000000
-26.224700 0.000000
-26.189700 0.000000
-26.154600 0.000000
-26.119600 0.000000
-26.084500 0.000000
-26.049500 0.000000
-26.014400 0.000000
-25.979400 0.000000
-25.944400 0.000000
-25.909300 0.000000
-25.874300 0.000000
-25.839200 0.000000
-25.804200 0.000000
-25.769100 0.000000
-25.734100 0.000000
-25.699100 0.000000
-25.664000 0.000000
-25.629000 0.000000
-25.593900 0.000000
-25.558900 0.000000
-25.523800 0.000000
-25.488800 0.000000
-25.453800 0.000000
-25.418700 0.000000
-25.383700 0.000000
-25.348600 0.000000
-25.313600 0.000000
-25.278600 0.000000
-25.243500 0.000000
-25.208500 0.000000
-25.173400 0.000000
-25.138400 0.000000
-25.103300 0.000000
-25.068300 0.000000
-25.033300 0.000000
-24.998200 0.000000
-24.963200 0.000000
-24.928100 0.000000
-24.893100 0.000000
-24.858000 0.000000
-24.823000 0.000000
-24.788000 0.000000
-24.752900 0.000000
-24.717900 0.000000
-24.682800 0.000000
-24.647800 0.000000
-24.612700 0.000000
-24.577700 0.000000
-24.542700 0.000000
-24.507600 0.000000
-24.472600 0.000000
-24.437500 0.000000
-24.402500 0.000000
-24.367500 0.000000
-24.332400 0.000000
-24.297400 0.000000
-24.262300 0.000000
-24.227300 0.000000
-24.192200 0.000000
-24.157200 0.000000
-24.122200 0.000000
-24.087100 0.000000
-24.052100 0.000000
-24.017000 0.000000
-23.982000 0.000000
-23.946900 0.000000
-23.911900 0.000000
-23.876900 0.000000
-23.841800 0.000000
-23.806800 0.000000
-23.771700 0.000000
-23.736700 0.000000
-23.701600 0.000000
-23.666600 0.000000
-23.631600 0.000000
-23.596500 0.000000
-23.561500 0.000000
-23.526400 0.000000
-23.491400 0.000000
-23.456400 0.000000
-23.421300 0.000000
-23.386300 0.000000
-23.351200 0.000000
-23.316200 0.000000
-23.281100 0.000000
-23.246100 0.000000
-23.211100 0.000000
-23.176000 0.000000
-23.141000 0.000000
-23.105900 0.000000
-23.070900 0.000000
-23.035800 0.000000
-23.000800 0.000000
-22.965800 0.000000
-22.930700 0.000000
-22.895700 0.000000
-22.860600 0.000000
-22.825600 0.000000
-22.790600 0.000000
-22.755500 0.000000
-22.720500 0.000000
-22.685400 0.000000
-22.650400 0.000000
-22.615300 0.000000
-22.580300 0.000000
-22.545300 0.000000
-22.510200 0.000000
-22.475200 0.000000
-22.440100 0.000000
-22.405100 0.000000
-22.370000 0.000000
-22.335000 0.000000
-22.300000 0.000000
-22.264900 0.000000
-22.229900 0.000000
-22.194800 0.000000
-22.159800 0.000000
-22.124700 0.000000
-22.089700 0.000000
-22.054700 0.000000
-22.019600 0.000000
-21.984600 0.000000
-21.949500 0.000000
-21.914500 0.000000
-21.879500 0.000000
-21.844400 0.000000
-21.809400 0.000000
-21.774300 0.000000
-21.739300 0.000000
-21.704200 0.000000
-21.669200 0.000000
-21.634200 0.000000
-21.599100 0.000000
-21.564100 0.000000
-21.529000 0.000000
-21.494000 0.000000
-21.458900 0.000000
-21.423900 0.000000
-21.388900 0.000000
-21.353800 0.000000
-21.318800 0.000000
-21.283700 0.000000
-21.248700 0.000000
-21.213600 0.000000
-21.178600 0.000000
-21.143600 0.000000
-21.108500 0.000000
-21.073500 0.000000
-21.038400 0.000000
-21.003400 0.000000
-20.968400 0.000000
-20.933300 0.000000
-20.898300 0.000000
-20.863200 0.000000
-20.828200 0.000000
-20.793100 0.000000
-20.758100 0.000000
-20.723100 0.000000
-20.688000 0.000000
-20.653000 0.000000
-20.617900 0.000000
-20.582900 0.000000
-20.547800 0.000000
-20.512800 0.000000
-20.477800 0.000000
-20.442700 0.000000
-20.407700 0.000000
-20.372600 0.000000
-20.337600 0.000000
-20.302500 0.000000
-20.267500 0.000000
-20.232500 0.000000
-20.197400 0.000000
-20.162400 0.000000
-20.127300 0.000000
-20.092300 0.000000
-20.057300 0.000000
-20.022200 0.000000
-19.987200 0.000000
-19.952100 0.000000
-19.917100 0.000000
-19.882000 0.000000
-19.847000 0.000000
-19.812000 0.000000
-19.776900 0.000000
-19.741900 0.000000
-19.706800 0.000000
-19.671800 0.000000
-19.636700 0.000000
-19.601700 0.000000
-19.566700 0.000000
-19.531600 0.000000
-19.496600 0.000000
-19.461500 0.000000
-19.426500 0.000000
-19.391500 0.000000
-19.356400 0.000000
-19.321400 0.000000
-19.286300 0.000000
-19.251300 0.000000
-19.216200 0.000000
-19.181200 0.000000
-19.146200 0.000000
-19.111100 0.000000
-19.076100 0.000000
-19.041000 0.000000
-19.006000 0.000000
-18.970900 0.000000
-18.935900 0.000000
-18.900900 0.000000
-18.865800 0.000000
-18.830800 0.000000
-18.795700 0.000000
-18.760700 0.000000
-18.725600 0.000000
-18.690600 0.000000
-18.655600 0.000000
-18.620500 0.000000
-18.585500 0.000000
-18.550400 0.000000
-18.515400 0.000000
-18.480400 0.000000
-18.445300 0.000000
-18.410300 0.000000
-18.375200 0.000000
-18.340200 0.000000
-18.305100 0.000000
-18.270100 0.000000
-18.235100 0.000000
-18.200000 0.000000
-18.165000 0.000000
-18.129900 0.000000
-18.094900 0.000000
-18.059800 0.000000
-18.024800 0.000000
-17.989800 0.000000
-17.954700 0.000000
-17.919700 0.000000
-17.884600 0.000000
-17.849600 0.000000
-17.814500 0.000000
-17.779500 0.000000
-17.744500 0.000000
-17.709400 0.000000
-17.674400 0.000000
-17.639300 0.000000
-17.604300 0.000000
-17.569300 0.000000
-17.534200 0.000000
-17.499200 0.000000
-17.464100 0.000000
-17.429100 0.000000
-17.394000 0.000000
-17.359000 0.000000
-17.324000 0.000000
-17.288900 0.000000
-17.253900 0.000000
-17.218800 0.000000
-17.183800 0.000000
-17.148700 0.000000
-17.113700 0.000000
-17.078700 0.000000
-17.043600 0.000000
-17.008600 0.000000
-16.973500 0.000000
-16.938500 0.000000
-16.903400 0.000000
-16.868400 0.000000
-16.833400 0.000000
-16.798300 0.000000
-16.763300 0.000000
-16.728200 0.000000
-16.693200 0.000000
-16.658200 0.000000
-16.623100 0.000000
-16.588100 0.000000
-16.553000 0.000000
-16.518000 0.000000
-16.482900 0.000000
-16.447900 0.000000
-16.412900 0.000000
-16.377800 0.000000
-16.342800 0.000000
-16.307700 0.000000
-16.272700 0.000000
-16.237600 0.000000
-16.202600 0.000000
-16.167600 0.000000
-16.132500 0.000000
-16.097500 0.000000
-16.062400 0.000000
-16.027400 0.000000
-15.992400 0.000000
-15.957300 0.000000
-15.922300 0.000000
-15.887200 0.000000
-15.852200 0.000000
-15.817100 0.000000
-15.782100 0.000000
-15.747100 0.000000
-15.712000 0.000000
-15.677000 0.000000
-15.641900 0.000000
-15.606900 0.000000
-15.571800 0.000000
-15.536800 0.000000
-15.501800 0.000000
-15.466700 0.000000
-15.431700 0.000000
-15.396600 0.000000
-15.361600 0.000000
-15.326500 0.000000
-15.291500 0.000000
-15.256500 0.000000
-15.221400 0.000000
-15.186400 0.000000
-15.151300 0.000000
-15.116300 0.000000
-15.081300 0.000000
-15.046200 0.000000
-15.011200 0.000000
-14.976100 0.000000
-14.941100 0.000000
-14.906000 0.000000
-14.871000 0.000000
-14.836000 0.000000
-14.800900 0.000000
-14.765900 0.000000
-14.730800 0.000000
-14.695800 0.000000
-14.660700 0.000000
-14.625700 0.000000
-14.590700 0.000000
-14.555600 0.000000
-14.520600 0.000000
-14.485500 0.000000
-14.450500 0.000000
-14.415400 0.000000
-14.380400 0.000000
-14.345400 0.000000
-14.310300 0.000000
-14.275300 0.000000
-14.240200 0.000000
-14.205200 0.000000
-14.170200 0.000000
-14.135100 0.000000
-14.100100 0.000000
-14.065000 0.000000
-14.030000 0.000000
-13.994900 0.000000
-13.959900 0.000000
-13.924900 0.000000
-13.889800 0.000000
-13.854800 0.000000
-13.819700 0.000000
-13.784700 0.000000
-13.749600 0.000000
-13.714600 0.000000
-13.679600 0.000000
-13.644500 0.000000
-13.609500 0.000000
-13.574400 0.000000
-13.539400 0.000000
-13.504300 0.000000
-13.469300 0.000000
-13.434300 0.000000
-13.399200 0.000000
-13.364200 0.000000
-13.329100 0.000000
-13.294100 0.000000
-13.259100 0.000000
-13.224000 0.000000
-13.189000 0.000000
-13.153900 0.000000
-13.118900 0.000000
-13.083800 0.000000
-13.048800 0.000000
-13.013800 0.000000
-12.978700 0.000000
-12.943700 0.000000
-12.908600 0.000000
-12.873600 0.000000
-12.838500 0.000000
-12.803500 0.000000
-12.768500 0.000000
-12.733400 0.000000
-12.698400 0.000000
-12.663300 0.000000
-12.628300 0.000000
-12.593300 0.000000
-12.558200 0.000000
-12.523200 0.000000
-12.488100 0.000000
-12.453100 0.000000
-12.418000 0.000000
-12.383000 0.000000
-12.348000 0.000000
-12.312900 0.000000
-12.277900 0.000000
-12.242800 4.530500
-12.207800 6.056700
-12.172700 6.850900
-12.137700 9.773800
-12.102700 7.712200
-12.067600 13.110900
-12.032600 8.707300
-11.997500 9.794100
-11.962500 22.147500
-11.927400 18.236500
-11.892400 19.276300
-11.857400 7.941600
-11.822300 10.113500
-11.787300 13.391400
-11.752200 10.587100
-11.717200 0.000000
-11.682200 0.000000
-11.647100 0.000000
-11.612100 0.000000
-11.577000 0.000000
-11.542000 0.000000
-11.506900 0.000000
-11.471900 0.000000
-11.436900 0.000000
-11.401800 0.000000
-11.366800 0.000000
-11.331700 0.000000
-11.296700 0.000000
-11.261600 0.000000
-11.226600 0.000000
-11.191600 0.000000
-11.156500 0.000000
-11.121500 0.000000
-11.086400 0.000000
-11.051400 0.000000
-11.016300 0.000000
-10.981300 0.000000
-10.946300 0.000000
-10.911200 0.000000
-10.876200 0.000000
-10.841100 0.000000
-10.806100 0.000000
-10.771100 0.000000
-10.736000 0.000000
-10.701000 0.000000
-10.665900 0.000000
-10.630900 0.000000
-10.595800 0.000000
-10.560800 0.000000
-10.525800 0.000000
-10.490700 0.000000
-10.455700 0.000000
-10.420600 0.000000
-10.385600 0.000000
-10.350500 0.000000
-10.315500 0.000000
-10.280500 0.000000
-10.245400 0.000000
-10.210400 0.000000
-10.175300 0.000000
-10.140300 0.000000
-10.105200 0.000000
-10.070200 0.000000
-10.035200 0.000000
-10.000100 0.000000
-9.965100 0.000000
-9.930000 0.000000
-9.895000 0.000000
-9.860000 0.000000
-9.824900 0.000000
-9.789900 0.000000
-9.754800 0.000000
-9.719800 0.000000
-9.684700 0.000000
-9.649700 0.000000
-9.614700 0.000000
-9.579600 0.000000
-9.544600 0.000000
-9.509500 0.000000
-9.474500 0.000000
-9.439400 0.000000
-9.404400 0.000000
-9.369400 0.000000
-9.334300 0.000000
-9.299300 0.000000
-9.264200 0.000000
-9.229200 0.000000
-9.194200 0.000000
-9.159100 0.000000
-9.124100 0.000000
-9.089000 0.000000
-9.054000 0.000000
-9.018900 0.000000
-8.983900 0.000000
-8.948900 0.000000
-8.913800 0.000000
-8.878800 0.000000
-8.843700 0.000000
-8.808700 0.000000
-8.773600 0.000000
-8.738600 0.000000
-8.703600 0.000000
-8.668500 0.000000
-8.633500 0.000000
-8.598400 0.000000
-8.563400 0.000000
-8.528300 0.000000
-8.493300 0.000000
-8.458300 0.000000
-8.423200 0.000000
-8.388200 0.000000
-8.353100 0.000000
-8.318100 0.000000
-8.283100 0.000000
-8.248000 0.000000
-8.213000 0.000000
-8.177900 0.000000
-8.142900 0.000000
-8.107800 0.000000
-8.072800 0.000000
-8.037800 0.000000
-8.002700 0.000000
-7.967700 0.000000
-7.932600 0.000000
-7.897600 0.000000
-7.862500 0.000000
-7.827500 0.000000
-7.792500 0.000000
-7.757400 0.000000
-7.722400 0.000000
-7.687300 0.000000
-7.652300 0.000000
-7.617200 0.000000
-7.582200 0.000000
-7.547200 0.000000
-7.512100 0.000000
-7.477100 0.000000
-7.442000 0.000000
-7.407000 0.000000
-7.372000 0.000000
-7.336900 0.000000
-7.301900 0.000000
-7.266800 0.000000
-7.231800 0.000000
-7.196700 0.000000
-7.161700 0.000000
-7.126700 0.000000
-7.091600 0.000000
-7.056600 0.000000
-7.021500 0.000000
-6.986500 0.000000
-6.951400 0.000000
-6.916400 0.000000
-6.881400 0.000000
-6.846300 0.000000
-6.811300 0.000000
-6.776200 0.000000
-6.741200 0.000000
-6.706100 0.000000
-6.671100 0.000000
-6.636100 0.000000
-6.601000 0.000000
-6.566000 0.000000
-6.530900 0.000000
-6.495900 0.000000
-6.460900 0.000000
-6.425800 0.015100
-6.390800 0.063600
-6.355700 0.114500
-6.320700 0.148400
-6.285600 0.167100
-6.250600 0.186900
-6.215600 0.201000
-6.180500 0.224900
-6.145500 0.250100
-6.110400 0.276500
-6.075400 0.298100
-6.040300 0.310800
-6.005300 0.325900
-5.970300 0.343400
-5.935200 0.361000
-5.900200 0.378700
-5.865100 0.397600
-5.830100 0.416900
-5.795100 0.436800
-5.760000 0.458700
-5.725000 0.483500
-5.689900 0.508800
-5.654900 0.529700
-5.619800 0.549500
-5.584800 0.570300
-5.549800 0.592400
-5.514700 0.615100
-5.479700 0.644000
-5.444600 0.678900
-5.409600 0.728400
-5.374500 0.789000
-5.339500 0.839600
-5.304500 0.848500
-5.269400 0.858700
-5.234400 0.884700
-5.199300 0.897600
-5.164300 0.887200
-5.129200 0.883400
-5.094200 0.891800
-5.059200 0.901800
-5.024100 0.909500
-4.989100 0.914300
-4.954000 0.917700
-4.919000 0.916900
-4.884000 0.921300
-4.848900 0.928900
-4.813900 0.935200
-4.778800 0.942000
-4.743800 0.950200
-4.708700 0.958100
-4.673700 0.965000
-4.638700 0.976100
-4.603600 0.981500
-4.568600 0.989800
-4.533500 1.020000
-4.498500 1.065900
-4.463400 1.124800
-4.428400 1.268300
-4.393400 1.345000
-4.358300 1.379400
-4.323300 1.299900
-4.288200 1.268100
-4.253200 1.241500
-4.218100 1.181000
-4.183100 1.098000
-4.148100 0.993400
-4.113000 0.927700
-4.078000 0.883800
-4.042900 0.845200
-4.007900 0.824300
-3.972900 0.805600
-3.937800 0.803300
-3.902800 0.854200
-3.867700 1.010400
-3.832700 1.201400
-3.797600 1.498000
-3.762600 1.810700
-3.727600 2.010900
-3.692500 1.840000
-3.657500 1.544800
-3.622400 1.487500
-3.587400 1.621600
-3.552300 1.776800
-3.517300 1.893000
-3.482300 2.058700
-3.447200 2.215800
-3.412200 2.353300
-3.377100 2.693500
-3.342100 3.006800
-3.307000 2.564600
-3.272000 2.221400
-3.237000 1.890600
-3.201900 1.882300
-3.166900 1.796600
-3.131800 1.796400
-3.096800 1.961100
-3.061800 1.974200
-3.026700 2.044200
-2.991700 1.952900
-2.956600 1.798800
-2.921600 1.720200
-2.886500 1.692600
-2.851500 1.683000
-2.816500 1.684500
-2.781400 1.694800
-2.746400 1.713300
-2.711300 1.727300
-2.676300 1.750900
-2.641200 1.805800
-2.606200 1.873200
-2.571200 1.957600
-2.536100 2.118800
-2.501100 2.243900
-2.466000 2.266700
-2.431000 2.307500
-2.396000 2.363100
-2.360900 2.488500
-2.325900 2.253500
-2.290800 2.050600
-2.255800 2.006100
-2.220700 1.984100
-2.185700 2.009200
-2.150700 2.069400
-2.115600 2.377100
-2.080600 2.487100
-2.045500 1.716500
-2.010500 0.807500
-1.975400 0.567800
-1.940400 0.546700
-1.905400 0.525700
-1.870300 0.506600
-1.835300 0.494100
-1.800200 0.486900
-1.765200 0.479800
-1.730100 0.472700
-1.695100 0.465600
-1.660100 0.458400
-1.625000 0.451300
-1.590000 0.424600
-1.554900 0.402200
-1.519900 0.403200
-1.484900 0.394600
-1.449800 0.381100
-1.414800 0.367600
-1.379700 0.354000
-1.344700 0.340500
-1.309600 0.327000
-1.274600 0.313500
-1.239600 0.300000
-1.204500 0.286500
-1.169500 0.279900
-1.134400 0.284700
-1.099400 0.295200
-1.064300 0.311300
-1.029300 0.314000
-0.994300 0.298600
-0.959200 0.273800
-0.924200 0.240200
-0.889100 0.197900
-0.854100 0.142700
-0.819000 0.106000
-0.784000 0.076800
-0.749000 0.053100
-0.713900 0.033800
-0.678900 0.018400
-0.643800 0.007100
-0.608800 0.000400
-0.573800 0.000000
-0.538700 0.000000
-0.503700 0.000000
-0.468600 0.000000
-0.433600 0.000000
-0.398500 0.000000
-0.363500 0.000000
-0.328500 0.000000
-0.293400 0.000000
-0.258400 0.000000
-0.223300 0.000000
-0.188300 0.000000
-0.153200 0.000000
-0.118200 0.000000
-0.083200 0.000000
-0.048100 0.000000
-0.013100 0.000000
0.022000 0.000000
0.057000 0.000000
0.092100 0.000000
0.127100 0.000000
0.162100 0.000000
0.197200 0.000000
0.232200 0.000000
0.267300 0.000000
0.302300 0.000000
0.337300 0.000000
0.372400 0.000000
0.407400 0.000000
0.442500 0.000000
0.477500 0.000000
0.512600 0.000000
0.547600 0.000000
0.582600 0.000000
0.617700 0.000000
0.652700 0.000000
0.687800 0.090300
0.722800 0.107500
0.757900 0.131700
0.792900 0.158300
0.827900 0.170200
0.863000 0.204500
0.898000 0.249400
0.933100 0.304100
0.968100 0.369100
1.003200 0.455000
1.038200 0.547100
1.073200 0.595800
1.108300 0.507900
1.143300 0.535900
1.178400 0.538800
1.213400 0.553700
1.248400 0.572500
1.283500 0.590900
1.318500 0.614800
1.353600 0.758300
1.388600 0.680100
1.423700 0.769700
1.458700 0.901300
1.493700 0.982900
1.528800 1.016600
1.563800 1.054900
1.598900 1.271600
1.633900 1.411300
1.669000 1.677500
1.704000 1.775700
1.739000 1.912400
1.774100 2.072700
1.809100 2.245600
1.844200 2.434000
1.879200 2.640100
1.914200 2.672800
1.949300 2.562400
1.984300 2.465100
2.019400 2.321700
2.054400 2.083700
2.089500 1.853700
2.124500 1.839600
2.159500 1.697900
2.194600 1.632600
2.229600 1.606200
2.264700 1.617300
2.299700 1.624100
2.334800 1.867400
2.369800 2.108700
2.404800 1.884200
2.439900 1.747600
2.474900 1.727800
2.510000 1.728900
2.545000 1.763500
2.580100 1.930800
2.615100 2.177000
2.650100 2.270400
2.685200 2.247400
2.720200 2.155200
2.755300 2.056800
2.790300 2.238100
2.825300 2.465900
2.860400 2.835100
2.895400 2.900800
2.930500 3.013200
2.965500 3.315800
3.000600 3.856300
3.035600 3.463000
3.070600 3.317200
3.105700 3.403800
3.140700 3.436100
3.175800 3.636900
3.210800 3.339500
3.245900 2.970700
3.280900 2.514400
3.315900 2.486300
3.351000 2.587900
3.386000 3.865900
3.421100 4.790100
3.456100 4.582500
3.491200 4.293200
3.526200 3.787300
3.561200 3.416600
3.596300 3.136900
3.631300 2.871000
3.666400 2.673900
3.701400 2.549500
3.736400 2.478900
3.771500 2.419700
3.806500 2.405100
3.841600 2.449200
3.876600 2.511400
3.911700 2.590000
3.946700 2.640000
3.981700 2.682700
4.016800 2.667600
4.051800 2.652200
4.086900 2.611500
4.121900 2.596200
4.157000 2.577200
4.192000 2.425900
4.227000 2.134400
4.262100 1.837700
4.297100 1.715400
4.332200 1.624200
4.367200 1.508500
4.402300 1.416700
4.437300 1.369800
4.472300 1.393100
4.507400 1.382300
4.542400 1.293600
4.577500 1.227300
4.612500 1.165500
4.647500 1.261600
4.682600 1.186900
4.717600 1.230900
4.752700 1.566200
4.787700 1.998900
4.822800 2.216800
4.857800 2.707600
4.892800 2.901400
4.927900 3.020300
4.962900 3.201800
4.998000 3.389200
5.033000 3.545100
5.068100 3.342700
5.103100 3.139700
5.138100 2.983400
5.173200 2.811100
5.208200 2.494200
5.243300 2.170900
5.278300 1.928700
5.313300 1.809700
5.348400 1.786900
5.383400 1.835400
5.418500 2.156200
5.453500 2.296200
5.488600 1.953000
5.523600 1.940500
5.558600 2.155300
5.593700 2.451900
5.628700 2.391500
5.663800 2.109000
5.698800 2.024300
5.733900 2.043500
5.768900 1.924500
5.803900 1.932500
5.839000 1.948700
5.874000 2.003700
5.909100 2.036400
5.944100 2.068200
5.979200 2.175200
6.014200 2.289500
6.049200 2.465000
6.084300 2.670300
6.119300 2.643000
6.154400 2.682300
6.189400 2.734700
6.224400 2.780500
6.259500 2.805800
6.294500 2.780000
6.329600 2.761100
6.364600 2.759600
6.399700 2.760000
6.434700 2.824600
6.469700 2.743100
6.504800 2.649300
6.539800 2.525100
6.574900 2.417300
6.609900 2.220100
6.645000 2.057400
6.680000 1.961700
6.715000 1.863400
6.750100 1.793500
6.785100 1.735800
6.820200 1.745300
6.855200 1.758900
6.890300 1.791000
6.925300 1.838500
6.960300 1.857000
6.995400 1.833500
7.030400 1.825600
7.065500 1.832300
7.100500 1.862400
7.135500 1.881500
7.170600 1.899700
7.205600 1.931000
7.240700 1.967900
7.275700 1.988300
7.310800 2.059600
7.345800 2.172400
7.380800 2.233200
7.415900 2.203400
7.450900 2.274400
7.486000 2.134800
7.521000 1.824700
7.556100 1.694200
7.591100 1.560700
7.626100 1.471000
7.661200 1.366000
7.696200 1.321100
7.731300 1.295300
7.766300 1.285600
7.801400 1.286300
7.836400 1.300000
7.871400 1.449500
7.906500 1.461700
7.941500 1.587000
7.976600 1.628900
8.011600 1.705800
8.046600 1.943100
8.081700 2.146500
8.116700 2.325400
8.151800 2.086900
8.186800 2.012700
8.221900 1.984300
8.256900 2.050000
8.291900 2.070900
8.327000 1.882000
8.362000 1.814800
8.397100 1.749600
8.432100 1.697500
8.467200 1.695500
8.502200 1.800000
8.537200 1.986300
8.572300 2.428100
8.607300 2.808100
8.642400 2.830500
8.677400 2.359100
8.712400 1.968500
8.747500 1.700800
8.782500 1.555900
8.817600 1.503100
8.852600 1.473500
8.887700 1.446800
8.922700 1.424700
8.957700 1.417100
8.992800 1.419100
9.027800 1.421500
9.062900 1.394300
9.097900 1.406200
9.133000 1.406700
9.168000 1.420200
9.203000 1.429000
9.238100 1.460900
9.273100 1.496800
9.308200 1.591400
9.343200 1.757600
9.378300 1.892300
9.413300 2.067500
9.448300 2.061400
9.483400 2.012400
9.518400 2.003500
9.553500 2.052800
9.588500 2.040800
9.623500 2.070900
9.658600 2.116300
9.693600 2.143600
9.728700 2.190300
9.763700 2.239000
9.798800 2.320600
9.833800 2.386000
9.868800 2.375100
9.903900 2.427600
9.938900 2.453600
9.974000 2.562100
10.009000 2.617200
10.044100 2.730200
10.079100 2.867000
10.114100 2.893400
10.149200 2.894100
10.184200 2.899400
10.219300 3.003800
10.254300 3.019800
10.289400 3.117400
10.324400 3.258800
10.359400 3.455600
10.394500 3.396300
10.429500 3.512400
10.464600 3.789400
10.499600 4.303600
10.534600 4.579500
10.569700 4.586200
10.604700 5.350500
10.639800 4.122000
10.674800 4.079200
10.709900 4.072600
10.744900 4.029300
10.779900 4.093700
10.815000 4.488800
10.850000 5.250400
10.885100 5.329900
10.920100 3.926800
10.955200 3.547700
10.990200 3.284800
11.025200 3.150400
11.060300 3.131600
11.095300 3.321200
11.130400 3.723200
11.165400 3.828600
11.200500 3.637200
11.235500 4.198000
11.270500 4.030200
11.305600 3.886400
11.340600 4.001700
11.375700 3.951400
11.410700 4.046300
11.445700 4.047700
11.480800 3.908600
11.515800 3.789800
11.550900 3.598700
11.585900 3.613600
11.621000 3.548400
11.656000 3.391400
11.691000 3.306300
11.726100 3.305800
11.761100 3.280100
11.796200 3.260200
11.831200 3.248100
11.866300 3.147300
11.901300 2.978000
11.936300 2.812000
11.971400 2.687000
12.006400 2.596400
12.041500 2.634800
12.076500 2.831900
12.111500 3.254100
12.146600 3.239200
12.181600 3.185100
12.216700 3.068900
12.251700 2.938700
12.286800 2.592300
12.321800 2.278800
12.356800 2.260500
12.391900 2.428800
12.426900 2.671800
12.462000 2.041300
12.497000 1.912300
12.532100 1.835300
12.567100 1.778600
12.602100 1.616000
12.637200 1.567100
12.672200 1.495800
12.707300 1.412100
12.742300 1.379500
12.777400 1.362200
12.812400 1.433400
12.847400 1.482000
12.882500 1.422500
12.917500 1.363900
12.952600 1.318600
12.987600 1.321100
13.022600 1.335300
13.057700 1.348300
13.092700 1.363700
13.127800 1.380100
13.162800 1.409500
13.197900 1.419500
13.232900 1.409500
13.267900 1.351000
13.303000 1.363500
13.338000 1.365000
13.373100 1.352900
13.408100 1.317700
13.443200 1.289400
13.478200 1.286600
13.513200 1.286100
13.548300 1.283700
13.583300 1.276300
13.618400 1.269000
13.653400 1.290400
13.688500 1.327000
13.723500 1.374800
13.758500 1.429200
13.793600 1.483900
13.828600 1.566000
13.863700 1.644100
13.898700 1.709200
13.933700 1.768900
13.968800 1.858700
14.003800 2.170800
14.038900 2.458000
14.073900 2.499600
14.109000 2.567400
14.144000 2.696200
14.179000 2.774700
14.214100 2.668400
14.249100 2.504000
14.284200 2.326500
14.319200 2.174600
14.354300 2.050200
14.389300 1.972500
14.424300 1.926500
14.459400 1.746400
14.494400 1.767900
14.529500 1.844900
14.564500 1.833800
14.599600 1.825600
14.634600 1.779100
14.669600 1.766300
14.704700 1.855500
14.739700 1.967000
14.774800 2.006200
14.809800 2.082100
14.844800 2.160300
14.879900 2.315700
14.914900 2.171300
14.950000 2.103600
14.985000 2.088500
15.020100 2.096000
15.055100 2.181600
15.090100 2.145100
15.125200 2.015000
15.160200 1.884100
15.195300 1.800600
15.230300 1.728600
15.265400 1.592500
15.300400 1.577100
15.335400 1.630100
15.370500 1.626200
15.405500 1.700500
15.440600 1.744300
15.475600 1.689000
15.510600 1.705000
15.545700 1.859300
15.580700 2.118700
15.615800 2.487900
15.650800 2.948300
15.685900 3.414800
15.720900 3.435700
15.755900 3.166900
15.791000 2.667600
15.826000 2.179700
15.861100 2.201300
15.896100 2.547400
15.931200 2.484000
15.966200 2.553900
16.001200 2.458500
16.036300 2.264900
16.071300 2.341500
16.106400 2.673200
16.141400 2.859300
16.176500 2.867000
16.211500 2.897400
16.246500 3.137800
16.281600 3.643600
16.316600 4.348500
16.351700 3.838900
16.386700 3.339900
16.421700 3.139100
16.456800 2.999600
16.491800 2.880600
16.526900 2.770500
16.561900 2.760400
16.597000 2.757700
16.632000 2.762700
16.667000 2.902500
16.702100 3.114900
16.737100 3.741500
16.772200 4.000400
16.807200 3.880300
16.842300 3.774000
16.877300 3.832400
16.912300 3.934200
16.947400 4.079000
16.982400 4.345100
17.017500 4.324900
17.052500 4.365900
17.087600 3.845300
17.122600 3.699700
17.157600 3.540300
17.192700 3.353500
17.227700 3.220300
17.262800 3.083100
17.297800 2.880900
17.332800 2.770500
17.367900 2.698300
17.402900 2.609500
17.438000 2.741400
17.473000 3.015900
17.508100 3.443200
17.543100 3.946200
17.578100 3.555100
17.613200 3.445900
17.648200 3.403700
17.683300 3.067700
17.718300 2.924900
17.753400 3.205500
17.788400 2.669400
17.823400 2.630900
17.858500 2.661300
17.893500 2.841800
17.928600 2.791500
17.963600 2.762900
17.998700 2.699100
18.033700 2.852200
18.068700 3.070500
18.103800 3.363800
18.138800 3.827700
18.173900 3.794600
18.208900 3.672700
18.243900 3.518200
18.279000 3.582600
18.314000 3.423400
18.349100 3.107900
18.384100 2.942300
18.419200 2.700200
18.454200 2.636300
18.489200 2.715200
18.524300 2.900700
18.559300 3.503100
18.594400 3.366400
18.629400 3.017800
18.664500 2.952200
18.699500 2.928300
18.734500 3.143400
18.769600 3.317500
18.804600 3.549200
18.839700 3.559600
18.874700 3.550800
18.909700 3.566800
18.944800 3.194600
18.979800 2.976100
19.014900 2.793900
19.049900 2.669500
19.085000 2.594200
19.120000 2.595800
19.155000 2.614600
19.190100 2.736300
19.225100 2.700700
19.260200 2.656100
19.295200 2.642700
19.330300 2.791600
19.365300 2.509300
19.400300 2.393000
19.435400 2.339700
19.470400 2.343400
19.505500 2.384600
19.540500 2.572900
19.575600 2.723000
19.610600 2.686700
19.645600 2.683800
19.680700 2.680900
19.715700 2.707100
19.750800 2.750900
19.785800 2.722400
19.820800 2.793500
19.855900 2.966400
19.890900 3.706700
19.926000 3.984700
19.961000 3.698600
19.996100 3.194000
20.031100 2.704500
20.066100 2.545500
20.101200 2.414000
20.136200 2.338600
20.171300 2.359500
20.206300 2.438600
20.241400 2.656400
20.276400 2.942400
20.311400 3.259500
20.346500 3.669300
20.381500 4.011600
20.416600 4.183300
20.451600 4.372700
20.486700 4.289200
20.521700 3.948700
20.556700 3.599600
20.591800 3.491100
20.626800 3.504900
20.661900 3.523700
20.696900 3.545800
20.731900 3.426800
20.767000 3.429800
20.802000 3.515400
20.837100 3.541100
20.872100 3.485100
20.907200 3.382300
20.942200 3.308800
20.977200 3.020100
21.012300 2.726900
21.047300 2.594300
21.082400 2.402600
21.117400 2.196500
21.152500 2.103800
21.187500 2.102900
21.222500 2.126500
21.257600 2.164100
21.292600 2.244300
21.327700 2.378100
21.362700 2.439800
21.397800 2.474200
21.432800 2.484300
21.467800 2.425500
21.502900 2.318900
21.537900 2.526200
21.573000 2.049200
21.608000 1.968700
21.643000 1.937800
21.678100 2.050300
21.713100 2.131500
21.748200 2.241900
21.783200 2.406800
21.818300 2.532100
21.853300 2.710700
21.888300 2.820800
21.923400 2.996700
21.958400 3.337300
21.993500 3.605100
22.028500 3.518500
22.063600 3.580300
22.098600 3.444200
22.133600 3.390800
22.168700 3.319900
22.203700 3.205900
22.238800 3.225800
22.273800 3.068500
22.308800 2.777900
22.343900 2.602700
22.378900 2.640400
22.414000 2.789100
22.449000 2.860300
22.484100 2.984800
22.519100 3.026800
22.554100 3.115900
22.589200 2.961900
22.624200 2.920700
22.659300 2.988300
22.694300 3.092900
22.729400 3.161700
22.764400 3.152300
22.799400 3.075800
22.834500 2.985900
22.869500 2.905000
22.904600 2.819400
22.939600 2.744500
22.974700 2.751100
23.009700 2.733100
23.044700 2.873000
23.079800 2.914000
23.114800 2.968000
23.149900 3.140000
23.184900 3.143600
23.219900 2.963000
23.255000 2.972800
23.290000 2.979600
23.325100 3.143100
23.360100 3.238800
23.395200 3.329200
23.430200 3.448000
23.465200 3.232700
23.500300 3.273400
23.535300 3.424200
23.570400 3.521200
23.605400 3.572700
23.640500 3.609100
23.675500 3.600400
23.710500 3.541900
23.745600 3.401200
23.780600 3.193500
23.815700 2.997900
23.850700 3.013200
23.885800 3.055000
23.920800 3.117100
23.955800 3.256600
23.990900 2.860900
24.025900 2.801200
24.061000 2.744900
24.096000 2.751300
24.131000 2.805600
24.166100 2.886600
24.201100 2.994100
24.236200 2.878400
24.271200 2.694400
24.306300 2.610600
24.341300 2.571300
24.376300 2.587100
24.411400 2.569400
24.446400 2.403600
24.481500 2.219300
24.516500 2.111500
24.551600 2.084900
24.586600 2.111500
24.621600 2.224600
24.656700 2.362200
24.691700 2.539700
24.726800 2.733600
24.761800 2.915800
24.796900 3.241500
24.831900 3.375200
24.866900 3.265200
24.902000 2.743600
24.937000 2.635300
24.972100 2.585900
25.007100 2.566600
25.042100 2.559600
25.077200 2.544900
25.112200 2.555700
25.147300 2.590200
25.182300 2.690800
25.217400 2.672400
25.252400 2.636600
25.287400 2.614400
25.322500 2.618600
25.357500 2.628800
25.392600 2.736500
25.427600 2.886000
25.462700 2.930300
25.497700 2.933000
25.532700 2.947800
25.567800 2.876600
25.602800 2.849700
25.637900 2.764800
25.672900 2.628100
25.707900 2.673500
25.743000 2.783700
25.778000 2.844800
25.813100 2.877800
25.848100 2.666500
25.883200 2.549500
25.918200 2.493600
25.953200 2.479700
25.988300 2.522200
26.023300 2.655900
26.058400 2.537900
26.093400 2.524300
26.128500 2.562200
26.163500 2.627500
26.198500 2.800100
26.233600 2.934300
26.268600 3.105500
26.303700 3.034000
26.338700 2.923600
26.373800 2.828500
26.408800 2.781700
26.443800 2.845300
26.478900 2.923500
26.513900 3.025500
26.549000 3.106200
26.584000 2.982700
26.619000 2.931600
26.654100 2.839900
26.689100 2.763900
26.724200 2.667300
26.759200 2.607900
26.794300 2.579700
26.829300 2.487700
26.864300 2.432900
26.899400 2.392300
26.934400 2.319600
26.969500 2.304900
27.004500 2.289600
27.039600 2.291700
27.074600 2.338900
27.109600 2.430700
27.144700 2.446800
27.179700 2.425700
27.214800 2.491400
27.249800 2.592100
27.284900 2.629700
27.319900 2.641700
27.354900 2.690100
27.390000 2.717500
27.425000 2.757400
27.460100 2.849800
27.495100 3.082100
27.530100 3.200400
27.565200 3.418100
27.600200 3.572700
27.635300 3.448700
27.670300 3.487300
27.705400 3.393800
27.740400 3.402100
27.775400 3.406600
27.810500 3.423900
27.845500 3.519500
27.880600 3.597500
27.915600 3.544200
27.950700 3.458000
27.985700 3.429800
28.020700 3.321300
28.055800 3.171800
28.090800 3.017100
28.125900 2.931900
28.160900 2.876200
28.196000 2.857000
28.231000 2.933500
28.266000 3.022700
28.301100 3.136400
28.336100 3.345500
28.371200 3.579800
28.406200 3.656000
28.441200 3.647100
28.476300 3.626000
28.511300 3.598600
28.546400 3.620800
28.581400 3.661700
28.616500 3.582000
28.651500 3.512300
28.686500 3.461100
28.721600 3.423900
28.756600 3.394100
28.791700 3.354100
28.826700 3.288700
28.861800 3.278300
28.896800 3.173600
28.931800 3.029800
28.966900 2.976400
29.001900 2.958800
29.037000 2.984200
29.072000 2.990900
29.107000 2.961600
29.142100 2.902300
29.177100 2.873800
29.212200 2.840100
29.247200 2.799800
29.282300 2.818100
29.317300 2.748900
29.352300 2.731700
29.387400 2.749700
29.422400 2.733200
29.457500 2.737200
29.492500 2.771100
29.527600 2.826800
29.562600 3.007200
29.597600 3.049400
29.632700 2.899900
29.667700 2.976700
29.702800 3.083800
29.737800 3.314600
29.772900 3.532500
29.807900 3.682000
29.842900 3.893000
29.878000 4.013500
29.913000 4.128200
29.948100 4.438300
29.983100 4.492900
30.018100 3.943600
30.053200 3.618100
30.088200 3.493700
30.123300 3.285300
30.158300 3.165200
30.193400 3.161000
30.228400 3.498000
30.263400 3.843300
30.298500 4.717800
30.333500 3.627300
30.368600 3.556700
30.403600 3.592700
30.438700 3.709500
30.473700 3.936700
30.508700 4.062600
30.543800 4.116900
30.578800 4.033700
30.613900 4.089500
30.648900 3.907700
30.684000 3.707100
30.719000 3.561000
30.754000 3.445300
30.789100 3.425800
30.824100 3.407300
30.859200 3.399800
30.894200 3.406800
30.929200 3.524800
30.964300 3.722600
30.999300 3.979200
31.034400 4.159400
31.069400 4.103200
31.104500 3.934900
31.139500 3.768600
31.174500 3.822000
31.209600 3.153800
31.244600 2.689200
31.279700 2.434700
31.314700 2.332400
31.349800 2.167700
31.384800 2.036800
31.419800 1.992800
31.454900 1.971600
31.489900 1.942400
31.525000 1.823100
31.560000 1.714300
31.595100 1.651600
31.630100 1.609100
31.665100 1.529300
31.700200 1.372700
31.735200 1.273400
31.770300 1.166300
31.805300 1.016300
31.840300 0.934200
31.875400 0.880700
31.910400 0.827800
31.945500 0.789000
31.980500 0.733000
32.015600 0.707400
32.050600 0.746600
32.085600 0.580500
32.120700 0.495500
32.155700 0.459200
32.190800 0.427600
32.225800 0.398600
32.260900 0.370600
32.295900 0.343400
32.330900 0.316900
32.366000 0.299300
32.401000 0.241000
32.436100 0.209800
32.471100 0.190100
32.506100 0.185800
32.541200 0.199000
32.576200 0.166200
32.611300 0.149600
32.646300 0.135200
32.681400 0.123000
32.716400 0.113100
32.751400 0.105300
32.786500 0.099000
32.821500 0.094300
32.856600 0.093600
32.891600 0.093600
32.926700 0.085800
32.961700 0.076100
32.996700 0.065800
33.031800 0.056000
33.066800 0.046900
33.101900 0.038400
33.136900 0.030600
33.172000 0.023300
33.207000 0.016700
33.242000 0.000000
33.277100 0.000000
33.312100 0.000000
33.347200 0.000000
33.382200 0.000000
33.417200 0.000000
33.452300 0.000000
33.487300 0.000000
33.522400 0.000000
33.557400 0.000000
33.592500 0.000000
33.627500 0.000000
33.662500 0.000000
33.697600 0.000000
33.732600 0.000000
33.767700 0.000000
33.802700 0.000000
33.837800 0.000000
33.872800 0.000000
33.907800 0.000000
33.942900 0.000000
33.977900 0.000000
34.013000 0.000000
34.048000 0.000000
34.083100 0.000000
34.118100 0.000000
34.153100 0.000000
34.188200 0.000000
34.223200 0.000000
34.258300 0.000000
34.293300 0.000000
34.328300 0.000000
34.363400 0.000000
34.398400 0.000000
34.433500 0.000000
34.468500 0.000000
34.503600 0.000000
34.538600 0.000000
34.573600 0.000000
34.608700 0.000000
34.643700 0.000000
34.678800 0.000000
34.713800 0.000000
34.748900 0.000000
34.783900 0.000000
34.818900 0.000000
34.854000 0.000000
34.889000 0.000000
34.924100 0.000000
34.959100 0.000000
34.994200 0.000000
35.029200 0.000000
35.064200 0.000000
35.099300 0.000000
35.134300 0.000000
35.169400 0.000000
35.204400 0.000000
35.239400 0.000000
35.274500 0.000000
35.309500 0.000000
35.344600 0.000000
35.379600 0.000000
35.414700 0.000000
35.449700 0.000000
35.484700 0.000000
35.519800 0.000000
35.554800 0.000000
35.589900 0.000000
35.624900 0.000000
35.660000 0.000000
35.695000 0.000000
35.730000 0.000000
35.765100 0.000000
35.800100 0.000000
35.835200 0.000000
35.870200 0.000000
35.905200 0.000000
35.940300 0.000000
35.975300 0.000000
36.010400 0.000000
36.045400 0.000000
36.080500 0.000000
36.115500 0.000000
36.150500 0.000000
36.185600 0.000000
36.220600 0.000000
36.255700 0.000000
36.290700 0.000000
36.325800 0.000000
36.360800 0.000000
36.395800 0.000000
e
