set title 'mp-2611 - Density of States'
set xlabel 'Energy (eV)'
set ylabel 'DOS (states/eV)'
set grid
set xrange [-10:10]
set yrange [0:14.003]
set xzeroaxis lt -1
set terminal png size 800,600
set output 'mp-2611_dos_gnuplot.png'
plot '-' using 1:2 with lines title 'DOS'
-26.777000 0.000000
-26.756100 0.000000
-26.735200 0.000000
-26.714300 0.000000
-26.693300 0.000000
-26.672400 0.000000
-26.651500 0.000000
-26.630500 0.000000
-26.609600 0.000000
-26.588700 0.000000
-26.567800 0.000000
-26.546800 0.000000
-26.525900 0.000000
-26.505000 0.000000
-26.484000 0.000000
-26.463100 0.000000
-26.442200 0.000000
-26.421300 0.000000
-26.400300 0.000000
-26.379400 0.000000
-26.358500 0.000000
-26.337600 0.000000
-26.316600 0.000000
-26.295700 0.000000
-26.274800 0.000000
-26.253800 0.000000
-26.232900 0.000000
-26.212000 0.000000
-26.191100 0.000000
-26.170100 0.000000
-26.149200 0.000000
-26.128300 0.000000
-26.107300 0.000000
-26.086400 0.000000
-26.065500 0.000000
-26.044600 0.000000
-26.023600 0.000000
-26.002700 0.000000
-25.981800 0.000000
-25.960900 0.000000
-25.939900 0.000000
-25.919000 0.000000
-25.898100 0.000000
-25.877100 0.000000
-25.856200 0.000000
-25.835300 0.000000
-25.814400 0.000000
-25.793400 0.000000
-25.772500 0.000000
-25.751600 0.000000
-25.730700 0.000000
-25.709700 0.000000
-25.688800 0.000000
-25.667900 0.000000
-25.646900 0.000000
-25.626000 0.000000
-25.605100 0.000000
-25.584200 0.000000
-25.563200 0.000000
-25.542300 0.000000
-25.521400 0.000000
-25.500400 0.000000
-25.479500 0.000000
-25.458600 0.000000
-25.437700 0.000000
-25.416700 0.000000
-25.395800 0.000000
-25.374900 0.000000
-25.354000 0.000000
-25.333000 0.000000
-25.312100 0.000000
-25.291200 0.000000
-25.270200 0.000000
-25.249300 0.000000
-25.228400 0.000000
-25.207500 0.000000
-25.186500 0.000000
-25.165600 0.000000
-25.144700 0.000000
-25.123700 0.000000
-25.102800 0.000000
-25.081900 0.000000
-25.061000 0.000000
-25.040000 0.000000
-25.019100 0.000000
-24.998200 0.000000
-24.977300 0.000000
-24.956300 0.000000
-24.935400 0.000000
-24.914500 0.000000
-24.893500 0.000000
-24.872600 16.021200
-24.851700 102.476100
-24.830800 0.000000
-24.809800 0.000000
-24.788900 0.000000
-24.768000 0.000000
-24.747100 0.000000
-24.726100 0.000000
-24.705200 0.000000
-24.684300 0.000000
-24.663300 0.000000
-24.642400 0.000000
-24.621500 0.000000
-24.600600 0.000000
-24.579600 0.000000
-24.558700 0.000000
-24.537800 0.000000
-24.516800 0.000000
-24.495900 0.000000
-24.475000 0.000000
-24.454100 0.000000
-24.433100 0.000000
-24.412200 0.000000
-24.391300 0.000000
-24.370400 0.000000
-24.349400 0.000000
-24.328500 0.000000
-24.307600 0.000000
-24.286600 0.000000
-24.265700 0.000000
-24.244800 0.000000
-24.223900 0.000000
-24.202900 0.000000
-24.182000 0.000000
-24.161100 0.000000
-24.140100 0.000000
-24.119200 0.000000
-24.098300 0.000000
-24.077400 0.000000
-24.056400 0.000000
-24.035500 0.000000
-24.014600 0.000000
-23.993700 0.000000
-23.972700 0.000000
-23.951800 0.000000
-23.930900 0.000000
-23.909900 0.000000
-23.889000 0.000000
-23.868100 0.000000
-23.847200 0.000000
-23.826200 0.000000
-23.805300 0.000000
-23.784400 0.000000
-23.763400 0.000000
-23.742500 0.000000
-23.721600 0.000000
-23.700700 0.000000
-23.679700 0.000000
-23.658800 0.000000
-23.637900 0.000000
-23.617000 0.000000
-23.596000 0.000000
-23.575100 0.000000
-23.554200 0.000000
-23.533200 0.000000
-23.512300 0.000000
-23.491400 0.000000
-23.470500 0.000000
-23.449500 0.000000
-23.428600 0.000000
-23.407700 0.000000
-23.386800 0.000000
-23.365800 0.000000
-23.344900 0.000000
-23.324000 0.000000
-23.303000 0.000000
-23.282100 0.000000
-23.261200 0.000000
-23.240300 0.000000
-23.219300 0.000000
-23.198400 0.000000
-23.177500 0.000000
-23.156500 0.000000
-23.135600 0.000000
-23.114700 0.000000
-23.093800 0.000000
-23.072800 0.000000
-23.051900 0.000000
-23.031000 0.000000
-23.010100 0.000000
-22.989100 0.000000
-22.968200 0.000000
-22.947300 0.000000
-22.926300 0.000000
-22.905400 0.000000
-22.884500 0.000000
-22.863600 0.000000
-22.842600 0.000000
-22.821700 0.000000
-22.800800 0.000000
-22.779800 0.000000
-22.758900 0.000000
-22.738000 0.000000
-22.717100 0.000000
-22.696100 0.000000
-22.675200 0.000000
-22.654300 0.000000
-22.633400 0.000000
-22.612400 0.000000
-22.591500 0.000000
-22.570600 0.000000
-22.549600 0.000000
-22.528700 0.000000
-22.507800 0.000000
-22.486900 0.000000
-22.465900 0.000000
-22.445000 0.000000
-22.424100 0.000000
-22.403200 0.000000
-22.382200 0.000000
-22.361300 0.000000
-22.340400 0.000000
-22.319400 0.000000
-22.298500 0.000000
-22.277600 0.000000
-22.256700 0.000000
-22.235700 0.000000
-22.214800 0.000000
-22.193900 0.000000
-22.172900 0.000000
-22.152000 0.000000
-22.131100 0.000000
-22.110200 0.000000
-22.089200 0.000000
-22.068300 0.000000
-22.047400 0.000000
-22.026500 0.000000
-22.005500 0.000000
-21.984600 0.000000
-21.963700 0.000000
-21.942700 0.000000
-21.921800 0.000000
-21.900900 0.000000
-21.880000 0.000000
-21.859000 0.000000
-21.838100 0.000000
-21.817200 0.000000
-21.796200 0.000000
-21.775300 0.000000
-21.754400 0.000000
-21.733500 0.000000
-21.712500 0.000000
-21.691600 68.517700
-21.670700 0.000000
-21.649800 206.338000
-21.628800 110.124000
-21.607900 92.985300
-21.587000 278.961400
-21.566000 170.927000
-21.545100 235.793500
-21.524200 141.892000
-21.503300 195.013400
-21.482300 0.000000
-21.461400 0.000000
-21.440500 211.639400
-21.419600 0.000000
-21.398600 0.000000
-21.377700 0.000000
-21.356800 0.000000
-21.335800 0.000000
-21.314900 0.000000
-21.294000 0.000000
-21.273100 0.000000
-21.252100 0.000000
-21.231200 0.000000
-21.210300 0.000000
-21.189300 0.000000
-21.168400 0.000000
-21.147500 0.000000
-21.126600 0.000000
-21.105600 0.000000
-21.084700 0.000000
-21.063800 0.000000
-21.042900 0.000000
-21.021900 0.000000
-21.001000 0.000000
-20.980100 0.000000
-20.959100 0.000000
-20.938200 0.000000
-20.917300 0.000000
-20.896400 0.000000
-20.875400 0.000000
-20.854500 0.000000
-20.833600 0.000000
-20.812600 0.000000
-20.791700 0.000000
-20.770800 0.000000
-20.749900 0.000000
-20.728900 0.000000
-20.708000 0.000000
-20.687100 0.000000
-20.666200 0.000000
-20.645200 0.000000
-20.624300 0.000000
-20.603400 0.000000
-20.582400 0.000000
-20.561500 0.000000
-20.540600 0.000000
-20.519700 0.000000
-20.498700 0.000000
-20.477800 0.000000
-20.456900 0.000000
-20.435900 0.000000
-20.415000 0.000000
-20.394100 0.000000
-20.373200 0.000000
-20.352200 0.000000
-20.331300 0.000000
-20.310400 0.000000
-20.289500 0.000000
-20.268500 0.000000
-20.247600 0.000000
-20.226700 0.000000
-20.205700 0.000000
-20.184800 0.000000
-20.163900 0.000000
-20.143000 0.000000
-20.122000 0.000000
-20.101100 0.000000
-20.080200 0.000000
-20.059300 0.000000
-20.038300 0.000000
-20.017400 0.000000
-19.996500 0.000000
-19.975500 0.000000
-19.954600 0.000000
-19.933700 0.000000
-19.912800 0.000000
-19.891800 0.000000
-19.870900 0.000000
-19.850000 0.000000
-19.829000 0.000000
-19.808100 0.000000
-19.787200 0.000000
-19.766300 0.000000
-19.745300 0.000000
-19.724400 0.000000
-19.703500 0.000000
-19.682600 0.000000
-19.661600 0.000000
-19.640700 0.000000
-19.619800 0.000000
-19.598800 0.000000
-19.577900 0.000000
-19.557000 0.000000
-19.536100 0.000000
-19.515100 0.000000
-19.494200 0.000000
-19.473300 0.000000
-19.452300 0.000000
-19.431400 0.000000
-19.410500 0.000000
-19.389600 0.000000
-19.368600 0.000000
-19.347700 0.000000
-19.326800 0.000000
-19.305900 0.000000
-19.284900 0.000000
-19.264000 0.000000
-19.243100 0.000000
-19.222100 0.000000
-19.201200 0.000000
-19.180300 0.000000
-19.159400 0.000000
-19.138400 0.000000
-19.117500 0.000000
-19.096600 0.000000
-19.075700 0.000000
-19.054700 0.000000
-19.033800 0.000000
-19.012900 0.000000
-18.991900 0.000000
-18.971000 0.000000
-18.950100 0.000000
-18.929200 0.000000
-18.908200 0.000000
-18.887300 0.000000
-18.866400 0.000000
-18.845400 0.000000
-18.824500 0.000000
-18.803600 0.000000
-18.782700 0.000000
-18.761700 0.000000
-18.740800 0.000000
-18.719900 0.000000
-18.699000 0.000000
-18.678000 0.000000
-18.657100 0.000000
-18.636200 0.000000
-18.615200 0.000000
-18.594300 0.000000
-18.573400 0.000000
-18.552500 0.000000
-18.531500 0.000000
-18.510600 0.000000
-18.489700 0.000000
-18.468700 0.000000
-18.447800 0.000000
-18.426900 0.000000
-18.406000 0.000000
-18.385000 0.000000
-18.364100 0.000000
-18.343200 0.000000
-18.322300 0.000000
-18.301300 0.000000
-18.280400 0.000000
-18.259500 0.000000
-18.238500 0.000000
-18.217600 0.000000
-18.196700 0.000000
-18.175800 0.000000
-18.154800 0.000000
-18.133900 0.000000
-18.113000 0.000000
-18.092100 0.000000
-18.071100 0.000000
-18.050200 0.000000
-18.029300 0.000000
-18.008300 0.000000
-17.987400 0.000000
-17.966500 0.000000
-17.945600 0.000000
-17.924600 0.000000
-17.903700 0.000000
-17.882800 0.000000
-17.861800 0.000000
-17.840900 0.000000
-17.820000 0.000000
-17.799100 0.000000
-17.778100 0.000000
-17.757200 0.000000
-17.736300 0.000000
-17.715400 0.000000
-17.694400 0.000000
-17.673500 0.000000
-17.652600 0.000000
-17.631600 0.000000
-17.610700 0.000000
-17.589800 0.000000
-17.568900 0.000000
-17.547900 0.000000
-17.527000 0.000000
-17.506100 0.000000
-17.485100 0.000000
-17.464200 0.000000
-17.443300 0.000000
-17.422400 0.000000
-17.401400 0.000000
-17.380500 0.000000
-17.359600 0.000000
-17.338700 0.000000
-17.317700 0.000000
-17.296800 0.000000
-17.275900 0.000000
-17.254900 0.000000
-17.234000 0.000000
-17.213100 0.000000
-17.192200 0.000000
-17.171200 0.000000
-17.150300 0.000000
-17.129400 0.000000
-17.108400 0.000000
-17.087500 0.000000
-17.066600 0.000000
-17.045700 0.000000
-17.024700 0.000000
-17.003800 0.000000
-16.982900 0.000000
-16.962000 0.000000
-16.941000 0.000000
-16.920100 0.000000
-16.899200 0.000000
-16.878200 0.000000
-16.857300 0.000000
-16.836400 0.000000
-16.815500 0.000000
-16.794500 0.000000
-16.773600 0.000000
-16.752700 0.000000
-16.731800 0.000000
-16.710800 0.000000
-16.689900 0.000000
-16.669000 0.000000
-16.648000 0.000000
-16.627100 0.000000
-16.606200 0.000000
-16.585300 0.000000
-16.564300 0.000000
-16.543400 0.000000
-16.522500 0.000000
-16.501500 0.000000
-16.480600 0.000000
-16.459700 0.000000
-16.438800 0.000000
-16.417800 0.000000
-16.396900 0.000000
-16.376000 0.000000
-16.355100 0.000000
-16.334100 0.000000
-16.313200 0.000000
-16.292300 0.000000
-16.271300 0.000000
-16.250400 0.000000
-16.229500 0.000000
-16.208600 0.000000
-16.187600 0.000000
-16.166700 0.000000
-16.145800 0.000000
-16.124800 0.000000
-16.103900 0.000000
-16.083000 0.000000
-16.062100 0.000000
-16.041100 0.000000
-16.020200 0.000000
-15.999300 0.000000
-15.978400 0.000000
-15.957400 0.000000
-15.936500 0.000000
-15.915600 0.000000
-15.894600 0.000000
-15.873700 0.000000
-15.852800 0.000000
-15.831900 0.000000
-15.810900 0.000000
-15.790000 0.000000
-15.769100 0.000000
-15.748200 0.000000
-15.727200 0.000000
-15.706300 0.000000
-15.685400 0.000000
-15.664400 0.000000
-15.643500 0.000000
-15.622600 0.000000
-15.601700 0.000000
-15.580700 0.000000
-15.559800 0.000000
-15.538900 0.000000
-15.517900 0.000000
-15.497000 0.000000
-15.476100 0.000000
-15.455200 0.000000
-15.434200 0.000000
-15.413300 0.000000
-15.392400 0.000000
-15.371500 0.000000
-15.350500 0.000000
-15.329600 0.000000
-15.308700 0.000000
-15.287700 0.000000
-15.266800 0.000000
-15.245900 0.000000
-15.225000 0.000000
-15.204000 0.000000
-15.183100 0.000000
-15.162200 0.000000
-15.141200 0.000000
-15.120300 0.000000
-15.099400 0.000000
-15.078500 0.000000
-15.057500 0.000000
-15.036600 0.000000
-15.015700 0.000000
-14.994800 0.000000
-14.973800 0.000000
-14.952900 0.000000
-14.932000 0.000000
-14.911000 0.000000
-14.890100 0.000000
-14.869200 0.000000
-14.848300 0.000000
-14.827300 0.000000
-14.806400 0.000000
-14.785500 0.000000
-14.764600 0.000000
-14.743600 0.000000
-14.722700 0.000000
-14.701800 0.000000
-14.680800 0.000000
-14.659900 0.000000
-14.639000 0.000000
-14.618100 0.000000
-14.597100 0.000000
-14.576200 0.000000
-14.555300 0.000000
-14.534300 0.000000
-14.513400 0.000000
-14.492500 0.000000
-14.471600 0.000000
-14.450600 0.000000
-14.429700 0.000000
-14.408800 0.000000
-14.387900 0.000000
-14.366900 0.000000
-14.346000 0.000000
-14.325100 0.000000
-14.304100 0.000000
-14.283200 0.000000
-14.262300 0.000000
-14.241400 0.000000
-14.220400 0.000000
-14.199500 0.000000
-14.178600 0.000000
-14.157600 0.000000
-14.136700 0.000000
-14.115800 0.000000
-14.094900 0.000000
-14.073900 0.000000
-14.053000 0.000000
-14.032100 0.000000
-14.011200 0.000000
-13.990200 0.000000
-13.969300 0.000000
-13.948400 0.000000
-13.927400 0.000000
-13.906500 0.000000
-13.885600 0.000000
-13.864700 0.000000
-13.843700 0.000000
-13.822800 0.000000
-13.801900 0.000000
-13.780900 0.000000
-13.760000 0.000000
-13.739100 0.000000
-13.718200 0.000000
-13.697200 0.000000
-13.676300 0.000000
-13.655400 0.000000
-13.634500 0.000000
-13.613500 0.000000
-13.592600 0.000000
-13.571700 0.000000
-13.550700 0.000000
-13.529800 0.000000
-13.508900 0.000000
-13.488000 0.000000
-13.467000 0.000000
-13.446100 0.000000
-13.425200 0.000000
-13.404300 0.000000
-13.383300 0.000000
-13.362400 0.000000
-13.341500 0.000000
-13.320500 0.000000
-13.299600 0.000000
-13.278700 0.000000
-13.257800 0.000000
-13.236800 0.000000
-13.215900 0.000000
-13.195000 0.000000
-13.174000 0.000000
-13.153100 0.000000
-13.132200 0.000000
-13.111300 0.000000
-13.090300 0.000000
-13.069400 0.000000
-13.048500 0.000000
-13.027600 0.000000
-13.006600 0.000000
-12.985700 0.000000
-12.964800 0.000000
-12.943800 0.000000
-12.922900 0.000000
-12.902000 0.000000
-12.881100 0.000000
-12.860100 0.000000
-12.839200 0.000000
-12.818300 0.000000
-12.797300 0.000000
-12.776400 0.000000
-12.755500 0.000000
-12.734600 0.000000
-12.713600 0.000000
-12.692700 0.000000
-12.671800 0.000000
-12.650900 0.000000
-12.629900 0.000000
-12.609000 0.000000
-12.588100 0.000000
-12.567100 0.000000
-12.546200 0.000000
-12.525300 0.000000
-12.504400 0.000000
-12.483400 0.000000
-12.462500 0.000000
-12.441600 0.000000
-12.420700 0.000000
-12.399700 0.000000
-12.378800 0.000000
-12.357900 0.000000
-12.336900 0.000000
-12.316000 0.000000
-12.295100 0.000000
-12.274200 0.000000
-12.253200 0.000000
-12.232300 0.000000
-12.211400 0.000000
-12.190400 0.000000
-12.169500 0.000000
-12.148600 0.000000
-12.127700 0.000000
-12.106700 0.000000
-12.085800 0.000000
-12.064900 0.000000
-12.044000 0.000000
-12.023000 0.000000
-12.002100 0.000000
-11.981200 0.000000
-11.960200 0.000000
-11.939300 0.000000
-11.918400 0.000000
-11.897500 0.000000
-11.876500 0.000000
-11.855600 0.000000
-11.834700 0.000000
-11.813700 0.000000
-11.792800 0.000000
-11.771900 0.000000
-11.751000 0.000000
-11.730000 0.000000
-11.709100 0.000000
-11.688200 0.000000
-11.667300 0.000000
-11.646300 0.000000
-11.625400 0.000000
-11.604500 0.000000
-11.583500 0.000000
-11.562600 0.000000
-11.541700 0.000000
-11.520800 0.000000
-11.499800 0.000000
-11.478900 0.000000
-11.458000 0.000000
-11.437000 0.000000
-11.416100 0.000000
-11.395200 0.000000
-11.374300 0.000000
-11.353300 0.000000
-11.332400 0.000000
-11.311500 0.000000
-11.290600 0.000000
-11.269600 0.000000
-11.248700 0.000000
-11.227800 0.000000
-11.206800 0.000000
-11.185900 0.000000
-11.165000 0.000000
-11.144100 0.000000
-11.123100 0.000000
-11.102200 0.000000
-11.081300 0.000000
-11.060400 0.000000
-11.039400 0.000000
-11.018500 0.000000
-10.997600 0.000000
-10.976600 0.000000
-10.955700 0.000000
-10.934800 0.000000
-10.913900 0.000000
-10.892900 0.000000
-10.872000 0.000000
-10.851100 0.000000
-10.830100 0.000000
-10.809200 0.000000
-10.788300 0.000000
-10.767400 0.000000
-10.746400 0.000000
-10.725500 0.000000
-10.704600 0.000000
-10.683700 0.000000
-10.662700 0.000000
-10.641800 0.000000
-10.620900 0.000000
-10.599900 0.113600
-10.579000 6.386000
-10.558100 6.628700
-10.537200 8.141200
-10.516200 9.740600
-10.495300 11.746500
-10.474400 15.846000
-10.453400 17.137900
-10.432500 24.850400
-10.411600 27.286800
-10.390700 35.177300
-10.369700 8.834300
-10.348800 6.793400
-10.327900 16.116800
-10.307000 20.919300
-10.286000 23.956000
-10.265100 27.117000
-10.244200 29.938700
-10.223200 37.654400
-10.202300 32.670400
-10.181400 36.838700
-10.160500 27.361600
-10.139500 32.246100
-10.118600 42.768300
-10.097700 32.086800
-10.076800 16.976200
-10.055800 12.329900
-10.034900 9.863300
-10.014000 0.000000
-9.993000 0.000000
-9.972100 0.000000
-9.951200 0.000000
-9.930300 0.000000
-9.909300 0.000000
-9.888400 0.000000
-9.867500 0.000000
-9.846500 0.000000
-9.825600 0.000000
-9.804700 0.000000
-9.783800 0.000000
-9.762800 0.000000
-9.741900 0.000000
-9.721000 0.000000
-9.700100 0.000000
-9.679100 0.000000
-9.658200 0.000000
-9.637300 0.000000
-9.616300 0.000000
-9.595400 0.000000
-9.574500 0.000000
-9.553600 0.000000
-9.532600 0.000000
-9.511700 0.000000
-9.490800 0.000000
-9.469800 0.000000
-9.448900 0.000000
-9.428000 0.000000
-9.407100 0.000000
-9.386100 0.000000
-9.365200 0.000000
-9.344300 0.000000
-9.323400 0.000000
-9.302400 0.000000
-9.281500 0.000000
-9.260600 0.000000
-9.239600 0.000000
-9.218700 0.000000
-9.197800 0.000000
-9.176900 0.000000
-9.155900 0.000000
-9.135000 0.000000
-9.114100 0.000000
-9.093200 0.000000
-9.072200 0.000000
-9.051300 0.000000
-9.030400 0.000000
-9.009400 0.000000
-8.988500 0.000000
-8.967600 0.000000
-8.946700 0.000000
-8.925700 0.000000
-8.904800 0.000000
-8.883900 0.000000
-8.862900 0.000000
-8.842000 0.000000
-8.821100 0.000000
-8.800200 0.000000
-8.779200 0.000000
-8.758300 0.000000
-8.737400 0.000000
-8.716500 0.000000
-8.695500 0.000000
-8.674600 0.000000
-8.653700 0.000000
-8.632700 0.000000
-8.611800 0.000000
-8.590900 0.000000
-8.570000 0.000000
-8.549000 0.000000
-8.528100 0.000000
-8.507200 0.000000
-8.486200 0.000000
-8.465300 0.000000
-8.444400 0.000000
-8.423500 0.000000
-8.402500 0.000000
-8.381600 0.000000
-8.360700 0.000000
-8.339800 0.000000
-8.318800 0.000000
-8.297900 0.000000
-8.277000 0.000000
-8.256000 0.000000
-8.235100 0.000000
-8.214200 0.000000
-8.193300 0.000000
-8.172300 0.000000
-8.151400 0.000000
-8.130500 0.000000
-8.109500 0.000000
-8.088600 0.000000
-8.067700 0.000000
-8.046800 0.000000
-8.025800 0.000000
-8.004900 0.000000
-7.984000 0.000000
-7.963100 0.000000
-7.942100 0.000000
-7.921200 0.000000
-7.900300 0.000000
-7.879300 0.000000
-7.858400 0.000000
-7.837500 0.001200
-7.816600 0.033200
-7.795600 0.108300
-7.774700 0.209800
-7.753800 0.233600
-7.732900 0.256200
-7.711900 0.293000
-7.691000 0.333900
-7.670100 0.376100
-7.649100 0.417500
-7.628200 0.446300
-7.607300 0.477400
-7.586400 0.510200
-7.565400 0.543800
-7.544500 0.577800
-7.523600 0.612400
-7.502600 0.646400
-7.481700 0.683500
-7.460800 0.724400
-7.439900 0.766600
-7.418900 0.806800
-7.398000 0.846500
-7.377100 0.886900
-7.356200 0.927700
-7.335200 0.975400
-7.314300 1.026100
-7.293400 1.079900
-7.272400 1.140100
-7.251500 1.204700
-7.230600 1.267700
-7.209700 1.347500
-7.188700 1.436600
-7.167800 1.499700
-7.146900 1.556700
-7.125900 1.627700
-7.105000 1.696200
-7.084100 1.764300
-7.063200 1.911600
-7.042200 1.975900
-7.021300 2.105800
-7.000400 2.240300
-6.979500 2.362500
-6.958500 2.591700
-6.937600 2.845700
-6.916700 3.113300
-6.895700 3.493200
-6.874800 3.908800
-6.853900 4.834200
-6.833000 6.277900
-6.812000 6.059700
-6.791100 5.021300
-6.770200 4.127800
-6.749300 3.637000
-6.728300 3.310000
-6.707400 2.885400
-6.686500 2.495300
-6.665500 2.200800
-6.644600 2.056800
-6.623700 1.828000
-6.602800 1.140300
-6.581800 0.989700
-6.560900 0.779200
-6.540000 0.838500
-6.519000 1.086300
-6.498100 1.381000
-6.477200 1.998900
-6.456300 2.142800
-6.435300 2.137700
-6.414400 2.160000
-6.393500 2.233500
-6.372600 2.273800
-6.351600 2.327300
-6.330700 2.351200
-6.309800 2.355900
-6.288800 2.388100
-6.267900 2.416900
-6.247000 2.438600
-6.226100 2.453900
-6.205100 2.449000
-6.184200 2.420400
-6.163300 2.426600
-6.142300 2.423200
-6.121400 2.420200
-6.100500 2.434400
-6.079600 2.430100
-6.058600 2.410400
-6.037700 2.412800
-6.016800 2.420900
-5.995900 2.412900
-5.974900 2.332500
-5.954000 2.180700
-5.933100 1.896000
-5.912100 1.704700
-5.891200 1.612800
-5.870300 1.521000
-5.849400 1.433700
-5.828400 1.316400
-5.807500 1.252900
-5.786600 1.194200
-5.765700 1.140600
-5.744700 1.092800
-5.723800 1.051800
-5.702900 1.021600
-5.681900 1.056000
-5.661000 1.034000
-5.640100 1.023200
-5.619200 0.972800
-5.598200 0.873700
-5.577300 0.734400
-5.556400 0.555600
-5.535400 0.351600
-5.514500 0.179000
-5.493600 0.074400
-5.472700 0.017700
-5.451700 0.000400
-5.430800 0.000000
-5.409900 0.000000
-5.389000 0.000000
-5.368000 0.000900
-5.347100 0.014400
-5.326200 0.058700
-5.305200 0.168500
-5.284300 0.361700
-5.263400 0.602800
-5.242500 0.992300
-5.221500 1.303600
-5.200600 1.356000
-5.179700 1.397700
-5.158700 1.423100
-5.137800 1.437200
-5.116900 1.458900
-5.096000 1.478500
-5.075000 1.569000
-5.054100 1.638000
-5.033200 1.704600
-5.012300 1.799400
-4.991300 2.008700
-4.970400 2.280300
-4.949500 2.406700
-4.928500 2.456800
-4.907600 2.415200
-4.886700 2.355600
-4.865800 2.298800
-4.844800 2.205800
-4.823900 2.168500
-4.803000 2.135900
-4.782000 2.115700
-4.761100 2.095000
-4.740200 2.042800
-4.719300 1.994600
-4.698300 1.955000
-4.677400 1.921900
-4.656500 1.884900
-4.635600 1.845300
-4.614600 1.807600
-4.593700 1.756700
-4.572800 1.703100
-4.551800 1.654900
-4.530900 1.612400
-4.510000 1.570900
-4.489100 1.543100
-4.468100 1.535000
-4.447200 1.475900
-4.426300 1.376100
-4.405400 1.208100
-4.384400 1.110700
-4.363500 1.030600
-4.342600 0.960300
-4.321600 0.855700
-4.300700 0.804800
-4.279800 0.764400
-4.258900 0.731400
-4.237900 0.701700
-4.217000 0.684900
-4.196100 0.678200
-4.175100 0.681600
-4.154200 0.693600
-4.133300 0.709600
-4.112400 0.789700
-4.091400 0.819700
-4.070500 0.800800
-4.049600 0.772200
-4.028700 0.744400
-4.007700 0.787000
-3.986800 0.834300
-3.965900 0.815600
-3.944900 0.799400
-3.924000 0.791600
-3.903100 0.791200
-3.882200 0.795800
-3.861200 0.797500
-3.840300 0.798800
-3.819400 0.803500
-3.798400 0.815200
-3.777500 0.821500
-3.756600 0.822800
-3.735700 0.820700
-3.714700 0.826200
-3.693800 0.848600
-3.672900 0.868000
-3.652000 0.862700
-3.631000 0.847200
-3.610100 0.841900
-3.589200 0.839500
-3.568200 0.837100
-3.547300 0.837800
-3.526400 0.845700
-3.505500 0.853400
-3.484500 0.862400
-3.463600 0.873000
-3.442700 0.883800
-3.421800 0.939600
-3.400800 0.915900
-3.379900 0.908100
-3.359000 0.913900
-3.338000 0.927200
-3.317100 0.938700
-3.296200 0.947700
-3.275300 0.955300
-3.254300 0.962100
-3.233400 0.966200
-3.212500 0.971700
-3.191500 0.988500
-3.170600 1.008200
-3.149700 1.031200
-3.128800 1.057900
-3.107800 1.089300
-3.086900 1.124800
-3.066000 1.162700
-3.045100 1.203600
-3.024100 1.266100
-3.003200 1.336600
-2.982300 1.447800
-2.961300 1.455500
-2.940400 1.519000
-2.919500 1.672800
-2.898600 1.781300
-2.877600 1.885600
-2.856700 2.005600
-2.835800 2.164100
-2.814800 2.428800
-2.793900 2.550700
-2.773000 2.534800
-2.752100 2.184300
-2.731100 1.840000
-2.710200 1.612600
-2.689300 1.441000
-2.668400 1.333600
-2.647400 1.234800
-2.626500 1.137600
-2.605600 1.066000
-2.584600 0.997400
-2.563700 0.934000
-2.542800 0.898000
-2.521900 0.865100
-2.500900 0.832700
-2.480000 0.799100
-2.459100 0.764900
-2.438200 0.731700
-2.417200 0.699900
-2.396300 0.667600
-2.375400 0.634100
-2.354400 0.600600
-2.333500 0.572500
-2.312600 0.554000
-2.291700 0.538600
-2.270700 0.523700
-2.249800 0.509000
-2.228900 0.494300
-2.207900 0.479700
-2.187000 0.464800
-2.166100 0.449300
-2.145200 0.433100
-2.124200 0.419300
-2.103300 0.405200
-2.082400 0.391300
-2.061500 0.377600
-2.040500 0.363500
-2.019600 0.347700
-1.998700 0.333000
-1.977700 0.320600
-1.956800 0.309900
-1.935900 0.299500
-1.915000 0.289600
-1.894000 0.280100
-1.873100 0.271200
-1.852200 0.262500
-1.831200 0.254100
-1.810300 0.246000
-1.789400 0.238100
-1.768500 0.230200
-1.747500 0.222400
-1.726600 0.214700
-1.705700 0.207200
-1.684800 0.199700
-1.663800 0.191500
-1.642900 0.182500
-1.622000 0.172700
-1.601000 0.165100
-1.580100 0.158700
-1.559200 0.152400
-1.538300 0.146000
-1.517300 0.139600
-1.496400 0.133200
-1.475500 0.126800
-1.454500 0.120700
-1.433600 0.114800
-1.412700 0.109100
-1.391800 0.103600
-1.370800 0.098300
-1.349900 0.093200
-1.329000 0.088300
-1.308100 0.083700
-1.287100 0.079500
-1.266200 0.075900
-1.245300 0.073900
-1.224300 0.072000
-1.203400 0.067600
-1.182500 0.060800
-1.161600 0.051700
-1.140600 0.040100
-1.119700 0.032600
-1.098800 0.026000
-1.077900 0.020200
-1.056900 0.015100
-1.036000 0.010700
-1.015100 0.007100
-0.994100 0.004300
-0.973200 0.002100
-0.952300 0.000700
-0.931400 0.000100
-0.910400 0.000000
-0.889500 0.000000
-0.868600 0.000000
-0.847600 0.000000
-0.826700 0.000000
-0.805800 0.000000
-0.784900 0.000000
-0.763900 0.000000
-0.743000 0.000000
-0.722100 0.000000
-0.701200 0.000000
-0.680200 0.000800
-0.659300 0.082400
-0.638400 0.261200
-0.617400 0.492100
-0.596500 0.722000
-0.575600 0.919900
-0.554700 1.132000
-0.533700 1.373100
-0.512800 1.767900
-0.491900 2.177300
-0.470900 2.684800
-0.450000 3.174900
-0.429100 3.835600
-0.408200 4.528700
-0.387200 4.823300
-0.366300 4.991800
-0.345400 5.121900
-0.324500 5.507900
-0.303500 6.980500
-0.282600 6.125300
-0.261700 5.342700
-0.240700 4.719900
-0.219800 4.313300
-0.198900 3.894700
-0.178000 3.612200
-0.157000 4.133400
-0.136100 3.084900
-0.115200 3.192100
-0.094300 3.862000
-0.073300 6.197900
-0.052400 8.600100
-0.031500 8.521500
-0.010500 7.598700
0.010400 6.893100
0.031300 6.134000
0.052200 5.008100
0.073200 4.549300
0.094100 4.124500
0.115000 3.691500
0.136000 3.396600
0.156900 3.031800
0.177800 2.862100
0.198700 2.708400
0.219700 2.564400
0.240600 2.447800
0.261500 2.488400
0.282400 2.692900
0.303400 1.898300
0.324300 1.663900
0.345200 1.554700
0.366200 1.516600
0.387100 1.554600
0.408000 1.499500
0.428900 1.507400
0.449900 1.510400
0.470800 1.493000
0.491700 1.532600
0.512700 1.628700
0.533600 1.694900
0.554500 1.954500
0.575400 2.204300
0.596400 2.351500
0.617300 2.756700
0.638200 2.973000
0.659100 2.949100
0.680100 2.972700
0.701000 3.046300
0.721900 3.086400
0.742900 3.097300
0.763800 3.186700
0.784700 3.375000
0.805600 3.668300
0.826600 3.694200
0.847500 3.654500
0.868400 3.533700
0.889400 3.401300
0.910300 3.477900
0.931200 3.468500
0.952100 3.377000
0.973100 3.153700
0.994000 2.910100
1.014900 2.653700
1.035800 2.154700
1.056800 1.801200
1.077700 1.533100
1.098600 1.358300
1.119600 1.232500
1.140500 1.119400
1.161400 1.083500
1.182300 0.938700
1.203300 0.874800
1.224200 0.862800
1.245100 1.033000
1.266000 1.285400
1.287000 1.683700
1.307900 2.145000
1.328800 2.489200
1.349800 2.682200
1.370700 3.036200
1.391600 3.620600
1.412500 3.813800
1.433500 4.592800
1.454400 5.703000
1.475300 5.995400
1.496300 6.267800
1.517200 6.852600
1.538100 7.427000
1.559000 7.477800
1.580000 7.707800
1.600900 8.569400
1.621800 9.840800
1.642700 12.730200
1.663700 8.205700
1.684600 4.887300
1.705500 4.337200
1.726500 5.154900
1.747400 5.641300
1.768300 5.237900
1.789200 5.842100
1.810200 6.447600
1.831100 7.572200
1.852000 7.043300
1.873000 6.962300
1.893900 6.457000
1.914800 6.196800
1.935700 5.814900
1.956700 5.052600
1.977600 4.485100
1.998500 4.035900
2.019400 3.768400
2.040400 3.478500
2.061300 3.426300
2.082200 3.385000
2.103200 3.178400
2.124100 2.888400
2.145000 2.627400
2.165900 2.492800
2.186900 2.455300
2.207800 2.468100
2.228700 2.496500
2.249600 2.653800
2.270600 2.954000
2.291500 3.218600
2.312400 3.313300
2.333400 3.250800
2.354300 3.120300
2.375200 2.871500
2.396100 2.715900
2.417100 2.643800
2.438000 2.581700
2.458900 2.574000
2.479900 2.564600
2.500800 2.523900
2.521700 2.569900
2.542600 2.533200
2.563600 2.396700
2.584500 2.240500
2.605400 2.095100
2.626300 1.962500
2.647300 1.882800
2.668200 1.892000
2.689100 1.903000
2.710100 2.212300
2.731000 2.501600
2.751900 2.490000
2.772800 2.427600
2.793800 2.350200
2.814700 2.289600
2.835600 2.250300
2.856600 2.161700
2.877500 2.078600
2.898400 2.009300
2.919300 2.061700
2.940300 2.151400
2.961200 2.231900
2.982100 2.261700
3.003000 2.239700
3.024000 2.228900
3.044900 2.199100
3.065800 2.138800
3.086800 2.153000
3.107700 2.196200
3.128600 2.242200
3.149500 2.259600
3.170500 2.232000
3.191400 2.229400
3.212300 2.313600
3.233200 2.205700
3.254200 2.162400
3.275100 2.170600
3.296000 2.175900
3.317000 2.150800
3.337900 2.102000
3.358800 2.042300
3.379700 1.996600
3.400700 1.962100
3.421600 1.941000
3.442500 1.926800
3.463500 1.933600
3.484400 1.951400
3.505300 1.981900
3.526200 2.055500
3.547200 2.197900
3.568100 2.402500
3.589000 2.693200
3.609900 2.760100
3.630900 2.734400
3.651800 2.422600
3.672700 2.727400
3.693700 2.843600
3.714600 2.798600
3.735500 2.728900
3.756400 2.805900
3.777400 2.679000
3.798300 2.651700
3.819200 2.472600
3.840200 2.252600
3.861100 1.815700
3.882000 1.677600
3.902900 1.618400
3.923900 1.569300
3.944800 1.558500
3.965700 1.637100
3.986600 1.755100
4.007600 1.892200
4.028500 2.057800
4.049400 2.305900
4.070400 2.518200
4.091300 2.742100
4.112200 2.725700
4.133100 2.742400
4.154100 2.726900
4.175000 2.726700
4.195900 2.722100
4.216900 2.753800
4.237800 2.800300
4.258700 2.859500
4.279600 2.860200
4.300600 2.816400
4.321500 2.841900
4.342400 2.854000
4.363300 2.834100
4.384300 2.912000
4.405200 3.053700
4.426100 3.286000
4.447100 3.434500
4.468000 3.472800
4.488900 3.519900
4.509800 3.570800
4.530800 3.561100
4.551700 3.547100
4.572600 3.476400
4.593500 3.500100
4.614500 3.455600
4.635400 3.334500
4.656300 3.336500
4.677300 2.907100
4.698200 2.829100
4.719100 3.044100
4.740000 3.198800
4.761000 3.463800
4.781900 3.697300
4.802800 3.937300
4.823800 4.049200
4.844700 4.062500
4.865600 4.094700
4.886500 4.207500
4.907500 4.291500
4.928400 4.347900
4.949300 4.436500
4.970200 4.442900
4.991200 4.461900
5.012100 4.514800
5.033000 4.643300
5.054000 4.633500
5.074900 4.070200
5.095800 3.721200
5.116700 3.300900
5.137700 3.403000
5.158600 3.699600
5.179500 3.609200
5.200500 3.540000
5.221400 3.702900
5.242300 3.642800
5.263200 3.725100
5.284200 3.741800
5.305100 3.925400
5.326000 4.192700
5.346900 4.522500
5.367900 4.965300
5.388800 4.518000
5.409700 4.176600
5.430700 3.957300
5.451600 3.840700
5.472500 3.705500
5.493400 3.694800
5.514400 3.724700
5.535300 3.888600
5.556200 3.922800
5.577100 4.067100
5.598100 4.170300
5.619000 4.148800
5.639900 4.150200
5.660900 4.418100
5.681800 4.540400
5.702700 4.605200
5.723600 4.677600
5.744600 4.931400
5.765500 5.073500
5.786400 5.129600
5.807400 5.151200
5.828300 5.178600
5.849200 5.417900
5.870100 5.617600
5.891100 5.883400
5.912000 6.087600
5.932900 6.246400
5.953800 6.494900
5.974800 6.716100
5.995700 6.646800
6.016600 6.409000
6.037600 6.204400
6.058500 6.074900
6.079400 5.958400
6.100300 5.957900
6.121300 5.968800
6.142200 5.965400
6.163100 5.929300
6.184100 6.123800
6.205000 6.361000
6.225900 6.566300
6.246800 6.615000
6.267800 6.867800
6.288700 6.851400
6.309600 7.439500
6.330500 6.609800
6.351500 6.534600
6.372400 6.506100
6.393300 6.376000
6.414300 5.997200
6.435200 5.683200
6.456100 5.491600
6.477000 5.361200
6.498000 5.112300
6.518900 5.189000
6.539800 5.224600
6.560700 5.305400
6.581700 5.457400
6.602600 5.640100
6.623500 5.852100
6.644500 6.201900
6.665400 6.341500
6.686300 6.375500
6.707200 6.394700
6.728200 6.139400
6.749100 6.055100
6.770000 6.042900
6.791000 5.865500
6.811900 5.845700
6.832800 5.852000
6.853700 6.008700
6.874700 6.312400
6.895600 6.456900
6.916500 6.840400
6.937400 6.738000
6.958400 6.647600
6.979300 6.474300
7.000200 6.433600
7.021200 6.439700
7.042100 6.482500
7.063000 6.287000
7.083900 6.148900
7.104900 6.271500
7.125800 6.301500
7.146700 6.389800
7.167700 6.688400
7.188600 6.815700
7.209500 7.652600
7.230400 8.185900
7.251400 8.880000
7.272300 8.689200
7.293200 6.960100
7.314100 7.280200
7.335100 7.001300
7.356000 7.048000
7.376900 6.817100
7.397900 6.522600
7.418800 6.477200
7.439700 5.821100
7.460600 5.734000
7.481600 5.796700
7.502500 6.014600
7.523400 5.915300
7.544400 5.832500
7.565300 5.998100
7.586200 6.333500
7.607100 6.339100
7.628100 6.278000
7.649000 6.164900
7.669900 6.124100
7.690800 6.531700
7.711800 6.619900
7.732700 6.707800
7.753600 6.872900
7.774600 6.786500
7.795500 6.816100
7.816400 7.155100
7.837300 6.834800
7.858300 6.799900
7.879200 6.855200
7.900100 6.931200
7.921000 6.607400
7.942000 6.373000
7.962900 6.235300
7.983800 6.230000
8.004800 6.499400
8.025700 6.812300
8.046600 6.847700
8.067500 6.733100
8.088500 6.476200
8.109400 6.658900
8.130300 6.480200
8.151300 6.148700
8.172200 5.766600
8.193100 5.411200
8.214000 5.153900
8.235000 5.206500
8.255900 5.127700
8.276800 5.066100
8.297700 5.091200
8.318700 5.152100
8.339600 5.227300
8.360500 5.347900
8.381500 5.689500
8.402400 5.829000
8.423300 6.205200
8.444200 6.385800
8.465200 6.442400
8.486100 6.614800
8.507000 7.134500
8.528000 7.257800
8.548900 7.401400
8.569800 7.328800
8.590700 6.812400
8.611700 5.117900
8.632600 4.314900
8.653500 4.070500
8.674400 4.031500
8.695400 4.108000
8.716300 4.213700
8.737200 4.402000
8.758200 4.727600
8.779100 4.860200
8.800000 5.480300
8.820900 5.131600
8.841900 5.326300
8.862800 5.915800
8.883700 7.190400
8.904600 8.057100
8.925600 6.382300
8.946500 5.672300
8.967400 5.339600
8.988400 4.956400
9.009300 4.668500
9.030200 4.548000
9.051100 4.641400
9.072100 4.727000
9.093000 4.874200
9.113900 5.168700
9.134900 5.222300
9.155800 5.506000
9.176700 6.214800
9.197600 6.013500
9.218600 5.545400
9.239500 5.247900
9.260400 4.936700
9.281300 4.658100
9.302300 4.461300
9.323200 4.041400
9.344100 3.861100
9.365100 3.999100
9.386000 4.362500
9.406900 4.562200
9.427800 4.836000
9.448800 5.063300
9.469700 5.390900
9.490600 5.043000
9.511600 4.769900
9.532500 4.766100
9.553400 4.711300
9.574300 4.796200
9.595300 4.496500
9.616200 4.131900
9.637100 3.759300
9.658000 3.588700
9.679000 3.346600
9.699900 3.934100
9.720800 5.798700
9.741800 5.279800
9.762700 4.747800
9.783600 4.610500
9.804500 4.674400
9.825500 4.966800
9.846400 5.285800
9.867300 5.510000
9.888200 5.724400
9.909200 5.314100
9.930100 4.718400
9.951000 4.352800
9.972000 4.028600
9.992900 3.778700
10.013800 3.663600
10.034700 3.564800
10.055700 3.524100
10.076600 3.629100
10.097500 3.755600
10.118500 3.820200
10.139400 3.949400
10.160300 3.949100
10.181200 3.974900
10.202200 3.790300
10.223100 3.756400
10.244000 3.752600
10.264900 3.911200
10.285900 3.954900
10.306800 4.448900
10.327700 4.732900
10.348700 4.218200
10.369600 4.109100
10.390500 4.083300
10.411400 4.243000
10.432400 4.298100
10.453300 4.402000
10.474200 4.318100
10.495200 4.207100
10.516100 4.047100
10.537000 3.981700
10.557900 3.763900
10.578900 3.852700
10.599800 3.782300
10.620700 3.927000
10.641600 3.917600
10.662600 4.065000
10.683500 4.312900
10.704400 4.475300
10.725400 4.509700
10.746300 4.401000
10.767200 4.292200
10.788100 4.112400
10.809100 3.850800
10.830000 3.458500
10.850900 3.256600
10.871900 3.310200
10.892800 3.376200
10.913700 3.538700
10.934600 3.769700
10.955600 4.068800
10.976500 4.374900
10.997400 4.353800
11.018300 4.493700
11.039300 4.288400
11.060200 4.097100
11.081100 3.729800
11.102100 3.678600
11.123000 3.651600
11.143900 3.531000
11.164800 3.558500
11.185800 3.549800
11.206700 3.534100
11.227600 3.626400
11.248500 3.763000
11.269500 3.980000
11.290400 4.167700
11.311300 4.324200
11.332300 4.294300
11.353200 4.479300
11.374100 4.631400
11.395000 4.735800
11.416000 4.832600
11.436900 5.006700
11.457800 5.000900
11.478800 5.082400
11.499700 4.770000
11.520600 4.580000
11.541500 4.469800
11.562500 4.197700
11.583400 3.948200
11.604300 3.745200
11.625200 3.542400
11.646200 3.227300
11.667100 3.137700
11.688000 3.123600
11.709000 3.164000
11.729900 3.252900
11.750800 3.335300
11.771700 3.390600
11.792700 3.490300
11.813600 3.708300
11.834500 3.932200
11.855500 4.182200
11.876400 4.331000
11.897300 4.457300
11.918200 4.492800
11.939200 4.388600
11.960100 4.151800
11.981000 3.904500
12.001900 3.665200
12.022900 3.392700
12.043800 3.208300
12.064700 3.089800
12.085700 2.994100
12.106600 2.911000
12.127500 2.799500
12.148400 2.744100
12.169400 2.731800
12.190300 2.739900
12.211200 2.903800
12.232100 3.030000
12.253100 2.968800
12.274000 2.803000
12.294900 2.595400
12.315900 2.490800
12.336800 2.436200
12.357700 2.401900
12.378600 2.389000
12.399600 2.389200
12.420500 2.392600
12.441400 2.330500
12.462400 2.247100
12.483300 2.190600
12.504200 2.166700
12.525100 2.217600
12.546100 2.172800
12.567000 2.108900
12.587900 2.079800
12.608800 2.020200
12.629800 1.907400
12.650700 1.923800
12.671600 1.878000
12.692600 1.774300
12.713500 1.693400
12.734400 1.659800
12.755300 1.599200
12.776300 1.493700
12.797200 1.352200
12.818100 1.135200
12.839100 0.939200
12.860000 0.757500
12.880900 0.559900
12.901800 0.456000
12.922800 0.398200
12.943700 0.269800
12.964600 0.173200
12.985500 0.117800
13.006500 0.089600
13.027400 0.065500
13.048300 0.045700
13.069300 0.030200
13.090200 0.018700
13.111100 0.010300
13.132000 0.004700
13.153000 0.001300
13.173900 0.000000
13.194800 0.000000
13.215800 0.000000
13.236700 0.000000
13.257600 0.000000
13.278500 0.000000
13.299500 0.000000
13.320400 0.000000
13.341300 0.000000
13.362200 0.000000
13.383200 0.000000
13.404100 0.000000
13.425000 0.000000
13.446000 0.000000
13.466900 0.000000
13.487800 0.000000
13.508700 0.000000
13.529700 0.000000
13.550600 0.000000
13.571500 0.000000
13.592400 0.000000
13.613400 0.000000
13.634300 0.000000
13.655200 0.000000
13.676200 0.000000
13.697100 0.000000
13.718000 0.000000
13.738900 0.000000
13.759900 0.000000
13.780800 0.000000
13.801700 0.000000
13.822700 0.000000
13.843600 0.000000
13.864500 0.000000
13.885400 0.000000
13.906400 0.000000
13.927300 0.000000
13.948200 0.000000
13.969100 0.000000
13.990100 0.000000
14.011000 0.000000
14.031900 0.000000
14.052900 0.000000
14.073800 0.000000
14.094700 0.000000
14.115600 0.000000
14.136600 0.000000
14.157500 0.000000
14.178400 0.000000
14.199400 0.000000
14.220300 0.000000
14.241200 0.000000
14.262100 0.000000
14.283100 0.000000
14.304000 0.000000
14.324900 0.000000
14.345800 0.000000
14.366800 0.000000
14.387700 0.000000
14.408600 0.000000
14.429600 0.000000
14.450500 0.000000
14.471400 0.000000
14.492300 0.000000
14.513300 0.000000
14.534200 0.000000
14.555100 0.000000
14.576000 0.000000
14.597000 0.000000
14.617900 0.000000
14.638800 0.000000
14.659800 0.000000
14.680700 0.000000
14.701600 0.000000
14.722500 0.000000
14.743500 0.000000
14.764400 0.000000
14.785300 0.000000
14.806300 0.000000
14.827200 0.000000
14.848100 0.000000
14.869000 0.000000
14.890000 0.000000
14.910900 0.000000
14.931800 0.000000
14.952700 0.000000
14.973700 0.000000
14.994600 0.000000
15.015500 0.000000
15.036500 0.000000
15.057400 0.000000
15.078300 0.000000
e
