set title 'mp-777698 - Density of States'
set xlabel 'Energy (eV)'
set ylabel 'DOS (states/eV)'
set grid
set xrange [-10:10]
set yrange [0:16.676]
set xzeroaxis lt -1
set terminal png size 800,600
set output 'mp-777698_dos_gnuplot.png'
plot '-' using 1:2 with lines title 'DOS'
-37.835200 0.000000
-37.799600 0.000000
-37.764100 0.000000
-37.728600 0.000000
-37.693100 0.000000
-37.657600 0.000000
-37.622000 0.000000
-37.586500 0.000000
-37.551000 0.000000
-37.515500 0.000000
-37.479900 0.000000
-37.444400 0.000000
-37.408900 0.000000
-37.373400 0.000000
-37.337800 0.000000
-37.302300 0.000000
-37.266800 0.000000
-37.231300 0.000000
-37.195700 0.000000
-37.160200 0.000000
-37.124700 0.000000
-37.089200 0.000000
-37.053600 0.000000
-37.018100 0.000000
-36.982600 0.000000
-36.947100 0.000000
-36.911500 0.000000
-36.876000 0.000000
-36.840500 0.000000
-36.805000 0.000000
-36.769400 0.000000
-36.733900 0.000000
-36.698400 0.000000
-36.662900 0.000000
-36.627300 0.000000
-36.591800 0.000000
-36.556300 0.000000
-36.520800 0.000000
-36.485300 0.000000
-36.449700 0.000000
-36.414200 0.000000
-36.378700 0.000000
-36.343200 0.000000
-36.307600 0.000000
-36.272100 0.000000
-36.236600 0.000000
-36.201100 0.000000
-36.165500 0.000000
-36.130000 0.000000
-36.094500 0.000000
-36.059000 0.000000
-36.023400 0.000000
-35.987900 0.000000
-35.952400 0.000000
-35.916900 0.000000
-35.881300 0.000000
-35.845800 0.000000
-35.810300 0.000000
-35.774800 0.000000
-35.739200 0.000000
-35.703700 0.000000
-35.668200 0.000000
-35.632700 0.000000
-35.597100 0.000000
-35.561600 0.000000
-35.526100 0.000000
-35.490600 0.000000
-35.455000 0.000000
-35.419500 0.000000
-35.384000 0.000000
-35.348500 0.000000
-35.313000 0.000000
-35.277400 0.000000
-35.241900 0.000000
-35.206400 0.000000
-35.170900 0.000000
-35.135300 0.000000
-35.099800 0.000000
-35.064300 0.000000
-35.028800 0.000000
-34.993200 0.000000
-34.957700 0.000000
-34.922200 0.000000
-34.886700 0.000000
-34.851100 0.000000
-34.815600 0.000000
-34.780100 0.000000
-34.744600 0.000000
-34.709000 0.000000
-34.673500 0.000000
-34.638000 0.000000
-34.602500 0.000000
-34.566900 11.386600
-34.531400 9.131600
-34.495900 13.951600
-34.460400 12.738300
-34.424800 0.000000
-34.389300 0.000000
-34.353800 18.217200
-34.318300 0.000000
-34.282800 12.316200
-34.247200 17.377200
-34.211700 0.000000
-34.176200 0.000000
-34.140700 0.000000
-34.105100 0.000000
-34.069600 0.000000
-34.034100 0.000000
-33.998600 0.000000
-33.963000 0.000000
-33.927500 0.000000
-33.892000 0.000000
-33.856500 0.000000
-33.820900 11.282000
-33.785400 9.274500
-33.749900 13.237000
-33.714400 27.386600
-33.678800 0.000000
-33.643300 13.028300
-33.607800 8.247100
-33.572300 8.742100
-33.536700 9.216500
-33.501200 20.071500
-33.465700 0.000000
-33.430200 40.456300
-33.394600 0.000000
-33.359100 0.000000
-33.323600 131.274100
-33.288100 0.000000
-33.252500 0.000000
-33.217000 0.000000
-33.181500 0.000000
-33.146000 0.000000
-33.110500 0.000000
-33.074900 0.000000
-33.039400 0.000000
-33.003900 0.000000
-32.968400 0.000000
-32.932800 0.000000
-32.897300 0.000000
-32.861800 0.000000
-32.826300 0.000000
-32.790700 0.000000
-32.755200 0.000000
-32.719700 0.000000
-32.684200 0.000000
-32.648600 0.000000
-32.613100 0.000000
-32.577600 0.000000
-32.542100 0.000000
-32.506500 0.000000
-32.471000 0.000000
-32.435500 0.000000
-32.400000 0.000000
-32.364400 0.000000
-32.328900 0.000000
-32.293400 0.000000
-32.257900 0.000000
-32.222300 0.000000
-32.186800 0.000000
-32.151300 0.000000
-32.115800 0.000000
-32.080200 0.000000
-32.044700 0.000000
-32.009200 0.000000
-31.973700 0.000000
-31.938200 0.000000
-31.902600 0.000000
-31.867100 0.000000
-31.831600 0.000000
-31.796100 0.000000
-31.760500 0.000000
-31.725000 0.000000
-31.689500 0.000000
-31.654000 0.000000
-31.618400 0.000000
-31.582900 0.000000
-31.547400 0.000000
-31.511900 0.000000
-31.476300 0.000000
-31.440800 0.000000
-31.405300 0.000000
-31.369800 0.000000
-31.334200 0.000000
-31.298700 0.000000
-31.263200 0.000000
-31.227700 0.000000
-31.192100 0.000000
-31.156600 0.000000
-31.121100 0.000000
-31.085600 0.000000
-31.050000 0.000000
-31.014500 0.000000
-30.979000 0.000000
-30.943500 0.000000
-30.907900 0.000000
-30.872400 0.000000
-30.836900 0.000000
-30.801400 0.000000
-30.765900 0.000000
-30.730300 0.000000
-30.694800 0.000000
-30.659300 0.000000
-30.623800 0.000000
-30.588200 0.000000
-30.552700 0.000000
-30.517200 0.000000
-30.481700 0.000000
-30.446100 0.000000
-30.410600 0.000000
-30.375100 0.000000
-30.339600 0.000000
-30.304000 0.000000
-30.268500 0.000000
-30.233000 0.000000
-30.197500 0.000000
-30.161900 0.000000
-30.126400 0.000000
-30.090900 0.000000
-30.055400 0.000000
-30.019800 0.000000
-29.984300 0.000000
-29.948800 0.000000
-29.913300 0.000000
-29.877700 0.000000
-29.842200 0.000000
-29.806700 0.000000
-29.771200 0.000000
-29.735600 0.000000
-29.700100 0.000000
-29.664600 0.000000
-29.629100 0.000000
-29.593600 0.000000
-29.558000 0.000000
-29.522500 0.000000
-29.487000 0.000000
-29.451500 0.000000
-29.415900 0.000000
-29.380400 0.000000
-29.344900 0.000000
-29.309400 0.000000
-29.273800 0.000000
-29.238300 0.000000
-29.202800 0.000000
-29.167300 0.000000
-29.131700 0.000000
-29.096200 0.000000
-29.060700 0.000000
-29.025200 0.000000
-28.989600 0.000000
-28.954100 0.000000
-28.918600 0.000000
-28.883100 0.000000
-28.847500 0.000000
-28.812000 0.000000
-28.776500 0.000000
-28.741000 0.000000
-28.705400 0.000000
-28.669900 0.000000
-28.634400 0.000000
-28.598900 0.000000
-28.563300 0.000000
-28.527800 0.000000
-28.492300 0.000000
-28.456800 0.000000
-28.421300 0.000000
-28.385700 0.000000
-28.350200 0.000000
-28.314700 0.000000
-28.279200 0.000000
-28.243600 0.000000
-28.208100 0.000000
-28.172600 0.000000
-28.137100 0.000000
-28.101500 0.000000
-28.066000 0.000000
-28.030500 0.000000
-27.995000 0.000000
-27.959400 0.000000
-27.923900 0.000000
-27.888400 0.000000
-27.852900 0.000000
-27.817300 0.000000
-27.781800 0.000000
-27.746300 0.000000
-27.710800 0.000000
-27.675200 0.000000
-27.639700 0.000000
-27.604200 0.000000
-27.568700 0.000000
-27.533100 0.000000
-27.497600 0.000000
-27.462100 0.000000
-27.426600 0.000000
-27.391100 0.000000
-27.355500 0.000000
-27.320000 0.000000
-27.284500 0.000000
-27.249000 0.000000
-27.213400 0.000000
-27.177900 0.000000
-27.142400 0.000000
-27.106900 0.000000
-27.071300 0.000000
-27.035800 0.000000
-27.000300 0.000000
-26.964800 0.000000
-26.929200 0.000000
-26.893700 0.000000
-26.858200 0.000000
-26.822700 0.000000
-26.787100 0.000000
-26.751600 0.000000
-26.716100 0.000000
-26.680600 0.000000
-26.645000 0.000000
-26.609500 0.000000
-26.574000 0.000000
-26.538500 0.000000
-26.502900 0.000000
-26.467400 0.000000
-26.431900 0.000000
-26.396400 0.000000
-26.360800 0.000000
-26.325300 0.000000
-26.289800 0.000000
-26.254300 0.000000
-26.218800 0.000000
-26.183200 0.000000
-26.147700 0.000000
-26.112200 0.000000
-26.076700 0.000000
-26.041100 0.000000
-26.005600 0.000000
-25.970100 0.000000
-25.934600 0.000000
-25.899000 0.000000
-25.863500 0.000000
-25.828000 0.000000
-25.792500 0.000000
-25.756900 0.000000
-25.721400 0.000000
-25.685900 0.000000
-25.650400 0.000000
-25.614800 0.000000
-25.579300 0.000000
-25.543800 0.000000
-25.508300 0.000000
-25.472700 0.000000
-25.437200 0.000000
-25.401700 0.000000
-25.366200 0.000000
-25.330600 0.000000
-25.295100 0.000000
-25.259600 0.000000
-25.224100 0.000000
-25.188500 0.000000
-25.153000 0.000000
-25.117500 0.000000
-25.082000 0.000000
-25.046500 0.000000
-25.010900 0.000000
-24.975400 0.000000
-24.939900 0.000000
-24.904400 0.000000
-24.868800 0.000000
-24.833300 0.000000
-24.797800 0.000000
-24.762300 0.000000
-24.726700 0.000000
-24.691200 0.000000
-24.655700 0.000000
-24.620200 0.000000
-24.584600 0.000000
-24.549100 0.000000
-24.513600 0.000000
-24.478100 0.000000
-24.442500 0.000000
-24.407000 0.000000
-24.371500 0.000000
-24.336000 0.000000
-24.300400 0.000000
-24.264900 0.000000
-24.229400 0.000000
-24.193900 0.000000
-24.158300 0.000000
-24.122800 0.000000
-24.087300 0.000000
-24.051800 0.000000
-24.016200 0.000000
-23.980700 0.000000
-23.945200 0.000000
-23.909700 0.000000
-23.874200 0.000000
-23.838600 0.000000
-23.803100 0.000000
-23.767600 0.000000
-23.732100 0.000000
-23.696500 0.000000
-23.661000 0.000000
-23.625500 0.000000
-23.590000 0.000000
-23.554400 0.000000
-23.518900 0.000000
-23.483400 0.000000
-23.447900 0.000000
-23.412300 0.000000
-23.376800 0.000000
-23.341300 0.000000
-23.305800 0.000000
-23.270200 0.000000
-23.234700 0.000000
-23.199200 0.000000
-23.163700 0.000000
-23.128100 0.000000
-23.092600 0.000000
-23.057100 0.000000
-23.021600 0.000000
-22.986000 0.000000
-22.950500 0.000000
-22.915000 0.000000
-22.879500 0.000000
-22.843900 0.000000
-22.808400 0.000000
-22.772900 0.000000
-22.737400 0.000000
-22.701900 0.000000
-22.666300 0.000000
-22.630800 0.000000
-22.595300 0.000000
-22.559800 0.000000
-22.524200 0.000000
-22.488700 0.000000
-22.453200 0.000000
-22.417700 0.000000
-22.382100 0.000000
-22.346600 0.000000
-22.311100 0.000000
-22.275600 0.000000
-22.240000 0.000000
-22.204500 0.000000
-22.169000 0.000000
-22.133500 0.000000
-22.097900 0.000000
-22.062400 0.000000
-22.026900 0.000000
-21.991400 0.000000
-21.955800 0.000000
-21.920300 0.000000
-21.884800 0.000000
-21.849300 0.000000
-21.813700 0.000000
-21.778200 0.000000
-21.742700 0.000000
-21.707200 0.000000
-21.671600 0.000000
-21.636100 0.000000
-21.600600 0.000000
-21.565100 0.000000
-21.529600 0.000000
-21.494000 0.000000
-21.458500 0.000000
-21.423000 0.000000
-21.387500 0.000000
-21.351900 0.000000
-21.316400 0.000000
-21.280900 0.000000
-21.245400 0.000000
-21.209800 0.000000
-21.174300 0.000000
-21.138800 0.000000
-21.103300 0.000000
-21.067700 0.000000
-21.032200 0.000000
-20.996700 0.000000
-20.961200 0.000000
-20.925600 0.000000
-20.890100 0.000000
-20.854600 0.000000
-20.819100 0.000000
-20.783500 0.000000
-20.748000 0.000000
-20.712500 0.000000
-20.677000 0.000000
-20.641400 0.000000
-20.605900 0.000000
-20.570400 0.000000
-20.534900 0.000000
-20.499400 0.000000
-20.463800 0.000000
-20.428300 0.000000
-20.392800 0.000000
-20.357300 0.000000
-20.321700 0.000000
-20.286200 0.000000
-20.250700 0.000000
-20.215200 0.000000
-20.179600 0.000000
-20.144100 0.000000
-20.108600 0.000000
-20.073100 0.000000
-20.037500 0.000000
-20.002000 0.000000
-19.966500 0.000000
-19.931000 0.000000
-19.895400 0.000000
-19.859900 0.000000
-19.824400 0.000000
-19.788900 0.000000
-19.753300 0.000000
-19.717800 0.000000
-19.682300 0.000000
-19.646800 0.000000
-19.611200 0.000000
-19.575700 0.000000
-19.540200 0.000000
-19.504700 0.000000
-19.469100 0.000000
-19.433600 0.000000
-19.398100 0.000000
-19.362600 0.000000
-19.327100 0.000000
-19.291500 0.000000
-19.256000 0.000000
-19.220500 0.000000
-19.185000 0.000000
-19.149400 0.000000
-19.113900 0.000000
-19.078400 0.000000
-19.042900 0.000000
-19.007300 0.000000
-18.971800 0.000000
-18.936300 0.000000
-18.900800 0.000000
-18.865200 0.000000
-18.829700 0.000000
-18.794200 0.000000
-18.758700 0.000000
-18.723100 0.000000
-18.687600 0.000000
-18.652100 0.000000
-18.616600 0.000000
-18.581000 0.000000
-18.545500 0.000000
-18.510000 0.000000
-18.474500 0.000000
-18.438900 0.000000
-18.403400 0.000000
-18.367900 0.000000
-18.332400 0.000000
-18.296800 0.000000
-18.261300 0.000000
-18.225800 0.000000
-18.190300 0.000000
-18.154800 0.000000
-18.119200 0.000000
-18.083700 0.000000
-18.048200 0.000000
-18.012700 0.000000
-17.977100 0.000000
-17.941600 0.000000
-17.906100 0.000000
-17.870600 0.000000
-17.835000 0.000000
-17.799500 0.000000
-17.764000 0.000000
-17.728500 0.000000
-17.692900 0.000000
-17.657400 0.000000
-17.621900 0.000000
-17.586400 0.000000
-17.550800 0.000000
-17.515300 0.000000
-17.479800 0.000000
-17.444300 0.000000
-17.408700 0.000000
-17.373200 0.000000
-17.337700 0.000000
-17.302200 0.000000
-17.266600 0.000000
-17.231100 0.000000
-17.195600 0.000000
-17.160100 0.000000
-17.124500 0.000000
-17.089000 0.000000
-17.053500 0.000000
-17.018000 0.000000
-16.982500 0.000000
-16.946900 0.000000
-16.911400 0.000000
-16.875900 0.000000
-16.840400 0.000000
-16.804800 0.000000
-16.769300 0.000000
-16.733800 0.000000
-16.698300 0.000000
-16.662700 0.000000
-16.627200 0.000000
-16.591700 0.000000
-16.556200 0.000000
-16.520600 0.000000
-16.485100 0.000000
-16.449600 0.000000
-16.414100 0.000000
-16.378500 0.000000
-16.343000 0.000000
-16.307500 0.000000
-16.272000 0.000000
-16.236400 0.000000
-16.200900 0.000000
-16.165400 0.000000
-16.129900 0.000000
-16.094300 0.000000
-16.058800 0.000000
-16.023300 0.000000
-15.987800 0.000000
-15.952200 0.000000
-15.916700 0.000000
-15.881200 0.000000
-15.845700 0.000000
-15.810200 0.000000
-15.774600 0.000000
-15.739100 0.000000
-15.703600 0.000000
-15.668100 0.000000
-15.632500 0.000000
-15.597000 0.000000
-15.561500 0.000000
-15.526000 0.000000
-15.490400 0.000000
-15.454900 0.000000
-15.419400 0.000000
-15.383900 0.000000
-15.348300 0.000000
-15.312800 0.000000
-15.277300 0.000000
-15.241800 0.000000
-15.206200 0.000000
-15.170700 0.000000
-15.135200 0.000000
-15.099700 0.000000
-15.064100 0.000000
-15.028600 0.000000
-14.993100 0.000000
-14.957600 0.000000
-14.922000 0.000000
-14.886500 0.000000
-14.851000 0.000000
-14.815500 0.005000
-14.780000 0.233700
-14.744400 0.484800
-14.708900 0.658600
-14.673400 0.790200
-14.637900 0.950200
-14.602300 1.187700
-14.566800 1.350000
-14.531300 1.370600
-14.495800 1.400000
-14.460200 1.404000
-14.424700 1.350900
-14.389200 1.358900
-14.353700 1.455600
-14.318100 1.574900
-14.282600 1.684000
-14.247100 1.790900
-14.211600 2.053000
-14.176000 2.169800
-14.140500 2.227700
-14.105000 2.498000
-14.069500 3.067700
-14.033900 3.446900
-13.998400 3.151000
-13.962900 3.176100
-13.927400 3.199000
-13.891800 3.228800
-13.856300 3.693600
-13.820800 4.766000
-13.785300 3.675400
-13.749700 4.227600
-13.714200 4.391200
-13.678700 4.537900
-13.643200 4.211700
-13.607700 5.560200
-13.572100 9.956600
-13.536600 10.050700
-13.501100 13.397000
-13.465600 6.184800
-13.430000 5.349000
-13.394500 7.647600
-13.359000 8.821700
-13.323500 24.234400
-13.287900 16.724800
-13.252400 7.613800
-13.216900 22.351100
-13.181400 10.354000
-13.145800 5.625700
-13.110300 5.628400
-13.074800 9.793200
-13.039300 6.749900
-13.003700 2.999700
-12.968200 0.324800
-12.932700 0.000000
-12.897200 0.000000
-12.861600 0.000000
-12.826100 0.000000
-12.790600 0.000000
-12.755100 0.000000
-12.719500 0.000000
-12.684000 0.000000
-12.648500 0.000000
-12.613000 0.000000
-12.577400 0.000000
-12.541900 0.000000
-12.506400 0.000000
-12.470900 0.000000
-12.435400 0.000000
-12.399800 0.000000
-12.364300 0.000000
-12.328800 0.000000
-12.293300 0.000000
-12.257700 0.000000
-12.222200 0.000000
-12.186700 0.000000
-12.151200 0.000000
-12.115600 0.000000
-12.080100 0.000000
-12.044600 0.000000
-12.009100 0.000000
-11.973500 0.000000
-11.938000 0.000000
-11.902500 0.000000
-11.867000 0.000000
-11.831400 0.000000
-11.795900 0.000000
-11.760400 0.000000
-11.724900 0.000000
-11.689300 0.000000
-11.653800 0.000000
-11.618300 0.000000
-11.582800 0.000000
-11.547200 0.000000
-11.511700 0.000000
-11.476200 0.000000
-11.440700 0.000000
-11.405100 0.000000
-11.369600 0.000000
-11.334100 0.000000
-11.298600 0.000000
-11.263100 0.000000
-11.227500 0.000000
-11.192000 0.000000
-11.156500 0.000000
-11.121000 0.000000
-11.085400 0.000000
-11.049900 0.000000
-11.014400 0.000000
-10.978900 0.000000
-10.943300 0.000000
-10.907800 0.000000
-10.872300 0.000000
-10.836800 0.000000
-10.801200 0.000000
-10.765700 0.000000
-10.730200 0.000000
-10.694700 0.000000
-10.659100 0.000000
-10.623600 0.000000
-10.588100 0.000000
-10.552600 0.000000
-10.517000 0.000000
-10.481500 0.000000
-10.446000 0.000000
-10.410500 0.000000
-10.374900 0.000000
-10.339400 0.000000
-10.303900 0.000000
-10.268400 0.000000
-10.232800 0.000000
-10.197300 0.000000
-10.161800 0.000000
-10.126300 0.000000
-10.090800 0.000000
-10.055200 0.000000
-10.019700 0.000000
-9.984200 0.000000
-9.948700 0.000000
-9.913100 0.000000
-9.877600 0.000000
-9.842100 0.000000
-9.806600 0.000000
-9.771000 0.000000
-9.735500 0.000000
-9.700000 0.000000
-9.664500 0.000000
-9.628900 0.000000
-9.593400 0.000000
-9.557900 0.000000
-9.522400 0.000000
-9.486800 0.000000
-9.451300 0.000000
-9.415800 0.000000
-9.380300 0.000000
-9.344700 0.000000
-9.309200 0.000000
-9.273700 0.000000
-9.238200 0.000000
-9.202600 0.000000
-9.167100 0.000000
-9.131600 0.000000
-9.096100 0.000000
-9.060500 0.000000
-9.025000 0.000000
-8.989500 0.000000
-8.954000 0.000000
-8.918500 0.000000
-8.882900 0.000000
-8.847400 0.000000
-8.811900 0.000000
-8.776400 0.000000
-8.740800 0.000000
-8.705300 0.000000
-8.669800 0.000000
-8.634300 0.000000
-8.598700 0.000000
-8.563200 0.000000
-8.527700 0.000000
-8.492200 0.000000
-8.456600 0.000000
-8.421100 0.000000
-8.385600 0.000000
-8.350100 0.000000
-8.314500 0.000000
-8.279000 0.000000
-8.243500 0.000000
-8.208000 0.000000
-8.172400 0.000000
-8.136900 0.000000
-8.101400 0.000000
-8.065900 0.000000
-8.030300 0.000000
-7.994800 0.000000
-7.959300 0.000000
-7.923800 0.000000
-7.888300 0.000000
-7.852700 0.000000
-7.817200 0.000000
-7.781700 0.000000
-7.746200 0.000000
-7.710600 0.000000
-7.675100 0.000000
-7.639600 0.000000
-7.604100 0.000000
-7.568500 0.000000
-7.533000 0.000000
-7.497500 0.000000
-7.462000 0.000000
-7.426400 0.000000
-7.390900 0.000000
-7.355400 0.000000
-7.319900 0.000000
-7.284300 0.000000
-7.248800 0.000000
-7.213300 0.000000
-7.177800 0.000000
-7.142200 0.000000
-7.106700 0.000000
-7.071200 0.000000
-7.035700 0.000000
-7.000100 0.000000
-6.964600 0.000000
-6.929100 0.000000
-6.893600 0.000000
-6.858000 0.000000
-6.822500 0.000000
-6.787000 0.000000
-6.751500 0.000000
-6.716000 0.000000
-6.680400 0.000000
-6.644900 0.000000
-6.609400 0.000000
-6.573900 0.000000
-6.538300 0.000000
-6.502800 0.000000
-6.467300 0.000000
-6.431800 0.000000
-6.396200 0.000000
-6.360700 0.000000
-6.325200 0.000000
-6.289700 0.000000
-6.254100 0.000000
-6.218600 0.000000
-6.183100 0.000000
-6.147600 0.000000
-6.112000 0.000000
-6.076500 0.000000
-6.041000 0.000000
-6.005500 0.000000
-5.969900 0.000000
-5.934400 0.000000
-5.898900 0.000000
-5.863400 0.000000
-5.827800 0.000000
-5.792300 0.000000
-5.756800 0.000000
-5.721300 0.000000
-5.685700 0.000000
-5.650200 0.000000
-5.614700 0.000000
-5.579200 0.000000
-5.543700 0.000000
-5.508100 0.000000
-5.472600 0.000000
-5.437100 0.000000
-5.401600 0.000000
-5.366000 0.000000
-5.330500 0.000000
-5.295000 0.000000
-5.259500 0.000000
-5.223900 0.000000
-5.188400 0.000000
-5.152900 0.000000
-5.117400 0.000000
-5.081800 0.000000
-5.046300 0.000000
-5.010800 0.000000
-4.975300 0.000000
-4.939700 0.000000
-4.904200 0.000000
-4.868700 0.000000
-4.833200 0.000000
-4.797600 0.000000
-4.762100 0.000000
-4.726600 0.000000
-4.691100 0.000000
-4.655500 0.000000
-4.620000 0.000000
-4.584500 0.000000
-4.549000 0.000000
-4.513400 0.000000
-4.477900 0.000000
-4.442400 0.000000
-4.406900 0.000000
-4.371400 0.000000
-4.335800 0.000000
-4.300300 0.000000
-4.264800 0.000000
-4.229300 0.000000
-4.193700 0.000000
-4.158200 0.000000
-4.122700 0.000000
-4.087200 0.000000
-4.051600 0.000000
-4.016100 0.000000
-3.980600 0.000000
-3.945100 0.000000
-3.909500 0.000000
-3.874000 0.000000
-3.838500 0.000000
-3.803000 0.000000
-3.767400 0.000000
-3.731900 0.000000
-3.696400 0.000000
-3.660900 0.000000
-3.625300 0.000000
-3.589800 0.000000
-3.554300 0.000000
-3.518800 0.000000
-3.483200 0.000000
-3.447700 0.000000
-3.412200 0.000000
-3.376700 0.000000
-3.341100 0.000000
-3.305600 0.000000
-3.270100 0.000000
-3.234600 0.000000
-3.199100 0.000000
-3.163500 0.000000
-3.128000 0.000000
-3.092500 0.000000
-3.057000 0.000000
-3.021400 0.000000
-2.985900 0.000000
-2.950400 0.000000
-2.914900 0.000000
-2.879300 0.000000
-2.843800 0.000000
-2.808300 0.000000
-2.772800 0.000000
-2.737200 0.000000
-2.701700 0.000000
-2.666200 0.000000
-2.630700 0.000000
-2.595100 0.000000
-2.559600 0.000000
-2.524100 0.000000
-2.488600 0.000000
-2.453000 0.000000
-2.417500 0.000000
-2.382000 0.000000
-2.346500 0.000000
-2.310900 0.000000
-2.275400 0.000000
-2.239900 0.000000
-2.204400 0.000000
-2.168800 0.000000
-2.133300 0.000000
-2.097800 0.000000
-2.062300 0.000000
-2.026800 0.067300
-1.991200 0.274700
-1.955700 1.068400
-1.920200 1.547600
-1.884700 2.085900
-1.849100 2.200800
-1.813600 2.338900
-1.778100 2.344600
-1.742600 2.703900
-1.707000 3.118700
-1.671500 3.516200
-1.636000 3.908700
-1.600500 4.414800
-1.564900 5.971000
-1.529400 5.708300
-1.493900 5.586300
-1.458400 4.727100
-1.422800 4.678800
-1.387300 7.714000
-1.351800 8.801800
-1.316300 6.340700
-1.280700 5.360000
-1.245200 3.871000
-1.209700 3.297100
-1.174200 3.105500
-1.138600 4.165400
-1.103100 5.267500
-1.067600 6.381100
-1.032100 6.307300
-0.996600 7.530500
-0.961000 5.847400
-0.925500 7.610800
-0.890000 9.453600
-0.854500 6.989100
-0.818900 4.898000
-0.783400 7.098900
-0.747900 6.721500
-0.712400 5.862900
-0.676800 6.495200
-0.641300 5.194600
-0.605800 5.300100
-0.570300 4.800700
-0.534700 6.190300
-0.499200 8.196300
-0.463700 6.020100
-0.428200 5.855300
-0.392600 5.475400
-0.357100 5.648200
-0.321600 6.891700
-0.286100 6.591000
-0.250500 5.447100
-0.215000 5.524700
-0.179500 5.639500
-0.144000 5.963400
-0.108400 5.625600
-0.072900 6.031600
-0.037400 7.561000
-0.001900 5.291300
0.033700 4.044200
0.069200 5.779700
0.104700 5.841000
0.140200 6.062000
0.175700 6.472200
0.211300 7.127400
0.246800 7.131400
0.282300 7.357300
0.317800 7.326100
0.353400 7.430500
0.388900 6.713900
0.424400 7.207300
0.459900 6.547800
0.495500 10.022400
0.531000 9.094800
0.566500 6.659500
0.602000 5.299600
0.637600 6.057600
0.673100 10.203500
0.708600 6.040800
0.744100 7.160600
0.779700 5.407200
0.815200 7.898000
0.850700 9.231100
0.886200 8.327600
0.921800 10.923700
0.957300 9.281900
0.992800 7.863800
1.028300 6.770700
1.063900 9.511300
1.099400 9.436900
1.134900 9.169900
1.170400 8.406000
1.206000 4.331500
1.241500 4.978200
1.277000 5.916200
1.312500 6.003800
1.348000 6.179700
1.383600 6.829300
1.419100 6.409200
1.454600 7.220900
1.490100 6.629000
1.525700 6.809700
1.561200 6.239400
1.596700 7.890900
1.632200 7.813300
1.667800 7.613700
1.703300 7.717000
1.738800 7.968300
1.774300 7.774200
1.809900 7.249600
1.845400 6.857400
1.880900 5.637600
1.916400 5.074900
1.952000 4.455300
1.987500 5.128700
2.023000 3.913200
2.058500 3.688200
2.094100 3.965400
2.129600 4.308000
2.165100 3.822000
2.200600 3.419000
2.236200 3.253000
2.271700 4.221700
2.307200 6.517600
2.342700 5.805300
2.378300 7.318700
2.413800 4.162900
2.449300 3.011700
2.484800 2.553000
2.520300 1.477600
2.555900 1.120900
2.591400 0.979000
2.626900 0.786900
2.662400 0.535200
2.698000 0.357100
2.733500 0.224800
2.769000 0.116200
2.804500 0.031600
2.840100 0.000000
2.875600 0.000000
2.911100 0.000000
2.946600 0.000000
2.982200 0.000000
3.017700 0.000000
3.053200 0.000000
3.088700 0.000000
3.124300 0.000000
3.159800 0.000000
3.195300 0.000000
3.230800 0.000000
3.266400 0.000000
3.301900 0.000000
3.337400 0.000000
3.372900 0.000000
3.408500 0.000000
3.444000 0.000000
3.479500 0.000000
3.515000 0.000000
3.550600 0.000000
3.586100 0.000000
3.621600 0.000000
3.657100 0.000000
3.692600 0.000000
3.728200 0.000000
3.763700 0.000000
3.799200 0.000000
3.834700 0.000000
3.870300 0.000000
3.905800 0.000000
3.941300 0.000000
3.976800 0.000000
4.012400 0.000000
4.047900 0.000000
4.083400 0.000000
4.118900 0.000000
4.154500 0.000000
4.190000 0.000000
4.225500 0.000000
4.261000 0.000000
4.296600 0.000000
4.332100 0.000000
4.367600 0.000000
4.403100 0.000000
4.438700 0.000000
4.474200 0.000000
4.509700 0.594800
4.545200 1.886700
4.580800 2.690900
4.616300 2.202400
4.651800 3.401100
4.687300 3.416400
4.722900 4.702300
4.758400 6.195400
4.793900 3.135000
4.829400 5.782500
4.864900 6.033700
4.900500 14.860900
4.936000 3.481000
4.971500 9.498200
5.007000 10.749100
5.042600 9.190600
5.078100 12.181300
5.113600 7.149300
5.149100 6.741000
5.184700 4.500300
5.220200 5.450600
5.255700 3.357000
5.291200 5.340100
5.326800 6.940500
5.362300 8.192200
5.397800 7.452700
5.433300 5.833800
5.468900 4.494500
5.504400 5.312000
5.539900 7.312800
5.575400 8.184000
5.611000 6.903800
5.646500 9.152300
5.682000 8.731100
5.717500 7.137400
5.753100 5.700400
5.788600 5.264800
5.824100 6.057700
5.859600 2.207100
5.895100 1.992700
5.930700 2.610000
5.966200 3.095100
6.001700 3.873700
6.037200 5.003300
6.072800 5.687600
6.108300 11.286200
6.143800 7.814700
6.179300 11.572300
6.214900 7.299100
6.250400 5.987400
6.285900 13.821500
6.321400 10.794500
6.357000 10.294000
6.392500 12.187400
6.428000 8.805000
6.463500 7.560000
6.499100 7.888600
6.534600 11.947000
6.570100 5.506000
6.605600 6.982900
6.641200 10.668100
6.676700 5.423500
6.712200 1.490000
6.747700 6.428400
6.783300 8.294900
6.818800 8.734700
6.854300 7.694900
6.889800 5.602600
6.925400 3.721600
6.960900 5.371100
6.996400 6.292800
7.031900 5.568700
7.067400 5.030100
7.103000 2.990800
7.138500 2.821400
7.174000 8.750100
7.209500 11.685300
7.245100 8.931100
7.280600 8.298900
7.316100 3.992900
7.351600 1.423400
7.387200 1.738100
7.422700 5.103100
7.458200 6.701000
7.493700 6.701600
7.529300 2.739800
7.564800 2.629100
7.600300 4.751700
7.635800 7.012000
7.671400 7.578100
7.706900 4.819400
7.742400 3.885400
7.777900 4.606000
7.813500 5.081700
7.849000 4.596700
7.884500 3.175800
7.920000 2.849500
7.955600 2.863400
7.991100 4.431400
8.026600 8.532600
8.062100 8.371100
8.097700 3.510100
8.133200 2.748300
8.168700 4.186600
8.204200 7.241000
8.239700 6.987300
8.275300 5.907300
8.310800 2.409200
8.346300 1.372300
8.381800 2.111600
8.417400 2.882000
8.452900 2.231400
8.488400 3.148700
8.523900 9.698700
8.559500 4.113800
8.595000 2.423900
8.630500 4.285800
8.666000 10.156600
8.701600 15.159900
8.737100 8.732700
8.772600 4.878800
8.808100 5.959600
8.843700 3.734100
8.879200 3.649800
8.914700 3.743400
8.950200 4.394700
8.985800 5.031300
9.021300 5.889800
9.056800 3.088700
9.092300 2.077900
9.127900 2.694800
9.163400 1.572400
9.198900 1.161100
9.234400 1.146200
9.270000 0.344800
9.305500 0.543200
9.341000 2.329000
9.376500 4.908200
9.412000 7.597800
9.447600 7.516700
9.483100 5.822000
9.518600 3.303100
9.554100 7.730800
9.589700 7.362900
9.625200 4.192800
9.660700 0.786200
9.696200 0.754700
9.731800 0.755500
9.767300 0.764700
9.802800 0.815200
9.838300 0.800700
9.873900 0.286000
9.909400 0.256600
9.944900 0.240200
9.980400 0.243000
10.016000 0.242300
10.051500 0.237400
10.087000 0.233200
10.122500 0.233400
10.158100 0.235100
10.193600 0.239300
10.229100 0.245300
10.264600 0.252300
10.300200 0.259700
10.335700 0.266400
10.371200 0.272800
10.406700 0.279000
10.442300 0.290500
10.477800 0.304400
10.513300 0.315000
10.548800 0.323200
10.584300 0.330100
10.619900 0.336100
10.655400 0.341600
10.690900 0.346200
10.726400 0.349800
10.762000 0.352800
10.797500 0.356000
10.833000 0.358500
10.868500 0.360400
10.904100 0.363100
10.939600 0.366700
10.975100 0.371000
11.010600 0.384900
11.046200 0.430700
11.081700 0.442100
11.117200 0.452500
11.152700 0.457400
11.188300 0.472000
11.223800 0.485200
11.259300 0.496800
11.294800 0.519100
11.330400 0.546200
11.365900 0.565900
11.401400 0.572600
11.436900 0.579600
11.472500 0.587400
11.508000 0.597000
11.543500 0.606600
11.579000 0.612300
11.614500 0.618100
11.650100 0.625900
11.685600 0.635600
11.721100 0.646700
11.756600 0.660000
11.792200 0.675700
11.827700 0.687100
11.863200 0.695700
11.898700 0.704700
11.934300 0.713500
11.969800 0.722700
12.005300 0.730200
12.040800 0.743100
12.076400 0.757400
12.111900 0.766400
12.147400 0.769500
12.182900 0.774300
12.218500 0.781000
12.254000 0.790100
12.289500 0.806900
12.325000 0.830900
12.360600 0.861200
12.396100 0.903200
12.431600 0.944800
12.467100 0.978100
12.502700 1.007800
12.538200 1.034500
12.573700 1.061100
12.609200 1.083000
12.644800 1.096200
12.680300 1.105700
12.715800 1.112900
12.751300 1.121700
12.786800 1.138000
12.822400 1.160300
12.857900 1.191600
12.893400 1.239800
12.928900 1.293800
12.964500 1.344400
13.000000 1.382600
13.035500 1.414100
13.071000 1.454200
13.106600 1.526900
13.142100 1.781800
13.177600 2.507000
13.213100 2.676100
13.248700 1.912200
13.284200 1.701200
13.319700 1.523100
13.355200 1.526900
13.390800 1.573900
13.426300 1.636700
13.461800 1.719200
13.497300 1.799800
13.532900 1.961300
13.568400 2.229300
13.603900 2.292500
13.639400 2.123300
13.675000 1.948800
13.710500 1.830700
13.746000 1.746500
13.781500 1.679600
13.817100 1.621000
13.852600 1.592000
13.888100 1.569700
13.923600 1.579700
13.959100 1.722400
13.994700 1.901500
14.030200 1.963200
14.065700 1.862700
14.101200 1.752700
14.136800 1.689500
14.172300 1.761100
14.207800 1.677000
14.243300 1.576700
14.278900 1.580500
14.314400 2.059500
14.349900 3.299800
14.385400 2.997500
14.421000 2.550600
14.456500 2.031300
14.492000 2.557800
14.527500 2.471800
14.563100 2.174800
14.598600 2.154900
14.634100 2.175500
14.669600 2.042200
14.705200 1.860200
14.740700 1.789100
14.776200 1.677200
14.811700 1.560900
14.847300 1.457500
14.882800 1.378600
14.918300 1.382700
14.953800 1.606900
14.989400 1.669000
15.024900 1.819600
15.060400 1.792800
15.095900 1.875200
15.131400 1.960000
15.167000 1.893000
15.202500 1.801000
15.238000 1.762600
15.273500 1.764800
15.309100 1.790600
15.344600 1.878100
15.380100 1.833100
15.415600 1.811700
15.451200 1.827800
15.486700 1.851900
15.522200 1.897000
15.557700 1.954800
15.593300 1.945800
15.628800 2.011200
15.664300 2.436200
15.699800 3.117600
15.735400 3.403400
15.770900 3.430400
15.806400 2.735800
15.841900 2.456600
15.877500 2.760700
15.913000 2.765000
15.948500 3.016100
15.984000 4.096200
16.019600 3.035200
16.055100 2.710700
16.090600 2.461300
16.126100 2.005800
16.161700 2.116400
16.197200 2.796300
16.232700 3.362100
16.268200 2.466000
16.303700 2.367200
16.339300 2.183300
16.374800 2.151800
16.410300 2.044600
16.445800 1.603900
16.481400 1.484200
16.516900 1.854300
16.552400 2.312600
16.587900 2.643300
16.623500 2.023600
16.659000 1.745800
16.694500 1.607800
16.730000 1.838400
16.765600 2.686100
16.801100 2.677900
16.836600 2.526600
16.872100 2.291500
16.907700 2.300200
16.943200 2.420600
16.978700 2.469700
17.014200 2.614400
17.049800 2.648200
17.085300 2.521600
17.120800 2.830900
17.156300 3.281400
17.191900 3.247200
17.227400 2.702100
17.262900 2.624600
17.298400 2.572900
17.334000 2.800800
17.369500 3.675200
17.405000 3.399900
17.440500 3.333700
17.476000 3.068100
17.511600 2.911600
17.547100 2.637800
17.582600 2.328300
17.618100 2.129500
17.653700 1.970100
17.689200 1.824700
17.724700 1.808300
17.760200 2.176800
17.795800 2.434300
17.831300 2.679600
17.866800 2.824900
17.902300 2.686600
17.937900 2.506500
17.973400 2.183900
18.008900 1.817200
18.044400 1.615800
18.080000 1.404400
18.115500 1.409000
18.151000 1.908100
18.186500 2.211400
18.222100 2.588500
18.257600 3.260700
18.293100 3.604400
18.328600 4.583900
18.364200 3.548200
18.399700 2.672400
18.435200 2.575100
18.470700 2.872200
18.506200 2.891600
18.541800 2.698400
18.577300 2.868500
18.612800 3.189300
18.648300 3.482200
18.683900 3.643400
18.719400 3.934000
18.754900 4.421000
18.790400 4.353800
18.826000 4.090300
18.861500 3.956500
18.897000 3.095800
18.932500 2.862100
18.968100 2.994600
19.003600 3.113200
19.039100 3.229500
19.074600 3.306000
19.110200 3.270500
19.145700 3.335000
19.181200 3.363400
19.216700 3.267900
19.252300 3.149000
19.287800 3.065000
19.323300 2.955400
19.358800 3.046000
19.394400 3.203800
19.429900 3.247400
19.465400 3.138100
19.500900 3.211100
19.536500 3.177900
19.572000 3.126000
19.607500 3.006200
19.643000 2.884600
19.678500 2.829500
19.714100 3.448900
19.749600 4.120400
19.785100 3.878500
19.820600 3.953000
19.856200 4.151900
19.891700 3.838100
19.927200 3.524500
19.962700 3.274900
19.998300 3.286900
20.033800 3.305800
20.069300 3.083100
20.104800 2.914900
20.140400 2.902300
20.175900 3.301300
20.211400 4.021900
20.246900 3.696300
20.282500 3.537300
20.318000 3.494600
20.353500 3.539700
20.389000 3.786700
20.424600 4.153100
20.460100 4.325400
20.495600 4.055400
20.531100 4.504300
20.566700 4.295600
20.602200 4.014200
20.637700 4.069000
20.673200 3.808700
20.708800 4.041000
20.744300 4.719900
20.779800 4.422500
20.815300 4.077400
20.850800 3.892700
20.886400 3.584000
20.921900 4.157600
20.957400 4.275500
20.992900 3.884900
21.028500 3.924300
21.064000 3.781700
21.099500 3.485000
21.135000 3.271200
21.170600 3.106000
21.206100 2.975900
21.241600 2.788900
21.277100 2.701500
21.312700 2.646000
21.348200 2.519600
21.383700 2.346200
21.419200 2.169300
21.454800 2.003200
21.490300 1.948600
21.525800 1.959400
21.561300 2.002400
21.596900 2.095400
21.632400 2.179000
21.667900 2.256200
21.703400 2.404900
21.739000 2.561200
21.774500 2.520400
21.810000 2.545400
21.845500 2.592200
21.881100 2.664100
21.916600 2.726100
21.952100 2.623600
21.987600 2.126900
22.023100 1.856300
22.058700 1.859500
22.094200 2.123700
22.129700 2.348300
22.165200 2.515100
22.200800 2.698600
22.236300 3.107400
22.271800 2.468800
22.307300 2.274500
22.342900 2.285500
22.378400 2.350800
22.413900 2.350700
22.449400 2.245900
22.485000 2.146900
22.520500 2.213900
22.556000 2.238900
22.591500 2.278600
22.627100 2.380000
22.662600 2.382600
22.698100 2.418000
22.733600 2.443400
22.769200 2.422900
22.804700 2.464900
22.840200 2.532300
22.875700 2.688300
22.911300 2.577000
22.946800 2.569300
22.982300 2.702200
23.017800 2.658000
23.053400 2.601200
23.088900 2.658700
23.124400 3.052600
23.159900 2.681300
23.195400 2.311600
23.231000 2.258900
23.266500 2.332700
23.302000 2.332600
23.337500 2.346000
23.373100 2.401600
23.408600 2.381400
23.444100 2.338300
23.479600 2.316500
23.515200 2.375800
23.550700 2.387300
23.586200 2.444600
23.621700 2.804900
23.657300 2.637200
23.692800 2.450300
23.728300 2.295000
23.763800 2.090900
23.799400 1.871900
23.834900 1.918200
23.870400 2.431500
23.905900 2.890300
23.941500 3.045000
23.977000 3.088500
24.012500 2.775300
24.048000 2.606000
24.083600 2.442700
24.119100 2.261200
24.154600 2.061600
24.190100 1.943200
24.225700 1.975500
24.261200 2.129000
24.296700 2.516600
24.332200 2.565800
24.367700 2.750000
24.403300 2.903000
24.438800 2.914200
24.474300 2.360800
24.509800 2.299300
24.545400 2.264800
24.580900 2.214000
24.616400 2.083400
24.651900 2.097800
24.687500 2.261900
24.723000 2.455600
24.758500 2.567300
24.794000 2.678200
24.829600 2.732200
24.865100 2.672900
24.900600 2.642100
24.936100 2.407200
24.971700 2.260400
25.007200 2.121800
25.042700 1.992200
25.078200 2.112300
25.113800 2.129500
25.149300 2.157800
25.184800 2.383900
25.220300 2.151300
25.255900 2.233100
25.291400 2.254300
25.326900 2.128400
25.362400 2.204400
25.397900 2.217100
25.433500 2.137500
25.469000 2.105600
25.504500 2.140400
25.540000 2.152100
25.575600 2.472500
25.611100 2.344300
25.646600 2.237000
25.682100 2.059500
25.717700 2.045300
25.753200 2.137300
25.788700 2.279000
25.824200 2.362700
25.859800 2.526700
25.895300 2.563800
25.930800 2.452300
25.966300 2.503000
26.001900 2.622600
26.037400 2.889400
26.072900 2.942000
26.108400 2.842600
26.144000 2.496700
26.179500 2.393400
26.215000 2.371400
26.250500 2.264000
26.286100 2.153300
26.321600 2.188500
26.357100 2.241600
26.392600 2.268500
26.428200 2.478200
26.463700 2.855700
26.499200 3.462300
26.534700 3.752300
26.570200 3.638500
26.605800 2.918900
26.641300 2.269900
26.676800 2.133500
26.712300 2.168000
26.747900 2.302500
26.783400 2.292300
26.818900 2.534100
26.854400 2.421500
26.890000 2.406400
26.925500 2.098300
26.961000 1.964100
26.996500 2.053200
27.032100 2.150700
27.067600 2.286500
27.103100 2.277500
27.138600 2.625500
27.174200 2.931700
27.209700 2.674700
27.245200 2.707500
27.280700 2.440100
27.316300 2.324400
27.351800 2.377600
27.387300 2.376500
27.422800 2.493800
27.458400 2.631000
27.493900 2.617500
27.529400 2.677700
27.564900 2.675400
27.600500 2.515600
27.636000 2.712700
27.671500 2.896400
27.707000 2.818600
27.742500 2.901600
27.778100 2.615400
27.813600 2.663000
27.849100 2.561400
27.884600 2.514700
27.920200 2.381800
27.955700 2.055500
27.991200 1.996900
28.026700 2.121100
28.062300 2.005300
28.097800 2.013400
28.133300 2.137700
28.168800 2.604700
28.204400 2.887900
28.239900 2.886600
28.275400 2.555200
28.310900 2.362500
28.346500 2.391700
28.382000 2.500100
28.417500 2.612400
28.453000 2.557100
28.488600 2.467100
28.524100 2.484000
28.559600 2.424800
28.595100 2.413400
28.630700 2.479400
28.666200 2.589300
28.701700 2.674000
28.737200 2.581600
28.772800 2.547600
28.808300 2.546000
28.843800 2.777200
28.879300 2.998400
28.914800 2.915400
28.950400 2.729800
28.985900 2.620700
29.021400 2.731000
29.056900 2.612600
29.092500 2.390100
29.128000 2.324400
29.163500 2.287000
29.199000 2.352500
29.234600 1.890300
29.270100 1.581700
29.305600 1.321500
29.341100 1.194600
29.376700 1.134800
29.412200 1.101300
29.447700 1.133700
29.483200 1.362100
29.518800 1.319400
29.554300 1.204500
29.589800 1.047300
29.625300 0.801200
29.660900 0.671900
29.696400 0.552500
29.731900 0.448600
29.767400 0.288800
29.803000 0.172100
29.838500 0.095300
29.874000 0.056900
29.909500 0.030800
29.945100 0.012100
29.980600 0.000700
30.016100 0.000000
30.051600 0.000000
30.087100 0.000000
30.122700 0.000000
30.158200 0.000000
30.193700 0.000000
30.229200 0.000000
30.264800 0.000000
30.300300 0.000000
30.335800 0.000000
30.371300 0.000000
30.406900 0.000000
30.442400 0.000000
30.477900 0.000000
30.513400 0.000000
30.549000 0.000000
30.584500 0.000000
30.620000 0.000000
30.655500 0.000000
30.691100 0.000000
30.726600 0.000000
30.762100 0.000000
30.797600 0.000000
30.833200 0.000000
30.868700 0.000000
30.904200 0.000000
30.939700 0.000000
30.975300 0.000000
31.010800 0.000000
31.046300 0.000000
31.081800 0.000000
31.117300 0.000000
31.152900 0.000000
31.188400 0.000000
31.223900 0.000000
31.259400 0.000000
31.295000 0.000000
31.330500 0.000000
31.366000 0.000000
31.401500 0.000000
31.437100 0.000000
31.472600 0.000000
31.508100 0.000000
31.543600 0.000000
31.579200 0.000000
31.614700 0.000000
31.650200 0.000000
31.685700 0.000000
31.721300 0.000000
31.756800 0.000000
31.792300 0.000000
31.827800 0.000000
31.863400 0.000000
31.898900 0.000000
31.934400 0.000000
31.969900 0.000000
32.005500 0.000000
32.041000 0.000000
32.076500 0.000000
32.112000 0.000000
32.147600 0.000000
32.183100 0.000000
32.218600 0.000000
32.254100 0.000000
32.289600 0.000000
32.325200 0.000000
32.360700 0.000000
32.396200 0.000000
32.431700 0.000000
32.467300 0.000000
32.502800 0.000000
32.538300 0.000000
32.573800 0.000000
32.609400 0.000000
32.644900 0.000000
32.680400 0.000000
32.715900 0.000000
32.751500 0.000000
32.787000 0.000000
32.822500 0.000000
32.858000 0.000000
32.893600 0.000000
32.929100 0.000000
32.964600 0.000000
33.000100 0.000000
33.035700 0.000000
33.071200 0.000000
33.106700 0.000000
33.142200 0.000000
33.177800 0.000000
33.213300 0.000000
e
