set title 'mp-1225448 - Density of States'
set xlabel 'Energy (eV)'
set ylabel 'DOS (states/eV)'
set grid
set xrange [-10:10]
set yrange [0:24.460]
set xzeroaxis lt -1
set terminal png size 800,600
set output 'mp-1225448_dos_gnuplot.png'
plot '-' using 1:2 with lines title 'DOS'
-37.268500 0.000000
-37.230200 0.000000
-37.191900 0.000000
-37.153700 0.000000
-37.115400 0.000000
-37.077100 0.000000
-37.038800 0.000000
-37.000500 0.000000
-36.962200 0.000000
-36.923900 0.000000
-36.885600 0.000000
-36.847300 0.000000
-36.809100 0.000000
-36.770800 0.000000
-36.732500 0.000000
-36.694200 0.000000
-36.655900 0.000000
-36.617600 0.000000
-36.579300 0.000000
-36.541000 0.000000
-36.502800 0.000000
-36.464500 0.000000
-36.426200 0.000000
-36.387900 0.000000
-36.349600 0.000000
-36.311300 0.000000
-36.273000 0.000000
-36.234700 0.000000
-36.196400 0.000000
-36.158200 0.000000
-36.119900 0.000000
-36.081600 0.000000
-36.043300 0.000000
-36.005000 0.000000
-35.966700 0.000000
-35.928400 0.000000
-35.890100 0.000000
-35.851800 0.000000
-35.813600 0.000000
-35.775300 0.000000
-35.737000 0.000000
-35.698700 0.000000
-35.660400 0.000000
-35.622100 0.000000
-35.583800 0.000000
-35.545500 0.000000
-35.507300 0.000000
-35.469000 0.000000
-35.430700 0.000000
-35.392400 0.000000
-35.354100 0.000000
-35.315800 0.000000
-35.277500 0.000000
-35.239200 0.000000
-35.200900 0.000000
-35.162700 0.000000
-35.124400 0.000000
-35.086100 0.000000
-35.047800 0.000000
-35.009500 0.000000
-34.971200 0.000000
-34.932900 0.000000
-34.894600 0.000000
-34.856300 0.000000
-34.818100 0.000000
-34.779800 0.000000
-34.741500 0.000000
-34.703200 0.000000
-34.664900 0.000000
-34.626600 0.000000
-34.588300 0.000000
-34.550000 0.000000
-34.511700 0.000000
-34.473500 0.000000
-34.435200 0.000000
-34.396900 0.000000
-34.358600 0.000000
-34.320300 0.000000
-34.282000 0.000000
-34.243700 0.000000
-34.205400 0.000000
-34.167200 0.000000
-34.128900 0.000000
-34.090600 0.000000
-34.052300 0.000000
-34.014000 0.000000
-33.975700 0.000000
-33.937400 0.000000
-33.899100 0.000000
-33.860800 0.000000
-33.822600 0.000000
-33.784300 1.988900
-33.746000 5.153500
-33.707700 6.586800
-33.669400 9.181600
-33.631100 17.524000
-33.592800 0.000000
-33.554500 0.000000
-33.516200 0.000000
-33.478000 0.000000
-33.439700 0.000000
-33.401400 0.000000
-33.363100 0.000000
-33.324800 0.000000
-33.286500 0.000000
-33.248200 0.000000
-33.209900 0.000000
-33.171700 0.000000
-33.133400 0.000000
-33.095100 0.000000
-33.056800 0.000000
-33.018500 0.000000
-32.980200 0.000000
-32.941900 0.000000
-32.903600 0.000000
-32.865300 0.000000
-32.827100 0.000000
-32.788800 0.000000
-32.750500 0.000000
-32.712200 0.000000
-32.673900 0.000000
-32.635600 0.000000
-32.597300 0.000000
-32.559000 0.000000
-32.520700 0.000000
-32.482500 0.000000
-32.444200 0.000000
-32.405900 0.000000
-32.367600 0.000000
-32.329300 0.000000
-32.291000 0.000000
-32.252700 0.000000
-32.214400 0.000000
-32.176100 0.000000
-32.137900 0.000000
-32.099600 0.000000
-32.061300 0.000000
-32.023000 0.000000
-31.984700 0.000000
-31.946400 0.000000
-31.908100 0.000000
-31.869800 0.000000
-31.831600 0.000000
-31.793300 0.000000
-31.755000 0.000000
-31.716700 0.000000
-31.678400 0.000000
-31.640100 0.000000
-31.601800 0.000000
-31.563500 0.000000
-31.525200 0.000000
-31.487000 0.000000
-31.448700 0.000000
-31.410400 0.000000
-31.372100 0.000000
-31.333800 0.000000
-31.295500 0.000000
-31.257200 0.000000
-31.218900 0.000000
-31.180600 0.000000
-31.142400 0.000000
-31.104100 0.000000
-31.065800 0.000000
-31.027500 0.000000
-30.989200 0.000000
-30.950900 0.000000
-30.912600 0.000000
-30.874300 0.000000
-30.836100 0.000000
-30.797800 0.000000
-30.759500 0.000000
-30.721200 0.000000
-30.682900 0.000000
-30.644600 0.000000
-30.606300 0.000000
-30.568000 0.000000
-30.529700 0.000000
-30.491500 0.000000
-30.453200 0.000000
-30.414900 0.000000
-30.376600 0.000000
-30.338300 0.000000
-30.300000 0.000000
-30.261700 0.000000
-30.223400 0.000000
-30.185100 0.000000
-30.146900 0.000000
-30.108600 0.000000
-30.070300 0.000000
-30.032000 0.000000
-29.993700 0.000000
-29.955400 0.000000
-29.917100 0.000000
-29.878800 0.000000
-29.840500 0.000000
-29.802300 0.000000
-29.764000 0.000000
-29.725700 0.000000
-29.687400 0.000000
-29.649100 0.000000
-29.610800 0.000000
-29.572500 0.000000
-29.534200 0.000000
-29.496000 0.000000
-29.457700 0.000000
-29.419400 0.000000
-29.381100 0.000000
-29.342800 0.000000
-29.304500 0.000000
-29.266200 0.000000
-29.227900 0.000000
-29.189600 0.000000
-29.151400 0.000000
-29.113100 0.000000
-29.074800 0.000000
-29.036500 0.000000
-28.998200 0.000000
-28.959900 0.000000
-28.921600 0.000000
-28.883300 0.000000
-28.845000 0.000000
-28.806800 0.000000
-28.768500 0.000000
-28.730200 0.000000
-28.691900 0.000000
-28.653600 0.000000
-28.615300 0.000000
-28.577000 0.000000
-28.538700 0.000000
-28.500500 0.000000
-28.462200 0.000000
-28.423900 0.000000
-28.385600 0.000000
-28.347300 0.000000
-28.309000 0.000000
-28.270700 0.000000
-28.232400 0.000000
-28.194100 0.000000
-28.155900 0.000000
-28.117600 0.000000
-28.079300 0.000000
-28.041000 0.000000
-28.002700 0.000000
-27.964400 0.000000
-27.926100 0.000000
-27.887800 0.000000
-27.849500 0.000000
-27.811300 0.000000
-27.773000 0.000000
-27.734700 0.000000
-27.696400 0.000000
-27.658100 0.000000
-27.619800 0.000000
-27.581500 0.000000
-27.543200 0.000000
-27.505000 0.000000
-27.466700 0.000000
-27.428400 0.000000
-27.390100 0.000000
-27.351800 0.000000
-27.313500 0.000000
-27.275200 0.000000
-27.236900 0.000000
-27.198600 0.000000
-27.160400 0.000000
-27.122100 0.000000
-27.083800 0.000000
-27.045500 0.000000
-27.007200 0.000000
-26.968900 0.000000
-26.930600 0.000000
-26.892300 0.000000
-26.854000 0.000000
-26.815800 0.000000
-26.777500 0.000000
-26.739200 0.000000
-26.700900 0.000000
-26.662600 0.000000
-26.624300 0.000000
-26.586000 0.000000
-26.547700 0.000000
-26.509400 0.000000
-26.471200 0.000000
-26.432900 0.000000
-26.394600 0.000000
-26.356300 0.000000
-26.318000 0.000000
-26.279700 0.000000
-26.241400 0.000000
-26.203100 0.000000
-26.164900 0.000000
-26.126600 0.000000
-26.088300 0.000000
-26.050000 0.000000
-26.011700 0.000000
-25.973400 0.000000
-25.935100 0.000000
-25.896800 0.000000
-25.858500 0.000000
-25.820300 0.000000
-25.782000 0.000000
-25.743700 0.000000
-25.705400 0.000000
-25.667100 0.000000
-25.628800 0.000000
-25.590500 0.000000
-25.552200 0.000000
-25.513900 0.000000
-25.475700 0.000000
-25.437400 0.000000
-25.399100 0.000000
-25.360800 0.000000
-25.322500 0.000000
-25.284200 0.000000
-25.245900 0.000000
-25.207600 0.000000
-25.169400 0.000000
-25.131100 0.000000
-25.092800 0.000000
-25.054500 0.000000
-25.016200 0.000000
-24.977900 0.000000
-24.939600 0.000000
-24.901300 0.000000
-24.863000 0.000000
-24.824800 0.000000
-24.786500 0.000000
-24.748200 0.000000
-24.709900 0.000000
-24.671600 0.000000
-24.633300 0.000000
-24.595000 0.000000
-24.556700 0.000000
-24.518400 0.000000
-24.480200 0.000000
-24.441900 0.000000
-24.403600 0.000000
-24.365300 0.000000
-24.327000 0.000000
-24.288700 0.000000
-24.250400 0.000000
-24.212100 0.000000
-24.173800 0.000000
-24.135600 0.000000
-24.097300 0.000000
-24.059000 0.000000
-24.020700 0.000000
-23.982400 0.000000
-23.944100 0.000000
-23.905800 0.000000
-23.867500 0.000000
-23.829300 0.000000
-23.791000 0.000000
-23.752700 0.000000
-23.714400 0.000000
-23.676100 0.000000
-23.637800 0.000000
-23.599500 0.000000
-23.561200 0.000000
-23.522900 0.000000
-23.484700 0.000000
-23.446400 0.000000
-23.408100 0.000000
-23.369800 0.000000
-23.331500 0.000000
-23.293200 0.000000
-23.254900 0.000000
-23.216600 0.000000
-23.178300 0.000000
-23.140100 0.000000
-23.101800 0.000000
-23.063500 0.000000
-23.025200 0.000000
-22.986900 0.000000
-22.948600 0.000000
-22.910300 0.000000
-22.872000 0.000000
-22.833800 0.000000
-22.795500 0.000000
-22.757200 0.000000
-22.718900 0.000000
-22.680600 0.000000
-22.642300 0.000000
-22.604000 0.000000
-22.565700 0.000000
-22.527400 0.000000
-22.489200 0.000000
-22.450900 0.000000
-22.412600 0.000000
-22.374300 0.000000
-22.336000 0.000000
-22.297700 0.000000
-22.259400 0.000000
-22.221100 0.000000
-22.182800 0.000000
-22.144600 0.000000
-22.106300 0.000000
-22.068000 0.000000
-22.029700 0.000000
-21.991400 0.000000
-21.953100 0.000000
-21.914800 0.000000
-21.876500 0.000000
-21.838200 0.000000
-21.800000 0.000000
-21.761700 0.000000
-21.723400 0.000000
-21.685100 0.000000
-21.646800 0.000000
-21.608500 0.000000
-21.570200 0.000000
-21.531900 0.000000
-21.493700 0.000000
-21.455400 0.000000
-21.417100 0.000000
-21.378800 0.000000
-21.340500 0.000000
-21.302200 0.000000
-21.263900 0.000000
-21.225600 0.000000
-21.187300 0.000000
-21.149100 0.000000
-21.110800 0.000000
-21.072500 0.000000
-21.034200 0.000000
-20.995900 0.000000
-20.957600 0.000000
-20.919300 0.000000
-20.881000 0.000000
-20.842700 0.000000
-20.804500 0.000000
-20.766200 0.000000
-20.727900 0.000000
-20.689600 0.000000
-20.651300 0.000000
-20.613000 0.000000
-20.574700 0.000000
-20.536400 0.000000
-20.498200 0.000000
-20.459900 0.000000
-20.421600 0.000000
-20.383300 0.000000
-20.345000 0.000000
-20.306700 0.000000
-20.268400 0.000000
-20.230100 0.000000
-20.191800 0.000000
-20.153600 0.000000
-20.115300 0.000000
-20.077000 0.000000
-20.038700 0.000000
-20.000400 0.000000
-19.962100 0.000000
-19.923800 0.000000
-19.885500 0.000000
-19.847200 0.000000
-19.809000 0.000000
-19.770700 0.000000
-19.732400 0.000000
-19.694100 0.000000
-19.655800 0.000000
-19.617500 0.000000
-19.579200 0.000000
-19.540900 0.000000
-19.502600 0.000000
-19.464400 0.000000
-19.426100 0.000000
-19.387800 0.000000
-19.349500 0.000000
-19.311200 0.000000
-19.272900 4.951500
-19.234600 10.070100
-19.196300 10.901400
-19.158100 5.197700
-19.119800 13.654800
-19.081500 8.157400
-19.043200 13.144400
-19.004900 9.538000
-18.966600 15.901000
-18.928300 13.410700
-18.890000 10.553500
-18.851700 5.291100
-18.813500 0.000000
-18.775200 0.000000
-18.736900 0.000000
-18.698600 0.000000
-18.660300 0.000000
-18.622000 0.000000
-18.583700 0.000000
-18.545400 0.000000
-18.507100 0.000000
-18.468900 0.000000
-18.430600 0.000000
-18.392300 0.000000
-18.354000 0.000000
-18.315700 0.000000
-18.277400 0.000000
-18.239100 0.000000
-18.200800 0.000000
-18.162600 0.000000
-18.124300 0.000000
-18.086000 0.000000
-18.047700 0.000000
-18.009400 0.000000
-17.971100 0.000000
-17.932800 0.000000
-17.894500 0.000000
-17.856200 0.000000
-17.818000 0.000000
-17.779700 0.000000
-17.741400 0.000000
-17.703100 0.000000
-17.664800 0.000000
-17.626500 0.000000
-17.588200 0.000000
-17.549900 0.000000
-17.511600 0.000000
-17.473400 0.000000
-17.435100 0.000000
-17.396800 0.000000
-17.358500 0.000000
-17.320200 0.000000
-17.281900 0.000000
-17.243600 0.000000
-17.205300 0.000000
-17.167000 0.000000
-17.128800 0.000000
-17.090500 0.000000
-17.052200 0.000000
-17.013900 0.000000
-16.975600 0.000000
-16.937300 0.000000
-16.899000 0.000000
-16.860700 0.000000
-16.822500 0.000000
-16.784200 0.000000
-16.745900 0.000000
-16.707600 0.000000
-16.669300 0.000000
-16.631000 0.000000
-16.592700 0.000000
-16.554400 0.000000
-16.516100 0.000000
-16.477900 0.000000
-16.439600 0.000000
-16.401300 0.000000
-16.363000 0.000000
-16.324700 0.000000
-16.286400 0.000000
-16.248100 0.000000
-16.209800 0.000000
-16.171500 0.000000
-16.133300 0.000000
-16.095000 0.000000
-16.056700 0.000000
-16.018400 0.000000
-15.980100 0.000000
-15.941800 0.000000
-15.903500 0.000000
-15.865200 0.000000
-15.827000 0.000000
-15.788700 0.000000
-15.750400 0.000000
-15.712100 0.000000
-15.673800 0.000000
-15.635500 0.000000
-15.597200 0.000000
-15.558900 0.000000
-15.520600 0.000000
-15.482400 0.000000
-15.444100 0.000000
-15.405800 0.000000
-15.367500 0.000000
-15.329200 0.000000
-15.290900 0.000000
-15.252600 0.000000
-15.214300 0.000000
-15.176000 0.000000
-15.137800 0.000000
-15.099500 0.000000
-15.061200 0.000000
-15.022900 0.000000
-14.984600 0.000000
-14.946300 0.000000
-14.908000 0.000000
-14.869700 0.000000
-14.831400 0.000000
-14.793200 0.000000
-14.754900 0.000000
-14.716600 0.000000
-14.678300 0.000000
-14.640000 0.000000
-14.601700 0.000000
-14.563400 0.000000
-14.525100 0.000000
-14.486900 0.000000
-14.448600 0.000000
-14.410300 0.000000
-14.372000 0.000000
-14.333700 0.000000
-14.295400 0.000000
-14.257100 0.000000
-14.218800 0.000000
-14.180500 0.000000
-14.142300 0.000000
-14.104000 0.000000
-14.065700 0.000000
-14.027400 0.000000
-13.989100 0.000000
-13.950800 0.000000
-13.912500 0.000000
-13.874200 0.000000
-13.835900 0.000000
-13.797700 0.000000
-13.759400 0.000000
-13.721100 0.000000
-13.682800 0.000000
-13.644500 0.000000
-13.606200 0.000000
-13.567900 0.000000
-13.529600 0.000000
-13.491400 0.000000
-13.453100 0.000000
-13.414800 0.000000
-13.376500 0.000000
-13.338200 0.000000
-13.299900 0.000000
-13.261600 0.000000
-13.223300 0.000000
-13.185000 0.000000
-13.146800 0.000000
-13.108500 0.000000
-13.070200 0.000000
-13.031900 0.000000
-12.993600 0.000000
-12.955300 0.000000
-12.917000 0.000000
-12.878700 0.000000
-12.840400 0.000000
-12.802200 0.259700
-12.763900 1.727100
-12.725600 2.464300
-12.687300 2.198700
-12.649000 2.322900
-12.610700 2.527900
-12.572400 2.823300
-12.534100 3.329300
-12.495800 5.169600
-12.457600 2.586000
-12.419300 2.356000
-12.381000 1.957700
-12.342700 1.393100
-12.304400 1.215500
-12.266100 1.090600
-12.227800 1.116400
-12.189500 1.153000
-12.151300 1.240000
-12.113000 1.416000
-12.074700 2.249600
-12.036400 2.956800
-11.998100 3.930200
-11.959800 5.039300
-11.921500 3.249000
-11.883200 1.458700
-11.844900 5.344400
-11.806700 8.649400
-11.768400 12.738400
-11.730100 10.926900
-11.691800 9.432900
-11.653500 3.654200
-11.615200 2.084800
-11.576900 2.149000
-11.538600 2.213100
-11.500300 2.277300
-11.462100 2.434100
-11.423800 2.536600
-11.385500 3.865900
-11.347200 4.527900
-11.308900 3.470600
-11.270600 3.010500
-11.232300 2.848900
-11.194000 2.584500
-11.155800 2.336400
-11.117500 2.088400
-11.079200 2.309700
-11.040900 2.061200
-11.002600 1.969500
-10.964300 2.136700
-10.926000 1.629200
-10.887700 1.495500
-10.849400 0.000000
-10.811200 0.000000
-10.772900 0.000000
-10.734600 0.000000
-10.696300 0.000000
-10.658000 0.000000
-10.619700 0.000000
-10.581400 0.000000
-10.543100 0.000000
-10.504800 0.000000
-10.466600 0.000000
-10.428300 0.000000
-10.390000 0.000000
-10.351700 0.000000
-10.313400 0.000000
-10.275100 0.000000
-10.236800 0.000000
-10.198500 0.000000
-10.160300 0.000000
-10.122000 0.000000
-10.083700 0.000000
-10.045400 0.000000
-10.007100 0.000000
-9.968800 0.000000
-9.930500 0.000000
-9.892200 0.000000
-9.853900 0.000000
-9.815700 0.000000
-9.777400 0.000000
-9.739100 0.000000
-9.700800 0.000000
-9.662500 0.000000
-9.624200 0.000000
-9.585900 0.000000
-9.547600 0.000000
-9.509300 0.000000
-9.471100 0.000000
-9.432800 0.000000
-9.394500 0.000000
-9.356200 0.000000
-9.317900 0.000000
-9.279600 0.000000
-9.241300 0.000000
-9.203000 0.000000
-9.164700 0.000000
-9.126500 0.000000
-9.088200 0.000000
-9.049900 0.000000
-9.011600 0.000000
-8.973300 0.000000
-8.935000 0.000000
-8.896700 0.000000
-8.858400 0.000000
-8.820200 0.000000
-8.781900 0.000000
-8.743600 0.000000
-8.705300 0.000000
-8.667000 0.000000
-8.628700 0.000000
-8.590400 0.000000
-8.552100 0.000000
-8.513800 0.000000
-8.475600 0.000000
-8.437300 0.000000
-8.399000 0.000000
-8.360700 0.000000
-8.322400 0.000000
-8.284100 0.000000
-8.245800 0.000000
-8.207500 0.000000
-8.169200 0.000000
-8.131000 0.000000
-8.092700 0.000000
-8.054400 0.000000
-8.016100 0.000000
-7.977800 0.000000
-7.939500 0.000000
-7.901200 0.000000
-7.862900 0.000000
-7.824700 0.000000
-7.786400 0.000000
-7.748100 0.000000
-7.709800 0.000000
-7.671500 0.000000
-7.633200 0.000000
-7.594900 0.000000
-7.556600 0.000000
-7.518300 0.000000
-7.480100 0.000000
-7.441800 0.000000
-7.403500 0.000000
-7.365200 0.000000
-7.326900 0.000000
-7.288600 0.000000
-7.250300 0.000000
-7.212000 0.000000
-7.173700 0.000000
-7.135500 0.000000
-7.097200 0.000000
-7.058900 0.000000
-7.020600 0.000000
-6.982300 0.000000
-6.944000 0.000000
-6.905700 0.000000
-6.867400 0.000000
-6.829100 0.000000
-6.790900 0.000000
-6.752600 0.000000
-6.714300 0.000000
-6.676000 0.000000
-6.637700 0.000000
-6.599400 0.000000
-6.561100 0.000000
-6.522800 0.000000
-6.484600 0.000000
-6.446300 0.000000
-6.408000 0.000000
-6.369700 0.000000
-6.331400 0.000000
-6.293100 0.000000
-6.254800 0.000000
-6.216500 0.000000
-6.178200 0.000000
-6.140000 0.000000
-6.101700 0.000000
-6.063400 0.000000
-6.025100 0.000000
-5.986800 0.000000
-5.948500 0.000000
-5.910200 0.000000
-5.871900 0.000000
-5.833600 0.000000
-5.795400 0.000000
-5.757100 0.000000
-5.718800 0.000000
-5.680500 0.000000
-5.642200 0.000000
-5.603900 0.000000
-5.565600 0.000000
-5.527300 0.000000
-5.489100 0.000000
-5.450800 0.000000
-5.412500 0.000000
-5.374200 0.000000
-5.335900 0.000000
-5.297600 0.000000
-5.259300 0.000000
-5.221000 0.000000
-5.182700 0.000000
-5.144500 0.000000
-5.106200 0.000000
-5.067900 0.000000
-5.029600 0.000000
-4.991300 0.000000
-4.953000 0.000000
-4.914700 0.000000
-4.876400 0.000000
-4.838100 0.000000
-4.799900 0.000000
-4.761600 0.000000
-4.723300 0.000000
-4.685000 0.000000
-4.646700 0.000000
-4.608400 0.000000
-4.570100 0.000000
-4.531800 0.000000
-4.493500 0.000000
-4.455300 0.000000
-4.417000 0.000000
-4.378700 0.000000
-4.340400 0.000000
-4.302100 0.000000
-4.263800 0.000000
-4.225500 0.000000
-4.187200 0.000000
-4.149000 0.000000
-4.110700 0.000000
-4.072400 0.000000
-4.034100 0.000000
-3.995800 0.000000
-3.957500 0.000000
-3.919200 0.000000
-3.880900 0.000000
-3.842600 0.000000
-3.804400 0.000000
-3.766100 0.000000
-3.727800 0.000000
-3.689500 0.000000
-3.651200 0.000000
-3.612900 0.000000
-3.574600 0.000000
-3.536300 0.000000
-3.498000 0.000000
-3.459800 0.000000
-3.421500 0.000000
-3.383200 0.000000
-3.344900 0.000000
-3.306600 0.000000
-3.268300 0.000000
-3.230000 0.000000
-3.191700 0.000000
-3.153500 0.000000
-3.115200 0.000000
-3.076900 0.000000
-3.038600 0.000000
-3.000300 0.000000
-2.962000 0.000000
-2.923700 0.000000
-2.885400 0.000000
-2.847100 0.000000
-2.808900 0.000000
-2.770600 0.000000
-2.732300 0.000000
-2.694000 0.000000
-2.655700 0.000000
-2.617400 0.000000
-2.579100 0.000000
-2.540800 0.000000
-2.502500 0.000000
-2.464300 0.000000
-2.426000 0.000000
-2.387700 0.000000
-2.349400 0.000000
-2.311100 0.000000
-2.272800 0.000000
-2.234500 0.000000
-2.196200 0.000000
-2.157900 0.000000
-2.119700 0.000000
-2.081400 0.000000
-2.043100 0.000000
-2.004800 0.000000
-1.966500 0.000000
-1.928200 0.000000
-1.889900 0.000000
-1.851600 0.000000
-1.813400 0.000000
-1.775100 0.000000
-1.736800 0.000000
-1.698500 0.000000
-1.660200 0.000000
-1.621900 0.000000
-1.583600 0.000000
-1.545300 0.000000
-1.507000 0.000000
-1.468800 0.000000
-1.430500 0.000000
-1.392200 0.000000
-1.353900 0.000000
-1.315600 0.000000
-1.277300 0.000000
-1.239000 0.000000
-1.200700 0.000000
-1.162400 0.000000
-1.124200 0.000000
-1.085900 0.000000
-1.047600 0.000000
-1.009300 0.000000
-0.971000 0.000000
-0.932700 0.000000
-0.894400 0.000000
-0.856100 0.000000
-0.817900 0.000000
-0.779600 0.000000
-0.741300 0.000000
-0.703000 0.000000
-0.664700 0.000000
-0.626400 0.000000
-0.588100 0.000000
-0.549800 0.000000
-0.511500 0.000000
-0.473300 0.000000
-0.435000 0.000000
-0.396700 0.000000
-0.358400 0.000000
-0.320100 0.000000
-0.281800 0.000000
-0.243500 0.000000
-0.205200 0.000000
-0.166900 0.000000
-0.128700 0.000000
-0.090400 0.000000
-0.052100 0.000000
-0.013800 0.000000
0.024500 0.000000
0.062800 0.000000
0.101100 0.000000
0.139400 0.000000
0.177700 0.000000
0.215900 0.000000
0.254200 0.000000
0.292500 0.000000
0.330800 0.000000
0.369100 0.005500
0.407400 0.016600
0.445700 0.031300
0.484000 0.049300
0.522200 0.068500
0.560500 0.075000
0.598800 0.076300
0.637100 0.082700
0.675400 0.090200
0.713700 0.098000
0.752000 0.104800
0.790300 0.111100
0.828600 0.118200
0.866800 0.125600
0.905100 0.133300
0.943400 0.140900
0.981700 0.147600
1.020000 0.153900
1.058300 0.159600
1.096600 0.164700
1.134900 0.170400
1.173200 0.176600
1.211400 0.183100
1.249700 0.189800
1.288000 0.196600
1.326300 0.203600
1.364600 0.210800
1.402900 0.218100
1.441200 0.225600
1.479500 0.233100
1.517700 0.240800
1.556000 0.248700
1.594300 0.256600
1.632600 0.264000
1.670900 0.272100
1.709200 0.280500
1.747500 0.289100
1.785800 0.297800
1.824100 0.307100
1.862300 0.317300
1.900600 0.329100
1.938900 0.344400
1.977200 0.359100
2.015500 0.372200
2.053800 0.383800
2.092100 0.393900
2.130400 0.402500
2.168700 0.409600
2.206900 0.420500
2.245200 0.433000
2.283500 0.445400
2.321800 0.468900
2.360100 0.491800
2.398400 0.513000
2.436700 0.534200
2.475000 0.558100
2.513300 0.587600
2.551500 0.623800
2.589800 0.667500
2.628100 0.757200
2.666400 0.981800
2.704700 1.148700
2.743000 1.285800
2.781300 1.279500
2.819600 1.258600
2.857800 1.298700
2.896100 1.391700
2.934400 1.502300
2.972700 1.645300
3.011000 1.803900
3.049300 2.056900
3.087600 2.000700
3.125900 2.010200
3.164200 2.067000
3.202400 2.067200
3.240700 2.067100
3.279000 2.110000
3.317300 2.163500
3.355600 2.158900
3.393900 2.116300
3.432200 2.116300
3.470500 2.113200
3.508800 2.064600
3.547000 1.995600
3.585300 1.938200
3.623600 1.927100
3.661900 1.928200
3.700200 1.926100
3.738500 1.925200
3.776800 1.927300
3.815100 1.944100
3.853300 1.969700
3.891600 2.007600
3.929900 2.192300
3.968200 2.492700
4.006500 2.667900
4.044800 2.679700
4.083100 2.691600
4.121400 2.733200
4.159700 2.673900
4.197900 2.616600
4.236200 2.669000
4.274500 2.676000
4.312800 2.969700
4.351100 3.221500
4.389400 3.295000
4.427700 3.317600
4.466000 2.468000
4.504300 2.108700
4.542500 1.988100
4.580800 1.974500
4.619100 2.118600
4.657400 2.280100
4.695700 3.417400
4.734000 3.558400
4.772300 2.896800
4.810600 2.937200
4.848900 2.764300
4.887100 1.984500
4.925400 1.509500
4.963700 1.143500
5.002000 0.938900
5.040300 0.925200
5.078600 1.149000
5.116900 1.375800
5.155200 1.629800
5.193400 2.017700
5.231700 2.589000
5.270000 3.072500
5.308300 3.310000
5.346600 3.222400
5.384900 3.590800
5.423200 3.534300
5.461500 3.555900
5.499800 3.368800
5.538000 3.194500
5.576300 2.799500
5.614600 2.745200
5.652900 2.858300
5.691200 2.957900
5.729500 3.090700
5.767800 3.074200
5.806100 3.237500
5.844400 3.363900
5.882600 3.398200
5.920900 3.497700
5.959200 3.577700
5.997500 3.737200
6.035800 4.340500
6.074100 4.259800
6.112400 3.901000
6.150700 3.925900
6.188900 4.293400
6.227200 4.302000
6.265500 4.364200
6.303800 4.292300
6.342100 3.932700
6.380400 3.655000
6.418700 3.368200
6.457000 3.150600
6.495300 3.025400
6.533500 2.884700
6.571800 2.756800
6.610100 2.623000
6.648400 2.562300
6.686700 2.525500
6.725000 2.543100
6.763300 2.693800
6.801600 3.002900
6.839900 3.457700
6.878100 4.103900
6.916400 4.511600
6.954700 6.816800
6.993000 7.814000
7.031300 7.995400
7.069600 9.807900
7.107900 10.303000
7.146200 7.851500
7.184500 6.550900
7.222700 6.186000
7.261000 8.390200
7.299300 9.246600
7.337600 10.363600
7.375900 10.599600
7.414200 11.816700
7.452500 7.961600
7.490800 7.813700
7.529000 9.854500
7.567300 11.107100
7.605600 12.018000
7.643900 6.726000
7.682200 1.941900
7.720500 2.128000
7.758800 2.680600
7.797100 2.959900
7.835400 3.292700
7.873600 3.690100
7.911900 4.035500
7.950200 4.264800
7.988500 4.589200
8.026800 6.681200
8.065100 5.849100
8.103400 6.210300
8.141700 7.322200
8.180000 8.331500
8.218200 8.092000
8.256500 8.233600
8.294800 8.442000
8.333100 9.126000
8.371400 11.060800
8.409700 15.995700
8.448000 14.516900
8.486300 12.772000
8.524500 22.236300
8.562800 9.760700
8.601100 9.073900
8.639400 8.974300
8.677700 7.954800
8.716000 5.352600
8.754300 3.576600
8.792600 2.576500
8.830900 1.786500
8.869100 1.776600
8.907400 1.997500
8.945700 2.254400
8.984000 2.919900
9.022300 3.595000
9.060600 4.124800
9.098900 4.755100
9.137200 4.274000
9.175500 3.796000
9.213700 3.344000
9.252000 3.010600
9.290300 2.707300
9.328600 2.640800
9.366900 2.718200
9.405200 2.242200
9.443500 2.083600
9.481800 2.095700
9.520000 2.340600
9.558300 2.696700
9.596600 2.726300
9.634900 2.738500
9.673200 2.651200
9.711500 2.673000
9.749800 2.589700
9.788100 2.560700
9.826400 2.512700
9.864600 2.424600
9.902900 2.295400
9.941200 2.338400
9.979500 2.302700
10.017800 2.155400
10.056100 2.016400
10.094400 1.957900
10.132700 1.914600
10.171000 1.878700
10.209200 1.846600
10.247500 1.838000
10.285800 1.832100
10.324100 1.831900
10.362400 1.795700
10.400700 1.745200
10.439000 1.726100
10.477300 1.711800
10.515600 1.701200
10.553800 1.713500
10.592100 1.733500
10.630400 1.769100
10.668700 1.813000
10.707000 1.840000
10.745300 1.885500
10.783600 1.927100
10.821900 1.963100
10.860100 1.950900
10.898400 2.029800
10.936700 2.152800
10.975000 2.276700
11.013300 2.389300
11.051600 2.412100
11.089900 2.424500
11.128200 2.443600
11.166500 2.450000
11.204700 2.512700
11.243000 2.607300
11.281300 2.408600
11.319600 2.407400
11.357900 2.391000
11.396200 2.370200
11.434500 2.367200
11.472800 2.365500
11.511100 2.317600
11.549300 2.224000
11.587600 2.216800
11.625900 2.222100
11.664200 2.171000
11.702500 2.140400
11.740800 2.372600
11.779100 2.864800
11.817400 3.036800
11.855600 2.762700
11.893900 2.833800
11.932200 2.777900
11.970500 2.670200
12.008800 2.677300
12.047100 2.894100
12.085400 2.993200
12.123700 2.975900
12.162000 2.523400
12.200200 2.194600
12.238500 1.773600
12.276800 1.524400
12.315100 1.392600
12.353400 1.216800
12.391700 1.139300
12.430000 1.067900
12.468300 1.031100
12.506600 1.008600
12.544800 1.014300
12.583100 1.112700
12.621400 1.234700
12.659700 1.455600
12.698000 1.729200
12.736300 2.136000
12.774600 2.490400
12.812900 2.791100
12.851200 3.217800
12.889400 3.355800
12.927700 3.070100
12.966000 2.432800
13.004300 2.110800
13.042600 1.981600
13.080900 1.940200
13.119200 2.002200
13.157500 2.054100
13.195700 2.124300
13.234000 1.808900
13.272300 1.604700
13.310600 1.555700
13.348900 1.638000
13.387200 1.749900
13.425500 1.908800
13.463800 2.062900
13.502100 2.193500
13.540300 2.071000
13.578600 1.881500
13.616900 1.779000
13.655200 1.604300
13.693500 1.476900
13.731800 1.360000
13.770100 1.253100
13.808400 1.132400
13.846700 1.026500
13.884900 0.948400
13.923200 0.914200
13.961500 0.936700
13.999800 0.894000
14.038100 0.852900
14.076400 0.807700
14.114700 0.760800
14.153000 0.788200
14.191200 0.757100
14.229500 0.693100
14.267800 0.671000
14.306100 0.659400
14.344400 0.670100
14.382700 0.696800
14.421000 0.738200
14.459300 0.828600
14.497600 1.053800
14.535800 1.283400
14.574100 1.572200
14.612400 1.512700
14.650700 1.560000
14.689000 1.574700
14.727300 1.519100
14.765600 1.519500
14.803900 1.494100
14.842200 1.471500
14.880400 1.433400
14.918700 1.428300
14.957000 1.560600
14.995300 1.575700
15.033600 1.515600
15.071900 1.468100
15.110200 1.465000
15.148500 1.577400
15.186800 1.479600
15.225000 1.363700
15.263300 1.277500
15.301600 1.218700
15.339900 1.194700
15.378200 1.184100
15.416500 1.171900
15.454800 1.170900
15.493100 1.232500
15.531300 1.366200
15.569600 1.421700
15.607900 1.375000
15.646200 1.445500
15.684500 2.474000
15.722800 1.672900
15.761100 1.586500
15.799400 1.558200
15.837700 1.547900
15.875900 1.564100
15.914200 1.590600
15.952500 1.619100
15.990800 1.642700
16.029100 1.656400
16.067400 1.663400
16.105700 1.662900
16.144000 1.647300
16.182300 1.614900
16.220500 1.588700
16.258800 1.607300
16.297100 1.594400
16.335400 1.642300
16.373700 1.510800
16.412000 1.502300
16.450300 1.501200
16.488600 1.477800
16.526800 1.462500
16.565100 1.456900
16.603400 1.448800
16.641700 1.460300
16.680000 1.498400
16.718300 1.559300
16.756600 1.637900
16.794900 1.697100
16.833200 1.642600
16.871400 1.596000
16.909700 1.598200
16.948000 1.640800
16.986300 1.674600
17.024600 1.743400
17.062900 1.804600
17.101200 1.867300
17.139500 1.966000
17.177800 2.106300
17.216000 2.261500
17.254300 2.276800
17.292600 2.294700
17.330900 2.203600
17.369200 2.092900
17.407500 2.037800
17.445800 1.985000
17.484100 1.944600
17.522400 2.071000
17.560600 1.850500
17.598900 1.802700
17.637200 1.767700
17.675500 1.794800
17.713800 1.843100
17.752100 1.890700
17.790400 1.930200
17.828700 1.997500
17.866900 1.709300
17.905200 1.675300
17.943500 1.650300
17.981800 1.606500
18.020100 1.584500
18.058400 1.585200
18.096700 1.602800
18.135000 1.637100
18.173300 1.680600
18.211500 1.754200
18.249800 1.829100
18.288100 1.933600
18.326400 2.088600
18.364700 2.429300
18.403000 2.436100
18.441300 2.556800
18.479600 2.708000
18.517900 2.957700
18.556100 2.946200
18.594400 3.108400
18.632700 3.269600
18.671000 3.097100
18.709300 2.897800
18.747600 2.645900
18.785900 2.446500
18.824200 2.317800
18.862400 2.250800
18.900700 2.283500
18.939000 2.219700
18.977300 2.437900
19.015600 2.287400
19.053900 2.231000
19.092200 2.308100
19.130500 2.588300
19.168800 2.822100
19.207000 2.490200
19.245300 2.228600
19.283600 2.094500
19.321900 2.075100
19.360200 2.120300
19.398500 2.194900
19.436800 2.414900
19.475100 2.442800
19.513400 2.540600
19.551600 2.580800
19.589900 2.626500
19.628200 2.558000
19.666500 2.297400
19.704800 2.390100
19.743100 2.100200
19.781400 1.663000
19.819700 1.554400
19.858000 1.522800
19.896200 1.464000
19.934500 1.509600
19.972800 1.606700
20.011100 1.710700
20.049400 1.854600
20.087700 2.025100
20.126000 2.013800
20.164300 2.114100
20.202500 2.237100
20.240800 2.394100
20.279100 2.270000
20.317400 2.272500
20.355700 2.145700
20.394000 2.028900
20.432300 2.015900
20.470600 2.026400
20.508900 2.115300
20.547100 2.407300
20.585400 2.115900
20.623700 1.932400
20.662000 1.897400
20.700300 1.950000
20.738600 2.066400
20.776900 2.177400
20.815200 2.298700
20.853500 2.445400
20.891700 2.574400
20.930000 2.717200
20.968300 2.803100
21.006600 2.814300
21.044900 2.790500
21.083200 2.662100
21.121500 2.485800
21.159800 2.385800
21.198000 2.328800
21.236300 2.339700
21.274600 2.251100
21.312900 2.136000
21.351200 2.001200
21.389500 1.876900
21.427800 1.814600
21.466100 2.027300
21.504400 1.971000
21.542600 1.962800
21.580900 1.984600
21.619200 2.026400
21.657500 2.194700
21.695800 2.241500
21.734100 2.250700
21.772400 2.263000
21.810700 2.280200
21.849000 2.304100
21.887200 2.236800
21.925500 2.221200
21.963800 2.154400
22.002100 2.008700
22.040400 1.961800
22.078700 1.957000
22.117000 2.027100
22.155300 2.195100
22.193600 2.438000
22.231800 2.365100
22.270100 2.449900
22.308400 2.197100
22.346700 1.872100
22.385000 1.820900
22.423300 1.839500
22.461600 1.602100
22.499900 1.343000
22.538100 1.273300
22.576400 1.226400
22.614700 1.163400
22.653000 1.100500
22.691300 1.040500
22.729600 1.027500
22.767900 1.034900
22.806200 1.079700
22.844500 1.140900
22.882700 1.193800
22.921000 1.184700
22.959300 1.245000
22.997600 1.329400
23.035900 1.392700
23.074200 1.463100
23.112500 1.534200
23.150800 1.624300
23.189100 1.681500
23.227300 1.679400
23.265600 1.713200
23.303900 1.760100
23.342200 1.841500
23.380500 1.850100
23.418800 1.819600
23.457100 1.836500
23.495400 1.831400
23.533600 1.956000
23.571900 2.103500
23.610200 2.016200
23.648500 1.951100
23.686800 1.867400
23.725100 1.874500
23.763400 1.881400
23.801700 1.940800
23.840000 2.060000
23.878200 2.169100
23.916500 2.234900
23.954800 2.351300
23.993100 2.478500
24.031400 2.247000
24.069700 2.198400
24.108000 2.192000
24.146300 2.170900
24.184600 2.147700
24.222800 2.052100
24.261100 2.007100
24.299400 1.976500
24.337700 1.907000
24.376000 1.869000
24.414300 1.926100
24.452600 2.043400
24.490900 2.159400
24.529200 2.244400
24.567400 2.339600
24.605700 2.433100
24.644000 2.601600
24.682300 2.705700
24.720600 2.583300
24.758900 2.506800
24.797200 2.338500
24.835500 2.209800
24.873700 2.140400
24.912000 2.155700
24.950300 2.215300
24.988600 2.284600
25.026900 2.366500
25.065200 2.377900
25.103500 2.319200
25.141800 2.410800
25.180100 2.513800
25.218300 2.666800
25.256600 2.558600
25.294900 2.514700
25.333200 2.467300
25.371500 2.439700
25.409800 2.392100
25.448100 2.403500
25.486400 2.417200
25.524700 2.456700
25.562900 2.534700
25.601200 2.572800
25.639500 2.593100
25.677800 2.674500
25.716100 2.709000
25.754400 2.739500
25.792700 2.883200
25.831000 2.852300
25.869200 2.782600
25.907500 2.765700
25.945800 2.896900
25.984100 2.976500
26.022400 3.010300
26.060700 2.992900
26.099000 2.871500
26.137300 2.715900
26.175600 2.637300
26.213800 2.681100
26.252100 2.723900
26.290400 2.702900
26.328700 2.718200
26.367000 2.758900
26.405300 2.915900
26.443600 2.929100
26.481900 2.948100
26.520200 2.995000
26.558400 3.106700
26.596700 3.185200
26.635000 3.295200
26.673300 3.407800
26.711600 3.313700
26.749900 3.202700
26.788200 3.144600
26.826500 3.086200
26.864700 2.977100
26.903000 3.108100
26.941300 2.720600
26.979600 2.540100
27.017900 2.372000
27.056200 2.332500
27.094500 2.269000
27.132800 2.237300
27.171100 2.265300
27.209300 2.300000
27.247600 2.311900
27.285900 2.288100
27.324200 2.293300
27.362500 2.375300
27.400800 2.569400
27.439100 2.267700
27.477400 2.207300
27.515700 2.405500
27.553900 2.370000
27.592200 2.532000
27.630500 2.749400
27.668800 2.625500
27.707100 2.448100
27.745400 2.190600
27.783700 1.985000
27.822000 1.882500
27.860300 1.808500
27.898500 1.740100
27.936800 1.675000
27.975100 1.606700
28.013400 1.564600
28.051700 1.574800
28.090000 1.594900
28.128300 1.557400
28.166600 1.498100
28.204800 1.562800
28.243100 1.643900
28.281400 1.684500
28.319700 1.759700
28.358000 1.974700
28.396300 2.078700
28.434600 2.129500
28.472900 2.067100
28.511200 2.037700
28.549400 2.134700
28.587700 2.129500
28.626000 2.149500
28.664300 2.076000
28.702600 2.017700
28.740900 1.891900
28.779200 1.819400
28.817500 1.745600
28.855800 1.714700
28.894000 1.798200
28.932300 2.014500
28.970600 2.375300
29.008900 2.713300
29.047200 2.907400
29.085500 3.034900
29.123800 3.064400
29.162100 3.161500
29.200300 3.025500
29.238600 2.692100
29.276900 2.497600
29.315200 2.404500
29.353500 2.405900
29.391800 1.980900
29.430100 1.640700
29.468400 1.635800
29.506700 1.668400
29.544900 1.665400
29.583200 1.675100
29.621500 1.713600
29.659800 1.771600
29.698100 1.853800
29.736400 1.958500
29.774700 2.118400
29.813000 2.306400
29.851300 2.480800
29.889500 2.511400
29.927800 2.628000
29.966100 2.801600
30.004400 2.911600
30.042700 2.865500
30.081000 2.929300
30.119300 3.035900
30.157600 3.207000
30.195900 3.170800
30.234100 2.905700
30.272400 2.471000
30.310700 2.260000
30.349000 2.260100
30.387300 2.384600
30.425600 2.460500
30.463900 2.442500
30.502200 2.529900
30.540400 2.614000
30.578700 2.663100
30.617000 2.707700
30.655300 2.916400
30.693600 3.070500
30.731900 2.932900
30.770200 3.149900
30.808500 3.204000
30.846800 3.255700
30.885000 3.171200
30.923300 3.083600
30.961600 3.046500
30.999900 2.922600
31.038200 2.702900
31.076500 2.581900
31.114800 2.534000
31.153100 2.500700
31.191400 2.391300
31.229600 2.182100
31.267900 2.026900
31.306200 1.927500
31.344500 1.912900
31.382800 1.956500
31.421100 2.055300
31.459400 2.305900
31.497700 2.396400
31.535900 2.451300
31.574200 2.529400
31.612500 2.608700
31.650800 2.684000
31.689100 2.749500
31.727400 2.841800
31.765700 2.825900
31.804000 2.759700
31.842300 2.718300
31.880500 2.645800
31.918800 2.651800
31.957100 2.541700
31.995400 2.089500
32.033700 1.904400
32.072000 1.929800
32.110300 2.084600
32.148600 2.238200
32.186900 2.403400
32.225100 2.658100
32.263400 2.910600
32.301700 3.040000
32.340000 3.019200
32.378300 3.054200
32.416600 3.219300
32.454900 3.151500
32.493200 3.065900
32.531500 2.920300
32.569700 2.723900
32.608000 2.459700
32.646300 2.037900
32.684600 1.896700
32.722900 1.813600
32.761200 1.946800
32.799500 2.137000
32.837800 2.338700
32.876000 2.619000
32.914300 2.648000
32.952600 2.619100
32.990900 2.504600
33.029200 2.274100
33.067500 2.267400
33.105800 2.129000
33.144100 1.829200
33.182400 1.919600
33.220600 2.035300
33.258900 2.177300
33.297200 2.396900
33.335500 2.626600
33.373800 2.779500
33.412100 2.864700
33.450400 2.827800
33.488700 2.789900
33.527000 2.737300
33.565200 2.676400
33.603500 2.623800
33.641800 2.622200
33.680100 2.660700
33.718400 2.741400
33.756700 2.791600
33.795000 2.872700
33.833300 2.867400
33.871500 3.025300
33.909800 2.748400
33.948100 2.569500
33.986400 2.419400
34.024700 2.266300
34.063000 2.096800
34.101300 1.922100
34.139600 1.684800
34.177900 1.455800
34.216100 1.335700
34.254400 1.285200
34.292700 1.247200
34.331000 1.209000
34.369300 1.218700
34.407600 1.290200
34.445900 1.249700
34.484200 1.255300
34.522500 1.212100
34.560700 1.129100
34.599000 1.030200
34.637300 0.929000
34.675600 0.830900
34.713900 0.753500
34.752200 0.681600
34.790500 0.616100
34.828800 0.552600
34.867100 0.493100
34.905300 0.447900
34.943600 0.407800
34.981900 0.352600
35.020200 0.303900
35.058500 0.267500
35.096800 0.242000
35.135100 0.221900
35.173400 0.201500
35.211600 0.181400
35.249900 0.160800
35.288200 0.134600
35.326500 0.101800
35.364800 0.078600
35.403100 0.060000
35.441400 0.043300
35.479700 0.028400
35.518000 0.015300
35.556200 0.007800
35.594500 0.005300
35.632800 0.003500
35.671100 0.002400
35.709400 0.001600
35.747700 0.000800
35.786000 0.000100
35.824300 0.000000
35.862600 0.000000
35.900800 0.000000
35.939100 0.000000
35.977400 0.000000
36.015700 0.000000
36.054000 0.000000
36.092300 0.000000
36.130600 0.000000
36.168900 0.000000
36.207100 0.000000
36.245400 0.000000
36.283700 0.000000
36.322000 0.000000
36.360300 0.000000
36.398600 0.000000
36.436900 0.000000
36.475200 0.000000
36.513500 0.000000
36.551700 0.000000
36.590000 0.000000
36.628300 0.000000
36.666600 0.000000
36.704900 0.000000
36.743200 0.000000
36.781500 0.000000
36.819800 0.000000
36.858100 0.000000
36.896300 0.000000
36.934600 0.000000
36.972900 0.000000
37.011200 0.000000
37.049500 0.000000
37.087800 0.000000
37.126100 0.000000
37.164400 0.000000
37.202700 0.000000
37.240900 0.000000
37.279200 0.000000
37.317500 0.000000
37.355800 0.000000
37.394100 0.000000
37.432400 0.000000
37.470700 0.000000
37.509000 0.000000
37.547200 0.000000
37.585500 0.000000
37.623800 0.000000
37.662100 0.000000
37.700400 0.000000
37.738700 0.000000
37.777000 0.000000
37.815300 0.000000
37.853600 0.000000
37.891800 0.000000
37.930100 0.000000
37.968400 0.000000
38.006700 0.000000
38.045000 0.000000
38.083300 0.000000
38.121600 0.000000
38.159900 0.000000
38.198200 0.000000
38.236400 0.000000
38.274700 0.000000
38.313000 0.000000
38.351300 0.000000
38.389600 0.000000
38.427900 0.000000
38.466200 0.000000
38.504500 0.000000
38.542700 0.000000
38.581000 0.000000
38.619300 0.000000
38.657600 0.000000
38.695900 0.000000
38.734200 0.000000
38.772500 0.000000
38.810800 0.000000
38.849100 0.000000
38.887300 0.000000
38.925600 0.000000
38.963900 0.000000
39.002200 0.000000
39.040500 0.000000
39.078800 0.000000
39.117100 0.000000
39.155400 0.000000
39.193700 0.000000
39.231900 0.000000
39.270200 0.000000
39.308500 0.000000
e
