set title 'mp-129 - Density of States'
set xlabel 'Energy (eV)'
set ylabel 'DOS (states/eV)'
set grid
set xrange [-10:10]
set yrange [0:2.907]
set xzeroaxis lt -1
set terminal png size 800,600
set output 'mp-129_dos_gnuplot.png'
plot '-' using 1:2 with lines title 'DOS'
-30.929000 0.000000
-30.891500 0.000000
-30.853900 0.000000
-30.816300 0.000000
-30.778700 0.000000
-30.741100 0.000000
-30.703600 0.000000
-30.666000 0.000000
-30.628400 0.000000
-30.590800 0.000000
-30.553200 0.000000
-30.515600 0.000000
-30.478100 0.000000
-30.440500 0.000000
-30.402900 0.000000
-30.365300 0.000000
-30.327700 0.000000
-30.290100 0.000000
-30.252600 0.000000
-30.215000 0.000000
-30.177400 0.000000
-30.139800 0.000000
-30.102200 0.000000
-30.064600 0.000000
-30.027100 0.000000
-29.989500 0.000000
-29.951900 0.000000
-29.914300 0.000000
-29.876700 0.000000
-29.839100 0.000000
-29.801600 0.000000
-29.764000 0.000000
-29.726400 0.000000
-29.688800 0.000000
-29.651200 0.000000
-29.613600 0.000000
-29.576100 0.000000
-29.538500 0.000000
-29.500900 0.000000
-29.463300 0.000000
-29.425700 0.000000
-29.388100 0.000000
-29.350600 0.000000
-29.313000 0.000000
-29.275400 0.000000
-29.237800 0.000000
-29.200200 0.000000
-29.162700 0.000000
-29.125100 0.000000
-29.087500 0.000000
-29.049900 0.000000
-29.012300 0.000000
-28.974700 0.000000
-28.937200 0.000000
-28.899600 0.000000
-28.862000 0.000000
-28.824400 0.000000
-28.786800 0.000000
-28.749200 0.000000
-28.711700 0.000000
-28.674100 0.000000
-28.636500 0.000000
-28.598900 0.000000
-28.561300 0.000000
-28.523700 0.000000
-28.486200 0.000000
-28.448600 0.000000
-28.411000 0.000000
-28.373400 0.000000
-28.335800 0.000000
-28.298200 0.000000
-28.260700 0.000000
-28.223100 0.000000
-28.185500 0.000000
-28.147900 0.000000
-28.110300 0.000000
-28.072700 0.000000
-28.035200 0.000000
-27.997600 0.000000
-27.960000 0.000000
-27.922400 0.000000
-27.884800 0.000000
-27.847300 0.000000
-27.809700 0.000000
-27.772100 0.000000
-27.734500 0.000000
-27.696900 0.000000
-27.659300 0.000000
-27.621800 0.000000
-27.584200 0.000000
-27.546600 0.000000
-27.509000 0.392300
-27.471400 1.333500
-27.433800 2.007500
-27.396300 2.670500
-27.358700 3.396500
-27.321100 4.491200
-27.283500 7.474100
-27.245900 6.828200
-27.208300 5.095300
-27.170800 3.939300
-27.133200 3.163500
-27.095600 2.934800
-27.058000 2.916800
-27.020400 2.959400
-26.982800 3.047200
-26.945300 3.210100
-26.907700 3.416600
-26.870100 3.739900
-26.832500 4.045100
-26.794900 4.348900
-26.757300 4.688800
-26.719800 4.969500
-26.682200 5.409300
-26.644600 5.930700
-26.607000 5.291800
-26.569400 4.757300
-26.531800 4.588900
-26.494300 4.549500
-26.456700 4.882400
-26.419100 5.356400
-26.381500 6.668900
-26.343900 8.431700
-26.306400 7.679400
-26.268800 7.081200
-26.231200 7.068300
-26.193600 0.000000
-26.156000 0.000000
-26.118400 0.000000
-26.080900 0.000000
-26.043300 0.000000
-26.005700 0.000000
-25.968100 0.000000
-25.930500 0.000000
-25.892900 0.000000
-25.855400 0.000000
-25.817800 0.000000
-25.780200 0.000000
-25.742600 0.000000
-25.705000 0.000000
-25.667400 0.000000
-25.629900 0.000000
-25.592300 0.000000
-25.554700 0.000000
-25.517100 0.000000
-25.479500 0.000000
-25.441900 0.000000
-25.404400 0.000000
-25.366800 0.000000
-25.329200 0.000000
-25.291600 0.000000
-25.254000 0.000000
-25.216400 0.000000
-25.178900 0.000000
-25.141300 0.000000
-25.103700 0.000000
-25.066100 0.000000
-25.028500 0.000000
-24.991000 0.000000
-24.953400 0.000000
-24.915800 0.000000
-24.878200 0.000000
-24.840600 0.000000
-24.803000 0.000000
-24.765500 0.000000
-24.727900 0.000000
-24.690300 0.000000
-24.652700 0.000000
-24.615100 0.000000
-24.577500 0.000000
-24.540000 0.000000
-24.502400 0.000000
-24.464800 0.000000
-24.427200 0.000000
-24.389600 0.000000
-24.352000 0.000000
-24.314500 0.000000
-24.276900 0.000000
-24.239300 0.000000
-24.201700 0.000000
-24.164100 0.000000
-24.126500 0.000000
-24.089000 0.000000
-24.051400 0.000000
-24.013800 0.000000
-23.976200 0.000000
-23.938600 0.000000
-23.901000 0.000000
-23.863500 0.000000
-23.825900 0.000000
-23.788300 0.000000
-23.750700 0.000000
-23.713100 0.000000
-23.675500 0.000000
-23.638000 0.000000
-23.600400 0.000000
-23.562800 0.000000
-23.525200 0.000000
-23.487600 0.000000
-23.450100 0.000000
-23.412500 0.000000
-23.374900 0.000000
-23.337300 0.000000
-23.299700 0.000000
-23.262100 0.000000
-23.224600 0.000000
-23.187000 0.000000
-23.149400 0.000000
-23.111800 0.000000
-23.074200 0.000000
-23.036600 0.000000
-22.999100 0.000000
-22.961500 0.000000
-22.923900 0.000000
-22.886300 0.000000
-22.848700 0.000000
-22.811100 0.000000
-22.773600 0.000000
-22.736000 0.000000
-22.698400 0.000000
-22.660800 0.000000
-22.623200 0.000000
-22.585600 0.000000
-22.548100 0.000000
-22.510500 0.000000
-22.472900 0.000000
-22.435300 0.000000
-22.397700 0.000000
-22.360100 0.000000
-22.322600 0.000000
-22.285000 0.000000
-22.247400 0.000000
-22.209800 0.000000
-22.172200 0.000000
-22.134600 0.000000
-22.097100 0.000000
-22.059500 0.000000
-22.021900 0.000000
-21.984300 0.000000
-21.946700 0.000000
-21.909200 0.000000
-21.871600 0.000000
-21.834000 0.000000
-21.796400 0.000000
-21.758800 0.000000
-21.721200 0.000000
-21.683700 0.000000
-21.646100 0.000000
-21.608500 0.000000
-21.570900 0.000000
-21.533300 0.000000
-21.495700 0.000000
-21.458200 0.000000
-21.420600 0.000000
-21.383000 0.000000
-21.345400 0.000000
-21.307800 0.000000
-21.270200 0.000000
-21.232700 0.000000
-21.195100 0.000000
-21.157500 0.000000
-21.119900 0.000000
-21.082300 0.000000
-21.044700 0.000000
-21.007200 0.000000
-20.969600 0.000000
-20.932000 0.000000
-20.894400 0.000000
-20.856800 0.000000
-20.819200 0.000000
-20.781700 0.000000
-20.744100 0.000000
-20.706500 0.000000
-20.668900 0.000000
-20.631300 0.000000
-20.593800 0.000000
-20.556200 0.000000
-20.518600 0.000000
-20.481000 0.000000
-20.443400 0.000000
-20.405800 0.000000
-20.368300 0.000000
-20.330700 0.000000
-20.293100 0.000000
-20.255500 0.000000
-20.217900 0.000000
-20.180300 0.000000
-20.142800 0.000000
-20.105200 0.000000
-20.067600 0.000000
-20.030000 0.000000
-19.992400 0.000000
-19.954800 0.000000
-19.917300 0.000000
-19.879700 0.000000
-19.842100 0.000000
-19.804500 0.000000
-19.766900 0.000000
-19.729300 0.000000
-19.691800 0.000000
-19.654200 0.000000
-19.616600 0.000000
-19.579000 0.000000
-19.541400 0.000000
-19.503800 0.000000
-19.466300 0.000000
-19.428700 0.000000
-19.391100 0.000000
-19.353500 0.000000
-19.315900 0.000000
-19.278300 0.000000
-19.240800 0.000000
-19.203200 0.000000
-19.165600 0.000000
-19.128000 0.000000
-19.090400 0.000000
-19.052900 0.000000
-19.015300 0.000000
-18.977700 0.000000
-18.940100 0.000000
-18.902500 0.000000
-18.864900 0.000000
-18.827400 0.000000
-18.789800 0.000000
-18.752200 0.000000
-18.714600 0.000000
-18.677000 0.000000
-18.639400 0.000000
-18.601900 0.000000
-18.564300 0.000000
-18.526700 0.000000
-18.489100 0.000000
-18.451500 0.000000
-18.413900 0.000000
-18.376400 0.000000
-18.338800 0.000000
-18.301200 0.000000
-18.263600 0.000000
-18.226000 0.000000
-18.188400 0.000000
-18.150900 0.000000
-18.113300 0.000000
-18.075700 0.000000
-18.038100 0.000000
-18.000500 0.000000
-17.962900 0.000000
-17.925400 0.000000
-17.887800 0.000000
-17.850200 0.000000
-17.812600 0.000000
-17.775000 0.000000
-17.737500 0.000000
-17.699900 0.000000
-17.662300 0.000000
-17.624700 0.000000
-17.587100 0.000000
-17.549500 0.000000
-17.512000 0.000000
-17.474400 0.000000
-17.436800 0.000000
-17.399200 0.000000
-17.361600 0.000000
-17.324000 0.000000
-17.286500 0.000000
-17.248900 0.000000
-17.211300 0.000000
-17.173700 0.000000
-17.136100 0.000000
-17.098500 0.000000
-17.061000 0.000000
-17.023400 0.000000
-16.985800 0.000000
-16.948200 0.000000
-16.910600 0.000000
-16.873000 0.000000
-16.835500 0.000000
-16.797900 0.000000
-16.760300 0.000000
-16.722700 0.000000
-16.685100 0.000000
-16.647500 0.000000
-16.610000 0.000000
-16.572400 0.000000
-16.534800 0.000000
-16.497200 0.000000
-16.459600 0.000000
-16.422000 0.000000
-16.384500 0.000000
-16.346900 0.000000
-16.309300 0.000000
-16.271700 0.000000
-16.234100 0.000000
-16.196600 0.000000
-16.159000 0.000000
-16.121400 0.000000
-16.083800 0.000000
-16.046200 0.000000
-16.008600 0.000000
-15.971100 0.000000
-15.933500 0.000000
-15.895900 0.000000
-15.858300 0.000000
-15.820700 0.000000
-15.783100 0.000000
-15.745600 0.000000
-15.708000 0.000000
-15.670400 0.000000
-15.632800 0.000000
-15.595200 0.000000
-15.557600 0.000000
-15.520100 0.000000
-15.482500 0.000000
-15.444900 0.000000
-15.407300 0.000000
-15.369700 0.000000
-15.332100 0.000000
-15.294600 0.000000
-15.257000 0.000000
-15.219400 0.000000
-15.181800 0.000000
-15.144200 0.000000
-15.106600 0.000000
-15.069100 0.000000
-15.031500 0.000000
-14.993900 0.000000
-14.956300 0.000000
-14.918700 0.000000
-14.881200 0.000000
-14.843600 0.000000
-14.806000 0.000000
-14.768400 0.000000
-14.730800 0.000000
-14.693200 0.000000
-14.655700 0.000000
-14.618100 0.000000
-14.580500 0.000000
-14.542900 0.000000
-14.505300 0.000000
-14.467700 0.000000
-14.430200 0.000000
-14.392600 0.000000
-14.355000 0.000000
-14.317400 0.000000
-14.279800 0.000000
-14.242200 0.000000
-14.204700 0.000000
-14.167100 0.000000
-14.129500 0.000000
-14.091900 0.000000
-14.054300 0.000000
-14.016700 0.000000
-13.979200 0.000000
-13.941600 0.000000
-13.904000 0.000000
-13.866400 0.000000
-13.828800 0.000000
-13.791200 0.000000
-13.753700 0.000000
-13.716100 0.000000
-13.678500 0.000000
-13.640900 0.000000
-13.603300 0.000000
-13.565700 0.000000
-13.528200 0.000000
-13.490600 0.000000
-13.453000 0.000000
-13.415400 0.000000
-13.377800 0.000000
-13.340300 0.000000
-13.302700 0.000000
-13.265100 0.000000
-13.227500 0.000000
-13.189900 0.000000
-13.152300 0.000000
-13.114800 0.000000
-13.077200 0.000000
-13.039600 0.000000
-13.002000 0.000000
-12.964400 0.000000
-12.926800 0.000000
-12.889300 0.000000
-12.851700 0.000000
-12.814100 0.000000
-12.776500 0.000000
-12.738900 0.000000
-12.701300 0.000000
-12.663800 0.000000
-12.626200 0.000000
-12.588600 0.000000
-12.551000 0.000000
-12.513400 0.000000
-12.475800 0.000000
-12.438300 0.000000
-12.400700 0.000000
-12.363100 0.000000
-12.325500 0.000000
-12.287900 0.000000
-12.250300 0.000000
-12.212800 0.000000
-12.175200 0.000000
-12.137600 0.000000
-12.100000 0.000000
-12.062400 0.000000
-12.024900 0.000000
-11.987300 0.000000
-11.949700 0.000000
-11.912100 0.000000
-11.874500 0.000000
-11.836900 0.000000
-11.799400 0.000000
-11.761800 0.000000
-11.724200 0.000000
-11.686600 0.000000
-11.649000 0.000000
-11.611400 0.000000
-11.573900 0.000000
-11.536300 0.000000
-11.498700 0.000000
-11.461100 0.000000
-11.423500 0.000000
-11.385900 0.000000
-11.348400 0.000000
-11.310800 0.000000
-11.273200 0.000000
-11.235600 0.000000
-11.198000 0.000000
-11.160400 0.000000
-11.122900 0.000000
-11.085300 0.000000
-11.047700 0.000000
-11.010100 0.000000
-10.972500 0.000000
-10.934900 0.000000
-10.897400 0.000000
-10.859800 0.000000
-10.822200 0.000000
-10.784600 0.000000
-10.747000 0.000000
-10.709400 0.000000
-10.671900 0.000000
-10.634300 0.000000
-10.596700 0.000000
-10.559100 0.000000
-10.521500 0.000000
-10.484000 0.000000
-10.446400 0.000000
-10.408800 0.000000
-10.371200 0.000000
-10.333600 0.000000
-10.296000 0.000000
-10.258500 0.000000
-10.220900 0.000000
-10.183300 0.000000
-10.145700 0.000000
-10.108100 0.000000
-10.070500 0.000000
-10.033000 0.000000
-9.995400 0.000000
-9.957800 0.000000
-9.920200 0.000000
-9.882600 0.000000
-9.845000 0.000000
-9.807500 0.000000
-9.769900 0.000000
-9.732300 0.000000
-9.694700 0.000000
-9.657100 0.000000
-9.619500 0.000000
-9.582000 0.000000
-9.544400 0.000000
-9.506800 0.000000
-9.469200 0.000000
-9.431600 0.000000
-9.394000 0.000000
-9.356500 0.000000
-9.318900 0.000000
-9.281300 0.000000
-9.243700 0.000000
-9.206100 0.000000
-9.168500 0.000000
-9.131000 0.000000
-9.093400 0.000000
-9.055800 0.000000
-9.018200 0.000000
-8.980600 0.000000
-8.943100 0.000000
-8.905500 0.000000
-8.867900 0.000000
-8.830300 0.000000
-8.792700 0.000000
-8.755100 0.000000
-8.717600 0.000000
-8.680000 0.000000
-8.642400 0.000000
-8.604800 0.000000
-8.567200 0.000000
-8.529600 0.000000
-8.492100 0.000000
-8.454500 0.000000
-8.416900 0.000000
-8.379300 0.000000
-8.341700 0.000000
-8.304100 0.000000
-8.266600 0.000000
-8.229000 0.000000
-8.191400 0.000000
-8.153800 0.000000
-8.116200 0.000000
-8.078600 0.000000
-8.041100 0.000000
-8.003500 0.000000
-7.965900 0.000000
-7.928300 0.000000
-7.890700 0.000000
-7.853100 0.000000
-7.815600 0.000000
-7.778000 0.000000
-7.740400 0.000000
-7.702800 0.000000
-7.665200 0.000000
-7.627700 0.000000
-7.590100 0.000000
-7.552500 0.000000
-7.514900 0.000000
-7.477300 0.000000
-7.439700 0.000000
-7.402200 0.000000
-7.364600 0.000000
-7.327000 0.000000
-7.289400 0.000000
-7.251800 0.000000
-7.214200 0.000000
-7.176700 0.000000
-7.139100 0.000000
-7.101500 0.000000
-7.063900 0.000000
-7.026300 0.000000
-6.988700 0.000000
-6.951200 0.000000
-6.913600 0.000000
-6.876000 0.000000
-6.838400 0.000000
-6.800800 0.000000
-6.763200 0.000000
-6.725700 0.000000
-6.688100 0.000000
-6.650500 0.000000
-6.612900 0.000000
-6.575300 0.000000
-6.537700 0.000000
-6.500200 0.000000
-6.462600 0.000000
-6.425000 0.000000
-6.387400 0.000000
-6.349800 0.000000
-6.312200 0.000000
-6.274700 0.000000
-6.237100 0.000000
-6.199500 0.000000
-6.161900 0.000000
-6.124300 0.000000
-6.086800 0.000000
-6.049200 0.000000
-6.011600 0.000000
-5.974000 0.000000
-5.936400 0.000000
-5.898800 0.000000
-5.861300 0.000000
-5.823700 0.000000
-5.786100 0.000000
-5.748500 0.000000
-5.710900 0.000000
-5.673300 0.000000
-5.635800 0.000000
-5.598200 0.000000
-5.560600 0.000000
-5.523000 0.000000
-5.485400 0.000000
-5.447800 0.000000
-5.410300 0.000000
-5.372700 0.000000
-5.335100 0.000000
-5.297500 0.000000
-5.259900 0.000000
-5.222300 0.000000
-5.184800 0.000000
-5.147200 0.000000
-5.109600 0.000000
-5.072000 0.000000
-5.034400 0.000000
-4.996800 0.000000
-4.959300 0.000000
-4.921700 0.000000
-4.884100 0.000000
-4.846500 0.000000
-4.808900 0.000000
-4.771400 0.000000
-4.733800 0.000000
-4.696200 0.000000
-4.658600 0.000000
-4.621000 0.000000
-4.583400 0.000000
-4.545900 0.000000
-4.508300 0.000000
-4.470700 0.000000
-4.433100 0.000000
-4.395500 0.000000
-4.357900 0.000000
-4.320400 0.000000
-4.282800 0.000000
-4.245200 0.000000
-4.207600 0.000000
-4.170000 0.000000
-4.132400 0.000000
-4.094900 0.000000
-4.057300 0.000000
-4.019700 0.000000
-3.982100 0.000000
-3.944500 0.000000
-3.906900 0.000000
-3.869400 0.000000
-3.831800 0.000000
-3.794200 0.000000
-3.756600 0.000000
-3.719000 0.000000
-3.681400 0.000000
-3.643900 0.000000
-3.606300 0.000000
-3.568700 0.000000
-3.531100 0.000000
-3.493500 0.000000
-3.455900 0.000000
-3.418400 0.000000
-3.380800 0.000000
-3.343200 0.000000
-3.305600 0.000000
-3.268000 0.000000
-3.230500 0.000000
-3.192900 0.000000
-3.155300 0.000000
-3.117700 0.000000
-3.080100 0.000000
-3.042500 0.000000
-3.005000 0.000000
-2.967400 0.000000
-2.929800 0.000000
-2.892200 0.000000
-2.854600 0.000000
-2.817000 0.000000
-2.779500 0.000000
-2.741900 0.000000
-2.704300 0.000000
-2.666700 0.000000
-2.629100 0.000000
-2.591500 0.000000
-2.554000 0.000000
-2.516400 0.000000
-2.478800 0.000000
-2.441200 0.000000
-2.403600 0.000000
-2.366000 0.000000
-2.328500 0.000000
-2.290900 0.000000
-2.253300 0.000000
-2.215700 0.000000
-2.178100 0.000000
-2.140500 0.000000
-2.103000 0.000000
-2.065400 0.000000
-2.027800 0.000000
-1.990200 0.000000
-1.952600 0.000000
-1.915100 0.000000
-1.877500 0.000000
-1.839900 0.000000
-1.802300 0.000000
-1.764700 0.000000
-1.727100 0.000000
-1.689600 0.000000
-1.652000 0.000000
-1.614400 0.000000
-1.576800 0.000000
-1.539200 0.000000
-1.501600 0.000000
-1.464100 0.000000
-1.426500 0.000000
-1.388900 0.000000
-1.351300 0.000000
-1.313700 0.000000
-1.276100 0.000000
-1.238600 0.000000
-1.201000 0.000000
-1.163400 0.000000
-1.125800 0.000000
-1.088200 0.000000
-1.050600 0.000000
-1.013100 0.000000
-0.975500 0.000000
-0.937900 0.000000
-0.900300 0.000000
-0.862700 0.000000
-0.825100 0.000000
-0.787600 0.000000
-0.750000 0.000000
-0.712400 0.000000
-0.674800 0.000000
-0.637200 0.000000
-0.599600 0.000000
-0.562100 0.000000
-0.524500 0.000000
-0.486900 0.000000
-0.449300 0.000000
-0.411700 0.000000
-0.374200 0.000000
-0.336600 0.000000
-0.299000 0.000000
-0.261400 0.000000
-0.223800 0.000000
-0.186200 0.000000
-0.148700 0.000000
-0.111100 0.000000
-0.073500 0.000000
-0.035900 0.000000
0.001700 0.000000
0.039300 0.000000
0.076800 0.000000
0.114400 0.000000
0.152000 0.000000
0.189600 0.000000
0.227200 0.000000
0.264800 0.000000
0.302300 0.000000
0.339900 0.000000
0.377500 0.000000
0.415100 0.000000
0.452700 0.000000
0.490300 0.000000
0.527800 0.000000
0.565400 0.000000
0.603000 0.000000
0.640600 0.000000
0.678200 0.000000
0.715800 0.000000
0.753300 0.000000
0.790900 0.000000
0.828500 0.000000
0.866100 0.000000
0.903700 0.000000
0.941300 0.000000
0.978800 0.000000
1.016400 0.000000
1.054000 0.000000
1.091600 0.000000
1.129200 0.000000
1.166700 0.000000
1.204300 0.000000
1.241900 0.000000
1.279500 0.000000
1.317100 0.009400
1.354700 0.014800
1.392200 0.020300
1.429800 0.025200
1.467400 0.025400
1.505000 0.028600
1.542600 0.032100
1.580200 0.035700
1.617700 0.038100
1.655300 0.040500
1.692900 0.041800
1.730500 0.043500
1.768100 0.046100
1.805700 0.048900
1.843200 0.052000
1.880800 0.054900
1.918400 0.056000
1.956000 0.057800
1.993600 0.059900
2.031200 0.062000
2.068700 0.064200
2.106300 0.066500
2.143900 0.069000
2.181500 0.071900
2.219100 0.074600
2.256700 0.076600
2.294200 0.078700
2.331800 0.080900
2.369400 0.083000
2.407000 0.085400
2.444600 0.088300
2.482100 0.091200
2.519700 0.094100
2.557300 0.096900
2.594900 0.099800
2.632500 0.103000
2.670100 0.105900
2.707600 0.109000
2.745200 0.112400
2.782800 0.115700
2.820400 0.119100
2.858000 0.122500
2.895600 0.127000
2.933100 0.131600
2.970700 0.135900
3.008300 0.140600
3.045900 0.145400
3.083500 0.150900
3.121100 0.156700
3.158600 0.162900
3.196200 0.209300
3.233800 0.243300
3.271400 0.375500
3.309000 0.465300
3.346600 0.545100
3.384100 0.620600
3.421700 0.680000
3.459300 0.758100
3.496900 0.901800
3.534500 0.975500
3.572100 1.003300
3.609600 1.010300
3.647200 1.015800
3.684800 1.033300
3.722400 1.055600
3.760000 1.074200
3.797600 1.088000
3.835100 1.102100
3.872700 1.117900
3.910300 1.139600
3.947900 1.166200
3.985500 1.194100
4.023000 1.222500
4.060600 1.254100
4.098200 1.289300
4.135800 1.338400
4.173400 1.408600
4.211000 1.526100
4.248500 1.519600
4.286100 1.510300
4.323700 1.508400
4.361300 1.501400
4.398900 1.502900
4.436500 1.502400
4.474000 1.532000
4.511600 1.542200
4.549200 1.514500
4.586800 1.485600
4.624400 1.548500
4.662000 1.483100
4.699500 1.296100
4.737100 1.209800
4.774700 1.140500
4.812300 1.062400
4.849900 1.015400
4.887500 0.730200
4.925000 0.619900
4.962600 0.582800
5.000200 0.537700
5.037800 0.496200
5.075400 0.466100
5.113000 0.679300
5.150500 1.223900
5.188100 1.398700
5.225700 1.390000
5.263300 1.495400
5.300900 1.581400
5.338400 1.704400
5.376000 1.851600
5.413600 1.930000
5.451200 1.974800
5.488800 2.165900
5.526400 2.643000
5.563900 2.319600
5.601500 2.077300
5.639100 1.938400
5.676700 1.726000
5.714300 1.589900
5.751900 1.467600
5.789400 1.371600
5.827000 1.314500
5.864600 1.252300
5.902200 1.208100
5.939800 1.138400
5.977400 1.093600
6.014900 1.047300
6.052500 1.014500
6.090100 1.018800
6.127700 0.995100
6.165300 0.972400
6.202900 0.921000
6.240400 0.879700
6.278000 0.850200
6.315600 0.883800
6.353200 1.102200
6.390800 1.022800
6.428400 1.070700
6.465900 1.127100
6.503500 1.181100
6.541100 1.253800
6.578700 1.359900
6.616300 1.554600
6.653900 1.775200
6.691400 2.043400
6.729000 2.321800
6.766600 2.563200
6.804200 2.550700
6.841800 2.301900
6.879300 1.996800
6.916900 1.754600
6.954500 1.657900
6.992100 1.533900
7.029700 1.456400
7.067300 1.266000
7.104800 0.899400
7.142400 0.818000
7.180000 0.780300
7.217600 0.750900
7.255200 0.720100
7.292800 0.692800
7.330300 0.666900
7.367900 0.646000
7.405500 0.627000
7.443100 0.613300
7.480700 0.597600
7.518300 0.572900
7.555800 0.555500
7.593400 0.543300
7.631000 0.542900
7.668600 0.537600
7.706200 0.529000
7.743800 0.523900
7.781300 0.523900
7.818900 0.516700
7.856500 0.517200
7.894100 0.507600
7.931700 0.506200
7.969300 0.507400
8.006800 0.508200
8.044400 0.509700
8.082000 0.511700
8.119600 0.511100
8.157200 0.514300
8.194700 0.528800
8.232300 0.528400
8.269900 0.534400
8.307500 0.543000
8.345100 0.548700
8.382700 0.560300
8.420200 0.563300
8.457800 0.573900
8.495400 0.589500
8.533000 0.603300
8.570600 0.624200
8.608200 0.649300
8.645700 0.681700
8.683300 0.792400
8.720900 0.913900
8.758500 0.934600
8.796100 0.955500
8.833700 0.973000
8.871200 0.991300
8.908800 1.008000
8.946400 1.015200
8.984000 1.009600
9.021600 1.023300
9.059200 1.035500
9.096700 1.052300
9.134300 1.070700
9.171900 1.083100
9.209500 1.100900
9.247100 1.123600
9.284700 1.151000
9.322200 1.181700
9.359800 1.218700
9.397400 1.255700
9.435000 1.341500
9.472600 1.391700
9.510200 1.449800
9.547700 1.438500
9.585300 1.403000
9.622900 1.385200
9.660500 1.377700
9.698100 1.400300
9.735600 1.377600
9.773200 1.354900
9.810800 1.342800
9.848400 1.333300
9.886000 1.370800
9.923600 1.376500
9.961100 1.389500
9.998700 1.430000
10.036300 1.637300
10.073900 1.800400
10.111500 1.853500
10.149100 1.577800
10.186600 1.544300
10.224200 1.548900
10.261800 1.545900
10.299400 1.513600
10.337000 1.488900
10.374600 1.466900
10.412100 1.434600
10.449700 1.476400
10.487300 1.468200
10.524900 1.513800
10.562500 1.599500
10.600100 1.681400
10.637600 1.844200
10.675200 2.064700
10.712800 2.376300
10.750400 3.536300
10.788000 3.391300
10.825600 1.985100
10.863100 1.787700
10.900700 1.598100
10.938300 1.457000
10.975900 1.344900
11.013500 1.265100
11.051000 1.198100
11.088600 1.121700
11.126200 1.054700
11.163800 1.012100
11.201400 0.982800
11.239000 0.955900
11.276500 0.928900
11.314100 0.899200
11.351700 0.871800
11.389300 0.896200
11.426900 0.830200
11.464500 0.799400
11.502000 0.786700
11.539600 0.775400
11.577200 0.756200
11.614800 0.746100
11.652400 0.741000
11.690000 0.742200
11.727500 0.733400
11.765100 0.726800
11.802700 0.716400
11.840300 0.702300
11.877900 0.687000
11.915500 0.680300
11.953000 0.673100
11.990600 0.669000
12.028200 0.683300
12.065800 0.666900
12.103400 0.662500
12.141000 0.655500
12.178500 0.649100
12.216100 0.673200
12.253700 0.686900
12.291300 0.568600
12.328900 0.523700
12.366500 0.497000
12.404000 0.469700
12.441600 0.456200
12.479200 0.435000
12.516800 0.408600
12.554400 0.390000
12.591900 0.379200
12.629500 0.362800
12.667100 0.341200
12.704700 0.323000
12.742300 0.308400
12.779900 0.298800
12.817400 0.292300
12.855000 0.284500
12.892600 0.288400
12.930200 0.295400
12.967800 0.308700
13.005400 0.345900
13.042900 0.334500
13.080500 0.329500
13.118100 0.322000
13.155700 0.314700
13.193300 0.304800
13.230900 0.301500
13.268400 0.298200
13.306000 0.295200
13.343600 0.293700
13.381200 0.292200
13.418800 0.290800
13.456400 0.289400
13.493900 0.288200
13.531500 0.286400
13.569100 0.285300
13.606700 0.284300
13.644300 0.283200
13.681900 0.282500
13.719400 0.281800
13.757000 0.284900
13.794600 0.279900
13.832200 0.279300
13.869800 0.278600
13.907400 0.278000
13.944900 0.277300
13.982500 0.276300
14.020100 0.275100
14.057700 0.274200
14.095300 0.273400
14.132800 0.272700
14.170400 0.272000
14.208000 0.271400
14.245600 0.270700
14.283200 0.270100
14.320800 0.269500
14.358300 0.268800
14.395900 0.268200
14.433500 0.267500
14.471100 0.266800
14.508700 0.266100
14.546300 0.265400
14.583800 0.264300
14.621400 0.263400
14.659000 0.262500
14.696600 0.261700
14.734200 0.261000
14.771800 0.260200
14.809300 0.259400
14.846900 0.258600
14.884500 0.258000
14.922100 0.257400
14.959700 0.256900
14.997300 0.256100
15.034800 0.255200
15.072400 0.254300
15.110000 0.253300
15.147600 0.252100
15.185200 0.250900
15.222800 0.249700
15.260300 0.248400
15.297900 0.247200
15.335500 0.246500
15.373100 0.246300
15.410700 0.245500
15.448200 0.243800
15.485800 0.242500
15.523400 0.241600
15.561000 0.240600
15.598600 0.239600
15.636200 0.238400
15.673700 0.237100
15.711300 0.235800
15.748900 0.234600
15.786500 0.233300
15.824100 0.232000
15.861700 0.230800
15.899200 0.229700
15.936800 0.228300
15.974400 0.227000
16.012000 0.227200
16.049600 0.233200
16.087200 0.224100
16.124700 0.222800
16.162300 0.221400
16.199900 0.219900
16.237500 0.218100
16.275100 0.216100
16.312700 0.214000
16.350200 0.212100
16.387800 0.210600
16.425400 0.209100
16.463000 0.208000
16.500600 0.206900
16.538200 0.205900
16.575700 0.204700
16.613300 0.203300
16.650900 0.201300
16.688500 0.199600
16.726100 0.198000
16.763700 0.196400
16.801200 0.194800
16.838800 0.192900
16.876400 0.190800
16.914000 0.188700
16.951600 0.186400
16.989100 0.183900
17.026700 0.181200
17.064300 0.180400
17.101900 0.179400
17.139500 0.177600
17.177100 0.175400
17.214600 0.172800
17.252200 0.169900
17.289800 0.166800
17.327400 0.166100
17.365000 0.162300
17.402600 0.160800
17.440100 0.157100
17.477700 0.153000
17.515300 0.148800
17.552900 0.144600
17.590500 0.141600
17.628100 0.139100
17.665600 0.123600
17.703200 0.116000
17.740800 0.111000
17.778400 0.113000
17.816000 0.113500
17.853600 0.112900
17.891100 0.111700
17.928700 0.109800
17.966300 0.109000
18.003900 0.108400
18.041500 0.107900
18.079100 0.133700
18.116600 0.294300
18.154200 0.119100
18.191800 0.076600
18.229400 0.063300
18.267000 0.057300
18.304500 0.049900
18.342100 0.052800
18.379700 0.059300
18.417300 0.076400
18.454900 0.094900
18.492500 0.115500
18.530000 0.138300
18.567600 0.163600
18.605200 0.248300
18.642800 0.311500
18.680400 0.300000
18.718000 0.312500
18.755500 0.355700
18.793100 0.347500
18.830700 0.368700
18.868300 0.499300
18.905900 0.498900
18.943500 0.498500
18.981000 0.496500
19.018600 0.508600
19.056200 0.535200
19.093800 0.555000
19.131400 0.541800
19.169000 0.535000
19.206500 0.536400
19.244100 0.547400
19.281700 0.550000
19.319300 0.551100
19.356900 0.554700
19.394500 0.568200
19.432000 0.566400
19.469600 0.568500
19.507200 0.571700
19.544800 0.591800
19.582400 0.604500
19.620000 0.614000
19.657500 0.626200
19.695100 0.636600
19.732700 0.648700
19.770300 0.652500
19.807900 0.640600
19.845400 0.625600
19.883000 0.595800
19.920600 0.575400
19.958200 0.559000
19.995800 0.545800
20.033400 0.534900
20.070900 0.527300
20.108500 0.525800
20.146100 0.521300
20.183700 0.517100
20.221300 0.513500
20.258900 0.511000
20.296400 0.503900
20.334000 0.501000
20.371600 0.498400
20.409200 0.496200
20.446800 0.494300
20.484400 0.492600
20.521900 0.492000
20.559500 0.495300
20.597100 0.493700
20.634700 0.492800
20.672300 0.491600
20.709900 0.490900
20.747400 0.490800
20.785000 0.491100
20.822600 0.491700
20.860200 0.492700
20.897800 0.494300
20.935400 0.495600
20.972900 0.497000
21.010500 0.498800
21.048100 0.500700
21.085700 0.503000
21.123300 0.506300
21.160800 0.524900
21.198400 0.554500
21.236000 0.574000
21.273600 0.590300
21.311200 0.626200
21.348800 0.631400
21.386300 0.652800
21.423900 0.669500
21.461500 0.688300
21.499100 0.710400
21.536700 0.734700
21.574300 0.765900
21.611800 0.806300
21.649400 0.848100
21.687000 0.883500
21.724600 0.900800
21.762200 0.856200
21.799800 0.826900
21.837300 0.815000
21.874900 0.802500
21.912500 0.790100
21.950100 0.779200
21.987700 0.771300
22.025300 0.764200
22.062800 0.757700
22.100400 0.752500
22.138000 0.755100
22.175600 0.751100
22.213200 0.746200
22.250800 0.739500
22.288300 0.735500
22.325900 0.730700
22.363500 0.723000
22.401100 0.716500
22.438700 0.711500
22.476300 0.707300
22.513800 0.703500
22.551400 0.699800
22.589000 0.696000
22.626600 0.692500
22.664200 0.689200
22.701700 0.686400
22.739300 0.683100
22.776900 0.679600
22.814500 0.675100
22.852100 0.671400
22.889700 0.667400
22.927200 0.663900
22.964800 0.660200
23.002400 0.655900
23.040000 0.651800
23.077600 0.647800
23.115200 0.643800
23.152700 0.640300
23.190300 0.637300
23.227900 0.634700
23.265500 0.632200
23.303100 0.629200
23.340700 0.625300
23.378200 0.622300
23.415800 0.619600
23.453400 0.616600
23.491000 0.613300
23.528600 0.608700
23.566200 0.603800
23.603700 0.599600
23.641300 0.594600
23.678900 0.589400
23.716500 0.584400
23.754100 0.579600
23.791700 0.574900
23.829200 0.570500
23.866800 0.566800
23.904400 0.562900
23.942000 0.559300
23.979600 0.556000
24.017200 0.552900
24.054700 0.548800
24.092300 0.538700
24.129900 0.531300
24.167500 0.527300
24.205100 0.524100
24.242600 0.521900
24.280200 0.520100
24.317800 0.519100
24.355400 0.519100
24.393000 0.520400
24.430600 0.551300
24.468100 0.569900
24.505700 0.585700
24.543300 0.604300
24.580900 0.626300
24.618500 0.650000
24.656100 0.675600
24.693600 0.696200
24.731200 0.729000
24.768800 0.785900
24.806400 0.841200
24.844000 0.857200
24.881600 0.891200
24.919100 0.933200
24.956700 0.995800
24.994300 1.068800
25.031900 1.171800
25.069500 1.318600
25.107100 1.605800
25.144600 2.156000
25.182200 3.311900
25.219800 2.580200
25.257400 1.726200
25.295000 1.419200
25.332600 1.234900
25.370100 1.120100
25.407700 1.065000
25.445300 1.034900
25.482900 1.006600
25.520500 0.999900
25.558000 1.034900
25.595600 1.133500
25.633200 0.995700
25.670800 0.873300
25.708400 0.804200
25.746000 0.774500
25.783500 0.759900
25.821100 0.742100
25.858700 0.730000
25.896300 0.716200
25.933900 0.709100
25.971500 0.709300
26.009000 0.700800
26.046600 0.690800
26.084200 0.679700
26.121800 0.670200
26.159400 0.659500
26.197000 0.651600
26.234500 0.647900
26.272100 0.635700
26.309700 0.631300
26.347300 0.627300
26.384900 0.624100
26.422500 0.621200
26.460000 0.613500
26.497600 0.600500
26.535200 0.590900
26.572800 0.583400
26.610400 0.580100
26.648000 0.576100
26.685500 0.571400
26.723100 0.567200
26.760700 0.564600
26.798300 0.565900
26.835900 0.555700
26.873500 0.555000
26.911000 0.552200
26.948600 0.543800
26.986200 0.530700
27.023800 0.518400
27.061400 0.507100
27.098900 0.496500
27.136500 0.486100
27.174100 0.475500
27.211700 0.466600
27.249300 0.459700
27.286900 0.454300
27.324400 0.449300
27.362000 0.444600
27.399600 0.440100
27.437200 0.436700
27.474800 0.434600
27.512400 0.433200
27.549900 0.444000
27.587500 0.454100
27.625100 0.458400
27.662700 0.466000
27.700300 0.475000
27.737900 0.479700
27.775400 0.488300
27.813000 0.497800
27.850600 0.509900
27.888200 0.528300
27.925800 0.537500
27.963400 0.562700
28.000900 0.585700
28.038500 0.622100
28.076100 0.659700
28.113700 0.698600
28.151300 0.744900
28.188900 0.796400
28.226400 0.787500
28.264000 0.775700
28.301600 0.770200
28.339200 0.747700
28.376800 0.731600
28.414300 0.750500
28.451900 0.748800
28.489500 0.810600
28.527100 0.855000
28.564700 0.903600
28.602300 0.966900
28.639800 1.047200
28.677400 0.967300
28.715000 0.847000
28.752600 0.784100
28.790200 0.751000
28.827800 0.720400
28.865300 0.693800
28.902900 0.670800
28.940500 0.654600
28.978100 0.643800
29.015700 0.628700
29.053300 0.611300
29.090800 0.593400
29.128400 0.582100
29.166000 0.568200
29.203600 0.582700
29.241200 0.600600
29.278800 0.537700
29.316300 0.530700
29.353900 0.521300
29.391500 0.523300
29.429100 0.512700
29.466700 0.508500
29.504300 0.504200
29.541800 0.501200
29.579400 0.497300
29.617000 0.494100
29.654600 0.491900
29.692200 0.487500
29.729800 0.483800
29.767300 0.481000
29.804900 0.478700
29.842500 0.476900
29.880100 0.475400
29.917700 0.474000
29.955200 0.472400
29.992800 0.471600
30.030400 0.471000
30.068000 0.471100
30.105600 0.471400
30.143200 0.473200
30.180700 0.473800
30.218300 0.474800
30.255900 0.487400
30.293500 0.486600
30.331100 0.484000
30.368700 0.482900
30.406200 0.481300
30.443800 0.479300
30.481400 0.485200
30.519000 0.478000
30.556600 0.477700
30.594200 0.477800
30.631700 0.479300
30.669300 0.480000
30.706900 0.480600
30.744500 0.481400
30.782100 0.482800
30.819700 0.485000
30.857200 0.487500
30.894800 0.490800
30.932400 0.501000
30.970000 0.501800
31.007600 0.498500
31.045200 0.494200
31.082700 0.491500
31.120300 0.488500
31.157900 0.485600
31.195500 0.481700
31.233100 0.476700
31.270600 0.472500
31.308200 0.468700
31.345800 0.464600
31.383400 0.458500
31.421000 0.451500
31.458600 0.443600
31.496100 0.440100
31.533700 0.418200
31.571300 0.413200
31.608900 0.409100
31.646500 0.407200
31.684100 0.408300
31.721600 0.412700
31.759200 0.417800
31.796800 0.428700
31.834400 0.443300
31.872000 0.459600
31.909600 0.477300
31.947100 0.496600
31.984700 0.512800
32.022300 0.524100
32.059900 0.534700
32.097500 0.546900
32.135100 0.562600
32.172600 0.576800
32.210200 0.587800
32.247800 0.609600
32.285400 0.613800
32.323000 0.614600
32.360600 0.611900
32.398100 0.619200
32.435700 0.609800
32.473300 0.603300
32.510900 0.600300
32.548500 0.590600
32.586100 0.577100
32.623600 0.565000
32.661200 0.554400
32.698800 0.553100
32.736400 0.532000
32.774000 0.532000
32.811500 0.536900
32.849100 0.546200
32.886700 0.557000
32.924300 0.570300
32.961900 0.594200
32.999500 0.619500
33.037000 0.646600
33.074600 0.680200
33.112200 0.727400
33.149800 0.786000
33.187400 0.829900
33.225000 0.871100
33.262500 0.926300
33.300100 0.971100
33.337700 0.986300
33.375300 0.971800
33.412900 0.929400
33.450500 0.869800
33.488000 0.808300
33.525600 0.765700
33.563200 0.733600
33.600800 0.711900
33.638400 0.696800
33.676000 0.679500
33.713500 0.668700
33.751100 0.666900
33.788700 0.657400
33.826300 0.646400
33.863900 0.638700
33.901500 0.632200
33.939000 0.625100
33.976600 0.619200
34.014200 0.616400
34.051800 0.615400
34.089400 0.621600
34.126900 0.613800
34.164500 0.613200
34.202100 0.628800
34.239700 0.599400
34.277300 0.604700
34.314900 0.608400
34.352400 0.612600
34.390000 0.615900
34.427600 0.624400
34.465200 0.631500
34.502800 0.634400
34.540400 0.632300
34.577900 0.638400
34.615500 0.636900
34.653100 0.641300
34.690700 0.635500
34.728300 0.637900
34.765900 0.641300
34.803400 0.645700
34.841000 0.637600
34.878600 0.632900
34.916200 0.628400
34.953800 0.625500
34.991400 0.627800
35.028900 0.622200
35.066500 0.618600
35.104100 0.622600
35.141700 0.622200
35.179300 0.624800
35.216900 0.623700
35.254400 0.628300
35.292000 0.629300
35.329600 0.629900
35.367200 0.628900
35.404800 0.628200
35.442400 0.626100
35.479900 0.623500
35.517500 0.619200
35.555100 0.617400
35.592700 0.619700
35.630300 0.621500
35.667800 0.623600
35.705400 0.626600
35.743000 0.630300
35.780600 0.656700
35.818200 0.656400
35.855800 0.632400
35.893300 0.611000
35.930900 0.588100
35.968500 0.577800
36.006100 0.573200
36.043700 0.566400
36.081300 0.562500
36.118800 0.560200
36.156400 0.560000
36.194000 0.555200
36.231600 0.546800
36.269200 0.542200
36.306800 0.544300
36.344300 0.543800
36.381900 0.541200
36.419500 0.543100
36.457100 0.550600
36.494700 0.558300
36.532300 0.579100
36.569800 0.577500
36.607400 0.585000
36.645000 0.588400
36.682600 0.591100
36.720200 0.594100
36.757800 0.600500
36.795300 0.626400
36.832900 0.617700
36.870500 0.619300
36.908100 0.623000
36.945700 0.636200
36.983300 0.634000
37.020800 0.640800
37.058400 0.649300
37.096000 0.658700
37.133600 0.670200
37.171200 0.663200
37.208700 0.660600
37.246300 0.663100
37.283900 0.668700
37.321500 0.689100
37.359100 0.681000
37.396700 0.671700
37.434200 0.653500
37.471800 0.635500
37.509400 0.621500
37.547000 0.608200
37.584600 0.561800
37.622200 0.525200
37.659700 0.490400
37.697300 0.460400
37.734900 0.433700
37.772500 0.409400
37.810100 0.382900
37.847700 0.354200
37.885200 0.330700
37.922800 0.310400
37.960400 0.293300
37.998000 0.272500
38.035600 0.264100
38.073200 0.258800
38.110700 0.252400
38.148300 0.244100
38.185900 0.236100
38.223500 0.227600
38.261100 0.220800
38.298700 0.214200
38.336200 0.206700
38.373800 0.199600
38.411400 0.193000
38.449000 0.187000
38.486600 0.181400
38.524100 0.176700
38.561700 0.172400
38.599300 0.168400
38.636900 0.164500
38.674500 0.160700
38.712100 0.157000
38.749600 0.154000
38.787200 0.150700
38.824800 0.147500
38.862400 0.144300
38.900000 0.141200
38.937600 0.138100
38.975100 0.135200
39.012700 0.132700
39.050300 0.129500
39.087900 0.126900
39.125500 0.124000
39.163100 0.120100
39.200600 0.116000
39.238200 0.111900
39.275800 0.108100
39.313400 0.104400
39.351000 0.100700
39.388600 0.097300
39.426100 0.094000
39.463700 0.090800
39.501300 0.086600
39.538900 0.084600
39.576500 0.082900
39.614100 0.081300
39.651600 0.081300
39.689200 0.080000
39.726800 0.077000
39.764400 0.074000
39.802000 0.071200
39.839600 0.068400
39.877100 0.065700
39.914700 0.063000
39.952300 0.060400
39.989900 0.057900
40.027500 0.055500
40.065000 0.053600
40.102600 0.051100
40.140200 0.049300
40.177800 0.047400
40.215400 0.045400
40.253000 0.043300
40.290500 0.041100
40.328100 0.040100
40.365700 0.047800
40.403300 0.028500
40.440900 0.023700
40.478500 0.019300
40.516000 0.013000
40.553600 0.010000
40.591200 0.007400
40.628800 0.005100
40.666400 0.003300
40.704000 0.001900
40.741500 0.000900
40.779100 0.000200
40.816700 0.000000
40.854300 0.000000
40.891900 0.000000
40.929500 0.000000
40.967000 0.000000
41.004600 0.000000
41.042200 0.000000
41.079800 0.000000
41.117400 0.000000
41.155000 0.000000
41.192500 0.000000
41.230100 0.000000
41.267700 0.000000
41.305300 0.000000
41.342900 0.000000
41.380400 0.000000
41.418000 0.000000
41.455600 0.000000
41.493200 0.000000
41.530800 0.000000
41.568400 0.000000
41.605900 0.000000
41.643500 0.000000
41.681100 0.000000
41.718700 0.000000
41.756300 0.000000
41.793900 0.000000
41.831400 0.000000
41.869000 0.000000
41.906600 0.000000
41.944200 0.000000
41.981800 0.000000
42.019400 0.000000
42.056900 0.000000
42.094500 0.000000
42.132100 0.000000
42.169700 0.000000
42.207300 0.000000
42.244900 0.000000
42.282400 0.000000
42.320000 0.000000
42.357600 0.000000
42.395200 0.000000
42.432800 0.000000
42.470400 0.000000
42.507900 0.000000
42.545500 0.000000
42.583100 0.000000
42.620700 0.000000
42.658300 0.000000
42.695900 0.000000
42.733400 0.000000
42.771000 0.000000
42.808600 0.000000
42.846200 0.000000
42.883800 0.000000
42.921300 0.000000
42.958900 0.000000
42.996500 0.000000
43.034100 0.000000
43.071700 0.000000
43.109300 0.000000
43.146800 0.000000
43.184400 0.000000
43.222000 0.000000
43.259600 0.000000
43.297200 0.000000
43.334800 0.000000
43.372300 0.000000
43.409900 0.000000
43.447500 0.000000
43.485100 0.000000
43.522700 0.000000
43.560300 0.000000
43.597800 0.000000
43.635400 0.000000
43.673000 0.000000
43.710600 0.000000
43.748200 0.000000
43.785800 0.000000
43.823300 0.000000
43.860900 0.000000
43.898500 0.000000
43.936100 0.000000
43.973700 0.000000
44.011300 0.000000
44.048800 0.000000
44.086400 0.000000
44.124000 0.000000
44.161600 0.000000
44.199200 0.000000
44.236700 0.000000
e
