set title 'mp-999542 - Density of States'
set xlabel 'Energy (eV)'
set ylabel 'DOS (states/eV)'
set grid
set xrange [-10:10]
set yrange [0:11.787]
set xzeroaxis lt -1
set terminal png size 800,600
set output 'mp-999542_dos_gnuplot.png'
plot '-' using 1:2 with lines title 'DOS'
-54.128900 0.000000
-54.069800 0.000000
-54.010800 0.000000
-53.951800 0.000000
-53.892700 0.000000
-53.833700 0.000000
-53.774700 0.000000
-53.715600 0.000000
-53.656600 0.000000
-53.597500 0.000000
-53.538500 0.000000
-53.479500 0.000000
-53.420400 0.000000
-53.361400 0.000000
-53.302400 0.000000
-53.243300 0.000000
-53.184300 0.000000
-53.125200 0.000000
-53.066200 0.000000
-53.007200 0.000000
-52.948100 0.000000
-52.889100 0.000000
-52.830100 0.000000
-52.771000 0.000000
-52.712000 0.000000
-52.652900 0.000000
-52.593900 0.000000
-52.534900 0.000000
-52.475800 0.000000
-52.416800 0.000000
-52.357800 0.000000
-52.298700 0.000000
-52.239700 0.000000
-52.180600 0.000000
-52.121600 0.000000
-52.062600 0.000000
-52.003500 0.000000
-51.944500 0.000000
-51.885500 0.000000
-51.826400 0.000000
-51.767400 0.000000
-51.708400 0.000000
-51.649300 0.000000
-51.590300 0.000000
-51.531200 0.000000
-51.472200 0.000000
-51.413200 0.000000
-51.354100 0.000000
-51.295100 0.000000
-51.236100 0.000000
-51.177000 0.000000
-51.118000 0.000000
-51.058900 0.000000
-50.999900 0.000000
-50.940900 0.000000
-50.881800 0.000000
-50.822800 0.000000
-50.763800 0.000000
-50.704700 0.000000
-50.645700 0.000000
-50.586600 0.000000
-50.527600 0.000000
-50.468600 0.000000
-50.409500 0.000000
-50.350500 0.000000
-50.291500 0.000000
-50.232400 0.000000
-50.173400 0.000000
-50.114400 0.000000
-50.055300 0.000000
-49.996300 0.000000
-49.937200 0.000000
-49.878200 0.000000
-49.819200 0.000000
-49.760100 0.000000
-49.701100 0.000000
-49.642100 0.000000
-49.583000 0.000000
-49.524000 0.000000
-49.464900 0.000000
-49.405900 0.000000
-49.346900 0.000000
-49.287800 0.000000
-49.228800 0.000000
-49.169800 0.000000
-49.110700 0.000000
-49.051700 0.000000
-48.992600 0.000000
-48.933600 0.000000
-48.874600 0.000000
-48.815500 0.000000
-48.756500 10.012300
-48.697500 16.785900
-48.638400 7.887100
-48.579400 0.000000
-48.520300 57.914900
-48.461300 33.499600
-48.402300 0.000000
-48.343200 0.000000
-48.284200 0.000000
-48.225200 0.000000
-48.166100 0.000000
-48.107100 0.000000
-48.048100 0.000000
-47.989000 0.000000
-47.930000 0.000000
-47.870900 0.000000
-47.811900 0.000000
-47.752900 0.000000
-47.693800 0.000000
-47.634800 0.000000
-47.575800 0.000000
-47.516700 0.000000
-47.457700 0.000000
-47.398600 0.000000
-47.339600 0.000000
-47.280600 0.000000
-47.221500 0.000000
-47.162500 0.000000
-47.103500 0.000000
-47.044400 0.000000
-46.985400 0.000000
-46.926300 0.000000
-46.867300 0.000000
-46.808300 0.000000
-46.749200 0.000000
-46.690200 0.000000
-46.631200 0.000000
-46.572100 0.000000
-46.513100 0.000000
-46.454100 0.000000
-46.395000 0.000000
-46.336000 0.000000
-46.276900 0.000000
-46.217900 0.000000
-46.158900 0.000000
-46.099800 0.000000
-46.040800 0.000000
-45.981800 0.000000
-45.922700 0.000000
-45.863700 0.000000
-45.804600 0.000000
-45.745600 0.000000
-45.686600 0.000000
-45.627500 0.000000
-45.568500 0.000000
-45.509500 0.000000
-45.450400 0.000000
-45.391400 0.000000
-45.332300 0.000000
-45.273300 0.000000
-45.214300 0.000000
-45.155200 0.000000
-45.096200 0.000000
-45.037200 0.000000
-44.978100 0.000000
-44.919100 0.000000
-44.860000 0.000000
-44.801000 0.000000
-44.742000 0.000000
-44.682900 0.000000
-44.623900 0.000000
-44.564900 0.000000
-44.505800 0.000000
-44.446800 0.000000
-44.387800 0.000000
-44.328700 0.000000
-44.269700 0.000000
-44.210600 0.000000
-44.151600 0.000000
-44.092600 0.000000
-44.033500 0.000000
-43.974500 0.000000
-43.915500 0.000000
-43.856400 0.000000
-43.797400 0.000000
-43.738300 0.000000
-43.679300 0.000000
-43.620300 0.000000
-43.561200 0.000000
-43.502200 0.000000
-43.443200 0.000000
-43.384100 0.000000
-43.325100 0.000000
-43.266000 0.000000
-43.207000 0.000000
-43.148000 0.000000
-43.088900 0.000000
-43.029900 0.000000
-42.970900 0.000000
-42.911800 0.000000
-42.852800 0.000000
-42.793800 21.220100
-42.734700 131.808300
-42.675700 0.000000
-42.616600 0.000000
-42.557600 0.000000
-42.498600 0.000000
-42.439500 0.000000
-42.380500 0.000000
-42.321500 0.000000
-42.262400 0.000000
-42.203400 0.000000
-42.144300 0.000000
-42.085300 0.000000
-42.026300 0.000000
-41.967200 0.000000
-41.908200 0.000000
-41.849200 0.000000
-41.790100 0.000000
-41.731100 0.000000
-41.672000 0.000000
-41.613000 0.000000
-41.554000 0.000000
-41.494900 0.000000
-41.435900 0.000000
-41.376900 0.000000
-41.317800 0.000000
-41.258800 0.000000
-41.199700 0.000000
-41.140700 0.000000
-41.081700 0.000000
-41.022600 0.000000
-40.963600 0.000000
-40.904600 0.000000
-40.845500 0.000000
-40.786500 0.000000
-40.727500 0.000000
-40.668400 0.000000
-40.609400 0.000000
-40.550300 0.000000
-40.491300 0.000000
-40.432300 0.000000
-40.373200 0.000000
-40.314200 0.000000
-40.255200 0.000000
-40.196100 0.000000
-40.137100 0.000000
-40.078000 0.000000
-40.019000 0.000000
-39.960000 0.000000
-39.900900 0.000000
-39.841900 0.000000
-39.782900 0.000000
-39.723800 0.000000
-39.664800 0.000000
-39.605700 0.000000
-39.546700 0.000000
-39.487700 0.000000
-39.428600 0.000000
-39.369600 0.000000
-39.310600 0.000000
-39.251500 0.000000
-39.192500 0.000000
-39.133500 0.000000
-39.074400 0.000000
-39.015400 0.000000
-38.956300 0.000000
-38.897300 0.000000
-38.838300 0.000000
-38.779200 0.000000
-38.720200 0.000000
-38.661200 0.000000
-38.602100 0.000000
-38.543100 0.000000
-38.484000 0.000000
-38.425000 0.000000
-38.366000 0.000000
-38.306900 0.000000
-38.247900 0.000000
-38.188900 0.000000
-38.129800 0.000000
-38.070800 0.000000
-38.011700 0.000000
-37.952700 0.000000
-37.893700 0.000000
-37.834600 0.000000
-37.775600 0.000000
-37.716600 0.000000
-37.657500 0.000000
-37.598500 0.000000
-37.539400 0.000000
-37.480400 0.000000
-37.421400 0.000000
-37.362300 0.000000
-37.303300 0.000000
-37.244300 0.000000
-37.185200 0.000000
-37.126200 0.000000
-37.067200 0.000000
-37.008100 0.000000
-36.949100 0.000000
-36.890000 0.000000
-36.831000 0.000000
-36.772000 0.000000
-36.712900 0.000000
-36.653900 0.000000
-36.594900 0.000000
-36.535800 0.000000
-36.476800 0.000000
-36.417700 0.000000
-36.358700 0.000000
-36.299700 0.000000
-36.240600 0.000000
-36.181600 0.000000
-36.122600 0.000000
-36.063500 0.000000
-36.004500 0.000000
-35.945400 0.000000
-35.886400 0.000000
-35.827400 0.000000
-35.768300 0.000000
-35.709300 0.000000
-35.650300 0.000000
-35.591200 0.000000
-35.532200 0.000000
-35.473200 0.000000
-35.414100 0.000000
-35.355100 0.000000
-35.296000 0.000000
-35.237000 0.000000
-35.178000 0.000000
-35.118900 0.000000
-35.059900 0.000000
-35.000900 0.000000
-34.941800 0.000000
-34.882800 0.000000
-34.823700 0.000000
-34.764700 0.000000
-34.705700 0.000000
-34.646600 0.000000
-34.587600 0.000000
-34.528600 0.000000
-34.469500 0.000000
-34.410500 0.000000
-34.351400 0.000000
-34.292400 0.000000
-34.233400 0.000000
-34.174300 0.000000
-34.115300 0.000000
-34.056300 0.000000
-33.997200 0.000000
-33.938200 0.000000
-33.879100 0.000000
-33.820100 0.000000
-33.761100 0.000000
-33.702000 0.000000
-33.643000 0.000000
-33.584000 0.000000
-33.524900 0.000000
-33.465900 0.000000
-33.406900 0.000000
-33.347800 0.000000
-33.288800 0.000000
-33.229700 0.000000
-33.170700 0.000000
-33.111700 0.000000
-33.052600 0.000000
-32.993600 0.000000
-32.934600 0.000000
-32.875500 0.000000
-32.816500 0.000000
-32.757400 0.000000
-32.698400 0.000000
-32.639400 0.000000
-32.580300 0.000000
-32.521300 0.000000
-32.462300 0.000000
-32.403200 0.000000
-32.344200 0.000000
-32.285100 0.000000
-32.226100 0.000000
-32.167100 0.000000
-32.108000 0.000000
-32.049000 0.000000
-31.990000 0.000000
-31.930900 0.000000
-31.871900 0.000000
-31.812900 0.000000
-31.753800 0.000000
-31.694800 0.000000
-31.635700 0.000000
-31.576700 0.000000
-31.517700 0.000000
-31.458600 0.000000
-31.399600 0.000000
-31.340600 0.000000
-31.281500 0.000000
-31.222500 0.000000
-31.163400 0.000000
-31.104400 0.000000
-31.045400 0.000000
-30.986300 0.000000
-30.927300 0.000000
-30.868300 0.000000
-30.809200 0.000000
-30.750200 0.000000
-30.691100 0.000000
-30.632100 0.000000
-30.573100 0.000000
-30.514000 0.000000
-30.455000 0.000000
-30.396000 0.000000
-30.336900 0.000000
-30.277900 0.000000
-30.218800 0.000000
-30.159800 0.000000
-30.100800 0.000000
-30.041700 0.000000
-29.982700 0.000000
-29.923700 0.000000
-29.864600 0.000000
-29.805600 0.000000
-29.746600 0.000000
-29.687500 0.000000
-29.628500 0.000000
-29.569400 0.000000
-29.510400 0.000000
-29.451400 0.000000
-29.392300 0.000000
-29.333300 0.000000
-29.274300 0.000000
-29.215200 0.000000
-29.156200 0.000000
-29.097100 0.000000
-29.038100 0.000000
-28.979100 0.000000
-28.920000 0.000000
-28.861000 0.000000
-28.802000 0.000000
-28.742900 0.000000
-28.683900 0.000000
-28.624800 0.000000
-28.565800 0.000000
-28.506800 0.000000
-28.447700 0.000000
-28.388700 0.000000
-28.329700 0.000000
-28.270600 0.000000
-28.211600 0.000000
-28.152600 0.000000
-28.093500 0.000000
-28.034500 0.000000
-27.975400 0.000000
-27.916400 0.000000
-27.857400 0.000000
-27.798300 0.000000
-27.739300 0.000000
-27.680300 0.000000
-27.621200 0.000000
-27.562200 0.000000
-27.503100 0.000000
-27.444100 0.000000
-27.385100 0.000000
-27.326000 0.000000
-27.267000 0.000000
-27.208000 0.000000
-27.148900 0.000000
-27.089900 0.000000
-27.030800 0.000000
-26.971800 0.000000
-26.912800 0.000000
-26.853700 0.000000
-26.794700 0.000000
-26.735700 0.000000
-26.676600 0.000000
-26.617600 0.000000
-26.558500 0.000000
-26.499500 0.000000
-26.440500 0.000000
-26.381400 0.000000
-26.322400 0.000000
-26.263400 0.000000
-26.204300 0.000000
-26.145300 0.000000
-26.086300 0.000000
-26.027200 0.000000
-25.968200 0.000000
-25.909100 0.000000
-25.850100 0.000000
-25.791100 0.000000
-25.732000 0.000000
-25.673000 0.000000
-25.614000 0.000000
-25.554900 0.000000
-25.495900 0.000000
-25.436800 0.000000
-25.377800 0.000000
-25.318800 0.000000
-25.259700 0.000000
-25.200700 0.000000
-25.141700 0.000000
-25.082600 0.000000
-25.023600 0.000000
-24.964500 0.000000
-24.905500 0.000000
-24.846500 0.000000
-24.787400 0.000000
-24.728400 0.000000
-24.669400 0.000000
-24.610300 0.000000
-24.551300 0.000000
-24.492300 0.000000
-24.433200 0.000000
-24.374200 0.000000
-24.315100 0.000000
-24.256100 0.000000
-24.197100 0.000000
-24.138000 0.000000
-24.079000 0.000000
-24.020000 0.000000
-23.960900 0.000000
-23.901900 0.000000
-23.842800 0.000000
-23.783800 0.000000
-23.724800 0.000000
-23.665700 0.000000
-23.606700 0.000000
-23.547700 0.000000
-23.488600 0.000000
-23.429600 0.000000
-23.370500 0.000000
-23.311500 0.000000
-23.252500 0.000000
-23.193400 0.000000
-23.134400 0.000000
-23.075400 0.000000
-23.016300 0.000000
-22.957300 0.000000
-22.898200 0.000000
-22.839200 0.000000
-22.780200 0.000000
-22.721100 0.000000
-22.662100 0.000000
-22.603100 0.000000
-22.544000 0.000000
-22.485000 0.000000
-22.426000 0.000000
-22.366900 0.000000
-22.307900 0.000000
-22.248800 0.000000
-22.189800 0.000000
-22.130800 0.000000
-22.071700 0.000000
-22.012700 0.000000
-21.953700 0.000000
-21.894600 0.000000
-21.835600 0.000000
-21.776500 0.000000
-21.717500 0.000000
-21.658500 0.000000
-21.599400 0.000000
-21.540400 0.000000
-21.481400 0.000000
-21.422300 0.000000
-21.363300 0.000000
-21.304200 0.000000
-21.245200 0.000000
-21.186200 0.000000
-21.127100 0.000000
-21.068100 0.000000
-21.009100 0.000000
-20.950000 0.000000
-20.891000 0.000000
-20.832000 0.000000
-20.772900 0.000000
-20.713900 0.000000
-20.654800 0.000000
-20.595800 0.000000
-20.536800 0.000000
-20.477700 0.000000
-20.418700 0.000000
-20.359700 0.000000
-20.300600 0.000000
-20.241600 0.000000
-20.182500 0.000000
-20.123500 0.000000
-20.064500 0.000000
-20.005400 0.000000
-19.946400 0.000000
-19.887400 0.000000
-19.828300 0.000000
-19.769300 0.000000
-19.710200 0.000000
-19.651200 0.000000
-19.592200 0.000000
-19.533100 0.000000
-19.474100 0.000000
-19.415100 0.000000
-19.356000 0.000000
-19.297000 0.000000
-19.237900 0.000000
-19.178900 0.000000
-19.119900 0.000000
-19.060800 0.000000
-19.001800 0.000000
-18.942800 0.000000
-18.883700 0.000000
-18.824700 0.000000
-18.765700 0.000000
-18.706600 0.000000
-18.647600 0.000000
-18.588500 0.000000
-18.529500 0.000000
-18.470500 0.000000
-18.411400 0.000000
-18.352400 0.000000
-18.293400 0.000000
-18.234300 0.000000
-18.175300 0.000000
-18.116200 0.000000
-18.057200 0.000000
-17.998200 0.000000
-17.939100 0.000000
-17.880100 0.000000
-17.821100 0.000000
-17.762000 0.000000
-17.703000 0.000000
-17.643900 0.000000
-17.584900 0.000000
-17.525900 0.000000
-17.466800 0.000000
-17.407800 0.000000
-17.348800 0.000000
-17.289700 0.000000
-17.230700 0.000000
-17.171700 0.000000
-17.112600 0.000000
-17.053600 0.000000
-16.994500 0.000000
-16.935500 0.000000
-16.876500 0.000000
-16.817400 0.000000
-16.758400 0.000000
-16.699400 0.000000
-16.640300 0.000000
-16.581300 0.000000
-16.522200 0.000000
-16.463200 0.000000
-16.404200 0.000000
-16.345100 0.000000
-16.286100 0.000000
-16.227100 0.000000
-16.168000 0.000000
-16.109000 0.000000
-16.049900 0.000000
-15.990900 0.000000
-15.931900 0.000000
-15.872800 0.000000
-15.813800 0.000000
-15.754800 0.000000
-15.695700 0.000000
-15.636700 0.000000
-15.577600 0.000000
-15.518600 0.000000
-15.459600 0.000000
-15.400500 0.000000
-15.341500 0.000000
-15.282500 0.000000
-15.223400 0.000000
-15.164400 0.000000
-15.105400 0.000000
-15.046300 0.000000
-14.987300 0.000000
-14.928200 0.000000
-14.869200 0.000000
-14.810200 0.000000
-14.751100 0.000000
-14.692100 0.000000
-14.633100 0.000000
-14.574000 0.000000
-14.515000 0.000000
-14.455900 0.000000
-14.396900 0.000000
-14.337900 0.000000
-14.278800 0.000000
-14.219800 0.000000
-14.160800 0.000000
-14.101700 0.000000
-14.042700 0.000000
-13.983600 0.000000
-13.924600 0.000000
-13.865600 0.000000
-13.806500 0.000000
-13.747500 0.000000
-13.688500 0.000000
-13.629400 0.000000
-13.570400 0.000000
-13.511400 0.000000
-13.452300 0.000000
-13.393300 0.000000
-13.334200 0.000000
-13.275200 0.000000
-13.216200 0.000000
-13.157100 0.000000
-13.098100 0.000000
-13.039100 0.000000
-12.980000 0.000000
-12.921000 0.000000
-12.861900 0.000000
-12.802900 0.000000
-12.743900 0.000000
-12.684800 0.000000
-12.625800 0.000000
-12.566800 0.000000
-12.507700 0.000000
-12.448700 0.000000
-12.389600 0.000000
-12.330600 0.000000
-12.271600 0.000000
-12.212500 0.000000
-12.153500 0.000000
-12.094500 0.000000
-12.035400 0.000000
-11.976400 0.000000
-11.917300 0.000000
-11.858300 0.000000
-11.799300 0.000000
-11.740200 0.000000
-11.681200 0.000000
-11.622200 0.000000
-11.563100 0.000000
-11.504100 0.000000
-11.445100 0.000000
-11.386000 0.000000
-11.327000 0.000000
-11.267900 0.000000
-11.208900 0.000000
-11.149900 0.000000
-11.090800 0.000000
-11.031800 0.000000
-10.972800 0.000000
-10.913700 0.000000
-10.854700 0.000000
-10.795600 0.000000
-10.736600 0.000000
-10.677600 0.000000
-10.618500 0.000000
-10.559500 0.000000
-10.500500 0.000000
-10.441400 0.000000
-10.382400 0.000000
-10.323300 0.000000
-10.264300 0.000000
-10.205300 0.000000
-10.146200 0.000000
-10.087200 0.000000
-10.028200 0.000000
-9.969100 0.000000
-9.910100 0.000000
-9.851100 0.000000
-9.792000 0.000000
-9.733000 0.000000
-9.673900 0.000000
-9.614900 0.000000
-9.555900 0.000000
-9.496800 0.000000
-9.437800 0.000000
-9.378800 0.000000
-9.319700 0.000000
-9.260700 0.000000
-9.201600 0.000000
-9.142600 0.000000
-9.083600 0.000000
-9.024500 0.000000
-8.965500 0.000000
-8.906500 0.000000
-8.847400 0.000000
-8.788400 0.000000
-8.729300 0.000000
-8.670300 0.000000
-8.611300 0.000000
-8.552200 0.000000
-8.493200 0.000000
-8.434200 0.000000
-8.375100 0.000000
-8.316100 0.000000
-8.257000 0.000000
-8.198000 0.000000
-8.139000 0.000000
-8.079900 0.000000
-8.020900 0.000000
-7.961900 0.000000
-7.902800 0.000000
-7.843800 0.000000
-7.784800 0.000000
-7.725700 0.000000
-7.666700 0.000000
-7.607600 0.000000
-7.548600 0.000000
-7.489600 0.000000
-7.430500 0.000000
-7.371500 0.000000
-7.312500 0.000000
-7.253400 0.000000
-7.194400 0.000000
-7.135300 0.000000
-7.076300 0.000000
-7.017300 0.000000
-6.958200 0.000000
-6.899200 0.000000
-6.840200 0.000000
-6.781100 0.000000
-6.722100 0.000000
-6.663000 0.000000
-6.604000 0.000000
-6.545000 0.000000
-6.485900 0.000000
-6.426900 0.000000
-6.367900 0.000000
-6.308800 0.000000
-6.249800 0.000000
-6.190800 0.000000
-6.131700 0.000000
-6.072700 0.000000
-6.013600 0.000000
-5.954600 0.000000
-5.895600 0.000000
-5.836500 0.000000
-5.777500 0.000000
-5.718500 0.000000
-5.659400 0.000000
-5.600400 0.000000
-5.541300 0.000000
-5.482300 0.000000
-5.423300 0.000000
-5.364200 0.000000
-5.305200 0.000000
-5.246200 0.000000
-5.187100 0.000000
-5.128100 0.000000
-5.069000 0.000000
-5.010000 0.000000
-4.951000 0.000000
-4.891900 0.000000
-4.832900 0.000000
-4.773900 0.000000
-4.714800 0.000000
-4.655800 0.000000
-4.596800 0.000000
-4.537700 0.000000
-4.478700 0.000000
-4.419600 0.000000
-4.360600 0.000000
-4.301600 0.000000
-4.242500 0.000000
-4.183500 0.000000
-4.124500 0.000000
-4.065400 0.000000
-4.006400 0.000000
-3.947300 0.000000
-3.888300 0.000000
-3.829300 0.000000
-3.770200 0.000000
-3.711200 0.000000
-3.652200 0.000000
-3.593100 0.000000
-3.534100 0.000000
-3.475000 0.000000
-3.416000 0.000000
-3.357000 0.000000
-3.297900 0.000000
-3.238900 0.000000
-3.179900 0.000000
-3.120800 0.000000
-3.061800 0.000000
-3.002700 0.000000
-2.943700 0.000000
-2.884700 0.000000
-2.825600 0.014500
-2.766600 0.042200
-2.707600 0.047800
-2.648500 0.057300
-2.589500 0.070700
-2.530500 0.079700
-2.471400 0.083000
-2.412400 0.089600
-2.353300 0.096700
-2.294300 0.103700
-2.235300 0.111400
-2.176200 0.118200
-2.117200 0.123400
-2.058200 0.129100
-1.999100 0.135000
-1.940100 0.140800
-1.881000 0.147600
-1.822000 0.155000
-1.763000 0.162500
-1.703900 0.168800
-1.644900 0.169800
-1.585900 0.170600
-1.526800 0.174100
-1.467800 0.180500
-1.408700 0.186400
-1.349700 0.193200
-1.290700 0.200300
-1.231600 0.206800
-1.172600 0.213500
-1.113600 0.220900
-1.054500 0.228500
-0.995500 0.236200
-0.936500 0.243200
-0.877400 0.250200
-0.818400 0.257200
-0.759300 0.264800
-0.700300 0.273500
-0.641300 0.282700
-0.582200 0.292400
-0.523200 0.302700
-0.464200 0.312800
-0.405100 0.323000
-0.346100 0.334100
-0.287000 0.346400
-0.228000 0.359800
-0.169000 0.376200
-0.109900 0.392100
-0.050900 0.408600
0.008100 0.426100
0.067200 0.445900
0.126200 0.470600
0.185300 0.502400
0.244300 0.535900
0.303300 0.572700
0.362400 0.618900
0.421400 0.686000
0.480400 0.759100
0.539500 0.863300
0.598500 1.069400
0.657600 1.811100
0.716600 1.729000
0.775600 2.040800
0.834700 2.146600
0.893700 2.101500
0.952700 2.155500
1.011800 2.308400
1.070800 2.554200
1.129800 2.614900
1.188900 3.055500
1.247900 3.239900
1.307000 3.569900
1.366000 3.647700
1.425000 4.289600
1.484100 3.709000
1.543100 2.891100
1.602100 2.793000
1.661200 2.746600
1.720200 2.698100
1.779300 2.332900
1.838300 1.956200
1.897300 1.666100
1.956400 1.899900
2.015400 1.573600
2.074400 2.952900
2.133500 5.507700
2.192500 4.592800
2.251600 6.435400
2.310600 4.630300
2.369600 5.079300
2.428700 5.662700
2.487700 3.927000
2.546700 3.740000
2.605800 3.575500
2.664800 3.954900
2.723800 3.947500
2.782900 4.409500
2.841900 4.660300
2.901000 5.096700
2.960000 5.738500
3.019000 6.622300
3.078100 5.730400
3.137100 4.908400
3.196100 4.751800
3.255200 3.599800
3.314200 2.984100
3.373300 2.550200
3.432300 2.260000
3.491300 1.986000
3.550400 2.005500
3.609400 1.963300
3.668400 1.887300
3.727500 1.956600
3.786500 1.996900
3.845600 2.110400
3.904600 2.560000
3.963600 2.025900
4.022700 2.661400
4.081700 2.549200
4.140700 2.913900
4.199800 3.182800
4.258800 4.954700
4.317900 4.113700
4.376900 3.705900
4.435900 4.280900
4.495000 6.780000
4.554000 5.696600
4.613000 10.715100
4.672100 6.163300
4.731100 8.397700
4.790100 6.150200
4.849200 6.931100
4.908200 5.726100
4.967300 4.600200
5.026300 2.953500
5.085300 2.828400
5.144400 2.461300
5.203400 6.052300
5.262400 4.826000
5.321500 4.005200
5.380500 3.283900
5.439600 2.964400
5.498600 2.849100
5.557600 3.449500
5.616700 3.323400
5.675700 3.153000
5.734700 2.264200
5.793800 2.091700
5.852800 2.678600
5.911900 3.254100
5.970900 2.903800
6.029900 2.883000
6.089000 4.213000
6.148000 2.051800
6.207000 1.376700
6.266100 1.075800
6.325100 0.856000
6.384100 0.731100
6.443200 0.664200
6.502200 0.627600
6.561300 0.616100
6.620300 0.616600
6.679300 0.631800
6.738400 0.645400
6.797400 0.638300
6.856400 0.634700
6.915500 0.634200
6.974500 0.654700
7.033600 0.646700
7.092600 0.643700
7.151600 0.639800
7.210700 0.660700
7.269700 0.653200
7.328700 0.623500
7.387800 0.621400
7.446800 0.616900
7.505900 0.612800
7.564900 0.608800
7.623900 0.602700
7.683000 0.596900
7.742000 0.591200
7.801000 0.586500
7.860100 0.581900
7.919100 0.577000
7.978200 0.571300
8.037200 0.562800
8.096200 0.556600
8.155300 0.552700
8.214300 0.547800
8.273300 0.544000
8.332400 0.540900
8.391400 0.537800
8.450400 0.534400
8.509500 0.531500
8.568500 0.529600
8.627600 0.532600
8.686600 0.507000
8.745600 0.489200
8.804700 0.473300
8.863700 0.468100
8.922700 0.459200
8.981800 0.449400
9.040800 0.442900
9.099900 0.440600
9.158900 0.440000
9.217900 0.439000
9.277000 0.445000
9.336000 0.467200
9.395000 0.479200
9.454100 0.462500
9.513100 0.454500
9.572200 0.446400
9.631200 0.439200
9.690200 0.439500
9.749300 0.435700
9.808300 0.429700
9.867300 0.424200
9.926400 0.420300
9.985400 0.416300
10.044400 0.409700
10.103500 0.402800
10.162500 0.396700
10.221600 0.390500
10.280600 0.385100
10.339600 0.379600
10.398700 0.372400
10.457700 0.366000
10.516700 0.359300
10.575800 0.352600
10.634800 0.347100
10.693900 0.341500
10.752900 0.335400
10.811900 0.329100
10.871000 0.321900
10.930000 0.315100
10.989000 0.306700
11.048100 0.299200
11.107100 0.295900
11.166200 0.293600
11.225200 0.288500
11.284200 0.283100
11.343300 0.277400
11.402300 0.271000
11.461300 0.265200
11.520400 0.259800
11.579400 0.252000
11.638500 0.243500
11.697500 0.234500
11.756500 0.225700
11.815600 0.218200
11.874600 0.209800
11.933600 0.200100
11.992700 0.189100
12.051700 0.178300
12.110700 0.167800
12.169800 0.158200
12.228800 0.150200
12.287900 0.143400
12.346900 0.137000
12.405900 0.127100
12.465000 0.121700
12.524000 0.120300
12.583000 0.109900
12.642100 0.104200
12.701100 0.100300
12.760200 0.099200
12.819200 0.096300
12.878200 0.089800
12.937300 0.089000
12.996300 0.100600
13.055300 0.212900
13.114400 0.212500
13.173400 0.349500
13.232500 0.546500
13.291500 0.684200
13.350500 0.814600
13.409600 0.961300
13.468600 0.999500
13.527600 1.026500
13.586700 1.005100
13.645700 0.982200
13.704700 0.939100
13.763800 0.916100
13.822800 0.922400
13.881900 0.932300
13.940900 0.911900
13.999900 0.901900
14.059000 0.884400
14.118000 0.874100
14.177000 0.815600
14.236100 0.772000
14.295100 0.738400
14.354200 0.721600
14.413200 0.707700
14.472200 0.693700
14.531300 0.673700
14.590300 0.663100
14.649300 0.663000
14.708400 0.668300
14.767400 0.674000
14.826500 0.664800
14.885500 0.657200
14.944500 0.660900
15.003600 0.654900
15.062600 0.656100
15.121600 0.653800
15.180700 0.648000
15.239700 0.645200
15.298800 0.665700
15.357800 0.708600
15.416800 0.749600
15.475900 0.772100
15.534900 0.800200
15.593900 0.804200
15.653000 0.810400
15.712000 0.823400
15.771000 0.833400
15.830100 0.840200
15.889100 0.844200
15.948200 0.832900
16.007200 0.818700
16.066200 0.812400
16.125300 0.795900
16.184300 0.772400
16.243300 0.745500
16.302400 0.731300
16.361400 0.717200
16.420500 0.703200
16.479500 0.687400
16.538500 0.668900
16.597600 0.659500
16.656600 0.662900
16.715600 0.669100
16.774700 0.692600
16.833700 0.710800
16.892800 0.679100
16.951800 0.659700
17.010800 0.676100
17.069900 0.701100
17.128900 0.734100
17.187900 0.770100
17.247000 0.785400
17.306000 0.789900
17.365000 0.779600
17.424100 0.771600
17.483100 0.755900
17.542200 0.734700
17.601200 0.712700
17.660200 0.709600
17.719300 0.714500
17.778300 0.713400
17.837300 0.702500
17.896400 0.703800
17.955400 0.721700
18.014500 0.737100
18.073500 0.741800
18.132500 0.769800
18.191600 0.782300
18.250600 0.776900
18.309600 0.770100
18.368700 0.755900
18.427700 0.750400
18.486800 0.740300
18.545800 0.734800
18.604800 0.733500
18.663900 0.732000
18.722900 0.730000
18.781900 0.726800
18.841000 0.719200
18.900000 0.711500
18.959100 0.709000
19.018100 0.705500
19.077100 0.725600
19.136200 0.732600
19.195200 0.748000
19.254200 0.754500
19.313300 0.744100
19.372300 0.739000
19.431300 0.737100
19.490400 0.732300
19.549400 0.720400
19.608500 0.708300
19.667500 0.702000
19.726500 0.694100
19.785600 0.691500
19.844600 0.694200
19.903600 0.695900
19.962700 0.686800
20.021700 0.677600
20.080800 0.670400
20.139800 0.661600
20.198800 0.648000
20.257900 0.642200
20.316900 0.636200
20.375900 0.643000
20.435000 0.653800
20.494000 0.656100
20.553100 0.659000
20.612100 0.658700
20.671100 0.656200
20.730200 0.663600
20.789200 0.666200
20.848200 0.674900
20.907300 0.685600
20.966300 0.695800
21.025300 0.700000
21.084400 0.703800
21.143400 0.698000
21.202500 0.689100
21.261500 0.691600
21.320500 0.693100
21.379600 0.700800
21.438600 0.688500
21.497600 0.699300
21.556700 0.716300
21.615700 0.704600
21.674800 0.704500
21.733800 0.719900
21.792800 0.734200
21.851900 0.767100
21.910900 0.785500
21.969900 0.799200
22.029000 0.806200
22.088000 0.807700
22.147100 0.808800
22.206100 0.810200
22.265100 0.822700
22.324200 0.845800
22.383200 0.854200
22.442200 0.870100
22.501300 0.883900
22.560300 0.891300
22.619400 0.892500
22.678400 0.891900
22.737400 0.891100
22.796500 0.897300
22.855500 0.904900
22.914500 0.905000
22.973600 0.915100
23.032600 0.929200
23.091600 0.947000
23.150700 0.969200
23.209700 0.996700
23.268800 1.030700
23.327800 1.073400
23.386800 1.106200
23.445900 1.134000
23.504900 1.190400
23.563900 1.207800
23.623000 1.181200
23.682000 1.096500
23.741100 1.027500
23.800100 0.949800
23.859100 0.890900
23.918200 0.842800
23.977200 0.812300
24.036200 0.787200
24.095300 0.779100
24.154300 0.784800
24.213400 0.799000
24.272400 0.827100
24.331400 0.863300
24.390500 0.905800
24.449500 0.951400
24.508500 0.978700
24.567600 0.964200
24.626600 1.031000
24.685600 1.045500
24.744700 1.025700
24.803700 1.005600
24.862800 0.983900
24.921800 0.958800
24.980800 0.980700
25.039900 1.007700
25.098900 1.023700
25.157900 1.043400
25.217000 1.065300
25.276000 1.106800
25.335100 1.082600
25.394100 1.070800
25.453100 1.039000
25.512200 1.054200
25.571200 1.071900
25.630200 1.066800
25.689300 1.060800
25.748300 1.083100
25.807400 1.102500
25.866400 1.158600
25.925400 1.100500
25.984500 1.046000
26.043500 1.017200
26.102500 1.002900
26.161600 0.992300
26.220600 0.986000
26.279700 0.993000
26.338700 0.953600
26.397700 0.932800
26.456800 0.908800
26.515800 0.886700
26.574800 0.863800
26.633900 0.851000
26.692900 0.845300
26.751900 0.838800
26.811000 0.825800
26.870000 0.816700
26.929100 0.807800
26.988100 0.808200
27.047100 0.824000
27.106200 0.843700
27.165200 0.808600
27.224200 0.802900
27.283300 0.796500
27.342300 0.799500
27.401400 0.819600
27.460400 0.833800
27.519400 0.853900
27.578500 0.846300
27.637500 0.818700
27.696500 0.777000
27.755600 0.745900
27.814600 0.724400
27.873700 0.714100
27.932700 0.674100
27.991700 0.631700
28.050800 0.580400
28.109800 0.540500
28.168800 0.505700
28.227900 0.470000
28.286900 0.447900
28.345900 0.443300
28.405000 0.460400
28.464000 0.485000
28.523100 0.535100
28.582100 0.551700
28.641100 0.576800
28.700200 0.584800
28.759200 0.577900
28.818200 0.587600
28.877300 0.601800
28.936300 0.615800
28.995400 0.631400
29.054400 0.646400
29.113400 0.660300
29.172500 0.677700
29.231500 0.655600
29.290500 0.643900
29.349600 0.663900
29.408600 0.686900
29.467700 0.726100
29.526700 0.753400
29.585700 0.797100
29.644800 0.826500
29.703800 0.873800
29.762800 0.903500
29.821900 0.932600
29.880900 0.976700
29.940000 0.975500
29.999000 1.009300
30.058000 1.053200
30.117100 1.071100
30.176100 1.094600
30.235100 1.145200
30.294200 1.166500
30.353200 1.157800
30.412200 1.177500
30.471300 1.173800
30.530300 1.187100
30.589400 1.203200
30.648400 1.213900
30.707400 1.202800
30.766500 1.187800
30.825500 1.153500
30.884500 1.133400
30.943600 1.115700
31.002600 1.068700
31.061700 1.019500
31.120700 0.982600
31.179700 0.935900
31.238800 0.907900
31.297800 0.896300
31.356800 0.886600
31.415900 0.871300
31.474900 0.831900
31.534000 0.783600
31.593000 0.746600
31.652000 0.713800
31.711100 0.686100
31.770100 0.665000
31.829100 0.655400
31.888200 0.640400
31.947200 0.630600
32.006200 0.609100
32.065300 0.591300
32.124300 0.576800
32.183400 0.577200
32.242400 0.575300
32.301400 0.580500
32.360500 0.590200
32.419500 0.611600
32.478500 0.636000
32.537600 0.668600
32.596600 0.683700
32.655700 0.696300
32.714700 0.683900
32.773700 0.692200
32.832800 0.726100
32.891800 0.787100
32.950800 0.845800
33.009900 0.940800
33.068900 1.046600
33.128000 1.144800
33.187000 1.214000
33.246000 1.237600
33.305100 1.229100
33.364100 1.223300
33.423100 1.236000
33.482200 1.257300
33.541200 1.266500
33.600300 1.230000
33.659300 1.210400
33.718300 1.203600
33.777400 1.189900
33.836400 1.170200
33.895400 1.146400
33.954500 1.112300
34.013500 1.086300
34.072500 1.062800
34.131600 1.045900
34.190600 1.027800
34.249700 1.023400
34.308700 1.004900
34.367700 0.980400
34.426800 0.963300
34.485800 0.949800
34.544800 0.935900
34.603900 0.924100
34.662900 0.914900
34.722000 0.900600
34.781000 0.886400
34.840000 0.867800
34.899100 0.861700
34.958100 0.866300
35.017100 0.865400
35.076200 0.862300
35.135200 0.871400
35.194300 0.876000
35.253300 0.881000
35.312300 0.890500
35.371400 0.907900
35.430400 0.956000
35.489400 0.998800
35.548500 1.027200
35.607500 1.041400
35.666500 1.090600
35.725600 1.100300
35.784600 1.141100
35.843700 1.143000
35.902700 1.123600
35.961700 1.121900
36.020800 1.113600
36.079800 1.114200
36.138800 1.087300
36.197900 1.072600
36.256900 1.069800
36.316000 1.038600
36.375000 1.016900
36.434000 1.005800
36.493100 0.990500
36.552100 0.979300
36.611100 0.971000
36.670200 0.980400
36.729200 1.008300
36.788300 1.024300
36.847300 1.026600
36.906300 1.035000
36.965400 1.032200
37.024400 1.024300
37.083400 1.035600
37.142500 1.064800
37.201500 1.110200
37.260600 1.151800
37.319600 1.178400
37.378600 1.193800
37.437700 1.206300
37.496700 1.188000
37.555700 1.151200
37.614800 1.122000
37.673800 1.095700
37.732800 1.062500
37.791900 1.047600
37.850900 1.043400
37.910000 1.020900
37.969000 1.015900
38.028000 1.018800
38.087100 1.019400
38.146100 1.019500
38.205100 1.019400
38.264200 1.022700
38.323200 1.032400
38.382300 1.053500
38.441300 1.067900
38.500300 1.069900
38.559400 1.072100
38.618400 1.066200
38.677400 1.046300
38.736500 1.018200
38.795500 1.008100
38.854600 0.999700
38.913600 0.992700
38.972600 0.996400
39.031700 1.002700
39.090700 1.011000
39.149700 1.023600
39.208800 1.039600
39.267800 1.051000
39.326800 1.055100
39.385900 1.063400
39.444900 0.998900
39.504000 0.966400
39.563000 0.972800
39.622000 0.996000
39.681100 0.985700
39.740100 0.949600
39.799100 0.940400
39.858200 0.939400
39.917200 0.939700
39.976300 0.946500
40.035300 0.973900
40.094300 0.996800
40.153400 1.009500
40.212400 1.031900
40.271400 1.043700
40.330500 1.053100
40.389500 1.055200
40.448600 1.032000
40.507600 0.997100
40.566600 0.984400
40.625700 0.975100
40.684700 0.971100
40.743700 0.959400
40.802800 0.955900
40.861800 0.970500
40.920900 0.991600
40.979900 0.996700
41.038900 1.014700
41.098000 1.038100
41.157000 1.061300
41.216000 1.076400
41.275100 1.095600
41.334100 1.104800
41.393100 1.106100
41.452200 1.128500
41.511200 1.151900
41.570300 1.169200
41.629300 1.148300
41.688300 1.138400
41.747400 1.146900
41.806400 1.153600
41.865400 1.152400
41.924500 1.141300
41.983500 1.133800
42.042600 1.121300
42.101600 1.122100
42.160600 1.116900
42.219700 1.100000
42.278700 1.110500
42.337700 1.097200
42.396800 1.098600
42.455800 1.114000
42.514900 1.135900
42.573900 1.152000
42.632900 1.156100
42.692000 1.164300
42.751000 1.150400
42.810000 1.132300
42.869100 1.112600
42.928100 1.113700
42.987100 1.117000
43.046200 1.129200
43.105200 1.120500
43.164300 1.124200
43.223300 1.129900
43.282300 1.125900
43.341400 1.140300
43.400400 1.188300
43.459400 1.181100
43.518500 1.201300
43.577500 1.197700
43.636600 1.213700
43.695600 1.246700
43.754600 1.277300
43.813700 1.338200
43.872700 1.346100
43.931700 1.469300
43.990800 1.363800
44.049800 1.359400
44.108900 1.371200
44.167900 1.412700
44.226900 1.426200
44.286000 1.444400
44.345000 1.401600
44.404000 1.346300
44.463100 1.310200
44.522100 1.225000
44.581200 1.179500
44.640200 1.149900
44.699200 1.105300
44.758300 1.078900
44.817300 1.064500
44.876300 0.994400
44.935400 0.969900
44.994400 0.956200
45.053400 0.978700
45.112500 0.978600
45.171500 0.967300
45.230600 0.940000
45.289600 0.916100
45.348600 0.919700
45.407700 0.935300
45.466700 0.955900
45.525700 0.967100
45.584800 0.975700
45.643800 0.992700
45.702900 1.015000
45.761900 1.004800
45.820900 0.983300
45.880000 0.948300
45.939000 0.940100
45.998000 0.919200
46.057100 0.905700
46.116100 0.901600
46.175200 0.894900
46.234200 0.889700
46.293200 0.891700
46.352300 0.890500
46.411300 0.895800
46.470300 0.898900
46.529400 0.905700
46.588400 0.922400
46.647400 0.921800
46.706500 0.943200
46.765500 0.957500
46.824600 0.963500
46.883600 0.972000
46.942600 1.004300
47.001700 1.030900
47.060700 1.058000
47.119700 1.073900
47.178800 1.111700
47.237800 1.143100
47.296900 1.176500
47.355900 1.206500
47.414900 1.241100
47.474000 1.281500
47.533000 1.356500
47.592000 1.390800
47.651100 1.399000
47.710100 1.402100
47.769200 1.427400
47.828200 1.433400
47.887200 1.451300
47.946300 1.489300
48.005300 1.555700
48.064300 1.601600
48.123400 1.603900
48.182400 1.546900
48.241500 1.475500
48.300500 1.393500
48.359500 1.371100
48.418600 1.328500
48.477600 1.314600
48.536600 1.245100
48.595700 1.207100
48.654700 1.127800
48.713700 1.089900
48.772800 1.096800
48.831800 1.107900
48.890900 1.109600
48.949900 1.117700
49.008900 1.103700
49.068000 1.077000
49.127000 1.056900
49.186000 1.040000
49.245100 1.037000
49.304100 1.045200
49.363200 1.055400
49.422200 1.083100
49.481200 1.103800
49.540300 1.112000
49.599300 1.066200
49.658300 1.064000
49.717400 1.084000
49.776400 1.034000
49.835500 1.022200
49.894500 1.010200
49.953500 1.009700
50.012600 1.007900
50.071600 1.020600
50.130600 1.039600
50.189700 1.027800
50.248700 1.012900
50.307700 1.003100
50.366800 1.027200
50.425800 1.041400
50.484900 1.067700
50.543900 1.111800
50.602900 1.130200
50.662000 1.159300
50.721000 1.215900
50.780000 1.272300
50.839100 1.330900
50.898100 1.369500
50.957200 1.387600
51.016200 1.399900
51.075200 1.408800
51.134300 1.428000
51.193300 1.616700
51.252300 1.749700
51.311400 1.904700
51.370400 1.839500
51.429500 1.794500
51.488500 1.786500
51.547500 1.846400
51.606600 1.919700
51.665600 1.972600
51.724600 2.025800
51.783700 2.049200
51.842700 2.054300
51.901800 2.114600
51.960800 2.309200
52.019800 2.638400
52.078900 3.100100
52.137900 3.583300
52.196900 4.572500
52.256000 4.519300
52.315000 4.316200
52.374000 5.078700
52.433100 4.456700
52.492100 3.709900
52.551200 2.952000
52.610200 2.734700
52.669200 2.470900
52.728300 2.339200
52.787300 2.292500
52.846300 2.197700
52.905400 1.969700
52.964400 1.810200
53.023500 1.739000
53.082500 1.715600
53.141500 1.622500
53.200600 1.602000
53.259600 1.599100
53.318600 1.505000
53.377700 1.455100
53.436700 1.419700
53.495800 1.380600
53.554800 1.361300
53.613800 1.353700
53.672900 1.365600
53.731900 1.366400
53.790900 1.315000
53.850000 1.297500
53.909000 1.289900
53.968000 1.284500
54.027100 1.272500
54.086100 1.265600
54.145200 1.263300
54.204200 1.258700
54.263200 1.255200
54.322300 1.246800
54.381300 1.240400
54.440300 1.269800
54.499400 1.285800
54.558400 1.274700
54.617500 1.249500
54.676500 1.213200
54.735500 1.182900
54.794600 1.138600
54.853600 1.070600
54.912600 1.013900
54.971700 0.939800
55.030700 0.888000
55.089800 0.834600
55.148800 0.759000
55.207800 0.710200
55.266900 0.689800
55.325900 0.637000
55.384900 0.621700
55.444000 0.606500
55.503000 0.560800
55.562100 0.525100
55.621100 0.489100
55.680100 0.457200
55.739200 0.415400
55.798200 0.398300
55.857200 0.316200
55.916300 0.267700
55.975300 0.226500
56.034300 0.203100
56.093400 0.190400
56.152400 0.179800
56.211500 0.167400
56.270500 0.151800
56.329500 0.134500
56.388600 0.120400
56.447600 0.107300
56.506600 0.096300
56.565700 0.087800
56.624700 0.077600
56.683800 0.066300
56.742800 0.054800
56.801800 0.042900
56.860900 0.037300
56.919900 0.032300
56.978900 0.028100
57.038000 0.024000
57.097000 0.020200
57.156100 0.016600
57.215100 0.012500
57.274100 0.008200
57.333200 0.004500
57.392200 0.001900
57.451200 0.000400
57.510300 0.000000
57.569300 0.000000
57.628300 0.000000
57.687400 0.000000
57.746400 0.000000
57.805500 0.000000
57.864500 0.000000
57.923500 0.000000
57.982600 0.000000
58.041600 0.000000
58.100600 0.000000
58.159700 0.000000
58.218700 0.000000
58.277800 0.000000
58.336800 0.000000
58.395800 0.000000
58.454900 0.000000
58.513900 0.000000
58.572900 0.000000
58.632000 0.000000
58.691000 0.000000
58.750100 0.000000
58.809100 0.000000
58.868100 0.000000
58.927200 0.000000
58.986200 0.000000
59.045200 0.000000
59.104300 0.000000
59.163300 0.000000
59.222300 0.000000
59.281400 0.000000
59.340400 0.000000
59.399500 0.000000
59.458500 0.000000
59.517500 0.000000
59.576600 0.000000
59.635600 0.000000
59.694600 0.000000
59.753700 0.000000
59.812700 0.000000
59.871800 0.000000
59.930800 0.000000
59.989800 0.000000
60.048900 0.000000
60.107900 0.000000
60.166900 0.000000
60.226000 0.000000
60.285000 0.000000
60.344100 0.000000
60.403100 0.000000
60.462100 0.000000
60.521200 0.000000
60.580200 0.000000
60.639200 0.000000
60.698300 0.000000
60.757300 0.000000
60.816400 0.000000
60.875400 0.000000
60.934400 0.000000
60.993500 0.000000
61.052500 0.000000
61.111500 0.000000
61.170600 0.000000
61.229600 0.000000
61.288600 0.000000
61.347700 0.000000
61.406700 0.000000
61.465800 0.000000
61.524800 0.000000
61.583800 0.000000
61.642900 0.000000
61.701900 0.000000
61.760900 0.000000
61.820000 0.000000
61.879000 0.000000
61.938100 0.000000
61.997100 0.000000
62.056100 0.000000
62.115200 0.000000
62.174200 0.000000
62.233200 0.000000
62.292300 0.000000
62.351300 0.000000
62.410400 0.000000
62.469400 0.000000
62.528400 0.000000
62.587500 0.000000
62.646500 0.000000
62.705500 0.000000
62.764600 0.000000
62.823600 0.000000
62.882600 0.000000
62.941700 0.000000
63.000700 0.000000
63.059800 0.000000
63.118800 0.000000
63.177800 0.000000
63.236900 0.000000
63.295900 0.000000
63.354900 0.000000
63.414000 0.000000
63.473000 0.000000
63.532100 0.000000
63.591100 0.000000
63.650100 0.000000
63.709200 0.000000
63.768200 0.000000
63.827200 0.000000
63.886300 0.000000
63.945300 0.000000
e
