set title 'mp-982381 - Density of States'
set xlabel 'Energy (eV)'
set ylabel 'DOS (states/eV)'
set grid
set xrange [-10:10]
set yrange [0:27.641]
set xzeroaxis lt -1
set terminal png size 800,600
set output 'mp-982381_dos_gnuplot.png'
plot '-' using 1:2 with lines title 'DOS'
-70.716300 0.000000
-70.652300 0.000000
-70.588300 0.000000
-70.524300 0.000000
-70.460400 0.000000
-70.396400 0.000000
-70.332400 0.000000
-70.268400 0.000000
-70.204500 0.000000
-70.140500 0.000000
-70.076500 0.000000
-70.012500 0.000000
-69.948600 0.000000
-69.884600 0.000000
-69.820600 0.000000
-69.756600 0.000000
-69.692700 0.000000
-69.628700 0.000000
-69.564700 0.000000
-69.500800 0.000000
-69.436800 0.000000
-69.372800 0.000000
-69.308800 0.000000
-69.244900 0.000000
-69.180900 0.000000
-69.116900 0.000000
-69.052900 0.000000
-68.989000 0.000000
-68.925000 0.000000
-68.861000 0.000000
-68.797000 0.000000
-68.733100 0.000000
-68.669100 0.000000
-68.605100 0.000000
-68.541100 0.000000
-68.477200 0.000000
-68.413200 0.000000
-68.349200 0.000000
-68.285200 0.000000
-68.221300 0.000000
-68.157300 0.000000
-68.093300 0.000000
-68.029400 0.000000
-67.965400 0.000000
-67.901400 0.000000
-67.837400 0.000000
-67.773500 0.000000
-67.709500 0.000000
-67.645500 0.000000
-67.581500 0.000000
-67.517600 0.000000
-67.453600 0.000000
-67.389600 0.000000
-67.325600 0.000000
-67.261700 0.000000
-67.197700 0.000000
-67.133700 0.000000
-67.069700 0.000000
-67.005800 0.000000
-66.941800 0.000000
-66.877800 0.000000
-66.813800 0.000000
-66.749900 0.000000
-66.685900 0.000000
-66.621900 0.000000
-66.558000 0.000000
-66.494000 0.000000
-66.430000 0.000000
-66.366000 0.000000
-66.302100 0.000000
-66.238100 0.000000
-66.174100 0.000000
-66.110100 0.000000
-66.046200 0.000000
-65.982200 0.000000
-65.918200 0.000000
-65.854200 0.000000
-65.790300 0.000000
-65.726300 0.000000
-65.662300 0.000000
-65.598300 0.000000
-65.534400 0.000000
-65.470400 0.000000
-65.406400 0.000000
-65.342400 0.000000
-65.278500 0.000000
-65.214500 0.000000
-65.150500 0.000000
-65.086500 0.000000
-65.022600 0.000000
-64.958600 0.000000
-64.894600 426.709800
-64.830700 0.000000
-64.766700 0.000000
-64.702700 0.000000
-64.638700 0.000000
-64.574800 0.000000
-64.510800 0.000000
-64.446800 0.000000
-64.382800 0.000000
-64.318900 0.000000
-64.254900 0.000000
-64.190900 0.000000
-64.126900 0.000000
-64.063000 0.000000
-63.999000 0.000000
-63.935000 0.000000
-63.871000 0.000000
-63.807100 0.000000
-63.743100 0.000000
-63.679100 0.000000
-63.615100 0.000000
-63.551200 0.000000
-63.487200 0.000000
-63.423200 0.000000
-63.359300 0.000000
-63.295300 0.000000
-63.231300 0.000000
-63.167300 0.000000
-63.103400 0.000000
-63.039400 0.000000
-62.975400 0.000000
-62.911400 0.000000
-62.847500 0.000000
-62.783500 0.000000
-62.719500 0.000000
-62.655500 0.000000
-62.591600 0.000000
-62.527600 0.000000
-62.463600 0.000000
-62.399600 0.000000
-62.335700 0.000000
-62.271700 0.000000
-62.207700 0.000000
-62.143700 0.000000
-62.079800 0.000000
-62.015800 0.000000
-61.951800 0.000000
-61.887900 0.000000
-61.823900 0.000000
-61.759900 0.000000
-61.695900 0.000000
-61.632000 0.000000
-61.568000 0.000000
-61.504000 0.000000
-61.440000 0.000000
-61.376100 0.000000
-61.312100 0.000000
-61.248100 0.000000
-61.184100 0.000000
-61.120200 0.000000
-61.056200 0.000000
-60.992200 0.000000
-60.928200 0.000000
-60.864300 0.000000
-60.800300 0.000000
-60.736300 0.000000
-60.672300 0.000000
-60.608400 0.000000
-60.544400 0.000000
-60.480400 0.000000
-60.416500 0.000000
-60.352500 0.000000
-60.288500 0.000000
-60.224500 0.000000
-60.160600 0.000000
-60.096600 0.000000
-60.032600 0.000000
-59.968600 0.000000
-59.904700 0.000000
-59.840700 0.000000
-59.776700 0.000000
-59.712700 0.000000
-59.648800 0.000000
-59.584800 0.000000
-59.520800 0.000000
-59.456800 0.000000
-59.392900 0.000000
-59.328900 0.000000
-59.264900 0.000000
-59.200900 0.000000
-59.137000 0.000000
-59.073000 0.000000
-59.009000 0.000000
-58.945100 0.000000
-58.881100 0.000000
-58.817100 0.000000
-58.753100 0.000000
-58.689200 0.000000
-58.625200 0.000000
-58.561200 0.000000
-58.497200 0.000000
-58.433300 0.000000
-58.369300 0.000000
-58.305300 0.000000
-58.241300 0.000000
-58.177400 0.000000
-58.113400 0.000000
-58.049400 0.000000
-57.985400 0.000000
-57.921500 0.000000
-57.857500 0.000000
-57.793500 0.000000
-57.729500 0.000000
-57.665600 0.000000
-57.601600 0.000000
-57.537600 0.000000
-57.473600 0.000000
-57.409700 0.000000
-57.345700 0.000000
-57.281700 0.000000
-57.217800 0.000000
-57.153800 0.000000
-57.089800 0.000000
-57.025800 0.000000
-56.961900 0.000000
-56.897900 0.000000
-56.833900 0.000000
-56.769900 0.000000
-56.706000 0.000000
-56.642000 0.000000
-56.578000 0.000000
-56.514000 0.000000
-56.450100 0.000000
-56.386100 0.000000
-56.322100 0.000000
-56.258100 0.000000
-56.194200 0.000000
-56.130200 0.000000
-56.066200 0.000000
-56.002200 0.000000
-55.938300 0.000000
-55.874300 0.000000
-55.810300 0.000000
-55.746400 0.000000
-55.682400 0.000000
-55.618400 0.000000
-55.554400 0.000000
-55.490500 0.000000
-55.426500 0.000000
-55.362500 0.000000
-55.298500 0.000000
-55.234600 0.000000
-55.170600 0.000000
-55.106600 0.000000
-55.042600 0.000000
-54.978700 0.000000
-54.914700 0.000000
-54.850700 0.000000
-54.786700 0.000000
-54.722800 0.000000
-54.658800 0.000000
-54.594800 0.000000
-54.530800 0.000000
-54.466900 0.000000
-54.402900 0.000000
-54.338900 0.000000
-54.275000 0.000000
-54.211000 0.000000
-54.147000 0.000000
-54.083000 0.000000
-54.019100 0.000000
-53.955100 0.000000
-53.891100 0.000000
-53.827100 0.000000
-53.763200 0.000000
-53.699200 0.000000
-53.635200 0.000000
-53.571200 0.000000
-53.507300 0.000000
-53.443300 0.000000
-53.379300 0.000000
-53.315300 0.000000
-53.251400 0.000000
-53.187400 0.000000
-53.123400 0.000000
-53.059400 0.000000
-52.995500 0.000000
-52.931500 0.000000
-52.867500 0.000000
-52.803600 0.000000
-52.739600 0.000000
-52.675600 0.000000
-52.611600 0.000000
-52.547700 0.000000
-52.483700 0.000000
-52.419700 0.000000
-52.355700 0.000000
-52.291800 0.000000
-52.227800 0.000000
-52.163800 0.000000
-52.099800 0.000000
-52.035900 0.000000
-51.971900 0.000000
-51.907900 0.000000
-51.843900 0.000000
-51.780000 0.000000
-51.716000 0.000000
-51.652000 0.000000
-51.588000 0.000000
-51.524100 0.000000
-51.460100 0.000000
-51.396100 0.000000
-51.332200 0.000000
-51.268200 0.000000
-51.204200 0.000000
-51.140200 0.000000
-51.076300 0.000000
-51.012300 0.000000
-50.948300 0.000000
-50.884300 0.000000
-50.820400 0.000000
-50.756400 0.000000
-50.692400 0.000000
-50.628400 0.000000
-50.564500 0.000000
-50.500500 0.000000
-50.436500 0.000000
-50.372500 0.000000
-50.308600 0.000000
-50.244600 0.000000
-50.180600 0.000000
-50.116600 0.000000
-50.052700 0.000000
-49.988700 0.000000
-49.924700 0.000000
-49.860700 0.000000
-49.796800 0.000000
-49.732800 0.000000
-49.668800 0.000000
-49.604900 0.000000
-49.540900 0.000000
-49.476900 0.000000
-49.412900 0.000000
-49.349000 0.000000
-49.285000 0.000000
-49.221000 0.000000
-49.157000 0.000000
-49.093100 0.000000
-49.029100 0.000000
-48.965100 0.000000
-48.901100 0.000000
-48.837200 0.000000
-48.773200 0.000000
-48.709200 0.000000
-48.645200 0.000000
-48.581300 0.000000
-48.517300 0.000000
-48.453300 0.000000
-48.389300 0.000000
-48.325400 0.000000
-48.261400 0.000000
-48.197400 0.000000
-48.133500 0.000000
-48.069500 0.000000
-48.005500 0.000000
-47.941500 0.000000
-47.877600 0.000000
-47.813600 0.000000
-47.749600 0.000000
-47.685600 0.000000
-47.621700 0.000000
-47.557700 0.000000
-47.493700 0.000000
-47.429700 0.000000
-47.365800 0.000000
-47.301800 0.000000
-47.237800 0.000000
-47.173800 0.000000
-47.109900 0.000000
-47.045900 0.000000
-46.981900 0.000000
-46.917900 0.000000
-46.854000 0.000000
-46.790000 0.000000
-46.726000 0.000000
-46.662100 0.000000
-46.598100 0.000000
-46.534100 0.000000
-46.470100 0.000000
-46.406200 0.000000
-46.342200 0.000000
-46.278200 0.000000
-46.214200 0.000000
-46.150300 0.000000
-46.086300 0.000000
-46.022300 0.000000
-45.958300 0.000000
-45.894400 0.000000
-45.830400 0.000000
-45.766400 0.000000
-45.702400 0.000000
-45.638500 0.000000
-45.574500 0.000000
-45.510500 0.000000
-45.446500 0.000000
-45.382600 0.000000
-45.318600 0.000000
-45.254600 0.000000
-45.190700 0.000000
-45.126700 0.000000
-45.062700 0.000000
-44.998700 0.000000
-44.934800 0.000000
-44.870800 0.000000
-44.806800 0.000000
-44.742800 0.000000
-44.678900 0.000000
-44.614900 0.000000
-44.550900 0.000000
-44.486900 0.000000
-44.423000 0.000000
-44.359000 0.000000
-44.295000 0.000000
-44.231000 0.000000
-44.167100 0.000000
-44.103100 0.000000
-44.039100 0.000000
-43.975100 0.000000
-43.911200 0.000000
-43.847200 0.000000
-43.783200 0.000000
-43.719200 0.000000
-43.655300 0.000000
-43.591300 0.000000
-43.527300 0.000000
-43.463400 0.000000
-43.399400 0.000000
-43.335400 0.000000
-43.271400 0.000000
-43.207500 0.000000
-43.143500 0.000000
-43.079500 0.000000
-43.015500 0.000000
-42.951600 0.000000
-42.887600 0.000000
-42.823600 0.000000
-42.759600 0.000000
-42.695700 0.000000
-42.631700 0.000000
-42.567700 0.000000
-42.503700 0.000000
-42.439800 0.000000
-42.375800 0.000000
-42.311800 0.000000
-42.247800 0.000000
-42.183900 0.000000
-42.119900 0.000000
-42.055900 0.000000
-41.992000 0.000000
-41.928000 0.000000
-41.864000 0.000000
-41.800000 0.000000
-41.736100 0.000000
-41.672100 0.000000
-41.608100 0.000000
-41.544100 0.000000
-41.480200 0.000000
-41.416200 0.000000
-41.352200 0.000000
-41.288200 0.000000
-41.224300 0.000000
-41.160300 0.000000
-41.096300 0.000000
-41.032300 0.000000
-40.968400 0.000000
-40.904400 0.000000
-40.840400 0.000000
-40.776400 0.000000
-40.712500 0.000000
-40.648500 0.000000
-40.584500 0.000000
-40.520600 0.000000
-40.456600 0.000000
-40.392600 0.000000
-40.328600 0.000000
-40.264700 0.000000
-40.200700 0.000000
-40.136700 0.000000
-40.072700 0.000000
-40.008800 0.000000
-39.944800 0.000000
-39.880800 0.000000
-39.816800 0.000000
-39.752900 0.000000
-39.688900 0.000000
-39.624900 0.000000
-39.560900 0.000000
-39.497000 0.000000
-39.433000 0.000000
-39.369000 0.000000
-39.305000 0.000000
-39.241100 0.000000
-39.177100 0.000000
-39.113100 0.000000
-39.049200 0.000000
-38.985200 0.000000
-38.921200 0.000000
-38.857200 0.000000
-38.793300 0.000000
-38.729300 0.000000
-38.665300 0.000000
-38.601300 0.000000
-38.537400 0.000000
-38.473400 0.000000
-38.409400 0.000000
-38.345400 0.000000
-38.281500 0.000000
-38.217500 0.000000
-38.153500 0.000000
-38.089500 0.000000
-38.025600 0.000000
-37.961600 0.000000
-37.897600 0.000000
-37.833600 0.000000
-37.769700 0.000000
-37.705700 0.000000
-37.641700 0.000000
-37.577800 0.000000
-37.513800 0.000000
-37.449800 0.000000
-37.385800 0.000000
-37.321900 0.000000
-37.257900 0.000000
-37.193900 0.000000
-37.129900 0.000000
-37.066000 0.000000
-37.002000 0.000000
-36.938000 0.000000
-36.874000 0.000000
-36.810100 0.000000
-36.746100 0.000000
-36.682100 0.000000
-36.618100 0.000000
-36.554200 0.000000
-36.490200 0.000000
-36.426200 0.000000
-36.362200 0.000000
-36.298300 0.000000
-36.234300 0.000000
-36.170300 0.000000
-36.106300 0.000000
-36.042400 0.000000
-35.978400 0.000000
-35.914400 0.000000
-35.850500 0.000000
-35.786500 0.000000
-35.722500 0.000000
-35.658500 0.000000
-35.594600 0.000000
-35.530600 0.000000
-35.466600 0.000000
-35.402600 0.000000
-35.338700 0.000000
-35.274700 0.000000
-35.210700 0.000000
-35.146700 0.000000
-35.082800 0.000000
-35.018800 0.000000
-34.954800 0.000000
-34.890800 0.000000
-34.826900 0.000000
-34.762900 0.000000
-34.698900 0.000000
-34.634900 0.000000
-34.571000 0.000000
-34.507000 0.000000
-34.443000 0.000000
-34.379100 0.000000
-34.315100 0.000000
-34.251100 0.000000
-34.187100 0.000000
-34.123200 0.000000
-34.059200 0.000000
-33.995200 0.000000
-33.931200 0.000000
-33.867300 0.000000
-33.803300 0.000000
-33.739300 0.000000
-33.675300 0.000000
-33.611400 0.000000
-33.547400 0.000000
-33.483400 0.000000
-33.419400 0.000000
-33.355500 0.000000
-33.291500 0.000000
-33.227500 0.000000
-33.163500 0.000000
-33.099600 0.000000
-33.035600 0.000000
-32.971600 0.000000
-32.907700 0.000000
-32.843700 0.000000
-32.779700 0.000000
-32.715700 0.000000
-32.651800 0.000000
-32.587800 0.000000
-32.523800 0.000000
-32.459800 0.000000
-32.395900 0.000000
-32.331900 0.000000
-32.267900 0.000000
-32.203900 0.000000
-32.140000 0.000000
-32.076000 0.000000
-32.012000 0.000000
-31.948000 0.000000
-31.884100 0.000000
-31.820100 0.000000
-31.756100 0.000000
-31.692100 0.000000
-31.628200 0.000000
-31.564200 0.000000
-31.500200 0.000000
-31.436300 0.000000
-31.372300 0.000000
-31.308300 0.000000
-31.244300 0.000000
-31.180400 0.000000
-31.116400 0.000000
-31.052400 0.000000
-30.988400 0.000000
-30.924500 0.000000
-30.860500 0.000000
-30.796500 0.000000
-30.732500 0.000000
-30.668600 0.000000
-30.604600 0.000000
-30.540600 0.000000
-30.476600 0.000000
-30.412700 0.000000
-30.348700 0.000000
-30.284700 0.000000
-30.220700 0.000000
-30.156800 0.000000
-30.092800 0.000000
-30.028800 0.000000
-29.964900 0.000000
-29.900900 0.000000
-29.836900 0.000000
-29.772900 0.000000
-29.709000 0.000000
-29.645000 0.000000
-29.581000 0.000000
-29.517000 0.000000
-29.453100 0.000000
-29.389100 0.000000
-29.325100 0.000000
-29.261100 0.000000
-29.197200 0.000000
-29.133200 0.000000
-29.069200 0.000000
-29.005200 0.000000
-28.941300 0.000000
-28.877300 0.000000
-28.813300 0.000000
-28.749300 0.000000
-28.685400 0.000000
-28.621400 0.000000
-28.557400 0.000000
-28.493400 0.000000
-28.429500 0.000000
-28.365500 0.000000
-28.301500 0.000000
-28.237600 0.000000
-28.173600 0.000000
-28.109600 0.000000
-28.045600 0.000000
-27.981700 0.000000
-27.917700 0.000000
-27.853700 0.000000
-27.789700 0.000000
-27.725800 0.000000
-27.661800 0.000000
-27.597800 0.000000
-27.533800 0.000000
-27.469900 0.000000
-27.405900 0.000000
-27.341900 0.000000
-27.277900 0.000000
-27.214000 0.000000
-27.150000 0.000000
-27.086000 0.000000
-27.022000 0.000000
-26.958100 0.000000
-26.894100 0.000000
-26.830100 0.000000
-26.766200 0.000000
-26.702200 0.000000
-26.638200 0.000000
-26.574200 0.000000
-26.510300 0.000000
-26.446300 0.000000
-26.382300 0.000000
-26.318300 0.000000
-26.254400 0.000000
-26.190400 0.000000
-26.126400 0.000000
-26.062400 0.000000
-25.998500 0.000000
-25.934500 0.000000
-25.870500 0.000000
-25.806500 0.000000
-25.742600 0.000000
-25.678600 0.000000
-25.614600 0.000000
-25.550600 0.000000
-25.486700 0.000000
-25.422700 0.000000
-25.358700 0.000000
-25.294800 0.000000
-25.230800 0.000000
-25.166800 0.000000
-25.102800 0.000000
-25.038900 0.000000
-24.974900 0.000000
-24.910900 0.000000
-24.846900 0.000000
-24.783000 0.000000
-24.719000 0.000000
-24.655000 0.000000
-24.591000 0.000000
-24.527100 0.000000
-24.463100 0.000000
-24.399100 0.000000
-24.335100 0.000000
-24.271200 0.000000
-24.207200 0.000000
-24.143200 0.000000
-24.079200 0.000000
-24.015300 0.000000
-23.951300 0.000000
-23.887300 0.000000
-23.823400 0.000000
-23.759400 0.000000
-23.695400 0.000000
-23.631400 0.000000
-23.567500 0.000000
-23.503500 0.000000
-23.439500 0.000000
-23.375500 0.000000
-23.311600 0.000000
-23.247600 0.000000
-23.183600 0.000000
-23.119600 0.000000
-23.055700 0.000000
-22.991700 0.000000
-22.927700 0.000000
-22.863700 0.000000
-22.799800 0.000000
-22.735800 0.000000
-22.671800 0.000000
-22.607800 0.000000
-22.543900 0.000000
-22.479900 0.000000
-22.415900 0.000000
-22.352000 0.000000
-22.288000 0.000000
-22.224000 0.000000
-22.160000 0.000000
-22.096100 0.000000
-22.032100 0.000000
-21.968100 0.000000
-21.904100 0.000000
-21.840200 0.000000
-21.776200 0.000000
-21.712200 0.000000
-21.648200 0.000000
-21.584300 0.000000
-21.520300 0.000000
-21.456300 0.000000
-21.392300 0.000000
-21.328400 0.000000
-21.264400 0.000000
-21.200400 0.000000
-21.136400 0.000000
-21.072500 0.000000
-21.008500 0.000000
-20.944500 0.000000
-20.880500 0.000000
-20.816600 0.000000
-20.752600 0.000000
-20.688600 0.000000
-20.624700 0.000000
-20.560700 0.000000
-20.496700 0.000000
-20.432700 0.000000
-20.368800 0.000000
-20.304800 0.000000
-20.240800 0.000000
-20.176800 0.000000
-20.112900 0.000000
-20.048900 0.000000
-19.984900 0.000000
-19.920900 0.000000
-19.857000 0.000000
-19.793000 0.000000
-19.729000 0.000000
-19.665000 0.000000
-19.601100 0.000000
-19.537100 0.000000
-19.473100 0.000000
-19.409100 0.000000
-19.345200 0.000000
-19.281200 0.000000
-19.217200 0.000000
-19.153300 0.000000
-19.089300 0.000000
-19.025300 0.000000
-18.961300 0.000000
-18.897400 0.000000
-18.833400 0.000000
-18.769400 0.000000
-18.705400 0.000000
-18.641500 211.404000
-18.577500 0.000000
-18.513500 0.000000
-18.449500 0.000000
-18.385600 0.000000
-18.321600 0.000000
-18.257600 0.000000
-18.193600 0.000000
-18.129700 0.000000
-18.065700 0.000000
-18.001700 0.000000
-17.937700 0.000000
-17.873800 0.000000
-17.809800 0.000000
-17.745800 0.000000
-17.681900 0.000000
-17.617900 0.000000
-17.553900 0.000000
-17.489900 0.000000
-17.426000 0.000000
-17.362000 0.000000
-17.298000 0.000000
-17.234000 0.000000
-17.170100 0.000000
-17.106100 0.000000
-17.042100 0.000000
-16.978100 0.000000
-16.914200 0.000000
-16.850200 0.000000
-16.786200 0.000000
-16.722200 0.000000
-16.658300 0.000000
-16.594300 0.000000
-16.530300 0.000000
-16.466300 0.000000
-16.402400 0.000000
-16.338400 0.000000
-16.274400 0.000000
-16.210500 0.000000
-16.146500 0.000000
-16.082500 0.000000
-16.018500 0.000000
-15.954600 0.000000
-15.890600 0.000000
-15.826600 0.000000
-15.762600 0.000000
-15.698700 0.000000
-15.634700 0.000000
-15.570700 0.000000
-15.506700 0.000000
-15.442800 0.000000
-15.378800 0.000000
-15.314800 0.000000
-15.250800 0.000000
-15.186900 0.000000
-15.122900 0.000000
-15.058900 0.000000
-14.994900 0.000000
-14.931000 0.000000
-14.867000 0.000000
-14.803000 0.000000
-14.739100 0.000000
-14.675100 0.000000
-14.611100 0.000000
-14.547100 0.000000
-14.483200 0.000000
-14.419200 0.000000
-14.355200 0.000000
-14.291200 0.000000
-14.227300 0.000000
-14.163300 0.000000
-14.099300 0.000000
-14.035300 0.000000
-13.971400 0.000000
-13.907400 0.000000
-13.843400 0.000000
-13.779400 0.000000
-13.715500 0.000000
-13.651500 0.000000
-13.587500 0.000000
-13.523500 0.000000
-13.459600 0.000000
-13.395600 0.000000
-13.331600 0.000000
-13.267600 0.000000
-13.203700 0.000000
-13.139700 0.000000
-13.075700 0.000000
-13.011800 0.000000
-12.947800 0.000000
-12.883800 0.000000
-12.819800 0.000000
-12.755900 0.000000
-12.691900 0.000000
-12.627900 0.000000
-12.563900 0.000000
-12.500000 0.000000
-12.436000 0.000000
-12.372000 0.000000
-12.308000 0.000000
-12.244100 0.000000
-12.180100 0.000000
-12.116100 0.000000
-12.052100 0.000000
-11.988200 0.000000
-11.924200 0.000000
-11.860200 0.000000
-11.796200 0.000000
-11.732300 0.000000
-11.668300 0.000000
-11.604300 0.000000
-11.540400 0.000000
-11.476400 0.000000
-11.412400 0.000000
-11.348400 0.000000
-11.284500 0.000000
-11.220500 0.000000
-11.156500 0.000000
-11.092500 0.000000
-11.028600 0.000000
-10.964600 0.000000
-10.900600 0.000000
-10.836600 0.000000
-10.772700 0.000000
-10.708700 0.000000
-10.644700 0.000000
-10.580700 0.000000
-10.516800 0.000000
-10.452800 0.000000
-10.388800 0.000000
-10.324800 0.000000
-10.260900 0.000000
-10.196900 0.000000
-10.132900 0.000000
-10.069000 0.000000
-10.005000 0.000000
-9.941000 0.000000
-9.877000 0.000000
-9.813100 0.000000
-9.749100 0.000000
-9.685100 0.000000
-9.621100 0.000000
-9.557200 0.000000
-9.493200 0.000000
-9.429200 0.000000
-9.365200 0.000000
-9.301300 0.000000
-9.237300 0.000000
-9.173300 0.000000
-9.109300 0.000000
-9.045400 0.000000
-8.981400 0.000000
-8.917400 0.000000
-8.853400 0.000000
-8.789500 0.000000
-8.725500 0.000000
-8.661500 0.000000
-8.597600 0.000000
-8.533600 0.000000
-8.469600 0.000000
-8.405600 0.000000
-8.341700 0.000000
-8.277700 0.000000
-8.213700 0.000000
-8.149700 0.000000
-8.085800 0.000000
-8.021800 0.000000
-7.957800 0.000000
-7.893800 0.000000
-7.829900 0.000000
-7.765900 0.000000
-7.701900 0.000000
-7.637900 0.000000
-7.574000 0.000000
-7.510000 0.000000
-7.446000 0.000000
-7.382000 0.000000
-7.318100 0.000000
-7.254100 0.000000
-7.190100 0.000000
-7.126200 0.000000
-7.062200 0.000000
-6.998200 0.000000
-6.934200 0.000000
-6.870300 0.000000
-6.806300 0.000000
-6.742300 0.000000
-6.678300 0.000000
-6.614400 0.000000
-6.550400 0.000000
-6.486400 0.000000
-6.422400 0.000000
-6.358500 0.000000
-6.294500 0.000000
-6.230500 0.000000
-6.166500 0.000000
-6.102600 0.000000
-6.038600 0.000000
-5.974600 0.000000
-5.910600 0.000000
-5.846700 0.000000
-5.782700 0.000000
-5.718700 0.000000
-5.654700 0.000000
-5.590800 0.000000
-5.526800 0.000000
-5.462800 0.000000
-5.398900 0.000000
-5.334900 0.000000
-5.270900 0.000000
-5.206900 0.000000
-5.143000 0.000000
-5.079000 0.000000
-5.015000 0.000000
-4.951000 0.000000
-4.887100 0.000000
-4.823100 0.000000
-4.759100 0.000000
-4.695100 0.000000
-4.631200 0.000000
-4.567200 0.000000
-4.503200 0.000000
-4.439200 0.000000
-4.375300 0.000000
-4.311300 0.000000
-4.247300 0.000000
-4.183300 0.000000
-4.119400 0.000000
-4.055400 0.000000
-3.991400 0.000000
-3.927500 0.000000
-3.863500 0.000000
-3.799500 0.000000
-3.735500 0.000000
-3.671600 0.000000
-3.607600 0.000000
-3.543600 0.000000
-3.479600 0.000000
-3.415700 0.000000
-3.351700 0.000000
-3.287700 0.000000
-3.223700 0.000000
-3.159800 0.000000
-3.095800 0.000000
-3.031800 0.000000
-2.967800 0.000000
-2.903900 0.000000
-2.839900 0.000000
-2.775900 0.000000
-2.711900 0.023800
-2.648000 0.101900
-2.584000 0.129400
-2.520000 0.160800
-2.456100 0.192500
-2.392100 0.208800
-2.328100 0.230000
-2.264100 0.247100
-2.200200 0.268300
-2.136200 0.290300
-2.072200 0.306300
-2.008200 0.319400
-1.944300 0.334200
-1.880300 0.350800
-1.816300 0.368800
-1.752300 0.388200
-1.688400 0.404100
-1.624400 0.417200
-1.560400 0.431400
-1.496400 0.447400
-1.432500 0.464400
-1.368500 0.481800
-1.304500 0.499500
-1.240500 0.517600
-1.176600 0.536800
-1.112600 0.555900
-1.048600 0.576100
-0.984700 0.599200
-0.920700 0.624600
-0.856700 0.658900
-0.792700 0.692700
-0.728800 0.716400
-0.664800 0.729100
-0.600800 0.739500
-0.536800 0.755700
-0.472900 0.784500
-0.408900 0.813400
-0.344900 0.852700
-0.280900 0.926800
-0.217000 1.002500
-0.153000 1.042900
-0.089000 1.015800
-0.025000 1.086500
0.038900 0.979800
0.102900 0.922600
0.166900 0.889700
0.230900 0.881600
0.294800 0.868500
0.358800 0.837000
0.422800 0.826100
0.486800 0.838400
0.550700 1.057200
0.614700 1.126200
0.678700 1.194800
0.742600 1.321100
0.806600 2.449800
0.870600 2.942400
0.934600 4.034700
0.998500 3.245600
1.062500 4.586100
1.126500 5.761700
1.190500 6.191700
1.254400 7.825600
1.318400 10.818200
1.382400 13.875600
1.446400 17.929100
1.510300 15.088100
1.574300 16.998800
1.638300 13.934100
1.702300 12.988600
1.766200 11.855800
1.830200 10.677000
1.894200 12.112800
1.958200 11.550700
2.022100 10.416200
2.086100 16.888100
2.150100 16.350500
2.214000 18.328600
2.278000 15.854400
2.342000 14.952000
2.406000 12.242400
2.469900 20.419100
2.533900 16.322700
2.597900 15.708700
2.661900 25.128000
2.725800 18.219600
2.789800 15.520500
2.853800 12.186100
2.917800 10.562300
2.981700 13.706800
3.045700 11.945200
3.109700 6.205900
3.173700 3.344900
3.237600 2.462800
3.301600 2.830500
3.365600 2.627500
3.429600 2.065200
3.493500 1.583400
3.557500 1.384900
3.621500 1.286300
3.685400 1.215400
3.749400 1.243200
3.813400 1.274900
3.877400 1.184200
3.941300 1.131100
4.005300 1.089100
4.069300 1.072000
4.133300 1.099500
4.197200 1.051000
4.261200 1.024800
4.325200 1.006000
4.389200 0.979800
4.453100 0.972900
4.517100 0.993800
4.581100 0.957400
4.645100 1.091000
4.709000 1.164800
4.773000 1.156200
4.837000 1.156000
4.901000 1.142000
4.964900 1.162100
5.028900 1.210900
5.092900 1.330700
5.156800 1.322400
5.220800 1.278000
5.284800 1.285200
5.348800 1.281600
5.412700 1.222500
5.476700 1.209100
5.540700 1.202900
5.604700 1.199800
5.668600 1.210500
5.732600 1.233300
5.796600 1.221600
5.860600 1.206200
5.924500 1.199700
5.988500 1.196900
6.052500 1.194000
6.116500 1.216700
6.180400 1.230000
6.244400 1.209700
6.308400 1.167900
6.372400 1.110700
6.436300 1.024100
6.500300 0.939100
6.564300 0.910700
6.628200 0.895100
6.692200 0.868100
6.756200 0.764400
6.820200 0.733400
6.884100 0.725100
6.948100 0.717500
7.012100 0.754600
7.076100 0.777000
7.140000 0.804600
7.204000 0.843500
7.268000 0.872600
7.332000 0.894900
7.395900 0.923500
7.459900 1.049500
7.523900 1.132300
7.587900 1.166400
7.651800 1.207500
7.715800 1.237900
7.779800 1.278300
7.843800 1.396500
7.907700 1.543900
7.971700 1.614700
8.035700 1.599500
8.099700 1.512900
8.163600 1.333800
8.227600 1.217400
8.291600 1.143100
8.355500 1.091300
8.419500 1.062600
8.483500 1.036400
8.547500 1.015600
8.611400 1.007900
8.675400 0.998400
8.739400 0.960300
8.803400 1.016000
8.867300 1.050700
8.931300 1.134900
8.995300 1.158100
9.059300 1.142800
9.123200 1.156200
9.187200 1.215700
9.251200 1.267700
9.315200 1.279300
9.379100 1.248900
9.443100 1.249200
9.507100 1.324100
9.571100 1.179500
9.635000 1.171400
9.699000 1.160600
9.763000 1.101800
9.826900 1.086300
9.890900 1.155800
9.954900 1.103100
10.018900 1.109700
10.082800 1.119900
10.146800 1.134600
10.210800 1.160100
10.274800 1.253900
10.338700 1.307100
10.402700 1.239200
10.466700 1.253600
10.530700 1.264200
10.594600 1.251200
10.658600 1.232800
10.722600 1.223000
10.786600 1.204100
10.850500 1.206700
10.914500 1.210000
10.978500 1.206400
11.042500 1.202100
11.106400 1.198000
11.170400 1.198700
11.234400 1.207100
11.298300 1.209800
11.362300 1.211500
11.426300 1.216300
11.490300 1.219300
11.554200 1.222300
11.618200 1.219900
11.682200 1.183500
11.746200 1.191000
11.810100 1.183300
11.874100 1.170000
11.938100 1.208700
12.002100 1.242000
12.066000 1.265600
12.130000 1.273300
12.194000 1.267800
12.258000 1.256400
12.321900 1.280100
12.385900 1.252500
12.449900 1.244200
12.513900 1.088300
12.577800 1.038300
12.641800 1.075300
12.705800 1.076600
12.769700 1.098300
12.833700 1.135400
12.897700 1.155500
12.961700 1.212300
13.025600 1.269900
13.089600 1.335100
13.153600 1.389300
13.217600 1.441700
13.281500 1.542400
13.345500 1.633000
13.409500 1.727400
13.473500 1.843900
13.537400 1.780600
13.601400 1.719000
13.665400 1.639100
13.729400 1.483900
13.793300 1.392300
13.857300 1.453600
13.921300 1.498100
13.985300 1.546100
14.049200 1.641900
14.113200 1.749400
14.177200 1.707400
14.241100 1.733800
14.305100 1.759000
14.369100 1.847400
14.433100 1.916300
14.497000 1.941600
14.561000 1.873000
14.625000 1.798900
14.689000 1.717600
14.752900 1.635000
14.816900 1.564400
14.880900 1.543600
14.944900 1.547800
15.008800 1.550600
15.072800 1.521000
15.136800 1.533700
15.200800 1.603100
15.264700 1.993800
15.328700 2.116800
15.392700 1.960500
15.456700 1.891100
15.520600 1.815500
15.584600 1.733400
15.648600 1.672600
15.712600 1.632700
15.776500 1.632100
15.840500 1.621600
15.904500 1.574500
15.968400 1.580700
16.032400 1.694700
16.096400 1.877500
16.160400 2.015100
16.224300 2.113400
16.288300 2.069900
16.352300 1.953300
16.416300 1.810200
16.480200 1.717900
16.544200 1.626300
16.608200 1.648400
16.672200 1.642800
16.736100 1.607400
16.800100 1.688900
16.864100 1.754100
16.928100 1.961600
16.992000 2.113400
17.056000 2.131500
17.120000 1.641500
17.184000 1.467600
17.247900 1.412500
17.311900 1.449900
17.375900 1.465900
17.439800 1.404100
17.503800 1.403800
17.567800 1.442000
17.631800 1.466600
17.695700 1.519900
17.759700 1.613500
17.823700 1.649100
17.887700 1.673400
17.951600 1.685700
18.015600 1.722800
18.079600 1.735900
18.143600 1.759200
18.207500 1.783400
18.271500 1.897100
18.335500 1.909000
18.399500 1.811300
18.463400 1.788200
18.527400 1.837400
18.591400 2.020700
18.655400 2.093700
18.719300 2.182800
18.783300 2.083700
18.847300 1.909700
18.911200 1.854300
18.975200 1.739300
19.039200 1.708600
19.103200 1.706700
19.167100 1.746300
19.231100 1.657300
19.295100 1.678300
19.359100 1.711500
19.423000 1.732900
19.487000 1.766500
19.551000 1.795100
19.615000 1.822900
19.678900 1.829300
19.742900 1.859500
19.806900 1.851800
19.870900 1.815400
19.934800 1.792100
19.998800 1.803900
20.062800 1.802200
20.126800 1.821300
20.190700 1.831600
20.254700 1.901100
20.318700 1.952300
20.382600 1.857400
20.446600 1.814100
20.510600 1.793700
20.574600 1.801300
20.638500 1.873400
20.702500 1.916900
20.766500 1.875500
20.830500 1.889000
20.894400 1.951200
20.958400 1.899500
21.022400 1.858600
21.086400 1.831700
21.150300 1.873000
21.214300 1.741600
21.278300 1.674700
21.342300 1.684100
21.406200 1.728000
21.470200 1.732600
21.534200 1.750600
21.598200 1.777200
21.662100 1.818900
21.726100 1.897600
21.790100 1.979700
21.854000 2.023200
21.918000 2.058900
21.982000 2.045000
22.046000 2.013900
22.109900 1.929600
22.173900 1.810300
22.237900 1.748400
22.301900 1.663100
22.365800 1.627300
22.429800 1.562900
22.493800 1.540600
22.557800 1.583300
22.621700 1.624300
22.685700 1.662500
22.749700 1.704000
22.813700 1.855400
22.877600 1.901500
22.941600 2.131300
23.005600 2.234300
23.069600 2.075300
23.133500 2.046800
23.197500 2.010700
23.261500 1.956000
23.325500 1.930600
23.389400 1.919100
23.453400 2.012800
23.517400 2.000600
23.581300 2.001800
23.645300 2.047800
23.709300 2.088400
23.773300 2.120000
23.837200 2.147300
23.901200 2.135900
23.965200 2.202900
24.029200 2.310300
24.093100 2.289500
24.157100 2.268100
24.221100 2.232800
24.285100 2.225100
24.349000 2.353400
24.413000 2.386800
24.477000 2.432100
24.541000 2.489200
24.604900 2.269300
24.668900 2.136100
24.732900 2.179600
24.796900 2.442100
24.860800 2.625900
24.924800 2.680100
24.988800 2.655800
25.052700 2.609200
25.116700 2.482400
25.180700 2.302200
25.244700 2.086700
25.308600 2.140800
25.372600 2.101700
25.436600 2.068500
25.500600 2.075600
25.564500 2.119000
25.628500 2.094400
25.692500 2.024300
25.756500 1.996300
25.820400 1.981600
25.884400 1.963700
25.948400 1.974200
26.012400 2.090800
26.076300 2.249100
26.140300 2.390700
26.204300 2.386500
26.268300 2.301300
26.332200 2.081300
26.396200 1.912400
26.460200 1.883700
26.524100 1.840400
26.588100 1.703200
26.652100 1.630500
26.716100 1.645100
26.780000 1.683500
26.844000 1.933500
26.908000 2.083900
26.972000 2.097300
27.035900 2.149100
27.099900 2.214000
27.163900 2.166300
27.227900 2.013200
27.291800 1.923400
27.355800 1.880000
27.419800 1.945800
27.483800 1.954100
27.547700 1.975800
27.611700 1.971900
27.675700 1.949500
27.739700 1.948800
27.803600 1.904200
27.867600 1.826200
27.931600 1.899800
27.995500 2.022800
28.059500 1.987600
28.123500 1.997100
28.187500 2.027200
28.251400 2.095400
28.315400 2.189300
28.379400 2.275500
28.443400 2.390300
28.507300 2.300900
28.571300 2.258300
28.635300 2.252300
28.699300 2.392700
28.763200 2.403200
28.827200 2.476600
28.891200 2.428100
28.955200 2.347900
29.019100 2.365100
29.083100 2.116200
29.147100 2.013600
29.211100 2.001700
29.275000 2.007200
29.339000 2.027600
29.403000 2.083400
29.466900 2.111300
29.530900 2.177100
29.594900 2.439700
29.658900 2.620500
29.722800 2.626400
29.786800 2.589800
29.850800 2.557400
29.914800 2.640000
29.978700 2.745600
30.042700 2.764900
30.106700 2.616300
30.170700 2.621500
30.234600 2.671100
30.298600 2.541300
30.362600 2.344400
30.426600 2.191700
30.490500 2.081600
30.554500 1.981500
30.618500 1.876600
30.682500 1.802200
30.746400 1.737500
30.810400 1.721200
30.874400 1.790600
30.938400 1.923500
31.002300 2.028800
31.066300 2.087400
31.130300 2.126400
31.194200 2.210400
31.258200 2.060400
31.322200 2.091500
31.386200 2.133000
31.450100 2.326300
31.514100 2.008800
31.578100 2.092400
31.642100 2.206400
31.706000 2.107900
31.770000 2.087500
31.834000 2.138700
31.898000 2.249400
31.961900 2.408900
32.025900 2.370100
32.089900 2.298700
32.153900 2.220900
32.217800 2.284200
32.281800 2.229700
32.345800 2.317700
32.409800 2.402800
32.473700 2.479300
32.537700 2.582000
32.601700 2.859000
32.665600 3.058000
32.729600 2.999200
32.793600 2.726600
32.857600 2.449500
32.921500 2.357400
32.985500 2.198100
33.049500 2.251700
33.113500 2.291000
33.177400 2.359700
33.241400 2.396100
33.305400 2.299400
33.369400 2.249700
33.433300 2.203400
33.497300 2.084900
33.561300 2.013500
33.625300 2.023800
33.689200 2.094100
33.753200 2.231400
33.817200 2.164300
33.881200 2.171600
33.945100 2.236800
34.009100 2.340500
34.073100 2.559900
34.137000 2.463700
34.201000 2.382400
34.265000 2.354000
34.329000 2.356100
34.392900 2.423700
34.456900 2.477800
34.520900 2.634800
34.584900 2.412400
34.648800 2.413000
34.712800 2.472900
34.776800 2.549700
34.840800 2.582200
34.904700 2.648400
34.968700 2.670500
35.032700 2.561200
35.096700 2.478400
35.160600 2.388300
35.224600 2.276000
35.288600 2.195800
35.352600 2.099500
35.416500 2.016500
35.480500 1.992900
35.544500 2.081900
35.608400 2.207000
35.672400 2.389100
35.736400 2.497300
35.800400 2.463400
35.864300 2.474500
35.928300 2.528600
35.992300 2.782100
36.056300 2.894800
36.120200 2.838500
36.184200 2.862500
36.248200 2.643900
36.312200 2.557300
36.376100 2.430600
36.440100 2.329000
36.504100 2.398300
36.568100 2.593300
36.632000 2.716700
36.696000 2.759600
36.760000 2.627200
36.824000 2.736300
36.887900 2.875000
36.951900 3.005300
37.015900 2.935100
37.079900 2.863600
37.143800 2.810600
37.207800 2.731700
37.271800 2.792900
37.335700 2.873200
37.399700 2.988200
37.463700 3.041300
37.527700 2.862400
37.591600 2.757900
37.655600 2.845900
37.719600 2.896700
37.783600 2.993200
37.847500 3.201200
37.911500 3.439000
37.975500 3.633700
38.039500 4.361500
38.103400 5.860600
38.167400 7.341800
38.231400 11.114500
38.295400 22.920800
38.359300 17.607200
38.423300 11.139900
38.487300 6.680500
38.551300 5.082400
38.615200 4.495600
38.679200 4.410400
38.743200 4.015000
38.807100 3.786600
38.871100 3.596100
38.935100 3.338600
38.999100 3.038400
39.063000 2.974300
39.127000 2.978900
39.191000 3.014000
39.255000 3.009400
39.318900 2.994700
39.382900 3.088600
39.446900 3.275000
39.510900 3.334600
39.574800 3.358600
39.638800 3.378200
39.702800 3.496500
39.766800 3.786100
39.830700 4.012600
39.894700 4.338500
39.958700 4.943200
40.022700 6.437000
40.086600 7.916900
40.150600 5.406800
40.214600 4.423700
40.278500 3.862000
40.342500 3.451000
40.406500 3.222900
40.470500 3.107400
40.534400 2.957300
40.598400 2.912200
40.662400 2.709800
40.726400 2.665200
40.790300 2.647400
40.854300 2.684400
40.918300 2.684600
40.982300 2.538800
41.046200 2.493100
41.110200 2.478400
41.174200 2.428100
41.238200 2.359100
41.302100 2.365700
41.366100 2.391600
41.430100 2.414000
41.494100 2.442400
41.558000 2.438800
41.622000 2.516000
41.686000 2.680000
41.749900 2.839300
41.813900 2.794300
41.877900 2.700200
41.941900 2.613300
42.005800 2.560700
42.069800 2.578300
42.133800 2.617600
42.197800 2.758900
42.261700 2.867500
42.325700 2.933800
42.389700 2.804300
42.453700 2.690600
42.517600 2.658000
42.581600 2.641300
42.645600 2.635200
42.709600 2.606000
42.773500 2.599700
42.837500 2.735700
42.901500 2.698400
42.965500 2.633300
43.029400 2.661800
43.093400 2.668600
43.157400 2.695600
43.221300 2.683800
43.285300 2.711000
43.349300 2.717100
43.413300 2.717400
43.477200 2.806400
43.541200 2.885600
43.605200 2.943900
43.669200 2.936200
43.733100 2.960700
43.797100 2.886000
43.861100 2.865500
43.925100 2.829000
43.989000 2.638100
44.053000 2.430300
44.117000 2.328400
44.181000 2.359700
44.244900 2.520800
44.308900 2.740000
44.372900 2.874500
44.436900 2.998900
44.500800 2.972700
44.564800 3.015400
44.628800 2.934300
44.692800 2.928600
44.756700 2.885000
44.820700 2.922600
44.884700 2.842100
44.948600 2.829800
45.012600 2.943400
45.076600 3.024700
45.140600 2.953800
45.204500 2.913200
45.268500 2.816500
45.332500 2.760600
45.396500 2.788000
45.460400 2.957200
45.524400 3.077400
45.588400 3.068700
45.652400 3.077700
45.716300 2.985000
45.780300 2.985100
45.844300 3.022400
45.908300 3.069200
45.972200 3.102500
46.036200 3.143000
46.100200 3.250100
46.164200 3.270500
46.228100 3.215500
46.292100 3.077300
46.356100 2.937200
46.420000 2.833400
46.484000 2.678900
46.548000 2.620200
46.612000 2.557300
46.675900 2.537900
46.739900 2.617700
46.803900 2.637500
46.867900 2.595100
46.931800 2.499400
46.995800 2.407300
47.059800 2.404400
47.123800 2.476000
47.187700 2.482900
47.251700 2.547600
47.315700 2.641600
47.379700 2.780300
47.443600 2.995200
47.507600 3.054200
47.571600 2.937800
47.635600 2.827500
47.699500 2.791200
47.763500 2.872400
47.827500 2.860400
47.891400 2.725400
47.955400 2.637800
48.019400 2.521300
48.083400 2.513800
48.147300 2.709200
48.211300 2.576300
48.275300 2.875700
48.339300 3.159400
48.403200 3.175700
48.467200 2.896800
48.531200 2.760900
48.595200 2.548000
48.659100 2.519100
48.723100 2.595300
48.787100 2.822700
48.851100 2.892700
48.915000 2.904400
48.979000 2.931300
49.043000 3.029700
49.107000 2.917400
49.170900 2.900800
49.234900 2.892200
49.298900 2.841500
49.362800 3.003900
49.426800 2.808400
49.490800 2.676100
49.554800 2.534800
49.618700 2.250300
49.682700 2.126000
49.746700 1.900900
49.810700 1.717500
49.874600 1.575900
49.938600 1.434300
50.002600 1.353000
50.066600 1.301900
50.130500 1.252600
50.194500 1.236000
50.258500 1.159800
50.322500 1.027500
50.386400 0.904900
50.450400 0.758800
50.514400 0.601300
50.578400 0.480700
50.642300 0.393600
50.706300 0.330800
50.770300 0.285800
50.834200 0.280300
50.898200 0.295300
50.962200 0.188500
51.026200 0.137600
51.090100 0.106200
51.154100 0.078200
51.218100 0.047200
51.282100 0.021900
51.346000 0.006000
51.410000 0.000000
51.474000 0.000000
51.538000 0.000000
51.601900 0.000000
51.665900 0.000000
51.729900 0.000000
51.793900 0.000000
51.857800 0.000000
51.921800 0.000000
51.985800 0.000000
52.049800 0.000000
52.113700 0.000000
52.177700 0.000000
52.241700 0.000000
52.305700 0.000000
52.369600 0.000000
52.433600 0.000000
52.497600 0.000000
52.561500 0.000000
52.625500 0.000000
52.689500 0.000000
52.753500 0.000000
52.817400 0.000000
52.881400 0.000000
52.945400 0.000000
53.009400 0.000000
53.073300 0.000000
53.137300 0.000000
53.201300 0.000000
53.265300 0.000000
53.329200 0.000000
53.393200 0.000000
53.457200 0.000000
53.521200 0.000000
53.585100 0.000000
53.649100 0.000000
53.713100 0.000000
53.777100 0.000000
53.841000 0.000000
53.905000 0.000000
53.969000 0.000000
54.032900 0.000000
54.096900 0.000000
54.160900 0.000000
54.224900 0.000000
54.288800 0.000000
54.352800 0.000000
54.416800 0.000000
54.480800 0.000000
54.544700 0.000000
54.608700 0.000000
54.672700 0.000000
54.736700 0.000000
54.800600 0.000000
54.864600 0.000000
54.928600 0.000000
54.992600 0.000000
55.056500 0.000000
55.120500 0.000000
55.184500 0.000000
55.248500 0.000000
55.312400 0.000000
55.376400 0.000000
55.440400 0.000000
55.504300 0.000000
55.568300 0.000000
55.632300 0.000000
55.696300 0.000000
55.760200 0.000000
55.824200 0.000000
55.888200 0.000000
55.952200 0.000000
56.016100 0.000000
56.080100 0.000000
56.144100 0.000000
56.208100 0.000000
56.272000 0.000000
56.336000 0.000000
56.400000 0.000000
56.464000 0.000000
56.527900 0.000000
56.591900 0.000000
56.655900 0.000000
56.719900 0.000000
56.783800 0.000000
56.847800 0.000000
56.911800 0.000000
56.975700 0.000000
57.039700 0.000000
57.103700 0.000000
57.167700 0.000000
57.231600 0.000000
e
