set title 'mp-1078816 - Density of States'
set xlabel 'Energy (eV)'
set ylabel 'DOS (states/eV)'
set grid
set xrange [-10:10]
set yrange [0:15.178]
set xzeroaxis lt -1
set terminal png size 800,600
set output 'mp-1078816_dos_gnuplot.png'
plot '-' using 1:2 with lines title 'DOS'
-18.091300 0.000000
-18.072700 0.000000
-18.054200 0.000000
-18.035600 0.000000
-18.017000 0.000000
-17.998400 0.000000
-17.979800 0.000000
-17.961300 0.000000
-17.942700 0.000000
-17.924100 0.000000
-17.905500 0.000000
-17.886900 0.000000
-17.868400 0.000000
-17.849800 0.000000
-17.831200 0.000000
-17.812600 0.000000
-17.794000 0.000000
-17.775500 0.000000
-17.756900 0.000000
-17.738300 0.000000
-17.719700 0.000000
-17.701100 0.000000
-17.682600 0.000000
-17.664000 0.000000
-17.645400 0.000000
-17.626800 0.000000
-17.608200 0.000000
-17.589700 0.000000
-17.571100 0.000000
-17.552500 0.000000
-17.533900 0.000000
-17.515300 0.000000
-17.496800 0.000000
-17.478200 0.000000
-17.459600 0.000000
-17.441000 0.000000
-17.422400 0.000000
-17.403900 0.000000
-17.385300 0.000000
-17.366700 0.000000
-17.348100 0.000000
-17.329500 0.000000
-17.311000 0.000000
-17.292400 0.000000
-17.273800 0.000000
-17.255200 0.000000
-17.236600 0.000000
-17.218100 0.000000
-17.199500 0.000000
-17.180900 0.000000
-17.162300 0.000000
-17.143700 0.000000
-17.125200 0.000000
-17.106600 0.000000
-17.088000 0.000000
-17.069400 0.000000
-17.050800 0.000000
-17.032300 0.000000
-17.013700 0.000000
-16.995100 0.000000
-16.976500 0.000000
-16.957900 0.000000
-16.939400 0.000000
-16.920800 0.000000
-16.902200 0.000000
-16.883600 0.000000
-16.865000 0.000000
-16.846500 0.000000
-16.827900 0.000000
-16.809300 0.000000
-16.790700 0.000000
-16.772100 0.000000
-16.753600 0.000000
-16.735000 0.000000
-16.716400 0.000000
-16.697800 0.000000
-16.679200 0.000000
-16.660700 0.000000
-16.642100 0.000000
-16.623500 0.000000
-16.604900 0.000000
-16.586300 0.000000
-16.567800 0.000000
-16.549200 0.000000
-16.530600 0.000000
-16.512000 0.000000
-16.493400 0.000000
-16.474900 0.000000
-16.456300 0.000000
-16.437700 0.000000
-16.419100 0.000000
-16.400500 0.004100
-16.382000 0.580100
-16.363400 1.183700
-16.344800 1.381900
-16.326200 1.783100
-16.307600 2.366900
-16.289100 2.641000
-16.270500 2.626700
-16.251900 2.752400
-16.233300 2.813600
-16.214700 3.030900
-16.196200 3.752200
-16.177600 3.992200
-16.159000 4.597300
-16.140400 5.390900
-16.121800 5.342500
-16.103300 5.530600
-16.084700 6.111700
-16.066100 6.565400
-16.047500 6.654500
-16.028900 6.548800
-16.010400 6.570200
-15.991800 6.381600
-15.973200 6.122400
-15.954600 5.899100
-15.936000 5.530200
-15.917500 5.302000
-15.898900 5.164700
-15.880300 5.209800
-15.861700 5.405800
-15.843100 5.756000
-15.824600 6.335900
-15.806000 6.839400
-15.787400 7.410200
-15.768800 8.101300
-15.750200 9.495600
-15.731700 9.985900
-15.713100 11.342600
-15.694500 12.633700
-15.675900 14.038700
-15.657300 14.103600
-15.638800 15.352600
-15.620200 15.723800
-15.601600 14.886500
-15.583000 12.727900
-15.564400 9.605300
-15.545900 11.721600
-15.527300 18.175900
-15.508700 18.124200
-15.490100 19.667600
-15.471500 14.732600
-15.453000 15.629300
-15.434400 11.332400
-15.415800 9.203000
-15.397200 6.864100
-15.378600 3.866400
-15.360100 0.261200
-15.341500 0.000000
-15.322900 0.000000
-15.304300 0.000000
-15.285700 0.000000
-15.267200 0.000000
-15.248600 0.000000
-15.230000 0.000000
-15.211400 0.000000
-15.192800 0.000000
-15.174300 0.000000
-15.155700 0.000000
-15.137100 0.000000
-15.118500 0.000000
-15.099900 0.000000
-15.081400 0.000000
-15.062800 0.000000
-15.044200 0.000000
-15.025600 0.000000
-15.007000 0.000000
-14.988500 0.000000
-14.969900 0.000000
-14.951300 0.000000
-14.932700 0.000000
-14.914100 0.000000
-14.895600 0.000000
-14.877000 0.000000
-14.858400 0.000000
-14.839800 0.000000
-14.821200 0.000000
-14.802700 0.000000
-14.784100 0.000000
-14.765500 0.000000
-14.746900 0.000000
-14.728300 0.000000
-14.709800 0.000000
-14.691200 0.000000
-14.672600 0.000000
-14.654000 0.000000
-14.635400 0.000000
-14.616900 0.000000
-14.598300 0.000000
-14.579700 0.000000
-14.561100 0.000000
-14.542500 0.000000
-14.524000 0.000000
-14.505400 0.000000
-14.486800 0.000000
-14.468200 0.000000
-14.449600 0.000000
-14.431100 0.000000
-14.412500 0.000000
-14.393900 0.000000
-14.375300 0.000000
-14.356700 0.000000
-14.338200 0.000000
-14.319600 0.000000
-14.301000 0.000000
-14.282400 0.000000
-14.263800 0.000000
-14.245300 0.000000
-14.226700 0.000000
-14.208100 0.000000
-14.189500 0.000000
-14.170900 0.000000
-14.152400 0.000000
-14.133800 0.000000
-14.115200 0.000000
-14.096600 0.000000
-14.078000 0.000000
-14.059500 0.000000
-14.040900 0.000000
-14.022300 0.000000
-14.003700 0.000000
-13.985100 0.000000
-13.966600 0.000000
-13.948000 0.000000
-13.929400 0.000000
-13.910800 0.000000
-13.892200 0.000000
-13.873700 0.000000
-13.855100 0.000000
-13.836500 0.000000
-13.817900 0.000000
-13.799300 0.000000
-13.780800 0.000000
-13.762200 0.000000
-13.743600 0.000000
-13.725000 0.000000
-13.706400 0.000000
-13.687900 0.000000
-13.669300 0.000000
-13.650700 0.000000
-13.632100 0.000000
-13.613500 0.000000
-13.595000 0.000000
-13.576400 0.000000
-13.557800 0.000000
-13.539200 0.000000
-13.520600 0.000000
-13.502100 0.000000
-13.483500 0.000000
-13.464900 0.000000
-13.446300 0.000000
-13.427700 0.000000
-13.409200 0.000000
-13.390600 0.000000
-13.372000 0.000000
-13.353400 0.000000
-13.334800 0.000000
-13.316300 0.000000
-13.297700 0.000000
-13.279100 0.000000
-13.260500 0.000000
-13.241900 0.000000
-13.223400 0.000000
-13.204800 0.000000
-13.186200 0.000000
-13.167600 0.000000
-13.149000 0.000000
-13.130500 0.000000
-13.111900 0.000000
-13.093300 0.000000
-13.074700 0.000000
-13.056100 0.000000
-13.037600 0.000000
-13.019000 0.000000
-13.000400 0.000000
-12.981800 0.000000
-12.963200 0.000000
-12.944700 0.000000
-12.926100 0.000000
-12.907500 0.000000
-12.888900 0.000000
-12.870300 0.000000
-12.851800 0.000000
-12.833200 0.000000
-12.814600 0.000000
-12.796000 0.000000
-12.777400 0.000000
-12.758900 0.000000
-12.740300 0.000000
-12.721700 0.000000
-12.703100 0.000000
-12.684500 0.000000
-12.666000 0.000000
-12.647400 0.000000
-12.628800 0.000000
-12.610200 0.000000
-12.591600 0.000000
-12.573100 0.000000
-12.554500 0.000000
-12.535900 0.000000
-12.517300 0.000000
-12.498700 0.000000
-12.480200 0.000000
-12.461600 0.000000
-12.443000 0.000000
-12.424400 0.000000
-12.405800 0.000000
-12.387300 0.000000
-12.368700 0.000000
-12.350100 0.000000
-12.331500 0.000000
-12.312900 0.000000
-12.294400 0.000000
-12.275800 0.000000
-12.257200 0.000000
-12.238600 0.000000
-12.220000 0.000000
-12.201500 0.000000
-12.182900 0.000000
-12.164300 0.000000
-12.145700 0.000000
-12.127100 0.000000
-12.108600 0.000000
-12.090000 0.000000
-12.071400 0.000000
-12.052800 0.000000
-12.034200 0.000000
-12.015700 0.000000
-11.997100 0.000000
-11.978500 0.000000
-11.959900 0.000000
-11.941300 0.000000
-11.922800 0.000000
-11.904200 0.000000
-11.885600 0.000000
-11.867000 0.000000
-11.848400 0.000000
-11.829900 0.000000
-11.811300 0.000000
-11.792700 0.000000
-11.774100 0.000000
-11.755500 0.000000
-11.737000 0.000000
-11.718400 0.000000
-11.699800 0.000000
-11.681200 0.000000
-11.662600 0.000000
-11.644100 0.000000
-11.625500 0.000000
-11.606900 0.000000
-11.588300 0.000000
-11.569700 0.000000
-11.551200 0.000000
-11.532600 0.000000
-11.514000 0.000000
-11.495400 0.000000
-11.476800 0.000000
-11.458300 0.000000
-11.439700 0.000000
-11.421100 0.000000
-11.402500 0.000000
-11.383900 0.000000
-11.365400 0.000000
-11.346800 0.000000
-11.328200 0.000000
-11.309600 0.000000
-11.291000 0.000000
-11.272500 0.000000
-11.253900 0.000000
-11.235300 0.000000
-11.216700 0.000000
-11.198100 0.000000
-11.179600 0.000000
-11.161000 0.000000
-11.142400 0.000000
-11.123800 0.000000
-11.105200 0.000000
-11.086700 0.000000
-11.068100 0.000000
-11.049500 0.000000
-11.030900 0.000000
-11.012300 0.000000
-10.993800 0.000000
-10.975200 0.000000
-10.956600 0.000000
-10.938000 0.000000
-10.919400 0.000000
-10.900900 0.000000
-10.882300 0.000000
-10.863700 0.000000
-10.845100 0.000000
-10.826500 0.000000
-10.808000 0.000000
-10.789400 0.000000
-10.770800 0.000000
-10.752200 0.000000
-10.733600 0.000000
-10.715100 0.000000
-10.696500 0.000000
-10.677900 0.000000
-10.659300 0.000000
-10.640700 0.000000
-10.622200 0.000000
-10.603600 0.000000
-10.585000 0.000000
-10.566400 0.000000
-10.547800 0.000000
-10.529300 0.000000
-10.510700 0.000000
-10.492100 0.000000
-10.473500 0.000000
-10.454900 0.000000
-10.436400 0.000000
-10.417800 0.000000
-10.399200 0.000000
-10.380600 0.000000
-10.362000 0.000000
-10.343500 0.000000
-10.324900 0.000000
-10.306300 0.000000
-10.287700 0.000000
-10.269100 0.000000
-10.250600 0.000000
-10.232000 0.000000
-10.213400 0.000000
-10.194800 0.000000
-10.176200 0.000000
-10.157700 0.000000
-10.139100 0.000000
-10.120500 0.000000
-10.101900 0.000000
-10.083300 0.000000
-10.064800 0.000000
-10.046200 0.000000
-10.027600 0.000000
-10.009000 0.000000
-9.990400 0.000000
-9.971900 0.000000
-9.953300 0.000000
-9.934700 0.000000
-9.916100 0.000000
-9.897500 0.000000
-9.879000 0.000000
-9.860400 0.000000
-9.841800 0.000000
-9.823200 0.000000
-9.804600 0.000000
-9.786100 0.000000
-9.767500 0.000000
-9.748900 0.000000
-9.730300 0.000000
-9.711700 0.000000
-9.693200 0.000000
-9.674600 0.000000
-9.656000 0.000000
-9.637400 0.000000
-9.618800 0.000000
-9.600300 0.000000
-9.581700 0.000000
-9.563100 0.000000
-9.544500 0.000000
-9.525900 0.000000
-9.507400 0.000000
-9.488800 0.000000
-9.470200 0.000000
-9.451600 0.000000
-9.433000 0.000000
-9.414500 0.000000
-9.395900 0.000000
-9.377300 0.000000
-9.358700 0.000000
-9.340100 0.000000
-9.321600 0.000000
-9.303000 0.000000
-9.284400 0.000000
-9.265800 0.000000
-9.247200 0.000000
-9.228700 0.000000
-9.210100 0.000000
-9.191500 0.000000
-9.172900 0.000000
-9.154300 0.000000
-9.135800 0.000000
-9.117200 0.000000
-9.098600 0.000000
-9.080000 0.000000
-9.061400 0.000000
-9.042900 0.000000
-9.024300 0.000000
-9.005700 0.000000
-8.987100 0.000000
-8.968500 0.000000
-8.950000 0.000000
-8.931400 0.000000
-8.912800 0.000000
-8.894200 0.000000
-8.875600 0.000000
-8.857100 0.000000
-8.838500 0.000000
-8.819900 0.000000
-8.801300 0.000000
-8.782700 0.000000
-8.764200 0.000000
-8.745600 0.000000
-8.727000 0.000000
-8.708400 0.000000
-8.689800 0.000000
-8.671300 0.000000
-8.652700 0.000000
-8.634100 0.000000
-8.615500 0.000000
-8.596900 0.000000
-8.578400 0.000000
-8.559800 0.000000
-8.541200 0.000000
-8.522600 0.000000
-8.504000 0.000000
-8.485500 0.000000
-8.466900 0.010200
-8.448300 0.824300
-8.429700 1.571700
-8.411100 1.555200
-8.392600 1.623100
-8.374000 1.816500
-8.355400 2.286700
-8.336800 2.505500
-8.318200 2.256500
-8.299700 2.106800
-8.281100 2.105200
-8.262500 2.174000
-8.243900 2.774400
-8.225300 3.091200
-8.206800 3.010600
-8.188200 3.086100
-8.169600 3.343700
-8.151000 3.388600
-8.132400 3.436900
-8.113900 3.667700
-8.095300 4.004800
-8.076700 3.926800
-8.058100 3.793200
-8.039500 3.824600
-8.021000 4.135400
-8.002400 4.003900
-7.983800 3.799900
-7.965200 3.677100
-7.946600 3.560700
-7.928100 3.482400
-7.909500 3.364700
-7.890900 3.270000
-7.872300 3.188100
-7.853700 3.097300
-7.835200 2.990400
-7.816600 2.880800
-7.798000 2.801200
-7.779400 2.731900
-7.760800 2.680800
-7.742300 2.647400
-7.723700 2.625600
-7.705100 2.608000
-7.686500 2.615100
-7.667900 2.656400
-7.649400 2.713600
-7.630800 2.784400
-7.612200 2.878600
-7.593600 3.434500
-7.575000 3.625800
-7.556500 3.643100
-7.537900 3.727200
-7.519300 3.965900
-7.500700 3.761600
-7.482100 3.804400
-7.463600 3.845500
-7.445000 3.871400
-7.426400 4.274800
-7.407800 4.352300
-7.389200 4.548800
-7.370700 4.793200
-7.352100 5.198400
-7.333500 5.442900
-7.314900 5.412200
-7.296300 5.580200
-7.277800 5.714300
-7.259200 5.910400
-7.240600 7.528800
-7.222000 7.186800
-7.203400 6.612400
-7.184900 7.064900
-7.166300 7.507300
-7.147700 5.867900
-7.129100 5.338700
-7.110500 5.496100
-7.092000 5.700700
-7.073400 5.713000
-7.054800 4.511200
-7.036200 6.202600
-7.017600 4.280400
-6.999100 4.234300
-6.980500 4.200200
-6.961900 4.140700
-6.943300 4.094900
-6.924700 4.104400
-6.906200 4.104100
-6.887600 4.084900
-6.869000 4.107800
-6.850400 4.098100
-6.831800 4.086300
-6.813300 4.084300
-6.794700 4.122900
-6.776100 4.129700
-6.757500 4.136800
-6.738900 4.134700
-6.720400 4.153100
-6.701800 4.156400
-6.683200 4.050800
-6.664600 4.028200
-6.646000 4.123200
-6.627500 4.207800
-6.608900 4.405400
-6.590300 4.804300
-6.571700 4.944000
-6.553100 5.269900
-6.534600 5.325900
-6.516000 4.438200
-6.497400 3.659400
-6.478800 3.395200
-6.460200 3.004000
-6.441700 2.553500
-6.423100 1.751100
-6.404500 1.045400
-6.385900 0.445000
-6.367300 0.000000
-6.348800 0.000000
-6.330200 0.000000
-6.311600 0.000000
-6.293000 0.000000
-6.274400 0.000000
-6.255900 0.000000
-6.237300 0.000000
-6.218700 0.000000
-6.200100 0.000000
-6.181500 0.000000
-6.163000 0.000000
-6.144400 0.000000
-6.125800 0.000000
-6.107200 0.000000
-6.088600 0.000000
-6.070100 0.000000
-6.051500 0.000000
-6.032900 0.000000
-6.014300 0.000000
-5.995700 0.000000
-5.977200 0.000000
-5.958600 0.000000
-5.940000 0.000000
-5.921400 0.000000
-5.902800 0.000000
-5.884300 0.000000
-5.865700 0.000000
-5.847100 0.000000
-5.828500 0.000000
-5.809900 0.000000
-5.791400 0.000000
-5.772800 0.000000
-5.754200 0.000000
-5.735600 0.000000
-5.717000 0.000000
-5.698500 0.000000
-5.679900 0.000000
-5.661300 0.000000
-5.642700 0.000000
-5.624100 0.000000
-5.605600 0.000000
-5.587000 0.000000
-5.568400 0.000000
-5.549800 0.000000
-5.531200 0.000000
-5.512700 0.000000
-5.494100 0.000000
-5.475500 0.000000
-5.456900 0.000000
-5.438300 0.000000
-5.419800 0.000000
-5.401200 0.000000
-5.382600 0.000000
-5.364000 0.000000
-5.345400 0.000000
-5.326900 0.000000
-5.308300 0.000000
-5.289700 0.000000
-5.271100 0.000000
-5.252500 0.000000
-5.234000 0.000000
-5.215400 0.000000
-5.196800 0.000000
-5.178200 0.000000
-5.159600 0.000000
-5.141100 0.000000
-5.122500 0.000000
-5.103900 0.000000
-5.085300 0.000000
-5.066700 0.000000
-5.048200 0.000000
-5.029600 0.000000
-5.011000 0.000000
-4.992400 0.000000
-4.973800 0.000000
-4.955300 0.000000
-4.936700 0.000000
-4.918100 0.000000
-4.899500 0.000000
-4.880900 0.000000
-4.862400 0.000000
-4.843800 0.000000
-4.825200 0.000000
-4.806600 0.000000
-4.788000 0.000000
-4.769500 0.000000
-4.750900 0.000000
-4.732300 0.000000
-4.713700 0.000000
-4.695100 0.000000
-4.676600 0.000000
-4.658000 0.000000
-4.639400 0.000000
-4.620800 0.000000
-4.602200 0.000000
-4.583700 0.000000
-4.565100 0.000000
-4.546500 0.000000
-4.527900 0.000000
-4.509300 0.000000
-4.490800 0.000000
-4.472200 0.000000
-4.453600 0.000000
-4.435000 0.000000
-4.416400 0.000000
-4.397900 0.000000
-4.379300 0.000000
-4.360700 0.000000
-4.342100 0.000000
-4.323500 0.000000
-4.305000 0.000000
-4.286400 0.000000
-4.267800 0.000000
-4.249200 0.000000
-4.230600 0.094800
-4.212100 0.227100
-4.193500 0.329900
-4.174900 0.446600
-4.156300 0.527200
-4.137700 0.575600
-4.119200 0.723500
-4.100600 0.893500
-4.082000 1.079200
-4.063400 1.181700
-4.044800 1.210500
-4.026300 1.284600
-4.007700 1.380400
-3.989100 1.652700
-3.970500 1.852600
-3.951900 2.112400
-3.933400 2.409300
-3.914800 2.656600
-3.896200 2.928200
-3.877600 3.004400
-3.859000 3.122200
-3.840500 3.256300
-3.821900 3.453600
-3.803300 3.760700
-3.784700 4.172400
-3.766100 4.590200
-3.747600 4.967700
-3.729000 5.169500
-3.710400 5.350500
-3.691800 5.494300
-3.673200 5.635300
-3.654700 5.764100
-3.636100 5.978800
-3.617500 6.170000
-3.598900 6.252700
-3.580300 6.202800
-3.561800 6.155100
-3.543200 6.067900
-3.524600 6.216400
-3.506000 5.966900
-3.487400 5.897700
-3.468900 5.884400
-3.450300 5.975300
-3.431700 6.025300
-3.413100 6.426600
-3.394500 6.587900
-3.376000 6.791000
-3.357400 6.801000
-3.338800 6.997500
-3.320200 7.054000
-3.301600 8.240900
-3.283100 7.221100
-3.264500 7.066000
-3.245900 6.819200
-3.227300 6.650600
-3.208700 6.549400
-3.190200 6.528800
-3.171600 6.514100
-3.153000 6.425600
-3.134400 6.367100
-3.115800 6.654100
-3.097300 7.437000
-3.078700 7.710200
-3.060100 7.028900
-3.041500 7.517900
-3.022900 7.470400
-3.004400 6.128300
-2.985800 6.369200
-2.967200 2.070400
-2.948600 2.050800
-2.930000 2.039800
-2.911500 2.019300
-2.892900 2.000000
-2.874300 1.981800
-2.855700 1.976800
-2.837100 1.994800
-2.818600 2.107400
-2.800000 2.184800
-2.781400 2.206500
-2.762800 2.210300
-2.744200 2.194500
-2.725600 2.151000
-2.707100 2.049000
-2.688500 2.010100
-2.669900 1.999600
-2.651300 1.997900
-2.632700 2.168700
-2.614200 2.622800
-2.595600 2.793400
-2.577000 2.890200
-2.558400 2.965200
-2.539800 3.064500
-2.521300 3.175400
-2.502700 3.335900
-2.484100 3.618900
-2.465500 3.781700
-2.446900 3.752000
-2.428400 3.781900
-2.409800 3.811700
-2.391200 3.904300
-2.372600 4.139900
-2.354000 4.313800
-2.335500 4.441500
-2.316900 4.786700
-2.298300 5.031300
-2.279700 5.334700
-2.261100 5.412700
-2.242600 5.461200
-2.224000 5.592400
-2.205400 5.742200
-2.186800 5.874300
-2.168200 5.850700
-2.149700 5.957800
-2.131100 7.521200
-2.112500 6.190100
-2.093900 5.275100
-2.075300 3.998800
-2.056800 4.177500
-2.038200 4.909500
-2.019600 5.199500
-2.001000 5.088200
-1.982400 5.237000
-1.963900 4.885400
-1.945300 5.018000
-1.926700 5.083200
-1.908100 4.611200
-1.889500 4.556900
-1.871000 4.467100
-1.852400 4.780100
-1.833800 4.564800
-1.815200 5.430100
-1.796600 3.559200
-1.778100 2.310100
-1.759500 2.365500
-1.740900 2.405600
-1.722300 2.465300
-1.703700 2.733200
-1.685200 2.899900
-1.666600 3.096800
-1.648000 3.317400
-1.629400 3.842000
-1.610800 4.253400
-1.592300 4.826400
-1.573700 5.488400
-1.555100 6.361000
-1.536500 7.218000
-1.517900 8.164700
-1.499400 9.258900
-1.480800 10.643900
-1.462200 11.317300
-1.443600 12.498000
-1.425000 12.620000
-1.406500 12.383000
-1.387900 11.215000
-1.369300 9.134500
-1.350700 8.218800
-1.332100 8.185000
-1.313600 8.430700
-1.295000 8.527400
-1.276400 9.000000
-1.257800 8.910700
-1.239200 8.299300
-1.220700 8.856700
-1.202100 11.401000
-1.183500 10.580300
-1.164900 11.143600
-1.146300 11.971900
-1.127800 10.756500
-1.109200 10.594800
-1.090600 13.547200
-1.072000 9.295600
-1.053400 8.414600
-1.034900 8.992700
-1.016300 9.135400
-0.997700 8.967800
-0.979100 9.891000
-0.960500 10.352700
-0.942000 12.352500
-0.923400 13.798300
-0.904800 13.138900
-0.886200 11.755500
-0.867600 11.187300
-0.849100 10.555800
-0.830500 9.989600
-0.811900 9.604100
-0.793300 9.280300
-0.774700 8.946900
-0.756200 8.972700
-0.737600 9.194900
-0.719000 9.119200
-0.700400 9.025900
-0.681800 9.246000
-0.663300 10.726100
-0.644700 9.596800
-0.626100 8.196100
-0.607500 7.614000
-0.588900 7.326100
-0.570400 6.959400
-0.551800 6.754100
-0.533200 6.675600
-0.514600 6.667100
-0.496000 6.703100
-0.477500 6.659900
-0.458900 6.618000
-0.440300 6.608700
-0.421700 6.754500
-0.403100 6.606300
-0.384600 5.515100
-0.366000 5.200700
-0.347400 4.926700
-0.328800 4.606500
-0.310200 4.409700
-0.291700 4.266500
-0.273100 4.210000
-0.254500 4.202700
-0.235900 4.160600
-0.217300 4.075400
-0.198800 4.007300
-0.180200 4.104600
-0.161600 4.050800
-0.143000 3.544200
-0.124400 3.090200
-0.105900 2.718900
-0.087300 2.572300
-0.068700 2.371200
-0.050100 2.080000
-0.031500 1.891500
-0.013000 1.775900
0.005600 1.659200
0.024200 1.552600
0.042800 1.453500
0.061400 1.344500
0.079900 1.239500
0.098500 1.160000
0.117100 1.095800
0.135700 1.042400
0.154300 1.005800
0.172800 0.977200
0.191400 0.957600
0.210000 0.930100
0.228600 0.864500
0.247200 0.802400
0.265700 0.749900
0.284300 0.690500
0.302900 0.640400
0.321500 0.594000
0.340100 0.556600
0.358600 0.519600
0.377200 0.455200
0.395800 0.374700
0.414400 0.297600
0.433000 0.225000
0.451500 0.154600
0.470100 0.066500
0.488700 0.011700
0.507300 0.000000
0.525900 0.000000
0.544400 0.000000
0.563000 0.000000
0.581600 0.000000
0.600200 0.000000
0.618800 0.000000
0.637300 0.000000
0.655900 0.000000
0.674500 0.000000
0.693100 0.000000
0.711700 0.000000
0.730200 0.000000
0.748800 0.000000
0.767400 0.000000
0.786000 0.000000
0.804600 0.000000
0.823100 0.000000
0.841700 0.000000
0.860300 0.000000
0.878900 0.000000
0.897500 0.000000
0.916000 0.000000
0.934600 0.000000
0.953200 0.000000
0.971800 0.000000
0.990400 0.000000
1.008900 0.000000
1.027500 0.000000
1.046100 0.000000
1.064700 0.000000
1.083300 0.000000
1.101800 0.000000
1.120400 0.000000
1.139000 0.000000
1.157600 0.000000
1.176200 0.000000
1.194700 0.000000
1.213300 0.059400
1.231900 0.195300
1.250500 0.316500
1.269100 0.438300
1.287600 0.512100
1.306200 0.549200
1.324800 0.582600
1.343400 0.616500
1.362000 0.673800
1.380500 0.764900
1.399100 0.885000
1.417700 1.004800
1.436300 1.084700
1.454900 1.143000
1.473400 1.130900
1.492000 1.092000
1.510600 1.090700
1.529200 1.111000
1.547800 1.144000
1.566300 1.185600
1.584900 1.244900
1.603500 1.331000
1.622100 1.460600
1.640700 1.580200
1.659200 1.693600
1.677800 1.833400
1.696400 1.898700
1.715000 1.930700
1.733600 1.955700
1.752100 2.031500
1.770700 2.128700
1.789300 2.197100
1.807900 2.284900
1.826500 2.369100
1.845000 2.462100
1.863600 2.563900
1.882200 2.669900
1.900800 2.768900
1.919400 2.866000
1.937900 2.966200
1.956500 3.104500
1.975100 3.408400
1.993700 3.533100
2.012300 3.636300
2.030800 3.730000
2.049400 3.777500
2.068000 3.883500
2.086600 3.951200
2.105200 4.033000
2.123700 4.060800
2.142300 4.067100
2.160900 4.072600
2.179500 4.256400
2.198100 4.216900
2.216600 4.170800
2.235200 4.162100
2.253800 4.214300
2.272400 4.263700
2.291000 4.288200
2.309500 4.535600
2.328100 4.216400
2.346700 4.171700
2.365300 4.086000
2.383900 4.070800
2.402400 4.131300
2.421000 4.203000
2.439600 4.384600
2.458200 4.912900
2.476800 5.168700
2.495300 4.819000
2.513900 5.073600
2.532500 5.144600
2.551100 5.138300
2.569700 5.362500
2.588200 4.984000
2.606800 4.965700
2.625400 4.994000
2.644000 5.022600
2.662600 4.968600
2.681100 4.844100
2.699700 4.711400
2.718300 4.488900
2.736900 4.396400
2.755500 4.357100
2.774000 4.333000
2.792600 4.292900
2.811200 4.555900
2.829800 4.727400
2.848400 4.077600
2.866900 3.749800
2.885500 3.597500
2.904100 3.440400
2.922700 3.482300
2.941300 3.081900
2.959800 3.192800
2.978400 3.411100
2.997000 3.740400
3.015600 3.386900
3.034200 3.932700
3.052700 2.651700
3.071300 2.546400
3.089900 2.456400
3.108500 2.363500
3.127100 2.275400
3.145600 2.194400
3.164200 2.125100
3.182800 2.070900
3.201400 2.033700
3.220000 1.998500
3.238500 1.949800
3.257100 1.897100
3.275700 1.871700
3.294300 1.862200
3.312900 1.877000
3.331400 1.929200
3.350000 1.981800
3.368600 2.031700
3.387200 2.077800
3.405800 2.152500
3.424300 2.220200
3.442900 2.262900
3.461500 2.281800
3.480100 2.295600
3.498700 2.353100
3.517200 2.421400
3.535800 2.479900
3.554400 2.539000
3.573000 2.610900
3.591600 2.681400
3.610100 2.844300
3.628700 2.993900
3.647300 3.103600
3.665900 3.177600
3.684500 3.247500
3.703000 3.158700
3.721600 3.143200
3.740200 3.156000
3.758800 3.184100
3.777400 3.225100
3.795900 3.272200
3.814500 3.377600
3.833100 3.458900
3.851700 3.514100
3.870300 4.148600
3.888800 4.210800
3.907400 4.421700
3.926000 4.055200
3.944600 4.152900
3.963200 3.783700
3.981700 3.681200
4.000300 6.073800
4.018900 4.533600
4.037500 4.845900
4.056100 5.070700
4.074600 5.153500
4.093200 5.311200
4.111800 5.358400
4.130400 5.202500
4.149000 5.182700
4.167500 5.028700
4.186100 4.977500
4.204700 5.019300
4.223300 5.161400
4.241900 5.043500
4.260400 5.310500
4.279000 5.321700
4.297600 5.517100
4.316200 5.293100
4.334800 5.239200
4.353300 5.182200
4.371900 5.252600
4.390500 5.284400
4.409100 5.421700
4.427700 5.623300
4.446200 5.991500
4.464800 6.310200
4.483400 6.647700
4.502000 6.909600
4.520600 7.065600
4.539100 6.950400
4.557700 6.845900
4.576300 6.817900
4.594900 7.611000
4.613500 6.506700
4.632000 5.470900
4.650600 5.353600
4.669200 5.374600
4.687800 5.368300
4.706400 5.358600
4.724900 5.467600
4.743500 5.369000
4.762100 5.430100
4.780700 5.520100
4.799300 5.597800
4.817800 5.535700
4.836400 5.487600
4.855000 5.340000
4.873600 5.294500
4.892200 5.148400
4.910700 4.958300
4.929300 4.766900
4.947900 4.695700
4.966500 4.637700
4.985100 4.675900
5.003600 4.758600
5.022200 4.912300
5.040800 4.981800
5.059400 5.083700
5.078000 5.160900
5.096500 5.196600
5.115100 5.145500
5.133700 5.051500
5.152300 4.947100
5.170900 4.867400
5.189400 4.662200
5.208000 4.592900
5.226600 4.499200
5.245200 4.197900
5.263800 3.777200
5.282300 3.563100
5.300900 3.391500
5.319500 3.282600
5.338100 3.081500
5.356700 2.844300
5.375200 2.514400
5.393800 2.353900
5.412400 2.226300
5.431000 2.081000
5.449600 1.925600
5.468100 1.820500
5.486700 1.719600
5.505300 1.642500
5.523900 1.593000
5.542500 1.557100
5.561000 1.496200
5.579600 1.399600
5.598200 1.296500
5.616800 1.200600
5.635400 1.087200
5.653900 0.935600
5.672500 0.839000
5.691100 0.736100
5.709700 0.642000
5.728300 0.548400
5.746800 0.395600
5.765400 0.181600
5.784000 0.012100
5.802600 0.000000
5.821200 0.000000
5.839700 0.000000
5.858300 0.000000
5.876900 0.000000
5.895500 0.000000
5.914100 0.000000
5.932600 0.000000
5.951200 0.000000
5.969800 0.000000
5.988400 0.000000
6.007000 0.000000
6.025500 0.000000
6.044100 0.000000
6.062700 0.000000
6.081300 0.000000
6.099900 0.000000
6.118400 0.000000
6.137000 0.000000
6.155600 0.000000
6.174200 0.000000
6.192800 0.000000
6.211300 0.000000
6.229900 0.000000
6.248500 0.000000
6.267100 0.000000
6.285700 0.000000
6.304200 0.000000
6.322800 0.000000
6.341400 0.000000
6.360000 0.000000
6.378600 0.000000
6.397100 0.000000
6.415700 0.000000
6.434300 0.000000
6.452900 0.000000
6.471500 0.000000
6.490000 0.000000
6.508600 0.000000
6.527200 0.000000
6.545800 0.000000
6.564400 0.000000
6.582900 0.011800
6.601500 0.045000
6.620100 0.086300
6.638700 0.135600
6.657300 0.192900
6.675800 0.245700
6.694400 0.278400
6.713000 0.306100
6.731600 0.327700
6.750200 0.344800
6.768700 0.370500
6.787300 0.426200
6.805900 0.484700
6.824500 0.548500
6.843100 0.614600
6.861600 0.652200
6.880200 0.687600
6.898800 0.724300
6.917400 0.845400
6.936000 0.898500
6.954500 0.954500
6.973100 0.959900
6.991700 0.985400
7.010300 1.107300
7.028900 1.138300
7.047400 1.163000
7.066000 1.139100
7.084600 1.144700
7.103200 1.168200
7.121800 1.194600
7.140300 1.219100
7.158900 1.241000
7.177500 1.267800
7.196100 1.294600
7.214700 1.316800
7.233200 1.342100
7.251800 1.370700
7.270400 1.401500
7.289000 1.439600
7.307600 1.476400
7.326100 1.513200
7.344700 1.546400
7.363300 1.582300
7.381900 1.634600
7.400500 1.778400
7.419000 1.856800
7.437600 1.953300
7.456200 2.050900
7.474800 2.242000
7.493400 2.352000
7.511900 2.462600
7.530500 2.544100
7.549100 2.583800
7.567700 2.570300
7.586300 2.591300
7.604800 2.670000
7.623400 2.844400
7.642000 2.974000
7.660600 3.104800
7.679200 3.251800
7.697700 3.412500
7.716300 3.509700
7.734900 3.611500
7.753500 3.692100
7.772100 3.727200
7.790600 3.680900
7.809200 3.610100
7.827800 3.536600
7.846400 3.475900
7.865000 3.428100
7.883500 3.446500
7.902100 3.471900
7.920700 3.510700
7.939300 3.550700
7.957900 3.583800
7.976400 3.615700
7.995000 3.645900
8.013600 3.674500
8.032200 3.697600
8.050800 3.711300
8.069300 3.818700
8.087900 3.946600
8.106500 4.031200
8.125100 4.276800
8.143700 4.267700
8.162200 4.389500
8.180800 4.217200
8.199400 4.173900
8.218000 4.184300
8.236600 4.170200
8.255100 4.078800
8.273700 4.107500
8.292300 3.937100
8.310900 3.903300
8.329500 3.873600
8.348000 3.844600
8.366600 3.822800
8.385200 3.815600
8.403800 3.831900
8.422400 3.858100
8.440900 3.882100
8.459500 3.928100
8.478100 3.944300
8.496700 3.959500
8.515300 4.056500
8.533800 4.156500
8.552400 4.656000
8.571000 4.786100
8.589600 4.474000
8.608200 4.280400
8.626700 4.252800
8.645300 4.215100
8.663900 4.182000
8.682500 4.169800
8.701100 4.120500
8.719600 4.080800
8.738200 3.908100
8.756800 3.788200
8.775400 3.691300
8.794000 3.497000
8.812500 3.416000
8.831100 3.355300
8.849700 3.302500
8.868300 3.229200
8.886900 3.160100
8.905400 3.102000
8.924000 3.049600
8.942600 2.992200
8.961200 2.936500
8.979800 2.877400
8.998300 2.810800
9.016900 3.135800
9.035500 2.758300
9.054100 2.659900
9.072700 2.526500
9.091200 2.453500
9.109800 2.392700
9.128400 2.343300
9.147000 2.288800
9.165600 2.227400
9.184100 2.168800
9.202700 2.113500
9.221300 2.086700
9.239900 2.075800
9.258500 2.065500
9.277000 2.049200
9.295600 2.034000
9.314200 2.022500
9.332800 2.027400
9.351400 2.035400
9.369900 2.033500
9.388500 2.010400
9.407100 1.978600
9.425700 1.938800
9.444300 1.950200
9.462800 1.997500
9.481400 1.946400
9.500000 1.883200
9.518600 1.804300
9.537200 1.758100
9.555700 1.766800
9.574300 1.701700
9.592900 1.596000
9.611500 1.506800
9.630100 1.450700
9.648600 1.412200
9.667200 1.383000
9.685800 1.314800
9.704400 1.226700
9.723000 1.137900
9.741500 1.023100
9.760100 0.920400
9.778700 0.821200
9.797300 0.687800
9.815900 0.611300
9.834400 0.545000
9.853000 0.482400
9.871600 0.414000
9.890200 0.331600
9.908800 0.224400
9.927300 0.135400
9.945900 0.106100
9.964500 0.129200
9.983100 0.209100
10.001700 0.342000
10.020200 0.505700
10.038800 0.672300
10.057400 0.841500
10.076000 1.007500
10.094600 1.108100
10.113100 1.166300
10.131700 1.214800
10.150300 1.228600
10.168900 1.217500
10.187500 1.205200
10.206000 1.200900
10.224600 1.198000
10.243200 1.207600
10.261800 1.228700
10.280400 1.269100
10.298900 1.369400
10.317500 1.438600
10.336100 1.507300
10.354700 1.580800
10.373300 1.678500
10.391800 1.766200
10.410400 1.874600
10.429000 1.981600
10.447600 1.982500
10.466200 2.012800
10.484700 2.005700
10.503300 1.982700
10.521900 1.964600
10.540500 1.957500
10.559100 1.974200
10.577600 2.006600
10.596200 2.025100
10.614800 2.042300
10.633400 2.077300
10.652000 2.147500
10.670500 2.261200
10.689100 2.362400
10.707700 2.471600
10.726300 2.559700
10.744900 2.584800
10.763400 2.603700
10.782000 2.635600
10.800600 2.674900
10.819200 2.671800
10.837800 2.662200
10.856300 2.655300
10.874900 2.639500
10.893500 2.621300
10.912100 2.606400
10.930700 2.595400
10.949200 2.585800
10.967800 2.588500
10.986400 2.591800
11.005000 2.606900
11.023600 2.654000
11.042100 2.723200
11.060700 2.773200
11.079300 2.803000
11.097900 2.828800
11.116500 2.856700
11.135000 2.889800
11.153600 2.895000
11.172200 2.921100
11.190800 2.947500
11.209400 2.961900
11.227900 2.973500
11.246500 2.992600
11.265100 3.019600
11.283700 3.058100
11.302300 3.103000
11.320800 3.152200
11.339400 3.206400
11.358000 3.279200
11.376600 3.330000
11.395200 3.372400
11.413700 3.418500
11.432300 3.527400
11.450900 3.693500
11.469500 3.761900
11.488100 3.804200
11.506600 3.824900
11.525200 3.838100
11.543800 3.874000
11.562400 3.909700
11.581000 3.935900
11.599500 3.956200
11.618100 4.006500
11.636700 4.199200
11.655300 4.053600
11.673900 4.055100
11.692400 4.072300
11.711000 4.091900
11.729600 4.165200
11.748200 4.193700
11.766800 4.223600
11.785300 4.249300
11.803900 4.471700
11.822500 4.385100
11.841100 4.265000
11.859700 4.238500
11.878200 4.228600
11.896800 4.258900
11.915400 4.275600
11.934000 4.262500
11.952600 4.244500
11.971100 4.357900
11.989700 4.261700
12.008300 4.113300
12.026900 4.119700
12.045500 4.073000
12.064000 4.028300
12.082600 3.997100
12.101200 3.899800
12.119800 3.866600
12.138400 3.829000
12.156900 3.792600
12.175500 3.806100
12.194100 3.949400
12.212700 3.986800
12.231300 3.993200
12.249800 4.181400
12.268400 4.635600
12.287000 4.873500
12.305600 5.097500
12.324200 5.412100
12.342700 5.537600
12.361300 5.606400
12.379900 5.662100
12.398500 5.845100
12.417100 5.862300
12.435600 6.029100
12.454200 5.761800
12.472800 5.473500
12.491400 5.323100
12.510000 5.210900
12.528500 5.238900
12.547100 5.152800
12.565700 5.110000
12.584300 5.063700
12.602900 4.992800
12.621400 5.140400
12.640000 5.376300
12.658600 5.682900
12.677200 5.915700
12.695800 6.215400
12.714300 6.305700
12.732900 6.309600
12.751500 6.264200
12.770100 6.302700
12.788700 6.325800
12.807300 6.367200
12.825800 6.525800
12.844400 6.229300
12.863000 6.184300
12.881600 6.050200
12.900200 6.004700
12.918700 5.952400
12.937300 5.716900
12.955900 5.528300
12.974500 5.369900
12.993100 5.295000
13.011600 5.255300
13.030200 5.137500
13.048800 5.214600
13.067400 5.409100
13.086000 5.598400
13.104500 5.803100
13.123100 6.372700
13.141700 5.618600
13.160300 5.674400
13.178900 5.748300
13.197400 6.070600
13.216000 6.393100
13.234600 6.013000
13.253200 7.276200
13.271800 6.032000
13.290300 6.883500
13.308900 3.894300
13.327500 3.361100
13.346100 3.147400
13.364700 3.032100
13.383200 2.786200
13.401800 2.870000
13.420400 3.076700
13.439000 3.502000
13.457600 4.007000
13.476100 4.577200
13.494700 5.048900
13.513300 5.443200
13.531900 5.507100
13.550500 5.540500
13.569000 5.523800
13.587600 5.479700
13.606200 5.523000
13.624800 5.493000
13.643400 5.552400
13.661900 5.740300
13.680500 6.014300
13.699100 6.577000
13.717700 7.760700
13.736300 8.112600
13.754800 8.136200
13.773400 7.747500
13.792000 7.218300
13.810600 6.586500
13.829200 6.011100
13.847700 5.618200
13.866300 4.761700
13.884900 3.938700
13.903500 3.447300
13.922100 3.073700
13.940600 2.738000
13.959200 2.409800
13.977800 2.065700
13.996400 2.133900
14.015000 2.428900
14.033500 2.791100
14.052100 3.008300
14.070700 3.056200
14.089300 3.117900
14.107900 3.227200
14.126400 3.418700
14.145000 3.672700
14.163600 3.504000
14.182200 3.364700
14.200800 3.380500
14.219300 3.327600
14.237900 3.210300
14.256500 3.120200
14.275100 3.016600
14.293700 3.150500
14.312200 3.355500
14.330800 3.611400
14.349400 3.840800
14.368000 3.937800
14.386600 3.957600
14.405100 3.982300
14.423700 3.911700
14.442300 3.887700
14.460900 3.948800
14.479500 4.066800
14.498000 4.354700
14.516600 4.529600
14.535200 4.891000
14.553800 5.341600
14.572400 5.578300
14.590900 5.645800
14.609500 5.665100
14.628100 5.785200
14.646700 5.760200
14.665300 5.701700
14.683800 5.606900
14.702400 5.598800
14.721000 5.806700
14.739600 5.659900
14.758200 5.746100
14.776700 5.441900
14.795300 5.746500
14.813900 5.874500
14.832500 5.992200
14.851100 6.137000
14.869600 6.503700
14.888200 6.799200
14.906800 6.735200
14.925400 6.984900
14.944000 7.335100
14.962500 7.908800
14.981100 8.009000
14.999700 8.080800
15.018300 7.960300
15.036900 7.408900
15.055400 6.854600
15.074000 6.584300
15.092600 6.073600
15.111200 5.897200
15.129800 5.956200
15.148300 6.186900
15.166900 6.498000
15.185500 6.630000
15.204100 6.700700
15.222700 5.356000
15.241200 5.262900
15.259800 5.269000
15.278400 5.448300
15.297000 5.585400
15.315600 6.259400
15.334100 6.046000
15.352700 6.207400
15.371300 6.170400
15.389900 6.055800
15.408500 5.759800
15.427000 5.676300
15.445600 5.594900
15.464200 5.667100
15.482800 5.614600
15.501400 5.655400
15.519900 5.778800
15.538500 5.704500
15.557100 6.159800
15.575700 5.925600
15.594300 6.112900
15.612800 6.349600
15.631400 6.633300
15.650000 6.411600
15.668600 6.971600
15.687200 6.854200
15.705700 6.967300
15.724300 6.843500
15.742900 6.951000
15.761500 6.886600
15.780100 6.660400
15.798600 6.298900
15.817200 6.045000
15.835800 5.528200
15.854400 5.417800
15.873000 5.083200
15.891500 5.098000
15.910100 5.206400
15.928700 5.498800
15.947300 5.943600
15.965900 6.237700
15.984400 5.912100
16.003000 5.875100
16.021600 5.876900
16.040200 5.578700
16.058800 5.465500
16.077300 5.309000
16.095900 5.317500
16.114500 5.476500
16.133100 5.909200
16.151700 6.553200
16.170200 6.867800
16.188800 7.248700
16.207400 7.028900
16.226000 6.995200
16.244600 7.290200
16.263100 7.629100
16.281700 7.834800
16.300300 7.721900
16.318900 7.493500
16.337500 7.105800
16.356000 6.759400
16.374600 6.572000
16.393200 6.219100
16.411800 5.971700
16.430400 5.902900
16.448900 5.933100
16.467500 6.070200
16.486100 6.424900
16.504700 6.351200
16.523300 6.030300
16.541800 5.614400
16.560400 5.399000
16.579000 5.240900
16.597600 5.117800
16.616200 5.018200
16.634700 4.624000
16.653300 4.317400
16.671900 4.070800
16.690500 3.971200
16.709100 3.815300
16.727600 3.678900
16.746200 3.627300
16.764800 3.566300
16.783400 3.723700
16.802000 3.996100
16.820500 3.918900
16.839100 3.597500
16.857700 2.856800
16.876300 2.318800
16.894900 2.020100
16.913400 1.759800
16.932000 1.510700
16.950600 1.319000
16.969200 1.256800
16.987800 1.274500
17.006300 1.386200
17.024900 1.431400
17.043500 1.435700
17.062100 1.277100
17.080700 1.073200
17.099200 0.803900
17.117800 0.579100
17.136400 0.405600
17.155000 0.280300
17.173600 0.200200
17.192100 0.147900
17.210700 0.105500
17.229300 0.083300
17.247900 0.063800
17.266500 0.046800
17.285000 0.032500
17.303600 0.020800
17.322200 0.011700
17.340800 0.005200
17.359400 0.001300
17.377900 0.000000
17.396500 0.000000
17.415100 0.000000
17.433700 0.000000
17.452300 0.000000
17.470800 0.000000
17.489400 0.000000
17.508000 0.000000
17.526600 0.000000
17.545200 0.000000
17.563700 0.000000
17.582300 0.000000
17.600900 0.000000
17.619500 0.000000
17.638100 0.000000
17.656600 0.000000
17.675200 0.000000
17.693800 0.000000
17.712400 0.000000
17.731000 0.000000
17.749500 0.000000
17.768100 0.000000
17.786700 0.000000
17.805300 0.000000
17.823900 0.000000
17.842400 0.000000
17.861000 0.000000
17.879600 0.000000
17.898200 0.000000
17.916800 0.000000
17.935300 0.000000
17.953900 0.000000
17.972500 0.000000
17.991100 0.000000
18.009700 0.000000
18.028200 0.000000
18.046800 0.000000
18.065400 0.000000
18.084000 0.000000
18.102600 0.000000
18.121100 0.000000
18.139700 0.000000
18.158300 0.000000
18.176900 0.000000
18.195500 0.000000
18.214000 0.000000
18.232600 0.000000
18.251200 0.000000
18.269800 0.000000
18.288400 0.000000
18.306900 0.000000
18.325500 0.000000
18.344100 0.000000
18.362700 0.000000
18.381300 0.000000
18.399800 0.000000
18.418400 0.000000
18.437000 0.000000
18.455600 0.000000
18.474200 0.000000
18.492700 0.000000
18.511300 0.000000
18.529900 0.000000
18.548500 0.000000
18.567100 0.000000
18.585600 0.000000
18.604200 0.000000
18.622800 0.000000
18.641400 0.000000
18.660000 0.000000
18.678500 0.000000
18.697100 0.000000
18.715700 0.000000
18.734300 0.000000
18.752900 0.000000
18.771400 0.000000
18.790000 0.000000
18.808600 0.000000
18.827200 0.000000
18.845800 0.000000
18.864300 0.000000
18.882900 0.000000
18.901500 0.000000
18.920100 0.000000
18.938700 0.000000
18.957200 0.000000
18.975800 0.000000
18.994400 0.000000
19.013000 0.000000
19.031600 0.000000
19.050100 0.000000
19.068700 0.000000
e
