set title 'mp-1103073 - Density of States'
set xlabel 'Energy (eV)'
set ylabel 'DOS (states/eV)'
set grid
set xrange [-10:10]
set yrange [0:49.609]
set xzeroaxis lt -1
set terminal png size 800,600
set output 'mp-1103073_dos_gnuplot.png'
plot '-' using 1:2 with lines title 'DOS'
-17.384800 0.000000
-17.369500 0.000000
-17.354300 0.000000
-17.339000 0.000000
-17.323800 0.000000
-17.308500 0.000000
-17.293300 0.000000
-17.278000 0.000000
-17.262800 0.000000
-17.247500 0.000000
-17.232300 0.000000
-17.217000 0.000000
-17.201800 0.000000
-17.186500 0.000000
-17.171300 0.000000
-17.156000 0.000000
-17.140800 0.000000
-17.125500 0.000000
-17.110300 0.000000
-17.095000 0.000000
-17.079800 0.000000
-17.064500 0.000000
-17.049300 0.000000
-17.034100 0.000000
-17.018800 0.000000
-17.003600 0.000000
-16.988300 0.000000
-16.973100 0.000000
-16.957800 0.000000
-16.942600 0.000000
-16.927300 0.000000
-16.912100 0.000000
-16.896800 0.000000
-16.881600 0.000000
-16.866300 0.000000
-16.851100 0.000000
-16.835800 0.000000
-16.820600 0.000000
-16.805300 0.000000
-16.790100 0.000000
-16.774800 0.000000
-16.759600 0.000000
-16.744300 0.000000
-16.729100 0.000000
-16.713900 0.000000
-16.698600 0.000000
-16.683400 0.000000
-16.668100 0.000000
-16.652900 0.000000
-16.637600 0.000000
-16.622400 0.000000
-16.607100 0.000000
-16.591900 0.000000
-16.576600 0.000000
-16.561400 0.000000
-16.546100 0.000000
-16.530900 0.000000
-16.515600 0.000000
-16.500400 0.000000
-16.485100 0.000000
-16.469900 0.000000
-16.454600 0.000000
-16.439400 0.000000
-16.424100 0.000000
-16.408900 0.000000
-16.393700 0.000000
-16.378400 0.000000
-16.363200 0.000000
-16.347900 0.000000
-16.332700 0.000000
-16.317400 0.000000
-16.302200 0.000000
-16.286900 0.000000
-16.271700 0.000000
-16.256400 0.000000
-16.241200 0.000000
-16.225900 0.000000
-16.210700 0.000000
-16.195400 0.000000
-16.180200 0.000000
-16.164900 0.000000
-16.149700 0.000000
-16.134400 0.000000
-16.119200 0.000000
-16.103900 0.000000
-16.088700 0.000000
-16.073500 0.000000
-16.058200 0.000000
-16.043000 0.000000
-16.027700 0.000000
-16.012500 0.000000
-15.997200 0.023200
-15.982000 3.270400
-15.966700 6.389900
-15.951500 10.670000
-15.936200 11.841400
-15.921000 13.384100
-15.905700 15.466700
-15.890500 18.688800
-15.875200 31.893000
-15.860000 11.415100
-15.844700 6.474500
-15.829500 1.453200
-15.814200 5.541300
-15.799000 13.229500
-15.783700 48.873700
-15.768500 25.279300
-15.753200 16.129900
-15.738000 10.980000
-15.722800 5.075800
-15.707500 0.000000
-15.692300 0.000000
-15.677000 0.000000
-15.661800 0.000000
-15.646500 0.000000
-15.631300 0.000000
-15.616000 0.000000
-15.600800 0.000000
-15.585500 0.000000
-15.570300 0.000000
-15.555000 0.000000
-15.539800 0.000000
-15.524500 0.000000
-15.509300 0.000000
-15.494000 0.000000
-15.478800 0.000000
-15.463500 0.000000
-15.448300 0.000000
-15.433000 0.000000
-15.417800 0.000000
-15.402600 0.000000
-15.387300 0.000000
-15.372100 0.000000
-15.356800 0.000000
-15.341600 0.000000
-15.326300 0.000000
-15.311100 0.000000
-15.295800 0.000000
-15.280600 0.000000
-15.265300 0.000000
-15.250100 0.000000
-15.234800 0.000000
-15.219600 0.000000
-15.204300 0.000000
-15.189100 0.000000
-15.173800 3.510300
-15.158600 59.767800
-15.143300 53.279100
-15.128100 24.366800
-15.112800 193.609200
-15.097600 130.702200
-15.082400 0.103500
-15.067100 2.128700
-15.051900 5.329200
-15.036600 13.471000
-15.021400 59.069900
-15.006100 47.412700
-14.990900 25.088300
-14.975600 41.965900
-14.960400 35.047900
-14.945100 11.289300
-14.929900 5.541400
-14.914600 12.863500
-14.899400 25.681900
-14.884100 30.496300
-14.868900 20.958500
-14.853600 15.539200
-14.838400 17.555300
-14.823100 52.080900
-14.807900 82.497700
-14.792600 0.000000
-14.777400 0.000000
-14.762200 0.000000
-14.746900 0.000000
-14.731700 0.000000
-14.716400 0.000000
-14.701200 0.000000
-14.685900 0.000000
-14.670700 0.000000
-14.655400 0.000000
-14.640200 0.000000
-14.624900 0.000000
-14.609700 0.000000
-14.594400 0.000000
-14.579200 0.000000
-14.563900 0.000000
-14.548700 0.000000
-14.533400 0.000000
-14.518200 0.000000
-14.502900 0.000000
-14.487700 0.000000
-14.472400 0.000000
-14.457200 0.000000
-14.441900 0.000000
-14.426700 0.000000
-14.411500 0.000000
-14.396200 0.000000
-14.381000 0.000000
-14.365700 0.000000
-14.350500 0.000000
-14.335200 0.000000
-14.320000 0.000000
-14.304700 0.000000
-14.289500 0.000000
-14.274200 0.000000
-14.259000 0.000000
-14.243700 0.000000
-14.228500 0.000000
-14.213200 0.000000
-14.198000 0.000000
-14.182700 0.000000
-14.167500 0.000000
-14.152200 0.000000
-14.137000 0.000000
-14.121700 0.000000
-14.106500 0.000000
-14.091300 0.000000
-14.076000 0.000000
-14.060800 0.000000
-14.045500 0.000000
-14.030300 0.000000
-14.015000 0.000000
-13.999800 0.000000
-13.984500 0.000000
-13.969300 0.000000
-13.954000 0.000000
-13.938800 0.000000
-13.923500 0.000000
-13.908300 0.000000
-13.893000 0.000000
-13.877800 0.000000
-13.862500 0.000000
-13.847300 0.000000
-13.832000 0.000000
-13.816800 0.000000
-13.801500 0.000000
-13.786300 0.000000
-13.771100 0.000000
-13.755800 0.000000
-13.740600 0.000000
-13.725300 0.000000
-13.710100 0.000000
-13.694800 0.000000
-13.679600 0.000000
-13.664300 0.000000
-13.649100 0.000000
-13.633800 0.000000
-13.618600 0.000000
-13.603300 0.000000
-13.588100 0.000000
-13.572800 0.000000
-13.557600 0.000000
-13.542300 0.000000
-13.527100 0.000000
-13.511800 0.000000
-13.496600 0.000000
-13.481300 0.000000
-13.466100 0.000000
-13.450800 0.000000
-13.435600 0.000000
-13.420400 0.000000
-13.405100 0.000000
-13.389900 0.000000
-13.374600 0.000000
-13.359400 0.000000
-13.344100 0.000000
-13.328900 0.000000
-13.313600 0.000000
-13.298400 0.000000
-13.283100 0.000000
-13.267900 0.000000
-13.252600 0.000000
-13.237400 0.000000
-13.222100 0.000000
-13.206900 0.000000
-13.191600 0.000000
-13.176400 0.000000
-13.161100 0.000000
-13.145900 0.000000
-13.130600 0.000000
-13.115400 0.000000
-13.100200 0.000000
-13.084900 0.000000
-13.069700 0.000000
-13.054400 0.000000
-13.039200 0.000000
-13.023900 0.000000
-13.008700 0.000000
-12.993400 0.000000
-12.978200 0.000000
-12.962900 0.000000
-12.947700 0.000000
-12.932400 0.000000
-12.917200 0.000000
-12.901900 0.000000
-12.886700 0.000000
-12.871400 0.000000
-12.856200 0.000000
-12.840900 0.000000
-12.825700 0.000000
-12.810400 0.000000
-12.795200 0.000000
-12.780000 0.000000
-12.764700 0.000000
-12.749500 0.000000
-12.734200 0.000000
-12.719000 0.000000
-12.703700 0.000000
-12.688500 0.000000
-12.673200 0.000000
-12.658000 0.000000
-12.642700 0.000000
-12.627500 0.000000
-12.612200 0.000000
-12.597000 0.000000
-12.581700 0.000000
-12.566500 0.000000
-12.551200 0.000000
-12.536000 0.000000
-12.520700 0.000000
-12.505500 0.000000
-12.490200 0.000000
-12.475000 0.000000
-12.459800 0.000000
-12.444500 0.000000
-12.429300 0.000000
-12.414000 0.000000
-12.398800 0.000000
-12.383500 0.000000
-12.368300 0.000000
-12.353000 0.000000
-12.337800 0.000000
-12.322500 0.000000
-12.307300 0.000000
-12.292000 0.000000
-12.276800 0.000000
-12.261500 0.000000
-12.246300 0.000000
-12.231000 0.000000
-12.215800 0.000000
-12.200500 0.000000
-12.185300 0.000000
-12.170000 0.000000
-12.154800 0.000000
-12.139500 0.000000
-12.124300 0.000000
-12.109100 0.000000
-12.093800 0.000000
-12.078600 0.000000
-12.063300 0.000000
-12.048100 0.000000
-12.032800 0.000000
-12.017600 0.000000
-12.002300 0.000000
-11.987100 0.000000
-11.971800 0.000000
-11.956600 0.000000
-11.941300 0.000000
-11.926100 0.000000
-11.910800 0.000000
-11.895600 0.000000
-11.880300 0.000000
-11.865100 0.000000
-11.849800 0.000000
-11.834600 0.000000
-11.819300 0.000000
-11.804100 0.000000
-11.788900 0.000000
-11.773600 0.000000
-11.758400 0.000000
-11.743100 0.000000
-11.727900 0.000000
-11.712600 0.000000
-11.697400 0.000000
-11.682100 0.000000
-11.666900 0.000000
-11.651600 0.000000
-11.636400 0.000000
-11.621100 0.000000
-11.605900 0.000000
-11.590600 0.000000
-11.575400 0.000000
-11.560100 0.000000
-11.544900 0.000000
-11.529600 0.000000
-11.514400 0.000000
-11.499100 0.000000
-11.483900 0.000000
-11.468700 0.000000
-11.453400 0.000000
-11.438200 0.000000
-11.422900 0.000000
-11.407700 0.000000
-11.392400 0.000000
-11.377200 0.000000
-11.361900 0.000000
-11.346700 0.000000
-11.331400 0.000000
-11.316200 0.000000
-11.300900 0.000000
-11.285700 0.000000
-11.270400 0.000000
-11.255200 0.000000
-11.239900 0.000000
-11.224700 0.000000
-11.209400 0.000000
-11.194200 0.000000
-11.178900 0.000000
-11.163700 0.000000
-11.148500 0.000000
-11.133200 0.000000
-11.118000 0.000000
-11.102700 0.000000
-11.087500 0.000000
-11.072200 0.000000
-11.057000 0.000000
-11.041700 0.000000
-11.026500 0.000000
-11.011200 0.000000
-10.996000 0.000000
-10.980700 0.000000
-10.965500 0.000000
-10.950200 0.000000
-10.935000 0.000000
-10.919700 0.000000
-10.904500 0.000000
-10.889200 0.000000
-10.874000 0.000000
-10.858700 0.000000
-10.843500 0.000000
-10.828200 0.000000
-10.813000 0.000000
-10.797800 0.000000
-10.782500 0.000000
-10.767300 0.000000
-10.752000 0.000000
-10.736800 0.000000
-10.721500 0.000000
-10.706300 0.000000
-10.691000 0.000000
-10.675800 0.000000
-10.660500 0.000000
-10.645300 0.000000
-10.630000 0.000000
-10.614800 0.000000
-10.599500 0.000000
-10.584300 0.000000
-10.569000 0.000000
-10.553800 0.000000
-10.538500 0.000000
-10.523300 0.047200
-10.508000 0.371700
-10.492800 0.848000
-10.477600 1.479500
-10.462300 2.358900
-10.447100 2.644000
-10.431800 3.148000
-10.416600 3.499100
-10.401300 3.472200
-10.386100 3.300900
-10.370800 3.463700
-10.355600 3.626800
-10.340300 3.790000
-10.325100 3.942100
-10.309800 4.079300
-10.294600 4.203600
-10.279300 4.336100
-10.264100 4.529900
-10.248800 4.779400
-10.233600 5.105500
-10.218300 5.453400
-10.203100 5.803100
-10.187800 6.154600
-10.172600 6.507800
-10.157400 6.862800
-10.142100 9.544700
-10.126900 9.877700
-10.111600 3.475100
-10.096400 3.065500
-10.081100 2.655500
-10.065900 2.245100
-10.050600 1.834300
-10.035400 1.423100
-10.020100 1.011400
-10.004900 0.599300
-9.989600 0.186700
-9.974400 0.272800
-9.959100 0.773000
-9.943900 1.272700
-9.928600 1.772000
-9.913400 2.270900
-9.898100 2.769300
-9.882900 3.267200
-9.867600 3.764700
-9.852400 11.185000
-9.837100 11.831700
-9.821900 8.772300
-9.806700 8.168400
-9.791400 7.573900
-9.776200 6.988800
-9.760900 6.500700
-9.745700 6.334400
-9.730400 6.243200
-9.715200 6.121300
-9.699900 5.943300
-9.684700 5.777900
-9.669400 5.907100
-9.654200 4.939100
-9.638900 3.800100
-9.623700 2.960400
-9.608400 2.323300
-9.593200 2.122900
-9.577900 0.968500
-9.562700 0.139500
-9.547400 0.000000
-9.532200 0.000000
-9.516900 0.000000
-9.501700 0.000000
-9.486500 0.000000
-9.471200 0.000000
-9.456000 0.000000
-9.440700 0.000000
-9.425500 0.000000
-9.410200 0.000000
-9.395000 0.000000
-9.379700 0.000000
-9.364500 0.000000
-9.349200 0.000000
-9.334000 0.000000
-9.318700 0.000000
-9.303500 0.000000
-9.288200 0.000000
-9.273000 0.000000
-9.257700 0.000000
-9.242500 0.000000
-9.227200 0.000000
-9.212000 0.000000
-9.196700 0.000000
-9.181500 0.000000
-9.166300 0.000000
-9.151000 0.000000
-9.135800 0.000000
-9.120500 0.000000
-9.105300 0.000000
-9.090000 0.000000
-9.074800 0.000000
-9.059500 0.000000
-9.044300 0.000000
-9.029000 0.000000
-9.013800 0.000000
-8.998500 0.000000
-8.983300 0.000000
-8.968000 0.000000
-8.952800 0.000000
-8.937500 0.000000
-8.922300 0.000000
-8.907000 0.000000
-8.891800 0.000000
-8.876500 0.000000
-8.861300 0.000000
-8.846100 0.000000
-8.830800 0.000000
-8.815600 0.000000
-8.800300 0.000000
-8.785100 0.000000
-8.769800 0.000000
-8.754600 0.000000
-8.739300 0.000000
-8.724100 0.000000
-8.708800 0.000000
-8.693600 0.000000
-8.678300 0.000000
-8.663100 0.000000
-8.647800 0.000000
-8.632600 0.000000
-8.617300 0.000000
-8.602100 0.000000
-8.586800 0.000000
-8.571600 0.000000
-8.556300 0.000000
-8.541100 0.000000
-8.525800 0.000000
-8.510600 0.000000
-8.495400 0.000000
-8.480100 0.000000
-8.464900 0.000000
-8.449600 0.000000
-8.434400 0.000000
-8.419100 0.000000
-8.403900 0.000000
-8.388600 0.000000
-8.373400 0.000000
-8.358100 0.000000
-8.342900 0.000000
-8.327600 0.000000
-8.312400 0.000000
-8.297100 0.000000
-8.281900 0.000000
-8.266600 0.000000
-8.251400 0.000000
-8.236100 0.000000
-8.220900 0.000000
-8.205600 0.000000
-8.190400 0.000000
-8.175200 0.000000
-8.159900 0.000000
-8.144700 0.000000
-8.129400 0.000000
-8.114200 0.000000
-8.098900 0.000000
-8.083700 0.000000
-8.068400 0.000000
-8.053200 0.000000
-8.037900 0.000000
-8.022700 0.000000
-8.007400 0.000000
-7.992200 0.000000
-7.976900 0.000000
-7.961700 0.000000
-7.946400 0.000000
-7.931200 0.000000
-7.915900 0.000000
-7.900700 0.000000
-7.885400 0.000000
-7.870200 0.000000
-7.855000 0.000000
-7.839700 0.000000
-7.824500 0.000000
-7.809200 0.000000
-7.794000 0.000000
-7.778700 0.000000
-7.763500 0.000000
-7.748200 0.000000
-7.733000 0.000000
-7.717700 0.000000
-7.702500 0.000000
-7.687200 0.000000
-7.672000 0.000000
-7.656700 0.000000
-7.641500 0.000000
-7.626200 0.000000
-7.611000 0.000000
-7.595700 0.000000
-7.580500 0.000000
-7.565200 0.000000
-7.550000 0.000000
-7.534800 0.000000
-7.519500 0.000000
-7.504300 0.000000
-7.489000 0.000000
-7.473800 0.000000
-7.458500 0.000000
-7.443300 0.000000
-7.428000 0.000000
-7.412800 0.000000
-7.397500 0.000000
-7.382300 0.000000
-7.367000 0.000000
-7.351800 0.000000
-7.336500 0.000000
-7.321300 0.000000
-7.306000 0.000000
-7.290800 0.000000
-7.275500 0.000000
-7.260300 0.000000
-7.245000 0.000000
-7.229800 0.000000
-7.214500 0.000000
-7.199300 0.000000
-7.184100 0.000000
-7.168800 0.000000
-7.153600 0.000000
-7.138300 0.000000
-7.123100 0.000000
-7.107800 0.000000
-7.092600 0.000000
-7.077300 0.000000
-7.062100 0.000000
-7.046800 0.000000
-7.031600 0.000000
-7.016300 0.000000
-7.001100 0.000000
-6.985800 0.000000
-6.970600 0.000000
-6.955300 0.000000
-6.940100 0.000000
-6.924800 0.000000
-6.909600 0.000000
-6.894300 0.000000
-6.879100 0.000000
-6.863900 0.000000
-6.848600 0.000000
-6.833400 0.000000
-6.818100 0.000000
-6.802900 0.000000
-6.787600 0.000000
-6.772400 0.000000
-6.757100 0.000000
-6.741900 0.000000
-6.726600 0.000000
-6.711400 0.000000
-6.696100 0.000000
-6.680900 0.000000
-6.665600 0.000000
-6.650400 0.000000
-6.635100 0.000000
-6.619900 0.000000
-6.604600 0.000000
-6.589400 0.000000
-6.574100 0.000000
-6.558900 0.000000
-6.543700 0.000000
-6.528400 0.000000
-6.513200 0.000000
-6.497900 0.000000
-6.482700 0.000000
-6.467400 0.000000
-6.452200 0.000000
-6.436900 0.000000
-6.421700 0.000000
-6.406400 0.000000
-6.391200 0.000000
-6.375900 0.000000
-6.360700 0.000000
-6.345400 0.000000
-6.330200 0.000000
-6.314900 0.000000
-6.299700 0.000000
-6.284400 0.000000
-6.269200 0.000000
-6.253900 0.000000
-6.238700 0.000000
-6.223400 0.000000
-6.208200 0.000000
-6.193000 0.000000
-6.177700 0.000000
-6.162500 0.000000
-6.147200 0.000000
-6.132000 0.000000
-6.116700 0.000000
-6.101500 0.000000
-6.086200 0.000000
-6.071000 0.000000
-6.055700 0.000000
-6.040500 0.000000
-6.025200 0.000000
-6.010000 0.000000
-5.994700 0.000000
-5.979500 0.000000
-5.964200 0.000000
-5.949000 0.000000
-5.933700 0.000000
-5.918500 0.000000
-5.903200 0.000000
-5.888000 0.064500
-5.872800 0.559000
-5.857500 2.147500
-5.842300 6.905000
-5.827000 18.681800
-5.811800 21.063900
-5.796500 24.523500
-5.781300 28.402600
-5.766000 25.695500
-5.750800 18.467500
-5.735500 13.651500
-5.720300 35.640900
-5.705000 24.716000
-5.689800 33.669200
-5.674500 44.919600
-5.659300 33.365300
-5.644000 45.099500
-5.628800 27.702000
-5.613500 0.000000
-5.598300 0.000000
-5.583000 0.000000
-5.567800 0.000000
-5.552600 0.000000
-5.537300 0.000000
-5.522100 0.000000
-5.506800 0.000000
-5.491600 0.000000
-5.476300 0.000000
-5.461100 0.000000
-5.445800 0.000000
-5.430600 0.000000
-5.415300 0.000000
-5.400100 0.000000
-5.384800 0.000000
-5.369600 0.000000
-5.354300 0.000000
-5.339100 0.000000
-5.323800 0.000000
-5.308600 0.000000
-5.293300 0.000000
-5.278100 0.000000
-5.262800 0.000000
-5.247600 0.000000
-5.232400 0.000000
-5.217100 0.000000
-5.201900 0.000000
-5.186600 0.001400
-5.171400 0.017700
-5.156100 0.052100
-5.140900 0.104600
-5.125600 0.175100
-5.110400 0.263800
-5.095100 0.370600
-5.079900 0.495500
-5.064600 0.638600
-5.049400 0.799700
-5.034100 1.039500
-5.018900 1.475500
-5.003600 1.965800
-4.988400 3.219400
-4.973100 5.167100
-4.957900 7.148300
-4.942600 8.940800
-4.927400 10.378000
-4.912100 10.922200
-4.896900 11.178100
-4.881700 11.561900
-4.866400 11.018200
-4.851200 10.422600
-4.835900 10.913800
-4.820700 8.841600
-4.805400 7.756000
-4.790200 7.309900
-4.774900 7.825400
-4.759700 8.649800
-4.744400 10.678800
-4.729200 13.461400
-4.713900 16.291900
-4.698700 19.056300
-4.683400 24.021700
-4.668200 9.773600
-4.652900 5.578800
-4.637700 3.562200
-4.622400 2.553000
-4.607200 2.064700
-4.591900 1.727000
-4.576700 1.483900
-4.561500 1.281000
-4.546200 1.657600
-4.531000 2.316200
-4.515700 3.163600
-4.500500 4.110400
-4.485200 5.103300
-4.470000 5.971400
-4.454700 6.541700
-4.439500 6.575100
-4.424200 6.492800
-4.409000 6.156600
-4.393700 5.513900
-4.378500 4.482000
-4.363200 3.884000
-4.348000 3.784000
-4.332700 3.705000
-4.317500 3.640000
-4.302200 3.584000
-4.287000 3.533600
-4.271700 3.466400
-4.256500 3.378400
-4.241300 3.265300
-4.226000 3.143400
-4.210800 3.047800
-4.195500 3.029100
-4.180300 2.989800
-4.165000 2.945700
-4.149800 2.900200
-4.134500 2.853200
-4.119300 2.804600
-4.104000 2.784100
-4.088800 3.390300
-4.073500 3.384600
-4.058300 3.063100
-4.043000 2.988600
-4.027800 1.337000
-4.012500 0.212100
-3.997300 0.000000
-3.982000 0.000000
-3.966800 0.000000
-3.951500 0.000000
-3.936300 0.000000
-3.921100 0.000000
-3.905800 0.000000
-3.890600 0.000000
-3.875300 0.000000
-3.860100 0.000000
-3.844800 0.000000
-3.829600 0.000000
-3.814300 0.000000
-3.799100 0.000000
-3.783800 0.000000
-3.768600 0.000000
-3.753300 0.000000
-3.738100 0.000000
-3.722800 0.000000
-3.707600 0.000000
-3.692300 0.000000
-3.677100 0.000000
-3.661800 0.000000
-3.646600 0.000000
-3.631300 0.000000
-3.616100 0.000000
-3.600800 0.000000
-3.585600 0.000000
-3.570400 0.000000
-3.555100 0.000000
-3.539900 0.055300
-3.524600 2.322200
-3.509400 10.828300
-3.494100 17.375500
-3.478900 24.623800
-3.463600 26.317600
-3.448400 28.466600
-3.433100 23.986100
-3.417900 10.927900
-3.402600 9.912100
-3.387400 12.518700
-3.372100 22.489300
-3.356900 27.213100
-3.341600 23.115000
-3.326400 21.702900
-3.311100 21.173300
-3.295900 19.812500
-3.280600 19.126400
-3.265400 20.514600
-3.250200 24.390300
-3.234900 22.790000
-3.219700 20.438700
-3.204400 23.158400
-3.189200 23.512200
-3.173900 23.760400
-3.158700 28.639100
-3.143400 22.782800
-3.128200 20.737600
-3.112900 21.940600
-3.097700 13.482300
-3.082400 9.665900
-3.067200 8.933700
-3.051900 10.733700
-3.036700 11.596200
-3.021400 15.092300
-3.006200 21.775000
-2.990900 24.204500
-2.975700 24.009900
-2.960400 23.947800
-2.945200 24.211800
-2.930000 18.042200
-2.914700 18.245400
-2.899500 17.264700
-2.884200 15.706000
-2.869000 14.142500
-2.853700 13.308300
-2.838500 12.574200
-2.823200 12.053000
-2.808000 11.636900
-2.792700 14.097900
-2.777500 14.208400
-2.762200 13.213200
-2.747000 13.806300
-2.731700 14.703900
-2.716500 18.188900
-2.701200 17.234700
-2.686000 13.975100
-2.670700 16.802400
-2.655500 26.529800
-2.640200 18.936900
-2.625000 18.281400
-2.609800 12.314700
-2.594500 12.379500
-2.579300 12.844300
-2.564000 14.205300
-2.548800 20.705700
-2.533500 26.076400
-2.518300 17.036100
-2.503000 18.635700
-2.487800 20.787800
-2.472500 20.083400
-2.457300 21.896400
-2.442000 24.999900
-2.426800 27.129700
-2.411500 34.408000
-2.396300 32.313200
-2.381000 29.644500
-2.365800 28.520600
-2.350500 33.800700
-2.335300 36.892000
-2.320000 34.019500
-2.304800 35.727300
-2.289500 37.832400
-2.274300 42.259800
-2.259100 44.345000
-2.243800 32.728900
-2.228600 30.253400
-2.213300 37.406400
-2.198100 32.244300
-2.182800 30.204000
-2.167600 32.024900
-2.152300 27.246800
-2.137100 20.238200
-2.121800 18.114800
-2.106600 21.974100
-2.091300 22.446800
-2.076100 29.080900
-2.060800 20.478200
-2.045600 17.871200
-2.030300 21.127600
-2.015100 24.067300
-1.999800 25.852700
-1.984600 23.683200
-1.969300 21.270700
-1.954100 20.902000
-1.938900 18.623100
-1.923600 17.817000
-1.908400 17.054500
-1.893100 14.949500
-1.877900 14.327200
-1.862600 15.129100
-1.847400 16.805500
-1.832100 17.875600
-1.816900 19.534300
-1.801600 20.295000
-1.786400 20.222800
-1.771100 15.553600
-1.755900 15.830300
-1.740600 16.348500
-1.725400 14.377300
-1.710100 13.763700
-1.694900 16.780800
-1.679600 13.281300
-1.664400 10.627700
-1.649100 7.402300
-1.633900 6.621300
-1.618700 8.851300
-1.603400 7.026300
-1.588200 5.487500
-1.572900 4.575000
-1.557700 4.130600
-1.542400 3.812500
-1.527200 3.503800
-1.511900 4.157900
-1.496700 2.162300
-1.481400 1.610400
-1.466200 1.513600
-1.450900 1.416700
-1.435700 1.319700
-1.420400 1.222500
-1.405200 1.125200
-1.389900 1.027800
-1.374700 0.930200
-1.359400 0.832500
-1.344200 0.734700
-1.328900 0.636700
-1.313700 0.538600
-1.298400 0.440400
-1.283200 0.342000
-1.268000 0.243500
-1.252700 0.145200
-1.237500 0.088400
-1.222200 0.102000
-1.207000 0.209000
-1.191700 0.346800
-1.176500 0.484700
-1.161200 0.622700
-1.146000 0.761000
-1.130700 0.899300
-1.115500 1.037800
-1.100200 1.176500
-1.085000 1.315300
-1.069700 1.454300
-1.054500 1.593400
-1.039200 1.732700
-1.024000 1.872100
-1.008700 2.013900
-0.993500 5.639400
-0.978200 8.079900
-0.963000 6.765900
-0.947800 5.956000
-0.932500 4.049400
-0.917300 3.885300
-0.902000 3.764600
-0.886800 3.646800
-0.871500 3.531900
-0.856300 3.420000
-0.841000 3.310900
-0.825800 3.284100
-0.810500 3.402400
-0.795300 3.605900
-0.780000 3.885600
-0.764800 4.533100
-0.749500 5.617100
-0.734300 3.054700
-0.719000 2.828700
-0.703800 2.645000
-0.688500 2.503700
-0.673300 2.381200
-0.658000 2.269000
-0.642800 2.164900
-0.627600 2.056800
-0.612300 1.942400
-0.597100 1.821700
-0.581800 1.694800
-0.566600 1.563900
-0.551300 1.431100
-0.536100 1.296300
-0.520800 1.332200
-0.505600 1.238100
-0.490300 1.107800
-0.475100 0.980900
-0.459800 0.857500
-0.444600 0.737600
-0.429300 0.621200
-0.414100 0.508200
-0.398800 0.307900
-0.383600 0.142000
-0.368300 0.039500
-0.353100 0.000400
-0.337800 0.000000
-0.322600 0.000000
-0.307400 0.000000
-0.292100 0.000000
-0.276900 0.000000
-0.261600 0.000000
-0.246400 0.000000
-0.231100 0.000000
-0.215900 0.000000
-0.200600 0.000000
-0.185400 0.000000
-0.170100 0.000000
-0.154900 0.000000
-0.139600 0.000000
-0.124400 0.000000
-0.109100 0.000000
-0.093900 0.000000
-0.078600 0.000000
-0.063400 0.000000
-0.048100 0.000000
-0.032900 0.000000
-0.017600 0.000000
-0.002400 0.000000
0.012900 0.000000
0.028100 0.000000
0.043300 0.000000
0.058600 0.000000
0.073800 0.000000
0.089100 0.000000
0.104300 0.000000
0.119600 0.000000
0.134800 0.000000
0.150100 0.000000
0.165300 0.000000
0.180600 0.000000
0.195800 0.000000
0.211100 0.000000
0.226300 0.000000
0.241600 0.000000
0.256800 0.000000
0.272100 0.000000
0.287300 0.000000
0.302600 0.000000
0.317800 0.000000
0.333100 0.000000
0.348300 0.000000
0.363500 0.000000
0.378800 0.000000
0.394000 0.000000
0.409300 0.000000
0.424500 0.000000
0.439800 0.000000
0.455000 0.000000
0.470300 0.000000
0.485500 0.000000
0.500800 0.000000
0.516000 0.000000
0.531300 0.000000
0.546500 0.000000
0.561800 0.000000
0.577000 0.000000
0.592300 0.000000
0.607500 0.000000
0.622800 0.000000
0.638000 0.000000
0.653300 0.000000
0.668500 0.000000
0.683700 0.000000
0.699000 0.000000
0.714200 0.000000
0.729500 0.000000
0.744700 0.000000
0.760000 0.000000
0.775200 0.000000
0.790500 0.000000
0.805700 0.000000
0.821000 0.000000
0.836200 0.000000
0.851500 0.000000
0.866700 0.000000
0.882000 0.000000
0.897200 0.000000
0.912500 0.000000
0.927700 0.000000
0.943000 0.000000
0.958200 0.000000
0.973500 0.000000
0.988700 0.000000
1.003900 0.000000
1.019200 0.000000
1.034400 0.000000
1.049700 0.000000
1.064900 0.000000
1.080200 0.000000
1.095400 0.000000
1.110700 0.000000
1.125900 0.000000
1.141200 0.000000
1.156400 0.000000
1.171700 0.000000
1.186900 0.000000
1.202200 0.000000
1.217400 0.000000
1.232700 0.000000
1.247900 0.000000
1.263200 0.000000
1.278400 0.000000
1.293700 0.000000
1.308900 0.000000
1.324200 0.000000
1.339400 0.000000
1.354600 0.000000
1.369900 0.000000
1.385100 0.000000
1.400400 0.000000
1.415600 0.000000
1.430900 0.000000
1.446100 0.000300
1.461400 0.007100
1.476600 0.073900
1.491900 0.280000
1.507100 0.570000
1.522400 0.943900
1.537600 1.401700
1.552900 1.941200
1.568100 2.544900
1.583400 3.195700
1.598600 3.777500
1.613900 4.262900
1.629100 4.499700
1.644400 4.202400
1.659600 4.481900
1.674800 5.068200
1.690100 5.423300
1.705300 5.918400
1.720600 6.677900
1.735800 7.529700
1.751100 7.779400
1.766300 7.627000
1.781600 7.316200
1.796800 7.008100
1.812100 6.809800
1.827300 6.850900
1.842600 6.985300
1.857800 7.296500
1.873100 7.493800
1.888300 7.018400
1.903600 6.592600
1.918800 6.351900
1.934100 6.173300
1.949300 6.046800
1.964600 5.957300
1.979800 6.099200
1.995000 6.719300
2.010300 7.151300
2.025500 7.899300
2.040800 7.490900
2.056000 7.374400
2.071300 7.693400
2.086500 8.609500
2.101800 9.701300
2.117000 10.474800
2.132300 10.723800
2.147500 7.544200
2.162800 6.830300
2.178000 6.460200
2.193300 6.138400
2.208500 5.887900
2.223800 5.710400
2.239000 6.095800
2.254300 5.964900
2.269500 6.063800
2.284800 6.499300
2.300000 6.827700
2.315300 7.697900
2.330500 9.346800
2.345700 10.953600
2.361000 12.620200
2.376200 12.424500
2.391500 11.024400
2.406700 2.920800
2.422000 0.253800
2.437200 0.000000
2.452500 0.000000
2.467700 0.000000
2.483000 0.000000
2.498200 0.000000
2.513500 0.000000
2.528700 0.000000
2.544000 0.000000
2.559200 0.000000
2.574500 0.000000
2.589700 0.000000
2.605000 0.000000
2.620200 0.000000
2.635500 0.000000
2.650700 0.000000
2.665900 0.000000
2.681200 0.000000
2.696400 0.000000
2.711700 0.000000
2.726900 0.000000
2.742200 0.000000
2.757400 0.000000
2.772700 0.000000
2.787900 0.000000
2.803200 0.000000
2.818400 0.000000
2.833700 0.000000
2.848900 0.000000
2.864200 0.000000
2.879400 0.000000
2.894700 0.000000
2.909900 0.000000
2.925200 0.000000
2.940400 0.000000
2.955700 0.000000
2.970900 0.000000
2.986100 0.000000
3.001400 0.000000
3.016600 0.000000
3.031900 0.000000
3.047100 0.000200
3.062400 0.012900
3.077600 0.045600
3.092900 0.108700
3.108100 0.214400
3.123400 0.344600
3.138600 0.499200
3.153900 0.679900
3.169100 0.918500
3.184400 1.200400
3.199600 1.542500
3.214900 1.945600
3.230100 2.409700
3.245400 2.930900
3.260600 3.420300
3.275900 4.024300
3.291100 4.783100
3.306300 5.703300
3.321600 6.835400
3.336800 8.285300
3.352100 11.651900
3.367300 13.130800
3.382600 11.663800
3.397800 9.154100
3.413100 7.738600
3.428300 6.873500
3.443600 6.042400
3.458800 5.206700
3.474100 4.404700
3.489300 3.972000
3.504600 3.947300
3.519800 4.101100
3.535100 4.097300
3.550300 4.020200
3.565600 3.958400
3.580800 5.330800
3.596100 7.841400
3.611300 12.233500
3.626600 16.235400
3.641800 17.025800
3.657000 14.731500
3.672300 13.790200
3.687500 14.283100
3.702800 17.045900
3.718000 13.958300
3.733300 12.034800
3.748500 12.117100
3.763800 11.953800
3.779000 11.278800
3.794300 11.278500
3.809500 13.597600
3.824800 10.022100
3.840000 7.808400
3.855300 6.857300
3.870500 5.330300
3.885800 4.066100
3.901000 3.087500
3.916300 2.295800
3.931500 1.679300
3.946800 1.208300
3.962000 0.735300
3.977200 0.213100
3.992500 0.000000
4.007700 0.000000
4.023000 0.000000
4.038200 0.000000
4.053500 0.000000
4.068700 0.000000
4.084000 0.000000
4.099200 0.000000
4.114500 0.000400
4.129700 0.007200
4.145000 0.022100
4.160200 0.045200
4.175500 0.076500
4.190700 0.116100
4.206000 0.163800
4.221200 0.219700
4.236500 0.283800
4.251700 0.355000
4.267000 0.431700
4.282200 0.513900
4.297400 0.553200
4.312700 0.583800
4.327900 0.609400
4.343200 0.630200
4.358400 0.646000
4.373700 0.656900
4.388900 0.662900
4.404200 0.665900
4.419400 0.695300
4.434700 0.725300
4.449900 0.755700
4.465200 0.786700
4.480400 0.818000
4.495700 0.849800
4.510900 0.882000
4.526200 0.914700
4.541400 0.947800
4.556700 0.981300
4.571900 1.015300
4.587200 1.082100
4.602400 1.154300
4.617600 1.221900
4.632900 1.284500
4.648100 1.342100
4.663400 1.394700
4.678600 1.442300
4.693900 1.484900
4.709100 1.522600
4.724400 1.559500
4.739600 1.375800
4.754900 1.386600
4.770100 1.398500
4.785400 1.411400
4.800600 1.425400
4.815900 1.440500
4.831100 1.456700
4.846400 1.473700
4.861600 1.490900
4.876900 1.508100
4.892100 1.525100
4.907400 1.542200
4.922600 1.559100
4.937900 1.576000
4.953100 1.592800
4.968300 1.609600
4.983600 1.626300
4.998800 1.643000
5.014100 1.658300
5.029300 1.667700
5.044600 1.678000
5.059800 1.689200
5.075100 1.701300
5.090300 1.714400
5.105600 1.728400
5.120800 1.759500
5.136100 1.849700
5.151300 2.131600
5.166600 2.441700
5.181800 2.712500
5.197100 2.944100
5.212300 3.159800
5.227600 3.375600
5.242800 3.185100
5.258100 3.140500
5.273300 3.123800
5.288500 3.140000
5.303800 3.189200
5.319000 3.271400
5.334300 3.110600
5.349500 3.164400
5.364800 3.219800
5.380000 3.278400
5.395300 3.340300
5.410500 3.405700
5.425800 3.474300
5.441000 3.546300
5.456300 3.621700
5.471500 3.700400
5.486800 4.282400
5.502000 4.438600
5.517300 4.285500
5.532500 4.174500
5.547800 4.098400
5.563000 4.063200
5.578300 4.091400
5.593500 4.318700
5.608700 4.594700
5.624000 4.872200
5.639200 5.151200
5.654500 5.432700
5.669700 5.748300
5.685000 6.082800
5.700200 6.479600
5.715500 7.028600
5.730700 7.721300
5.746000 8.515900
5.761200 9.335600
5.776500 10.117100
5.791700 10.050500
5.807000 9.673700
5.822200 9.143500
5.837500 8.629900
5.852700 8.071400
5.868000 7.516100
5.883200 6.879100
5.898500 7.011500
5.913700 7.446200
5.929000 7.779300
5.944200 6.811000
5.959400 7.051900
5.974700 7.319300
5.989900 7.744900
6.005200 8.408300
6.020400 9.738000
6.035700 11.134200
6.050900 12.597500
6.066200 13.569700
6.081400 14.237500
6.096700 15.715000
6.111900 16.660800
6.127200 13.669100
6.142400 10.897100
6.157700 9.921700
6.172900 9.374500
6.188200 8.790100
6.203400 8.549000
6.218700 9.121600
6.233900 9.532400
6.249200 9.951600
6.264400 10.220300
6.279600 11.101400
6.294900 10.450300
6.310100 9.687100
6.325400 9.071300
6.340600 8.420200
6.355900 7.727400
6.371100 7.237000
6.386400 6.914300
6.401600 9.882900
6.416900 12.562800
6.432100 13.116900
6.447400 10.915100
6.462600 10.383800
6.477900 10.009700
6.493100 9.693900
6.508400 9.301900
6.523600 8.828900
6.538900 8.334200
6.554100 7.707200
6.569400 7.361300
6.584600 6.775500
6.599800 7.012100
6.615100 7.655300
6.630300 8.544800
6.645600 7.602200
6.660800 8.182400
6.676100 8.857000
6.691300 9.618300
6.706600 11.600500
6.721800 12.026700
6.737100 10.568800
6.752300 11.451900
6.767600 13.167900
6.782800 14.907000
6.798100 14.725000
6.813300 14.147000
6.828600 12.546300
6.843800 10.674400
6.859100 9.210200
6.874300 8.879500
6.889600 9.259700
6.904800 9.833900
6.920000 10.925600
6.935300 12.524800
6.950500 13.539400
6.965800 13.732900
6.981000 14.505700
6.996300 16.139600
7.011500 16.783700
7.026800 16.414600
7.042000 15.531000
7.057300 14.386600
7.072500 14.526900
7.087800 20.356000
7.103000 21.408100
7.118300 21.618000
7.133500 22.874300
7.148800 21.456700
7.164000 18.174300
7.179300 14.695400
7.194500 10.859400
7.209800 12.441100
7.225000 14.881200
7.240300 18.322600
7.255500 20.831500
7.270700 27.108800
7.286000 26.921900
7.301200 20.069500
7.316500 17.664900
7.331700 18.510300
7.347000 19.482600
7.362200 19.160000
7.377500 17.005100
7.392700 15.546800
7.408000 13.696700
7.423200 12.320100
7.438500 12.865400
7.453700 12.924000
7.469000 12.978800
7.484200 13.628700
7.499500 13.975700
7.514700 12.744100
7.530000 12.744400
7.545200 12.754000
7.560500 13.743000
7.575700 12.378200
7.590900 12.004600
7.606200 12.547600
7.621400 12.741600
7.636700 11.599800
7.651900 10.108200
7.667200 9.753800
7.682400 9.510600
7.697700 9.321200
7.712900 9.142000
7.728200 8.917200
7.743400 9.040000
7.758700 9.866100
7.773900 11.886200
7.789200 14.266600
7.804400 14.992400
7.819700 13.715800
7.834900 13.200900
7.850200 13.062200
7.865400 12.886300
7.880700 12.662900
7.895900 12.512000
7.911100 11.259800
7.926400 11.040200
7.941600 10.223600
7.956900 8.605700
7.972100 8.138800
7.987400 8.521500
8.002600 9.165100
8.017900 9.864800
8.033100 10.606900
8.048400 10.572500
8.063600 11.648000
8.078900 11.733100
8.094100 11.742500
8.109400 11.836300
8.124600 13.819700
8.139900 10.800300
8.155100 10.286200
8.170400 9.991900
8.185600 9.469100
8.200900 9.037600
8.216100 8.611900
8.231300 8.376300
8.246600 8.326200
8.261800 8.408500
8.277100 8.721700
8.292300 9.067200
8.307600 9.297500
8.322800 9.667800
8.338100 10.774000
8.353300 11.861900
8.368600 12.830200
8.383800 13.330900
8.399100 13.511600
8.414300 13.638500
8.429600 13.285800
8.444800 12.906000
8.460100 11.650500
8.475300 9.522700
8.490600 8.186200
8.505800 7.280500
8.521100 7.597400
8.536300 8.979800
8.551600 10.199900
8.566800 12.315700
8.582000 9.433100
8.597300 10.601900
8.612500 11.458200
8.627800 11.788400
8.643000 11.766300
8.658300 11.991200
8.673500 13.802400
8.688800 13.282900
8.704000 13.055400
8.719300 12.783500
8.734500 12.409900
8.749800 12.178600
8.765000 12.980400
8.780300 15.056200
8.795500 20.945200
8.810800 18.282800
8.826000 18.534700
8.841300 17.645800
8.856500 17.056800
8.871800 16.502800
8.887000 16.725300
8.902200 18.183700
8.917500 18.285700
8.932700 16.247700
8.948000 14.635000
8.963200 14.085700
8.978500 14.117800
8.993700 15.081400
9.009000 16.683000
9.024200 17.201600
9.039500 16.812600
9.054700 15.832000
9.070000 15.168000
9.085200 14.121700
9.100500 13.546400
9.115700 13.879000
9.131000 19.764800
9.146200 15.318200
9.161500 15.098600
9.176700 14.493700
9.192000 14.232000
9.207200 15.161800
9.222400 16.146500
9.237700 17.606000
9.252900 13.829900
9.268200 12.556900
9.283400 12.604700
9.298700 12.592700
9.313900 13.695700
9.329200 20.282400
9.344400 19.321700
9.359700 14.360500
9.374900 18.538100
9.390200 17.405200
9.405400 18.727400
9.420700 17.491700
9.435900 14.707200
9.451200 13.170900
9.466400 14.130000
9.481700 19.921700
9.496900 20.011800
9.512200 16.017400
9.527400 13.789700
9.542700 11.715400
9.557900 9.394800
9.573100 8.779500
9.588400 11.100900
9.603600 12.970900
9.618900 14.829200
9.634100 16.437600
9.649400 17.701200
9.664600 19.266200
9.679900 16.280100
9.695100 10.704400
9.710400 7.202800
9.725600 9.297200
9.740900 11.168000
9.756100 13.867200
9.771400 16.122100
9.786600 20.212400
9.801900 31.343000
9.817100 14.294700
9.832400 8.999900
9.847600 6.062900
9.862900 3.774200
9.878100 2.349300
9.893300 2.103600
9.908600 4.319300
9.923800 4.486900
9.939100 5.173500
9.954300 6.229600
9.969600 7.336600
9.984800 8.418000
10.000100 9.392400
10.015300 10.643600
10.030600 12.221200
10.045800 13.555000
10.061100 14.281700
10.076300 14.092000
10.091600 13.152900
10.106800 12.303400
10.122100 11.402400
10.137300 9.398900
10.152600 9.573300
10.167800 9.912500
10.183100 9.829000
10.198300 9.285300
10.213500 9.172500
10.228800 9.129400
10.244000 9.126600
10.259300 9.136700
10.274500 9.131700
10.289800 9.176300
10.305000 9.429100
10.320300 9.742200
10.335500 10.537500
10.350800 20.465900
10.366000 9.036600
10.381300 10.134000
10.396500 12.967700
10.411800 15.720100
10.427000 14.886300
10.442300 13.919300
10.457500 14.885300
10.472800 15.972800
10.488000 13.931500
10.503300 11.990600
10.518500 10.668100
10.533700 10.033500
10.549000 9.725100
10.564200 9.456100
10.579500 9.136400
10.594700 9.139500
10.610000 8.333200
10.625200 7.341300
10.640500 6.851000
10.655700 6.789400
10.671000 7.752100
10.686200 7.611700
10.701500 8.229300
10.716700 8.955400
10.732000 9.842500
10.747200 10.805800
10.762500 11.469600
10.777700 11.565100
10.793000 11.513400
10.808200 11.343700
10.823500 12.417100
10.838700 11.556800
10.854000 10.409800
10.869200 9.683700
10.884400 9.780500
10.899700 10.221300
10.914900 11.065200
10.930200 12.184700
10.945400 13.180100
10.960700 13.473300
10.975900 13.756800
10.991200 13.879500
11.006400 14.093700
11.021700 13.948500
11.036900 13.579600
11.052200 13.243400
11.067400 12.700000
11.082700 11.926600
11.097900 11.673500
11.113200 12.433300
11.128400 13.952300
11.143700 15.736200
11.158900 17.108000
11.174200 16.694600
11.189400 14.355400
11.204600 12.384700
11.219900 11.079900
11.235100 12.219000
11.250400 12.445000
11.265600 11.839100
11.280900 10.968700
11.296100 9.039800
11.311400 7.519200
11.326600 6.198100
11.341900 5.103800
11.357100 4.262100
11.372400 3.687000
11.387600 3.479600
11.402900 3.739700
11.418100 3.791300
11.433400 3.467600
11.448600 1.545000
11.463900 0.427100
11.479100 0.308800
11.494400 0.232500
11.509600 0.194900
11.524800 0.168200
11.540100 0.143500
11.555300 0.120700
11.570600 0.099900
11.585800 0.081100
11.601100 0.064200
11.616300 0.049300
11.631600 0.036400
11.646800 0.025400
11.662100 0.016400
11.677300 0.009400
11.692600 0.004300
11.707800 0.001200
11.723100 0.000000
11.738300 0.000000
11.753600 0.000000
11.768800 0.000000
11.784100 0.000000
11.799300 0.000000
11.814600 0.000000
11.829800 0.000000
11.845000 0.000000
11.860300 0.000000
11.875500 0.000000
11.890800 0.000000
11.906000 0.000000
11.921300 0.000000
11.936500 0.000000
11.951800 0.000000
11.967000 0.000000
11.982300 0.000000
11.997500 0.000000
12.012800 0.000000
12.028000 0.000000
12.043300 0.000000
12.058500 0.000000
12.073800 0.000000
12.089000 0.000000
12.104300 0.000000
12.119500 0.000000
12.134800 0.000000
12.150000 0.000000
12.165300 0.000000
12.180500 0.000000
12.195700 0.000000
12.211000 0.000000
12.226200 0.000000
12.241500 0.000000
12.256700 0.000000
12.272000 0.000000
12.287200 0.000000
12.302500 0.000000
12.317700 0.000000
12.333000 0.000000
12.348200 0.000000
12.363500 0.000000
12.378700 0.000000
12.394000 0.000000
12.409200 0.000000
12.424500 0.000000
12.439700 0.000000
12.455000 0.000000
12.470200 0.000000
12.485500 0.000000
12.500700 0.000000
12.515900 0.000000
12.531200 0.000000
12.546400 0.000000
12.561700 0.000000
12.576900 0.000000
12.592200 0.000000
12.607400 0.000000
12.622700 0.000000
12.637900 0.000000
12.653200 0.000000
12.668400 0.000000
12.683700 0.000000
12.698900 0.000000
12.714200 0.000000
12.729400 0.000000
12.744700 0.000000
12.759900 0.000000
12.775200 0.000000
12.790400 0.000000
12.805700 0.000000
12.820900 0.000000
12.836100 0.000000
12.851400 0.000000
12.866600 0.000000
12.881900 0.000000
12.897100 0.000000
12.912400 0.000000
12.927600 0.000000
12.942900 0.000000
12.958100 0.000000
12.973400 0.000000
12.988600 0.000000
13.003900 0.000000
13.019100 0.000000
13.034400 0.000000
13.049600 0.000000
13.064900 0.000000
13.080100 0.000000
13.095400 0.000000
13.110600 0.000000
e
