set title 'mp-714883 - Density of States'
set xlabel 'Energy (eV)'
set ylabel 'DOS (states/eV)'
set grid
set xrange [-10:10]
set yrange [0:3.560]
set xzeroaxis lt -1
set terminal png size 800,600
set output 'mp-714883_dos_gnuplot.png'
plot '-' using 1:2 with lines title 'DOS'
-38.220500 0.000000
-38.173200 0.000000
-38.125800 0.000000
-38.078500 0.000000
-38.031100 0.000000
-37.983800 0.000000
-37.936400 0.000000
-37.889100 0.000000
-37.841800 0.000000
-37.794400 0.000000
-37.747100 0.000000
-37.699700 0.000000
-37.652400 0.000000
-37.605000 0.000000
-37.557700 0.000000
-37.510300 0.000000
-37.463000 0.000000
-37.415600 0.000000
-37.368300 0.000000
-37.321000 0.000000
-37.273600 0.000000
-37.226300 0.000000
-37.178900 0.000000
-37.131600 0.000000
-37.084200 0.000000
-37.036900 0.000000
-36.989500 0.000000
-36.942200 0.000000
-36.894800 0.000000
-36.847500 0.000000
-36.800100 0.000000
-36.752800 0.000000
-36.705500 0.000000
-36.658100 0.000000
-36.610800 0.000000
-36.563400 0.000000
-36.516100 0.000000
-36.468700 0.000000
-36.421400 0.000000
-36.374000 0.000000
-36.326700 0.000000
-36.279300 0.000000
-36.232000 0.000000
-36.184700 0.000000
-36.137300 0.000000
-36.090000 0.000000
-36.042600 0.000000
-35.995300 0.000000
-35.947900 0.000000
-35.900600 0.000000
-35.853200 0.000000
-35.805900 0.000000
-35.758500 0.000000
-35.711200 0.000000
-35.663800 0.000000
-35.616500 0.000000
-35.569200 0.000000
-35.521800 0.000000
-35.474500 0.000000
-35.427100 0.000000
-35.379800 0.000000
-35.332400 0.000000
-35.285100 0.000000
-35.237700 0.000000
-35.190400 0.000000
-35.143000 0.000000
-35.095700 0.000000
-35.048400 0.000000
-35.001000 0.000000
-34.953700 0.000000
-34.906300 0.000000
-34.859000 0.000000
-34.811600 0.000000
-34.764300 0.000000
-34.716900 0.000000
-34.669600 0.000000
-34.622200 0.000000
-34.574900 0.000000
-34.527500 0.000000
-34.480200 0.000000
-34.432900 0.000000
-34.385500 0.000000
-34.338200 0.000000
-34.290800 0.000000
-34.243500 0.000000
-34.196100 0.000000
-34.148800 0.000000
-34.101400 0.000000
-34.054100 0.000000
-34.006700 0.000000
-33.959400 0.000000
-33.912100 0.000000
-33.864700 2.336600
-33.817400 3.489400
-33.770000 6.215700
-33.722700 9.378000
-33.675300 0.000000
-33.628000 0.000000
-33.580600 0.000000
-33.533300 0.000000
-33.485900 0.000000
-33.438600 0.000000
-33.391300 0.000000
-33.343900 0.000000
-33.296600 0.000000
-33.249200 2.883000
-33.201900 2.010600
-33.154500 1.814700
-33.107200 1.859700
-33.059800 1.967700
-33.012500 1.965500
-32.965100 3.733200
-32.917800 1.675600
-32.870400 4.258100
-32.823100 5.480900
-32.775800 15.568500
-32.728400 0.000000
-32.681100 0.000000
-32.633700 0.000000
-32.586400 0.000000
-32.539000 0.000000
-32.491700 0.000000
-32.444300 0.000000
-32.397000 0.000000
-32.349600 0.000000
-32.302300 0.000000
-32.255000 0.000000
-32.207600 0.000000
-32.160300 0.000000
-32.112900 0.000000
-32.065600 0.000000
-32.018200 0.000000
-31.970900 0.000000
-31.923500 0.000000
-31.876200 0.000000
-31.828800 0.000000
-31.781500 0.000000
-31.734100 0.000000
-31.686800 0.000000
-31.639500 0.000000
-31.592100 0.000000
-31.544800 0.000000
-31.497400 0.000000
-31.450100 0.000000
-31.402700 0.000000
-31.355400 0.000000
-31.308000 0.000000
-31.260700 0.000000
-31.213300 0.000000
-31.166000 0.000000
-31.118700 0.000000
-31.071300 0.000000
-31.024000 0.000000
-30.976600 0.000000
-30.929300 0.000000
-30.881900 0.000000
-30.834600 0.000000
-30.787200 0.000000
-30.739900 0.000000
-30.692500 0.000000
-30.645200 0.000000
-30.597800 0.000000
-30.550500 0.000000
-30.503200 0.000000
-30.455800 0.000000
-30.408500 0.000000
-30.361100 0.000000
-30.313800 0.000000
-30.266400 0.000000
-30.219100 0.000000
-30.171700 0.000000
-30.124400 0.000000
-30.077000 0.000000
-30.029700 0.000000
-29.982400 0.000000
-29.935000 0.000000
-29.887700 0.000000
-29.840300 0.000000
-29.793000 0.000000
-29.745600 0.000000
-29.698300 0.000000
-29.650900 0.000000
-29.603600 0.000000
-29.556200 0.000000
-29.508900 0.000000
-29.461600 0.000000
-29.414200 0.000000
-29.366900 0.000000
-29.319500 0.000000
-29.272200 0.000000
-29.224800 0.000000
-29.177500 0.000000
-29.130100 0.000000
-29.082800 0.000000
-29.035400 0.000000
-28.988100 0.000000
-28.940700 0.000000
-28.893400 0.000000
-28.846100 0.000000
-28.798700 0.000000
-28.751400 0.000000
-28.704000 0.000000
-28.656700 0.000000
-28.609300 0.000000
-28.562000 0.000000
-28.514600 0.000000
-28.467300 0.000000
-28.419900 0.000000
-28.372600 0.000000
-28.325300 0.000000
-28.277900 0.000000
-28.230600 0.000000
-28.183200 0.000000
-28.135900 0.000000
-28.088500 0.000000
-28.041200 0.000000
-27.993800 0.000000
-27.946500 0.000000
-27.899100 0.000000
-27.851800 0.000000
-27.804400 0.000000
-27.757100 0.000000
-27.709800 0.000000
-27.662400 0.000000
-27.615100 0.000000
-27.567700 0.000000
-27.520400 0.000000
-27.473000 0.000000
-27.425700 0.000000
-27.378300 0.000000
-27.331000 0.000000
-27.283600 0.000000
-27.236300 0.000000
-27.189000 0.000000
-27.141600 0.000000
-27.094300 0.000000
-27.046900 0.000000
-26.999600 0.000000
-26.952200 0.000000
-26.904900 0.000000
-26.857500 0.000000
-26.810200 0.000000
-26.762800 0.000000
-26.715500 0.000000
-26.668100 0.000000
-26.620800 0.000000
-26.573500 0.000000
-26.526100 0.000000
-26.478800 0.000000
-26.431400 0.000000
-26.384100 0.000000
-26.336700 0.000000
-26.289400 0.000000
-26.242000 0.000000
-26.194700 0.000000
-26.147300 0.000000
-26.100000 0.000000
-26.052700 0.000000
-26.005300 0.000000
-25.958000 0.000000
-25.910600 0.000000
-25.863300 0.000000
-25.815900 0.000000
-25.768600 0.000000
-25.721200 0.000000
-25.673900 0.000000
-25.626500 0.000000
-25.579200 0.000000
-25.531900 0.000000
-25.484500 0.000000
-25.437200 0.000000
-25.389800 0.000000
-25.342500 0.000000
-25.295100 0.000000
-25.247800 0.000000
-25.200400 0.000000
-25.153100 0.000000
-25.105700 0.000000
-25.058400 0.000000
-25.011000 0.000000
-24.963700 0.000000
-24.916400 0.000000
-24.869000 0.000000
-24.821700 0.000000
-24.774300 0.000000
-24.727000 0.000000
-24.679600 0.000000
-24.632300 0.000000
-24.584900 0.000000
-24.537600 0.000000
-24.490200 0.000000
-24.442900 0.000000
-24.395600 0.000000
-24.348200 0.000000
-24.300900 0.000000
-24.253500 0.000000
-24.206200 0.000000
-24.158800 0.000000
-24.111500 0.000000
-24.064100 0.000000
-24.016800 0.000000
-23.969400 0.000000
-23.922100 0.000000
-23.874700 0.000000
-23.827400 0.000000
-23.780100 0.000000
-23.732700 0.000000
-23.685400 0.000000
-23.638000 0.000000
-23.590700 0.000000
-23.543300 0.000000
-23.496000 0.000000
-23.448600 0.000000
-23.401300 0.000000
-23.353900 0.000000
-23.306600 0.000000
-23.259300 0.000000
-23.211900 0.000000
-23.164600 0.000000
-23.117200 0.000000
-23.069900 0.000000
-23.022500 0.000000
-22.975200 0.000000
-22.927800 0.000000
-22.880500 0.000000
-22.833100 0.000000
-22.785800 0.000000
-22.738400 0.000000
-22.691100 0.000000
-22.643800 0.000000
-22.596400 0.000000
-22.549100 0.000000
-22.501700 0.000000
-22.454400 0.000000
-22.407000 0.000000
-22.359700 0.000000
-22.312300 0.000000
-22.265000 0.000000
-22.217600 0.000000
-22.170300 0.000000
-22.123000 0.000000
-22.075600 0.000000
-22.028300 0.000000
-21.980900 0.000000
-21.933600 0.000000
-21.886200 0.000000
-21.838900 0.000000
-21.791500 0.000000
-21.744200 0.000000
-21.696800 0.000000
-21.649500 0.000000
-21.602200 0.000000
-21.554800 0.000000
-21.507500 0.000000
-21.460100 0.000000
-21.412800 0.000000
-21.365400 0.000000
-21.318100 0.000000
-21.270700 0.000000
-21.223400 0.000000
-21.176000 0.000000
-21.128700 0.000000
-21.081300 0.000000
-21.034000 0.000000
-20.986700 0.000000
-20.939300 0.000000
-20.892000 0.000000
-20.844600 0.000000
-20.797300 0.000000
-20.749900 0.000000
-20.702600 0.000000
-20.655200 0.000000
-20.607900 0.000000
-20.560500 0.000000
-20.513200 0.000000
-20.465900 0.000000
-20.418500 0.000000
-20.371200 0.000000
-20.323800 0.000000
-20.276500 0.000000
-20.229100 0.000000
-20.181800 0.000000
-20.134400 0.000000
-20.087100 0.000000
-20.039700 0.000000
-19.992400 0.000000
-19.945000 0.000000
-19.897700 0.000000
-19.850400 0.000000
-19.803000 0.000000
-19.755700 0.000000
-19.708300 0.000000
-19.661000 0.000000
-19.613600 0.000000
-19.566300 0.000000
-19.518900 0.000000
-19.471600 0.000000
-19.424200 0.000000
-19.376900 0.000000
-19.329600 0.000000
-19.282200 0.000000
-19.234900 0.000000
-19.187500 0.000000
-19.140200 0.000000
-19.092800 0.000000
-19.045500 0.000000
-18.998100 0.000000
-18.950800 0.000000
-18.903400 0.000000
-18.856100 0.000000
-18.808700 0.000000
-18.761400 0.000000
-18.714100 0.000000
-18.666700 0.000000
-18.619400 0.000000
-18.572000 0.000000
-18.524700 0.000000
-18.477300 0.000000
-18.430000 0.000000
-18.382600 0.000000
-18.335300 0.000000
-18.287900 0.000000
-18.240600 0.000000
-18.193300 0.000000
-18.145900 0.000000
-18.098600 0.000000
-18.051200 0.000000
-18.003900 0.000000
-17.956500 0.000000
-17.909200 0.000000
-17.861800 0.000000
-17.814500 0.000000
-17.767100 0.000000
-17.719800 0.000000
-17.672500 0.000000
-17.625100 0.000000
-17.577800 0.000000
-17.530400 0.000000
-17.483100 0.000000
-17.435700 0.000000
-17.388400 0.000000
-17.341000 0.000000
-17.293700 0.000000
-17.246300 0.000000
-17.199000 0.000000
-17.151600 0.000000
-17.104300 0.000000
-17.057000 0.000000
-17.009600 0.000000
-16.962300 0.000000
-16.914900 0.000000
-16.867600 0.000000
-16.820200 0.000000
-16.772900 0.000000
-16.725500 0.000000
-16.678200 0.000000
-16.630800 0.000000
-16.583500 0.000000
-16.536200 0.000000
-16.488800 0.000000
-16.441500 0.000000
-16.394100 0.000000
-16.346800 0.000000
-16.299400 0.000000
-16.252100 0.000000
-16.204700 0.000000
-16.157400 0.000000
-16.110000 0.000000
-16.062700 0.000000
-16.015300 0.000000
-15.968000 0.000000
-15.920700 0.050400
-15.873300 0.161100
-15.826000 0.314600
-15.778600 0.364600
-15.731300 0.366300
-15.683900 0.357000
-15.636600 0.382300
-15.589200 0.407600
-15.541900 0.432900
-15.494500 0.459400
-15.447200 0.487800
-15.399900 0.524100
-15.352500 0.568400
-15.305200 0.619900
-15.257800 0.714700
-15.210500 0.929000
-15.163100 2.791600
-15.115800 3.460200
-15.068400 2.115000
-15.021100 1.934300
-14.973700 1.680000
-14.926400 1.285900
-14.879000 0.252500
-14.831700 0.000000
-14.784400 0.918800
-14.737000 2.827500
-14.689700 3.797100
-14.642300 4.064800
-14.595000 3.341000
-14.547600 2.302400
-14.500300 1.742800
-14.452900 0.669900
-14.405600 0.561600
-14.358200 0.361100
-14.310900 0.226200
-14.263600 0.043600
-14.216200 0.000000
-14.168900 0.000000
-14.121500 0.000000
-14.074200 0.000000
-14.026800 0.000000
-13.979500 0.000000
-13.932100 0.000000
-13.884800 0.000000
-13.837400 0.000000
-13.790100 0.000000
-13.742800 0.000000
-13.695400 0.000000
-13.648100 0.000000
-13.600700 0.000000
-13.553400 0.000000
-13.506000 0.000000
-13.458700 0.000000
-13.411300 0.000000
-13.364000 0.000000
-13.316600 0.000000
-13.269300 0.000000
-13.221900 0.000000
-13.174600 0.000000
-13.127300 0.000000
-13.079900 0.000000
-13.032600 0.000000
-12.985200 0.000000
-12.937900 0.000000
-12.890500 0.000000
-12.843200 0.000000
-12.795800 0.000000
-12.748500 0.000000
-12.701100 0.000000
-12.653800 0.000000
-12.606500 0.000000
-12.559100 0.000000
-12.511800 0.000000
-12.464400 0.000000
-12.417100 0.000000
-12.369700 0.000000
-12.322400 0.000000
-12.275000 0.000000
-12.227700 0.000000
-12.180300 0.000000
-12.133000 0.000000
-12.085600 0.000000
-12.038300 0.000000
-11.991000 0.000000
-11.943600 0.000000
-11.896300 0.000000
-11.848900 0.000000
-11.801600 0.000000
-11.754200 0.000000
-11.706900 0.000000
-11.659500 0.000000
-11.612200 0.000000
-11.564800 0.000000
-11.517500 0.000000
-11.470200 0.000000
-11.422800 0.000000
-11.375500 0.000000
-11.328100 0.000000
-11.280800 0.000000
-11.233400 0.000000
-11.186100 0.000000
-11.138700 0.000000
-11.091400 0.000000
-11.044000 0.000000
-10.996700 0.000000
-10.949300 0.000000
-10.902000 0.000000
-10.854700 0.000000
-10.807300 0.000000
-10.760000 0.000000
-10.712600 0.000000
-10.665300 0.000000
-10.617900 0.000000
-10.570600 0.000000
-10.523200 0.000000
-10.475900 0.000000
-10.428500 0.000000
-10.381200 0.000000
-10.333900 0.000000
-10.286500 0.000000
-10.239200 0.000000
-10.191800 0.000000
-10.144500 0.000000
-10.097100 0.000000
-10.049800 0.000000
-10.002400 0.000000
-9.955100 0.000000
-9.907700 0.000000
-9.860400 0.000000
-9.813100 0.000000
-9.765700 0.000000
-9.718400 0.000000
-9.671000 0.000000
-9.623700 0.000000
-9.576300 0.000000
-9.529000 0.000000
-9.481600 0.000000
-9.434300 0.000000
-9.386900 0.000000
-9.339600 0.000000
-9.292200 0.000000
-9.244900 0.000000
-9.197600 0.000000
-9.150200 0.000000
-9.102900 0.000000
-9.055500 0.000000
-9.008200 0.000000
-8.960800 0.000000
-8.913500 0.000000
-8.866100 0.000000
-8.818800 0.000000
-8.771400 0.000000
-8.724100 0.000000
-8.676800 0.000000
-8.629400 0.000000
-8.582100 0.000000
-8.534700 0.000000
-8.487400 0.000000
-8.440000 0.000000
-8.392700 0.000000
-8.345300 0.000000
-8.298000 0.000000
-8.250600 0.000000
-8.203300 0.000000
-8.155900 0.000000
-8.108600 0.000000
-8.061300 0.000000
-8.013900 0.000000
-7.966600 0.000000
-7.919200 0.000000
-7.871900 0.000000
-7.824500 0.000000
-7.777200 0.000000
-7.729800 0.000000
-7.682500 0.000000
-7.635100 0.000000
-7.587800 0.000000
-7.540500 0.000000
-7.493100 0.000000
-7.445800 0.000000
-7.398400 0.000000
-7.351100 0.000000
-7.303700 0.000000
-7.256400 0.000000
-7.209000 0.000000
-7.161700 0.000000
-7.114300 0.000000
-7.067000 0.000000
-7.019600 0.000000
-6.972300 0.000000
-6.925000 0.000000
-6.877600 0.000000
-6.830300 0.000000
-6.782900 0.000000
-6.735600 0.000000
-6.688200 0.000000
-6.640900 0.000000
-6.593500 0.000000
-6.546200 0.000000
-6.498800 0.000000
-6.451500 0.000000
-6.404200 0.000000
-6.356800 0.000000
-6.309500 0.000000
-6.262100 0.000000
-6.214800 0.000000
-6.167400 0.000000
-6.120100 0.000000
-6.072700 0.000000
-6.025400 0.000000
-5.978000 0.000000
-5.930700 0.000000
-5.883400 0.000000
-5.836000 0.000000
-5.788700 0.000000
-5.741300 0.000000
-5.694000 0.000000
-5.646600 0.000000
-5.599300 0.000000
-5.551900 0.000000
-5.504600 0.000000
-5.457200 0.000000
-5.409900 0.000000
-5.362500 0.000000
-5.315200 0.000000
-5.267900 0.000000
-5.220500 0.000000
-5.173200 0.000000
-5.125800 0.000000
-5.078500 0.000000
-5.031100 0.000000
-4.983800 0.000000
-4.936400 0.000000
-4.889100 0.000000
-4.841700 0.000000
-4.794400 0.000000
-4.747100 0.000000
-4.699700 0.000000
-4.652400 0.000000
-4.605000 0.000000
-4.557700 0.000000
-4.510300 0.000000
-4.463000 0.000000
-4.415600 0.000000
-4.368300 0.000000
-4.320900 0.000000
-4.273600 0.000000
-4.226200 0.000000
-4.178900 0.000000
-4.131600 0.000000
-4.084200 0.000000
-4.036900 0.000000
-3.989500 0.000000
-3.942200 0.000000
-3.894800 0.000000
-3.847500 0.000000
-3.800100 0.000000
-3.752800 0.000000
-3.705400 0.000000
-3.658100 0.000000
-3.610800 0.000000
-3.563400 0.000000
-3.516100 0.000000
-3.468700 0.000000
-3.421400 0.025300
-3.374000 0.061900
-3.326700 0.089100
-3.279300 0.250300
-3.232000 0.342400
-3.184600 0.453000
-3.137300 0.658600
-3.089900 0.847900
-3.042600 0.930200
-2.995300 1.072000
-2.947900 1.293600
-2.900600 1.755300
-2.853200 2.092100
-2.805900 2.087400
-2.758500 2.409800
-2.711200 2.564100
-2.663800 2.179900
-2.616500 1.836500
-2.569100 1.470200
-2.521800 1.282100
-2.474500 1.054500
-2.427100 0.945900
-2.379800 0.897800
-2.332400 0.941400
-2.285100 0.985400
-2.237700 1.479700
-2.190400 2.373200
-2.143000 2.408800
-2.095700 2.280500
-2.048300 2.193400
-2.001000 2.152200
-1.953700 1.811700
-1.906300 1.705600
-1.859000 1.762900
-1.811600 1.678100
-1.764300 1.227900
-1.716900 0.713100
-1.669600 0.671000
-1.622200 0.691400
-1.574900 0.762300
-1.527500 0.861600
-1.480200 0.985800
-1.432800 1.126900
-1.385500 1.286900
-1.338200 1.208800
-1.290800 1.186000
-1.243500 1.139700
-1.196100 1.103500
-1.148800 1.023500
-1.101400 0.998000
-1.054100 0.966400
-1.006700 0.928700
-0.959400 0.876600
-0.912000 0.905100
-0.864700 0.992200
-0.817400 1.244300
-0.770000 1.394200
-0.722700 1.730800
-0.675300 2.006000
-0.628000 2.169600
-0.580600 2.263600
-0.533300 1.417300
-0.485900 1.268100
-0.438600 1.129600
-0.391200 1.276200
-0.343900 1.733500
-0.296500 2.399100
-0.249200 3.236400
-0.201900 2.859900
-0.154500 1.957300
-0.107200 1.428500
-0.059800 1.099400
-0.012500 0.980700
0.034900 0.980000
0.082200 0.693000
0.129600 0.622200
0.176900 0.554800
0.224300 0.511000
0.271600 0.498500
0.318900 0.566600
0.366300 0.805000
0.413600 0.782900
0.461000 0.779600
0.508300 0.849900
0.555700 0.999300
0.603000 1.127700
0.650400 1.177700
0.697700 1.254300
0.745100 1.407000
0.792400 1.460300
0.839800 1.482700
0.887100 1.438700
0.934400 1.489000
0.981800 1.621000
1.029100 1.668900
1.076500 1.239300
1.123800 0.970300
1.171200 0.798500
1.218500 0.727200
1.265900 0.673800
1.313200 0.162500
1.360600 0.000000
1.407900 0.000000
1.455200 0.017000
1.502600 0.100600
1.549900 0.292600
1.597300 0.503500
1.644600 0.616200
1.692000 0.686200
1.739300 0.735000
1.786700 0.795700
1.834000 0.906200
1.881400 0.915700
1.928700 0.796600
1.976100 0.846700
2.023400 0.967800
2.070700 1.012700
2.118100 1.009100
2.165400 1.090100
2.212800 1.164000
2.260100 1.173000
2.307500 0.966300
2.354800 0.878600
2.402200 0.799500
2.449500 0.737500
2.496900 0.700500
2.544200 0.721800
2.591500 0.786900
2.638900 0.754300
2.686200 0.556500
2.733600 0.333400
2.780900 0.000000
2.828300 0.000000
2.875600 0.000000
2.923000 0.000000
2.970300 0.000000
3.017700 0.000000
3.065000 0.000000
3.112300 0.000000
3.159700 0.000000
3.207000 0.000000
3.254400 0.000000
3.301700 0.000000
3.349100 0.000000
3.396400 0.000000
3.443800 0.000000
3.491100 0.000000
3.538500 0.000000
3.585800 0.000000
3.633200 0.000000
3.680500 0.000000
3.727800 0.000000
3.775200 0.000000
3.822500 0.000000
3.869900 0.000000
3.917200 0.000000
3.964600 0.000000
4.011900 0.000000
4.059300 0.000000
4.106600 0.000000
4.154000 0.054100
4.201300 0.100600
4.248600 0.150900
4.296000 0.196900
4.343300 0.234300
4.390700 0.275900
4.438000 0.323200
4.485400 0.406600
4.532700 0.472800
4.580100 0.510700
4.627400 0.525800
4.674800 0.540100
4.722100 0.606500
4.769500 0.667100
4.816800 0.767000
4.864100 0.882700
4.911500 1.006200
4.958800 1.286300
5.006200 1.540000
5.053500 1.835700
5.100900 2.769700
5.148200 2.320700
5.195600 1.678000
5.242900 1.430900
5.290300 1.011800
5.337600 0.702700
5.384900 0.484700
5.432300 0.506000
5.479600 0.602000
5.527000 0.737800
5.574300 0.861000
5.621700 1.050800
5.669000 1.426200
5.716400 1.468300
5.763700 1.324000
5.811100 1.073000
5.858400 0.936400
5.905800 0.918200
5.953100 0.901900
6.000400 0.982000
6.047800 1.180800
6.095100 1.422100
6.142500 1.515300
6.189800 1.313700
6.237200 0.716000
6.284500 0.000000
6.331900 0.000000
6.379200 0.000000
6.426600 0.000000
6.473900 0.000000
6.521200 0.000000
6.568600 0.000000
6.615900 0.000000
6.663300 0.000000
6.710600 0.000000
6.758000 0.000000
6.805300 0.000000
6.852700 0.000000
6.900000 0.000000
6.947400 0.014600
6.994700 0.062700
7.042000 0.159500
7.089400 0.401000
7.136700 0.614100
7.184100 0.775800
7.231400 0.954200
7.278800 1.190100
7.326100 1.412500
7.373500 1.872500
7.420800 1.855000
7.468200 2.211500
7.515500 2.753200
7.562900 2.554900
7.610200 1.792800
7.657500 0.455900
7.704900 0.318800
7.752200 0.402800
7.799600 1.147500
7.846900 1.486100
7.894300 1.740400
7.941600 1.690000
7.989000 1.452100
8.036300 1.539600
8.083700 1.600000
8.131000 1.735700
8.178300 1.936400
8.225700 2.103800
8.273000 1.988500
8.320400 1.568400
8.367700 1.101400
8.415100 0.655800
8.462400 0.411500
8.509800 0.274700
8.557100 0.195600
8.604500 0.131900
8.651800 0.105500
8.699200 0.088900
8.746500 0.050700
8.793800 0.053800
8.841200 0.057000
8.888500 0.060500
8.935900 0.064100
8.983200 0.068000
9.030600 0.072000
9.077900 0.075700
9.125300 0.078900
9.172600 0.081200
9.220000 0.081100
9.267300 0.082100
9.314600 0.084900
9.362000 0.087600
9.409300 0.090300
9.456700 0.093000
9.504000 0.095500
9.551400 0.098100
9.598700 0.100700
9.646100 0.103400
9.693400 0.106100
9.740800 0.108800
9.788100 0.111700
9.835500 0.114600
9.882800 0.117800
9.930100 0.121000
9.977500 0.124400
10.024800 0.129400
10.072200 0.141900
10.119500 0.167000
10.166900 0.162100
10.214200 0.152500
10.261600 0.143400
10.308900 0.146400
10.356300 0.149700
10.403600 0.153000
10.450900 0.156500
10.498300 0.160100
10.545600 0.164300
10.593000 0.169200
10.640300 0.174000
10.687700 0.178900
10.735000 0.184200
10.782400 0.189500
10.829700 0.195400
10.877100 0.202200
10.924400 0.208500
10.971700 0.214700
11.019100 0.222000
11.066400 0.234900
11.113800 0.247000
11.161100 0.256900
11.208500 0.266400
11.255800 0.275300
11.303200 0.283900
11.350500 0.292900
11.397900 0.302200
11.445200 0.311400
11.492600 0.320700
11.539900 0.331400
11.587200 0.343700
11.634600 0.356500
11.681900 0.369600
11.729300 0.383300
11.776600 0.398300
11.824000 0.415100
11.871300 0.444600
11.918700 0.462500
11.966000 0.480600
12.013400 0.499800
12.060700 0.522200
12.108000 0.545300
12.155400 0.566700
12.202700 0.584100
12.250100 0.597400
12.297400 0.601400
12.344800 0.599300
12.392100 0.596700
12.439500 0.586600
12.486800 0.561300
12.534200 0.531800
12.581500 0.501200
12.628900 0.473700
12.676200 0.448700
12.723500 0.441700
12.770900 0.445300
12.818200 0.450100
12.865600 0.455300
12.912900 0.460900
12.960300 0.465000
13.007600 0.457500
13.055000 0.429100
13.102300 0.421200
13.149700 0.418300
13.197000 0.426700
13.244300 0.433700
13.291700 0.442100
13.339000 0.448700
13.386400 0.451000
13.433700 0.448300
13.481100 0.443900
13.528400 0.439100
13.575800 0.439900
13.623100 0.441200
13.670500 0.445100
13.717800 0.451700
13.765200 0.462600
13.812500 0.481000
13.859800 0.507200
13.907200 0.540500
13.954500 0.587200
14.001900 0.599100
14.049200 0.611800
14.096600 0.604900
14.143900 0.683400
14.191300 0.812800
14.238600 0.890600
14.286000 0.775600
14.333300 0.755200
14.380600 0.682100
14.428000 0.587800
14.475300 0.555800
14.522700 0.465100
14.570000 0.305300
14.617400 0.230700
14.664700 0.176700
14.712100 0.145200
14.759400 0.159700
14.806800 0.202700
14.854100 0.259600
14.901400 0.315400
14.948800 0.367500
14.996100 0.378800
15.043500 0.410800
15.090800 0.462800
15.138200 0.563500
15.185500 0.729900
15.232900 0.888500
15.280200 0.992400
15.327600 1.102900
15.374900 1.172300
15.422300 1.028600
15.469600 0.760300
15.516900 0.578900
15.564300 0.490500
15.611600 0.441100
15.659000 0.406100
15.706300 0.390400
15.753700 0.479100
15.801000 0.517400
15.848400 0.530200
15.895700 0.555300
15.943100 0.593900
15.990400 0.626500
16.037700 0.679000
16.085100 0.772300
16.132400 0.820300
16.179800 0.843900
16.227100 0.840400
16.274500 0.839700
16.321800 0.866500
16.369200 0.990800
16.416500 0.995200
16.463900 0.965500
16.511200 0.940500
16.558600 0.827800
16.605900 0.731000
16.653200 0.650700
16.700600 0.552800
16.747900 0.527300
16.795300 0.510400
16.842600 0.496600
16.890000 0.494100
16.937300 0.549900
16.984700 0.646900
17.032000 0.545500
17.079400 0.464800
17.126700 0.440300
17.174000 0.414200
17.221400 0.397900
17.268700 0.393200
17.316100 0.395700
17.363400 0.400100
17.410800 0.405200
17.458100 0.409800
17.505500 0.416900
17.552800 0.426400
17.600200 0.439600
17.647500 0.453200
17.694900 0.467200
17.742200 0.494000
17.789500 0.539500
17.836900 0.595200
17.884200 0.666200
17.931600 0.693600
17.978900 0.731900
18.026300 0.731300
18.073600 0.759400
18.121000 0.791000
18.168300 0.835000
18.215700 0.885400
18.263000 0.935100
18.310300 1.000200
18.357700 1.087700
18.405000 1.294800
18.452400 1.723300
18.499700 2.361900
18.547100 5.160700
18.594400 1.827700
18.641800 1.599000
18.689100 1.362500
18.736500 1.228500
18.783800 1.133000
18.831100 1.083900
18.878500 1.085900
18.925800 1.123400
18.973200 1.066200
19.020500 1.062900
19.067900 1.037300
19.115200 0.956300
19.162600 0.891400
19.209900 0.841100
19.257300 0.810800
19.304600 0.780600
19.352000 0.751800
19.399300 0.725700
19.446600 0.702700
19.494000 0.679700
19.541300 0.655800
19.588700 0.631300
19.636000 0.606300
19.683400 0.575000
19.730700 0.545100
19.778100 0.521700
19.825400 0.507800
19.872800 0.506300
19.920100 0.511100
19.967400 0.518100
20.014800 0.525500
20.062100 0.529700
20.109500 0.510300
20.156800 0.478100
20.204200 0.444700
20.251500 0.443100
20.298900 0.471300
20.346200 0.477200
20.393600 0.487700
20.440900 0.504000
20.488300 0.519200
20.535600 0.500300
20.582900 0.511300
20.630300 0.528600
20.677600 0.551400
20.725000 0.579800
20.772300 0.646900
20.819700 0.728500
20.867000 0.704800
20.914400 0.613500
20.961700 0.607600
21.009100 0.644200
21.056400 0.683700
21.103700 0.707600
21.151100 0.752900
21.198400 0.764300
21.245800 0.742600
21.293100 0.712700
21.340500 0.692300
21.387800 0.697200
21.435200 0.715000
21.482500 0.719800
21.529900 0.703700
21.577200 0.700700
21.624600 0.715900
21.671900 0.729500
21.719200 0.774700
21.766600 0.866300
21.813900 0.913700
21.861300 0.862600
21.908600 0.832300
21.956000 0.835300
22.003300 0.833200
22.050700 0.837000
22.098000 0.815200
22.145400 0.743500
22.192700 0.717000
22.240000 0.696800
22.287400 0.641800
22.334700 0.525200
22.382100 0.510400
22.429400 0.508600
22.476800 0.514800
22.524100 0.538600
22.571500 0.583400
22.618800 0.620500
22.666200 0.655100
22.713500 0.670700
22.760800 0.679000
22.808200 0.710500
22.855500 0.765600
22.902900 0.802600
22.950200 0.799400
22.997600 0.816600
23.044900 0.801600
23.092300 0.805100
23.139600 0.790900
23.187000 0.769000
23.234300 0.749800
23.281700 0.716300
23.329000 0.668000
23.376300 0.614800
23.423700 0.568000
23.471000 0.522000
23.518400 0.506600
23.565700 0.567300
23.613100 0.557300
23.660400 0.525100
23.707800 0.514800
23.755100 0.527400
23.802500 0.543800
23.849800 0.555300
23.897100 0.563700
23.944500 0.571800
23.991800 0.582500
24.039200 0.584700
24.086500 0.624800
24.133900 0.633300
24.181200 0.641000
24.228600 0.649600
24.275900 0.656400
24.323300 0.656600
24.370600 0.656900
24.418000 0.647500
24.465300 0.647200
24.512600 0.650700
24.560000 0.655100
24.607300 0.669700
24.654700 0.679900
24.702000 0.690500
24.749400 0.713700
24.796700 0.739900
24.844100 0.755000
24.891400 0.757900
24.938800 0.757600
24.986100 0.744000
25.033400 0.745000
25.080800 0.765300
25.128100 0.727700
25.175500 0.708500
25.222800 0.701500
25.270200 0.687300
25.317500 0.655700
25.364900 0.639500
25.412200 0.640600
25.459600 0.637600
25.506900 0.648300
25.554300 0.767200
25.601600 0.821300
25.648900 0.802200
25.696300 0.755700
25.743600 0.766400
25.791000 0.760100
25.838300 0.744100
25.885700 0.731000
25.933000 0.720000
25.980400 0.712600
26.027700 0.709500
26.075100 0.666400
26.122400 0.646100
26.169700 0.639400
26.217100 0.638600
26.264400 0.650200
26.311800 0.651300
26.359100 0.643300
26.406500 0.644100
26.453800 0.673200
26.501200 0.717500
26.548500 0.759700
26.595900 0.800000
26.643200 0.818800
26.690500 0.806900
26.737900 0.771100
26.785200 0.715500
26.832600 0.656000
26.879900 0.602200
26.927300 0.550000
26.974600 0.480200
27.022000 0.428400
27.069300 0.398100
27.116700 0.400300
27.164000 0.428700
27.211400 0.403600
27.258700 0.441100
27.306000 0.484900
27.353400 0.524000
27.400700 0.563900
27.448100 0.598500
27.495400 0.613300
27.542800 0.649500
27.590100 0.693300
27.637500 0.735200
27.684800 0.767000
27.732200 0.794200
27.779500 0.818200
27.826800 0.827100
27.874200 0.834200
27.921500 0.836100
27.968900 0.785000
28.016200 0.762800
28.063600 0.762600
28.110900 0.714700
28.158300 0.672700
28.205600 0.642800
28.253000 0.609200
28.300300 0.599000
28.347700 0.599700
28.395000 0.592700
28.442300 0.619000
28.489700 0.599900
28.537000 0.590800
28.584400 0.587600
28.631700 0.593900
28.679100 0.606900
28.726400 0.628700
28.773800 0.657900
28.821100 0.691600
28.868500 0.724900
28.915800 0.766200
28.963100 0.814300
29.010500 0.827100
29.057800 0.842600
29.105200 0.869600
29.152500 0.899300
29.199900 0.937900
29.247200 0.979100
29.294600 1.042900
29.341900 1.096000
29.389300 1.093300
29.436600 1.107000
29.484000 1.118300
29.531300 1.143700
29.578600 1.180400
29.626000 1.144600
29.673300 1.106200
29.720700 1.101100
29.768000 1.053900
29.815400 0.980500
29.862700 0.885200
29.910100 0.805100
29.957400 0.746300
30.004800 0.698200
30.052100 0.663000
30.099400 0.672000
30.146800 0.701300
30.194100 0.730200
30.241500 0.751300
30.288800 0.749000
30.336200 0.757600
30.383500 0.779300
30.430900 0.850000
30.478200 0.854500
30.525600 0.889600
30.572900 0.933300
30.620200 0.978800
30.667600 1.092400
30.714900 1.142400
30.762300 1.228300
30.809600 1.362300
30.857000 1.329400
30.904300 1.307200
30.951700 1.309300
30.999000 1.408000
31.046400 1.329400
31.093700 1.298300
31.141100 1.288500
31.188400 1.237100
31.235700 1.263100
31.283100 1.214000
31.330400 1.134300
31.377800 1.058100
31.425100 1.020900
31.472500 0.988000
31.519800 0.964800
31.567200 0.967700
31.614500 1.034100
31.661900 1.017600
31.709200 0.960900
31.756500 0.907100
31.803900 0.854400
31.851200 0.840600
31.898600 0.826900
31.945900 0.823400
31.993300 0.841500
32.040600 0.926500
32.088000 1.061400
32.135300 1.220100
32.182700 1.271600
32.230000 1.225100
32.277400 1.172900
32.324700 1.144000
32.372000 1.163700
32.419400 1.051300
32.466700 0.898000
32.514100 0.823300
32.561400 0.782500
32.608800 0.752700
32.656100 0.750900
32.703500 0.764600
32.750800 0.782900
32.798200 0.719900
32.845500 0.703600
32.892800 0.675400
32.940200 0.640600
32.987500 0.606300
33.034900 0.577000
33.082200 0.565100
33.129600 0.586000
33.176900 0.640500
33.224300 0.661800
33.271600 0.714400
33.319000 0.780200
33.366300 0.823900
33.413700 0.899400
33.461000 0.943000
33.508300 0.967100
33.555700 0.977900
33.603000 0.986100
33.650400 0.997200
33.697700 0.998400
33.745100 0.981900
33.792400 0.966700
33.839800 0.960800
33.887100 0.937100
33.934500 0.920200
33.981800 0.868200
34.029100 0.764200
34.076500 0.672600
34.123800 0.638700
34.171200 0.624900
34.218500 0.615200
34.265900 0.605900
34.313200 0.613600
34.360600 0.640000
34.407900 0.714600
34.455300 0.863100
34.502600 1.106700
34.549900 1.356400
34.597300 1.482300
34.644600 1.494800
34.692000 1.486800
34.739300 1.451100
34.786700 1.447700
34.834000 1.378500
34.881400 1.361700
34.928700 1.259100
34.976100 1.176800
35.023400 1.106200
35.070800 1.024300
35.118100 0.905700
35.165400 0.710200
35.212800 0.628500
35.260100 0.560500
35.307500 0.516800
35.354800 0.487300
35.402200 0.462600
35.449500 0.445100
35.496900 0.439100
35.544200 0.456400
35.591600 0.504500
35.638900 0.584500
35.686200 0.651100
35.733600 0.716500
35.780900 0.801700
35.828300 0.885100
35.875600 0.963300
35.923000 1.027000
35.970300 1.072300
36.017700 1.140000
36.065000 1.112100
36.112400 1.073800
36.159700 1.013400
36.207100 0.994800
36.254400 0.994500
36.301700 0.988700
36.349100 0.976100
36.396400 0.950300
36.443800 0.975500
36.491100 0.994400
36.538500 0.979900
36.585800 0.934500
36.633200 0.881600
36.680500 0.848700
36.727900 0.824800
36.775200 0.810400
36.822500 0.812900
36.869900 0.837600
36.917200 0.865600
36.964600 0.914600
37.011900 0.982600
37.059300 1.039100
37.106600 1.078900
37.154000 1.136300
37.201300 1.152900
37.248700 1.173600
37.296000 1.192800
37.343400 1.173900
37.390700 1.206700
37.438000 1.254200
37.485400 1.202300
37.532700 1.128100
37.580100 1.095500
37.627400 1.077800
37.674800 1.075200
37.722100 1.089700
37.769500 1.106100
37.816800 1.113500
37.864200 1.124500
37.911500 1.132800
37.958800 1.163300
38.006200 1.168400
38.053500 1.181900
38.100900 1.225900
38.148200 1.219000
38.195600 1.235700
38.242900 1.208800
38.290300 1.197000
38.337600 1.187400
38.385000 1.175400
38.432300 1.157100
38.479600 1.144700
38.527000 1.169700
38.574300 1.152300
38.621700 1.126700
38.669000 1.153600
38.716400 1.162800
38.763700 1.139100
38.811100 1.089000
38.858400 1.009400
38.905800 0.981400
38.953100 0.939500
39.000500 0.924000
39.047800 0.923200
39.095100 0.952600
39.142500 0.988600
39.189800 1.040900
39.237200 1.117100
39.284500 1.196900
39.331900 1.279300
39.379200 1.174400
39.426600 1.084700
39.473900 1.030700
39.521300 0.953700
39.568600 0.914800
39.615900 0.882900
39.663300 0.878200
39.710600 0.860200
39.758000 0.816000
39.805300 0.795300
39.852700 0.799100
39.900000 0.805100
39.947400 0.794900
39.994700 0.818600
40.042100 0.867100
40.089400 0.943400
40.136800 0.997400
40.184100 0.909000
40.231400 0.850700
40.278800 0.822200
40.326100 0.822000
40.373500 0.761400
40.420800 0.703600
40.468200 0.705500
40.515500 0.742800
40.562900 0.788700
40.610200 0.806500
40.657600 0.840400
40.704900 0.860100
40.752200 0.872100
40.799600 0.890600
40.846900 0.909500
40.894300 0.933900
40.941600 0.974700
40.989000 1.014500
41.036300 1.023400
41.083700 1.018300
41.131000 1.002600
41.178400 0.979800
41.225700 0.945000
41.273100 0.910200
41.320400 0.890200
41.367700 0.872400
41.415100 0.847400
41.462400 0.800400
41.509800 0.762800
41.557100 0.751300
41.604500 0.759100
41.651800 0.789800
41.699200 0.845900
41.746500 0.950900
41.793900 1.061400
41.841200 1.174400
41.888500 1.176200
41.935900 1.082000
41.983200 1.020200
42.030600 0.951100
42.077900 0.884400
42.125300 0.825300
42.172600 0.782200
42.220000 0.788700
42.267300 0.813300
42.314700 0.831800
42.362000 0.853900
42.409300 0.862900
42.456700 0.860300
42.504000 0.962100
42.551400 0.994400
42.598700 1.016400
42.646100 1.035300
42.693400 1.039100
42.740800 0.953800
42.788100 0.879200
42.835500 0.834300
42.882800 0.828100
42.930200 0.842400
42.977500 0.854000
43.024800 0.842700
43.072200 0.807200
43.119500 0.779100
43.166900 0.765100
43.214200 0.744300
43.261600 0.727200
43.308900 0.730300
43.356300 0.782100
43.403600 0.742200
43.451000 0.818500
43.498300 0.878200
43.545600 0.947200
43.593000 1.005700
43.640300 1.049300
43.687700 1.091800
43.735000 1.146600
43.782400 1.198100
43.829700 1.242300
43.877100 1.124800
43.924400 1.044500
43.971800 0.965400
44.019100 0.924800
44.066500 0.888700
44.113800 0.795600
44.161100 0.670700
44.208500 0.597200
44.255800 0.551100
44.303200 0.527500
44.350500 0.542800
44.397900 0.602200
44.445200 0.631200
44.492600 0.664100
44.539900 0.708000
44.587300 0.811200
44.634600 0.902500
44.681900 1.014800
44.729300 1.155100
44.776600 1.214600
44.824000 1.268500
44.871300 1.267900
44.918700 1.222400
44.966000 1.216000
45.013400 1.167500
45.060700 1.125000
45.108100 1.086500
45.155400 1.047800
45.202800 1.006000
45.250100 0.953700
45.297400 0.893600
45.344800 0.837500
45.392100 0.801400
45.439500 0.749400
45.486800 0.706700
45.534200 0.672600
45.581500 0.707800
45.628900 0.756400
45.676200 0.822500
45.723600 0.905600
45.770900 1.015200
45.818200 1.147600
45.865600 1.244900
45.912900 1.338400
45.960300 1.420700
46.007600 1.457600
46.055000 1.463600
46.102300 1.551100
46.149700 1.394900
46.197000 1.191000
46.244400 1.052100
46.291700 0.929600
46.339100 0.870800
46.386400 0.824700
46.433700 0.746900
46.481100 0.778600
46.528400 0.883700
46.575800 1.006400
46.623100 1.110100
46.670500 1.190700
46.717800 1.297500
46.765200 1.392900
46.812500 1.491600
46.859900 1.498900
46.907200 1.464900
46.954500 1.486300
47.001900 1.412600
47.049200 1.363300
47.096600 1.119700
47.143900 0.987800
47.191300 0.881000
47.238600 0.806400
47.286000 0.752600
47.333300 0.687900
47.380700 0.654400
47.428000 0.657700
47.475300 0.711000
47.522700 0.783000
47.570000 0.898100
47.617400 0.996600
47.664700 1.183300
47.712100 1.271900
47.759400 1.435700
47.806800 1.624200
47.854100 1.713800
47.901500 1.698300
47.948800 1.534900
47.996200 1.373000
48.043500 1.144500
48.090800 0.993000
48.138200 0.866600
48.185500 0.840800
48.232900 0.828000
48.280200 0.833500
48.327600 0.863400
48.374900 0.953700
48.422300 0.988600
48.469600 1.162100
48.517000 1.392800
48.564300 1.361300
48.611600 1.399800
48.659000 1.275500
48.706300 1.212500
48.753700 1.163200
48.801000 1.112000
48.848400 0.998700
48.895700 0.867800
48.943100 0.731800
48.990400 0.634500
49.037800 0.551900
49.085100 0.468000
49.132500 0.381900
49.179800 0.311000
49.227100 0.266000
49.274500 0.250700
49.321800 0.238900
49.369200 0.229500
49.416500 0.223600
49.463900 0.215900
49.511200 0.200300
49.558600 0.182200
49.605900 0.171900
49.653300 0.161200
49.700600 0.155800
49.747900 0.144500
49.795300 0.135900
49.842600 0.140500
49.890000 0.152300
49.937300 0.157600
49.984700 0.125800
50.032000 0.098400
50.079400 0.075800
50.126700 0.058000
50.174100 0.045300
50.221400 0.038800
50.268800 0.036100
50.316100 0.033600
50.363400 0.031300
50.410800 0.029000
50.458100 0.026900
50.505500 0.024800
50.552800 0.022900
50.600200 0.021100
50.647500 0.019400
50.694900 0.017900
50.742200 0.016400
50.789600 0.015000
50.836900 0.013800
50.884200 0.012600
50.931600 0.011500
50.978900 0.010400
51.026300 0.009300
51.073600 0.008300
51.121000 0.007300
51.168300 0.006400
51.215700 0.005600
51.263000 0.004700
51.310400 0.004000
51.357700 0.003300
51.405000 0.002600
51.452400 0.002000
51.499700 0.001400
51.547100 0.000800
51.594400 0.000400
51.641800 0.000000
51.689100 0.000000
51.736500 0.000000
51.783800 0.000000
51.831200 0.000000
51.878500 0.000000
51.925900 0.000000
51.973200 0.000000
52.020500 0.000000
52.067900 0.000000
52.115200 0.000000
52.162600 0.000000
52.209900 0.000000
52.257300 0.000000
52.304600 0.000000
52.352000 0.000000
52.399300 0.000000
52.446700 0.000000
52.494000 0.000000
52.541300 0.000000
52.588700 0.000000
52.636000 0.000000
52.683400 0.000000
52.730700 0.000000
52.778100 0.000000
52.825400 0.000000
52.872800 0.000000
52.920100 0.000000
52.967500 0.000000
53.014800 0.000000
53.062200 0.000000
53.109500 0.000000
53.156800 0.000000
53.204200 0.000000
53.251500 0.000000
53.298900 0.000000
53.346200 0.000000
53.393600 0.000000
53.440900 0.000000
53.488300 0.000000
53.535600 0.000000
53.583000 0.000000
53.630300 0.000000
53.677600 0.000000
53.725000 0.000000
53.772300 0.000000
53.819700 0.000000
53.867000 0.000000
53.914400 0.000000
53.961700 0.000000
54.009100 0.000000
54.056400 0.000000
54.103800 0.000000
54.151100 0.000000
54.198500 0.000000
54.245800 0.000000
54.293100 0.000000
54.340500 0.000000
54.387800 0.000000
54.435200 0.000000
54.482500 0.000000
54.529900 0.000000
54.577200 0.000000
54.624600 0.000000
54.671900 0.000000
54.719300 0.000000
54.766600 0.000000
54.813900 0.000000
54.861300 0.000000
54.908600 0.000000
54.956000 0.000000
55.003300 0.000000
55.050700 0.000000
55.098000 0.000000
55.145400 0.000000
55.192700 0.000000
55.240100 0.000000
55.287400 0.000000
55.334700 0.000000
55.382100 0.000000
55.429400 0.000000
55.476800 0.000000
55.524100 0.000000
55.571500 0.000000
55.618800 0.000000
55.666200 0.000000
55.713500 0.000000
55.760900 0.000000
55.808200 0.000000
55.855600 0.000000
55.902900 0.000000
55.950200 0.000000
55.997600 0.000000
56.044900 0.000000
56.092300 0.000000
56.139600 0.000000
56.187000 0.000000
56.234300 0.000000
56.281700 0.000000
56.329000 0.000000
56.376400 0.000000
56.423700 0.000000
56.471000 0.000000
e
