set title 'mp-12875 - Density of States'
set xlabel 'Energy (eV)'
set ylabel 'DOS (states/eV)'
set grid
set xrange [-10:10]
set yrange [0:7.688]
set xzeroaxis lt -1
set terminal png size 800,600
set output 'mp-12875_dos_gnuplot.png'
plot '-' using 1:2 with lines title 'DOS'
-41.428600 0.000000
-41.391800 0.000000
-41.355100 0.000000
-41.318300 0.000000
-41.281500 0.000000
-41.244700 0.000000
-41.207900 0.000000
-41.171100 0.000000
-41.134300 0.000000
-41.097500 0.000000
-41.060700 0.000000
-41.024000 0.000000
-40.987200 0.000000
-40.950400 0.000000
-40.913600 0.000000
-40.876800 0.000000
-40.840000 0.000000
-40.803200 0.000000
-40.766400 0.000000
-40.729600 0.000000
-40.692900 0.000000
-40.656100 0.000000
-40.619300 0.000000
-40.582500 0.000000
-40.545700 0.000000
-40.508900 0.000000
-40.472100 0.000000
-40.435300 0.000000
-40.398500 0.000000
-40.361700 0.000000
-40.325000 0.000000
-40.288200 0.000000
-40.251400 0.000000
-40.214600 0.000000
-40.177800 0.000000
-40.141000 0.000000
-40.104200 0.000000
-40.067400 0.000000
-40.030600 0.000000
-39.993900 0.000000
-39.957100 0.000000
-39.920300 0.000000
-39.883500 0.000000
-39.846700 0.000000
-39.809900 0.000000
-39.773100 0.000000
-39.736300 0.000000
-39.699500 0.000000
-39.662800 0.000000
-39.626000 0.000000
-39.589200 0.000000
-39.552400 0.000000
-39.515600 0.000000
-39.478800 0.000000
-39.442000 0.000000
-39.405200 0.000000
-39.368400 0.000000
-39.331700 0.000000
-39.294900 0.000000
-39.258100 0.000000
-39.221300 0.000000
-39.184500 0.000000
-39.147700 0.000000
-39.110900 0.000000
-39.074100 0.000000
-39.037300 0.000000
-39.000600 0.000000
-38.963800 0.000000
-38.927000 0.000000
-38.890200 0.000000
-38.853400 0.000000
-38.816600 0.000000
-38.779800 0.000000
-38.743000 0.000000
-38.706200 0.000000
-38.669400 0.000000
-38.632700 0.000000
-38.595900 0.000000
-38.559100 0.000000
-38.522300 0.000000
-38.485500 0.000000
-38.448700 0.000000
-38.411900 0.000000
-38.375100 0.000000
-38.338300 0.000000
-38.301600 0.000000
-38.264800 0.000000
-38.228000 0.000000
-38.191200 0.000000
-38.154400 0.000000
-38.117600 0.000000
-38.080800 10.904700
-38.044000 10.904400
-38.007200 5.776800
-37.970500 5.776700
-37.933700 4.418200
-37.896900 38.296400
-37.860100 68.643000
-37.823300 76.030000
-37.786500 85.329800
-37.749700 6.053300
-37.712900 3.620000
-37.676100 3.620000
-37.639400 3.620000
-37.602600 4.024400
-37.565800 4.024400
-37.529000 4.024400
-37.492200 5.344200
-37.455400 5.344200
-37.418600 7.036100
-37.381800 9.952100
-37.345000 0.000000
-37.308200 0.000000
-37.271500 0.000000
-37.234700 0.000000
-37.197900 0.000000
-37.161100 0.000000
-37.124300 0.000000
-37.087500 0.000000
-37.050700 0.000000
-37.013900 0.000000
-36.977100 0.000000
-36.940400 0.000000
-36.903600 0.000000
-36.866800 0.000000
-36.830000 0.000000
-36.793200 0.000000
-36.756400 0.000000
-36.719600 0.000000
-36.682800 0.000000
-36.646000 0.000000
-36.609300 0.000000
-36.572500 0.000000
-36.535700 0.000000
-36.498900 0.000000
-36.462100 0.000000
-36.425300 0.000000
-36.388500 0.000000
-36.351700 0.000000
-36.314900 0.000000
-36.278200 0.000000
-36.241400 0.000000
-36.204600 0.000000
-36.167800 0.000000
-36.131000 0.000000
-36.094200 0.000000
-36.057400 0.000000
-36.020600 0.000000
-35.983800 0.000000
-35.947000 0.000000
-35.910300 0.000000
-35.873500 0.000000
-35.836700 0.000000
-35.799900 0.000000
-35.763100 0.000000
-35.726300 0.000000
-35.689500 0.000000
-35.652700 0.000000
-35.615900 0.000000
-35.579200 0.000000
-35.542400 0.000000
-35.505600 0.000000
-35.468800 0.000000
-35.432000 0.000000
-35.395200 0.000000
-35.358400 0.000000
-35.321600 0.000000
-35.284800 0.000000
-35.248100 0.000000
-35.211300 0.000000
-35.174500 0.000000
-35.137700 0.000000
-35.100900 0.000000
-35.064100 0.000000
-35.027300 0.000000
-34.990500 0.000000
-34.953700 0.000000
-34.917000 0.000000
-34.880200 0.000000
-34.843400 0.000000
-34.806600 0.000000
-34.769800 0.000000
-34.733000 0.000000
-34.696200 0.000000
-34.659400 0.000000
-34.622600 0.000000
-34.585800 0.000000
-34.549100 0.000000
-34.512300 0.000000
-34.475500 0.000000
-34.438700 0.000000
-34.401900 0.000000
-34.365100 0.000000
-34.328300 0.000000
-34.291500 0.000000
-34.254700 0.000000
-34.218000 0.000000
-34.181200 0.000000
-34.144400 0.000000
-34.107600 0.000000
-34.070800 0.000000
-34.034000 0.000000
-33.997200 0.000000
-33.960400 0.000000
-33.923600 0.000000
-33.886900 0.000000
-33.850100 0.000000
-33.813300 0.000000
-33.776500 0.000000
-33.739700 0.000000
-33.702900 0.000000
-33.666100 0.000000
-33.629300 0.000000
-33.592500 0.000000
-33.555800 0.000000
-33.519000 0.000000
-33.482200 0.000000
-33.445400 0.000000
-33.408600 0.000000
-33.371800 0.000000
-33.335000 0.000000
-33.298200 0.000000
-33.261400 0.000000
-33.224600 0.000000
-33.187900 0.000000
-33.151100 0.000000
-33.114300 0.000000
-33.077500 0.000000
-33.040700 0.000000
-33.003900 0.000000
-32.967100 0.000000
-32.930300 0.000000
-32.893500 0.000000
-32.856800 0.000000
-32.820000 0.000000
-32.783200 0.000000
-32.746400 0.000000
-32.709600 0.000000
-32.672800 0.000000
-32.636000 0.000000
-32.599200 0.000000
-32.562400 0.000000
-32.525700 0.000000
-32.488900 0.000000
-32.452100 0.000000
-32.415300 0.000000
-32.378500 0.000000
-32.341700 0.000000
-32.304900 0.000000
-32.268100 0.000000
-32.231300 0.000000
-32.194600 0.000000
-32.157800 0.000000
-32.121000 0.000000
-32.084200 0.000000
-32.047400 0.000000
-32.010600 0.000000
-31.973800 0.000000
-31.937000 0.000000
-31.900200 0.000000
-31.863500 0.000000
-31.826700 0.000000
-31.789900 0.000000
-31.753100 0.000000
-31.716300 0.000000
-31.679500 0.000000
-31.642700 0.000000
-31.605900 0.000000
-31.569100 0.000000
-31.532300 0.000000
-31.495600 0.000000
-31.458800 0.000000
-31.422000 0.000000
-31.385200 0.000000
-31.348400 0.000000
-31.311600 0.000000
-31.274800 0.000000
-31.238000 0.000000
-31.201200 0.000000
-31.164500 0.000000
-31.127700 0.000000
-31.090900 0.000000
-31.054100 0.000000
-31.017300 0.000000
-30.980500 0.000000
-30.943700 0.000000
-30.906900 0.000000
-30.870100 0.000000
-30.833400 0.000000
-30.796600 0.000000
-30.759800 0.000000
-30.723000 0.000000
-30.686200 0.000000
-30.649400 0.000000
-30.612600 0.000000
-30.575800 0.000000
-30.539000 0.000000
-30.502300 0.000000
-30.465500 0.000000
-30.428700 0.000000
-30.391900 0.000000
-30.355100 0.000000
-30.318300 0.000000
-30.281500 0.000000
-30.244700 0.000000
-30.207900 0.000000
-30.171100 0.000000
-30.134400 0.000000
-30.097600 0.000000
-30.060800 0.000000
-30.024000 0.000000
-29.987200 0.000000
-29.950400 0.000000
-29.913600 0.000000
-29.876800 0.000000
-29.840000 0.000000
-29.803300 0.000000
-29.766500 0.000000
-29.729700 0.000000
-29.692900 0.000000
-29.656100 0.000000
-29.619300 0.000000
-29.582500 0.000000
-29.545700 0.000000
-29.508900 0.000000
-29.472200 0.000000
-29.435400 0.000000
-29.398600 0.000000
-29.361800 0.000000
-29.325000 0.000000
-29.288200 0.000000
-29.251400 0.000000
-29.214600 0.000000
-29.177800 0.000000
-29.141100 0.000000
-29.104300 0.000000
-29.067500 0.000000
-29.030700 0.000000
-28.993900 0.000000
-28.957100 0.000000
-28.920300 0.000000
-28.883500 0.000000
-28.846700 0.000000
-28.809900 0.000000
-28.773200 0.000000
-28.736400 0.000000
-28.699600 0.000000
-28.662800 0.000000
-28.626000 0.000000
-28.589200 0.000000
-28.552400 0.000000
-28.515600 0.000000
-28.478800 0.000000
-28.442100 0.000000
-28.405300 0.000000
-28.368500 0.000000
-28.331700 0.000000
-28.294900 0.000000
-28.258100 0.000000
-28.221300 0.000000
-28.184500 0.000000
-28.147700 0.000000
-28.111000 0.000000
-28.074200 0.000000
-28.037400 0.000000
-28.000600 0.000000
-27.963800 0.000000
-27.927000 0.000000
-27.890200 0.000000
-27.853400 0.000000
-27.816600 0.000000
-27.779900 0.000000
-27.743100 0.000000
-27.706300 0.000000
-27.669500 0.000000
-27.632700 0.000000
-27.595900 0.000000
-27.559100 0.000000
-27.522300 0.000000
-27.485500 0.000000
-27.448700 0.000000
-27.412000 0.000000
-27.375200 0.000000
-27.338400 0.000000
-27.301600 0.000000
-27.264800 0.000000
-27.228000 0.000000
-27.191200 0.000000
-27.154400 0.000000
-27.117600 0.000000
-27.080900 0.000000
-27.044100 0.000000
-27.007300 0.000000
-26.970500 0.000000
-26.933700 0.000000
-26.896900 0.000000
-26.860100 0.000000
-26.823300 0.000000
-26.786500 0.000000
-26.749800 0.000000
-26.713000 0.000000
-26.676200 0.000000
-26.639400 0.000000
-26.602600 0.000000
-26.565800 0.000000
-26.529000 0.000000
-26.492200 0.000000
-26.455400 0.000000
-26.418700 0.000000
-26.381900 0.000000
-26.345100 0.000000
-26.308300 0.000000
-26.271500 0.000000
-26.234700 0.000000
-26.197900 0.000000
-26.161100 0.000000
-26.124300 0.000000
-26.087500 0.000000
-26.050800 0.000000
-26.014000 0.000000
-25.977200 0.000000
-25.940400 0.000000
-25.903600 0.000000
-25.866800 0.000000
-25.830000 0.000000
-25.793200 0.000000
-25.756400 0.000000
-25.719700 0.000000
-25.682900 0.000000
-25.646100 0.000000
-25.609300 0.000000
-25.572500 0.000000
-25.535700 0.000000
-25.498900 0.000000
-25.462100 0.000000
-25.425300 0.000000
-25.388600 0.000000
-25.351800 0.000000
-25.315000 0.000000
-25.278200 0.000000
-25.241400 0.000000
-25.204600 0.000000
-25.167800 0.000000
-25.131000 0.000000
-25.094200 0.000000
-25.057500 0.000000
-25.020700 0.000000
-24.983900 0.000000
-24.947100 0.000000
-24.910300 0.000000
-24.873500 0.000000
-24.836700 0.000000
-24.799900 0.000000
-24.763100 0.000000
-24.726400 0.000000
-24.689600 0.000000
-24.652800 0.000000
-24.616000 0.000000
-24.579200 0.000000
-24.542400 0.000000
-24.505600 0.000000
-24.468800 0.000000
-24.432000 0.000000
-24.395200 0.000000
-24.358500 0.000000
-24.321700 0.000000
-24.284900 0.000000
-24.248100 0.000000
-24.211300 0.000000
-24.174500 0.000000
-24.137700 0.000000
-24.100900 0.000000
-24.064100 0.000000
-24.027400 0.000000
-23.990600 0.000000
-23.953800 0.000000
-23.917000 0.000000
-23.880200 0.000000
-23.843400 0.000000
-23.806600 0.000000
-23.769800 0.000000
-23.733000 0.000000
-23.696300 0.000000
-23.659500 0.000000
-23.622700 0.000000
-23.585900 0.000000
-23.549100 0.000000
-23.512300 0.000000
-23.475500 0.000000
-23.438700 0.000000
-23.401900 0.000000
-23.365200 0.000000
-23.328400 0.000000
-23.291600 0.000000
-23.254800 0.000000
-23.218000 0.000000
-23.181200 0.000000
-23.144400 0.000000
-23.107600 0.000000
-23.070800 0.000000
-23.034000 0.000000
-22.997300 0.000000
-22.960500 0.000000
-22.923700 0.000000
-22.886900 0.000000
-22.850100 0.000000
-22.813300 0.000000
-22.776500 0.000000
-22.739700 0.000000
-22.702900 0.000000
-22.666200 0.000000
-22.629400 0.000000
-22.592600 0.000000
-22.555800 0.000000
-22.519000 0.000000
-22.482200 0.000000
-22.445400 0.000000
-22.408600 0.000000
-22.371800 0.000000
-22.335100 0.000000
-22.298300 0.000000
-22.261500 0.000000
-22.224700 0.000000
-22.187900 0.000000
-22.151100 0.000000
-22.114300 0.000000
-22.077500 0.000000
-22.040700 0.000000
-22.004000 0.000000
-21.967200 0.000000
-21.930400 0.000000
-21.893600 0.000000
-21.856800 0.000000
-21.820000 0.000000
-21.783200 0.000000
-21.746400 0.000000
-21.709600 0.000000
-21.672800 0.000000
-21.636100 0.000000
-21.599300 0.000000
-21.562500 0.000000
-21.525700 0.000000
-21.488900 0.000000
-21.452100 0.000000
-21.415300 0.000000
-21.378500 0.000000
-21.341700 0.000000
-21.305000 0.000000
-21.268200 0.000000
-21.231400 0.000000
-21.194600 0.000000
-21.157800 0.000000
-21.121000 0.000000
-21.084200 0.000000
-21.047400 0.000000
-21.010600 0.000000
-20.973900 0.000000
-20.937100 0.000000
-20.900300 0.000000
-20.863500 0.000000
-20.826700 0.000000
-20.789900 0.000000
-20.753100 0.000000
-20.716300 0.000000
-20.679500 0.000000
-20.642800 0.000000
-20.606000 0.000000
-20.569200 0.000000
-20.532400 0.000000
-20.495600 0.000000
-20.458800 0.000000
-20.422000 0.000000
-20.385200 0.000000
-20.348400 0.000000
-20.311600 0.000000
-20.274900 0.000000
-20.238100 0.000000
-20.201300 0.000000
-20.164500 0.000000
-20.127700 0.000000
-20.090900 0.000000
-20.054100 0.000000
-20.017300 0.000000
-19.980500 0.000000
-19.943800 0.000000
-19.907000 0.000000
-19.870200 0.000000
-19.833400 0.000000
-19.796600 0.000000
-19.759800 0.000000
-19.723000 0.000000
-19.686200 0.000000
-19.649400 0.000000
-19.612700 0.000000
-19.575900 0.000000
-19.539100 0.000000
-19.502300 0.000000
-19.465500 0.000000
-19.428700 0.000000
-19.391900 0.000000
-19.355100 0.000000
-19.318300 0.000000
-19.281600 0.000000
-19.244800 0.000000
-19.208000 0.000000
-19.171200 0.000000
-19.134400 0.000000
-19.097600 0.000000
-19.060800 0.000000
-19.024000 0.000000
-18.987200 0.000000
-18.950400 0.000000
-18.913700 0.000000
-18.876900 0.000000
-18.840100 0.000000
-18.803300 0.000000
-18.766500 0.000000
-18.729700 0.000000
-18.692900 0.000000
-18.656100 0.000000
-18.619300 0.000000
-18.582600 0.000000
-18.545800 0.000000
-18.509000 0.000000
-18.472200 0.000000
-18.435400 0.000000
-18.398600 0.000000
-18.361800 0.000000
-18.325000 0.000000
-18.288200 0.000000
-18.251500 0.000000
-18.214700 0.000000
-18.177900 0.000000
-18.141100 0.000000
-18.104300 0.000000
-18.067500 0.000000
-18.030700 0.000000
-17.993900 0.000000
-17.957100 0.000000
-17.920400 0.000000
-17.883600 0.000000
-17.846800 0.000000
-17.810000 0.000000
-17.773200 0.000000
-17.736400 0.000000
-17.699600 0.000000
-17.662800 0.000000
-17.626000 0.000000
-17.589300 0.000000
-17.552500 0.000000
-17.515700 0.000000
-17.478900 0.000000
-17.442100 0.000000
-17.405300 0.000000
-17.368500 0.000000
-17.331700 0.000000
-17.294900 0.000000
-17.258100 0.000000
-17.221400 0.000000
-17.184600 0.000000
-17.147800 0.000000
-17.111000 0.000000
-17.074200 0.000000
-17.037400 0.000000
-17.000600 0.000000
-16.963800 0.000000
-16.927000 0.000000
-16.890300 0.000000
-16.853500 0.000000
-16.816700 0.000000
-16.779900 0.000000
-16.743100 0.000000
-16.706300 0.000000
-16.669500 0.000000
-16.632700 0.000000
-16.595900 0.000000
-16.559200 0.000000
-16.522400 0.000000
-16.485600 0.000000
-16.448800 0.000000
-16.412000 0.000000
-16.375200 0.000000
-16.338400 0.000000
-16.301600 0.000000
-16.264800 0.000000
-16.228100 0.000000
-16.191300 0.000000
-16.154500 0.000000
-16.117700 0.000000
-16.080900 0.000000
-16.044100 0.000000
-16.007300 0.000000
-15.970500 0.000000
-15.933700 0.000000
-15.896900 0.000000
-15.860200 0.000000
-15.823400 0.000000
-15.786600 0.123000
-15.749800 0.246600
-15.713000 0.334500
-15.676200 0.394200
-15.639400 0.459800
-15.602600 0.552900
-15.565800 0.614700
-15.529100 0.679000
-15.492300 0.750600
-15.455500 0.839200
-15.418700 0.949400
-15.381900 1.049200
-15.345100 1.182000
-15.308300 1.325400
-15.271500 1.529500
-15.234700 2.008500
-15.198000 2.159200
-15.161200 2.232200
-15.124400 2.049400
-15.087600 1.999600
-15.050800 2.031500
-15.014000 2.112400
-14.977200 2.219900
-14.940400 2.405700
-14.903600 2.679400
-14.866900 2.950800
-14.830100 3.283000
-14.793300 7.463400
-14.756500 7.924700
-14.719700 7.390800
-14.682900 7.800000
-14.646100 6.035400
-14.609300 5.474800
-14.572500 5.083200
-14.535700 5.064600
-14.499000 4.596300
-14.462200 4.440900
-14.425400 6.227900
-14.388600 6.131800
-14.351800 4.170500
-14.315000 3.638700
-14.278200 5.748200
-14.241400 9.567300
-14.204600 13.848100
-14.167900 12.576300
-14.131100 10.266600
-14.094300 8.914700
-14.057500 6.901100
-14.020700 4.986000
-13.983900 3.014100
-13.947100 2.865700
-13.910300 2.731300
-13.873500 2.684300
-13.836800 2.486500
-13.800000 2.463100
-13.763200 2.478000
-13.726400 1.955100
-13.689600 0.000000
-13.652800 0.000000
-13.616000 0.000000
-13.579200 0.000000
-13.542400 0.000000
-13.505700 0.000000
-13.468900 0.000000
-13.432100 0.000000
-13.395300 0.000000
-13.358500 0.000000
-13.321700 0.000000
-13.284900 0.000000
-13.248100 0.000000
-13.211300 0.000000
-13.174500 0.000000
-13.137800 0.000000
-13.101000 0.000000
-13.064200 0.000000
-13.027400 0.000000
-12.990600 0.000000
-12.953800 0.000000
-12.917000 0.000000
-12.880200 0.000000
-12.843400 0.000000
-12.806700 0.000000
-12.769900 0.000000
-12.733100 0.000000
-12.696300 0.000000
-12.659500 0.000000
-12.622700 0.000000
-12.585900 0.000000
-12.549100 0.000000
-12.512300 0.000000
-12.475600 0.000000
-12.438800 0.000000
-12.402000 0.000000
-12.365200 0.000000
-12.328400 0.000000
-12.291600 0.000000
-12.254800 0.000000
-12.218000 0.000000
-12.181200 0.000000
-12.144500 0.000000
-12.107700 0.000000
-12.070900 0.000000
-12.034100 0.000000
-11.997300 0.000000
-11.960500 0.000000
-11.923700 0.000000
-11.886900 0.000000
-11.850100 0.000000
-11.813300 0.000000
-11.776600 0.000000
-11.739800 0.000000
-11.703000 0.000000
-11.666200 0.000000
-11.629400 0.000000
-11.592600 0.000000
-11.555800 0.000000
-11.519000 0.000000
-11.482200 0.000000
-11.445500 0.000000
-11.408700 0.000000
-11.371900 0.000000
-11.335100 0.000000
-11.298300 0.000000
-11.261500 0.000000
-11.224700 0.000000
-11.187900 0.000000
-11.151100 0.000000
-11.114400 0.000000
-11.077600 0.000000
-11.040800 0.000000
-11.004000 0.000000
-10.967200 0.000000
-10.930400 0.000000
-10.893600 0.000000
-10.856800 0.000000
-10.820000 0.000000
-10.783300 0.000000
-10.746500 0.000000
-10.709700 0.000000
-10.672900 0.000000
-10.636100 0.000000
-10.599300 0.000000
-10.562500 0.000000
-10.525700 0.000000
-10.488900 0.000000
-10.452200 0.000000
-10.415400 0.000000
-10.378600 0.000000
-10.341800 0.000000
-10.305000 0.000000
-10.268200 0.000000
-10.231400 0.000000
-10.194600 0.000000
-10.157800 0.000000
-10.121000 0.000000
-10.084300 0.000000
-10.047500 0.000000
-10.010700 0.000000
-9.973900 0.000000
-9.937100 0.000000
-9.900300 0.000000
-9.863500 0.000000
-9.826700 0.000000
-9.789900 0.000000
-9.753200 0.000000
-9.716400 0.000000
-9.679600 0.000000
-9.642800 0.000000
-9.606000 0.000000
-9.569200 0.000000
-9.532400 0.000000
-9.495600 0.000000
-9.458800 0.000000
-9.422100 0.000000
-9.385300 0.000000
-9.348500 0.000000
-9.311700 0.000000
-9.274900 0.000000
-9.238100 0.000000
-9.201300 0.000000
-9.164500 0.000000
-9.127700 0.000000
-9.091000 0.000000
-9.054200 0.000000
-9.017400 0.000000
-8.980600 0.000000
-8.943800 0.000000
-8.907000 0.000000
-8.870200 0.000000
-8.833400 0.000000
-8.796600 0.000000
-8.759800 0.000000
-8.723100 0.000000
-8.686300 0.000000
-8.649500 0.000000
-8.612700 0.000000
-8.575900 0.000000
-8.539100 0.000000
-8.502300 0.000000
-8.465500 0.000000
-8.428700 0.000000
-8.392000 0.000000
-8.355200 0.000000
-8.318400 0.000000
-8.281600 0.000000
-8.244800 0.000000
-8.208000 0.000000
-8.171200 0.000000
-8.134400 0.000000
-8.097600 0.000000
-8.060900 0.000000
-8.024100 0.000000
-7.987300 0.000000
-7.950500 0.000000
-7.913700 0.000000
-7.876900 0.000000
-7.840100 0.000000
-7.803300 0.000000
-7.766500 0.000000
-7.729800 0.000000
-7.693000 0.000000
-7.656200 0.000000
-7.619400 0.000000
-7.582600 0.000000
-7.545800 0.000000
-7.509000 0.000000
-7.472200 0.000000
-7.435400 0.000000
-7.398600 0.000000
-7.361900 0.000000
-7.325100 0.000000
-7.288300 0.000000
-7.251500 0.000000
-7.214700 0.000000
-7.177900 0.000000
-7.141100 0.000000
-7.104300 0.000000
-7.067500 0.000000
-7.030800 0.000000
-6.994000 0.000000
-6.957200 0.000000
-6.920400 0.000000
-6.883600 0.000000
-6.846800 0.000000
-6.810000 0.000000
-6.773200 0.000000
-6.736400 0.000000
-6.699700 0.000000
-6.662900 0.000000
-6.626100 0.000000
-6.589300 0.000000
-6.552500 0.000000
-6.515700 0.000000
-6.478900 0.000000
-6.442100 0.000000
-6.405300 0.000000
-6.368600 0.000000
-6.331800 0.000000
-6.295000 0.000000
-6.258200 0.000000
-6.221400 0.000000
-6.184600 0.000000
-6.147800 0.000000
-6.111000 0.000000
-6.074200 0.000000
-6.037400 0.000000
-6.000700 0.000000
-5.963900 0.000000
-5.927100 0.000000
-5.890300 0.000000
-5.853500 0.000000
-5.816700 0.000000
-5.779900 0.000000
-5.743100 0.000000
-5.706300 0.000000
-5.669600 0.000000
-5.632800 0.000000
-5.596000 0.000000
-5.559200 0.000000
-5.522400 0.000000
-5.485600 0.000000
-5.448800 0.000000
-5.412000 0.000000
-5.375200 0.000000
-5.338500 0.000000
-5.301700 0.000000
-5.264900 0.000000
-5.228100 0.000000
-5.191300 0.000000
-5.154500 0.000000
-5.117700 0.000000
-5.080900 0.000000
-5.044100 0.000000
-5.007400 0.000000
-4.970600 0.000000
-4.933800 0.000000
-4.897000 0.000000
-4.860200 0.000000
-4.823400 0.000000
-4.786600 0.000000
-4.749800 0.000000
-4.713000 0.000000
-4.676300 0.000000
-4.639500 0.000000
-4.602700 0.000000
-4.565900 0.000000
-4.529100 0.000000
-4.492300 0.000000
-4.455500 0.000000
-4.418700 0.000000
-4.381900 0.000000
-4.345100 0.000000
-4.308400 0.064400
-4.271600 0.098000
-4.234800 0.137600
-4.198000 0.183100
-4.161200 0.263600
-4.124400 0.613900
-4.087600 0.919300
-4.050800 0.874500
-4.014000 0.946600
-3.977300 0.948700
-3.940500 0.930500
-3.903700 0.950000
-3.866900 0.974200
-3.830100 1.033500
-3.793300 1.078600
-3.756500 1.118200
-3.719700 1.143800
-3.682900 1.158700
-3.646200 1.190600
-3.609400 1.222900
-3.572600 1.262100
-3.535800 1.302300
-3.499000 1.343600
-3.462200 1.401800
-3.425400 1.463800
-3.388600 1.525200
-3.351800 3.998800
-3.315100 5.550600
-3.278300 4.866300
-3.241500 5.499800
-3.204700 6.989500
-3.167900 6.457700
-3.131100 5.568900
-3.094300 5.338700
-3.057500 5.604700
-3.020700 5.686000
-2.983900 6.093500
-2.947200 5.608800
-2.910400 5.092500
-2.873600 4.547600
-2.836800 4.163300
-2.800000 3.584300
-2.763200 3.124600
-2.726400 2.701800
-2.689600 2.496400
-2.652800 2.451000
-2.616100 2.254100
-2.579300 2.257000
-2.542500 2.277300
-2.505700 2.241200
-2.468900 2.492900
-2.432100 2.356800
-2.395300 2.227400
-2.358500 2.851600
-2.321700 3.458800
-2.285000 3.732500
-2.248200 4.017700
-2.211400 4.371500
-2.174600 4.729700
-2.137800 4.756600
-2.101000 4.393100
-2.064200 4.574700
-2.027400 5.019900
-1.990600 5.832200
-1.953900 5.558700
-1.917100 5.172200
-1.880300 4.689000
-1.843500 4.204000
-1.806700 3.742000
-1.769900 3.408200
-1.733100 2.940000
-1.696300 2.620900
-1.659500 3.126300
-1.622700 3.101900
-1.586000 3.091100
-1.549200 3.552300
-1.512400 3.604600
-1.475600 3.965900
-1.438800 4.189000
-1.402000 4.134800
-1.365200 3.646500
-1.328400 3.562900
-1.291600 3.671300
-1.254900 3.685300
-1.218100 3.775100
-1.181300 3.866300
-1.144500 3.986800
-1.107700 3.962900
-1.070900 3.963500
-1.034100 4.062600
-0.997300 4.351100
-0.960500 3.956800
-0.923800 3.516400
-0.887000 3.733900
-0.850200 3.701000
-0.813400 3.751200
-0.776600 3.682900
-0.739800 3.039900
-0.703000 2.897800
-0.666200 3.135200
-0.629400 3.178800
-0.592700 3.223300
-0.555900 3.244300
-0.519100 3.298400
-0.482300 3.982000
-0.445500 6.496500
-0.408700 4.572500
-0.371900 4.552900
-0.335100 4.483800
-0.298300 4.655700
-0.261500 4.496500
-0.224800 4.553800
-0.188000 4.875400
-0.151200 5.474500
-0.114400 6.084200
-0.077600 6.237500
-0.040800 5.923100
-0.004000 6.242400
0.032800 5.375100
0.069600 4.898100
0.106300 4.581900
0.143100 4.095800
0.179900 4.318200
0.216700 4.741500
0.253500 5.894300
0.290300 5.957500
0.327100 6.050400
0.363900 4.537900
0.400700 4.336700
0.437400 5.045400
0.474200 4.895000
0.511000 5.088200
0.547800 6.147300
0.584600 4.485100
0.621400 4.640000
0.658200 4.603800
0.695000 4.481100
0.731800 4.205500
0.768500 4.012100
0.805300 3.878800
0.842100 3.539100
0.878900 3.554500
0.915700 2.809800
0.952500 2.762200
0.989300 2.995100
1.026100 3.761700
1.062900 5.609200
1.099700 3.251000
1.136400 4.192800
1.173200 3.963000
1.210000 3.882100
1.246800 4.078100
1.283600 4.663700
1.320400 4.575600
1.357200 4.482000
1.394000 4.692300
1.430800 4.484400
1.467500 4.464400
1.504300 4.594000
1.541100 4.434500
1.577900 3.842700
1.614700 4.166900
1.651500 4.146400
1.688300 4.097800
1.725100 4.079100
1.761900 4.660900
1.798600 4.158300
1.835400 3.097900
1.872200 2.397000
1.909000 2.192600
1.945800 2.025300
1.982600 2.311700
2.019400 1.705900
2.056200 1.586100
2.093000 1.438300
2.129700 1.326900
2.166500 1.223800
2.203300 1.151900
2.240100 1.102900
2.276900 1.325000
2.313700 1.280500
2.350500 1.262100
2.387300 1.351600
2.424100 0.999900
2.460800 0.913300
2.497600 0.890800
2.534400 1.015100
2.571200 0.967300
2.608000 0.809900
2.644800 0.723500
2.681600 0.758500
2.718400 0.789600
2.755200 0.779200
2.792000 0.797000
2.828700 0.833000
2.865500 0.865300
2.902300 0.922800
2.939100 1.009500
2.975900 1.109300
3.012700 1.193600
3.049500 1.281600
3.086300 1.896100
3.123100 1.470400
3.159800 1.237200
3.196600 1.212000
3.233400 1.181600
3.270200 1.151100
3.307000 1.116200
3.343800 1.079500
3.380600 1.006500
3.417400 0.969200
3.454200 0.963100
3.490900 0.957200
3.527700 1.082200
3.564500 1.133500
3.601300 1.215800
3.638100 1.284300
3.674900 1.346200
3.711700 1.430900
3.748500 1.533700
3.785300 1.653100
3.822000 1.700000
3.858800 1.784400
3.895600 1.929800
3.932400 2.075300
3.969200 2.284100
4.006000 2.531200
4.042800 2.797000
4.079600 3.163000
4.116400 3.255200
4.153200 3.328500
4.189900 3.079000
4.226700 2.818400
4.263500 2.714600
4.300300 2.543400
4.337100 2.428200
4.373900 2.388300
4.410700 2.426400
4.447500 2.498600
4.484300 2.511100
4.521000 2.492500
4.557800 2.598000
4.594600 2.827000
4.631400 2.873000
4.668200 2.886300
4.705000 2.609200
4.741800 2.253900
4.778600 1.910800
4.815400 1.743300
4.852100 1.598600
4.888900 1.478700
4.925700 1.399600
4.962500 1.413000
4.999300 1.447900
5.036100 1.462700
5.072900 1.484100
5.109700 1.496900
5.146500 1.538300
5.183200 1.563200
5.220000 1.794500
5.256800 1.572300
5.293600 1.629100
5.330400 1.832400
5.367200 2.341700
5.404000 3.074300
5.440800 3.321000
5.477600 3.565200
5.514400 4.209500
5.551100 4.574200
5.587900 4.680400
5.624700 4.558600
5.661500 4.669400
5.698300 4.806400
5.735100 4.546200
5.771900 4.251000
5.808700 3.970100
5.845500 3.795900
5.882200 3.703400
5.919000 3.559800
5.955800 3.541400
5.992600 3.573200
6.029400 3.856200
6.066200 3.509200
6.103000 3.518900
6.139800 3.667000
6.176600 3.754100
6.213300 3.831000
6.250100 4.056900
6.286900 4.084600
6.323700 5.022500
6.360500 6.295100
6.397300 4.934900
6.434100 3.527500
6.470900 2.643800
6.507700 1.821100
6.544400 1.730300
6.581200 2.008400
6.618000 2.334300
6.654800 3.688400
6.691600 2.624500
6.728400 2.616500
6.765200 2.692000
6.802000 2.668000
6.838800 2.323300
6.875600 2.098400
6.912300 1.877900
6.949100 1.731500
6.985900 1.647500
7.022700 1.580300
7.059500 1.504100
7.096300 1.459700
7.133100 1.405500
7.169900 1.353600
7.206700 1.304300
7.243400 1.262400
7.280200 1.226900
7.317000 1.232700
7.353800 1.224600
7.390600 1.211500
7.427400 1.193500
7.464200 1.184000
7.501000 1.183500
7.537800 1.168400
7.574500 1.152700
7.611300 1.149000
7.648100 1.152100
7.684900 1.144600
7.721700 1.135100
7.758500 1.125400
7.795300 1.156900
7.832100 1.067100
7.868900 2.098700
7.905600 1.934700
7.942400 0.577600
7.979200 0.928700
8.016000 1.107400
8.052800 1.525300
8.089600 1.506100
8.126400 1.757600
8.163200 2.219200
8.200000 2.750000
8.236800 2.408400
8.273500 2.350700
8.310300 2.464600
8.347100 2.351700
8.383900 2.218700
8.420700 2.293400
8.457500 2.395900
8.494300 2.557000
8.531100 2.744800
8.567900 2.667600
8.604600 2.664400
8.641400 2.759600
8.678200 2.297900
8.715000 2.206400
8.751800 2.175400
8.788600 2.164700
8.825400 2.240400
8.862200 2.162400
8.899000 2.242500
8.935700 2.365300
8.972500 2.598200
9.009300 3.266500
9.046100 3.292400
9.082900 3.470600
9.119700 3.338100
9.156500 3.596700
9.193300 2.924000
9.230100 2.837400
9.266800 2.613900
9.303600 2.312200
9.340400 1.997600
9.377200 3.240300
9.414000 2.523800
9.450800 2.511600
9.487600 2.498200
9.524400 2.920400
9.561200 3.132000
9.597900 3.983500
9.634700 4.409500
9.671500 5.991500
9.708300 5.137600
9.745100 3.933100
9.781900 3.349900
9.818700 2.568200
9.855500 2.192600
9.892300 2.145900
9.929100 1.993700
9.965800 1.989800
10.002600 2.045700
10.039400 1.929100
10.076200 1.760800
10.113000 1.708000
10.149800 1.605400
10.186600 1.589200
10.223400 1.598400
10.260200 1.573700
10.296900 1.565800
10.333700 1.568000
10.370500 1.557900
10.407300 1.585800
10.444100 1.531500
10.480900 1.498300
10.517700 1.463400
10.554500 1.425900
10.591300 1.394500
10.628000 1.356000
10.664800 1.325000
10.701600 1.289400
10.738400 1.265200
10.775200 1.247700
10.812000 1.221100
10.848800 1.189300
10.885600 1.159800
10.922400 1.129100
10.959100 1.112200
10.995900 1.097100
11.032700 1.085000
11.069500 1.074300
11.106300 1.064500
11.143100 1.055600
11.179900 1.043400
11.216700 1.031200
11.253500 1.025100
11.290300 1.020500
11.327000 1.017700
11.363800 1.017900
11.400600 1.025400
11.437400 1.034600
11.474200 1.041000
11.511000 1.090400
11.547800 1.123800
11.584600 1.116900
11.621400 1.153600
11.658100 1.211500
11.694900 1.387800
11.731700 1.733600
11.768500 1.907700
11.805300 2.100200
11.842100 2.278300
11.878900 2.257100
11.915700 1.897900
11.952500 1.634200
11.989200 1.612100
12.026000 1.660100
12.062800 1.733200
12.099600 1.813600
12.136400 1.511300
12.173200 1.178000
12.210000 0.922500
12.246800 0.821700
12.283600 0.755700
12.320300 0.735400
12.357100 0.589900
12.393900 0.576900
12.430700 0.564300
12.467500 0.558000
12.504300 0.552100
12.541100 0.548600
12.577900 0.598100
12.614700 0.604100
12.651500 0.614300
12.688200 0.625800
12.725000 0.638500
12.761800 0.652200
12.798600 0.664500
12.835400 0.670200
12.872200 0.682100
12.909000 0.694500
12.945800 0.707400
12.982600 0.720400
13.019300 0.735200
13.056100 0.751500
13.092900 0.772000
13.129700 0.792200
13.166500 0.812700
13.203300 0.830900
13.240100 0.848900
13.276900 0.867200
13.313700 0.890000
13.350400 0.918500
13.387200 0.944300
13.424000 0.973000
13.460800 0.999900
13.497600 1.035900
13.534400 1.058900
13.571200 1.121000
13.608000 1.160400
13.644800 1.204900
13.681500 1.270300
13.718300 1.323300
13.755100 1.364700
13.791900 1.403500
13.828700 1.462500
13.865500 1.502900
13.902300 1.551800
13.939100 1.919000
13.975900 2.031400
14.012700 2.081100
14.049400 2.093900
14.086200 2.134000
14.123000 2.189000
14.159800 1.946700
14.196600 1.934900
14.233400 1.801900
14.270200 1.800900
14.307000 1.701000
14.343800 1.805900
14.380500 1.953100
14.417300 1.763000
14.454100 1.889500
14.490900 2.210500
14.527700 2.216600
14.564500 2.117100
14.601300 1.969200
14.638100 1.982000
14.674900 2.076100
14.711600 2.186400
14.748400 2.193200
14.785200 1.985400
14.822000 2.022600
14.858800 2.001200
14.895600 2.017100
14.932400 2.041000
14.969200 2.059900
15.006000 2.107400
15.042700 1.993100
15.079500 1.964400
15.116300 1.963200
15.153100 1.965200
15.189900 1.968800
15.226700 1.973400
15.263500 1.973400
15.300300 1.959100
15.337100 1.953300
15.373900 1.952700
15.410600 1.948200
15.447400 1.940900
15.484200 1.942500
15.521000 1.933700
15.557800 1.923000
15.594600 1.896300
15.631400 1.894900
15.668200 1.893400
15.705000 1.893300
15.741700 1.901800
15.778500 1.927200
15.815300 1.918500
15.852100 1.907500
15.888900 1.893400
15.925700 1.900900
15.962500 1.911000
15.999300 1.919700
16.036100 1.930000
16.072800 1.948400
16.109600 1.940600
16.146400 1.934100
16.183200 1.909700
16.220000 1.885500
16.256800 1.880100
16.293600 1.867100
16.330400 1.920000
16.367200 1.973600
16.403900 2.026400
16.440700 1.888400
16.477500 1.811800
16.514300 1.740100
16.551100 1.699700
16.587900 1.655600
16.624700 1.616100
16.661500 1.552600
16.698300 2.628600
16.735000 2.364600
16.771800 2.147600
16.808600 1.915400
16.845400 1.775500
16.882200 1.600700
16.919000 1.580300
16.955800 1.611100
16.992600 1.654100
17.029400 1.743300
17.066200 1.818000
17.102900 2.068300
17.139700 1.727200
17.176500 1.769800
17.213300 1.871400
17.250100 2.122100
17.286900 2.039200
17.323700 2.063200
17.360500 1.952400
17.397300 2.019200
17.434000 1.988200
17.470800 1.989800
17.507600 1.944800
17.544400 1.810000
17.581200 1.667600
17.618000 1.693600
17.654800 1.776800
17.691600 1.665200
17.728400 1.670300
17.765100 1.672100
17.801900 1.688100
17.838700 1.712100
17.875500 1.723600
17.912300 1.793700
17.949100 1.875000
17.985900 1.937000
18.022700 2.070000
18.059500 2.139100
18.096200 2.370600
18.133000 2.565900
18.169800 2.254900
18.206600 2.291200
18.243400 2.478500
18.280200 2.728000
18.317000 3.436000
18.353800 2.691800
18.390600 2.419100
18.427400 2.152700
18.464100 2.062500
18.500900 2.182800
18.537700 2.333400
18.574500 2.568000
18.611300 3.564300
18.648100 2.973500
18.684900 3.223500
18.721700 2.835000
18.758500 2.643200
18.795200 2.551400
18.832000 2.599800
18.868800 2.646500
18.905600 2.793200
18.942400 2.824700
18.979200 2.819900
19.016000 2.881300
19.052800 2.903900
19.089600 2.936300
19.126300 2.995800
19.163100 2.900100
19.199900 2.646400
19.236700 2.412800
19.273500 2.437300
19.310300 2.516000
19.347100 2.604500
19.383900 2.704700
19.420700 2.854700
19.457400 3.811500
19.494200 3.069200
19.531000 3.016600
19.567800 2.818300
19.604600 2.707900
19.641400 2.506900
19.678200 2.100800
19.715000 1.924100
19.751800 1.843000
19.788600 1.820200
19.825300 1.789400
19.862100 1.684600
19.898900 1.644100
19.935700 1.813200
19.972500 1.953400
20.009300 2.274200
20.046100 2.339000
20.082900 2.803100
20.119700 2.534600
20.156400 2.780600
20.193200 3.063900
20.230000 3.217300
20.266800 2.845200
20.303600 2.686200
20.340400 2.767200
20.377200 2.779100
20.414000 2.712600
20.450800 2.647500
20.487500 2.716800
20.524300 2.324300
20.561100 2.212100
20.597900 2.141300
20.634700 2.151600
20.671500 2.182800
20.708300 2.138500
20.745100 2.093000
20.781900 2.123100
20.818600 1.972100
20.855400 2.092900
20.892200 2.199600
20.929000 2.200700
20.965800 2.226600
21.002600 2.213600
21.039400 2.131200
21.076200 2.078900
21.113000 1.978000
21.149800 1.949500
21.186500 1.945300
21.223300 1.971400
21.260100 2.135000
21.296900 2.128500
21.333700 2.060600
21.370500 1.926400
21.407300 1.893900
21.444100 1.878100
21.480900 1.873300
21.517600 2.038500
21.554400 1.892400
21.591200 1.812700
21.628000 1.769700
21.664800 1.754300
21.701600 1.754800
21.738400 1.852800
21.775200 1.889700
21.812000 1.799400
21.848700 1.793200
21.885500 1.778200
21.922300 1.764400
21.959100 1.763800
21.995900 1.833200
22.032700 1.985200
22.069500 1.970900
22.106300 1.921400
22.143100 1.865600
22.179800 1.823400
22.216600 1.790600
22.253400 1.739900
22.290200 1.724300
22.327000 2.088900
22.363800 1.655300
22.400600 1.655800
22.437400 1.680400
22.474200 1.747600
22.511000 1.707300
22.547700 1.644200
22.584500 1.613500
22.621300 1.622400
22.658100 1.793600
22.694900 1.805900
22.731700 1.879900
22.768500 1.941600
22.805300 2.011800
22.842100 2.084300
22.878800 2.261600
22.915600 2.228200
22.952400 2.177300
22.989200 2.149000
23.026000 2.135400
23.062800 1.944600
23.099600 1.902400
23.136400 1.876600
23.173200 1.860100
23.209900 1.859600
23.246700 1.865600
23.283500 1.866800
23.320300 1.868300
23.357100 1.861700
23.393900 1.811000
23.430700 1.741500
23.467500 1.669000
23.504300 1.563100
23.541000 1.432100
23.577800 1.373200
23.614600 1.356400
23.651400 1.312500
23.688200 1.285200
23.725000 1.235900
23.761800 1.186600
23.798600 1.160400
23.835400 1.190200
23.872100 1.156200
23.908900 1.175000
23.945700 1.210800
23.982500 1.237200
24.019300 1.281100
24.056100 1.322800
24.092900 1.460700
24.129700 1.463800
24.166500 1.466300
24.203300 1.500200
24.240000 1.537300
24.276800 1.619100
24.313600 1.884100
24.350400 2.081700
24.387200 2.666000
24.424000 3.945000
24.460800 2.056900
24.497600 1.932700
24.534400 1.860100
24.571100 1.927400
24.607900 1.996100
24.644700 2.139400
24.681500 2.146600
24.718300 2.156100
24.755100 2.142000
24.791900 2.138500
24.828700 2.038400
24.865500 2.016900
24.902200 2.026700
24.939000 2.129500
24.975800 2.041000
25.012600 2.083700
25.049400 2.123000
25.086200 2.272800
25.123000 2.363700
25.159800 2.317500
25.196600 2.272600
25.233300 2.222000
25.270100 2.043100
25.306900 1.923900
25.343700 1.935400
25.380500 1.944600
25.417300 1.990700
25.454100 2.056700
25.490900 1.734100
25.527700 1.666900
25.564500 1.561300
25.601200 1.564400
25.638000 1.692200
25.674800 1.840900
25.711600 1.556400
25.748400 1.616500
25.785200 1.614600
25.822000 1.617000
25.858800 1.614800
25.895600 1.684600
25.932300 1.741600
25.969100 1.738800
26.005900 1.776100
26.042700 1.874800
26.079500 2.022700
26.116300 2.411000
26.153100 2.525600
26.189900 2.610800
26.226700 2.570100
26.263400 2.624100
26.300200 2.654300
26.337000 2.776100
26.373800 3.339800
26.410600 3.192700
26.447400 3.192500
26.484200 3.170000
26.521000 3.174300
26.557800 2.983000
26.594500 2.941900
26.631300 3.063300
26.668100 2.754800
26.704900 2.736900
26.741700 2.820000
26.778500 3.060800
26.815300 2.727200
26.852100 2.825700
26.888900 2.805300
26.925700 2.798100
26.962400 2.762800
26.999200 2.700900
27.036000 4.290900
27.072800 2.697900
27.109600 2.440500
27.146400 2.368700
27.183200 2.356600
27.220000 2.284900
27.256800 2.166500
27.293500 2.146100
27.330300 2.281000
27.367100 2.046800
27.403900 2.101100
27.440700 2.217000
27.477500 2.193900
27.514300 2.602500
27.551100 2.344600
27.587900 2.402100
27.624600 2.529200
27.661400 2.328600
27.698200 2.105300
27.735000 1.784300
27.771800 1.543100
27.808600 1.465900
27.845400 1.328900
27.882200 1.419300
27.919000 1.394300
27.955700 1.465800
27.992500 1.359300
28.029300 1.360400
28.066100 1.342100
28.102900 1.266600
28.139700 1.153700
28.176500 1.041300
28.213300 0.997800
28.250100 0.958800
28.286900 0.954500
28.323600 0.968000
28.360400 0.927900
28.397200 0.910300
28.434000 0.803900
28.470800 0.570200
28.507600 0.421200
28.544400 0.295300
28.581200 0.192900
28.618000 0.137900
28.654700 0.084700
28.691500 0.040700
28.728300 0.012700
28.765100 0.001200
28.801900 0.000000
28.838700 0.000000
28.875500 0.000000
28.912300 0.000000
28.949100 0.000000
28.985800 0.000000
29.022600 0.000000
29.059400 0.000000
29.096200 0.000000
29.133000 0.000000
29.169800 0.000000
29.206600 0.000000
29.243400 0.000000
29.280200 0.000000
29.316900 0.000000
29.353700 0.000000
29.390500 0.000000
29.427300 0.000000
29.464100 0.000000
29.500900 0.000000
29.537700 0.000000
29.574500 0.000000
29.611300 0.000000
29.648100 0.000000
29.684800 0.000000
29.721600 0.000000
29.758400 0.000000
29.795200 0.000000
29.832000 0.000000
29.868800 0.000000
29.905600 0.000000
29.942400 0.000000
29.979200 0.000000
30.015900 0.000000
30.052700 0.000000
30.089500 0.000000
30.126300 0.000000
30.163100 0.000000
30.199900 0.000000
30.236700 0.000000
30.273500 0.000000
30.310300 0.000000
30.347000 0.000000
30.383800 0.000000
30.420600 0.000000
30.457400 0.000000
30.494200 0.000000
30.531000 0.000000
30.567800 0.000000
30.604600 0.000000
30.641400 0.000000
30.678100 0.000000
30.714900 0.000000
30.751700 0.000000
30.788500 0.000000
30.825300 0.000000
30.862100 0.000000
30.898900 0.000000
30.935700 0.000000
30.972500 0.000000
31.009200 0.000000
31.046000 0.000000
31.082800 0.000000
31.119600 0.000000
31.156400 0.000000
31.193200 0.000000
31.230000 0.000000
31.266800 0.000000
31.303600 0.000000
31.340400 0.000000
31.377100 0.000000
31.413900 0.000000
31.450700 0.000000
31.487500 0.000000
31.524300 0.000000
31.561100 0.000000
31.597900 0.000000
31.634700 0.000000
31.671500 0.000000
31.708200 0.000000
31.745000 0.000000
31.781800 0.000000
31.818600 0.000000
31.855400 0.000000
31.892200 0.000000
31.929000 0.000000
31.965800 0.000000
32.002600 0.000000
32.039300 0.000000
32.076100 0.000000
32.112900 0.000000
32.149700 0.000000
e
