set title 'mp-28319 - Density of States'
set xlabel 'Energy (eV)'
set ylabel 'DOS (states/eV)'
set grid
set xrange [-10:10]
set yrange [0:77.151]
set xzeroaxis lt -1
set terminal png size 800,600
set output 'mp-28319_dos_gnuplot.png'
plot '-' using 1:2 with lines title 'DOS'
-11.973100 0.000000
-11.961100 0.000000
-11.949000 0.000000
-11.937000 0.000000
-11.925000 0.000000
-11.912900 0.000000
-11.900900 0.000000
-11.888900 0.000000
-11.876800 0.000000
-11.864800 0.000000
-11.852800 0.000000
-11.840700 0.000000
-11.828700 0.000000
-11.816700 0.000000
-11.804600 0.000000
-11.792600 0.000000
-11.780600 0.000000
-11.768500 0.000000
-11.756500 0.000000
-11.744500 0.000000
-11.732400 0.000000
-11.720400 0.000000
-11.708400 0.000000
-11.696300 0.000000
-11.684300 0.000000
-11.672300 0.000000
-11.660200 0.000000
-11.648200 0.000000
-11.636200 0.000000
-11.624100 0.000000
-11.612100 0.000000
-11.600100 0.000000
-11.588000 0.000000
-11.576000 0.000000
-11.564000 0.000000
-11.551900 0.000000
-11.539900 0.000000
-11.527900 0.000000
-11.515800 0.000000
-11.503800 0.000000
-11.491800 0.000000
-11.479700 0.000000
-11.467700 0.000000
-11.455700 0.000000
-11.443600 0.000000
-11.431600 0.000000
-11.419600 0.000000
-11.407500 0.000000
-11.395500 0.000000
-11.383500 0.000000
-11.371400 0.000000
-11.359400 0.000000
-11.347400 0.000000
-11.335300 0.000000
-11.323300 0.000000
-11.311300 0.000000
-11.299200 0.000000
-11.287200 0.000000
-11.275200 0.000000
-11.263100 0.000000
-11.251100 0.000000
-11.239100 0.000000
-11.227000 0.000000
-11.215000 0.000000
-11.203000 0.000000
-11.190900 0.000000
-11.178900 0.000000
-11.166900 0.000000
-11.154800 0.000000
-11.142800 0.000000
-11.130800 0.000000
-11.118700 0.000000
-11.106700 0.000000
-11.094700 0.000000
-11.082600 0.000000
-11.070600 0.000000
-11.058600 0.000000
-11.046500 0.000000
-11.034500 0.000000
-11.022500 0.000000
-11.010400 0.000000
-10.998400 0.000000
-10.986400 0.000000
-10.974300 0.000000
-10.962300 0.000000
-10.950300 0.000000
-10.938200 0.000000
-10.926200 0.000000
-10.914200 0.000000
-10.902100 0.000000
-10.890100 0.000000
-10.878100 2.753800
-10.866000 1.923900
-10.854000 2.742900
-10.842000 3.614800
-10.829900 4.216800
-10.817900 4.965500
-10.805900 5.790200
-10.793800 6.896100
-10.781800 7.490800
-10.769800 8.783800
-10.757700 8.862400
-10.745700 8.598500
-10.733700 8.431700
-10.721600 8.403500
-10.709600 7.649000
-10.697600 7.213100
-10.685500 6.770200
-10.673500 8.084100
-10.661500 8.806600
-10.649400 11.261000
-10.637400 12.240100
-10.625400 12.297900
-10.613300 12.310300
-10.601300 12.760500
-10.589300 13.369300
-10.577200 11.936000
-10.565200 13.054700
-10.553200 13.231700
-10.541100 14.468600
-10.529100 13.329600
-10.517100 12.631300
-10.505000 12.195000
-10.493000 8.555300
-10.481000 7.697700
-10.468900 7.940600
-10.456900 31.571700
-10.444900 0.000000
-10.432800 0.000000
-10.420800 0.000000
-10.408800 0.000000
-10.396700 0.000000
-10.384700 0.000000
-10.372700 0.000000
-10.360600 0.000000
-10.348600 0.000000
-10.336600 0.000000
-10.324500 1.340100
-10.312500 2.005100
-10.300500 2.386300
-10.288400 2.915600
-10.276400 3.756400
-10.264400 4.775300
-10.252300 5.331800
-10.240300 5.699400
-10.228300 5.951400
-10.216200 6.566300
-10.204200 7.135200
-10.192100 7.740300
-10.180100 8.564900
-10.168100 9.828900
-10.156000 12.740200
-10.144000 16.475900
-10.132000 42.495300
-10.119900 14.932600
-10.107900 22.106600
-10.095900 11.178300
-10.083800 11.194100
-10.071800 9.212400
-10.059800 16.711300
-10.047700 15.419000
-10.035700 15.560300
-10.023700 16.425500
-10.011600 13.640200
-9.999600 16.815600
-9.987600 26.830100
-9.975500 42.064700
-9.963500 48.153500
-9.951500 62.572700
-9.939400 44.826900
-9.927400 39.751200
-9.915400 51.555700
-9.903300 49.339400
-9.891300 53.998700
-9.879300 49.976700
-9.867200 34.012200
-9.855200 30.252100
-9.843200 33.924900
-9.831100 44.023500
-9.819100 50.075000
-9.807100 70.137200
-9.795000 0.000000
-9.783000 0.000000
-9.771000 0.000000
-9.758900 0.000000
-9.746900 0.000000
-9.734900 0.000000
-9.722800 0.000000
-9.710800 0.000000
-9.698800 0.000000
-9.686700 0.000000
-9.674700 0.000000
-9.662700 0.000000
-9.650600 0.000000
-9.638600 0.000000
-9.626600 0.000000
-9.614500 0.000000
-9.602500 0.000000
-9.590500 0.000000
-9.578400 0.000000
-9.566400 0.000000
-9.554400 0.000000
-9.542300 0.000000
-9.530300 0.000000
-9.518300 0.000000
-9.506200 0.000000
-9.494200 0.000000
-9.482200 0.000000
-9.470100 0.000000
-9.458100 0.000000
-9.446100 0.000000
-9.434000 0.000000
-9.422000 0.000000
-9.410000 0.000000
-9.397900 0.000000
-9.385900 0.000000
-9.373900 0.000000
-9.361800 0.000000
-9.349800 0.000000
-9.337800 0.000000
-9.325700 0.000000
-9.313700 0.000000
-9.301700 0.000000
-9.289600 0.000000
-9.277600 0.000000
-9.265600 0.000000
-9.253500 0.000000
-9.241500 0.000000
-9.229500 0.000000
-9.217400 0.000000
-9.205400 0.000000
-9.193400 0.000000
-9.181300 0.000000
-9.169300 0.000000
-9.157300 0.000000
-9.145200 0.000000
-9.133200 0.000000
-9.121200 0.000000
-9.109100 0.000000
-9.097100 0.000000
-9.085100 0.000000
-9.073000 0.000000
-9.061000 0.000000
-9.049000 0.000000
-9.036900 0.000000
-9.024900 0.000000
-9.012900 0.000000
-9.000800 0.000000
-8.988800 0.000000
-8.976800 0.000000
-8.964700 0.000000
-8.952700 0.000000
-8.940700 0.000000
-8.928600 0.000000
-8.916600 0.000000
-8.904600 0.000000
-8.892500 0.000000
-8.880500 0.000000
-8.868500 0.000000
-8.856400 0.000000
-8.844400 0.000000
-8.832400 0.000000
-8.820300 0.000000
-8.808300 0.000000
-8.796300 0.000000
-8.784200 0.000000
-8.772200 0.000000
-8.760200 0.000000
-8.748100 0.000000
-8.736100 0.000000
-8.724100 0.000000
-8.712000 0.000000
-8.700000 0.000000
-8.688000 0.000000
-8.675900 0.000000
-8.663900 0.000000
-8.651900 0.000000
-8.639800 0.000000
-8.627800 0.000000
-8.615800 0.000000
-8.603700 0.000000
-8.591700 0.000000
-8.579700 0.000000
-8.567600 0.000000
-8.555600 0.000000
-8.543600 0.000000
-8.531500 0.000000
-8.519500 0.000000
-8.507500 0.000000
-8.495400 0.000000
-8.483400 0.000000
-8.471400 0.000000
-8.459300 0.000000
-8.447300 0.000000
-8.435300 0.000000
-8.423200 0.000000
-8.411200 0.000000
-8.399200 0.000000
-8.387100 0.000000
-8.375100 0.000000
-8.363100 0.000000
-8.351000 0.000000
-8.339000 0.000000
-8.327000 0.000000
-8.314900 0.000000
-8.302900 0.000000
-8.290900 0.000000
-8.278800 0.000000
-8.266800 0.000000
-8.254800 0.000000
-8.242700 0.000000
-8.230700 0.000000
-8.218700 0.000000
-8.206600 0.000000
-8.194600 0.000000
-8.182500 0.000000
-8.170500 0.000000
-8.158500 0.000000
-8.146400 0.000000
-8.134400 0.000000
-8.122400 0.000000
-8.110300 0.000000
-8.098300 0.000000
-8.086300 0.000000
-8.074200 0.000000
-8.062200 0.000000
-8.050200 0.000000
-8.038100 0.000000
-8.026100 0.000000
-8.014100 0.000000
-8.002000 0.000000
-7.990000 0.000000
-7.978000 0.000000
-7.965900 0.000000
-7.953900 0.000000
-7.941900 0.000000
-7.929800 0.000000
-7.917800 0.000000
-7.905800 0.000000
-7.893700 0.000000
-7.881700 0.000000
-7.869700 0.000000
-7.857600 0.000000
-7.845600 0.000000
-7.833600 0.000000
-7.821500 0.000000
-7.809500 0.000000
-7.797500 0.000000
-7.785400 0.000000
-7.773400 0.000000
-7.761400 0.000000
-7.749300 0.000000
-7.737300 0.000000
-7.725300 0.000000
-7.713200 0.000000
-7.701200 0.000000
-7.689200 0.000000
-7.677100 0.000000
-7.665100 0.000000
-7.653100 0.000000
-7.641000 0.000000
-7.629000 0.000000
-7.617000 0.000000
-7.604900 0.000000
-7.592900 0.000000
-7.580900 0.000000
-7.568800 0.000000
-7.556800 0.000000
-7.544800 0.000000
-7.532700 0.000000
-7.520700 0.000000
-7.508700 0.000000
-7.496600 0.000000
-7.484600 0.000000
-7.472600 0.000000
-7.460500 0.000000
-7.448500 0.000000
-7.436500 0.000000
-7.424400 0.000000
-7.412400 0.000000
-7.400400 0.000000
-7.388300 0.000000
-7.376300 0.000000
-7.364300 0.000000
-7.352200 0.000000
-7.340200 0.000000
-7.328200 0.000000
-7.316100 0.000000
-7.304100 0.000000
-7.292100 0.000000
-7.280000 0.000000
-7.268000 0.000000
-7.256000 0.000000
-7.243900 0.000000
-7.231900 0.000000
-7.219900 0.000000
-7.207800 0.000000
-7.195800 0.000000
-7.183800 0.000000
-7.171700 0.000000
-7.159700 0.000000
-7.147700 0.000000
-7.135600 0.000000
-7.123600 0.000000
-7.111600 0.000000
-7.099500 0.000000
-7.087500 0.000000
-7.075500 0.000000
-7.063400 0.000000
-7.051400 0.000000
-7.039400 0.000000
-7.027300 0.000000
-7.015300 0.000000
-7.003300 0.000000
-6.991200 0.000000
-6.979200 0.000000
-6.967200 0.000000
-6.955100 0.000000
-6.943100 0.000000
-6.931100 0.000000
-6.919000 0.000000
-6.907000 0.000000
-6.895000 0.000000
-6.882900 0.000000
-6.870900 0.000000
-6.858900 0.000000
-6.846800 0.000000
-6.834800 0.000000
-6.822800 0.000000
-6.810700 0.000000
-6.798700 0.000000
-6.786700 0.000000
-6.774600 0.000000
-6.762600 0.000000
-6.750600 0.000000
-6.738500 0.000000
-6.726500 0.000000
-6.714500 0.000000
-6.702400 0.000000
-6.690400 0.000000
-6.678400 0.000000
-6.666300 0.000000
-6.654300 0.000000
-6.642300 0.000000
-6.630200 0.000000
-6.618200 0.000000
-6.606200 0.000000
-6.594100 0.000000
-6.582100 0.000000
-6.570100 0.000000
-6.558000 0.000000
-6.546000 0.000000
-6.534000 0.000000
-6.521900 0.000000
-6.509900 0.000000
-6.497900 0.000000
-6.485800 0.000000
-6.473800 0.000000
-6.461800 0.000000
-6.449700 0.000000
-6.437700 0.000000
-6.425700 0.000000
-6.413600 0.000000
-6.401600 0.000000
-6.389600 0.000000
-6.377500 0.000000
-6.365500 0.000000
-6.353500 0.000000
-6.341400 0.000000
-6.329400 0.000000
-6.317400 0.000000
-6.305300 0.000000
-6.293300 0.000000
-6.281300 0.000000
-6.269200 0.000000
-6.257200 0.000000
-6.245200 0.000000
-6.233100 0.000000
-6.221100 0.000000
-6.209000 0.000000
-6.197000 0.000000
-6.185000 0.000000
-6.172900 0.000000
-6.160900 0.000000
-6.148900 0.000000
-6.136800 0.000000
-6.124800 0.000000
-6.112800 0.000000
-6.100700 0.000000
-6.088700 0.000000
-6.076700 0.000000
-6.064600 0.000000
-6.052600 0.000000
-6.040600 0.000000
-6.028500 0.000000
-6.016500 0.000000
-6.004500 0.000000
-5.992400 0.000000
-5.980400 0.000000
-5.968400 0.000000
-5.956300 0.000000
-5.944300 0.000000
-5.932300 0.000000
-5.920200 0.000000
-5.908200 0.000000
-5.896200 0.000000
-5.884100 0.000000
-5.872100 0.000000
-5.860100 0.000000
-5.848000 0.000000
-5.836000 0.000000
-5.824000 0.000000
-5.811900 0.000000
-5.799900 0.000000
-5.787900 0.000000
-5.775800 0.000000
-5.763800 0.000000
-5.751800 0.000000
-5.739700 0.000000
-5.727700 0.000000
-5.715700 0.000000
-5.703600 0.000000
-5.691600 0.000000
-5.679600 0.000000
-5.667500 0.000000
-5.655500 0.000000
-5.643500 0.000000
-5.631400 0.000000
-5.619400 0.000000
-5.607400 0.000000
-5.595300 0.000000
-5.583300 0.000000
-5.571300 0.000000
-5.559200 0.000000
-5.547200 0.000000
-5.535200 0.000000
-5.523100 0.000000
-5.511100 0.000000
-5.499100 0.000000
-5.487000 0.000000
-5.475000 0.000000
-5.463000 0.000000
-5.450900 0.000000
-5.438900 0.000000
-5.426900 0.000000
-5.414800 0.000000
-5.402800 0.000000
-5.390800 0.000000
-5.378700 0.000000
-5.366700 0.000000
-5.354700 0.000000
-5.342600 0.000000
-5.330600 0.000000
-5.318600 0.000000
-5.306500 0.000000
-5.294500 0.000000
-5.282500 0.000000
-5.270400 0.000000
-5.258400 0.000000
-5.246400 0.000000
-5.234300 0.000000
-5.222300 0.000000
-5.210300 0.000000
-5.198200 0.000000
-5.186200 0.000000
-5.174200 0.000000
-5.162100 0.000000
-5.150100 0.000000
-5.138100 0.000000
-5.126000 0.000000
-5.114000 0.000000
-5.102000 0.000000
-5.089900 0.000000
-5.077900 0.000000
-5.065900 0.000000
-5.053800 0.000000
-5.041800 0.000000
-5.029800 0.000000
-5.017700 0.000000
-5.005700 0.000000
-4.993700 0.000000
-4.981600 0.000000
-4.969600 0.000000
-4.957600 0.000000
-4.945500 0.000000
-4.933500 0.000000
-4.921500 0.000000
-4.909400 0.000000
-4.897400 0.000000
-4.885400 0.000000
-4.873300 0.000000
-4.861300 0.000000
-4.849300 0.000000
-4.837200 0.000000
-4.825200 0.000000
-4.813200 0.000000
-4.801100 0.000000
-4.789100 0.000000
-4.777100 0.000000
-4.765000 0.000000
-4.753000 0.000000
-4.741000 0.000000
-4.728900 0.000000
-4.716900 0.000000
-4.704900 0.000000
-4.692800 0.000000
-4.680800 0.000000
-4.668800 0.000000
-4.656700 0.000000
-4.644700 0.000000
-4.632700 0.000000
-4.620600 0.000000
-4.608600 0.000000
-4.596600 0.000000
-4.584500 0.000000
-4.572500 0.000000
-4.560500 0.000000
-4.548400 0.000000
-4.536400 0.000000
-4.524400 0.000000
-4.512300 0.000000
-4.500300 0.000000
-4.488300 0.000000
-4.476200 0.000000
-4.464200 0.000000
-4.452200 0.000000
-4.440100 0.000000
-4.428100 0.000000
-4.416100 0.000000
-4.404000 0.000000
-4.392000 0.000000
-4.380000 0.000000
-4.367900 0.000000
-4.355900 0.000000
-4.343900 0.000000
-4.331800 0.000000
-4.319800 0.000000
-4.307800 0.000000
-4.295700 0.000000
-4.283700 0.000000
-4.271700 0.000000
-4.259600 0.000000
-4.247600 0.000000
-4.235600 0.000000
-4.223500 0.000000
-4.211500 0.000000
-4.199400 0.000000
-4.187400 0.000000
-4.175400 0.000000
-4.163300 0.000000
-4.151300 0.000000
-4.139300 0.000000
-4.127200 0.000000
-4.115200 0.000000
-4.103200 0.000000
-4.091100 0.000000
-4.079100 0.000000
-4.067100 0.000000
-4.055000 0.000000
-4.043000 0.000000
-4.031000 0.000000
-4.018900 0.000000
-4.006900 0.000000
-3.994900 0.000000
-3.982800 0.000000
-3.970800 0.000000
-3.958800 0.000000
-3.946700 0.000000
-3.934700 0.000000
-3.922700 0.000000
-3.910600 0.000000
-3.898600 0.000000
-3.886600 0.000000
-3.874500 0.000000
-3.862500 0.000000
-3.850500 0.000000
-3.838400 0.000000
-3.826400 0.000000
-3.814400 0.000000
-3.802300 0.000000
-3.790300 0.000000
-3.778300 0.000000
-3.766200 0.000000
-3.754200 0.000000
-3.742200 0.000000
-3.730100 0.000000
-3.718100 0.000000
-3.706100 0.000000
-3.694000 0.000000
-3.682000 0.000000
-3.670000 0.000000
-3.657900 0.000000
-3.645900 0.000000
-3.633900 0.000000
-3.621800 0.000000
-3.609800 0.000000
-3.597800 0.000000
-3.585700 0.000000
-3.573700 0.000000
-3.561700 0.000000
-3.549600 0.000000
-3.537600 0.000000
-3.525600 0.000000
-3.513500 0.000000
-3.501500 0.000000
-3.489500 0.000000
-3.477400 0.000000
-3.465400 0.000000
-3.453400 0.000000
-3.441300 0.000000
-3.429300 0.000000
-3.417300 0.000000
-3.405200 0.000000
-3.393200 0.000000
-3.381200 0.000000
-3.369100 0.000000
-3.357100 0.000000
-3.345100 0.000000
-3.333000 0.000000
-3.321000 0.000000
-3.309000 0.000000
-3.296900 0.000000
-3.284900 0.000000
-3.272900 0.000000
-3.260800 0.000000
-3.248800 0.000000
-3.236800 0.000000
-3.224700 0.000000
-3.212700 0.000000
-3.200700 0.000000
-3.188600 0.000000
-3.176600 0.000000
-3.164600 0.000000
-3.152500 0.000000
-3.140500 0.000000
-3.128500 0.000000
-3.116400 0.000000
-3.104400 0.000000
-3.092400 0.000000
-3.080300 2.660500
-3.068300 7.719600
-3.056300 11.438200
-3.044200 13.826600
-3.032200 12.313500
-3.020200 9.835600
-3.008100 10.332100
-2.996100 12.024100
-2.984100 12.085800
-2.972000 11.478100
-2.960000 11.494400
-2.948000 11.774500
-2.935900 12.031600
-2.923900 12.354500
-2.911900 11.262500
-2.899800 12.082000
-2.887800 11.614100
-2.875800 11.868700
-2.863700 11.329500
-2.851700 11.343100
-2.839700 12.512100
-2.827600 13.966400
-2.815600 16.426000
-2.803600 19.438600
-2.791500 18.640100
-2.779500 13.170600
-2.767500 9.285200
-2.755400 8.422800
-2.743400 1.563800
-2.731400 1.708100
-2.719300 1.908300
-2.707300 2.185500
-2.695300 2.619300
-2.683200 3.806700
-2.671200 3.827300
-2.659200 4.101400
-2.647100 4.279900
-2.635100 4.417900
-2.623100 4.114000
-2.611000 4.306300
-2.599000 4.548700
-2.587000 4.856600
-2.574900 5.245600
-2.562900 5.639200
-2.550900 6.043700
-2.538800 6.484100
-2.526800 8.625200
-2.514800 10.385300
-2.502700 14.649000
-2.490700 10.997000
-2.478700 7.732100
-2.466600 6.569300
-2.454600 7.210500
-2.442600 6.951200
-2.430500 6.835500
-2.418500 7.349200
-2.406500 5.474200
-2.394400 5.789700
-2.382400 6.224500
-2.370400 6.926600
-2.358300 8.696900
-2.346300 9.162200
-2.334300 9.102300
-2.322200 9.555600
-2.310200 8.526400
-2.298200 7.127200
-2.286100 7.579800
-2.274100 8.137400
-2.262100 8.981300
-2.250000 10.400200
-2.238000 16.299600
-2.226000 16.444900
-2.213900 13.532500
-2.201900 10.011600
-2.189800 0.000000
-2.177800 3.177600
-2.165800 5.500400
-2.153700 8.229000
-2.141700 9.901500
-2.129700 9.936800
-2.117600 10.630300
-2.105600 17.950500
-2.093600 10.927200
-2.081500 10.619300
-2.069500 10.154000
-2.057500 14.452600
-2.045400 15.653900
-2.033400 16.799000
-2.021400 19.226700
-2.009300 25.483900
-1.997300 27.666500
-1.985300 30.535000
-1.973200 26.722200
-1.961200 22.073700
-1.949200 13.575500
-1.937100 7.459700
-1.925100 4.222300
-1.913100 2.376000
-1.901000 1.335300
-1.889000 0.000000
-1.877000 1.306300
-1.864900 3.093700
-1.852900 4.613000
-1.840900 12.586800
-1.828800 21.145900
-1.816800 26.538100
-1.804800 23.858200
-1.792700 22.120700
-1.780700 20.041700
-1.768700 17.915800
-1.756600 14.350700
-1.744600 13.061600
-1.732600 14.660700
-1.720500 13.951200
-1.708500 13.690700
-1.696500 12.168400
-1.684400 13.090100
-1.672400 15.370200
-1.660400 14.819700
-1.648300 10.281300
-1.636300 9.193300
-1.624300 8.075700
-1.612200 7.450900
-1.600200 6.712600
-1.588200 5.204000
-1.576100 3.558900
-1.564100 1.718400
-1.552100 0.296300
-1.540000 0.366400
-1.528000 0.713400
-1.516000 1.138700
-1.503900 1.673400
-1.491900 2.311400
-1.479900 4.335500
-1.467800 6.788600
-1.455800 13.211600
-1.443800 11.303800
-1.431700 9.950300
-1.419700 9.412400
-1.407700 8.075500
-1.395600 7.302000
-1.383600 7.189800
-1.371600 7.062000
-1.359500 6.953100
-1.347500 8.090600
-1.335500 8.002500
-1.323400 7.386200
-1.311400 7.762100
-1.299400 8.650900
-1.287300 10.791500
-1.275300 14.155300
-1.263300 15.555500
-1.251200 17.626500
-1.239200 16.774500
-1.227200 18.947600
-1.215100 22.188600
-1.203100 19.535200
-1.191100 18.203100
-1.179000 17.046700
-1.167000 18.207000
-1.155000 30.436300
-1.142900 14.705700
-1.130900 19.054800
-1.118900 23.839000
-1.106800 24.812700
-1.094800 28.427600
-1.082800 20.055900
-1.070700 10.816700
-1.058700 9.958400
-1.046700 11.813800
-1.034600 16.312300
-1.022600 17.957500
-1.010600 16.547900
-0.998500 16.189700
-0.986500 15.412600
-0.974500 15.598900
-0.962400 18.676100
-0.950400 12.321600
-0.938400 4.360800
-0.926300 2.826700
-0.914300 1.915300
-0.902300 1.506400
-0.890200 1.167900
-0.878200 0.905000
-0.866200 0.884400
-0.854100 1.048100
-0.842100 1.422200
-0.830100 1.407700
-0.818000 1.381500
-0.806000 1.680600
-0.794000 1.929300
-0.781900 2.207500
-0.769900 2.518500
-0.757900 3.490100
-0.745800 6.005300
-0.733800 11.600100
-0.721800 18.644700
-0.709700 24.041800
-0.697700 33.648300
-0.685700 27.087100
-0.673600 21.570200
-0.661600 20.148800
-0.649600 26.184000
-0.637500 23.410500
-0.625500 20.417000
-0.613500 20.458100
-0.601400 19.083500
-0.589400 19.055600
-0.577400 15.049000
-0.565300 12.082200
-0.553300 10.458800
-0.541300 12.256000
-0.529200 27.366400
-0.517200 23.988700
-0.505200 26.920200
-0.493100 22.570900
-0.481100 16.534200
-0.469100 14.179800
-0.457000 11.230700
-0.445000 11.900500
-0.433000 11.085600
-0.420900 13.084700
-0.408900 13.692100
-0.396900 12.308100
-0.384800 11.665200
-0.372800 10.879700
-0.360800 10.706100
-0.348700 8.845000
-0.336700 8.782500
-0.324700 8.852100
-0.312600 9.323200
-0.300600 8.974700
-0.288600 8.910200
-0.276500 8.415200
-0.264500 5.658900
-0.252500 3.580300
-0.240400 2.539300
-0.228400 2.130200
-0.216400 3.202100
-0.204300 3.613700
-0.192300 4.123800
-0.180200 5.035300
-0.168200 6.159400
-0.156200 9.387900
-0.144100 10.639200
-0.132100 11.779800
-0.120100 15.229200
-0.108000 27.498700
-0.096000 25.263000
-0.084000 22.960000
-0.071900 21.275100
-0.059900 17.642900
-0.047900 14.098900
-0.035800 15.483700
-0.023800 18.294300
-0.011800 14.616400
0.000300 14.992700
0.012300 15.872200
0.024300 14.585800
0.036400 8.821300
0.048400 6.357300
0.060400 6.112300
0.072500 6.134800
0.084500 6.589500
0.096500 7.958600
0.108600 10.718700
0.120600 12.858000
0.132600 14.278300
0.144700 15.210700
0.156700 17.492900
0.168700 18.924400
0.180800 17.663100
0.192800 15.023600
0.204800 14.122800
0.216900 13.490400
0.228900 13.878000
0.240900 16.328500
0.253000 21.140800
0.265000 17.108400
0.277000 16.036200
0.289100 14.711600
0.301100 14.640000
0.313100 14.956900
0.325200 15.930900
0.337200 14.798900
0.349200 15.075500
0.361300 17.177700
0.373300 15.742900
0.385300 14.813900
0.397400 16.618900
0.409400 13.975800
0.421400 15.041400
0.433500 15.652800
0.445500 18.217800
0.457500 23.564300
0.469600 21.900100
0.481600 24.253000
0.493600 22.520400
0.505700 18.106600
0.517700 16.733100
0.529700 20.470400
0.541800 10.524900
0.553800 7.424700
0.565800 6.839900
0.577900 7.188700
0.589900 7.854200
0.601900 8.548800
0.614000 8.043700
0.626000 9.140700
0.638000 17.995000
0.650100 15.969700
0.662100 16.882100
0.674100 16.889800
0.686200 25.814100
0.698200 23.425600
0.710200 23.381500
0.722300 17.692400
0.734300 22.434600
0.746300 23.695000
0.758400 23.495400
0.770400 33.129000
0.782400 22.613600
0.794500 24.893500
0.806500 31.001000
0.818500 12.302300
0.830600 16.975300
0.842600 13.830100
0.854600 15.726600
0.866700 15.555100
0.878700 26.119700
0.890700 27.630800
0.902800 22.472300
0.914800 18.253100
0.926800 15.290500
0.938900 16.688700
0.950900 20.651200
0.962900 19.629500
0.975000 27.382100
0.987000 23.413400
0.999000 16.440400
1.011100 19.397000
1.023100 18.185500
1.035100 22.252000
1.047200 22.307700
1.059200 19.777700
1.071200 20.292100
1.083300 19.760500
1.095300 22.773600
1.107300 19.106900
1.119400 13.469600
1.131400 13.002300
1.143400 13.874300
1.155500 13.392000
1.167500 14.610500
1.179500 11.413400
1.191600 11.459400
1.203600 11.822300
1.215600 12.216600
1.227700 12.278100
1.239700 12.197000
1.251700 14.591100
1.263800 13.784400
1.275800 13.122300
1.287800 15.904800
1.299900 18.673800
1.311900 16.584500
1.323900 15.408600
1.336000 14.211500
1.348000 15.618500
1.360000 16.732300
1.372100 19.211600
1.384100 22.276300
1.396100 24.862500
1.408200 20.977300
1.420200 21.041400
1.432200 25.837700
1.444300 30.852500
1.456300 19.910400
1.468300 18.800600
1.480400 32.756500
1.492400 34.098500
1.504400 32.775400
1.516500 24.916000
1.528500 36.629900
1.540500 37.269200
1.552600 34.919400
1.564600 30.081000
1.576600 25.479300
1.588700 20.824100
1.600700 20.153400
1.612700 27.233600
1.624800 27.061400
1.636800 24.951000
1.648800 22.130000
1.660900 18.772700
1.672900 16.062800
1.684900 15.212200
1.697000 14.709300
1.709000 15.405500
1.721000 18.465000
1.733100 20.966900
1.745100 19.367200
1.757100 20.647900
1.769200 20.199500
1.781200 19.873000
1.793200 21.443900
1.805300 23.902000
1.817300 24.164600
1.829400 21.956700
1.841400 20.197700
1.853400 19.167000
1.865500 17.994200
1.877500 15.865200
1.889500 16.261300
1.901600 15.834900
1.913600 15.344900
1.925600 15.442700
1.937700 15.932500
1.949700 13.959900
1.961700 14.946200
1.973800 16.972800
1.985800 19.260300
1.997800 22.200900
2.009900 20.795100
2.021900 15.542100
2.033900 11.133600
2.046000 11.170100
2.058000 7.177300
2.070000 11.455700
2.082100 15.818300
2.094100 25.934800
2.106100 23.663500
2.118200 22.424100
2.130200 24.453400
2.142200 28.783600
2.154300 26.901500
2.166300 26.038600
2.178300 28.366100
2.190400 24.575900
2.202400 24.196600
2.214400 13.274300
2.226500 6.650600
2.238500 7.022600
2.250500 4.814400
2.262600 5.396500
2.274600 9.221800
2.286600 17.240000
2.298700 32.238800
2.310700 30.865600
2.322700 31.803900
2.334800 33.713600
2.346800 36.798500
2.358800 28.328700
2.370900 22.271300
2.382900 18.451400
2.394900 15.576700
2.407000 13.069900
2.419000 10.717500
2.431000 8.144300
2.443100 4.133000
2.455100 1.174700
2.467100 0.000000
2.479200 0.000000
2.491200 0.000000
2.503200 0.000000
2.515300 0.000000
2.527300 0.000000
2.539300 0.000000
2.551400 0.000000
2.563400 0.000000
2.575400 0.000000
2.587500 0.000000
2.599500 0.000000
2.611500 0.000000
2.623600 0.000000
2.635600 0.000000
2.647600 0.000000
2.659700 0.000000
2.671700 0.000000
2.683700 0.000000
2.695800 0.000000
2.707800 0.000000
2.719800 0.000000
2.731900 0.000000
2.743900 0.000000
2.755900 0.000000
2.768000 0.000000
2.780000 0.000000
2.792000 0.000000
2.804100 0.000000
2.816100 0.000000
2.828100 0.000000
2.840200 0.000000
2.852200 0.000000
2.864200 0.000000
2.876300 0.000000
2.888300 0.000000
2.900300 0.000000
2.912400 0.000000
2.924400 0.000000
2.936400 0.000000
2.948500 0.000000
2.960500 0.000000
2.972500 0.000000
2.984600 0.000000
2.996600 0.000000
3.008600 0.000000
3.020700 0.000000
3.032700 0.000000
3.044700 0.000000
3.056800 0.000000
3.068800 0.000000
3.080800 0.000000
3.092900 0.000000
3.104900 0.000000
3.116900 0.000000
3.129000 0.000000
3.141000 0.000000
3.153000 0.000000
3.165100 0.000000
3.177100 0.000000
3.189100 0.000000
3.201200 0.000000
3.213200 0.000000
3.225200 0.000000
3.237300 0.000000
3.249300 0.000000
3.261300 0.000000
3.273400 0.000000
3.285400 0.000000
3.297400 0.000000
3.309500 0.000000
3.321500 0.000000
3.333500 0.000000
3.345600 0.000000
3.357600 0.000000
3.369600 0.000000
3.381700 0.000000
3.393700 0.000000
3.405700 0.000000
3.417800 0.000000
3.429800 0.000000
3.441800 0.000000
3.453900 0.000000
3.465900 0.000000
3.477900 0.000000
3.490000 0.000000
3.502000 0.000000
3.514000 0.000000
3.526100 0.000000
3.538100 0.000000
3.550100 0.000000
3.562200 0.000000
3.574200 0.000000
3.586200 0.000000
3.598300 0.000000
3.610300 0.000000
3.622300 0.000000
3.634400 0.000000
3.646400 0.000000
3.658400 0.000000
3.670500 0.000000
3.682500 0.000000
3.694500 0.000000
3.706600 0.459900
3.718600 1.409800
3.730600 1.540300
3.742700 2.639300
3.754700 3.841700
3.766700 5.750500
3.778800 5.964300
3.790800 7.046300
3.802800 8.612000
3.814900 9.121100
3.826900 9.690700
3.839000 10.008500
3.851000 11.637500
3.863000 13.352000
3.875100 15.701700
3.887100 14.837100
3.899100 12.191900
3.911200 10.931700
3.923200 10.144900
3.935200 9.786600
3.947300 9.925300
3.959300 9.947800
3.971300 10.174300
3.983400 10.581400
3.995400 11.324900
4.007400 7.573800
4.019500 6.858600
4.031500 6.725400
4.043500 6.294700
4.055600 6.151400
4.067600 6.430500
4.079600 6.728200
4.091700 7.206200
4.103700 9.194800
4.115700 11.615900
4.127800 10.243500
4.139800 7.873200
4.151800 3.776300
4.163900 3.027300
4.175900 5.367100
4.187900 8.683200
4.200000 18.469500
4.212000 20.278300
4.224000 16.973800
4.236100 23.894300
4.248100 35.895500
4.260100 27.007800
4.272200 23.437500
4.284200 21.086100
4.296200 17.327400
4.308300 15.830800
4.320300 14.731500
4.332300 14.076900
4.344400 14.030000
4.356400 12.543900
4.368400 10.880200
4.380500 10.621100
4.392500 10.420500
4.404500 6.962400
4.416600 5.258400
4.428600 3.000700
4.440600 1.623100
4.452700 1.402100
4.464700 1.400100
4.476700 0.808900
4.488800 0.000000
4.500800 0.000000
4.512800 0.000000
4.524900 0.000000
4.536900 0.000000
4.548900 0.000000
4.561000 0.000000
4.573000 0.000000
4.585000 0.000000
4.597100 0.000000
4.609100 0.000000
4.621100 0.000000
4.633200 0.000000
4.645200 0.000000
4.657200 0.000000
4.669300 0.000000
4.681300 0.000000
4.693300 0.000000
4.705400 0.000000
4.717400 0.000000
4.729400 0.000000
4.741500 0.000000
4.753500 0.000000
4.765500 0.000000
4.777600 0.000000
4.789600 0.000000
4.801600 0.000000
4.813700 0.000000
4.825700 0.000000
4.837700 0.000000
4.849800 0.000000
4.861800 0.000000
4.873800 0.000000
4.885900 0.000000
4.897900 0.000000
4.909900 0.000000
4.922000 0.000000
4.934000 0.000000
4.946000 0.000000
4.958100 0.000000
4.970100 0.000000
4.982100 0.000000
4.994200 0.000000
5.006200 0.000000
5.018200 0.000000
5.030300 0.000000
5.042300 0.000000
5.054300 0.000000
5.066400 0.000000
5.078400 0.000000
5.090400 0.000000
5.102500 0.000000
5.114500 0.000000
5.126500 0.000000
5.138600 0.000000
5.150600 0.000000
5.162600 0.000000
5.174700 0.000000
5.186700 0.000000
5.198700 0.000000
5.210800 0.000000
5.222800 0.000000
5.234800 0.000000
5.246900 0.000000
5.258900 0.000000
5.270900 0.000000
5.283000 0.000000
5.295000 0.000000
5.307000 0.000000
5.319100 0.000000
5.331100 0.000000
5.343100 0.000000
5.355200 0.000000
5.367200 0.000000
5.379200 0.000000
5.391300 0.000000
5.403300 0.000000
5.415300 0.000000
5.427400 0.000000
5.439400 0.000000
5.451400 0.000000
5.463500 0.000000
5.475500 0.000000
5.487500 0.000000
5.499600 0.000000
5.511600 0.000000
5.523600 0.000000
5.535700 0.000000
5.547700 0.000000
5.559700 0.000000
5.571800 0.000000
5.583800 0.000000
5.595800 0.000000
5.607900 0.000000
5.619900 0.000000
5.631900 0.000000
5.644000 0.585800
5.656000 2.431800
5.668000 2.159300
5.680100 2.340600
5.692100 2.608800
5.704100 2.890200
5.716200 3.067100
5.728200 3.234100
5.740200 3.321600
5.752300 3.490300
5.764300 4.133400
5.776300 4.437800
5.788400 6.988100
5.800400 6.272600
5.812400 6.334200
5.824500 6.133500
5.836500 5.987100
5.848600 6.275700
5.860600 6.605000
5.872600 6.205000
5.884700 6.179500
5.896700 6.511300
5.908700 6.143800
5.920800 5.145400
5.932800 4.784100
5.944800 4.515900
5.956900 4.464500
5.968900 4.417700
5.980900 4.821000
5.993000 5.078700
6.005000 5.144900
6.017000 5.267300
6.029100 5.554200
6.041100 5.453000
6.053100 5.096800
6.065200 5.200000
6.077200 5.327300
6.089200 5.511900
6.101300 5.799100
6.113300 6.166500
6.125300 6.919900
6.137400 7.251900
6.149400 7.381100
6.161400 6.736100
6.173500 6.627500
6.185500 6.641800
6.197500 6.524600
6.209600 6.299600
6.221600 6.099800
6.233600 6.713500
6.245700 5.481000
6.257700 5.156500
6.269700 4.796900
6.281800 4.598900
6.293800 4.341500
6.305800 4.228300
6.317900 4.193300
6.329900 4.236900
6.341900 4.195200
6.354000 4.079100
6.366000 3.809800
6.378000 3.287400
6.390100 2.993800
6.402100 2.726200
6.414100 2.509400
6.426200 2.325000
6.438200 2.133200
6.450200 2.041700
6.462300 1.968100
6.474300 1.893800
6.486300 1.540000
6.498400 1.581700
6.510400 1.681000
6.522400 1.889700
6.534500 2.252000
6.546500 2.225000
6.558500 2.189800
6.570600 2.563600
6.582600 2.467200
6.594600 2.703900
6.606700 2.972900
6.618700 2.847400
6.630700 2.928600
6.642800 3.083700
6.654800 3.349300
6.666800 3.953900
6.678900 4.575800
6.690900 6.023300
6.702900 6.319300
6.715000 6.096400
6.727000 6.190700
6.739000 6.160100
6.751100 5.609400
6.763100 5.539200
6.775100 5.650200
6.787200 6.023500
6.799200 6.114500
6.811200 6.274100
6.823300 6.373900
6.835300 6.764800
6.847300 6.750300
6.859400 6.854300
6.871400 8.096900
6.883400 8.824100
6.895500 8.391400
6.907500 8.010700
6.919500 7.764100
6.931600 7.610700
6.943600 7.840900
6.955600 8.143400
6.967700 8.186400
6.979700 8.984800
6.991700 9.195300
7.003800 7.948800
7.015800 6.802100
7.027800 6.482000
7.039900 6.451200
7.051900 6.431300
7.063900 6.190400
7.076000 5.805700
7.088000 5.490500
7.100000 5.179100
7.112100 4.987600
7.124100 4.806900
7.136100 4.607600
7.148200 4.530800
7.160200 4.693800
7.172200 4.623400
7.184300 3.882300
7.196300 3.008500
7.208300 2.210300
7.220400 1.830100
7.232400 1.517700
7.244400 1.275800
7.256500 1.103800
7.268500 1.002800
7.280500 2.599300
7.292600 2.254700
7.304600 2.791500
7.316600 3.303000
7.328700 3.885100
7.340700 4.421000
7.352700 5.134400
7.364800 5.871500
7.376800 6.676300
7.388800 6.851800
7.400900 7.550200
7.412900 7.430700
7.424900 7.186000
7.437000 7.031000
7.449000 6.866100
7.461000 6.728100
7.473100 6.563000
7.485100 6.439600
7.497100 5.778300
7.509200 5.544400
7.521200 5.494100
7.533200 5.281100
7.545300 4.954800
7.557300 5.560300
7.569300 5.151100
7.581400 5.244200
7.593400 4.984300
7.605400 5.046500
7.617500 5.335400
7.629500 6.206500
7.641500 6.778000
7.653600 6.594600
7.665600 6.599000
7.677600 6.598500
7.689700 6.585800
7.701700 6.742800
7.713700 6.841900
7.725800 7.208500
7.737800 7.251200
7.749800 6.346400
7.761900 6.451100
7.773900 5.581800
7.785900 5.660200
7.798000 4.939400
7.810000 4.980300
7.822000 5.101300
7.834100 5.112700
7.846100 5.121000
7.858200 5.327800
7.870200 5.227700
7.882200 5.166500
7.894300 5.432900
7.906300 6.021700
7.918300 6.082100
7.930400 6.477900
7.942400 7.383000
7.954400 6.634900
7.966500 6.731400
7.978500 6.554800
7.990500 6.542700
8.002600 6.246100
8.014600 6.193700
8.026600 6.482500
8.038700 6.663500
8.050700 6.816100
8.062700 7.126300
8.074800 7.276500
8.086800 7.433200
8.098800 7.804200
8.110900 8.002600
8.122900 8.551800
8.134900 8.886700
8.147000 8.666000
8.159000 8.651300
8.171000 8.683300
8.183100 8.504500
8.195100 8.302500
8.207100 8.116100
8.219200 8.066600
8.231200 8.027300
8.243200 8.629700
8.255300 9.649600
8.267300 10.243800
8.279300 11.505500
8.291400 11.542900
8.303400 11.446100
8.315400 11.335200
8.327500 10.450500
8.339500 10.146700
8.351500 10.041100
8.363600 9.160800
8.375600 8.560600
8.387600 8.551700
8.399700 8.986000
8.411700 9.142900
8.423700 9.518200
8.435800 9.073100
8.447800 9.113600
8.459800 7.960300
8.471900 7.356400
8.483900 6.900200
8.495900 6.875300
8.508000 7.043400
8.520000 7.199300
8.532000 7.349700
8.544100 7.649500
8.556100 8.575700
8.568100 9.212600
8.580200 9.609900
8.592200 9.694400
8.604200 9.757200
8.616300 9.603500
8.628300 9.564000
8.640300 9.725900
8.652400 10.022500
8.664400 10.133100
8.676400 10.104300
8.688500 10.035900
8.700500 9.910400
8.712500 9.863800
8.724600 9.743200
8.736600 9.546800
8.748600 9.653100
8.760700 9.545200
8.772700 9.598300
8.784700 9.679700
8.796800 9.450000
8.808800 9.292100
8.820800 9.441600
8.832900 10.160700
8.844900 9.860800
8.856900 9.749600
8.869000 7.977100
8.881000 7.451500
8.893000 7.343100
8.905100 7.385600
8.917100 7.543100
8.929100 7.780100
8.941200 7.661300
8.953200 6.853500
8.965200 6.993200
8.977300 6.894500
8.989300 6.665900
9.001300 6.574300
9.013400 6.853600
9.025400 7.523800
9.037400 8.140000
9.049500 8.574000
9.061500 8.821400
9.073500 8.938400
9.085600 9.258000
9.097600 8.356400
9.109600 8.376600
9.121700 8.170800
9.133700 9.075300
9.145700 7.953600
9.157800 7.689600
9.169800 7.828400
9.181800 7.854900
9.193900 7.672400
9.205900 7.929800
9.217900 7.778300
9.230000 7.943600
9.242000 8.277300
9.254000 8.843300
9.266100 9.088100
9.278100 9.274700
9.290100 8.293800
9.302200 7.450400
9.314200 7.062500
9.326200 6.749700
9.338300 6.663200
9.350300 6.797800
9.362300 7.150500
9.374400 7.957300
9.386400 8.309800
9.398400 7.570700
9.410500 6.478500
9.422500 5.922900
9.434500 6.971300
9.446600 9.018700
9.458600 10.528300
9.470600 12.189000
9.482700 12.807500
9.494700 12.749900
9.506700 12.099300
9.518800 13.277500
9.530800 14.115200
9.542800 15.045800
9.554900 12.770200
9.566900 12.732200
9.578900 11.734000
9.591000 10.621600
9.603000 10.666300
9.615000 11.075800
9.627100 11.568000
9.639100 11.267200
9.651100 10.883100
9.663200 11.419800
9.675200 12.547000
9.687200 13.637500
9.699300 11.069400
9.711300 10.301800
9.723300 9.334200
9.735400 7.920400
9.747400 6.809800
9.759400 6.403000
9.771500 6.191000
9.783500 6.329800
9.795500 6.360900
9.807600 6.902200
9.819600 7.156300
9.831600 7.560200
9.843700 7.088500
9.855700 6.436900
9.867800 6.921100
9.879800 7.555800
9.891800 8.350200
9.903900 9.322900
9.915900 10.500100
9.927900 13.807300
9.940000 13.010600
9.952000 13.286600
9.964000 13.601200
9.976100 13.588000
9.988100 13.599800
10.000100 13.951000
10.012200 14.285400
10.024200 18.458600
10.036200 14.575800
10.048300 13.476500
10.060300 12.703600
10.072300 12.779800
10.084400 12.986900
10.096400 12.644600
10.108400 11.544900
10.120500 12.641200
10.132500 14.143300
10.144500 14.877200
10.156600 13.224500
10.168600 11.994200
10.180600 10.877900
10.192700 10.311000
10.204700 10.236100
10.216700 10.323600
10.228800 11.102500
10.240800 14.155600
10.252800 15.168000
10.264900 15.531900
10.276900 14.851900
10.288900 14.929500
10.301000 14.352400
10.313000 14.386200
10.325000 14.578300
10.337100 12.436900
10.349100 12.300500
10.361100 11.753300
10.373200 11.021700
10.385200 10.048800
10.397200 9.437800
10.409300 9.420900
10.421300 9.263400
10.433300 9.049800
10.445400 8.445600
10.457400 8.278300
10.469400 8.218800
10.481500 9.711500
10.493500 10.632300
10.505500 10.418600
10.517600 10.373300
10.529600 10.661100
10.541600 11.320100
10.553700 11.605800
10.565700 12.280500
10.577700 12.399600
10.589800 12.433000
10.601800 12.248200
10.613800 12.077500
10.625900 10.784400
10.637900 10.342600
10.649900 11.807300
10.662000 12.372900
10.674000 11.948100
10.686000 12.402800
10.698100 12.807900
10.710100 12.177000
10.722100 12.659100
10.734200 10.758400
10.746200 12.863400
10.758200 8.582400
10.770300 7.347800
10.782300 6.446200
10.794300 5.455400
10.806400 4.717300
10.818400 3.995300
10.830400 3.426700
10.842500 2.888700
10.854500 2.460600
10.866500 2.099300
10.878600 1.853000
10.890600 1.618300
10.902600 1.808700
10.914700 1.056700
10.926700 0.860600
10.938700 0.688000
10.950800 0.535600
10.962800 0.403600
10.974800 0.291900
10.986900 0.026400
10.998900 0.001800
11.010900 0.000000
11.023000 0.000000
11.035000 0.000000
11.047000 0.000000
11.059100 0.000000
11.071100 0.000000
11.083100 0.000000
11.095200 0.000000
11.107200 0.000000
11.119200 0.000000
11.131300 0.000000
11.143300 0.000000
11.155300 0.000000
11.167400 0.000000
11.179400 0.000000
11.191400 0.000000
11.203500 0.000000
11.215500 0.000000
11.227500 0.000000
11.239600 0.000000
11.251600 0.000000
11.263600 0.000000
11.275700 0.000000
11.287700 0.000000
11.299700 0.000000
11.311800 0.000000
11.323800 0.000000
11.335800 0.000000
11.347900 0.000000
11.359900 0.000000
11.371900 0.000000
11.384000 0.000000
11.396000 0.000000
11.408000 0.000000
11.420100 0.000000
11.432100 0.000000
11.444100 0.000000
11.456200 0.000000
11.468200 0.000000
11.480200 0.000000
11.492300 0.000000
11.504300 0.000000
11.516300 0.000000
11.528400 0.000000
11.540400 0.000000
11.552400 0.000000
11.564500 0.000000
11.576500 0.000000
11.588500 0.000000
11.600600 0.000000
11.612600 0.000000
11.624600 0.000000
11.636700 0.000000
11.648700 0.000000
11.660700 0.000000
11.672800 0.000000
11.684800 0.000000
11.696800 0.000000
11.708900 0.000000
11.720900 0.000000
11.732900 0.000000
11.745000 0.000000
11.757000 0.000000
11.769000 0.000000
11.781100 0.000000
11.793100 0.000000
11.805100 0.000000
11.817200 0.000000
11.829200 0.000000
11.841300 0.000000
11.853300 0.000000
11.865300 0.000000
11.877400 0.000000
11.889400 0.000000
11.901400 0.000000
11.913500 0.000000
11.925500 0.000000
11.937500 0.000000
11.949600 0.000000
11.961600 0.000000
11.973600 0.000000
11.985700 0.000000
11.997700 0.000000
12.009700 0.000000
12.021800 0.000000
12.033800 0.000000
12.045800 0.000000
12.057900 0.000000
12.069900 0.000000
12.081900 0.000000
12.094000 0.000000
e
