set title 'mp-980060 - Density of States'
set xlabel 'Energy (eV)'
set ylabel 'DOS (states/eV)'
set grid
set xrange [-10:10]
set yrange [0:32.353]
set xzeroaxis lt -1
set terminal png size 800,600
set output 'mp-980060_dos_gnuplot.png'
plot '-' using 1:2 with lines title 'DOS'
-21.763700 0.000000
-21.738400 0.000000
-21.713000 0.000000
-21.687700 0.000000
-21.662300 0.000000
-21.637000 0.000000
-21.611700 0.000000
-21.586300 0.000000
-21.561000 0.000000
-21.535600 0.000000
-21.510300 0.000000
-21.484900 0.000000
-21.459600 0.000000
-21.434300 0.000000
-21.408900 0.000000
-21.383600 0.000000
-21.358200 0.000000
-21.332900 0.000000
-21.307500 0.000000
-21.282200 0.000000
-21.256900 0.000000
-21.231500 0.000000
-21.206200 0.000000
-21.180800 0.000000
-21.155500 0.000000
-21.130200 0.000000
-21.104800 0.000000
-21.079500 0.000000
-21.054100 0.000000
-21.028800 0.000000
-21.003400 0.000000
-20.978100 0.000000
-20.952800 0.000000
-20.927400 0.000000
-20.902100 0.000000
-20.876700 0.000000
-20.851400 0.000000
-20.826000 0.000000
-20.800700 0.000000
-20.775400 0.000000
-20.750000 0.000000
-20.724700 0.000000
-20.699300 0.000000
-20.674000 0.000000
-20.648700 0.000000
-20.623300 0.000000
-20.598000 0.000000
-20.572600 0.000000
-20.547300 0.000000
-20.521900 0.000000
-20.496600 0.000000
-20.471300 0.000000
-20.445900 0.000000
-20.420600 0.000000
-20.395200 0.000000
-20.369900 0.000000
-20.344500 0.000000
-20.319200 0.000000
-20.293900 0.000000
-20.268500 0.000000
-20.243200 0.000000
-20.217800 0.000000
-20.192500 0.000000
-20.167200 0.000000
-20.141800 0.000000
-20.116500 0.000000
-20.091100 0.000000
-20.065800 0.000000
-20.040400 0.000000
-20.015100 0.000000
-19.989800 0.000000
-19.964400 0.000000
-19.939100 0.000000
-19.913700 0.000000
-19.888400 0.000000
-19.863000 0.000000
-19.837700 0.000000
-19.812400 0.000000
-19.787000 0.000000
-19.761700 0.000000
-19.736300 0.000000
-19.711000 0.000000
-19.685700 0.000000
-19.660300 0.000000
-19.635000 0.000000
-19.609600 0.000000
-19.584300 0.000000
-19.558900 0.000000
-19.533600 0.000000
-19.508300 0.000000
-19.482900 0.000000
-19.457600 18.537000
-19.432200 164.797100
-19.406900 92.291800
-19.381600 0.000000
-19.356200 0.000000
-19.330900 0.000000
-19.305500 0.000000
-19.280200 0.000000
-19.254800 0.000000
-19.229500 0.000000
-19.204200 0.000000
-19.178800 0.000000
-19.153500 0.000000
-19.128100 0.000000
-19.102800 0.000000
-19.077400 0.000000
-19.052100 0.000000
-19.026800 0.000000
-19.001400 0.000000
-18.976100 0.000000
-18.950700 0.000000
-18.925400 0.000000
-18.900100 0.000000
-18.874700 0.000000
-18.849400 0.000000
-18.824000 0.000000
-18.798700 0.000000
-18.773300 0.000000
-18.748000 0.000000
-18.722700 0.000000
-18.697300 0.000000
-18.672000 0.000000
-18.646600 0.000000
-18.621300 0.000000
-18.595900 0.000000
-18.570600 0.000000
-18.545300 0.000000
-18.519900 0.000000
-18.494600 0.000000
-18.469200 0.000000
-18.443900 0.000000
-18.418600 0.000000
-18.393200 0.000000
-18.367900 0.000000
-18.342500 0.000000
-18.317200 0.000000
-18.291800 0.000000
-18.266500 0.000000
-18.241200 0.000000
-18.215800 0.000000
-18.190500 0.000000
-18.165100 0.000000
-18.139800 0.000000
-18.114400 0.000000
-18.089100 0.000000
-18.063800 0.000000
-18.038400 0.000000
-18.013100 0.000000
-17.987700 0.000000
-17.962400 0.000000
-17.937100 0.000000
-17.911700 0.000000
-17.886400 0.000000
-17.861000 0.000000
-17.835700 0.000000
-17.810300 0.000000
-17.785000 0.000000
-17.759700 0.000000
-17.734300 0.000000
-17.709000 0.000000
-17.683600 0.000000
-17.658300 0.000000
-17.632900 0.000000
-17.607600 0.000000
-17.582300 0.000000
-17.556900 0.000000
-17.531600 0.000000
-17.506200 0.000000
-17.480900 0.000000
-17.455600 0.000000
-17.430200 0.000000
-17.404900 0.000000
-17.379500 0.000000
-17.354200 0.000000
-17.328800 0.000000
-17.303500 0.000000
-17.278200 0.000000
-17.252800 0.000000
-17.227500 0.000000
-17.202100 0.000000
-17.176800 0.000000
-17.151400 0.000000
-17.126100 0.000000
-17.100800 0.000000
-17.075400 0.000000
-17.050100 0.000000
-17.024700 0.000000
-16.999400 0.000000
-16.974100 0.000000
-16.948700 0.000000
-16.923400 0.000000
-16.898000 0.000000
-16.872700 0.000000
-16.847300 0.000000
-16.822000 0.000000
-16.796700 0.000000
-16.771300 0.000000
-16.746000 0.000000
-16.720600 0.000000
-16.695300 0.000000
-16.669900 0.000000
-16.644600 0.000000
-16.619300 0.000000
-16.593900 0.000000
-16.568600 0.000000
-16.543200 0.000000
-16.517900 0.000000
-16.492600 0.000000
-16.467200 0.000000
-16.441900 0.000000
-16.416500 0.000000
-16.391200 0.000000
-16.365800 0.000000
-16.340500 0.000000
-16.315200 0.000000
-16.289800 0.000000
-16.264500 0.000000
-16.239100 0.000000
-16.213800 0.000000
-16.188400 0.000000
-16.163100 0.000000
-16.137800 0.000000
-16.112400 0.000000
-16.087100 0.000000
-16.061700 0.000000
-16.036400 0.000000
-16.011100 0.000000
-15.985700 0.000000
-15.960400 0.000000
-15.935000 0.000000
-15.909700 0.000000
-15.884300 0.000000
-15.859000 0.000000
-15.833700 0.000000
-15.808300 0.000000
-15.783000 0.000000
-15.757600 0.000000
-15.732300 0.000000
-15.707000 0.000000
-15.681600 0.000000
-15.656300 0.000000
-15.630900 0.000000
-15.605600 0.000000
-15.580200 0.000000
-15.554900 0.000000
-15.529600 0.000000
-15.504200 0.000000
-15.478900 0.000000
-15.453500 0.000000
-15.428200 0.000000
-15.402800 0.000000
-15.377500 0.000000
-15.352200 0.000000
-15.326800 0.000000
-15.301500 0.000000
-15.276100 0.000000
-15.250800 0.000000
-15.225500 0.000000
-15.200100 0.000000
-15.174800 0.000000
-15.149400 0.000000
-15.124100 0.000000
-15.098700 0.000000
-15.073400 0.000000
-15.048100 0.000000
-15.022700 0.000000
-14.997400 0.000000
-14.972000 0.000000
-14.946700 0.000000
-14.921300 0.000000
-14.896000 0.000000
-14.870700 0.000000
-14.845300 0.000000
-14.820000 0.000000
-14.794600 0.000000
-14.769300 0.000000
-14.744000 0.000000
-14.718600 0.000000
-14.693300 0.000000
-14.667900 0.000000
-14.642600 0.000000
-14.617200 0.000000
-14.591900 0.000000
-14.566600 0.000000
-14.541200 0.000000
-14.515900 0.000000
-14.490500 0.000000
-14.465200 0.000000
-14.439800 0.000000
-14.414500 0.000000
-14.389200 0.000000
-14.363800 0.000000
-14.338500 0.000000
-14.313100 0.000000
-14.287800 0.000000
-14.262500 0.000000
-14.237100 0.000000
-14.211800 0.000000
-14.186400 0.000000
-14.161100 0.000000
-14.135700 0.000000
-14.110400 0.000000
-14.085100 0.000000
-14.059700 0.000000
-14.034400 0.000000
-14.009000 0.000000
-13.983700 0.000000
-13.958300 0.000000
-13.933000 0.000000
-13.907700 0.000000
-13.882300 0.000000
-13.857000 0.000000
-13.831600 0.000000
-13.806300 0.000000
-13.781000 0.000000
-13.755600 0.000000
-13.730300 0.000000
-13.704900 0.000000
-13.679600 0.000000
-13.654200 0.000000
-13.628900 0.000000
-13.603600 0.000000
-13.578200 0.000000
-13.552900 0.000000
-13.527500 0.000000
-13.502200 0.000000
-13.476800 0.000000
-13.451500 0.000000
-13.426200 0.000000
-13.400800 0.000000
-13.375500 0.000000
-13.350100 0.000000
-13.324800 0.000000
-13.299500 0.000000
-13.274100 0.000000
-13.248800 0.000000
-13.223400 0.000000
-13.198100 0.000000
-13.172700 0.000000
-13.147400 0.000000
-13.122100 0.000000
-13.096700 0.000000
-13.071400 0.000000
-13.046000 0.000000
-13.020700 0.000000
-12.995300 0.000000
-12.970000 0.000000
-12.944700 0.000000
-12.919300 0.000000
-12.894000 0.000000
-12.868600 0.000000
-12.843300 0.000000
-12.818000 0.000000
-12.792600 0.000000
-12.767300 0.000000
-12.741900 0.000000
-12.716600 0.000000
-12.691200 0.000000
-12.665900 0.000000
-12.640600 0.000000
-12.615200 0.000000
-12.589900 0.000000
-12.564500 0.000000
-12.539200 0.000000
-12.513800 0.000000
-12.488500 0.000000
-12.463200 0.000000
-12.437800 0.000000
-12.412500 0.000000
-12.387100 0.000000
-12.361800 0.000000
-12.336500 0.000000
-12.311100 0.000000
-12.285800 0.000000
-12.260400 0.000000
-12.235100 0.000000
-12.209700 0.000000
-12.184400 0.000000
-12.159100 0.000000
-12.133700 0.000000
-12.108400 0.000000
-12.083000 0.000000
-12.057700 0.000000
-12.032400 0.000000
-12.007000 0.000000
-11.981700 0.000000
-11.956300 0.000000
-11.931000 0.000000
-11.905600 0.000000
-11.880300 0.000000
-11.855000 0.000000
-11.829600 0.000000
-11.804300 0.000000
-11.778900 0.000000
-11.753600 0.000000
-11.728200 0.000000
-11.702900 0.000000
-11.677600 0.000000
-11.652200 0.000000
-11.626900 0.000000
-11.601500 0.000000
-11.576200 0.000000
-11.550900 0.000000
-11.525500 0.000000
-11.500200 0.000000
-11.474800 0.000000
-11.449500 0.000000
-11.424100 0.000000
-11.398800 0.000000
-11.373500 0.000000
-11.348100 0.000000
-11.322800 0.000000
-11.297400 0.000000
-11.272100 0.000000
-11.246700 0.000000
-11.221400 0.000000
-11.196100 0.000000
-11.170700 0.000000
-11.145400 0.000000
-11.120000 0.000000
-11.094700 0.000000
-11.069400 0.000000
-11.044000 0.000000
-11.018700 0.000000
-10.993300 0.000000
-10.968000 0.000000
-10.942600 0.000000
-10.917300 0.000000
-10.892000 0.000000
-10.866600 0.000000
-10.841300 0.000000
-10.815900 0.000000
-10.790600 0.000000
-10.765200 0.000000
-10.739900 0.000000
-10.714600 0.000000
-10.689200 0.000000
-10.663900 0.000000
-10.638500 0.000000
-10.613200 0.000000
-10.587900 0.000000
-10.562500 0.000000
-10.537200 0.000000
-10.511800 0.000000
-10.486500 0.000000
-10.461100 0.000000
-10.435800 0.000000
-10.410500 0.000000
-10.385100 0.000000
-10.359800 0.000000
-10.334400 0.000000
-10.309100 0.000000
-10.283700 0.000000
-10.258400 0.000000
-10.233100 0.000000
-10.207700 0.000000
-10.182400 0.000000
-10.157000 0.000000
-10.131700 0.000000
-10.106400 0.000000
-10.081000 0.000000
-10.055700 0.000000
-10.030300 0.000000
-10.005000 0.000000
-9.979600 0.000000
-9.954300 0.000000
-9.929000 0.000000
-9.903600 0.000000
-9.878300 0.000000
-9.852900 0.000000
-9.827600 0.000000
-9.802200 0.000000
-9.776900 0.000000
-9.751600 0.000000
-9.726200 0.000000
-9.700900 0.000000
-9.675500 0.000000
-9.650200 0.000000
-9.624900 0.000000
-9.599500 0.000000
-9.574200 0.000000
-9.548800 0.000000
-9.523500 0.000000
-9.498100 0.000000
-9.472800 0.000000
-9.447500 0.000000
-9.422100 0.000000
-9.396800 0.000000
-9.371400 0.000000
-9.346100 0.000000
-9.320700 0.000000
-9.295400 0.000000
-9.270100 0.000000
-9.244700 0.000000
-9.219400 0.000000
-9.194000 0.000000
-9.168700 0.000000
-9.143400 0.000000
-9.118000 0.000000
-9.092700 0.000000
-9.067300 0.000000
-9.042000 0.000000
-9.016600 0.000000
-8.991300 0.000000
-8.966000 0.000000
-8.940600 0.000000
-8.915300 0.000000
-8.889900 0.000000
-8.864600 0.000000
-8.839200 0.000000
-8.813900 0.000000
-8.788600 0.000000
-8.763200 0.000000
-8.737900 0.000000
-8.712500 0.000000
-8.687200 0.000000
-8.661900 0.000000
-8.636500 0.000000
-8.611200 0.000000
-8.585800 0.000000
-8.560500 0.000000
-8.535100 0.000000
-8.509800 0.000000
-8.484500 0.000000
-8.459100 0.000000
-8.433800 0.000000
-8.408400 0.000000
-8.383100 0.000000
-8.357800 0.000000
-8.332400 0.000000
-8.307100 0.000000
-8.281700 0.000000
-8.256400 0.000000
-8.231000 0.000000
-8.205700 0.000000
-8.180400 0.000000
-8.155000 0.000000
-8.129700 0.000000
-8.104300 0.000000
-8.079000 0.000000
-8.053600 0.000000
-8.028300 0.000000
-8.003000 0.000000
-7.977600 0.000000
-7.952300 0.000000
-7.926900 0.000000
-7.901600 0.000000
-7.876300 0.000000
-7.850900 0.000000
-7.825600 0.000000
-7.800200 0.000000
-7.774900 0.000000
-7.749500 0.000000
-7.724200 0.000000
-7.698900 0.000000
-7.673500 0.000000
-7.648200 0.000000
-7.622800 0.000000
-7.597500 0.000000
-7.572100 0.000000
-7.546800 0.000000
-7.521500 0.000000
-7.496100 0.000000
-7.470800 0.000000
-7.445400 0.000000
-7.420100 0.000000
-7.394800 0.000000
-7.369400 0.000000
-7.344100 0.000000
-7.318700 0.000000
-7.293400 0.000000
-7.268000 0.000000
-7.242700 0.000000
-7.217400 0.000000
-7.192000 0.000000
-7.166700 0.000000
-7.141300 0.000000
-7.116000 0.000000
-7.090600 0.000000
-7.065300 0.000000
-7.040000 0.000000
-7.014600 0.000000
-6.989300 0.000000
-6.963900 0.000000
-6.938600 0.000000
-6.913300 0.000000
-6.887900 0.000000
-6.862600 0.000000
-6.837200 0.000000
-6.811900 0.000000
-6.786500 0.000000
-6.761200 0.000000
-6.735900 0.000000
-6.710500 0.000000
-6.685200 0.000000
-6.659800 0.000000
-6.634500 0.000000
-6.609100 0.000000
-6.583800 0.000000
-6.558500 0.000000
-6.533100 0.000000
-6.507800 0.000000
-6.482400 0.000000
-6.457100 0.000000
-6.431800 0.000000
-6.406400 0.000000
-6.381100 0.000000
-6.355700 0.000000
-6.330400 0.000000
-6.305000 0.000000
-6.279700 0.000000
-6.254400 0.000000
-6.229000 0.000000
-6.203700 0.000000
-6.178300 0.000000
-6.153000 0.000000
-6.127600 0.000000
-6.102300 0.000000
-6.077000 0.000000
-6.051600 0.000000
-6.026300 0.000000
-6.000900 0.000000
-5.975600 0.000000
-5.950300 0.000000
-5.924900 0.000000
-5.899600 0.000000
-5.874200 0.000000
-5.848900 0.000000
-5.823500 0.000000
-5.798200 0.000000
-5.772900 0.000000
-5.747500 0.000000
-5.722200 0.000000
-5.696800 0.000000
-5.671500 0.000000
-5.646100 0.000000
-5.620800 0.000000
-5.595500 0.000000
-5.570100 0.000000
-5.544800 0.000000
-5.519400 0.000000
-5.494100 0.000000
-5.468800 0.000000
-5.443400 0.000000
-5.418100 0.000000
-5.392700 0.000000
-5.367400 0.000000
-5.342000 0.000000
-5.316700 0.000000
-5.291400 0.000000
-5.266000 0.000000
-5.240700 0.000000
-5.215300 0.000000
-5.190000 0.000000
-5.164600 0.000000
-5.139300 0.000000
-5.114000 0.000000
-5.088600 0.000000
-5.063300 0.000000
-5.037900 0.000000
-5.012600 0.000000
-4.987300 0.000000
-4.961900 0.000000
-4.936600 0.000000
-4.911200 0.000000
-4.885900 0.000000
-4.860500 0.000000
-4.835200 0.000000
-4.809900 0.000000
-4.784500 0.000000
-4.759200 0.000000
-4.733800 0.000000
-4.708500 0.000000
-4.683200 0.000000
-4.657800 0.000000
-4.632500 0.000000
-4.607100 0.000000
-4.581800 0.000000
-4.556400 0.000000
-4.531100 0.000000
-4.505800 0.000000
-4.480400 0.000000
-4.455100 0.000000
-4.429700 0.000000
-4.404400 0.000000
-4.379000 0.000000
-4.353700 0.000000
-4.328400 0.000000
-4.303000 0.000000
-4.277700 0.000000
-4.252300 0.000000
-4.227000 0.000000
-4.201700 0.000000
-4.176300 0.000000
-4.151000 0.000000
-4.125600 0.000000
-4.100300 0.000000
-4.074900 0.000000
-4.049600 0.000000
-4.024300 0.000000
-3.998900 0.000000
-3.973600 0.000000
-3.948200 0.000000
-3.922900 0.000000
-3.897500 0.000000
-3.872200 0.000000
-3.846900 0.000000
-3.821500 0.000000
-3.796200 0.000000
-3.770800 0.000000
-3.745500 0.000000
-3.720200 0.000000
-3.694800 0.000000
-3.669500 0.000000
-3.644100 0.000000
-3.618800 0.000000
-3.593400 0.000000
-3.568100 0.000000
-3.542800 0.000000
-3.517400 0.000000
-3.492100 0.000000
-3.466700 0.000000
-3.441400 0.000000
-3.416000 0.000000
-3.390700 0.000000
-3.365400 0.000000
-3.340000 0.008200
-3.314700 0.030900
-3.289300 0.068100
-3.264000 0.131200
-3.238700 0.125800
-3.213300 0.130700
-3.188000 0.142500
-3.162600 0.156300
-3.137300 0.172100
-3.111900 0.189800
-3.086600 0.205300
-3.061300 0.219600
-3.035900 0.234500
-3.010600 0.245200
-2.985200 0.251700
-2.959900 0.259400
-2.934500 0.270700
-2.909200 0.282400
-2.883900 0.294400
-2.858500 0.306800
-2.833200 0.319500
-2.807800 0.332000
-2.782500 0.344600
-2.757200 0.357600
-2.731800 0.372000
-2.706500 0.387600
-2.681100 0.404100
-2.655800 0.418800
-2.630400 0.434200
-2.605100 0.450200
-2.579800 0.466500
-2.554400 0.483100
-2.529100 0.500200
-2.503700 0.518400
-2.478400 0.547900
-2.453000 0.580600
-2.427700 0.617700
-2.402400 0.662900
-2.377000 0.870800
-2.351700 1.509200
-2.326300 2.433100
-2.301000 3.285000
-2.275700 4.703000
-2.250300 5.602900
-2.225000 7.014700
-2.199600 9.168900
-2.174300 12.335700
-2.148900 13.715200
-2.123600 15.639600
-2.098300 15.104300
-2.072900 14.929100
-2.047600 16.646700
-2.022200 17.572600
-1.996900 18.339200
-1.971500 19.350900
-1.946200 19.145100
-1.920900 22.344800
-1.895500 22.299900
-1.870200 19.652700
-1.844800 21.434500
-1.819500 17.580400
-1.794200 17.853200
-1.768800 15.822400
-1.743500 14.664500
-1.718100 15.051300
-1.692800 13.487300
-1.667400 20.288600
-1.642100 18.076100
-1.616800 14.241500
-1.591400 15.207200
-1.566100 16.437200
-1.540700 15.694300
-1.515400 12.357000
-1.490000 9.182800
-1.464700 11.988400
-1.439400 10.674800
-1.414000 10.881500
-1.388700 12.514200
-1.363300 14.652800
-1.338000 13.888100
-1.312700 12.809900
-1.287300 13.855800
-1.262000 15.872100
-1.236600 14.750200
-1.211300 13.957600
-1.185900 14.371400
-1.160600 15.959600
-1.135300 14.363700
-1.109900 13.691500
-1.084600 13.945000
-1.059200 14.429500
-1.033900 19.179800
-1.008600 14.088800
-0.983200 18.315200
-0.957900 29.411900
-0.932500 14.723400
-0.907200 14.952800
-0.881800 16.574100
-0.856500 16.513000
-0.831200 13.427100
-0.805800 13.370100
-0.780500 13.616600
-0.755100 8.246200
-0.729800 9.683400
-0.704400 12.313000
-0.679100 14.100300
-0.653800 17.205400
-0.628400 16.779300
-0.603100 15.804900
-0.577700 15.506300
-0.552400 14.162300
-0.527100 14.227300
-0.501700 14.084200
-0.476400 14.698500
-0.451000 12.740600
-0.425700 10.166600
-0.400300 9.059200
-0.375000 9.254800
-0.349700 15.832200
-0.324300 9.082800
-0.299000 7.959000
-0.273600 13.072200
-0.248300 17.159200
-0.222900 19.078000
-0.197600 5.947100
-0.172300 2.615900
-0.146900 1.991800
-0.121600 1.708100
-0.096200 1.513700
-0.070900 1.374200
-0.045600 1.271100
-0.020200 1.199100
0.005100 1.152500
0.030500 1.116200
0.055800 1.083000
0.081200 1.059800
0.106500 1.036400
0.131800 1.011800
0.157200 0.989900
0.182500 0.974100
0.207900 0.958300
0.233200 0.932900
0.258600 0.892600
0.283900 0.868500
0.309200 0.852100
0.334600 0.839100
0.359900 0.830300
0.385300 0.830600
0.410600 0.834200
0.435900 0.831900
0.461300 0.823700
0.486600 0.808000
0.512000 0.796800
0.537300 0.797400
0.562700 0.792600
0.588000 0.781700
0.613300 0.770300
0.638700 0.760400
0.664000 0.762500
0.689400 0.774700
0.714700 0.769600
0.740100 0.746400
0.765400 0.740400
0.790700 1.113600
0.816100 1.263400
0.841400 1.309700
0.866800 1.778900
0.892100 1.640200
0.917400 1.763500
0.942800 1.705800
0.968100 1.703600
0.993500 1.663600
1.018800 1.608600
1.044200 1.585100
1.069500 1.449000
1.094800 1.406200
1.120200 1.372800
1.145500 1.318900
1.170900 1.287100
1.196200 1.298000
1.221600 1.304300
1.246900 1.315400
1.272200 1.319700
1.297600 1.314700
1.322900 1.308700
1.348300 1.299900
1.373600 1.292700
1.398900 1.273200
1.424300 1.241600
1.449600 1.227800
1.475000 1.218400
1.500300 1.214500
1.525700 1.201700
1.551000 1.190200
1.576300 1.168300
1.601700 1.151600
1.627000 1.144700
1.652400 1.140300
1.677700 1.140000
1.703100 1.140300
1.728400 1.138900
1.753700 1.135700
1.779100 1.134900
1.804400 1.132700
1.829800 1.149300
1.855100 1.146700
1.880400 1.145000
1.905800 1.141900
1.931100 1.143700
1.956500 1.147500
1.981800 1.152300
2.007200 1.156700
2.032500 1.161400
2.057800 1.173200
2.083200 1.192200
2.108500 1.214100
2.133900 1.259800
2.159200 1.259800
2.184600 1.261900
2.209900 1.268900
2.235200 1.300900
2.260600 1.366400
2.285900 1.457000
2.311300 1.509100
2.336600 1.572800
2.361900 1.652700
2.387300 1.669300
2.412600 1.659300
2.438000 1.634800
2.463300 1.647100
2.488700 1.663500
2.514000 1.692400
2.539300 1.722300
2.564700 1.736200
2.590000 1.733700
2.615400 1.737200
2.640700 1.739500
2.666000 1.739000
2.691400 1.739900
2.716700 1.749300
2.742100 1.863800
2.767400 1.973200
2.792800 1.894800
2.818100 1.814000
2.843400 1.796200
2.868800 1.812500
2.894100 1.829300
2.919500 1.808500
2.944800 1.818100
2.970200 1.826500
2.995500 1.846900
3.020800 1.894100
3.046200 1.963400
3.071500 2.203400
3.096900 2.019800
3.122200 2.010800
3.147500 1.991800
3.172900 1.968100
3.198200 1.943700
3.223600 1.917500
3.248900 1.902600
3.274300 1.862800
3.299600 1.825900
3.324900 1.795700
3.350300 1.799100
3.375600 1.665100
3.401000 1.717800
3.426300 1.826400
3.451700 1.952100
3.477000 2.079100
3.502300 2.209800
3.527700 2.411200
3.553000 2.688300
3.578400 2.686600
3.603700 2.468200
3.629000 2.248800
3.654400 2.111300
3.679700 2.003400
3.705100 1.867900
3.730400 1.825700
3.755800 1.924800
3.781100 2.003200
3.806400 1.900400
3.831800 1.818400
3.857100 1.792500
3.882500 1.824100
3.907800 1.841400
3.933200 1.868700
3.958500 1.870500
3.983800 1.893700
4.009200 1.926900
4.034500 2.006800
4.059900 2.122900
4.085200 2.246100
4.110500 2.335700
4.135900 2.431800
4.161200 2.519400
4.186600 2.561900
4.211900 2.639600
4.237300 2.560800
4.262600 2.655200
4.287900 2.781400
4.313300 2.864100
4.338600 2.781400
4.364000 2.479700
4.389300 2.166600
4.414700 2.010600
4.440000 1.853300
4.465300 1.671700
4.490700 1.510900
4.516000 1.407300
4.541400 1.359400
4.566700 1.345800
4.592000 1.165000
4.617400 1.027700
4.642700 1.061800
4.668100 1.067200
4.693400 1.063500
4.718800 1.024100
4.744100 1.037800
4.769400 1.064000
4.794800 1.104400
4.820100 1.122000
4.845500 1.135700
4.870800 1.153600
4.896200 1.287300
4.921500 1.414200
4.946800 1.511100
4.972200 1.571100
4.997500 1.613600
5.022900 1.664100
5.048200 1.729400
5.073500 1.818200
5.098900 1.889300
5.124200 1.956700
5.149600 2.021900
5.174900 2.103100
5.200300 2.242700
5.225600 2.305500
5.250900 2.339000
5.276300 2.353400
5.301600 2.351600
5.327000 2.354300
5.352300 2.317300
5.377700 2.320800
5.403000 2.380900
5.428300 2.438800
5.453700 2.454100
5.479000 2.450200
5.504400 2.470200
5.529700 2.702900
5.555000 2.947800
5.580400 3.232100
5.605700 3.576000
5.631100 3.759400
5.656400 4.056800
5.681800 4.245000
5.707100 3.845500
5.732400 3.684000
5.757800 3.487900
5.783100 3.350100
5.808500 3.362500
5.833800 3.216400
5.859200 3.059200
5.884500 2.933000
5.909800 2.843700
5.935200 2.680000
5.960500 2.452800
5.985900 2.332300
6.011200 2.197300
6.036500 2.033400
6.061900 1.912400
6.087200 1.762700
6.112600 1.720600
6.137900 1.651200
6.163300 1.680400
6.188600 1.774000
6.213900 1.978500
6.239300 2.241800
6.264600 2.577000
6.290000 2.951400
6.315300 3.428600
6.340600 3.772900
6.366000 4.181600
6.391300 4.364200
6.416700 4.370600
6.442000 4.522800
6.467400 4.688900
6.492700 4.403900
6.518000 4.090800
6.543400 3.996400
6.568700 4.015900
6.594100 4.594700
6.619400 4.380500
6.644800 4.000200
6.670100 3.673300
6.695400 3.382600
6.720800 3.292900
6.746100 3.311300
6.771500 3.312100
6.796800 3.433600
6.822100 3.767300
6.847500 7.412600
6.872800 3.414200
6.898200 3.130400
6.923500 2.987600
6.948900 2.924500
6.974200 2.822900
6.999500 2.607300
7.024900 2.536300
7.050200 2.478700
7.075600 2.456800
7.100900 2.429100
7.126300 2.007600
7.151600 1.915400
7.176900 1.823000
7.202300 1.779800
7.227600 1.704400
7.253000 1.639200
7.278300 1.586800
7.303600 1.585300
7.329000 1.777300
7.354300 1.650500
7.379700 1.590500
7.405000 1.497600
7.430400 1.470900
7.455700 1.449900
7.481000 1.427400
7.506400 1.408400
7.531700 1.374300
7.557100 1.337000
7.582400 1.321700
7.607800 1.313500
7.633100 1.312700
7.658400 1.327800
7.683800 1.320300
7.709100 1.331800
7.734500 1.361700
7.759800 1.397900
7.785100 1.466200
7.810500 1.496800
7.835800 1.529300
7.861200 1.561300
7.886500 1.610100
7.911900 1.731700
7.937200 2.061600
7.962500 1.982800
7.987900 1.881600
8.013200 1.819900
8.038600 1.749400
8.063900 1.700100
8.089300 1.628000
8.114600 1.508400
8.139900 1.402100
8.165300 1.336700
8.190600 1.292200
8.216000 1.249900
8.241300 1.211600
8.266600 1.179700
8.292000 1.154100
8.317300 1.132000
8.342700 1.109700
8.368000 1.089200
8.393400 1.089800
8.418700 1.084400
8.444000 1.116900
8.469400 1.137100
8.494700 1.160500
8.520100 1.236500
8.545400 1.312100
8.570800 1.339500
8.596100 1.317500
8.621400 1.287700
8.646800 1.294500
8.672100 1.325900
8.697500 1.370800
8.722800 1.569600
8.748100 1.489700
8.773500 1.547800
8.798800 1.594300
8.824200 1.634400
8.849500 1.672200
8.874900 1.667500
8.900200 1.636000
8.925500 1.603700
8.950900 1.590000
8.976200 1.500200
9.001600 1.420800
9.026900 1.664700
9.052300 1.920500
9.077600 2.144100
9.102900 2.343600
9.128300 2.432100
9.153600 2.728100
9.179000 3.031200
9.204300 3.243100
9.229600 3.537200
9.255000 3.695500
9.280300 3.573000
9.305700 3.239800
9.331000 2.892700
9.356400 2.545000
9.381700 2.374200
9.407000 2.221100
9.432400 2.107600
9.457700 2.020300
9.483100 1.941400
9.508400 1.858600
9.533800 1.773300
9.559100 1.689100
9.584400 1.620500
9.609800 1.568500
9.635100 1.519600
9.660500 1.470300
9.685800 1.414800
9.711100 1.361800
9.736500 1.305600
9.761800 1.258600
9.787200 1.287200
9.812500 1.327900
9.837900 1.361900
9.863200 1.421500
9.888500 1.510000
9.913900 1.557400
9.939200 1.603500
9.964600 1.655200
9.989900 1.752700
10.015200 1.601800
10.040600 1.572500
10.065900 1.615400
10.091300 1.651800
10.116600 1.675500
10.142000 1.677700
10.167300 1.703000
10.192600 1.731200
10.218000 1.755200
10.243300 1.757300
10.268700 1.851700
10.294000 2.067200
10.319400 2.016300
10.344700 1.990800
10.370000 2.012200
10.395400 2.015100
10.420700 1.985200
10.446100 1.969400
10.471400 1.983500
10.496700 2.119200
10.522100 2.144600
10.547400 2.324700
10.572800 2.176600
10.598100 2.047400
10.623500 1.949400
10.648800 1.880500
10.674100 1.861900
10.699500 1.840900
10.724800 1.826000
10.750200 1.819000
10.775500 1.824800
10.800900 1.825100
10.826200 1.819100
10.851500 1.914500
10.876900 1.952800
10.902200 2.006100
10.927600 2.078200
10.952900 2.144900
10.978200 2.414500
11.003600 2.131000
11.028900 1.880100
11.054300 1.772000
11.079600 1.783800
11.105000 1.806000
11.130300 1.706700
11.155600 1.742200
11.181000 1.783800
11.206300 1.817100
11.231700 1.820600
11.257000 1.847700
11.282400 1.850600
11.307700 1.806200
11.333000 1.755800
11.358400 1.703100
11.383700 1.693700
11.409100 1.670500
11.434400 1.653900
11.459700 1.657700
11.485100 1.671800
11.510400 1.679300
11.535800 1.698700
11.561100 1.739300
11.586500 1.796600
11.611800 1.853900
11.637100 1.900400
11.662500 1.839300
11.687800 1.771200
11.713200 1.696800
11.738500 1.655500
11.763900 1.642200
11.789200 1.650100
11.814500 1.714900
11.839900 1.682100
11.865200 1.712400
11.890600 1.743600
11.915900 1.764900
11.941200 2.065100
11.966600 1.848200
11.991900 1.857100
12.017300 1.888900
12.042600 1.899000
12.068000 1.922300
12.093300 1.973600
12.118600 2.017300
12.144000 2.037000
12.169300 2.078500
12.194700 2.055700
12.220000 2.023800
12.245400 2.096000
12.270700 2.051200
12.296000 2.009700
12.321400 2.060900
12.346700 2.040100
12.372100 2.006200
12.397400 1.961600
12.422700 1.846500
12.448100 1.764800
12.473400 1.726100
12.498800 1.702800
12.524100 1.701900
12.549500 1.720100
12.574800 1.762600
12.600100 1.767000
12.625500 1.753400
12.650800 1.753100
12.676200 1.763600
12.701500 1.805600
12.726900 1.859500
12.752200 1.936600
12.777500 2.048900
12.802900 2.182500
12.828200 2.363100
12.853600 2.488200
12.878900 2.646500
12.904200 2.802400
12.929600 2.976800
12.954900 3.155800
12.980300 3.398500
13.005600 3.688300
13.031000 4.077600
13.056300 4.785000
13.081600 7.736500
13.107000 32.239300
13.132300 11.403800
13.157700 8.751400
13.183000 6.980800
13.208400 5.670000
13.233700 5.068800
13.259000 4.635900
13.284400 4.371000
13.309700 4.121400
13.335100 3.746600
13.360400 3.296700
13.385700 3.218900
13.411100 3.271900
13.436400 3.220700
13.461800 3.066800
13.487100 3.008800
13.512500 2.846200
13.537800 2.854700
13.563100 2.933900
13.588500 3.063900
13.613800 3.363100
13.639200 3.667100
13.664500 3.193400
13.689800 2.991400
13.715200 2.833700
13.740500 2.621000
13.765900 2.504500
13.791200 2.401300
13.816600 2.202400
13.841900 2.137100
13.867200 2.107500
13.892600 2.113700
13.917900 2.178500
13.943300 2.191000
13.968600 2.283100
13.994000 2.377100
14.019300 2.447700
14.044600 2.495900
14.070000 2.517200
14.095300 2.485500
14.120700 2.536000
14.146000 2.615300
14.171300 2.694800
14.196700 2.666900
14.222000 2.620600
14.247400 2.646100
14.272700 2.504800
14.298100 2.427000
14.323400 2.392000
14.348700 2.364600
14.374100 2.340600
14.399400 2.316100
14.424800 2.289100
14.450100 2.300600
14.475500 2.266000
14.500800 2.337200
14.526100 2.205700
14.551500 2.104400
14.576800 2.054400
14.602200 2.000100
14.627500 1.991400
14.652800 2.026400
14.678200 2.102500
14.703500 2.198200
14.728900 2.345300
14.754200 2.436600
14.779600 2.489600
14.804900 2.506600
14.830200 2.542300
14.855600 2.604700
14.880900 2.697400
14.906300 2.800000
14.931600 2.811100
14.957000 2.795700
14.982300 2.757400
15.007600 2.696300
15.033000 2.580200
15.058300 2.444600
15.083700 2.285900
15.109000 2.068100
15.134300 2.036800
15.159700 2.110700
15.185000 2.164800
15.210400 2.213600
15.235700 2.271100
15.261100 2.319900
15.286400 2.358100
15.311700 2.375400
15.337100 2.382600
15.362400 2.377300
15.387800 2.376900
15.413100 2.380600
15.438500 2.382700
15.463800 2.395300
15.489100 2.405900
15.514500 2.433900
15.539800 2.350000
15.565200 2.368700
15.590500 2.438200
15.615800 2.321000
15.641200 2.406700
15.666500 2.474600
15.691900 2.523300
15.717200 2.553700
15.742600 2.565400
15.767900 2.561400
15.793200 2.553800
15.818600 2.527000
15.843900 2.429200
15.869300 2.346500
15.894600 2.328200
15.920000 2.338800
15.945300 2.336200
15.970600 2.330800
15.996000 2.289100
16.021300 2.203100
16.046700 2.206300
16.072000 2.256100
16.097300 2.322700
16.122700 2.378600
16.148000 2.422900
16.173400 2.462600
16.198700 2.517400
16.224100 2.584900
16.249400 2.631800
16.274700 2.684400
16.300100 2.758600
16.325400 2.969800
16.350800 3.083800
16.376100 3.151100
16.401500 3.252900
16.426800 3.486000
16.452100 3.348600
16.477500 3.211200
16.502800 3.038300
16.528200 3.009600
16.553500 2.941900
16.578800 2.940000
16.604200 2.895500
16.629500 2.857900
16.654900 2.826700
16.680200 2.735100
16.705600 2.541900
16.730900 2.567800
16.756200 2.675600
16.781600 2.830000
16.806900 3.008400
16.832300 3.132300
16.857600 3.249400
16.883000 3.362900
16.908300 3.479200
16.933600 3.616300
16.959000 3.796000
16.984300 3.949000
17.009700 4.028200
17.035000 4.264000
17.060300 4.548800
17.085700 4.406400
17.111000 3.942100
17.136400 3.505600
17.161700 3.056900
17.187100 2.903100
17.212400 2.779900
17.237700 2.673600
17.263100 2.565600
17.288400 2.452500
17.313800 2.357900
17.339100 2.275900
17.364400 2.214200
17.389800 2.244600
17.415100 2.377200
17.440500 2.440500
17.465800 2.471400
17.491200 2.385000
17.516500 2.259900
17.541800 2.237100
17.567200 2.064500
17.592500 2.079400
17.617900 1.946400
17.643200 1.891200
17.668600 1.877800
17.693900 1.892500
17.719200 1.965400
17.744600 1.999000
17.769900 2.088800
17.795300 2.199300
17.820600 2.319500
17.845900 2.385100
17.871300 2.439400
17.896600 2.465400
17.922000 2.507900
17.947300 2.548900
17.972700 2.639700
17.998000 2.809600
18.023300 2.898600
18.048700 3.023800
18.074000 3.168500
18.099400 3.446600
18.124700 3.287400
18.150100 3.081400
18.175400 2.823400
18.200700 2.584800
18.226100 2.348300
18.251400 2.208400
18.276800 2.066100
18.302100 1.978400
18.327400 1.881600
18.352800 1.793200
18.378100 1.735600
18.403500 1.697700
18.428800 1.676800
18.454200 1.749100
18.479500 1.846300
18.504800 1.871600
18.530200 1.660800
18.555500 1.499800
18.580900 1.418100
18.606200 1.408500
18.631600 1.455400
18.656900 1.482900
18.682200 1.541700
18.707600 1.627700
18.732900 1.705200
18.758300 1.767800
18.783600 1.816500
18.808900 1.859500
18.834300 1.907600
18.859600 1.924800
18.885000 1.893800
18.910300 1.910900
18.935700 1.927500
18.961000 2.019200
18.986300 2.024800
19.011700 2.014300
19.037000 2.058800
19.062400 2.167100
19.087700 2.290500
19.113100 2.419400
19.138400 2.430100
19.163700 2.443100
19.189100 2.444700
19.214400 2.442300
19.239800 2.466300
19.265100 2.511600
19.290400 2.568100
19.315800 2.616600
19.341100 2.576900
19.366500 2.441200
19.391800 2.511500
19.417200 2.620100
19.442500 2.796500
19.467800 3.045900
19.493200 3.185200
19.518500 3.223500
19.543900 3.243700
19.569200 3.213900
19.594600 3.079900
19.619900 3.073100
19.645200 2.882300
19.670600 2.713800
19.695900 2.662800
19.721300 2.639900
19.746600 2.623800
19.771900 2.709200
19.797300 2.671800
19.822600 2.594800
19.848000 2.549600
19.873300 2.514700
19.898700 2.431400
19.924000 2.353100
19.949300 2.377100
19.974700 2.713400
20.000000 2.658300
20.025400 2.689200
20.050700 2.723400
20.076100 2.759100
20.101400 2.779300
20.126700 2.790800
20.152100 2.795500
20.177400 2.812400
20.202800 2.851500
20.228100 2.893800
20.253400 2.909600
20.278800 2.972700
20.304100 2.885900
20.329500 3.057200
20.354800 2.969200
20.380200 2.925700
20.405500 2.929900
20.430800 2.897600
20.456200 2.967100
20.481500 3.077500
20.506900 3.164000
20.532200 3.225700
20.557600 3.577600
20.582900 3.641500
20.608200 3.183900
20.633600 3.091100
20.658900 3.065400
20.684300 3.069200
20.709600 2.970800
20.734900 2.970600
20.760300 2.837900
20.785600 2.823500
20.811000 2.807500
20.836300 2.731300
20.861700 2.642600
20.887000 2.573900
20.912300 2.566400
20.937700 2.740900
20.963000 2.682300
20.988400 2.738400
21.013700 2.822800
21.039000 2.831100
21.064400 2.811400
21.089700 2.801000
21.115100 2.912000
21.140400 3.012400
21.165800 3.021700
21.191100 3.075500
21.216400 3.128600
21.241800 3.186400
21.267100 3.187500
21.292500 3.117100
21.317800 3.036200
21.343200 3.018200
21.368500 3.010000
21.393800 3.027700
21.419200 2.962000
21.444500 2.878400
21.469900 2.808900
21.495200 2.773000
21.520500 2.811200
21.545900 2.855700
21.571200 2.913700
21.596600 2.926900
21.621900 2.766300
21.647300 2.688300
21.672600 2.630700
21.697900 2.608500
21.723300 2.511600
21.748600 2.558500
21.774000 2.613300
21.799300 2.642400
21.824700 2.691000
21.850000 2.769700
21.875300 2.836500
21.900700 2.788400
21.926000 2.777600
21.951400 2.752300
21.976700 2.842700
22.002000 2.979900
22.027400 3.170900
22.052700 3.045600
22.078100 3.059700
22.103400 3.103200
22.128800 3.308900
22.154100 3.290600
22.179400 3.164500
22.204800 3.109200
22.230100 3.095100
22.255500 2.992200
22.280800 2.797200
22.306200 2.637100
22.331500 2.453400
22.356800 2.322300
22.382200 2.257500
22.407500 2.171200
22.432900 2.132400
22.458200 2.078900
22.483500 2.046200
22.508900 2.037700
22.534200 2.057200
22.559600 2.093100
22.584900 2.147000
22.610300 2.223200
22.635600 2.360300
22.660900 2.499900
22.686300 2.527700
22.711600 2.611000
22.737000 2.615500
22.762300 2.668900
22.787700 2.709900
22.813000 2.752200
22.838300 2.774600
22.863700 2.776100
22.889000 2.754400
22.914400 2.708100
22.939700 2.637300
22.965000 2.615600
22.990400 2.589900
23.015700 2.537600
23.041100 2.473600
23.066400 2.494900
23.091800 2.449900
23.117100 2.396500
23.142400 2.338500
23.167800 2.323600
23.193100 2.312800
23.218500 2.323700
23.243800 2.380200
23.269200 2.457200
23.294500 2.531600
23.319800 2.593900
23.345200 2.644300
23.370500 2.682300
23.395900 2.800800
23.421200 2.819100
23.446500 2.768500
23.471900 2.722200
23.497200 2.768600
23.522600 2.831100
23.547900 2.938200
23.573300 3.000300
23.598600 3.088700
23.623900 3.178300
23.649300 3.334900
23.674600 3.223600
23.700000 3.129700
23.725300 3.076200
23.750700 3.072700
23.776000 3.067200
23.801300 3.078400
23.826700 3.019600
23.852000 2.988200
23.877400 2.978800
23.902700 2.884100
23.928000 2.777300
23.953400 2.708600
23.978700 3.056800
24.004100 2.587600
24.029400 2.458900
24.054800 2.386000
24.080100 2.305700
24.105400 2.260100
24.130800 2.249300
24.156100 2.248400
24.181500 2.271000
24.206800 2.334000
24.232200 2.341700
24.257500 2.333100
24.282800 2.374400
24.308200 2.524300
24.333500 2.628900
24.358900 2.739300
24.384200 2.872800
24.409500 3.027200
24.434900 3.186500
24.460200 3.346000
24.485600 3.307400
24.510900 3.176300
24.536300 3.101600
24.561600 3.002200
24.586900 2.900900
24.612300 2.940800
24.637600 2.901800
24.663000 2.848400
24.688300 2.821900
24.713600 2.835100
24.739000 2.804700
24.764300 2.674100
24.789700 2.582700
24.815000 2.586200
24.840400 2.498500
24.865700 2.422000
24.891000 2.372600
24.916400 2.314600
24.941700 2.309600
24.967100 2.359100
24.992400 2.397600
25.017800 2.385600
25.043100 2.193300
25.068400 2.118900
25.093800 1.921400
25.119100 1.623500
25.144500 1.541600
25.169800 1.485500
25.195100 1.483000
25.220500 1.458100
25.245800 1.344000
25.271200 1.340200
25.296500 1.307300
25.321900 1.273500
25.347200 1.251100
25.372500 1.196600
25.397900 1.136600
25.423200 0.983800
25.448600 0.860700
25.473900 0.758800
25.499300 0.677000
25.524600 0.608900
25.549900 0.583500
25.575300 0.435200
25.600600 0.366600
25.626000 0.298100
25.651300 0.255400
25.676600 0.226200
25.702000 0.202200
25.727300 0.180600
25.752700 0.161300
25.778000 0.144200
25.803400 0.129200
25.828700 0.116100
25.854000 0.104700
25.879400 0.094700
25.904700 0.084800
25.930100 0.074900
25.955400 0.066400
25.980800 0.062300
26.006100 0.059900
26.031400 0.057500
26.056800 0.055100
26.082100 0.052600
26.107500 0.049900
26.132800 0.047100
26.158100 0.044100
26.183500 0.040900
26.208800 0.037600
26.234200 0.034100
26.259500 0.030500
26.284900 0.026700
26.310200 0.022900
26.335500 0.023800
26.360900 0.022000
26.386200 0.018100
26.411600 0.014400
26.436900 0.011000
26.462300 0.008100
26.487600 0.005700
26.512900 0.003700
26.538300 0.002100
26.563600 0.001000
26.589000 0.000300
26.614300 0.000000
26.639600 0.000000
26.665000 0.000000
26.690300 0.000000
26.715700 0.000000
26.741000 0.000000
26.766400 0.000000
26.791700 0.000000
26.817000 0.000000
26.842400 0.000000
26.867700 0.000000
26.893100 0.000000
26.918400 0.000000
26.943800 0.000000
26.969100 0.000000
26.994400 0.000000
27.019800 0.000000
27.045100 0.000000
27.070500 0.000000
27.095800 0.000000
27.121100 0.000000
27.146500 0.000000
27.171800 0.000000
27.197200 0.000000
27.222500 0.000000
27.247900 0.000000
27.273200 0.000000
27.298500 0.000000
27.323900 0.000000
27.349200 0.000000
27.374600 0.000000
27.399900 0.000000
27.425300 0.000000
27.450600 0.000000
27.475900 0.000000
27.501300 0.000000
27.526600 0.000000
27.552000 0.000000
27.577300 0.000000
27.602600 0.000000
27.628000 0.000000
27.653300 0.000000
27.678700 0.000000
27.704000 0.000000
27.729400 0.000000
27.754700 0.000000
27.780000 0.000000
27.805400 0.000000
27.830700 0.000000
27.856100 0.000000
27.881400 0.000000
27.906800 0.000000
27.932100 0.000000
27.957400 0.000000
27.982800 0.000000
28.008100 0.000000
28.033500 0.000000
28.058800 0.000000
28.084100 0.000000
28.109500 0.000000
28.134800 0.000000
28.160200 0.000000
28.185500 0.000000
28.210900 0.000000
28.236200 0.000000
28.261500 0.000000
28.286900 0.000000
28.312200 0.000000
28.337600 0.000000
28.362900 0.000000
28.388200 0.000000
28.413600 0.000000
28.438900 0.000000
28.464300 0.000000
28.489600 0.000000
28.515000 0.000000
28.540300 0.000000
28.565600 0.000000
28.591000 0.000000
28.616300 0.000000
28.641700 0.000000
28.667000 0.000000
28.692400 0.000000
28.717700 0.000000
28.743000 0.000000
28.768400 0.000000
28.793700 0.000000
28.819100 0.000000
28.844400 0.000000
28.869700 0.000000
28.895100 0.000000
28.920400 0.000000
e
