set title 'mp-696114 - Density of States'
set xlabel 'Energy (eV)'
set ylabel 'DOS (states/eV)'
set grid
set xrange [-10:10]
set yrange [0:9.715]
set xzeroaxis lt -1
set terminal png size 800,600
set output 'mp-696114_dos_gnuplot.png'
plot '-' using 1:2 with lines title 'DOS'
-16.855200 0.000000
-16.826900 0.000000
-16.798700 0.000000
-16.770400 0.000000
-16.742100 0.000000
-16.713900 0.000000
-16.685600 0.000000
-16.657400 0.000000
-16.629100 0.000000
-16.600800 0.000000
-16.572600 0.000000
-16.544300 0.000000
-16.516100 0.000000
-16.487800 0.000000
-16.459500 0.000000
-16.431300 0.000000
-16.403000 0.000000
-16.374800 0.000000
-16.346500 0.000000
-16.318300 0.000000
-16.290000 0.000000
-16.261700 0.000000
-16.233500 0.000000
-16.205200 0.000000
-16.177000 0.000000
-16.148700 0.000000
-16.120400 0.000000
-16.092200 0.000000
-16.063900 0.000000
-16.035700 0.000000
-16.007400 0.000000
-15.979100 0.000000
-15.950900 0.000000
-15.922600 0.000000
-15.894400 0.000000
-15.866100 0.000000
-15.837800 0.000000
-15.809600 0.000000
-15.781300 0.000000
-15.753100 0.000000
-15.724800 0.000000
-15.696500 0.000000
-15.668300 0.000000
-15.640000 0.000000
-15.611800 0.000000
-15.583500 0.000000
-15.555200 0.000000
-15.527000 0.000000
-15.498700 0.000000
-15.470500 0.000000
-15.442200 0.000000
-15.413900 0.000000
-15.385700 0.000000
-15.357400 0.000000
-15.329200 0.000000
-15.300900 0.000000
-15.272600 0.000000
-15.244400 0.000000
-15.216100 0.000000
-15.187900 0.000000
-15.159600 0.000000
-15.131300 0.000000
-15.103100 0.000000
-15.074800 0.000000
-15.046600 0.000000
-15.018300 0.000000
-14.990100 0.000000
-14.961800 0.000000
-14.933500 0.000000
-14.905300 0.000000
-14.877000 0.000000
-14.848800 0.000000
-14.820500 0.000000
-14.792200 0.000000
-14.764000 0.000000
-14.735700 0.000000
-14.707500 0.000000
-14.679200 0.000000
-14.650900 0.000000
-14.622700 0.000000
-14.594400 0.000000
-14.566200 0.000000
-14.537900 0.000000
-14.509600 0.000000
-14.481400 0.000000
-14.453100 0.000000
-14.424900 0.000000
-14.396600 0.000000
-14.368300 0.000000
-14.340100 0.000000
-14.311800 0.000000
-14.283600 0.002900
-14.255300 0.275100
-14.227000 0.458300
-14.198800 0.565700
-14.170500 0.592200
-14.142300 0.598600
-14.114000 0.590800
-14.085700 0.614700
-14.057500 0.639400
-14.029200 0.649800
-14.001000 0.653600
-13.972700 0.670100
-13.944400 0.691600
-13.916200 0.714200
-13.887900 0.733900
-13.859700 0.754900
-13.831400 0.778400
-13.803100 0.802400
-13.774900 0.826800
-13.746600 0.856700
-13.718400 0.902200
-13.690100 0.950200
-13.661900 0.991500
-13.633600 1.031600
-13.605300 1.071800
-13.577100 1.148900
-13.548800 1.272500
-13.520600 1.379300
-13.492300 1.491500
-13.464000 1.714400
-13.435800 2.604700
-13.407500 4.514700
-13.379300 3.744400
-13.351000 3.917700
-13.322700 3.715400
-13.294500 3.812500
-13.266200 10.656900
-13.238000 16.954600
-13.209700 0.000000
-13.181400 0.000000
-13.153200 0.000000
-13.124900 0.000000
-13.096700 0.000000
-13.068400 0.000000
-13.040100 0.000000
-13.011900 0.000000
-12.983600 0.000000
-12.955400 0.000000
-12.927100 0.000000
-12.898800 0.000000
-12.870600 0.000000
-12.842300 0.000000
-12.814100 0.000000
-12.785800 0.000000
-12.757500 0.000000
-12.729300 0.000000
-12.701000 0.000000
-12.672800 0.000000
-12.644500 0.000000
-12.616200 0.000000
-12.588000 0.000000
-12.559700 0.000000
-12.531500 0.000000
-12.503200 0.000000
-12.474900 0.000000
-12.446700 0.000000
-12.418400 0.000000
-12.390200 0.000000
-12.361900 0.000000
-12.333700 0.000000
-12.305400 0.000000
-12.277100 0.000000
-12.248900 0.000000
-12.220600 0.000000
-12.192400 0.000000
-12.164100 0.000000
-12.135800 0.000000
-12.107600 0.000000
-12.079300 0.000000
-12.051100 0.000000
-12.022800 0.000000
-11.994500 0.000000
-11.966300 0.000000
-11.938000 0.000000
-11.909800 0.000000
-11.881500 0.000000
-11.853200 0.000000
-11.825000 0.000000
-11.796700 0.000000
-11.768500 0.000000
-11.740200 0.000000
-11.711900 0.000000
-11.683700 0.000000
-11.655400 0.000000
-11.627200 0.000000
-11.598900 0.000000
-11.570600 0.000000
-11.542400 0.000000
-11.514100 0.000000
-11.485900 0.000000
-11.457600 0.000000
-11.429300 0.000000
-11.401100 0.000000
-11.372800 0.000000
-11.344600 0.000000
-11.316300 0.000000
-11.288000 0.000000
-11.259800 0.000000
-11.231500 0.000000
-11.203300 0.000000
-11.175000 0.000000
-11.146700 0.000000
-11.118500 0.000000
-11.090200 0.000000
-11.062000 0.000000
-11.033700 0.000000
-11.005400 0.000000
-10.977200 0.000000
-10.948900 0.000000
-10.920700 0.000000
-10.892400 0.000000
-10.864200 0.000000
-10.835900 0.000000
-10.807600 0.000000
-10.779400 0.000000
-10.751100 0.000000
-10.722900 0.000000
-10.694600 0.000000
-10.666300 0.000000
-10.638100 0.000000
-10.609800 0.000000
-10.581600 0.000000
-10.553300 0.000000
-10.525000 0.000000
-10.496800 0.000000
-10.468500 0.000000
-10.440300 0.000000
-10.412000 0.000000
-10.383700 0.000000
-10.355500 0.000000
-10.327200 0.000000
-10.299000 0.000000
-10.270700 0.000000
-10.242400 0.000000
-10.214200 0.000000
-10.185900 0.000000
-10.157700 0.000000
-10.129400 0.000000
-10.101100 0.000000
-10.072900 0.000000
-10.044600 0.000000
-10.016400 0.000000
-9.988100 0.000000
-9.959800 0.000000
-9.931600 0.000000
-9.903300 0.000000
-9.875100 0.000000
-9.846800 0.000000
-9.818500 0.000000
-9.790300 0.000000
-9.762000 0.000000
-9.733800 0.000000
-9.705500 0.000000
-9.677200 0.000000
-9.649000 0.000000
-9.620700 0.000000
-9.592500 0.000000
-9.564200 0.000000
-9.536000 0.000000
-9.507700 0.000000
-9.479400 0.000000
-9.451200 0.000000
-9.422900 0.000000
-9.394700 0.000000
-9.366400 0.000000
-9.338100 0.000000
-9.309900 0.000000
-9.281600 0.000000
-9.253400 0.000000
-9.225100 0.000000
-9.196800 0.000000
-9.168600 0.000000
-9.140300 0.000000
-9.112100 0.000000
-9.083800 0.000000
-9.055500 0.000000
-9.027300 0.000000
-8.999000 0.000000
-8.970800 0.000000
-8.942500 0.000000
-8.914200 0.000000
-8.886000 0.000000
-8.857700 0.000000
-8.829500 0.000000
-8.801200 0.000000
-8.772900 0.000000
-8.744700 0.000000
-8.716400 0.000000
-8.688200 0.000000
-8.659900 0.000000
-8.631600 0.000000
-8.603400 0.000000
-8.575100 0.000000
-8.546900 0.000000
-8.518600 0.000000
-8.490300 0.000000
-8.462100 0.000000
-8.433800 0.000000
-8.405600 0.000000
-8.377300 0.000000
-8.349000 0.000000
-8.320800 0.000000
-8.292500 0.000000
-8.264300 0.000000
-8.236000 0.000000
-8.207800 0.000000
-8.179500 0.000000
-8.151200 0.000000
-8.123000 0.000000
-8.094700 0.000000
-8.066500 0.000000
-8.038200 0.000000
-8.009900 0.000000
-7.981700 0.000000
-7.953400 0.000000
-7.925200 0.000000
-7.896900 0.000000
-7.868600 0.000000
-7.840400 0.000000
-7.812100 0.000000
-7.783900 0.000000
-7.755600 0.000000
-7.727300 0.000000
-7.699100 0.000000
-7.670800 0.000000
-7.642600 0.000000
-7.614300 0.000000
-7.586000 0.000000
-7.557800 0.000000
-7.529500 0.000000
-7.501300 0.000000
-7.473000 0.000000
-7.444700 0.000000
-7.416500 0.000000
-7.388200 0.000000
-7.360000 0.000000
-7.331700 0.000000
-7.303400 0.000000
-7.275200 0.000000
-7.246900 0.000000
-7.218700 0.000000
-7.190400 0.000000
-7.162100 0.000000
-7.133900 0.000000
-7.105600 0.000000
-7.077400 0.000000
-7.049100 0.000000
-7.020800 0.000000
-6.992600 0.000000
-6.964300 0.000000
-6.936100 0.000000
-6.907800 0.000000
-6.879600 0.000000
-6.851300 0.000000
-6.823000 0.000000
-6.794800 0.000000
-6.766500 0.000000
-6.738300 0.000000
-6.710000 0.000000
-6.681700 0.000000
-6.653500 0.000000
-6.625200 0.000000
-6.597000 0.000000
-6.568700 0.000000
-6.540400 0.000000
-6.512200 0.000000
-6.483900 0.000000
-6.455700 0.000000
-6.427400 0.000000
-6.399100 0.000000
-6.370900 0.000000
-6.342600 0.000000
-6.314400 0.000000
-6.286100 0.000000
-6.257800 0.000000
-6.229600 0.000000
-6.201300 0.000000
-6.173100 0.000000
-6.144800 0.000000
-6.116500 0.000000
-6.088300 0.000000
-6.060000 0.000000
-6.031800 0.000000
-6.003500 0.000000
-5.975200 0.000000
-5.947000 0.000000
-5.918700 0.000000
-5.890500 0.000000
-5.862200 0.000000
-5.833900 0.000000
-5.805700 0.000000
-5.777400 0.000000
-5.749200 0.000000
-5.720900 0.000000
-5.692600 0.000000
-5.664400 0.000000
-5.636100 0.000000
-5.607900 0.000000
-5.579600 0.000000
-5.551400 0.000000
-5.523100 0.000000
-5.494800 0.000000
-5.466600 0.000000
-5.438300 0.000000
-5.410100 0.000000
-5.381800 0.000000
-5.353500 0.000000
-5.325300 0.000000
-5.297000 0.000000
-5.268800 0.000000
-5.240500 0.000000
-5.212200 0.000000
-5.184000 0.000000
-5.155700 0.000000
-5.127500 0.000000
-5.099200 0.000000
-5.070900 0.000000
-5.042700 0.000000
-5.014400 0.000000
-4.986200 0.000000
-4.957900 0.000000
-4.929600 0.000000
-4.901400 0.000000
-4.873100 0.000000
-4.844900 0.000000
-4.816600 0.000000
-4.788300 0.000000
-4.760100 0.000000
-4.731800 0.000000
-4.703600 0.000000
-4.675300 0.000000
-4.647000 0.000000
-4.618800 0.000000
-4.590500 0.000000
-4.562300 0.000000
-4.534000 0.000000
-4.505700 0.000000
-4.477500 0.000000
-4.449200 0.000000
-4.421000 0.000000
-4.392700 0.000000
-4.364400 0.000000
-4.336200 0.000000
-4.307900 0.000000
-4.279700 0.000000
-4.251400 0.000000
-4.223200 0.000000
-4.194900 0.000000
-4.166600 0.079300
-4.138400 0.418400
-4.110100 0.789200
-4.081900 0.814000
-4.053600 0.736300
-4.025300 0.732500
-3.997100 0.766000
-3.968800 0.811400
-3.940600 0.856800
-3.912300 0.880800
-3.884000 0.900200
-3.855800 0.945400
-3.827500 1.059100
-3.799300 1.158300
-3.771000 1.271900
-3.742700 1.402800
-3.714500 1.795300
-3.686200 1.985200
-3.658000 1.511300
-3.629700 1.850000
-3.601400 1.335600
-3.573200 1.097400
-3.544900 1.156600
-3.516700 1.281600
-3.488400 1.458400
-3.460100 1.676100
-3.431900 1.673200
-3.403600 1.909600
-3.375400 1.293700
-3.347100 0.969400
-3.318800 0.768100
-3.290600 0.157800
-3.262300 5.399400
-3.234100 4.218800
-3.205800 4.028100
-3.177500 3.972100
-3.149300 4.002900
-3.121000 2.699000
-3.092800 1.785400
-3.064500 1.345500
-3.036200 1.165600
-3.008000 0.999100
-2.979700 0.930100
-2.951500 0.892800
-2.923200 0.849700
-2.895000 0.828200
-2.866700 0.817300
-2.838400 0.802100
-2.810200 0.785900
-2.781900 0.774100
-2.753700 0.801200
-2.725400 1.635000
-2.697100 2.377200
-2.668900 6.304100
-2.640600 8.289300
-2.612400 7.704700
-2.584100 3.648800
-2.555800 1.806600
-2.527600 1.602900
-2.499300 1.777700
-2.471100 1.985300
-2.442800 2.422800
-2.414500 3.117300
-2.386300 6.764000
-2.358000 5.408000
-2.329800 1.785500
-2.301500 1.388100
-2.273200 1.620000
-2.245000 3.614400
-2.216700 2.298400
-2.188500 2.609900
-2.160200 2.307300
-2.131900 1.092500
-2.103700 0.883800
-2.075400 0.843500
-2.047200 0.837100
-2.018900 0.831200
-1.990600 0.833300
-1.962400 1.345600
-1.934100 1.226000
-1.905900 1.067100
-1.877600 1.102300
-1.849300 1.137500
-1.821100 1.172700
-1.792800 1.208200
-1.764600 1.325500
-1.736300 1.541500
-1.708000 1.737000
-1.679800 1.860600
-1.651500 2.087000
-1.623300 2.281700
-1.595000 2.365400
-1.566800 2.420100
-1.538500 2.439500
-1.510200 2.232600
-1.482000 1.923300
-1.453700 1.821400
-1.425500 1.815500
-1.397200 1.749100
-1.368900 1.803900
-1.340700 1.433700
-1.312400 1.268700
-1.284200 1.195900
-1.255900 2.190700
-1.227600 3.159300
-1.199400 5.019700
-1.171100 3.340700
-1.142900 3.180000
-1.114600 2.957800
-1.086300 2.655500
-1.058100 2.602000
-1.029800 2.735200
-1.001600 3.146900
-0.973300 4.055600
-0.945000 5.047600
-0.916800 3.565300
-0.888500 1.759400
-0.860300 1.462000
-0.832000 1.454400
-0.803700 1.404300
-0.775500 1.065300
-0.747200 0.835500
-0.719000 0.707900
-0.690700 0.640100
-0.662400 0.557700
-0.634200 0.484100
-0.605900 0.432400
-0.577700 0.389300
-0.549400 0.365500
-0.521100 1.523100
-0.492900 8.831600
-0.464600 7.410500
-0.436400 5.472800
-0.408100 4.776900
-0.379800 4.443500
-0.351600 4.774000
-0.323300 5.023100
-0.295100 4.792600
-0.266800 4.558300
-0.238600 5.221300
-0.210300 5.293200
-0.182000 5.697700
-0.153800 2.902100
-0.125500 1.362700
-0.097300 0.000000
-0.069000 0.000000
-0.040700 0.000000
-0.012500 0.000000
0.015800 0.000000
0.044000 0.000000
0.072300 0.000000
0.100600 0.000000
0.128800 0.000000
0.157100 0.000000
0.185300 0.000000
0.213600 0.000000
0.241900 0.000000
0.270100 0.000000
0.298400 0.000000
0.326600 0.000000
0.354900 0.000000
0.383200 0.000000
0.411400 0.000000
0.439700 0.000000
0.467900 0.000000
0.496200 0.000000
0.524500 0.000000
0.552700 0.000000
0.581000 0.000000
0.609200 0.000000
0.637500 0.261000
0.665800 1.167800
0.694000 1.690600
0.722300 2.349000
0.750500 2.638100
0.778800 2.874400
0.807100 3.181200
0.835300 3.278000
0.863600 3.291600
0.891800 3.202000
0.920100 3.100300
0.948400 3.116100
0.976600 3.862100
1.004900 5.640700
1.033100 6.914500
1.061400 5.715300
1.089600 4.370700
1.117900 4.382900
1.146200 2.893300
1.174400 1.516200
1.202700 1.059100
1.230900 0.903100
1.259200 0.846000
1.287500 0.875400
1.315700 0.677900
1.344000 0.639000
1.372200 0.245500
1.400500 0.000000
1.428800 0.000000
1.457000 0.000000
1.485300 0.000000
1.513500 0.000000
1.541800 0.000000
1.570100 0.000000
1.598300 0.000000
1.626600 0.000000
1.654800 0.000000
1.683100 0.000000
1.711400 0.000000
1.739600 0.000000
1.767900 0.000000
1.796100 0.000000
1.824400 0.000000
1.852700 0.000000
1.880900 0.000000
1.909200 0.000000
1.937400 0.000000
1.965700 0.000000
1.994000 0.000000
2.022200 0.000000
2.050500 0.000000
2.078700 0.000000
2.107000 0.000000
2.135300 0.000000
2.163500 0.000000
2.191800 0.000000
2.220000 0.000000
2.248300 0.000000
2.276600 0.000000
2.304800 0.000000
2.333100 0.000000
2.361300 0.000000
2.389600 0.000000
2.417800 0.000000
2.446100 0.000000
2.474400 0.000000
2.502600 0.000000
2.530900 0.000000
2.559100 0.000000
2.587400 0.000000
2.615700 0.000000
2.643900 0.000000
2.672200 0.000000
2.700400 0.000000
2.728700 0.000000
2.757000 0.000000
2.785200 0.000000
2.813500 0.000000
2.841700 0.000000
2.870000 0.000000
2.898300 0.000000
2.926500 0.000000
2.954800 0.000000
2.983000 0.000000
3.011300 0.000000
3.039600 0.000000
3.067800 0.000000
3.096100 0.000000
3.124300 0.000000
3.152600 0.000000
3.180900 0.000000
3.209100 0.000000
3.237400 0.000000
3.265600 0.000000
3.293900 0.000000
3.322200 0.000000
3.350400 0.000000
3.378700 0.000000
3.406900 0.000000
3.435200 0.000000
3.463500 0.000000
3.491700 0.000000
3.520000 0.000000
3.548200 0.000000
3.576500 0.000000
3.604800 0.000000
3.633000 0.000000
3.661300 0.000000
3.689500 0.000000
3.717800 0.000000
3.746000 0.000000
3.774300 0.000000
3.802600 0.000000
3.830800 0.000000
3.859100 0.000000
3.887300 0.000000
3.915600 0.000000
3.943900 0.000000
3.972100 0.000000
4.000400 0.000000
4.028600 0.000000
4.056900 0.000000
4.085200 0.000000
4.113400 0.000000
4.141700 0.000000
4.169900 0.000000
4.198200 0.000000
4.226500 0.000000
4.254700 0.000000
4.283000 0.000000
4.311200 0.000000
4.339500 0.000000
4.367800 0.000000
4.396000 0.000000
4.424300 0.000000
4.452500 0.000000
4.480800 0.000000
4.509100 0.000000
4.537300 0.000000
4.565600 0.000000
4.593800 0.000000
4.622100 0.000000
4.650400 0.000000
4.678600 0.000000
4.706900 0.000000
4.735100 0.000000
4.763400 0.000000
4.791700 0.000000
4.819900 0.000000
4.848200 0.000000
4.876400 0.000000
4.904700 0.000000
4.933000 0.000000
4.961200 0.000000
4.989500 0.000000
5.017700 0.000000
5.046000 0.000000
5.074200 0.000000
5.102500 0.000000
5.130800 0.000000
5.159000 0.000000
5.187300 0.000000
5.215500 0.000000
5.243800 0.000000
5.272100 0.000000
5.300300 0.000000
5.328600 0.000000
5.356800 0.000000
5.385100 0.000000
5.413400 0.000000
5.441600 0.000000
5.469900 0.000000
5.498100 0.000000
5.526400 0.000000
5.554700 0.000000
5.582900 0.000000
5.611200 0.000000
5.639400 0.000000
5.667700 0.000500
5.696000 0.001900
5.724200 0.004500
5.752500 0.008000
5.780700 0.012500
5.809000 0.017700
5.837300 0.023400
5.865500 0.028300
5.893800 0.030500
5.922000 0.032000
5.950300 0.033000
5.978600 0.033400
6.006800 0.036000
6.035100 0.038600
6.063300 0.041300
6.091600 0.044100
6.119900 0.047000
6.148100 0.049800
6.176400 0.052600
6.204600 0.055400
6.232900 0.058200
6.261200 0.060900
6.289400 0.063400
6.317700 0.066500
6.345900 0.069600
6.374200 0.072600
6.402400 0.075600
6.430700 0.078700
6.459000 0.081900
6.487200 0.085200
6.515500 0.088600
6.543700 0.120700
6.572000 0.201300
6.600300 0.304400
6.628500 0.392600
6.656800 0.458300
6.685000 0.506300
6.713300 0.564000
6.741600 0.620500
6.769800 0.655600
6.798100 0.658600
6.826300 0.657200
6.854600 0.671000
6.882900 0.690400
6.911100 0.712000
6.939400 0.733900
6.967600 0.756100
6.995900 0.778400
7.024200 0.801500
7.052400 0.835500
7.080700 0.882700
7.108900 0.954900
7.137200 1.029200
7.165500 1.083400
7.193700 1.118500
7.222000 1.144100
7.250200 1.159600
7.278500 1.227000
7.306800 1.365400
7.335000 1.570000
7.363300 1.695300
7.391500 1.784500
7.419800 1.608800
7.448100 1.555500
7.476300 1.619600
7.504600 1.551800
7.532800 0.943500
7.561100 0.605000
7.589400 0.301800
7.617600 0.204300
7.645900 0.201900
7.674100 0.186800
7.702400 0.136800
7.730600 0.094400
7.758900 0.097100
7.787200 0.099900
7.815400 0.102600
7.843700 0.105300
7.871900 0.110900
7.900200 0.134900
7.928500 0.183600
7.956700 0.272600
7.985000 0.392400
8.013200 0.514200
8.041500 0.627600
8.069800 0.752900
8.098000 0.802400
8.126300 0.816500
8.154500 0.840000
8.182800 0.869200
8.211100 0.892800
8.239300 0.901200
8.267600 0.898700
8.295800 0.892500
8.324100 0.881500
8.352400 0.866800
8.380600 0.845100
8.408900 0.846200
8.437100 0.847500
8.465400 0.848500
8.493700 0.856300
8.521900 0.871700
8.550200 0.876200
8.578400 0.887900
8.606700 0.889300
8.635000 0.891200
8.663200 0.837100
8.691500 0.789500
8.719700 0.726700
8.748000 0.694700
8.776300 0.666200
8.804500 0.607200
8.832800 0.570000
8.861000 0.531100
8.889300 0.488800
8.917600 0.455100
8.945800 0.427000
8.974100 0.403700
9.002300 0.385200
9.030600 0.368100
9.058800 0.350200
9.087100 0.329200
9.115400 0.309300
9.143600 0.380800
9.171900 0.402300
9.200100 0.427900
9.228400 0.450600
9.256700 0.472400
9.284900 0.519900
9.313200 0.553600
9.341400 0.595000
9.369700 0.667300
9.398000 0.710300
9.426200 0.736400
9.454500 0.804600
9.482700 0.891600
9.511000 0.975800
9.539300 1.099300
9.567500 1.144900
9.595800 1.183600
9.624000 1.268200
9.652300 1.387500
9.680600 1.469200
9.708800 1.514400
9.737100 1.673900
9.765300 1.751700
9.793600 1.924000
9.821900 2.144200
9.850100 2.152600
9.878400 1.865000
9.906600 1.592000
9.934900 1.310000
9.963200 1.141900
9.991400 1.029900
10.019700 0.990400
10.047900 0.985200
10.076200 0.988400
10.104500 0.999300
10.132700 1.028400
10.161000 1.007300
10.189200 0.979200
10.217500 0.885900
10.245800 0.722500
10.274000 0.717000
10.302300 0.764600
10.330500 0.688600
10.358800 0.749400
10.387000 0.850800
10.415300 1.093600
10.443600 1.404500
10.471800 1.623200
10.500100 1.798800
10.528300 1.975000
10.556600 2.081400
10.584900 2.212100
10.613100 2.396800
10.641400 2.245500
10.669600 1.936000
10.697900 1.548100
10.726200 1.362400
10.754400 1.254300
10.782700 1.179800
10.810900 1.133200
10.839200 1.265100
10.867500 1.528300
10.895700 1.767400
10.924000 1.771500
10.952200 1.751700
10.980500 1.801100
11.008800 1.859500
11.037000 2.010700
11.065300 2.195400
11.093500 2.277600
11.121800 2.347900
11.150100 2.348900
11.178300 2.343900
11.206600 2.401000
11.234800 2.475700
11.263100 2.372100
11.291400 2.232400
11.319600 2.055000
11.347900 1.825200
11.376100 1.401500
11.404400 1.340500
11.432700 1.254100
11.460900 1.177700
11.489200 1.155400
11.517400 1.136000
11.545700 1.117400
11.574000 1.120900
11.602200 1.118500
11.630500 1.167200
11.658700 1.182500
11.687000 1.250800
11.715200 1.325000
11.743500 1.363800
11.771800 1.400300
11.800000 1.466700
11.828300 1.484900
11.856500 1.513100
11.884800 1.612500
11.913100 1.580500
11.941300 1.385700
11.969600 1.175600
11.997800 1.087200
12.026100 1.234000
12.054400 1.509100
12.082600 1.717200
12.110900 1.768400
12.139100 1.862200
12.167400 1.813800
12.195700 1.751300
12.223900 1.700500
12.252200 1.699000
12.280400 1.729800
12.308700 1.828100
12.337000 1.875300
12.365200 1.703900
12.393500 1.534300
12.421700 1.406000
12.450000 1.279500
12.478300 1.165100
12.506500 1.063100
12.534800 0.989300
12.563000 0.938100
12.591300 0.900400
12.619600 0.866600
12.647800 0.830300
12.676100 0.800800
12.704300 0.779600
12.732600 0.757000
12.760900 0.736300
12.789100 0.720400
12.817400 0.713100
12.845600 0.705600
12.873900 0.704400
12.902200 0.683400
12.930400 0.656000
12.958700 0.636000
12.986900 0.668800
13.015200 0.619200
13.043400 0.526100
13.071700 0.480300
13.100000 0.479300
13.128200 0.482800
13.156500 0.498300
13.184700 0.527300
13.213000 0.556000
13.241300 0.588300
13.269500 0.695500
13.297800 0.841700
13.326000 0.954500
13.354300 0.921700
13.382600 0.898900
13.410800 0.865500
13.439100 0.831400
13.467300 0.804500
13.495600 0.731200
13.523900 0.628700
13.552100 0.544700
13.580400 0.495700
13.608600 0.464800
13.636900 0.446100
13.665200 0.436300
13.693400 0.422000
13.721700 0.417000
13.749900 0.452200
13.778200 0.466600
13.806500 0.487100
13.834700 0.503300
13.863000 0.515600
13.891200 0.524200
13.919500 0.529300
13.947800 0.533200
13.976000 0.536900
14.004300 0.540700
14.032500 0.537100
14.060800 0.533800
14.089100 0.531900
14.117300 0.530700
14.145600 0.530800
14.173800 0.532900
14.202100 0.536500
14.230400 0.536800
14.258600 0.541400
14.286900 0.545000
14.315100 0.548700
14.343400 0.554000
14.371600 0.560900
14.399900 0.567000
14.428200 0.571800
14.456400 0.578000
14.484700 0.584700
14.512900 0.591500
14.541200 0.598300
14.569500 0.604800
14.597700 0.610800
14.626000 0.616600
14.654200 0.643400
14.682500 0.805300
14.710800 0.998200
14.739000 1.141700
14.767300 1.201900
14.795500 1.245800
14.823800 1.256500
14.852100 1.322700
14.880300 1.409700
14.908600 1.498400
14.936800 1.571600
14.965100 1.631600
14.993400 1.625400
15.021600 1.591200
15.049900 1.562200
15.078100 1.521000
15.106400 1.478600
15.134700 1.463300
15.162900 1.459900
15.191200 1.463400
15.219400 1.444600
15.247700 1.821800
15.276000 1.252000
15.304200 1.130200
15.332500 1.016500
15.360700 0.983800
15.389000 0.949000
15.417300 0.923700
15.445500 0.896600
15.473800 0.869000
15.502000 0.838900
15.530300 0.817300
15.558600 0.797700
15.586800 0.777400
15.615100 0.754600
15.643300 0.726900
15.671600 0.686300
15.699800 0.676000
15.728100 0.671600
15.756400 0.676400
15.784600 0.694300
15.812900 0.692200
15.841100 0.681300
15.869400 0.729300
15.897700 0.697600
15.925900 0.706700
15.954200 0.722400
15.982400 0.737800
16.010700 0.756600
16.039000 0.758500
16.067200 0.770300
16.095500 0.770900
16.123700 0.772400
16.152000 0.796400
16.180300 0.818100
16.208500 0.839700
16.236800 0.861200
16.265000 0.866900
16.293300 0.866000
16.321600 0.863400
16.349800 0.857700
16.378100 0.853100
16.406300 0.868400
16.434600 0.886900
16.462900 0.920400
16.491100 0.954600
16.519400 0.983500
16.547600 1.023900
16.575900 1.083200
16.604200 1.167100
16.632400 1.329300
16.660700 1.512800
16.688900 1.934200
16.717200 1.734300
16.745500 1.515400
16.773700 1.424000
16.802000 1.398200
16.830200 1.415200
16.858500 1.466700
16.886800 1.487400
16.915000 1.493700
16.943300 1.469300
16.971500 1.411800
16.999800 1.369600
17.028100 1.261900
17.056300 1.208700
17.084600 1.172100
17.112800 1.180100
17.141100 1.196000
17.169300 1.211600
17.197600 1.233200
17.225900 1.262500
17.254100 1.286200
17.282400 1.308700
17.310600 1.312500
17.338900 1.277700
17.367200 1.241000
17.395400 1.208000
17.423700 1.173300
17.451900 1.157600
17.480200 1.148100
17.508500 1.150700
17.536700 1.165300
17.565000 1.181400
17.593200 1.198500
17.621500 1.203900
17.649800 1.210300
17.678000 1.174500
17.706300 1.135300
17.734500 1.118300
17.762800 1.103400
17.791100 1.098300
17.819300 1.098300
17.847600 1.129800
17.875800 1.118100
17.904100 1.105500
17.932400 1.090400
17.960600 1.079700
17.988900 1.084000
18.017100 1.103900
18.045400 1.124900
18.073700 1.144200
18.101900 1.165000
18.130200 1.189100
18.158400 1.213800
18.186700 1.238600
18.215000 1.219300
18.243200 1.227400
18.271500 1.243700
18.299700 1.248000
18.328000 1.243400
18.356300 1.232500
18.384500 1.201600
18.412800 1.187700
18.441000 1.185000
18.469300 1.196300
18.497500 1.236100
18.525800 1.214700
18.554100 1.204000
18.582300 1.257700
18.610600 1.300600
18.638800 1.291000
18.667100 1.239100
18.695400 1.147800
18.723600 1.054800
18.751900 0.995700
18.780100 0.954800
18.808400 0.932100
18.836700 0.921300
18.864900 0.923000
18.893200 0.944200
18.921400 0.962100
18.949700 0.974000
18.978000 0.986400
19.006200 0.994900
19.034500 0.996800
19.062700 0.994400
19.091000 1.001100
19.119300 1.004100
19.147500 0.981200
19.175800 0.947000
19.204000 0.962800
19.232300 0.989500
19.260600 1.009700
19.288800 1.045700
19.317100 1.038700
19.345300 1.069700
19.373600 1.102500
19.401900 1.067400
19.430100 0.990600
19.458400 0.971100
19.486600 0.996900
19.514900 1.020200
19.543200 1.038000
19.571400 1.061600
19.599700 1.087900
19.627900 1.123300
19.656200 1.139500
19.684500 1.141200
19.712700 1.123900
19.741000 1.090500
19.769200 1.083800
19.797500 1.104700
19.825700 1.122700
19.854000 1.145100
19.882300 1.180000
19.910500 1.206700
19.938800 1.225000
19.967000 1.235000
19.995300 1.199700
20.023600 1.170800
20.051800 1.141800
20.080100 1.121500
20.108300 1.104800
20.136600 1.085700
20.164900 1.071000
20.193100 1.060800
20.221400 1.059800
20.249600 1.086400
20.277900 1.148000
20.306200 1.202500
20.334400 1.251100
20.362700 1.322900
20.390900 1.394800
20.419200 1.410300
20.447500 1.480600
20.475700 1.508100
20.504000 1.564600
20.532200 1.596200
20.560500 1.602700
20.588800 1.603000
20.617000 1.590000
20.645300 1.555400
20.673500 1.519400
20.701800 1.481500
20.730100 1.430500
20.758300 1.380800
20.786600 1.446800
20.814800 1.382700
20.843100 1.365000
20.871400 1.347100
20.899600 1.301800
20.927900 1.281700
20.956100 1.274900
20.984400 1.262000
21.012700 1.251900
21.040900 1.248200
21.069200 1.253800
21.097400 1.263400
21.125700 1.263800
21.153900 1.271300
21.182200 1.305900
21.210500 1.315600
21.238700 1.333900
21.267000 1.341700
21.295200 1.321200
21.323500 1.320400
21.351800 1.320300
21.380000 1.319800
21.408300 1.318100
21.436500 1.297800
21.464800 1.287000
21.493100 1.277800
21.521300 1.271800
21.549600 1.265800
21.577800 1.259100
21.606100 1.236600
21.634400 1.214100
21.662600 1.207000
21.690900 1.184800
21.719100 1.164600
21.747400 1.151900
21.775700 1.247300
21.803900 1.157100
21.832200 1.209200
21.860400 1.246900
21.888700 1.280900
21.917000 1.311000
21.945200 1.309000
21.973500 1.313500
22.001700 1.323200
22.030000 1.358600
22.058300 1.399400
22.086500 1.374400
22.114800 1.316200
22.143000 1.285900
22.171300 1.292300
22.199600 1.295300
22.227800 1.277900
22.256100 1.249700
22.284300 1.198900
22.312600 1.139500
22.340900 1.102900
22.369100 0.987900
22.397400 0.914700
22.425600 0.859500
22.453900 0.839500
22.482100 0.891500
22.510400 0.943700
22.538700 0.826200
22.566900 0.860400
22.595200 0.896400
22.623400 0.925900
22.651700 0.950500
22.680000 0.979800
22.708200 1.021000
22.736500 1.051200
22.764700 1.052600
22.793000 1.041500
22.821300 1.031800
22.849500 1.033300
22.877800 1.040800
22.906000 1.059700
22.934300 1.076700
22.962600 1.092900
22.990800 1.112000
23.019100 1.168900
23.047300 1.211000
23.075600 1.240600
23.103900 1.314100
23.132100 1.351600
23.160400 1.360100
23.188600 1.398300
23.216900 1.358300
23.245200 1.354600
23.273400 1.380900
23.301700 1.358700
23.329900 1.298300
23.358200 1.220300
23.386500 1.167700
23.414700 1.131300
23.443000 1.130600
23.471200 1.196600
23.499500 1.225200
23.527800 1.255700
23.556000 1.253400
23.584300 1.256200
23.612500 1.286400
23.640800 1.305800
23.669100 1.311800
23.697300 1.315200
23.725600 1.324600
23.753800 1.367500
23.782100 1.382800
23.810300 1.401400
23.838600 1.424100
23.866900 1.442900
23.895100 1.481800
23.923400 1.515100
23.951600 1.460800
23.979900 1.500700
24.008200 1.430500
24.036400 1.447900
24.064700 1.494700
24.092900 1.659300
24.121200 1.651000
24.149500 1.480300
24.177700 1.385000
24.206000 1.348200
24.234200 1.413800
24.262500 1.515400
24.290800 1.578600
24.319000 1.613400
24.347300 1.566800
24.375500 1.466700
24.403800 1.399900
24.432100 1.368600
24.460300 1.330700
24.488600 1.280600
24.516800 1.171400
24.545100 1.161300
24.573400 1.156300
24.601600 1.156300
24.629900 1.163600
24.658100 1.165600
24.686400 1.158600
24.714700 1.145900
24.742900 1.130100
24.771200 1.109000
24.799400 1.080100
24.827700 1.070600
24.856000 1.137500
24.884200 1.224300
24.912500 1.330400
24.940700 1.402400
24.969000 1.443400
24.997300 1.474300
25.025500 1.466200
25.053800 1.473700
25.082000 1.437700
25.110300 1.438700
25.138500 1.437800
25.166800 1.466800
25.195100 1.210300
25.223300 1.092900
25.251600 1.018100
25.279800 0.981100
25.308100 0.920500
25.336400 0.881300
25.364600 0.882700
25.392900 0.919100
25.421100 0.936700
25.449400 0.938200
25.477700 0.991100
25.505900 1.095400
25.534200 1.238000
25.562400 1.372500
25.590700 1.467800
25.619000 1.494800
25.647200 1.465900
25.675500 1.438200
25.703700 1.391900
25.732000 1.343500
25.760300 1.312800
25.788500 1.316000
25.816800 1.324100
25.845000 1.319000
25.873300 1.299600
25.901600 1.273600
25.929800 1.251200
25.958100 1.158100
25.986300 1.132100
26.014600 1.108700
26.042900 1.108500
26.071100 1.129300
26.099400 1.171000
26.127600 1.241000
26.155900 1.309500
26.184200 1.265900
26.212400 1.267200
26.240700 1.271900
26.268900 1.255200
26.297200 1.259100
26.325500 1.278200
26.353700 1.308400
26.382000 1.348000
26.410200 1.375900
26.438500 1.410400
26.466700 1.421400
26.495000 1.424600
26.523300 1.420800
26.551500 1.371900
26.579800 1.362600
26.608000 1.375900
26.636300 1.366000
26.664600 1.352200
26.692800 1.337900
26.721100 1.322400
26.749300 1.322500
26.777600 1.324100
26.805900 1.340500
26.834100 1.301700
26.862400 1.325300
26.890600 1.337600
26.918900 1.409000
26.947200 1.379600
26.975400 1.358200
27.003700 1.295800
27.031900 1.209100
27.060200 1.153100
27.088500 1.139600
27.116700 1.156300
27.145000 1.145900
27.173200 1.170700
27.201500 1.605400
27.229800 1.205900
27.258000 1.115300
27.286300 1.052300
27.314500 1.014100
27.342800 0.962100
27.371100 0.906700
27.399300 0.878600
27.427600 0.896200
27.455800 0.937900
27.484100 0.991700
27.512400 1.047800
27.540600 1.124700
27.568900 1.171300
27.597100 1.225600
27.625400 1.315800
27.653700 1.422000
27.681900 1.610900
27.710200 1.570800
27.738400 1.586700
27.766700 1.553100
27.794900 1.440700
27.823200 1.412200
27.851500 1.404300
27.879700 1.407100
27.908000 1.410300
27.936200 1.413500
27.964500 1.412700
27.992800 1.411800
28.021000 1.409400
28.049300 1.433100
28.077500 1.450800
28.105800 1.434200
28.134100 1.345400
28.162300 1.291500
28.190600 1.245900
28.218800 1.215300
28.247100 1.186500
28.275400 1.154000
28.303600 1.130600
28.331900 1.119800
28.360100 1.110300
28.388400 1.108300
28.416700 1.120100
28.444900 1.138200
28.473200 1.185200
28.501400 1.246000
28.529700 1.320700
28.558000 1.392800
28.586200 1.463300
28.614500 1.516100
28.642700 1.562500
28.671000 1.598100
28.699300 1.641600
28.727500 1.651600
28.755800 1.643100
28.784000 1.630800
28.812300 1.616600
28.840600 1.577300
28.868800 1.443000
28.897100 1.375000
28.925300 1.337500
28.953600 1.320600
28.981900 1.296200
29.010100 1.276600
29.038400 1.262500
29.066600 1.261000
29.094900 1.256100
29.123100 1.272300
29.151400 1.261900
29.179700 1.288700
29.207900 1.323200
29.236200 1.360100
29.264400 1.399600
29.292700 1.410800
29.321000 1.422200
29.349200 1.443000
29.377500 1.503400
29.405700 1.400400
29.434000 1.342400
29.462300 1.285200
29.490500 1.231400
29.518800 1.207600
29.547000 1.191500
29.575300 1.194800
29.603600 1.194700
29.631800 1.217000
29.660100 1.261000
29.688300 1.306000
29.716600 1.354700
29.744900 1.388700
29.773100 1.402000
29.801400 1.414100
29.829600 1.417900
29.857900 1.355000
29.886200 1.316500
29.914400 1.285600
29.942700 1.262600
29.970900 1.236100
29.999200 1.225500
30.027500 1.222400
30.055700 1.215000
30.084000 1.225300
30.112200 1.196500
30.140500 1.169000
30.168800 1.186500
30.197000 1.202600
30.225300 1.233100
30.253500 1.341600
30.281800 1.460800
30.310100 1.428800
30.338300 1.465000
30.366600 1.535300
30.394800 1.640300
30.423100 1.653700
30.451300 1.702000
30.479600 1.715900
30.507900 1.687700
30.536100 1.637900
30.564400 1.527500
30.592600 1.425600
30.620900 1.341300
30.649200 1.266500
30.677400 1.177800
30.705700 1.054900
30.733900 1.000200
30.762200 0.989400
30.790500 0.967300
30.818700 0.963400
30.847000 0.989200
30.875200 1.043800
30.903500 1.056800
30.931800 1.062700
30.960000 1.072800
30.988300 1.100400
31.016500 1.174800
31.044800 1.308300
31.073100 1.341900
31.101300 1.394600
31.129600 1.421900
31.157800 1.447000
31.186100 1.475500
31.214400 1.493700
31.242600 1.508300
31.270900 1.516100
31.299100 1.515300
31.327400 1.492200
31.355700 1.408800
31.383900 1.350800
31.412200 1.319300
31.440400 1.303200
31.468700 1.288500
31.497000 1.292500
31.525200 1.285100
31.553500 1.284200
31.581700 1.289400
31.610000 1.312400
31.638300 1.314100
31.666500 1.330200
31.694800 1.372400
31.723000 1.442900
31.751300 1.545600
31.779500 1.679500
31.807800 1.794800
31.836100 1.905500
31.864300 1.991400
31.892600 1.979700
31.920800 1.960300
31.949100 1.875400
31.977400 1.752300
32.005600 1.664700
32.033900 1.600200
32.062100 1.563700
32.090400 1.535400
32.118700 1.504100
32.146900 1.501200
32.175200 1.518900
32.203400 1.575200
32.231700 1.515800
32.260000 1.503900
32.288200 1.488900
32.316500 1.460300
32.344700 1.472600
32.373000 1.476700
32.401300 1.492700
32.429500 1.507900
32.457800 1.516400
32.486000 1.524400
32.514300 1.506900
32.542600 1.565500
32.570800 1.570000
32.599100 1.561600
32.627300 1.558300
32.655600 1.549200
32.683900 1.522300
32.712100 1.510900
32.740400 1.488000
32.768600 1.473600
32.796900 1.454300
32.825200 1.436800
32.853400 1.441800
32.881700 1.455600
32.909900 1.464000
32.938200 1.459000
32.966500 1.436100
32.994700 1.454000
33.023000 1.461800
33.051200 1.466400
33.079500 1.471900
33.107700 1.479100
33.136000 1.472700
33.164300 1.441100
33.192500 1.393300
33.220800 1.376700
33.249000 1.350500
33.277300 1.358400
33.305600 1.396100
33.333800 1.331400
33.362100 1.260100
33.390300 1.184600
33.418600 1.100100
33.446900 1.022100
33.475100 0.993400
33.503400 1.007000
33.531600 1.088700
33.559900 1.138400
33.588200 1.173300
33.616400 1.242600
33.644700 1.255300
33.672900 1.261200
33.701200 1.256400
33.729500 1.255100
33.757700 1.260000
33.786000 1.266900
33.814200 1.270900
33.842500 1.289400
33.870800 1.299100
33.899000 1.301800
33.927300 1.308900
33.955500 1.315400
33.983800 1.315900
34.012100 1.331000
34.040300 1.346700
34.068600 1.335300
34.096800 1.301100
34.125100 1.276200
34.153400 1.262500
34.181600 1.315100
34.209900 1.363500
34.238100 1.416200
34.266400 1.446200
34.294700 1.424200
34.322900 1.410900
34.351200 1.419400
34.379400 1.462600
34.407700 1.435800
34.435900 1.387300
34.464200 1.362300
34.492500 1.317500
34.520700 1.289500
34.549000 1.297600
34.577200 1.288000
34.605500 1.296700
34.633800 1.314900
34.662000 1.343900
34.690300 1.390100
34.718500 1.433100
34.746800 1.469100
34.775100 1.482600
34.803300 1.487800
34.831600 1.489300
34.859800 1.493900
34.888100 1.511700
34.916400 1.539300
34.944600 1.576800
34.972900 1.662100
35.001100 1.720200
35.029400 1.754100
35.057700 1.704200
35.085900 1.648800
35.114200 1.594400
35.142400 1.568100
35.170700 1.512700
35.199000 1.461600
35.227200 1.398500
35.255500 1.363800
35.283700 1.390400
35.312000 1.415100
35.340300 1.411300
35.368500 1.334200
35.396800 1.276200
35.425000 1.229200
35.453300 1.201100
35.481600 1.173700
35.509800 1.146200
35.538100 1.127000
35.566300 1.119700
35.594600 1.126900
35.622900 1.136600
35.651100 1.163700
35.679400 1.222800
35.707600 1.124400
35.735900 1.013200
35.764100 0.972000
35.792400 0.964200
35.820700 0.939400
35.848900 0.885400
35.877200 0.809300
35.905400 0.684800
35.933700 0.573700
35.962000 0.504400
35.990200 0.475500
36.018500 0.454000
36.046700 0.428100
36.075000 0.416600
36.103300 0.412900
36.131500 0.378100
36.159800 0.315300
36.188000 0.241600
36.216300 0.185800
36.244600 0.160600
36.272800 0.147600
36.301100 0.135500
36.329300 0.123700
36.357600 0.112200
36.385900 0.101000
36.414100 0.090200
36.442400 0.079700
36.470600 0.069300
36.498900 0.062500
36.527200 0.046400
36.555400 0.028900
36.583700 0.021700
36.611900 0.016100
36.640200 0.011700
36.668500 0.008600
36.696700 0.006200
36.725000 0.004200
36.753200 0.002600
36.781500 0.001400
36.809800 0.000500
36.838000 0.000100
36.866300 0.000000
36.894500 0.000000
36.922800 0.000000
36.951100 0.000000
36.979300 0.000000
37.007600 0.000000
37.035800 0.000000
37.064100 0.000000
37.092300 0.000000
37.120600 0.000000
37.148900 0.000000
37.177100 0.000000
37.205400 0.000000
37.233600 0.000000
37.261900 0.000000
37.290200 0.000000
37.318400 0.000000
37.346700 0.000000
37.374900 0.000000
37.403200 0.000000
37.431500 0.000000
37.459700 0.000000
37.488000 0.000000
37.516200 0.000000
37.544500 0.000000
37.572800 0.000000
37.601000 0.000000
37.629300 0.000000
37.657500 0.000000
37.685800 0.000000
37.714100 0.000000
37.742300 0.000000
37.770600 0.000000
37.798800 0.000000
37.827100 0.000000
37.855400 0.000000
37.883600 0.000000
37.911900 0.000000
37.940100 0.000000
37.968400 0.000000
37.996700 0.000000
38.024900 0.000000
38.053200 0.000000
38.081400 0.000000
38.109700 0.000000
38.138000 0.000000
38.166200 0.000000
38.194500 0.000000
38.222700 0.000000
38.251000 0.000000
38.279300 0.000000
38.307500 0.000000
38.335800 0.000000
38.364000 0.000000
38.392300 0.000000
38.420500 0.000000
38.448800 0.000000
38.477100 0.000000
38.505300 0.000000
38.533600 0.000000
38.561800 0.000000
38.590100 0.000000
38.618400 0.000000
38.646600 0.000000
38.674900 0.000000
38.703100 0.000000
38.731400 0.000000
38.759700 0.000000
38.787900 0.000000
38.816200 0.000000
38.844400 0.000000
38.872700 0.000000
38.901000 0.000000
38.929200 0.000000
38.957500 0.000000
38.985700 0.000000
39.014000 0.000000
39.042300 0.000000
39.070500 0.000000
39.098800 0.000000
39.127000 0.000000
39.155300 0.000000
39.183600 0.000000
39.211800 0.000000
39.240100 0.000000
39.268300 0.000000
39.296600 0.000000
39.324900 0.000000
39.353100 0.000000
39.381400 0.000000
39.409600 0.000000
39.437900 0.000000
39.466200 0.000000
39.494400 0.000000
39.522700 0.000000
39.550900 0.000000
39.579200 0.000000
39.607500 0.000000
39.635700 0.000000
39.664000 0.000000
e
