set title 'mp-974002 - Density of States'
set xlabel 'Energy (eV)'
set ylabel 'DOS (states/eV)'
set grid
set xrange [-10:10]
set yrange [0:38.618]
set xzeroaxis lt -1
set terminal png size 800,600
set output 'mp-974002_dos_gnuplot.png'
plot '-' using 1:2 with lines title 'DOS'
-32.752700 0.000000
-32.720100 0.000000
-32.687500 0.000000
-32.654900 0.000000
-32.622400 0.000000
-32.589800 0.000000
-32.557200 0.000000
-32.524600 0.000000
-32.492000 0.000000
-32.459400 0.000000
-32.426900 0.000000
-32.394300 0.000000
-32.361700 0.000000
-32.329100 0.000000
-32.296500 0.000000
-32.263900 0.000000
-32.231400 0.000000
-32.198800 0.000000
-32.166200 0.000000
-32.133600 0.000000
-32.101000 0.000000
-32.068400 0.000000
-32.035900 0.000000
-32.003300 0.000000
-31.970700 0.000000
-31.938100 0.000000
-31.905500 0.000000
-31.872900 0.000000
-31.840400 0.000000
-31.807800 0.000000
-31.775200 0.000000
-31.742600 0.000000
-31.710000 0.000000
-31.677400 0.000000
-31.644900 0.000000
-31.612300 0.000000
-31.579700 0.000000
-31.547100 0.000000
-31.514500 0.000000
-31.481900 0.000000
-31.449400 0.000000
-31.416800 0.000000
-31.384200 0.000000
-31.351600 0.000000
-31.319000 0.000000
-31.286400 0.000000
-31.253900 0.000000
-31.221300 0.000000
-31.188700 0.000000
-31.156100 0.000000
-31.123500 0.000000
-31.090900 0.000000
-31.058400 0.000000
-31.025800 0.000000
-30.993200 0.000000
-30.960600 0.000000
-30.928000 0.000000
-30.895400 0.000000
-30.862900 0.000000
-30.830300 0.000000
-30.797700 0.000000
-30.765100 0.000000
-30.732500 0.000000
-30.700000 0.000000
-30.667400 0.000000
-30.634800 0.000000
-30.602200 0.000000
-30.569600 0.000000
-30.537000 0.000000
-30.504500 0.000000
-30.471900 0.000000
-30.439300 0.000000
-30.406700 0.000000
-30.374100 0.000000
-30.341500 0.000000
-30.309000 0.000000
-30.276400 0.000000
-30.243800 0.000000
-30.211200 0.000000
-30.178600 0.000000
-30.146000 0.000000
-30.113500 0.000000
-30.080900 0.000000
-30.048300 0.000000
-30.015700 0.000000
-29.983100 0.000000
-29.950500 0.000000
-29.918000 0.000000
-29.885400 0.000000
-29.852800 0.000000
-29.820200 0.000000
-29.787600 5.442200
-29.755000 4.414300
-29.722500 3.628800
-29.689900 3.467800
-29.657300 3.815700
-29.624700 5.019400
-29.592100 0.000000
-29.559500 0.000000
-29.527000 0.000000
-29.494400 0.000000
-29.461800 0.000000
-29.429200 0.000000
-29.396600 0.000000
-29.364000 0.000000
-29.331500 0.000000
-29.298900 8.332100
-29.266300 4.373000
-29.233700 3.591800
-29.201100 3.429400
-29.168500 3.770300
-29.136000 4.961000
-29.103400 0.000000
-29.070800 0.000000
-29.038200 0.000000
-29.005600 0.000000
-28.973000 0.000000
-28.940500 0.000000
-28.907900 0.000000
-28.875300 0.000000
-28.842700 0.000000
-28.810100 0.000000
-28.777500 0.000000
-28.745000 0.000000
-28.712400 0.000000
-28.679800 0.000000
-28.647200 0.000000
-28.614600 0.000000
-28.582100 0.000000
-28.549500 0.000000
-28.516900 0.000000
-28.484300 0.000000
-28.451700 0.000000
-28.419100 0.000000
-28.386600 0.000000
-28.354000 0.000000
-28.321400 0.000000
-28.288800 0.000000
-28.256200 0.000000
-28.223600 0.000000
-28.191100 0.000000
-28.158500 0.000000
-28.125900 0.000000
-28.093300 0.000000
-28.060700 0.000000
-28.028100 0.000000
-27.995600 0.000000
-27.963000 0.000000
-27.930400 0.000000
-27.897800 0.000000
-27.865200 0.000000
-27.832600 0.000000
-27.800100 0.000000
-27.767500 0.000000
-27.734900 0.000000
-27.702300 0.000000
-27.669700 0.000000
-27.637100 0.000000
-27.604600 0.000000
-27.572000 0.000000
-27.539400 0.000000
-27.506800 0.000000
-27.474200 0.000000
-27.441600 0.000000
-27.409100 0.000000
-27.376500 0.000000
-27.343900 0.000000
-27.311300 0.000000
-27.278700 0.000000
-27.246100 0.000000
-27.213600 0.000000
-27.181000 0.000000
-27.148400 0.000000
-27.115800 0.000000
-27.083200 0.000000
-27.050600 0.000000
-27.018100 0.000000
-26.985500 0.000000
-26.952900 0.000000
-26.920300 0.000000
-26.887700 0.000000
-26.855100 19.124000
-26.822600 6.093300
-26.790000 6.157700
-26.757400 15.954000
-26.724800 0.000000
-26.692200 0.000000
-26.659600 0.000000
-26.627100 0.000000
-26.594500 0.000000
-26.561900 0.000000
-26.529300 0.000000
-26.496700 0.000000
-26.464200 0.000000
-26.431600 0.000000
-26.399000 0.000000
-26.366400 0.000000
-26.333800 0.000000
-26.301200 0.000000
-26.268700 0.000000
-26.236100 0.000000
-26.203500 0.000000
-26.170900 0.000000
-26.138300 0.000000
-26.105700 0.000000
-26.073200 0.000000
-26.040600 0.000000
-26.008000 0.000000
-25.975400 0.000000
-25.942800 0.000000
-25.910200 0.000000
-25.877700 0.000000
-25.845100 0.000000
-25.812500 0.000000
-25.779900 0.000000
-25.747300 0.000000
-25.714700 0.000000
-25.682200 0.000000
-25.649600 0.000000
-25.617000 0.000000
-25.584400 0.000000
-25.551800 0.000000
-25.519200 0.000000
-25.486700 0.000000
-25.454100 0.000000
-25.421500 0.000000
-25.388900 0.000000
-25.356300 0.000000
-25.323700 0.000000
-25.291200 0.000000
-25.258600 0.000000
-25.226000 0.000000
-25.193400 0.000000
-25.160800 0.000000
-25.128200 0.000000
-25.095700 0.000000
-25.063100 0.000000
-25.030500 0.000000
-24.997900 0.000000
-24.965300 0.000000
-24.932700 0.000000
-24.900200 0.000000
-24.867600 0.000000
-24.835000 0.000000
-24.802400 0.000000
-24.769800 0.000000
-24.737200 0.000000
-24.704700 0.000000
-24.672100 0.000000
-24.639500 0.000000
-24.606900 0.000000
-24.574300 0.000000
-24.541700 0.000000
-24.509200 0.000000
-24.476600 0.000000
-24.444000 0.000000
-24.411400 0.000000
-24.378800 0.000000
-24.346300 0.000000
-24.313700 0.000000
-24.281100 0.000000
-24.248500 0.000000
-24.215900 0.000000
-24.183300 0.000000
-24.150800 0.000000
-24.118200 5.105600
-24.085600 3.373400
-24.053000 3.220100
-24.020400 3.243900
-23.987800 3.503000
-23.955300 8.477600
-23.922700 0.000000
-23.890100 0.000000
-23.857500 0.000000
-23.824900 0.000000
-23.792300 0.000000
-23.759800 0.000000
-23.727200 0.000000
-23.694600 0.000000
-23.662000 0.000000
-23.629400 0.000000
-23.596800 0.000000
-23.564300 0.000000
-23.531700 0.000000
-23.499100 0.000000
-23.466500 0.000000
-23.433900 0.000000
-23.401300 0.000000
-23.368800 0.000000
-23.336200 0.000000
-23.303600 0.000000
-23.271000 0.000000
-23.238400 0.000000
-23.205800 0.000000
-23.173300 0.000000
-23.140700 0.000000
-23.108100 0.000000
-23.075500 0.000000
-23.042900 0.000000
-23.010300 0.000000
-22.977800 0.000000
-22.945200 0.000000
-22.912600 0.000000
-22.880000 0.000000
-22.847400 7.012800
-22.814800 3.791100
-22.782300 3.065200
-22.749700 2.860200
-22.717100 3.049300
-22.684500 3.719400
-22.651900 6.891900
-22.619300 19.052200
-22.586800 7.252300
-22.554200 9.431000
-22.521600 0.000000
-22.489000 0.000000
-22.456400 0.000000
-22.423800 0.000000
-22.391300 0.000000
-22.358700 0.000000
-22.326100 0.000000
-22.293500 0.000000
-22.260900 0.000000
-22.228400 0.000000
-22.195800 0.000000
-22.163200 0.000000
-22.130600 0.000000
-22.098000 0.000000
-22.065400 0.000000
-22.032900 0.000000
-22.000300 0.000000
-21.967700 0.000000
-21.935100 0.000000
-21.902500 0.000000
-21.869900 0.000000
-21.837400 0.000000
-21.804800 0.000000
-21.772200 0.000000
-21.739600 0.000000
-21.707000 0.000000
-21.674400 0.000000
-21.641900 0.000000
-21.609300 0.000000
-21.576700 0.000000
-21.544100 0.000000
-21.511500 0.000000
-21.478900 0.000000
-21.446400 0.000000
-21.413800 0.000000
-21.381200 0.000000
-21.348600 0.000000
-21.316000 0.000000
-21.283400 0.000000
-21.250900 0.000000
-21.218300 0.000000
-21.185700 0.000000
-21.153100 0.000000
-21.120500 0.000000
-21.087900 0.000000
-21.055400 0.000000
-21.022800 0.000000
-20.990200 0.000000
-20.957600 0.000000
-20.925000 0.000000
-20.892400 0.000000
-20.859900 0.000000
-20.827300 0.000000
-20.794700 0.000000
-20.762100 0.000000
-20.729500 0.000000
-20.696900 0.000000
-20.664400 0.000000
-20.631800 0.000000
-20.599200 0.000000
-20.566600 0.000000
-20.534000 0.000000
-20.501400 0.000000
-20.468900 0.000000
-20.436300 0.000000
-20.403700 0.000000
-20.371100 0.000000
-20.338500 0.000000
-20.306000 0.000000
-20.273400 0.000000
-20.240800 0.000000
-20.208200 0.000000
-20.175600 0.000000
-20.143000 0.000000
-20.110500 0.000000
-20.077900 0.000000
-20.045300 0.000000
-20.012700 0.000000
-19.980100 0.000000
-19.947500 0.000000
-19.915000 0.000000
-19.882400 6.928900
-19.849800 5.471300
-19.817200 6.086000
-19.784600 12.186000
-19.752000 0.000000
-19.719500 0.000000
-19.686900 0.000000
-19.654300 0.000000
-19.621700 0.000000
-19.589100 0.000000
-19.556500 0.000000
-19.524000 0.000000
-19.491400 0.000000
-19.458800 0.000000
-19.426200 5.210700
-19.393600 3.360300
-19.361000 3.154500
-19.328500 3.242900
-19.295900 3.591800
-19.263300 5.927000
-19.230700 0.350800
-19.198100 0.000000
-19.165500 0.000000
-19.133000 0.000000
-19.100400 0.000000
-19.067800 0.000000
-19.035200 0.000000
-19.002600 0.000000
-18.970000 0.000000
-18.937500 0.000000
-18.904900 0.000000
-18.872300 0.000000
-18.839700 0.000000
-18.807100 0.000000
-18.774500 0.000000
-18.742000 0.000000
-18.709400 0.000000
-18.676800 0.000000
-18.644200 0.000000
-18.611600 0.000000
-18.579000 0.000000
-18.546500 0.000000
-18.513900 0.000000
-18.481300 0.000000
-18.448700 0.000000
-18.416100 0.000000
-18.383500 0.000000
-18.351000 0.000000
-18.318400 0.000000
-18.285800 0.000000
-18.253200 0.000000
-18.220600 0.000000
-18.188100 0.000000
-18.155500 0.000000
-18.122900 0.000000
-18.090300 0.000000
-18.057700 0.000000
-18.025100 0.000000
-17.992600 0.000000
-17.960000 0.000000
-17.927400 0.000000
-17.894800 0.000000
-17.862200 0.000000
-17.829600 0.000000
-17.797100 0.000000
-17.764500 0.000000
-17.731900 0.000000
-17.699300 0.000000
-17.666700 0.000000
-17.634100 0.000000
-17.601600 0.000000
-17.569000 0.000000
-17.536400 0.000000
-17.503800 0.000000
-17.471200 0.000000
-17.438600 0.000000
-17.406100 0.000000
-17.373500 0.000000
-17.340900 0.000000
-17.308300 0.000000
-17.275700 0.000000
-17.243100 0.000000
-17.210600 0.000000
-17.178000 0.000000
-17.145400 0.000000
-17.112800 0.000000
-17.080200 0.000000
-17.047600 0.000000
-17.015100 0.000000
-16.982500 0.000000
-16.949900 0.000000
-16.917300 0.000000
-16.884700 0.000000
-16.852100 0.000000
-16.819600 0.000000
-16.787000 0.000000
-16.754400 0.000000
-16.721800 0.000000
-16.689200 0.000000
-16.656600 0.000000
-16.624100 0.000000
-16.591500 0.000000
-16.558900 0.000000
-16.526300 0.000000
-16.493700 0.000000
-16.461100 0.000000
-16.428600 0.000000
-16.396000 0.000000
-16.363400 0.000000
-16.330800 0.000000
-16.298200 0.000000
-16.265600 0.000000
-16.233100 0.000000
-16.200500 0.000000
-16.167900 0.000000
-16.135300 0.000000
-16.102700 0.000000
-16.070200 0.000000
-16.037600 0.000000
-16.005000 0.000000
-15.972400 0.000000
-15.939800 0.000000
-15.907200 0.000000
-15.874700 0.000000
-15.842100 0.000000
-15.809500 0.000000
-15.776900 0.000000
-15.744300 0.000000
-15.711700 0.000000
-15.679200 0.000000
-15.646600 0.000000
-15.614000 0.000000
-15.581400 0.000000
-15.548800 0.000000
-15.516200 0.000000
-15.483700 0.000000
-15.451100 0.000000
-15.418500 0.000000
-15.385900 0.000000
-15.353300 0.000000
-15.320700 0.000000
-15.288200 0.000000
-15.255600 0.000000
-15.223000 0.000000
-15.190400 0.000000
-15.157800 0.000000
-15.125200 0.000000
-15.092700 0.000000
-15.060100 0.000000
-15.027500 0.000000
-14.994900 0.000000
-14.962300 0.000000
-14.929700 0.000000
-14.897200 0.000000
-14.864600 0.000000
-14.832000 0.000000
-14.799400 0.000000
-14.766800 0.000000
-14.734200 0.000000
-14.701700 0.000000
-14.669100 0.000000
-14.636500 0.000000
-14.603900 0.000000
-14.571300 0.000000
-14.538700 0.000000
-14.506200 0.000000
-14.473600 0.000000
-14.441000 0.000000
-14.408400 0.000000
-14.375800 0.000000
-14.343200 0.000000
-14.310700 0.000000
-14.278100 0.000000
-14.245500 0.000000
-14.212900 0.000000
-14.180300 0.000000
-14.147700 0.000000
-14.115200 0.000000
-14.082600 0.000000
-14.050000 0.000000
-14.017400 0.000000
-13.984800 0.000000
-13.952300 0.000000
-13.919700 0.000000
-13.887100 0.000000
-13.854500 0.000000
-13.821900 0.000000
-13.789300 0.000000
-13.756800 0.000000
-13.724200 0.000000
-13.691600 0.000000
-13.659000 0.000000
-13.626400 0.000000
-13.593800 0.000000
-13.561300 0.000000
-13.528700 0.000000
-13.496100 0.000000
-13.463500 0.000000
-13.430900 0.000000
-13.398300 0.000000
-13.365800 0.000000
-13.333200 0.000000
-13.300600 0.000000
-13.268000 0.000000
-13.235400 0.000000
-13.202800 0.000000
-13.170300 0.000000
-13.137700 0.000000
-13.105100 0.000000
-13.072500 0.000000
-13.039900 0.000000
-13.007300 0.000000
-12.974800 0.000000
-12.942200 0.000000
-12.909600 0.000000
-12.877000 0.000000
-12.844400 0.000000
-12.811800 0.000000
-12.779300 0.000000
-12.746700 0.000000
-12.714100 0.000000
-12.681500 0.000000
-12.648900 0.000000
-12.616300 0.000000
-12.583800 0.000000
-12.551200 0.000000
-12.518600 0.000000
-12.486000 0.000000
-12.453400 0.000000
-12.420800 0.000000
-12.388300 0.000000
-12.355700 0.000000
-12.323100 0.000000
-12.290500 0.000000
-12.257900 0.000000
-12.225300 0.000000
-12.192800 0.000000
-12.160200 0.000000
-12.127600 0.000000
-12.095000 0.000000
-12.062400 0.000000
-12.029800 0.000000
-11.997300 0.000000
-11.964700 0.000000
-11.932100 0.000000
-11.899500 0.000000
-11.866900 0.000000
-11.834400 0.000000
-11.801800 0.000000
-11.769200 0.000000
-11.736600 0.000000
-11.704000 0.000000
-11.671400 11.049600
-11.638900 14.287700
-11.606300 0.000000
-11.573700 0.000000
-11.541100 0.000000
-11.508500 0.000000
-11.475900 0.000000
-11.443400 0.000000
-11.410800 0.000000
-11.378200 0.000000
-11.345600 0.000000
-11.313000 0.000000
-11.280400 0.000000
-11.247900 0.000000
-11.215300 0.000000
-11.182700 0.000000
-11.150100 0.000000
-11.117500 0.000000
-11.084900 0.000000
-11.052400 0.000000
-11.019800 0.000000
-10.987200 0.000000
-10.954600 0.000000
-10.922000 0.000000
-10.889400 0.000000
-10.856900 0.000000
-10.824300 0.000000
-10.791700 0.000000
-10.759100 0.000000
-10.726500 0.000000
-10.693900 0.000000
-10.661400 0.000000
-10.628800 0.000000
-10.596200 0.000000
-10.563600 0.000000
-10.531000 0.000000
-10.498400 0.000000
-10.465900 0.000000
-10.433300 0.000000
-10.400700 0.000000
-10.368100 4.031100
-10.335500 7.558100
-10.302900 7.299600
-10.270400 10.180400
-10.237800 10.647300
-10.205200 3.580500
-10.172600 5.187100
-10.140000 8.121200
-10.107400 0.110800
-10.074900 0.000000
-10.042300 0.000000
-10.009700 0.000000
-9.977100 0.000000
-9.944500 0.000000
-9.911900 0.000000
-9.879400 0.023100
-9.846800 1.015900
-9.814200 1.270200
-9.781600 1.324200
-9.749000 1.886700
-9.716500 1.815600
-9.683900 1.215000
-9.651300 1.063600
-9.618700 0.956300
-9.586100 0.881800
-9.553500 0.816100
-9.521000 3.769000
-9.488400 2.139900
-9.455800 2.106600
-9.423200 1.528600
-9.390600 1.456600
-9.358000 1.441700
-9.325500 1.435000
-9.292900 1.383100
-9.260300 1.253900
-9.227700 1.254100
-9.195100 1.291200
-9.162500 1.330200
-9.130000 1.402400
-9.097400 1.402600
-9.064800 1.387400
-9.032200 1.621600
-8.999600 1.938300
-8.967000 2.648000
-8.934500 3.672200
-8.901900 0.543000
-8.869300 0.609900
-8.836700 0.677900
-8.804100 0.677800
-8.771500 0.677600
-8.739000 0.677500
-8.706400 0.905900
-8.673800 1.580000
-8.641200 1.664800
-8.608600 1.960800
-8.576000 4.790200
-8.543500 4.738900
-8.510900 4.576700
-8.478300 5.319400
-8.445700 3.365800
-8.413100 2.891700
-8.380500 2.560800
-8.348000 0.825800
-8.315400 0.851500
-8.282800 0.851700
-8.250200 0.851800
-8.217600 0.877700
-8.185000 2.212300
-8.152500 1.168800
-8.119900 0.000000
-8.087300 0.000000
-8.054700 0.000000
-8.022100 0.000000
-7.989500 0.000000
-7.957000 0.000000
-7.924400 0.000000
-7.891800 0.000000
-7.859200 0.000000
-7.826600 0.000000
-7.794000 0.000000
-7.761500 0.000000
-7.728900 0.000000
-7.696300 0.000000
-7.663700 0.000000
-7.631100 0.000000
-7.598600 0.000000
-7.566000 0.000000
-7.533400 0.000000
-7.500800 0.000000
-7.468200 0.000000
-7.435600 0.000000
-7.403100 0.000000
-7.370500 0.000000
-7.337900 0.000000
-7.305300 0.000000
-7.272700 0.000000
-7.240100 0.000000
-7.207600 0.000000
-7.175000 0.000000
-7.142400 0.000000
-7.109800 0.000000
-7.077200 0.000000
-7.044600 0.375600
-7.012100 3.494100
-6.979500 2.460400
-6.946900 1.844200
-6.914300 1.595100
-6.881700 1.529700
-6.849100 1.556500
-6.816600 5.799200
-6.784000 10.389600
-6.751400 11.395100
-6.718800 3.769500
-6.686200 2.426200
-6.653600 2.671400
-6.621100 4.217600
-6.588500 5.229300
-6.555900 1.991000
-6.523300 0.000000
-6.490700 0.323100
-6.458100 5.664700
-6.425600 12.465500
-6.393000 5.729500
-6.360400 3.109400
-6.327800 5.834600
-6.295200 9.142700
-6.262600 8.312900
-6.230100 7.295000
-6.197500 0.749200
-6.164900 0.000000
-6.132300 0.000000
-6.099700 0.000000
-6.067100 0.000000
-6.034600 0.000000
-6.002000 0.000000
-5.969400 0.000000
-5.936800 0.000000
-5.904200 0.000000
-5.871600 0.000000
-5.839100 0.000000
-5.806500 0.000000
-5.773900 0.000000
-5.741300 0.000000
-5.708700 0.000000
-5.676100 0.000000
-5.643600 0.000000
-5.611000 0.000000
-5.578400 0.000000
-5.545800 0.000000
-5.513200 0.000000
-5.480700 0.000000
-5.448100 0.000000
-5.415500 0.800700
-5.382900 3.547700
-5.350300 5.212800
-5.317700 7.741500
-5.285200 6.013400
-5.252600 4.546100
-5.220000 2.225100
-5.187400 1.358500
-5.154800 1.291200
-5.122200 1.911700
-5.089700 2.359100
-5.057100 2.192900
-5.024500 1.996700
-4.991900 2.129300
-4.959300 3.231200
-4.926700 9.401200
-4.894200 7.526600
-4.861600 5.224700
-4.829000 3.210500
-4.796400 2.238300
-4.763800 2.262100
-4.731200 3.542800
-4.698700 4.796900
-4.666100 7.933500
-4.633500 9.040500
-4.600900 4.362300
-4.568300 2.197700
-4.535700 1.472500
-4.503200 1.374800
-4.470600 1.466700
-4.438000 1.555100
-4.405400 1.912500
-4.372800 3.300600
-4.340200 2.521100
-4.307700 0.000000
-4.275100 0.000000
-4.242500 0.000000
-4.209900 0.603000
-4.177300 1.443700
-4.144700 2.777000
-4.112200 2.906900
-4.079600 2.662400
-4.047000 1.930400
-4.014400 1.717400
-3.981800 1.666800
-3.949200 1.580000
-3.916700 1.571000
-3.884100 1.540300
-3.851500 2.092100
-3.818900 3.113700
-3.786300 3.705300
-3.753700 4.575200
-3.721200 5.421900
-3.688600 3.807100
-3.656000 4.792100
-3.623400 3.943600
-3.590800 4.242400
-3.558200 5.345300
-3.525700 7.538600
-3.493100 4.131900
-3.460500 11.115100
-3.427900 4.525400
-3.395300 0.000000
-3.362800 0.000000
-3.330200 0.000000
-3.297600 0.000000
-3.265000 0.000000
-3.232400 0.000000
-3.199800 1.469400
-3.167300 2.856000
-3.134700 5.209500
-3.102100 5.071800
-3.069500 3.000400
-3.036900 3.166500
-3.004300 4.479400
-2.971800 5.928900
-2.939200 4.609500
-2.906600 4.489500
-2.874000 4.651200
-2.841400 5.552900
-2.808800 4.871600
-2.776300 4.059600
-2.743700 7.348200
-2.711100 6.717200
-2.678500 4.088000
-2.645900 3.046700
-2.613300 5.280400
-2.580800 11.219700
-2.548200 5.529700
-2.515600 4.789900
-2.483000 9.930000
-2.450400 4.941800
-2.417800 2.725400
-2.385300 0.096200
-2.352700 0.000000
-2.320100 0.000000
-2.287500 0.000000
-2.254900 0.000000
-2.222300 0.000000
-2.189800 0.000000
-2.157200 0.000000
-2.124600 0.000000
-2.092000 0.000000
-2.059400 0.000000
-2.026800 0.000000
-1.994300 0.000000
-1.961700 0.000000
-1.929100 0.000000
-1.896500 0.000000
-1.863900 0.000000
-1.831300 0.000000
-1.798800 0.000000
-1.766200 0.000000
-1.733600 0.000000
-1.701000 0.000000
-1.668400 0.000000
-1.635800 0.000000
-1.603300 0.000000
-1.570700 0.000000
-1.538100 0.000000
-1.505500 0.000000
-1.472900 0.000000
-1.440400 0.000000
-1.407800 0.000000
-1.375200 0.000000
-1.342600 0.000000
-1.310000 0.000000
-1.277400 0.000000
-1.244900 0.000000
-1.212300 0.000000
-1.179700 0.000000
-1.147100 0.000000
-1.114500 0.000000
-1.081900 0.000000
-1.049400 0.000000
-1.016800 0.000000
-0.984200 0.000000
-0.951600 0.000000
-0.919000 0.000000
-0.886400 0.000000
-0.853900 0.000000
-0.821300 0.000000
-0.788700 0.000000
-0.756100 0.000000
-0.723500 0.000000
-0.690900 0.000000
-0.658400 0.000000
-0.625800 0.000000
-0.593200 1.782500
-0.560600 7.712400
-0.528000 7.213600
-0.495400 13.728500
-0.462900 0.000000
-0.430300 0.000000
-0.397700 0.000000
-0.365100 0.000000
-0.332500 0.000000
-0.299900 0.000000
-0.267400 0.000000
-0.234800 0.000000
-0.202200 0.000000
-0.169600 0.000000
-0.137000 0.000000
-0.104400 0.000000
-0.071900 0.000000
-0.039300 0.000000
-0.006700 0.000000
0.025900 0.000000
0.058500 0.000000
0.091100 0.000000
0.123600 0.000000
0.156200 0.000000
0.188800 0.000000
0.221400 0.000000
0.254000 0.000000
0.286600 0.000000
0.319100 0.882100
0.351700 8.812700
0.384300 35.107200
0.416900 0.000000
0.449500 0.000000
0.482100 0.000000
0.514600 0.000000
0.547200 0.000000
0.579800 0.000000
0.612400 0.000000
0.645000 0.000000
0.677500 0.000000
0.710100 0.000000
0.742700 0.000000
0.775300 0.000000
0.807900 0.000000
0.840500 0.000000
0.873000 0.000000
0.905600 0.000000
0.938200 0.000000
0.970800 0.000000
1.003400 0.000000
1.036000 0.000000
1.068500 0.000000
1.101100 0.000000
1.133700 0.000000
1.166300 0.000000
1.198900 0.000000
1.231500 0.000000
1.264000 0.000000
1.296600 0.000000
1.329200 0.000000
1.361800 0.000000
1.394400 0.000000
1.427000 0.000000
1.459500 0.000000
1.492100 0.000000
1.524700 0.000000
1.557300 0.000000
1.589900 0.000000
1.622500 4.674400
1.655000 5.884500
1.687600 4.762900
1.720200 5.736700
1.752800 11.349900
1.785400 0.000000
1.818000 0.000000
1.850500 0.000000
1.883100 0.000000
1.915700 0.000000
1.948300 0.000000
1.980900 0.000000
2.013500 0.000000
2.046000 0.000000
2.078600 0.000000
2.111200 0.000000
2.143800 0.000000
2.176400 0.000000
2.209000 0.000000
2.241500 0.000000
2.274100 0.000000
2.306700 0.000000
2.339300 0.000000
2.371900 0.000000
2.404500 0.000000
2.437000 0.000000
2.469600 0.000000
2.502200 0.000000
2.534800 0.000000
2.567400 0.000000
2.600000 0.000000
2.632500 0.000000
2.665100 0.000000
2.697700 0.000000
2.730300 0.000000
2.762900 0.000000
2.795400 0.000000
2.828000 0.000000
2.860600 0.000000
2.893200 0.000000
2.925800 0.000000
2.958400 0.000000
2.990900 0.000000
3.023500 0.000000
3.056100 0.000000
3.088700 0.000000
3.121300 0.000000
3.153900 0.000000
3.186400 0.000000
3.219000 0.000000
3.251600 0.000000
3.284200 0.000000
3.316800 0.000000
3.349400 0.000000
3.381900 0.000000
3.414500 0.000000
3.447100 0.000000
3.479700 0.000000
3.512300 0.000000
3.544900 0.000000
3.577400 0.000000
3.610000 0.000000
3.642600 0.000000
3.675200 0.000000
3.707800 0.000000
3.740400 0.000000
3.772900 0.000000
3.805500 0.000000
3.838100 0.000000
3.870700 0.000000
3.903300 0.000000
3.935900 0.000000
3.968400 0.000000
4.001000 0.000000
4.033600 0.000000
4.066200 0.000000
4.098800 0.000000
4.131400 0.000000
4.163900 0.000000
4.196500 0.000000
4.229100 0.000000
4.261700 0.000000
4.294300 0.000000
4.326900 0.000000
4.359400 0.000000
4.392000 0.000000
4.424600 0.000000
4.457200 0.000000
4.489800 0.000000
4.522400 0.000000
4.554900 0.000000
4.587500 0.000000
4.620100 0.000000
4.652700 0.000000
4.685300 0.000000
4.717900 0.000000
4.750400 0.000000
4.783000 0.000000
4.815600 0.000000
4.848200 0.000000
4.880800 0.000000
4.913300 0.000000
4.945900 0.000000
4.978500 0.000000
5.011100 0.000000
5.043700 0.000000
5.076300 0.000000
5.108800 0.000000
5.141400 0.000000
5.174000 0.000000
5.206600 0.000000
5.239200 0.000000
5.271800 0.000000
5.304300 0.000000
5.336900 0.000000
5.369500 0.000000
5.402100 0.000000
5.434700 0.000000
5.467300 0.000000
5.499800 0.000000
5.532400 0.000000
5.565000 0.000000
5.597600 0.000000
5.630200 0.000000
5.662800 0.000000
5.695300 0.000000
5.727900 0.000000
5.760500 0.000000
5.793100 0.000000
5.825700 0.000000
5.858300 0.000000
5.890800 0.000000
5.923400 0.000000
5.956000 0.000000
5.988600 0.000000
6.021200 0.000000
6.053800 0.000000
6.086300 0.000000
6.118900 0.000000
6.151500 0.000000
6.184100 0.000000
6.216700 0.000000
6.249300 0.000000
6.281800 0.000000
6.314400 0.000100
6.347000 0.013000
6.379600 0.046800
6.412200 0.084500
6.444800 0.096700
6.477300 0.101900
6.509900 0.118200
6.542500 0.135400
6.575100 0.153300
6.607700 0.169400
6.640300 0.180500
6.672800 0.189300
6.705400 0.201900
6.738000 0.215500
6.770600 0.229200
6.803200 0.243200
6.835800 0.257400
6.868300 0.273500
6.900900 0.293800
6.933500 0.316100
6.966100 0.337700
6.998700 0.359800
7.031200 0.385700
7.063800 0.414400
7.096400 0.445500
7.129000 0.521200
7.161600 0.604000
7.194200 0.656900
7.226700 0.656400
7.259300 0.608700
7.291900 0.571600
7.324500 0.494700
7.357100 0.462100
7.389700 0.431500
7.422200 0.403400
7.454800 0.383900
7.487400 0.371100
7.520000 0.362800
7.552600 0.353800
7.585200 0.341700
7.617700 0.330000
7.650300 0.315000
7.682900 0.305500
7.715500 0.300200
7.748100 0.296700
7.780700 0.293900
7.813200 0.290700
7.845800 0.286900
7.878400 0.286300
7.911000 0.292300
7.943600 0.303800
7.976200 0.317000
8.008700 0.333200
8.041300 0.355100
8.073900 0.388300
8.106500 0.463600
8.139100 0.495800
8.171700 0.501000
8.204200 0.498300
8.236800 0.502400
8.269400 0.508800
8.302000 0.509700
8.334600 0.507200
8.367200 0.507400
8.399700 0.510400
8.432300 0.513400
8.464900 0.519900
8.497500 0.526600
8.530100 0.533600
8.562700 0.539900
8.595200 0.545800
8.627800 0.550800
8.660400 0.556200
8.693000 0.562000
8.725600 0.568300
8.758200 0.580800
8.790700 0.601200
8.823300 0.620500
8.855900 0.640400
8.888500 0.661400
8.921100 0.740500
8.953700 0.741500
8.986200 0.722900
9.018800 0.711100
9.051400 0.699100
9.084000 0.668700
9.116600 0.652900
9.149100 0.654500
9.181700 0.649800
9.214300 0.647100
9.246900 0.647600
9.279500 0.650600
9.312100 0.652100
9.344600 0.650800
9.377200 0.647300
9.409800 0.645400
9.442400 0.645000
9.475000 0.647900
9.507600 0.652700
9.540100 0.658200
9.572700 0.665300
9.605300 0.671200
9.637900 0.677200
9.670500 0.683800
9.703100 0.689300
9.735600 0.697100
9.768200 0.709000
9.800800 0.723700
9.833400 0.739100
9.866000 0.755600
9.898600 0.773400
9.931100 0.953400
9.963700 0.951600
9.996300 0.977600
10.028900 1.057800
10.061500 0.954700
10.094100 0.937400
10.126600 0.936300
10.159200 0.965200
10.191800 0.956100
10.224400 0.756200
10.257000 0.722700
10.289600 0.725100
10.322100 0.727200
10.354700 0.729300
10.387300 0.733200
10.419900 0.740500
10.452500 0.749600
10.485100 0.767900
10.517600 0.798500
10.550200 0.820100
10.582800 0.840000
10.615400 0.852900
10.648000 0.854400
10.680600 0.864100
10.713100 0.873400
10.745700 0.889900
10.778300 0.918600
10.810900 1.277700
10.843500 1.517600
10.876100 1.692000
10.908600 1.436700
10.941200 1.249000
10.973800 0.945500
11.006400 0.935200
11.039000 1.028900
11.071600 1.119100
11.104100 1.152700
11.136700 1.195800
11.169300 1.245300
11.201900 1.269900
11.234500 1.309900
11.267000 1.336000
11.299600 1.357500
11.332200 1.420600
11.364800 1.502700
11.397400 1.492700
11.430000 1.277200
11.462500 0.991500
11.495100 0.839600
11.527700 0.729500
11.560300 0.627900
11.592900 0.505600
11.625500 0.419200
11.658000 0.405800
11.690600 0.416100
11.723200 0.455000
11.755800 0.508400
11.788400 0.561100
11.821000 0.657000
11.853500 0.743400
11.886100 0.880800
11.918700 1.104300
11.951300 1.353500
11.983900 1.513200
12.016500 1.589100
12.049000 1.361700
12.081600 1.232400
12.114200 1.158500
12.146800 1.070200
12.179400 0.991800
12.212000 0.958500
12.244500 0.947500
12.277100 0.946900
12.309700 0.955800
12.342300 0.967000
12.374900 0.973800
12.407500 0.969900
12.440000 0.962200
12.472600 0.958000
12.505200 0.954800
12.537800 0.929300
12.570400 0.923700
12.603000 0.937600
12.635500 0.979100
12.668100 1.114800
12.700700 1.384000
12.733300 1.602000
12.765900 1.689100
12.798500 1.785800
12.831000 1.861600
12.863600 1.858700
12.896200 1.646900
12.928800 1.456100
12.961400 1.300100
12.994000 1.171300
13.026500 1.005300
13.059100 0.902300
13.091700 0.878600
13.124300 0.974600
13.156900 1.185000
13.189500 1.328000
13.222000 1.478000
13.254600 1.598200
13.287200 1.680000
13.319800 1.815200
13.352400 1.870600
13.384900 1.896500
13.417500 1.944500
13.450100 1.923600
13.482700 1.766000
13.515300 1.668600
13.547900 1.617900
13.580400 1.529500
13.613000 1.415300
13.645600 1.389800
13.678200 1.421100
13.710800 1.507500
13.743400 1.649500
13.775900 1.802300
13.808500 1.822700
13.841100 1.781500
13.873700 1.817300
13.906300 1.933100
13.938900 2.220200
13.971400 2.023500
14.004000 1.766300
14.036600 1.663700
14.069200 1.664300
14.101800 1.562700
14.134400 1.542000
14.166900 1.636500
14.199500 1.746100
14.232100 1.597700
14.264700 1.359300
14.297300 1.254600
14.329900 1.277000
14.362400 1.225100
14.395000 1.246800
14.427600 1.263400
14.460200 1.232200
14.492800 1.297900
14.525400 1.254800
14.557900 1.472700
14.590500 1.765800
14.623100 1.938400
14.655700 1.963000
14.688300 2.065700
14.720900 2.080600
14.753400 1.942800
14.786000 1.832200
14.818600 1.703500
14.851200 1.391900
14.883800 1.278700
14.916400 1.221100
14.948900 1.173700
14.981500 1.135000
15.014100 1.128000
15.046700 1.164500
15.079300 1.239000
15.111900 1.348500
15.144400 1.528000
15.177000 1.639100
15.209600 1.788000
15.242200 2.001100
15.274800 2.151200
15.307400 2.183200
15.339900 2.029700
15.372500 1.976400
15.405100 1.779900
15.437700 1.746900
15.470300 1.784800
15.502800 1.835100
15.535400 1.785700
15.568000 1.598200
15.600600 1.486900
15.633200 1.473600
15.665800 1.505900
15.698300 1.441300
15.730900 1.363500
15.763500 1.319200
15.796100 1.347300
15.828700 1.346900
15.861300 1.356400
15.893800 1.423900
15.926400 1.441800
15.959000 1.353000
15.991600 1.322200
16.024200 1.306000
16.056800 1.275500
16.089300 1.279900
16.121900 1.310500
16.154500 1.486400
16.187100 1.637400
16.219700 1.771000
16.252300 1.959200
16.284800 2.055100
16.317400 2.105000
16.350000 1.909700
16.382600 1.789800
16.415200 1.690800
16.447800 1.622000
16.480300 1.627500
16.512900 1.623100
16.545500 1.650100
16.578100 1.665600
16.610700 1.664000
16.643300 1.710100
16.675800 1.660500
16.708400 1.656900
16.741000 1.801100
16.773600 1.668800
16.806200 1.622900
16.838800 1.587100
16.871300 1.562900
16.903900 1.580600
16.936500 1.533000
16.969100 1.568800
17.001700 1.690800
17.034300 1.760900
17.066800 1.804400
17.099400 1.870900
17.132000 1.936100
17.164600 1.938800
17.197200 1.931800
17.229800 1.739600
17.262300 1.642100
17.294900 1.586400
17.327500 1.699200
17.360100 1.888900
17.392700 1.878700
17.425200 1.914100
17.457800 1.891700
17.490400 1.590700
17.523000 1.403800
17.555600 1.321800
17.588200 1.265700
17.620700 1.242000
17.653300 1.209800
17.685900 1.173400
17.718500 1.170700
17.751100 1.239100
17.783700 1.336100
17.816200 1.519800
17.848800 1.673200
17.881400 1.735100
17.914000 1.575200
17.946600 1.438900
17.979200 1.351500
18.011700 1.240400
18.044300 1.183200
18.076900 1.105800
18.109500 1.072400
18.142100 1.068800
18.174700 1.077200
18.207200 1.090900
18.239800 1.090800
18.272400 1.093900
18.305000 1.165500
18.337600 1.175100
18.370200 1.243100
18.402700 1.375300
18.435300 1.488100
18.467900 1.635100
18.500500 1.607600
18.533100 1.610500
18.565700 1.565600
18.598200 1.579500
18.630800 1.643900
18.663400 1.619300
18.696000 1.545500
18.728600 1.512700
18.761200 1.540000
18.793700 1.556600
18.826300 1.527800
18.858900 1.570300
18.891500 1.580100
18.924100 1.607300
18.956700 1.661300
18.989200 1.705700
19.021800 1.722600
19.054400 1.796900
19.087000 1.831400
19.119600 1.701400
19.152200 1.528500
19.184700 1.449300
19.217300 1.427300
19.249900 1.417600
19.282500 1.408200
19.315100 1.361400
19.347700 1.307700
19.380200 1.361100
19.412800 1.415900
19.445400 1.552200
19.478000 1.666600
19.510600 1.814400
19.543100 1.961800
19.575700 2.054500
19.608300 1.881400
19.640900 1.753800
19.673500 1.732500
19.706100 1.738300
19.738600 1.735900
19.771200 1.686900
19.803800 1.672100
19.836400 1.656700
19.869000 1.636000
19.901600 1.615300
19.934100 1.591400
19.966700 1.566900
19.999300 1.512800
20.031900 1.532200
20.064500 1.564500
20.097100 1.639200
20.129600 1.656200
20.162200 1.647300
20.194800 1.652500
20.227400 1.634900
20.260000 1.622700
20.292600 1.667300
20.325100 1.687600
20.357700 1.692100
20.390300 1.735800
20.422900 1.702000
20.455500 1.657900
20.488100 1.641700
20.520600 1.649100
20.553200 1.653400
20.585800 1.681600
20.618400 1.768500
20.651000 1.758200
20.683600 1.744600
20.716100 1.701500
20.748700 1.731400
20.781300 1.736400
20.813900 1.729500
20.846500 1.722200
20.879100 1.666800
20.911600 1.614600
20.944200 1.566200
20.976800 1.552800
21.009400 1.568300
21.042000 1.503900
21.074600 1.506500
21.107100 1.672300
21.139700 1.856500
21.172300 1.927400
21.204900 1.831200
21.237500 1.815200
21.270100 1.872700
21.302600 1.918300
21.335200 1.816100
21.367800 1.723600
21.400400 1.572500
21.433000 1.461700
21.465600 1.391800
21.498100 1.380400
21.530700 1.378000
21.563300 1.386100
21.595900 1.415600
21.628500 1.482100
21.661000 1.611400
21.693600 1.858600
21.726200 1.995000
21.758800 2.132900
21.791400 2.117300
21.824000 1.989700
21.856500 1.870900
21.889100 1.796600
21.921700 1.704700
21.954300 1.633400
21.986900 1.596600
22.019500 1.591900
22.052000 1.686600
22.084600 1.787400
22.117200 1.907800
22.149800 1.898000
22.182400 1.799100
22.215000 1.867800
22.247500 1.928900
22.280100 1.797300
22.312700 1.713100
22.345300 1.773600
22.377900 1.946500
22.410500 2.224800
22.443000 2.318200
22.475600 2.352500
22.508200 2.111200
22.540800 2.045700
22.573400 1.868000
22.606000 1.849100
22.638500 1.834100
22.671100 1.742800
22.703700 1.700600
22.736300 1.704300
22.768900 1.599900
22.801500 1.540300
22.834000 1.535100
22.866600 1.552600
22.899200 1.567900
22.931800 1.718100
22.964400 1.930400
22.997000 2.010200
23.029500 1.963200
23.062100 1.910100
23.094700 1.859400
23.127300 1.837600
23.159900 1.908000
23.192500 1.902200
23.225000 1.869500
23.257600 1.832200
23.290200 1.764500
23.322800 1.673100
23.355400 1.477800
23.388000 1.403300
23.420500 1.433900
23.453100 1.519900
23.485700 1.631700
23.518300 1.780700
23.550900 1.921900
23.583500 2.050300
23.616000 2.062700
23.648600 2.003200
23.681200 1.901300
23.713800 1.731900
23.746400 1.560200
23.778900 1.311000
23.811500 1.180600
23.844100 1.206900
23.876700 1.255900
23.909300 1.243000
23.941900 1.292400
23.974400 1.457800
24.007000 1.595300
24.039600 1.724100
24.072200 1.700600
24.104800 1.476300
24.137400 1.541700
24.169900 1.732300
24.202500 1.890500
24.235100 1.991100
24.267700 2.048100
24.300300 2.043600
24.332900 2.018200
24.365400 1.977600
24.398000 1.934400
24.430600 2.019600
24.463200 2.014000
24.495800 1.853400
24.528400 1.763500
24.560900 1.818100
24.593500 1.897300
24.626100 2.099000
24.658700 2.107300
24.691300 2.029400
24.723900 2.037000
24.756400 1.969500
24.789000 1.735300
24.821600 1.685000
24.854200 1.710900
24.886800 1.796800
24.919400 1.951800
24.951900 2.115000
24.984500 2.039200
25.017100 1.777500
25.049700 1.602700
25.082300 1.543700
25.114900 1.535000
25.147400 1.603900
25.180000 1.645100
25.212600 1.669300
25.245200 1.662400
25.277800 1.655700
25.310400 1.807000
25.342900 2.076800
25.375500 2.025500
25.408100 1.977800
25.440700 1.804800
25.473300 1.664700
25.505900 1.581800
25.538400 1.541600
25.571000 1.504800
25.603600 1.400100
25.636200 1.381300
25.668800 1.489600
25.701400 1.633200
25.733900 1.675700
25.766500 1.725200
25.799100 1.824800
25.831700 1.912800
25.864300 2.065900
25.896800 1.992000
25.929400 2.064200
25.962000 2.161200
25.994600 2.056600
26.027200 1.884900
26.059800 1.763700
26.092300 1.695000
26.124900 1.543800
26.157500 1.423800
26.190100 1.463000
26.222700 1.610600
26.255300 1.845700
26.287800 1.943300
26.320400 2.027400
26.353000 2.090400
26.385600 2.000000
26.418200 2.015900
26.450800 2.069400
26.483300 2.092100
26.515900 2.064300
26.548500 1.926800
26.581100 1.755700
26.613700 1.704800
26.646300 1.604800
26.678800 1.579700
26.711400 1.641200
26.744000 1.857100
26.776600 2.032300
26.809200 2.100800
26.841800 2.263900
26.874300 2.170300
26.906900 2.163400
26.939500 2.025100
26.972100 1.886100
27.004700 1.691600
27.037300 1.671000
27.069800 1.650600
27.102400 1.713400
27.135000 1.917500
27.167600 2.022100
27.200200 2.225800
27.232800 2.260700
27.265300 2.251200
27.297900 2.238900
27.330500 2.049100
27.363100 1.707300
27.395700 1.539200
27.428300 1.467700
27.460800 1.454500
27.493400 1.520000
27.526000 1.596300
27.558600 1.824400
27.591200 2.028400
27.623800 2.138600
27.656300 2.251700
27.688900 2.386000
27.721500 2.457900
27.754100 2.367400
27.786700 2.312200
27.819300 2.341300
27.851800 2.248800
27.884400 2.177900
27.917000 2.137100
27.949600 2.071500
27.982200 2.057900
28.014700 2.120100
28.047300 2.021100
28.079900 1.912500
28.112500 1.898200
28.145100 1.949500
28.177700 1.955900
28.210200 1.979800
28.242800 2.030600
28.275400 1.983100
28.308000 1.959600
28.340600 1.935600
28.373200 1.881800
28.405700 1.785000
28.438300 1.629800
28.470900 1.596300
28.503500 1.565700
28.536100 1.537400
28.568700 1.499000
28.601200 1.376400
28.633800 1.241600
28.666400 1.493100
28.699000 1.491300
28.731600 1.510300
28.764200 1.500100
28.796700 1.275100
28.829300 1.195400
28.861900 1.262300
28.894500 1.180600
28.927100 1.113400
28.959700 1.093100
28.992200 0.952000
29.024800 0.849900
29.057400 0.811900
29.090000 0.671300
29.122600 0.496600
29.155200 0.383000
29.187700 0.159000
29.220300 0.104400
29.252900 0.073500
29.285500 0.053400
29.318100 0.032500
29.350700 0.017100
29.383200 0.007800
29.415800 0.002100
29.448400 0.000000
29.481000 0.000000
29.513600 0.000000
29.546200 0.000000
29.578700 0.000000
29.611300 0.000000
29.643900 0.000000
29.676500 0.000000
29.709100 0.000000
29.741700 0.000000
29.774200 0.000000
29.806800 0.000000
29.839400 0.000000
29.872000 0.000000
29.904600 0.000000
29.937200 0.000000
29.969700 0.000000
30.002300 0.000000
30.034900 0.000000
30.067500 0.000000
30.100100 0.000000
30.132600 0.000000
30.165200 0.000000
30.197800 0.000000
30.230400 0.000000
30.263000 0.000000
30.295600 0.000000
30.328100 0.000000
30.360700 0.000000
30.393300 0.000000
30.425900 0.000000
30.458500 0.000000
30.491100 0.000000
30.523600 0.000000
30.556200 0.000000
30.588800 0.000000
30.621400 0.000000
30.654000 0.000000
30.686600 0.000000
30.719100 0.000000
30.751700 0.000000
30.784300 0.000000
30.816900 0.000000
30.849500 0.000000
30.882100 0.000000
30.914600 0.000000
30.947200 0.000000
30.979800 0.000000
31.012400 0.000000
31.045000 0.000000
31.077600 0.000000
31.110100 0.000000
31.142700 0.000000
31.175300 0.000000
31.207900 0.000000
31.240500 0.000000
31.273100 0.000000
31.305600 0.000000
31.338200 0.000000
31.370800 0.000000
31.403400 0.000000
31.436000 0.000000
31.468600 0.000000
31.501100 0.000000
31.533700 0.000000
31.566300 0.000000
31.598900 0.000000
31.631500 0.000000
31.664100 0.000000
31.696600 0.000000
31.729200 0.000000
31.761800 0.000000
31.794400 0.000000
31.827000 0.000000
31.859600 0.000000
31.892100 0.000000
31.924700 0.000000
31.957300 0.000000
31.989900 0.000000
32.022500 0.000000
32.055100 0.000000
32.087600 0.000000
32.120200 0.000000
32.152800 0.000000
32.185400 0.000000
32.218000 0.000000
32.250500 0.000000
32.283100 0.000000
32.315700 0.000000
32.348300 0.000000
32.380900 0.000000
32.413500 0.000000
e
