set title 'mp-1218000 - Density of States'
set xlabel 'Energy (eV)'
set ylabel 'DOS (states/eV)'
set grid
set xrange [-10:10]
set yrange [0:14.689]
set xzeroaxis lt -1
set terminal png size 800,600
set output 'mp-1218000_dos_gnuplot.png'
plot '-' using 1:2 with lines title 'DOS'
-30.988500 0.000000
-30.958000 0.000000
-30.927500 0.000000
-30.897100 0.000000
-30.866600 0.000000
-30.836100 0.000000
-30.805600 0.000000
-30.775200 0.000000
-30.744700 0.000000
-30.714200 0.000000
-30.683800 0.000000
-30.653300 0.000000
-30.622800 0.000000
-30.592400 0.000000
-30.561900 0.000000
-30.531400 0.000000
-30.500900 0.000000
-30.470500 0.000000
-30.440000 0.000000
-30.409500 0.000000
-30.379100 0.000000
-30.348600 0.000000
-30.318100 0.000000
-30.287700 0.000000
-30.257200 0.000000
-30.226700 0.000000
-30.196200 0.000000
-30.165800 0.000000
-30.135300 0.000000
-30.104800 0.000000
-30.074400 0.000000
-30.043900 0.000000
-30.013400 0.000000
-29.983000 0.000000
-29.952500 0.000000
-29.922000 0.000000
-29.891600 0.000000
-29.861100 0.000000
-29.830600 0.000000
-29.800100 0.000000
-29.769700 0.000000
-29.739200 0.000000
-29.708700 0.000000
-29.678300 0.000000
-29.647800 0.000000
-29.617300 0.000000
-29.586900 0.000000
-29.556400 0.000000
-29.525900 0.000000
-29.495400 0.000000
-29.465000 0.000000
-29.434500 0.000000
-29.404000 0.000000
-29.373600 0.000000
-29.343100 0.000000
-29.312600 0.000000
-29.282200 0.000000
-29.251700 0.000000
-29.221200 0.000000
-29.190700 0.000000
-29.160300 0.000000
-29.129800 0.000000
-29.099300 0.000000
-29.068900 0.000000
-29.038400 0.000000
-29.007900 0.000000
-28.977500 0.000000
-28.947000 0.000000
-28.916500 0.000000
-28.886000 0.000000
-28.855600 0.000000
-28.825100 0.000000
-28.794600 0.000000
-28.764200 0.000000
-28.733700 0.000000
-28.703200 0.000000
-28.672800 0.000000
-28.642300 0.000000
-28.611800 0.000000
-28.581400 0.000000
-28.550900 0.000000
-28.520400 0.000000
-28.489900 0.000000
-28.459500 0.000000
-28.429000 0.000000
-28.398500 0.000000
-28.368100 0.000000
-28.337600 0.000000
-28.307100 0.000000
-28.276700 0.000000
-28.246200 0.000000
-28.215700 11.823200
-28.185200 7.265900
-28.154800 8.684500
-28.124300 11.576100
-28.093800 4.476500
-28.063400 7.270400
-28.032900 10.213100
-28.002400 13.421200
-27.972000 6.665500
-27.941500 44.211300
-27.911000 8.970500
-27.880500 8.048000
-27.850100 8.850300
-27.819600 11.945500
-27.789100 33.610300
-27.758700 16.476300
-27.728200 25.828400
-27.697700 34.306500
-27.667300 35.033500
-27.636800 9.221400
-27.606300 7.853200
-27.575900 7.161400
-27.545400 9.592500
-27.514900 10.786200
-27.484400 27.237100
-27.454000 19.087400
-27.423500 14.341800
-27.393000 15.711400
-27.362600 16.856600
-27.332100 24.378700
-27.301600 33.763700
-27.271200 18.321700
-27.240700 14.135600
-27.210200 9.440800
-27.179700 25.817100
-27.149300 30.807600
-27.118800 6.941200
-27.088300 3.931300
-27.057900 6.289000
-27.027400 6.387200
-26.996900 6.962200
-26.966500 8.411600
-26.936000 10.902400
-26.905500 29.481400
-26.875000 16.114900
-26.844600 10.625000
-26.814100 9.336200
-26.783600 0.000000
-26.753200 0.000000
-26.722700 0.000000
-26.692200 0.000000
-26.661800 0.000000
-26.631300 0.000000
-26.600800 0.000000
-26.570400 0.000000
-26.539900 0.000000
-26.509400 0.000000
-26.478900 0.000000
-26.448500 0.000000
-26.418000 0.000000
-26.387500 0.000000
-26.357100 0.000000
-26.326600 0.000000
-26.296100 0.000000
-26.265700 0.000000
-26.235200 0.000000
-26.204700 0.000000
-26.174200 0.000000
-26.143800 0.000000
-26.113300 0.000000
-26.082800 0.000000
-26.052400 0.000000
-26.021900 0.000000
-25.991400 0.000000
-25.961000 0.000000
-25.930500 0.000000
-25.900000 0.000000
-25.869500 0.000000
-25.839100 0.000000
-25.808600 0.000000
-25.778100 0.000000
-25.747700 0.000000
-25.717200 0.000000
-25.686700 0.000000
-25.656300 0.000000
-25.625800 0.000000
-25.595300 0.000000
-25.564800 0.000000
-25.534400 0.000000
-25.503900 0.000000
-25.473400 0.000000
-25.443000 0.000000
-25.412500 0.000000
-25.382000 0.000000
-25.351600 0.000000
-25.321100 0.000000
-25.290600 0.000000
-25.260200 0.000000
-25.229700 0.000000
-25.199200 0.000000
-25.168700 0.000000
-25.138300 0.000000
-25.107800 0.000000
-25.077300 0.000000
-25.046900 0.000000
-25.016400 0.000000
-24.985900 0.000000
-24.955500 0.000000
-24.925000 0.000000
-24.894500 0.000000
-24.864000 0.000000
-24.833600 0.000000
-24.803100 0.000000
-24.772600 0.000000
-24.742200 0.000000
-24.711700 0.000000
-24.681200 0.000000
-24.650800 0.000000
-24.620300 0.000000
-24.589800 0.000000
-24.559300 0.000000
-24.528900 0.000000
-24.498400 0.000000
-24.467900 0.000000
-24.437500 0.000000
-24.407000 0.000000
-24.376500 0.000000
-24.346100 0.000000
-24.315600 0.000000
-24.285100 0.000000
-24.254700 0.000000
-24.224200 0.000000
-24.193700 0.000000
-24.163200 0.000000
-24.132800 0.000000
-24.102300 0.000000
-24.071800 0.000000
-24.041400 0.000000
-24.010900 0.000000
-23.980400 0.000000
-23.950000 0.000000
-23.919500 0.000000
-23.889000 0.000000
-23.858500 0.000000
-23.828100 0.000000
-23.797600 0.000000
-23.767100 0.000000
-23.736700 0.000000
-23.706200 0.000000
-23.675700 0.000000
-23.645300 0.000000
-23.614800 0.000000
-23.584300 0.000000
-23.553800 0.000000
-23.523400 0.000000
-23.492900 0.000000
-23.462400 0.000000
-23.432000 0.000000
-23.401500 0.000000
-23.371000 0.000000
-23.340600 0.000000
-23.310100 0.000000
-23.279600 0.000000
-23.249200 0.000000
-23.218700 0.000000
-23.188200 0.000000
-23.157700 0.000000
-23.127300 0.000000
-23.096800 0.000000
-23.066300 0.000000
-23.035900 0.000000
-23.005400 0.000000
-22.974900 0.000000
-22.944500 0.000000
-22.914000 0.000000
-22.883500 0.000000
-22.853000 0.000000
-22.822600 0.000000
-22.792100 0.000000
-22.761600 0.000000
-22.731200 0.000000
-22.700700 0.000000
-22.670200 0.000000
-22.639800 0.000000
-22.609300 0.000000
-22.578800 0.000000
-22.548300 0.000000
-22.517900 0.000000
-22.487400 0.000000
-22.456900 0.000000
-22.426500 0.000000
-22.396000 0.000000
-22.365500 0.000000
-22.335100 0.000000
-22.304600 0.000000
-22.274100 0.000000
-22.243700 0.000000
-22.213200 0.000000
-22.182700 0.000000
-22.152200 0.000000
-22.121800 0.000000
-22.091300 0.000000
-22.060800 0.000000
-22.030400 0.000000
-21.999900 0.000000
-21.969400 0.000000
-21.939000 0.000000
-21.908500 0.000000
-21.878000 0.000000
-21.847500 0.000000
-21.817100 0.000000
-21.786600 0.000000
-21.756100 0.000000
-21.725700 0.000000
-21.695200 0.000000
-21.664700 0.000000
-21.634300 0.000000
-21.603800 0.000000
-21.573300 0.000000
-21.542800 0.000000
-21.512400 0.000000
-21.481900 0.000000
-21.451400 0.000000
-21.421000 0.000000
-21.390500 0.000000
-21.360000 0.000000
-21.329600 0.000000
-21.299100 0.000000
-21.268600 0.000000
-21.238100 0.000000
-21.207700 0.000000
-21.177200 0.000000
-21.146700 0.000000
-21.116300 0.000000
-21.085800 0.000000
-21.055300 0.000000
-21.024900 0.000000
-20.994400 0.000000
-20.963900 0.000000
-20.933500 0.000000
-20.903000 0.000000
-20.872500 0.000000
-20.842000 0.000000
-20.811600 0.000000
-20.781100 0.000000
-20.750600 0.000000
-20.720200 0.000000
-20.689700 0.000000
-20.659200 0.000000
-20.628800 0.000000
-20.598300 0.000000
-20.567800 0.000000
-20.537300 0.000000
-20.506900 0.000000
-20.476400 0.000000
-20.445900 0.000000
-20.415500 0.000000
-20.385000 0.000000
-20.354500 0.000000
-20.324100 0.000000
-20.293600 0.000000
-20.263100 0.000000
-20.232600 0.000000
-20.202200 0.000000
-20.171700 0.000000
-20.141200 0.000000
-20.110800 0.000000
-20.080300 0.000000
-20.049800 0.000000
-20.019400 0.000000
-19.988900 0.000000
-19.958400 0.000000
-19.928000 0.000000
-19.897500 0.000000
-19.867000 0.000000
-19.836500 0.000000
-19.806100 0.000000
-19.775600 0.000000
-19.745100 0.000000
-19.714700 0.000000
-19.684200 0.000000
-19.653700 0.000000
-19.623300 0.000000
-19.592800 0.000000
-19.562300 0.000000
-19.531800 0.000000
-19.501400 0.000000
-19.470900 0.000000
-19.440400 0.000000
-19.410000 0.000000
-19.379500 0.000000
-19.349000 0.000000
-19.318600 0.000000
-19.288100 0.000000
-19.257600 0.000000
-19.227100 0.000000
-19.196700 0.000000
-19.166200 0.000000
-19.135700 0.000000
-19.105300 0.000000
-19.074800 0.000000
-19.044300 0.000000
-19.013900 0.000000
-18.983400 0.000000
-18.952900 0.000000
-18.922500 0.000000
-18.892000 0.000000
-18.861500 0.000000
-18.831000 0.000000
-18.800600 0.000000
-18.770100 0.000000
-18.739600 0.000000
-18.709200 0.000000
-18.678700 0.000000
-18.648200 0.000000
-18.617800 0.000000
-18.587300 0.000000
-18.556800 0.000000
-18.526300 0.000000
-18.495900 0.000000
-18.465400 0.000000
-18.434900 0.000000
-18.404500 0.000000
-18.374000 0.000000
-18.343500 0.000000
-18.313100 0.000000
-18.282600 0.000000
-18.252100 0.000000
-18.221600 0.000000
-18.191200 0.000000
-18.160700 0.000000
-18.130200 0.000000
-18.099800 0.000000
-18.069300 0.000000
-18.038800 0.000000
-18.008400 0.000000
-17.977900 0.000000
-17.947400 0.000000
-17.916900 0.000000
-17.886500 0.000000
-17.856000 0.000000
-17.825500 0.000000
-17.795100 0.000000
-17.764600 0.000000
-17.734100 0.000000
-17.703700 0.000000
-17.673200 0.000000
-17.642700 0.000000
-17.612300 0.000000
-17.581800 0.000000
-17.551300 0.000000
-17.520800 0.000000
-17.490400 0.000000
-17.459900 0.000000
-17.429400 0.000000
-17.399000 0.000000
-17.368500 0.000000
-17.338000 0.000000
-17.307600 0.000000
-17.277100 0.000000
-17.246600 0.000000
-17.216100 0.000000
-17.185700 0.000000
-17.155200 0.000000
-17.124700 0.000000
-17.094300 0.000000
-17.063800 0.000000
-17.033300 0.000000
-17.002900 0.000000
-16.972400 0.000000
-16.941900 0.000000
-16.911400 0.000000
-16.881000 0.000000
-16.850500 0.000000
-16.820000 0.000000
-16.789600 0.000000
-16.759100 0.000000
-16.728600 0.000000
-16.698200 0.000000
-16.667700 0.000000
-16.637200 0.000000
-16.606800 0.000000
-16.576300 0.000000
-16.545800 0.000000
-16.515300 0.000000
-16.484900 0.000000
-16.454400 0.000000
-16.423900 0.000000
-16.393500 0.000000
-16.363000 0.000000
-16.332500 0.000000
-16.302100 0.000000
-16.271600 0.000000
-16.241100 0.000000
-16.210600 0.000000
-16.180200 0.000000
-16.149700 0.000000
-16.119200 0.000000
-16.088800 0.000000
-16.058300 0.000000
-16.027800 0.000000
-15.997400 0.000000
-15.966900 0.000000
-15.936400 0.000000
-15.905900 0.000000
-15.875500 0.000000
-15.845000 0.000000
-15.814500 0.000000
-15.784100 0.000000
-15.753600 0.000000
-15.723100 0.000000
-15.692700 0.000000
-15.662200 0.000000
-15.631700 0.000000
-15.601300 0.000000
-15.570800 0.000000
-15.540300 0.000000
-15.509800 0.000000
-15.479400 0.000000
-15.448900 0.000000
-15.418400 0.000000
-15.388000 0.000000
-15.357500 0.000000
-15.327000 0.000000
-15.296600 0.000000
-15.266100 0.000000
-15.235600 0.000000
-15.205100 0.000000
-15.174700 0.000000
-15.144200 0.000000
-15.113700 0.000000
-15.083300 0.000000
-15.052800 0.000000
-15.022300 0.000000
-14.991900 0.000000
-14.961400 0.000000
-14.930900 0.000000
-14.900400 0.000000
-14.870000 0.000000
-14.839500 0.000000
-14.809000 0.000000
-14.778600 0.000000
-14.748100 0.000000
-14.717600 0.000000
-14.687200 0.000000
-14.656700 0.000000
-14.626200 0.000000
-14.595800 0.000000
-14.565300 0.000000
-14.534800 0.000000
-14.504300 0.000000
-14.473900 0.000000
-14.443400 0.000000
-14.412900 0.000000
-14.382500 0.000000
-14.352000 0.000000
-14.321500 0.000000
-14.291100 0.000000
-14.260600 0.000000
-14.230100 0.000000
-14.199600 0.000000
-14.169200 0.000000
-14.138700 0.000000
-14.108200 0.000000
-14.077800 0.000000
-14.047300 0.000000
-14.016800 0.000000
-13.986400 0.000000
-13.955900 0.000000
-13.925400 0.000000
-13.894900 0.000000
-13.864500 0.000000
-13.834000 0.000000
-13.803500 0.000000
-13.773100 0.000000
-13.742600 0.000000
-13.712100 0.000000
-13.681700 0.000000
-13.651200 0.000000
-13.620700 0.000000
-13.590200 0.000000
-13.559800 0.000000
-13.529300 0.000000
-13.498800 0.000000
-13.468400 0.000000
-13.437900 0.000000
-13.407400 0.000000
-13.377000 0.000000
-13.346500 0.000000
-13.316000 0.000000
-13.285600 0.000000
-13.255100 0.000000
-13.224600 0.000000
-13.194100 0.000000
-13.163700 0.000000
-13.133200 0.000000
-13.102700 0.000000
-13.072300 0.000000
-13.041800 0.000000
-13.011300 0.000000
-12.980900 0.000000
-12.950400 0.000000
-12.919900 0.000000
-12.889400 0.000000
-12.859000 0.000000
-12.828500 0.000000
-12.798000 0.000000
-12.767600 0.000000
-12.737100 0.000000
-12.706600 0.000000
-12.676200 0.000000
-12.645700 0.000000
-12.615200 0.000000
-12.584700 0.000000
-12.554300 0.000000
-12.523800 0.000000
-12.493300 0.000000
-12.462900 0.000000
-12.432400 0.000000
-12.401900 0.000000
-12.371500 0.000000
-12.341000 0.000000
-12.310500 0.000000
-12.280100 0.000000
-12.249600 0.000000
-12.219100 0.000000
-12.188600 0.000000
-12.158200 0.000000
-12.127700 0.000000
-12.097200 0.000000
-12.066800 0.000000
-12.036300 0.000000
-12.005800 0.000000
-11.975400 0.000000
-11.944900 0.000000
-11.914400 0.000000
-11.883900 0.000000
-11.853500 0.000000
-11.823000 0.000000
-11.792500 0.000000
-11.762100 0.000000
-11.731600 0.000000
-11.701100 0.000000
-11.670700 0.000000
-11.640200 0.000000
-11.609700 0.000000
-11.579200 0.000000
-11.548800 0.000000
-11.518300 0.000000
-11.487800 0.000000
-11.457400 0.000000
-11.426900 0.000000
-11.396400 0.000000
-11.366000 0.000000
-11.335500 0.000000
-11.305000 0.000000
-11.274600 0.000000
-11.244100 0.000000
-11.213600 0.000000
-11.183100 0.000000
-11.152700 0.000000
-11.122200 0.000000
-11.091700 0.000000
-11.061300 0.000000
-11.030800 0.000000
-11.000300 0.000000
-10.969900 0.000000
-10.939400 0.000000
-10.908900 0.000000
-10.878400 0.000000
-10.848000 0.000000
-10.817500 0.000000
-10.787000 0.000000
-10.756600 0.000000
-10.726100 0.000000
-10.695600 0.000000
-10.665200 0.000000
-10.634700 0.000000
-10.604200 0.000000
-10.573700 0.000000
-10.543300 0.000000
-10.512800 0.000000
-10.482300 0.000000
-10.451900 0.000000
-10.421400 0.000000
-10.390900 0.000000
-10.360500 0.000000
-10.330000 0.000000
-10.299500 0.000000
-10.269000 0.000000
-10.238600 0.000000
-10.208100 0.000000
-10.177600 0.000000
-10.147200 0.000000
-10.116700 0.000000
-10.086200 0.000000
-10.055800 0.000000
-10.025300 0.000000
-9.994800 0.000000
-9.964400 0.000000
-9.933900 0.000000
-9.903400 0.000000
-9.872900 0.000000
-9.842500 0.000000
-9.812000 0.000000
-9.781500 0.000000
-9.751100 0.000000
-9.720600 0.000000
-9.690100 0.000000
-9.659700 0.000000
-9.629200 0.000000
-9.598700 0.000000
-9.568200 0.000000
-9.537800 0.000000
-9.507300 0.000000
-9.476800 0.000000
-9.446400 0.000000
-9.415900 0.000000
-9.385400 0.000000
-9.355000 0.000000
-9.324500 0.000000
-9.294000 0.000000
-9.263500 0.000000
-9.233100 0.000000
-9.202600 0.000000
-9.172100 0.000000
-9.141700 0.000000
-9.111200 0.000000
-9.080700 0.000000
-9.050300 0.000000
-9.019800 0.000000
-8.989300 0.000000
-8.958900 0.000000
-8.928400 0.000000
-8.897900 0.000000
-8.867400 0.000000
-8.837000 0.000000
-8.806500 0.000000
-8.776000 0.000000
-8.745600 0.000000
-8.715100 0.000000
-8.684600 0.000000
-8.654200 0.000000
-8.623700 0.000000
-8.593200 0.000000
-8.562700 0.000000
-8.532300 0.000000
-8.501800 0.000000
-8.471300 0.000000
-8.440900 0.000000
-8.410400 0.000000
-8.379900 0.000000
-8.349500 0.000000
-8.319000 0.000000
-8.288500 0.000000
-8.258000 0.000000
-8.227600 0.000000
-8.197100 0.000000
-8.166600 0.000000
-8.136200 0.000000
-8.105700 0.000000
-8.075200 0.000000
-8.044800 0.000000
-8.014300 0.000000
-7.983800 0.000000
-7.953400 0.000000
-7.922900 0.000000
-7.892400 0.000000
-7.861900 0.000000
-7.831500 0.000000
-7.801000 0.000000
-7.770500 0.000000
-7.740100 0.000000
-7.709600 0.000000
-7.679100 0.000000
-7.648700 0.000000
-7.618200 0.000000
-7.587700 0.000000
-7.557200 0.000000
-7.526800 0.000000
-7.496300 0.000000
-7.465800 0.000000
-7.435400 0.000000
-7.404900 0.000000
-7.374400 0.000000
-7.344000 0.000000
-7.313500 0.000000
-7.283000 0.000000
-7.252500 0.000000
-7.222100 0.000000
-7.191600 0.000000
-7.161100 0.000000
-7.130700 0.000000
-7.100200 0.000000
-7.069700 0.000000
-7.039300 0.000000
-7.008800 0.000000
-6.978300 0.000000
-6.947900 0.000000
-6.917400 0.000000
-6.886900 0.000000
-6.856400 0.000000
-6.826000 0.000000
-6.795500 0.000000
-6.765000 0.024300
-6.734600 0.074200
-6.704100 0.152400
-6.673600 0.242900
-6.643200 0.333500
-6.612700 0.424200
-6.582200 0.387600
-6.551700 0.362600
-6.521300 0.303900
-6.490800 0.313200
-6.460300 0.322500
-6.429900 0.331800
-6.399400 0.341100
-6.368900 0.350400
-6.338500 0.359700
-6.308000 0.369000
-6.277500 0.378300
-6.247000 0.386700
-6.216600 0.389600
-6.186100 0.387000
-6.155600 0.382600
-6.125200 0.378100
-6.094700 0.373700
-6.064200 0.372600
-6.033800 0.376000
-6.003300 0.381400
-5.972800 0.386800
-5.942300 0.392300
-5.911900 0.397700
-5.881400 0.403100
-5.850900 0.408500
-5.820500 0.414000
-5.790000 0.419400
-5.759500 0.451800
-5.729100 0.508400
-5.698600 0.581700
-5.668100 0.671000
-5.637700 0.714400
-5.607200 0.759400
-5.576700 0.831800
-5.546200 0.915400
-5.515800 0.979500
-5.485300 1.014000
-5.454800 0.981200
-5.424400 1.010600
-5.393900 1.039700
-5.363400 1.066700
-5.333000 1.093100
-5.302500 1.117100
-5.272000 1.139400
-5.241500 1.160000
-5.211100 1.180700
-5.180600 1.203400
-5.150100 1.230000
-5.119700 1.258400
-5.089200 1.286900
-5.058700 1.315300
-5.028300 1.343700
-4.997800 1.374300
-4.967300 1.462200
-4.936800 1.558300
-4.906400 1.684700
-4.875900 1.805800
-4.845400 1.926700
-4.815000 2.046100
-4.784500 2.228200
-4.754000 2.464000
-4.723600 2.700000
-4.693100 2.935900
-4.662600 4.175800
-4.632200 4.262700
-4.601700 3.375400
-4.571200 2.924400
-4.540700 3.012300
-4.510300 3.098000
-4.479800 3.181000
-4.449300 3.374200
-4.418900 3.321600
-4.388400 3.269000
-4.357900 3.171800
-4.327500 3.444800
-4.297000 4.372200
-4.266500 5.181100
-4.236000 3.960700
-4.205600 3.133000
-4.175100 3.067300
-4.144600 3.279200
-4.114200 3.411700
-4.083700 2.375300
-4.053200 2.494900
-4.022800 1.883000
-3.992300 11.658300
-3.961800 9.433600
-3.931300 5.481700
-3.900900 4.255700
-3.870400 2.269100
-3.839900 2.173300
-3.809500 2.277600
-3.779000 2.708000
-3.748500 3.138500
-3.718100 3.674000
-3.687600 2.924200
-3.657100 3.085300
-3.626700 2.101200
-3.596200 1.797700
-3.565700 1.494300
-3.535200 2.053600
-3.504800 0.000000
-3.474300 0.000000
-3.443800 0.000000
-3.413400 0.000000
-3.382900 0.000000
-3.352400 0.000000
-3.322000 0.000000
-3.291500 0.000000
-3.261000 0.000000
-3.230500 0.000000
-3.200100 0.000000
-3.169600 0.000000
-3.139100 0.000000
-3.108700 0.000000
-3.078200 0.000000
-3.047700 0.000000
-3.017300 0.000000
-2.986800 0.000000
-2.956300 0.000000
-2.925800 0.000000
-2.895400 0.000000
-2.864900 0.000000
-2.834400 0.000000
-2.804000 0.000000
-2.773500 0.000000
-2.743000 0.000000
-2.712600 0.000000
-2.682100 0.000000
-2.651600 0.000000
-2.621100 0.000000
-2.590700 0.000000
-2.560200 0.000000
-2.529700 0.000000
-2.499300 0.000000
-2.468800 0.000000
-2.438300 0.000000
-2.407900 0.000000
-2.377400 0.000000
-2.346900 0.000000
-2.316500 0.000000
-2.286000 0.000000
-2.255500 0.000000
-2.225000 0.000000
-2.194600 0.000000
-2.164100 0.000000
-2.133600 0.000000
-2.103200 0.000000
-2.072700 0.000000
-2.042200 0.000000
-2.011800 0.000000
-1.981300 0.000000
-1.950800 0.000000
-1.920300 0.000000
-1.889900 0.000000
-1.859400 0.000000
-1.828900 0.000000
-1.798500 0.000000
-1.768000 0.000000
-1.737500 0.000000
-1.707100 0.000000
-1.676600 0.000000
-1.646100 0.000000
-1.615600 0.000000
-1.585200 0.000000
-1.554700 0.000000
-1.524200 0.000000
-1.493800 0.000000
-1.463300 0.000000
-1.432800 0.000000
-1.402400 0.000000
-1.371900 0.000000
-1.341400 0.000000
-1.311000 0.000000
-1.280500 0.000000
-1.250000 0.000000
-1.219500 0.000000
-1.189100 0.000000
-1.158600 0.000000
-1.128100 0.000000
-1.097700 0.000000
-1.067200 0.000000
-1.036700 0.000000
-1.006300 0.000000
-0.975800 0.000000
-0.945300 0.000000
-0.914800 0.000000
-0.884400 0.000000
-0.853900 0.002000
-0.823400 0.013400
-0.793000 0.030900
-0.762500 0.052900
-0.732000 0.079300
-0.701600 0.109800
-0.671100 0.144400
-0.640600 0.184200
-0.610100 0.193800
-0.579700 0.215000
-0.549200 0.237500
-0.518700 0.258200
-0.488300 0.275400
-0.457800 0.287900
-0.427300 0.551700
-0.396900 0.734700
-0.366400 0.846700
-0.335900 1.035500
-0.305500 1.089300
-0.275000 0.975500
-0.244500 0.997400
-0.214000 1.036400
-0.183600 1.075400
-0.153100 1.113700
-0.122600 1.151100
-0.092200 1.187900
-0.061700 1.220800
-0.031200 1.247100
-0.000800 1.269300
0.029700 1.291200
0.060200 1.315200
0.090700 1.343100
0.121100 1.374900
0.151600 1.410500
0.182100 1.466800
0.212500 1.544200
0.243000 1.616100
0.273500 1.688100
0.303900 1.760100
0.334400 1.832000
0.364900 1.904000
0.395400 1.975900
0.425800 2.166500
0.456300 2.506500
0.486800 2.468300
0.517200 2.319100
0.547700 2.273700
0.578200 2.986500
0.608600 5.056400
0.639100 1.680900
0.669600 1.685800
0.700000 1.811600
0.730500 1.983600
0.761000 2.152800
0.791500 2.362900
0.821900 2.717200
0.852400 3.000300
0.882900 3.421400
0.913300 4.615100
0.943800 5.795600
0.974300 3.493100
1.004700 3.200800
1.035200 2.908400
1.065700 2.881100
1.096200 2.972500
1.126600 3.211200
1.157100 3.632700
1.187600 4.175100
1.218000 3.137200
1.248500 2.759200
1.279000 2.464300
1.309400 2.219300
1.339900 1.861900
1.370400 0.768900
1.400900 0.494200
1.431300 0.289700
1.461800 0.292400
1.492300 0.788300
1.522700 1.718600
1.553200 2.691300
1.583700 2.849400
1.614100 3.254700
1.644600 4.274700
1.675100 4.607200
1.705600 4.623000
1.736000 4.444400
1.766500 4.431300
1.797000 4.229800
1.827400 3.852600
1.857900 4.184000
1.888400 4.149900
1.918800 4.911000
1.949300 6.132500
1.979800 6.337800
2.010200 5.294800
2.040700 5.337800
2.071200 5.383700
2.101700 4.642200
2.132100 4.129300
2.162600 4.104400
2.193100 4.852600
2.223500 7.286800
2.254000 0.921700
2.284500 0.898900
2.314900 0.876200
2.345400 0.853500
2.375900 6.839000
2.406400 4.832500
2.436800 4.300800
2.467300 4.697900
2.497800 7.628300
2.528200 12.589600
2.558700 13.354000
2.589200 11.319700
2.619600 9.006600
2.650100 5.387200
2.680600 4.194000
2.711100 3.883400
2.741500 3.858900
2.772000 4.051800
2.802500 4.272200
2.832900 2.767800
2.863400 3.766800
2.893900 5.956700
2.924300 12.392900
2.954800 5.941600
2.985300 5.917700
3.015700 8.220100
3.046200 6.389100
3.076700 6.433300
3.107200 6.874800
3.137600 7.346800
3.168100 7.846700
3.198600 7.398900
3.229000 6.526900
3.259500 6.572000
3.290000 8.274300
3.320400 8.731200
3.350900 10.595500
3.381400 6.308900
3.411900 5.400100
3.442300 3.078200
3.472800 2.727100
3.503300 2.476000
3.533700 2.338900
3.564200 2.337500
3.594700 2.683200
3.625100 4.435700
3.655600 9.055800
3.686100 8.729300
3.716600 12.047500
3.747000 4.790500
3.777500 4.206000
3.808000 3.777400
3.838400 3.482600
3.868900 2.748600
3.899400 2.446600
3.929800 2.187000
3.960300 1.926200
3.990800 1.720800
4.021200 1.630200
4.051700 1.567700
4.082200 1.523500
4.112700 1.476700
4.143100 1.450300
4.173600 1.450900
4.204100 1.454500
4.234500 1.457500
4.265000 1.459800
4.295500 1.450300
4.325900 1.408400
4.356400 1.343400
4.386900 1.251500
4.417400 1.151600
4.447800 0.939000
4.478300 0.821600
4.508800 0.953700
4.539200 1.102600
4.569700 1.251700
4.600200 1.401100
4.630600 1.550800
4.661100 1.784300
4.691600 2.686400
4.722100 3.025200
4.752500 3.361900
4.783000 3.861500
4.813500 4.435300
4.843900 4.652500
4.874400 4.533700
4.904900 4.303400
4.935300 4.087700
4.965800 3.292100
4.996300 2.773700
5.026800 2.884300
5.057200 3.243400
5.087700 2.833800
5.118200 3.198200
5.148600 3.172800
5.179100 3.145800
5.209600 4.723600
5.240000 4.859400
5.270500 5.317700
5.301000 5.594900
5.331400 5.146700
5.361900 4.573600
5.392400 4.326500
5.422900 4.884700
5.453300 4.477600
5.483800 4.842900
5.514300 5.195500
5.544700 3.357800
5.575200 2.229700
5.605700 0.726200
5.636100 0.498100
5.666600 0.461100
5.697100 0.424000
5.727600 0.387000
5.758000 0.350100
5.788500 0.313200
5.819000 0.294000
5.849400 0.335900
5.879900 0.370400
5.910400 0.792000
5.940800 2.051300
5.971300 2.160200
6.001800 2.497000
6.032300 4.022500
6.062700 4.103500
6.093200 3.527200
6.123700 4.158500
6.154100 4.609700
6.184600 4.463500
6.215100 4.012000
6.245500 3.606300
6.276000 3.325000
6.306500 3.108300
6.336900 2.901500
6.367400 2.763500
6.397900 2.617500
6.428400 2.618200
6.458800 2.992600
6.489300 3.293900
6.519800 2.972200
6.550200 2.061000
6.580700 1.992800
6.611200 2.312600
6.641600 2.908100
6.672100 3.529700
6.702600 3.949700
6.733100 4.412900
6.763500 4.785300
6.794000 5.253600
6.824500 5.597700
6.854900 5.356000
6.885400 4.390700
6.915900 4.135300
6.946300 3.827300
6.976800 2.381600
7.007300 1.823400
7.037800 1.514300
7.068200 1.294600
7.098700 1.210700
7.129200 1.158400
7.159600 1.178000
7.190100 1.283600
7.220600 1.474800
7.251000 1.454100
7.281500 0.847500
7.312000 1.126600
7.342400 1.263500
7.372900 1.360900
7.403400 1.464200
7.433900 1.656100
7.464300 1.974700
7.494800 1.981800
7.525300 1.988600
7.555700 2.081000
7.586200 2.189600
7.616700 2.387400
7.647100 2.527400
7.677600 2.485400
7.708100 2.631500
7.738600 2.834600
7.769000 2.843500
7.799500 2.921000
7.830000 3.224100
7.860400 3.315600
7.890900 3.460000
7.921400 3.502300
7.951800 3.583000
7.982300 3.653600
8.012800 4.590100
8.043300 3.416200
8.073700 3.083900
8.104200 3.180400
8.134700 3.121000
8.165100 2.856300
8.195600 2.701600
8.226100 2.588800
8.256500 2.529800
8.287000 2.453200
8.317500 2.448900
8.347900 2.359500
8.378400 2.277200
8.408900 2.313000
8.439400 2.625000
8.469800 2.623800
8.500300 2.463900
8.530800 2.551600
8.561200 2.668100
8.591700 2.811800
8.622200 2.963000
8.652600 3.183100
8.683100 3.238900
8.713600 3.309400
8.744100 3.635900
8.774500 4.151100
8.805000 4.297800
8.835500 3.437100
8.865900 3.212300
8.896400 3.330400
8.926900 3.469000
8.957300 3.596400
8.987800 3.715700
9.018300 3.937400
9.048800 4.122500
9.079200 4.330500
9.109700 4.558700
9.140200 4.683300
9.170600 4.927700
9.201100 5.419000
9.231600 5.318400
9.262000 5.165200
9.292500 4.758800
9.323000 3.979100
9.353500 3.597700
9.383900 3.650900
9.414400 3.628300
9.444900 3.614500
9.475300 4.269300
9.505800 4.038700
9.536300 4.028500
9.566700 4.208400
9.597200 4.353200
9.627700 4.125000
9.658100 4.646200
9.688600 4.345400
9.719100 4.195800
9.749600 4.140100
9.780000 4.523600
9.810500 4.205100
9.841000 4.245600
9.871400 4.459600
9.901900 4.830000
9.932400 4.509600
9.962800 4.460500
9.993300 4.820900
10.023800 4.684200
10.054300 4.751800
10.084700 4.523500
10.115200 4.630500
10.145700 4.722700
10.176100 4.739700
10.206600 4.729100
10.237100 4.714100
10.267500 4.775300
10.298000 4.924500
10.328500 5.295300
10.359000 5.550500
10.389400 6.131500
10.419900 6.318900
10.450400 6.396000
10.480800 6.490200
10.511300 5.987700
10.541800 6.083700
10.572200 6.223100
10.602700 6.406400
10.633200 6.524300
10.663600 6.659700
10.694100 7.114900
10.724600 6.035700
10.755100 6.124300
10.785500 6.579500
10.816000 7.019500
10.846500 6.847300
10.876900 5.631300
10.907400 5.111600
10.937900 4.959300
10.968300 4.806300
10.998800 4.716100
11.029300 5.411200
11.059800 6.767100
11.090200 7.298500
11.120700 7.403500
11.151200 6.285600
11.181600 5.404300
11.212100 4.343000
11.242600 3.714800
11.273000 3.522500
11.303500 3.588000
11.334000 4.734300
11.364500 4.828800
11.394900 4.893000
11.425400 5.307600
11.455900 5.748800
11.486300 6.113000
11.516800 6.650800
11.547300 4.786500
11.577700 4.492800
11.608200 4.733300
11.638700 4.815300
11.669100 5.231300
11.699600 5.292200
11.730100 5.321600
11.760600 5.623400
11.791000 6.422900
11.821500 7.571600
11.852000 7.731700
11.882400 6.615200
11.912900 5.942900
11.943400 4.120700
11.973800 3.601100
12.004300 3.440300
12.034800 3.474200
12.065300 3.731500
12.095700 4.077600
12.126200 4.196400
12.156700 4.135400
12.187100 4.032900
12.217600 4.052800
12.248100 4.219100
12.278500 5.318600
12.309000 5.179500
12.339500 4.793700
12.370000 4.743800
12.400400 4.686600
12.430900 4.623100
12.461400 4.628900
12.491800 4.630000
12.522300 4.877100
12.552800 5.519800
12.583200 5.281000
12.613700 4.849300
12.644200 4.581300
12.674700 4.306700
12.705100 4.015600
12.735600 3.777700
12.766100 3.676300
12.796500 3.594400
12.827000 3.192900
12.857500 2.052700
12.887900 1.997300
12.918400 2.603600
12.948900 3.296800
12.979300 4.179700
13.009800 4.910700
13.040300 5.510500
13.070800 5.677900
13.101200 6.210400
13.131700 7.053800
13.162200 6.528500
13.192600 5.397700
13.223100 3.930900
13.253600 2.070900
13.284000 1.905300
13.314500 2.103000
13.345000 2.371700
13.375500 2.472600
13.405900 2.684100
13.436400 2.881000
13.466900 2.364800
13.497300 2.443700
13.527800 2.557900
13.558300 2.697100
13.588700 2.963100
13.619200 3.410500
13.649700 3.557100
13.680200 4.194500
13.710600 4.275200
13.741100 4.004800
13.771600 3.422900
13.802000 3.012400
13.832500 3.036300
13.863000 3.223300
13.893400 3.358200
13.923900 3.469300
13.954400 3.504700
13.984800 2.697500
14.015300 2.817800
14.045800 2.873700
14.076300 2.984600
14.106700 2.963700
14.137200 2.900900
14.167700 2.976000
14.198100 2.984400
14.228600 3.134700
14.259100 3.406900
14.289500 3.635600
14.320000 3.938900
14.350500 4.103300
14.381000 4.139700
14.411400 4.451700
14.441900 5.104500
14.472400 6.086100
14.502800 5.313100
14.533300 4.454100
14.563800 4.463900
14.594200 4.685300
14.624700 4.246400
14.655200 3.324300
14.685700 2.931300
14.716100 2.847200
14.746600 2.211400
14.777100 1.445700
14.807500 1.433500
14.838000 1.431900
14.868500 1.502700
14.898900 2.716300
14.929400 2.554800
14.959900 3.362500
14.990300 3.890500
15.020800 4.478600
15.051300 5.054400
15.081800 4.723400
15.112200 4.524700
15.142700 4.528700
15.173200 4.845100
15.203600 4.935500
15.234100 4.478900
15.264600 3.501200
15.295000 2.648200
15.325500 2.267000
15.356000 3.949700
15.386500 2.650200
15.416900 2.876100
15.447400 3.298300
15.477900 3.921500
15.508300 4.045600
15.538800 4.196800
15.569300 4.237100
15.599700 4.307000
15.630200 4.615800
15.660700 5.493500
15.691200 5.997800
15.721600 4.479800
15.752100 3.642200
15.782600 2.896200
15.813000 2.478800
15.843500 2.200700
15.874000 2.095300
15.904400 2.093400
15.934900 2.315400
15.965400 2.587100
15.995800 2.751500
16.026300 3.553800
16.056800 2.795900
16.087300 2.194800
16.117700 2.007000
16.148200 1.927900
16.178700 1.878400
16.209100 1.853900
16.239600 1.843100
16.270100 1.834600
16.300500 1.820200
16.331000 1.792400
16.361500 1.765100
16.392000 1.752000
16.422400 1.756700
16.452900 1.787200
16.483400 1.824500
16.513800 1.871700
16.544300 1.936000
16.574800 2.362300
16.605200 2.289200
16.635700 2.190200
16.666200 2.258200
16.696700 2.363100
16.727100 2.424700
16.757600 2.467000
16.788100 2.521900
16.818500 2.551100
16.849000 2.612400
16.879500 2.715000
16.909900 2.487600
16.940400 2.252400
16.970900 1.873600
17.001400 1.826800
17.031800 1.867500
17.062300 1.978100
17.092800 2.270300
17.123200 2.128800
17.153700 2.224800
17.184200 2.350600
17.214600 2.517400
17.245100 3.028500
17.275600 4.053000
17.306000 2.927600
17.336500 2.675300
17.367000 2.407100
17.397500 2.306600
17.427900 2.360400
17.458400 2.364000
17.488900 2.298700
17.519300 2.399500
17.549800 2.676200
17.580300 2.933100
17.610700 2.870100
17.641200 3.060500
17.671700 2.928300
17.702200 2.768600
17.732600 2.786600
17.763100 2.965600
17.793600 2.962300
17.824000 2.788100
17.854500 2.657500
17.885000 2.516000
17.915400 2.306500
17.945900 1.959000
17.976400 1.437400
18.006900 1.189100
18.037300 1.108300
18.067800 1.321800
18.098300 0.982400
18.128700 0.965700
18.159200 0.975800
18.189700 1.017200
18.220100 1.238900
18.250600 1.561100
18.281100 1.754800
18.311500 2.385600
18.342000 3.519300
18.372500 4.000600
18.403000 4.319200
18.433400 5.464800
18.463900 5.335000
18.494400 5.513100
18.524800 5.263100
18.555300 4.937700
18.585800 4.320900
18.616200 3.525400
18.646700 3.140300
18.677200 2.248700
18.707700 1.722000
18.738100 1.820700
18.768600 1.470200
18.799100 2.393100
18.829500 5.217700
18.860000 10.525600
18.890500 5.561600
18.920900 4.786600
18.951400 4.233600
18.981900 3.918000
19.012400 3.625100
19.042800 3.260500
19.073300 2.971600
19.103800 2.792500
19.134200 2.871700
19.164700 3.196000
19.195200 3.543100
19.225600 4.831600
19.256100 8.563900
19.286600 6.185100
19.317000 6.668600
19.347500 9.437600
19.378000 6.000600
19.408500 5.185500
19.438900 4.559300
19.469400 4.475200
19.499900 4.630900
19.530300 5.195400
19.560800 5.197900
19.591300 5.137200
19.621700 5.055300
19.652200 5.002700
19.682700 5.011700
19.713200 5.650700
19.743600 7.925300
19.774100 74.459700
19.804600 6.468000
19.835000 4.830600
19.865500 4.288400
19.896000 4.148100
19.926400 4.400700
19.956900 4.818900
19.987400 5.634600
20.017900 5.106900
20.048300 5.041700
20.078800 4.792000
20.109300 4.399700
20.139700 4.125200
20.170200 3.780900
20.200700 3.627900
20.231100 3.349200
20.261600 3.168900
20.292100 2.811900
20.322600 2.853700
20.353000 2.882000
20.383500 2.844500
20.414000 2.778100
20.444400 2.690200
20.474900 2.540700
20.505400 2.777000
20.535800 2.675600
20.566300 2.550100
20.596800 2.690700
20.627200 2.474900
20.657700 2.182400
20.688200 2.001100
20.718700 2.148100
20.749100 2.195300
20.779600 2.285200
20.810100 2.365300
20.840500 2.491900
20.871000 2.807500
20.901500 3.236900
20.931900 3.415900
20.962400 3.760200
20.992900 4.013300
21.023400 3.624400
21.053800 3.576400
21.084300 3.829600
21.114800 4.040600
21.145200 3.879000
21.175700 3.613500
21.206200 3.193200
21.236600 2.996500
21.267100 3.265600
21.297600 3.750600
21.328100 4.188500
21.358500 4.515500
21.389000 4.404200
21.419500 4.563800
21.449900 4.595500
21.480400 4.381200
21.510900 4.043600
21.541300 4.068600
21.571800 4.089600
21.602300 4.205400
21.632700 4.208300
21.663200 4.385400
21.693700 4.603900
21.724200 4.765300
21.754600 4.653800
21.785100 4.550200
21.815600 4.569100
21.846000 4.266900
21.876500 4.063600
21.907000 3.944600
21.937400 4.049000
21.967900 4.006800
21.998400 3.744500
22.028900 3.469700
22.059300 3.360100
22.089800 3.584500
22.120300 3.714300
22.150700 3.797600
22.181200 3.691600
22.211700 3.557200
22.242100 3.463600
22.272600 3.423500
22.303100 3.457400
22.333600 3.523000
22.364000 3.724800
22.394500 3.790900
22.425000 3.622600
22.455400 4.025000
22.485900 3.870800
22.516400 4.258200
22.546800 4.155900
22.577300 4.245900
22.607800 3.577000
22.638200 3.504000
22.668700 3.320000
22.699200 3.092900
22.729700 2.825400
22.760100 2.861900
22.790600 3.008900
22.821100 2.629900
22.851500 2.530000
22.882000 2.457000
22.912500 2.465200
22.942900 2.459700
22.973400 2.457300
23.003900 2.456700
23.034400 2.420300
23.064800 2.388300
23.095300 2.399600
23.125800 2.439200
23.156200 2.542700
23.186700 2.705200
23.217200 2.769300
23.247600 2.458900
23.278100 2.231900
23.308600 2.297200
23.339100 2.365400
23.369500 2.819200
23.400000 2.876400
23.430500 2.596800
23.460900 2.377800
23.491400 2.324800
23.521900 2.351500
23.552300 2.458900
23.582800 2.768100
23.613300 3.295600
23.643700 3.996700
23.674200 4.740900
23.704700 5.363500
23.735200 5.019100
23.765600 4.738600
23.796100 4.506000
23.826600 4.250900
23.857000 4.166100
23.887500 3.890800
23.918000 3.087900
23.948400 2.700800
23.978900 2.515300
24.009400 2.702900
24.039900 3.230000
24.070300 3.395700
24.100800 3.743100
24.131300 4.017900
24.161700 4.098400
24.192200 4.795800
24.222700 5.182200
24.253100 4.096000
24.283600 3.862100
24.314100 3.786100
24.344600 3.869500
24.375000 4.064300
24.405500 4.333200
24.436000 4.463400
24.466400 4.597500
24.496900 4.820900
24.527400 5.083600
24.557800 5.385900
24.588300 5.482000
24.618800 5.066700
24.649300 4.579200
24.679700 4.274600
24.710200 3.776500
24.740700 3.430200
24.771100 3.208000
24.801600 2.834800
24.832100 2.602500
24.862500 2.397500
24.893000 2.220300
24.923500 2.096500
24.953900 2.022900
24.984400 1.984000
25.014900 1.824200
25.045400 1.713900
25.075800 1.604000
25.106300 1.552700
25.136800 1.436000
25.167200 1.373600
25.197700 1.332400
25.228200 1.289200
25.258600 1.256500
25.289100 1.233800
25.319600 1.208900
25.350100 1.176000
25.380500 1.143300
25.411000 1.112100
25.441500 1.087100
25.471900 1.080500
25.502400 1.006200
25.532900 0.867600
25.563300 0.821700
25.593800 0.793900
25.624300 0.768000
25.654800 0.732000
25.685200 0.575700
25.715700 0.551700
25.746200 0.530600
25.776600 0.505600
25.807100 0.478700
25.837600 0.449900
25.868000 0.418900
25.898500 0.402300
25.929000 0.388300
25.959400 0.376500
25.989900 0.369700
26.020400 0.365300
26.050900 0.361900
26.081300 0.359300
26.111800 0.358000
26.142300 0.359300
26.172700 0.362500
26.203200 0.367600
26.233700 0.399000
26.264100 0.547200
26.294600 0.602600
26.325100 0.614900
26.355600 0.620100
26.386000 0.630200
26.416500 0.638200
26.447000 0.655100
26.477400 0.762300
26.507900 0.827900
26.538400 0.820200
26.568800 0.728500
26.599300 0.584600
26.629800 0.531700
26.660300 0.510100
26.690700 0.588200
26.721200 0.422200
26.751700 0.442600
26.782100 0.467100
26.812600 0.543900
26.843100 0.701800
26.873500 0.859700
26.904000 1.101000
26.934500 0.684900
26.964900 0.619900
26.995400 0.781200
27.025900 0.285600
27.056400 0.207000
27.086800 0.212200
27.117300 0.104000
27.147800 0.028900
27.178200 0.000200
27.208700 0.000000
27.239200 0.000000
27.269600 0.000000
27.300100 0.000000
27.330600 0.000000
27.361100 0.000000
27.391500 0.000000
27.422000 0.000000
27.452500 0.000000
27.482900 0.000000
27.513400 0.000000
27.543900 0.000000
27.574300 0.000000
27.604800 0.000000
27.635300 0.000000
27.665800 0.000000
27.696200 0.000000
27.726700 0.000000
27.757200 0.000000
27.787600 0.000000
27.818100 0.000000
27.848600 0.000000
27.879000 0.000000
27.909500 0.000000
27.940000 0.000000
27.970500 0.000000
28.000900 0.000000
28.031400 0.000000
28.061900 0.000000
28.092300 0.000000
28.122800 0.000000
28.153300 0.000000
28.183700 0.000000
28.214200 0.000000
28.244700 0.000000
28.275100 0.000000
28.305600 0.000000
28.336100 0.000000
28.366600 0.000000
28.397000 0.000000
28.427500 0.000000
28.458000 0.000000
28.488400 0.000000
28.518900 0.000000
28.549400 0.000000
28.579800 0.000000
28.610300 0.000000
28.640800 0.000000
28.671300 0.000000
28.701700 0.000000
28.732200 0.000000
28.762700 0.000000
28.793100 0.000000
28.823600 0.000000
28.854100 0.000000
28.884500 0.000000
28.915000 0.000000
28.945500 0.000000
28.976000 0.000000
29.006400 0.000000
29.036900 0.000000
29.067400 0.000000
29.097800 0.000000
29.128300 0.000000
29.158800 0.000000
29.189200 0.000000
29.219700 0.000000
29.250200 0.000000
29.280600 0.000000
29.311100 0.000000
29.341600 0.000000
29.372100 0.000000
29.402500 0.000000
29.433000 0.000000
29.463500 0.000000
29.493900 0.000000
29.524400 0.000000
29.554900 0.000000
29.585300 0.000000
29.615800 0.000000
29.646300 0.000000
29.676800 0.000000
29.707200 0.000000
29.737700 0.000000
29.768200 0.000000
29.798600 0.000000
29.829100 0.000000
29.859600 0.000000
29.890000 0.000000
29.920500 0.000000
29.951000 0.000000
e
