set title 'mp-504825 - Density of States'
set xlabel 'Energy (eV)'
set ylabel 'DOS (states/eV)'
set grid
set xrange [-10:10]
set yrange [0:128.477]
set xzeroaxis lt -1
set terminal png size 800,600
set output 'mp-504825_dos_gnuplot.png'
plot '-' using 1:2 with lines title 'DOS'
-17.985100 0.000000
-17.968300 0.000000
-17.951500 0.000000
-17.934700 0.000000
-17.917900 0.000000
-17.901000 0.000000
-17.884200 0.000000
-17.867400 0.000000
-17.850600 0.000000
-17.833800 0.000000
-17.817000 0.000000
-17.800200 0.000000
-17.783400 0.000000
-17.766600 0.000000
-17.749700 0.000000
-17.732900 0.000000
-17.716100 0.000000
-17.699300 0.000000
-17.682500 0.000000
-17.665700 0.000000
-17.648900 0.000000
-17.632100 0.000000
-17.615300 0.000000
-17.598400 0.000000
-17.581600 0.000000
-17.564800 0.000000
-17.548000 0.000000
-17.531200 0.000000
-17.514400 0.000000
-17.497600 0.000000
-17.480800 0.000000
-17.464000 0.000000
-17.447100 0.000000
-17.430300 0.000000
-17.413500 0.000000
-17.396700 0.000000
-17.379900 0.000000
-17.363100 0.000000
-17.346300 0.000000
-17.329500 0.000000
-17.312700 0.000000
-17.295800 0.000000
-17.279000 0.000000
-17.262200 0.000000
-17.245400 0.000000
-17.228600 0.000000
-17.211800 0.000000
-17.195000 0.000000
-17.178200 0.000000
-17.161400 0.000000
-17.144500 0.000000
-17.127700 0.000000
-17.110900 0.000000
-17.094100 0.000000
-17.077300 0.000000
-17.060500 0.000000
-17.043700 0.000000
-17.026900 0.000000
-17.010100 0.000000
-16.993200 0.000000
-16.976400 0.000000
-16.959600 0.000000
-16.942800 0.000000
-16.926000 0.000000
-16.909200 0.000000
-16.892400 0.000000
-16.875600 0.000000
-16.858800 0.000000
-16.841900 0.000000
-16.825100 0.000000
-16.808300 0.000000
-16.791500 0.000000
-16.774700 0.000000
-16.757900 0.000000
-16.741100 0.000000
-16.724300 0.000000
-16.707500 0.000000
-16.690600 0.000000
-16.673800 0.000000
-16.657000 0.000000
-16.640200 0.000000
-16.623400 0.000000
-16.606600 0.000000
-16.589800 0.000000
-16.573000 0.000000
-16.556200 0.000000
-16.539300 0.000000
-16.522500 0.000000
-16.505700 0.000000
-16.488900 0.000000
-16.472100 0.000000
-16.455300 0.846500
-16.438500 10.158300
-16.421700 17.476500
-16.404900 25.878300
-16.388000 34.319900
-16.371200 47.463100
-16.354400 53.917300
-16.337600 33.671500
-16.320800 19.510200
-16.304000 28.455000
-16.287200 72.824800
-16.270400 30.140000
-16.253600 0.000000
-16.236700 0.000000
-16.219900 0.000000
-16.203100 0.000000
-16.186300 0.000000
-16.169500 0.000000
-16.152700 0.000000
-16.135900 0.000000
-16.119100 0.000000
-16.102300 0.000000
-16.085400 0.000000
-16.068600 0.000000
-16.051800 0.000000
-16.035000 0.000000
-16.018200 0.000000
-16.001400 0.000000
-15.984600 0.000000
-15.967800 0.000000
-15.951000 0.000000
-15.934100 0.000000
-15.917300 0.000000
-15.900500 0.000000
-15.883700 0.000000
-15.866900 0.000000
-15.850100 0.000000
-15.833300 0.000000
-15.816500 0.000000
-15.799700 0.000000
-15.782800 0.000000
-15.766000 0.000000
-15.749200 0.000000
-15.732400 22.466400
-15.715600 33.660000
-15.698800 129.020400
-15.682000 81.761700
-15.665200 82.877200
-15.648400 62.150000
-15.631500 0.000000
-15.614700 0.000000
-15.597900 0.000000
-15.581100 0.000000
-15.564300 0.000000
-15.547500 0.000000
-15.530700 0.000000
-15.513900 0.000000
-15.497100 0.000000
-15.480200 0.000000
-15.463400 0.000000
-15.446600 0.000000
-15.429800 0.000000
-15.413000 0.000000
-15.396200 0.000000
-15.379400 0.000000
-15.362600 0.000000
-15.345800 0.000000
-15.328900 0.000000
-15.312100 0.000000
-15.295300 0.000000
-15.278500 0.000000
-15.261700 0.000000
-15.244900 0.000000
-15.228100 0.000000
-15.211300 0.000000
-15.194500 0.000000
-15.177600 0.000000
-15.160800 0.000000
-15.144000 0.000000
-15.127200 0.000000
-15.110400 0.000000
-15.093600 0.000000
-15.076800 0.000000
-15.060000 0.000000
-15.043200 0.000000
-15.026300 0.000000
-15.009500 0.000000
-14.992700 0.000000
-14.975900 0.000000
-14.959100 0.000000
-14.942300 0.000000
-14.925500 0.000000
-14.908700 0.000000
-14.891900 0.000000
-14.875000 0.000000
-14.858200 0.000000
-14.841400 0.000000
-14.824600 0.000000
-14.807800 0.000000
-14.791000 0.000000
-14.774200 0.000000
-14.757400 0.000000
-14.740600 0.000000
-14.723700 0.000000
-14.706900 0.000000
-14.690100 0.000000
-14.673300 0.000000
-14.656500 0.000000
-14.639700 0.000000
-14.622900 0.000000
-14.606100 0.000000
-14.589300 0.000000
-14.572400 0.000000
-14.555600 0.000000
-14.538800 0.000000
-14.522000 0.000000
-14.505200 0.000000
-14.488400 0.000000
-14.471600 0.000000
-14.454800 0.000000
-14.438000 0.000000
-14.421100 0.000000
-14.404300 0.000000
-14.387500 0.000000
-14.370700 0.000000
-14.353900 0.000000
-14.337100 0.000000
-14.320300 0.000000
-14.303500 0.000000
-14.286700 0.000000
-14.269800 0.000000
-14.253000 0.000000
-14.236200 0.000000
-14.219400 0.000000
-14.202600 0.000000
-14.185800 0.000000
-14.169000 0.000000
-14.152200 0.000000
-14.135400 0.000000
-14.118500 0.000000
-14.101700 0.000000
-14.084900 0.000000
-14.068100 0.000000
-14.051300 0.000000
-14.034500 0.000000
-14.017700 0.000000
-14.000900 0.000000
-13.984100 0.000000
-13.967200 46.449000
-13.950400 37.629600
-13.933600 40.960400
-13.916800 45.548500
-13.900000 62.336700
-13.883200 66.274400
-13.866400 37.915500
-13.849600 47.117200
-13.832800 55.853100
-13.815900 0.000000
-13.799100 0.000000
-13.782300 0.000000
-13.765500 0.000000
-13.748700 0.000000
-13.731900 0.000000
-13.715100 0.000000
-13.698300 0.000000
-13.681500 0.000000
-13.664600 0.000000
-13.647800 0.000000
-13.631000 0.000000
-13.614200 0.000000
-13.597400 0.000000
-13.580600 0.000000
-13.563800 0.000000
-13.547000 0.000000
-13.530200 0.000000
-13.513300 0.000000
-13.496500 0.000000
-13.479700 0.000000
-13.462900 0.000000
-13.446100 0.000000
-13.429300 0.000000
-13.412500 0.000000
-13.395700 0.000000
-13.378900 0.000000
-13.362000 0.000000
-13.345200 0.000000
-13.328400 0.000000
-13.311600 0.000000
-13.294800 0.000000
-13.278000 0.000000
-13.261200 0.000000
-13.244400 0.000000
-13.227600 0.000000
-13.210700 0.000000
-13.193900 0.000000
-13.177100 0.000000
-13.160300 0.000000
-13.143500 0.000000
-13.126700 0.000000
-13.109900 0.000000
-13.093100 0.000000
-13.076300 0.000000
-13.059400 0.000000
-13.042600 0.000000
-13.025800 0.000000
-13.009000 0.000000
-12.992200 0.000000
-12.975400 0.000000
-12.958600 0.000000
-12.941800 0.000000
-12.925000 0.000000
-12.908100 0.000000
-12.891300 0.000000
-12.874500 0.000000
-12.857700 0.000000
-12.840900 0.000000
-12.824100 0.000000
-12.807300 0.000000
-12.790500 0.000000
-12.773700 0.000000
-12.756800 0.000000
-12.740000 0.000000
-12.723200 0.000000
-12.706400 0.000000
-12.689600 0.000000
-12.672800 0.000000
-12.656000 0.000000
-12.639200 0.000000
-12.622400 0.000000
-12.605500 0.000000
-12.588700 0.000000
-12.571900 0.000000
-12.555100 0.000000
-12.538300 0.000000
-12.521500 0.000000
-12.504700 0.000000
-12.487900 0.000000
-12.471100 0.000000
-12.454200 0.000000
-12.437400 0.000000
-12.420600 0.000000
-12.403800 0.000000
-12.387000 0.000000
-12.370200 0.000000
-12.353400 0.000000
-12.336600 0.000000
-12.319800 0.000000
-12.302900 0.000000
-12.286100 0.000000
-12.269300 0.000000
-12.252500 0.000000
-12.235700 0.000000
-12.218900 0.000000
-12.202100 0.000000
-12.185300 0.000000
-12.168500 0.000000
-12.151600 0.000000
-12.134800 0.000000
-12.118000 0.000000
-12.101200 0.000000
-12.084400 0.000000
-12.067600 0.000000
-12.050800 0.000000
-12.034000 0.000000
-12.017200 0.000000
-12.000300 0.000000
-11.983500 0.000000
-11.966700 0.000000
-11.949900 0.000000
-11.933100 0.000000
-11.916300 0.000000
-11.899500 0.000000
-11.882700 0.000000
-11.865900 0.000000
-11.849000 0.000000
-11.832200 0.000000
-11.815400 0.000000
-11.798600 0.000000
-11.781800 0.000000
-11.765000 0.000000
-11.748200 0.000000
-11.731400 0.000000
-11.714600 0.000000
-11.697700 0.000000
-11.680900 0.000000
-11.664100 0.000000
-11.647300 0.000000
-11.630500 0.000000
-11.613700 0.000000
-11.596900 0.000000
-11.580100 0.000000
-11.563300 0.000000
-11.546400 0.000000
-11.529600 0.000000
-11.512800 0.000000
-11.496000 0.000000
-11.479200 0.000000
-11.462400 0.000000
-11.445600 0.000000
-11.428800 0.000000
-11.412000 0.000000
-11.395100 0.000000
-11.378300 0.000000
-11.361500 0.000000
-11.344700 0.000000
-11.327900 0.000000
-11.311100 0.000000
-11.294300 0.000000
-11.277500 0.000000
-11.260700 0.000000
-11.243800 0.000000
-11.227000 40.214400
-11.210200 36.811400
-11.193400 131.253900
-11.176600 45.524400
-11.159800 53.317800
-11.143000 84.001700
-11.126200 73.335100
-11.109400 0.000000
-11.092500 0.000000
-11.075700 0.000000
-11.058900 0.000000
-11.042100 0.000000
-11.025300 0.000000
-11.008500 0.000000
-10.991700 0.000000
-10.974900 0.000000
-10.958100 0.000000
-10.941200 0.000000
-10.924400 0.000000
-10.907600 0.000000
-10.890800 0.000000
-10.874000 0.000000
-10.857200 0.000000
-10.840400 0.000000
-10.823600 0.000000
-10.806800 0.000000
-10.789900 0.000000
-10.773100 0.000000
-10.756300 0.000000
-10.739500 0.000000
-10.722700 0.000000
-10.705900 0.000000
-10.689100 0.000000
-10.672300 0.000000
-10.655500 0.000000
-10.638600 0.000000
-10.621800 0.000000
-10.605000 0.000000
-10.588200 0.000000
-10.571400 0.000000
-10.554600 0.000000
-10.537800 0.000000
-10.521000 0.000000
-10.504200 0.000000
-10.487300 0.000000
-10.470500 0.000000
-10.453700 0.000000
-10.436900 0.000000
-10.420100 0.000000
-10.403300 0.000000
-10.386500 0.000000
-10.369700 0.000000
-10.352900 0.000000
-10.336000 0.000000
-10.319200 0.000000
-10.302400 0.000000
-10.285600 0.000000
-10.268800 0.000000
-10.252000 0.000000
-10.235200 0.000000
-10.218400 0.000000
-10.201600 0.000000
-10.184700 0.000000
-10.167900 0.000000
-10.151100 0.000000
-10.134300 0.000000
-10.117500 0.000000
-10.100700 0.000000
-10.083900 0.000000
-10.067100 0.000000
-10.050300 0.000000
-10.033400 0.000000
-10.016600 0.000000
-9.999800 0.000000
-9.983000 0.000000
-9.966200 0.000000
-9.949400 0.000000
-9.932600 0.000000
-9.915800 0.000000
-9.899000 0.000000
-9.882100 0.000000
-9.865300 0.000000
-9.848500 0.000000
-9.831700 0.000000
-9.814900 0.000000
-9.798100 0.000000
-9.781300 0.000000
-9.764500 0.000000
-9.747700 0.000000
-9.730800 0.000000
-9.714000 0.000000
-9.697200 0.000000
-9.680400 0.000000
-9.663600 0.000000
-9.646800 0.000000
-9.630000 0.000000
-9.613200 0.000000
-9.596400 0.000000
-9.579500 0.000000
-9.562700 0.000000
-9.545900 0.000000
-9.529100 0.000000
-9.512300 0.000000
-9.495500 0.000000
-9.478700 0.000000
-9.461900 0.000000
-9.445100 0.000000
-9.428200 0.000000
-9.411400 0.000000
-9.394600 0.000000
-9.377800 0.000000
-9.361000 0.000000
-9.344200 0.000000
-9.327400 0.000000
-9.310600 0.000000
-9.293800 0.000000
-9.276900 0.000000
-9.260100 0.000000
-9.243300 0.000000
-9.226500 0.000000
-9.209700 0.000000
-9.192900 0.000000
-9.176100 0.000000
-9.159300 0.000000
-9.142500 0.000000
-9.125600 0.000000
-9.108800 0.000000
-9.092000 0.000000
-9.075200 0.000000
-9.058400 0.000000
-9.041600 0.000000
-9.024800 0.000000
-9.008000 0.000000
-8.991200 0.000000
-8.974300 0.000000
-8.957500 0.000000
-8.940700 0.000000
-8.923900 0.000000
-8.907100 0.000000
-8.890300 0.000000
-8.873500 0.000000
-8.856700 0.000000
-8.839900 0.000000
-8.823000 0.000000
-8.806200 0.000000
-8.789400 0.000000
-8.772600 0.000000
-8.755800 0.000000
-8.739000 0.000000
-8.722200 0.000000
-8.705400 0.000000
-8.688600 0.000000
-8.671700 0.000000
-8.654900 0.000000
-8.638100 0.000000
-8.621300 0.000000
-8.604500 0.000000
-8.587700 0.000000
-8.570900 0.000000
-8.554100 0.000000
-8.537300 0.000000
-8.520400 0.000000
-8.503600 0.000000
-8.486800 0.000000
-8.470000 0.000000
-8.453200 0.000000
-8.436400 0.000000
-8.419600 0.000000
-8.402800 0.000000
-8.386000 0.000000
-8.369100 0.000000
-8.352300 0.000000
-8.335500 0.000000
-8.318700 0.000000
-8.301900 0.000000
-8.285100 0.000000
-8.268300 0.000000
-8.251500 0.000000
-8.234700 0.000000
-8.217800 0.000000
-8.201000 0.000000
-8.184200 0.000000
-8.167400 0.000000
-8.150600 0.000000
-8.133800 0.000000
-8.117000 0.000000
-8.100200 0.000000
-8.083400 0.000000
-8.066500 0.000000
-8.049700 0.000000
-8.032900 0.000000
-8.016100 0.000000
-7.999300 0.000000
-7.982500 0.000000
-7.965700 0.000000
-7.948900 0.000000
-7.932100 0.000000
-7.915200 0.000000
-7.898400 0.000000
-7.881600 0.000000
-7.864800 0.000000
-7.848000 0.000000
-7.831200 0.000000
-7.814400 0.000000
-7.797600 0.000000
-7.780800 0.000000
-7.763900 0.000000
-7.747100 0.000000
-7.730300 0.000000
-7.713500 0.000000
-7.696700 0.000000
-7.679900 0.000000
-7.663100 0.000000
-7.646300 0.000000
-7.629500 0.000000
-7.612600 0.000000
-7.595800 0.000000
-7.579000 0.000000
-7.562200 0.000000
-7.545400 0.000000
-7.528600 0.000000
-7.511800 0.000000
-7.495000 0.000000
-7.478200 0.000000
-7.461300 0.000000
-7.444500 0.000000
-7.427700 0.000000
-7.410900 0.000000
-7.394100 0.000000
-7.377300 0.000000
-7.360500 0.000000
-7.343700 0.000000
-7.326900 0.000000
-7.310000 0.000000
-7.293200 0.000000
-7.276400 0.000000
-7.259600 0.000000
-7.242800 0.000000
-7.226000 0.000000
-7.209200 0.000000
-7.192400 0.000000
-7.175600 0.000000
-7.158700 0.000000
-7.141900 0.000000
-7.125100 0.000000
-7.108300 0.000000
-7.091500 0.000000
-7.074700 0.000000
-7.057900 0.000000
-7.041100 0.000000
-7.024300 0.000000
-7.007400 0.000000
-6.990600 0.000000
-6.973800 0.000000
-6.957000 0.000000
-6.940200 0.000000
-6.923400 0.000000
-6.906600 0.000000
-6.889800 0.000000
-6.873000 0.000000
-6.856100 0.000000
-6.839300 0.000000
-6.822500 0.000000
-6.805700 0.000000
-6.788900 0.000000
-6.772100 0.000000
-6.755300 0.000000
-6.738500 0.000000
-6.721700 0.000000
-6.704800 0.000000
-6.688000 0.000000
-6.671200 0.000000
-6.654400 0.000000
-6.637600 0.000000
-6.620800 0.000000
-6.604000 0.000000
-6.587200 0.000000
-6.570400 0.000000
-6.553500 0.000000
-6.536700 0.000000
-6.519900 0.000000
-6.503100 0.000000
-6.486300 0.000000
-6.469500 0.000000
-6.452700 0.000000
-6.435900 0.000000
-6.419100 0.000000
-6.402200 0.000000
-6.385400 0.000000
-6.368600 0.000000
-6.351800 0.000000
-6.335000 0.000000
-6.318200 0.000000
-6.301400 0.000000
-6.284600 0.000000
-6.267800 0.000000
-6.250900 0.000000
-6.234100 0.000000
-6.217300 0.000000
-6.200500 0.000000
-6.183700 0.000000
-6.166900 0.000000
-6.150100 0.000000
-6.133300 0.000000
-6.116500 0.000000
-6.099600 0.000000
-6.082800 0.000000
-6.066000 0.000000
-6.049200 0.000000
-6.032400 0.000000
-6.015600 0.000000
-5.998800 0.000000
-5.982000 0.000000
-5.965200 0.000000
-5.948300 0.000000
-5.931500 0.000000
-5.914700 0.000000
-5.897900 0.000000
-5.881100 0.000000
-5.864300 0.000000
-5.847500 0.000000
-5.830700 0.000000
-5.813900 2.899900
-5.797000 38.500800
-5.780200 41.094900
-5.763400 21.099900
-5.746600 116.797500
-5.729800 30.353100
-5.713000 89.807900
-5.696200 21.470300
-5.679400 76.245000
-5.662600 32.510600
-5.645700 0.000000
-5.628900 0.000000
-5.612100 0.000000
-5.595300 0.000000
-5.578500 0.000000
-5.561700 0.000000
-5.544900 0.000000
-5.528100 0.000000
-5.511300 0.000000
-5.494400 0.000000
-5.477600 0.000000
-5.460800 0.000000
-5.444000 0.000000
-5.427200 0.000000
-5.410400 0.000000
-5.393600 0.000000
-5.376800 0.000000
-5.360000 0.000000
-5.343100 0.000000
-5.326300 0.000000
-5.309500 0.000000
-5.292700 0.000000
-5.275900 0.000000
-5.259100 0.000000
-5.242300 0.000000
-5.225500 0.000000
-5.208700 0.000000
-5.191800 0.000000
-5.175000 0.000000
-5.158200 0.000000
-5.141400 0.000000
-5.124600 0.000000
-5.107800 22.594500
-5.091000 31.518300
-5.074200 19.543400
-5.057400 19.610300
-5.040500 23.136100
-5.023700 33.727900
-5.006900 49.829400
-4.990100 19.612400
-4.973300 20.983100
-4.956500 21.071100
-4.939700 24.125300
-4.922900 37.816900
-4.906100 38.560100
-4.889200 23.740000
-4.872400 17.487800
-4.855600 19.043000
-4.838800 21.594500
-4.822000 12.205600
-4.805200 9.103900
-4.788400 6.043000
-4.771600 3.036800
-4.754800 1.083500
-4.737900 0.000000
-4.721100 0.000000
-4.704300 0.000000
-4.687500 0.000000
-4.670700 5.292400
-4.653900 17.398100
-4.637100 23.177100
-4.620300 29.907500
-4.603500 19.973000
-4.586600 19.250500
-4.569800 18.092000
-4.553000 16.933600
-4.536200 15.775200
-4.519400 15.031000
-4.502600 13.304800
-4.485800 11.502800
-4.469000 16.232800
-4.452200 5.267600
-4.435300 15.883000
-4.418500 11.992000
-4.401700 20.721700
-4.384900 20.307900
-4.368100 11.297100
-4.351300 11.484900
-4.334500 11.672600
-4.317700 11.860400
-4.300900 12.048200
-4.284000 12.236000
-4.267200 12.423700
-4.250400 14.175700
-4.233600 15.864900
-4.216800 13.499000
-4.200000 11.930500
-4.183200 10.362100
-4.166400 8.793600
-4.149600 7.619900
-4.132700 0.000000
-4.115900 0.000000
-4.099100 0.000000
-4.082300 0.000000
-4.065500 0.000000
-4.048700 0.000000
-4.031900 0.000000
-4.015100 0.000000
-3.998300 0.000000
-3.981400 0.000000
-3.964600 0.000000
-3.947800 0.000000
-3.931000 0.000000
-3.914200 0.000000
-3.897400 0.000000
-3.880600 0.000000
-3.863800 0.000000
-3.847000 0.000000
-3.830100 0.000000
-3.813300 0.000000
-3.796500 0.000000
-3.779700 0.000000
-3.762900 0.000000
-3.746100 0.000000
-3.729300 0.000000
-3.712500 0.000000
-3.695700 0.000000
-3.678800 0.000000
-3.662000 0.000000
-3.645200 0.000000
-3.628400 0.000000
-3.611600 0.000000
-3.594800 0.000000
-3.578000 0.000000
-3.561200 6.938600
-3.544400 20.044700
-3.527500 15.584200
-3.510700 13.451700
-3.493900 19.367900
-3.477100 33.032900
-3.460300 34.974100
-3.443500 33.743200
-3.426700 30.716300
-3.409900 25.812900
-3.393100 19.567100
-3.376200 17.156000
-3.359400 22.241100
-3.342600 47.616600
-3.325800 37.460300
-3.309000 43.739400
-3.292200 57.177800
-3.275400 52.362700
-3.258600 75.463000
-3.241800 58.041200
-3.224900 41.015800
-3.208100 42.856900
-3.191300 49.772700
-3.174500 44.282000
-3.157700 48.850300
-3.140900 13.330200
-3.124100 15.436800
-3.107300 17.339300
-3.090500 16.709100
-3.073600 10.531200
-3.056800 0.000000
-3.040000 0.000000
-3.023200 15.398800
-3.006400 26.975500
-2.989600 27.482300
-2.972800 28.067400
-2.956000 35.440100
-2.939200 30.870500
-2.922300 36.166800
-2.905500 38.776600
-2.888700 39.358500
-2.871900 34.889600
-2.855100 35.210000
-2.838300 29.244200
-2.821500 27.080300
-2.804700 17.992600
-2.787900 15.079300
-2.771000 10.275100
-2.754200 4.656800
-2.737400 0.000000
-2.720600 0.000000
-2.703800 0.000000
-2.687000 0.000000
-2.670200 0.000000
-2.653400 0.000000
-2.636600 0.000000
-2.619700 0.000000
-2.602900 0.000000
-2.586100 0.000000
-2.569300 0.000000
-2.552500 0.000000
-2.535700 0.000000
-2.518900 0.000000
-2.502100 0.000000
-2.485300 0.000000
-2.468400 0.000000
-2.451600 23.285600
-2.434800 17.046900
-2.418000 14.953200
-2.401200 12.479800
-2.384400 16.296700
-2.367600 27.565500
-2.350800 21.534900
-2.334000 19.368700
-2.317100 18.172300
-2.300300 23.229100
-2.283500 25.791500
-2.266700 23.156600
-2.249900 21.957000
-2.233100 14.663700
-2.216300 12.049300
-2.199500 9.991800
-2.182700 5.640100
-2.165800 5.612900
-2.149000 14.380800
-2.132200 22.326300
-2.115400 27.658700
-2.098600 29.464900
-2.081800 20.664700
-2.065000 17.873800
-2.048200 16.353400
-2.031400 11.840600
-2.014500 0.000000
-1.997700 0.000000
-1.980900 0.000000
-1.964100 0.000000
-1.947300 0.000000
-1.930500 0.000000
-1.913700 0.000000
-1.896900 0.000000
-1.880100 0.000000
-1.863200 0.000000
-1.846400 0.000000
-1.829600 0.000000
-1.812800 0.000000
-1.796000 0.000000
-1.779200 0.000000
-1.762400 0.000000
-1.745600 0.000000
-1.728800 0.000000
-1.711900 0.000000
-1.695100 0.000000
-1.678300 0.366000
-1.661500 0.886700
-1.644700 1.407300
-1.627900 1.927900
-1.611100 2.448500
-1.594300 2.969100
-1.577500 4.542600
-1.560600 6.479700
-1.543800 9.838700
-1.527000 13.038200
-1.510200 13.088000
-1.493400 13.137800
-1.476600 13.274400
-1.459800 13.841400
-1.443000 14.408400
-1.426200 25.825100
-1.409300 31.467100
-1.392500 32.225400
-1.375700 31.895000
-1.358900 29.416200
-1.342100 29.439700
-1.325300 55.336000
-1.308500 35.630500
-1.291700 34.643900
-1.274900 41.505900
-1.258000 41.792000
-1.241200 45.164800
-1.224400 24.875500
-1.207600 14.463600
-1.190800 13.578800
-1.174000 16.697800
-1.157200 19.816800
-1.140400 20.590200
-1.123600 36.573200
-1.106700 17.124700
-1.089900 50.140600
-1.073100 37.173500
-1.056300 32.619000
-1.039500 25.529900
-1.022700 23.786500
-1.005900 36.252200
-0.989100 7.115400
-0.972300 0.000000
-0.955400 0.000000
-0.938600 0.000000
-0.921800 0.000000
-0.905000 0.000000
-0.888200 0.000000
-0.871400 0.000000
-0.854600 0.000000
-0.837800 0.000000
-0.821000 0.000000
-0.804100 0.000000
-0.787300 0.000000
-0.770500 0.000000
-0.753700 0.000000
-0.736900 0.000000
-0.720100 0.000000
-0.703300 0.000000
-0.686500 0.000000
-0.669700 0.000000
-0.652800 0.000000
-0.636000 0.000000
-0.619200 0.000000
-0.602400 0.000000
-0.585600 0.000000
-0.568800 0.000000
-0.552000 0.000000
-0.535200 0.000000
-0.518400 0.000000
-0.501500 0.000000
-0.484700 0.000000
-0.467900 0.000000
-0.451100 0.000000
-0.434300 0.000000
-0.417500 0.000000
-0.400700 0.000000
-0.383900 0.000000
-0.367100 0.000000
-0.350200 0.000000
-0.333400 0.000000
-0.316600 0.000000
-0.299800 0.000000
-0.283000 0.000000
-0.266200 0.000000
-0.249400 0.000000
-0.232600 0.000000
-0.215800 0.000000
-0.198900 0.000000
-0.182100 0.000000
-0.165300 0.000000
-0.148500 0.000000
-0.131700 0.000000
-0.114900 0.000000
-0.098100 0.000000
-0.081300 0.000000
-0.064500 0.000000
-0.047600 0.000000
-0.030800 0.000000
-0.014000 0.000000
0.002800 0.000000
0.019600 0.000000
0.036400 0.000000
0.053200 0.000000
0.070000 0.000000
0.086800 0.000000
0.103700 0.000000
0.120500 0.000000
0.137300 0.000000
0.154100 0.000000
0.170900 0.000000
0.187700 0.000000
0.204500 0.000000
0.221300 0.000000
0.238100 0.000000
0.255000 0.000000
0.271800 0.000000
0.288600 0.000000
0.305400 0.000000
0.322200 0.000000
0.339000 0.000000
0.355800 0.000000
0.372600 0.000000
0.389400 0.000000
0.406300 0.000000
0.423100 0.000000
0.439900 0.000000
0.456700 0.000000
0.473500 0.000000
0.490300 0.000000
0.507100 0.000000
0.523900 0.000000
0.540700 0.000000
0.557600 0.000000
0.574400 0.000000
0.591200 0.000000
0.608000 0.000000
0.624800 0.000000
0.641600 0.000000
0.658400 0.000000
0.675200 0.000000
0.692000 0.000000
0.708900 0.000000
0.725700 0.000000
0.742500 0.000000
0.759300 0.000000
0.776100 0.000000
0.792900 0.000000
0.809700 0.000000
0.826500 0.000000
0.843300 0.000000
0.860200 0.000000
0.877000 0.000000
0.893800 0.000000
0.910600 0.000000
0.927400 0.000000
0.944200 0.000000
0.961000 0.000000
0.977800 0.000000
0.994600 0.000000
1.011500 0.000000
1.028300 0.000000
1.045100 0.000000
1.061900 0.000000
1.078700 0.000000
1.095500 0.000000
1.112300 0.000000
1.129100 0.000000
1.145900 0.000000
1.162800 0.000000
1.179600 0.000000
1.196400 0.000000
1.213200 0.000000
1.230000 0.000000
1.246800 2.528400
1.263600 3.970600
1.280400 5.412800
1.297200 11.488700
1.314100 31.486800
1.330900 26.975000
1.347700 32.711700
1.364500 27.974300
1.381300 22.764100
1.398100 15.094800
1.414900 14.241700
1.431700 11.747400
1.448500 6.609000
1.465400 6.560300
1.482200 39.220800
1.499000 33.648400
1.515800 53.346800
1.532600 44.558100
1.549400 15.284000
1.566200 13.518600
1.583000 10.508700
1.599800 7.498800
1.616700 4.981700
1.633500 59.437200
1.650300 54.990100
1.667100 45.027700
1.683900 55.229300
1.700700 31.920800
1.717500 31.810500
1.734300 37.748500
1.751100 50.634300
1.768000 35.989800
1.784800 18.365800
1.801600 29.198500
1.818400 8.164900
1.835200 3.233300
1.852000 0.000000
1.868800 0.000000
1.885600 0.000000
1.902400 0.000000
1.919300 0.000000
1.936100 0.000000
1.952900 0.000000
1.969700 0.000000
1.986500 0.000000
2.003300 0.000000
2.020100 0.000000
2.036900 0.000000
2.053700 0.000000
2.070600 0.000000
2.087400 0.000000
2.104200 0.000000
2.121000 0.000000
2.137800 0.000000
2.154600 0.000000
2.171400 0.000000
2.188200 0.000000
2.205000 0.000000
2.221900 0.000000
2.238700 0.000000
2.255500 0.000000
2.272300 0.000000
2.289100 0.000000
2.305900 0.000000
2.322700 0.000000
2.339500 0.000000
2.356300 0.000000
2.373200 0.000000
2.390000 0.000000
2.406800 0.000000
2.423600 0.000000
2.440400 0.000000
2.457200 0.000000
2.474000 0.000000
2.490800 0.000000
2.507600 0.000000
2.524500 0.000000
2.541300 0.000000
2.558100 0.000000
2.574900 0.000000
2.591700 0.000000
2.608500 0.000000
2.625300 0.000000
2.642100 0.000000
2.658900 0.000000
2.675800 0.000000
2.692600 0.000000
2.709400 0.000000
2.726200 8.888600
2.743000 8.935800
2.759800 9.596400
2.776600 11.147800
2.793400 13.515000
2.810200 13.157100
2.827100 14.162400
2.843900 24.654700
2.860700 17.601600
2.877500 16.177100
2.894300 16.949700
2.911100 33.500300
2.927900 36.622900
2.944700 22.101200
2.961500 18.468100
2.978400 19.938000
2.995200 17.799600
3.012000 12.385300
3.028800 12.402900
3.045600 8.926900
3.062400 9.709800
3.079200 17.310400
3.096000 26.850200
3.112800 38.470500
3.129700 0.000000
3.146500 0.000000
3.163300 0.000000
3.180100 0.000000
3.196900 0.000000
3.213700 0.000000
3.230500 0.000000
3.247300 0.000000
3.264100 0.000000
3.281000 0.000000
3.297800 0.000000
3.314600 0.000000
3.331400 0.000000
3.348200 0.000000
3.365000 0.000000
3.381800 0.000000
3.398600 0.000000
3.415400 0.000000
3.432300 0.000000
3.449100 0.000000
3.465900 0.000000
3.482700 0.000000
3.499500 0.000000
3.516300 0.000000
3.533100 0.000000
3.549900 0.000000
3.566700 0.000000
3.583600 0.000000
3.600400 0.000000
3.617200 0.000000
3.634000 0.000000
3.650800 0.000000
3.667600 0.000000
3.684400 0.000000
3.701200 0.000000
3.718000 0.000000
3.734900 0.000000
3.751700 0.000000
3.768500 0.000000
3.785300 0.000000
3.802100 0.000000
3.818900 0.000000
3.835700 0.000000
3.852500 0.000000
3.869300 0.000000
3.886200 0.000000
3.903000 0.000000
3.919800 0.000000
3.936600 0.000000
3.953400 0.000000
3.970200 0.000000
3.987000 0.000000
4.003800 0.000000
4.020600 0.000000
4.037500 0.000000
4.054300 0.000000
4.071100 0.000000
4.087900 0.000000
4.104700 0.000000
4.121500 0.000000
4.138300 0.000000
4.155100 0.000000
4.171900 0.000000
4.188800 0.000000
4.205600 0.000000
4.222400 0.000000
4.239200 0.000000
4.256000 0.000000
4.272800 0.000000
4.289600 0.000000
4.306400 0.000000
4.323200 0.000000
4.340100 0.000000
4.356900 0.000000
4.373700 0.000000
4.390500 0.000000
4.407300 0.000000
4.424100 0.000000
4.440900 0.000000
4.457700 0.000000
4.474500 0.000000
4.491400 0.000000
4.508200 0.000000
4.525000 0.000000
4.541800 0.000000
4.558600 0.000000
4.575400 0.000000
4.592200 0.000000
4.609000 0.000000
4.625800 0.000000
4.642700 0.000000
4.659500 0.000000
4.676300 0.000000
4.693100 0.000000
4.709900 0.000000
4.726700 0.000000
4.743500 0.000000
4.760300 0.000000
4.777100 0.027800
4.794000 0.083100
4.810800 0.138400
4.827600 0.193700
4.844400 0.249000
4.861200 0.304300
4.878000 0.359600
4.894800 0.414900
4.911600 0.470200
4.928400 0.525500
4.945300 0.580800
4.962100 0.636100
4.978900 0.691400
4.995700 0.746700
5.012500 0.802000
5.029300 0.857300
5.046100 0.912600
5.062900 0.967900
5.079700 1.023200
5.096600 1.078500
5.113400 1.133800
5.130200 1.189100
5.147000 1.244400
5.163800 1.286000
5.180600 1.319200
5.197400 1.414300
5.214200 1.509400
5.231000 1.604600
5.247900 1.699700
5.264700 1.794900
5.281500 1.890000
5.298300 1.985100
5.315100 2.781000
5.331900 2.913800
5.348700 3.046600
5.365500 3.077100
5.382300 3.102400
5.399200 3.127700
5.416000 3.153000
5.432800 3.178300
5.449600 3.203500
5.466400 3.228800
5.483200 3.254100
5.500000 3.279400
5.516800 3.293800
5.533600 3.306100
5.550500 3.318400
5.567300 3.330800
5.584100 3.343100
5.600900 4.365400
5.617700 4.282900
5.634500 4.200400
5.651300 4.117800
5.668100 4.035300
5.684900 3.952800
5.701800 3.890600
5.718600 3.872200
5.735400 3.853700
5.752200 3.803300
5.769000 3.666400
5.785800 3.529500
5.802600 3.392600
5.819400 3.255700
5.836200 3.118900
5.853100 2.982000
5.869900 2.997800
5.886700 3.021500
5.903500 3.045200
5.920300 3.068900
5.937100 3.092600
5.953900 4.786800
5.970700 4.996300
5.987500 5.205700
6.004400 8.458500
6.021200 14.580700
6.038000 13.135600
6.054800 11.690500
6.071600 10.243600
6.088400 8.703000
6.105200 7.162400
6.122000 8.663900
6.138800 7.747000
6.155700 7.065200
6.172500 6.383500
6.189300 5.701800
6.206100 5.127600
6.222900 5.386500
6.239700 5.731600
6.256500 6.076700
6.273300 6.421900
6.290100 2.673100
6.307000 17.234900
6.323800 5.249900
6.340600 5.386400
6.357400 5.522900
6.374200 9.569700
6.391000 8.930000
6.407800 8.810600
6.424600 9.108600
6.441400 9.720000
6.458300 11.270900
6.475100 12.821800
6.491900 9.299200
6.508700 11.295000
6.525500 10.600100
6.542300 10.200500
6.559100 10.190900
6.575900 11.066200
6.592700 12.844900
6.609600 15.203600
6.626400 17.289900
6.643200 19.376300
6.660000 20.929400
6.676800 23.797600
6.693600 24.535000
6.710400 25.272400
6.727200 22.843700
6.744000 19.866200
6.760900 18.497600
6.777700 19.216200
6.794500 24.308900
6.811300 22.623400
6.828100 21.879400
6.844900 23.519100
6.861700 21.209100
6.878500 34.535600
6.895300 23.174600
6.912200 22.370900
6.929000 18.925300
6.945800 17.377600
6.962600 14.824400
6.979400 15.458200
6.996200 15.970500
7.013000 26.708400
7.029800 14.603300
7.046600 12.814400
7.063500 11.460300
7.080300 17.376700
7.097100 21.219800
7.113900 22.462400
7.130700 16.108000
7.147500 8.306100
7.164300 7.811700
7.181100 8.180200
7.197900 9.435500
7.214800 10.213300
7.231600 11.914800
7.248400 13.682600
7.265200 7.820100
7.282000 7.731500
7.298800 7.642900
7.315600 7.554200
7.332400 8.409300
7.349200 10.028500
7.366100 35.893700
7.382900 23.732600
7.399700 23.670500
7.416500 24.236400
7.433300 20.471000
7.450100 16.276800
7.466900 15.525900
7.483700 13.470200
7.500500 16.132300
7.517400 23.547300
7.534200 19.552600
7.551000 27.135600
7.567800 34.768300
7.584600 22.831500
7.601400 17.556300
7.618200 16.363600
7.635000 11.519700
7.651800 11.244700
7.668700 11.521300
7.685500 14.559000
7.702300 15.844800
7.719100 18.503700
7.735900 6.339600
7.752700 3.661100
7.769500 5.406900
7.786300 7.152600
7.803100 8.898400
7.820000 10.644100
7.836800 12.389800
7.853600 39.658200
7.870400 23.367700
7.887200 13.143900
7.904000 2.468700
7.920800 2.388100
7.937600 14.556500
7.954400 32.096900
7.971300 41.550700
7.988100 32.712600
8.004900 26.458800
8.021700 27.623800
8.038500 21.405800
8.055300 11.771400
8.072100 10.621200
8.088900 11.028200
8.105700 11.483000
8.122600 11.937800
8.139400 12.392700
8.156200 12.847500
8.173000 14.702800
8.189800 12.642000
8.206600 11.882800
8.223400 20.931900
8.240200 25.870900
8.257000 13.180900
8.273900 21.848100
8.290700 12.041700
8.307500 14.847600
8.324300 17.653500
8.341100 15.577000
8.357900 13.583000
8.374700 14.359200
8.391500 14.804600
8.408300 14.318300
8.425200 16.439300
8.442000 19.727800
8.458800 17.533000
8.475600 16.452200
8.492400 17.079700
8.509200 16.686900
8.526000 17.366600
8.542800 17.980700
8.559600 15.961400
8.576500 17.619500
8.593300 15.915100
8.610100 14.051800
8.626900 14.002900
8.643700 15.084000
8.660500 21.128300
8.677300 24.719400
8.694100 27.610900
8.710900 26.968000
8.727800 27.555800
8.744600 20.893600
8.761400 20.880900
8.778200 20.212600
8.795000 19.544300
8.811800 16.658700
8.828600 13.786100
8.845400 13.722900
8.862200 13.644900
8.879100 13.270500
8.895900 12.479500
8.912700 10.753600
8.929500 11.452300
8.946300 42.466200
8.963100 7.304900
8.979900 3.503100
8.996700 3.928100
9.013500 9.832000
9.030400 13.542000
9.047200 27.197500
9.064000 30.250300
9.080800 20.957900
9.097600 21.970100
9.114400 20.574100
9.131200 16.964600
9.148000 10.757200
9.164800 8.360900
9.181700 7.227600
9.198500 6.618200
9.215300 6.008700
9.232100 5.399200
9.248900 24.039000
9.265700 12.626600
9.282500 12.263400
9.299300 12.885000
9.316100 15.293400
9.333000 17.819300
9.349800 20.345300
9.366600 16.761800
9.383400 25.105000
9.400200 21.635000
9.417000 26.711400
9.433800 34.766200
9.450600 36.405800
9.467400 28.841700
9.484300 27.770500
9.501100 22.104400
9.517900 16.954700
9.534700 20.080500
9.551500 12.489000
9.568300 14.480700
9.585100 17.423100
9.601900 20.952600
9.618700 10.989800
9.635600 13.035500
9.652400 5.975000
9.669200 7.776100
9.686000 33.738800
9.702800 8.341100
9.719600 7.800600
9.736400 7.260100
9.753200 7.007700
9.770000 7.705400
9.786900 8.403100
9.803700 9.100800
9.820500 10.132000
9.837300 16.406200
9.854100 14.871800
9.870900 14.073800
9.887700 20.193100
9.904500 23.679900
9.921300 20.721800
9.938200 19.973100
9.955000 15.670300
9.971800 19.674900
9.988600 10.796500
10.005400 11.668200
10.022200 12.539900
10.039000 13.411600
10.055800 19.367100
10.072600 22.756500
10.089500 21.377000
10.106300 20.800100
10.123100 19.735300
10.139900 18.602800
10.156700 16.570700
10.173500 17.525500
10.190300 12.893600
10.207100 9.648800
10.223900 9.944200
10.240800 13.143700
10.257600 16.665600
10.274400 18.483500
10.291200 19.026500
10.308000 19.410400
10.324800 22.405500
10.341600 18.327100
10.358400 14.187500
10.375200 15.228700
10.392100 16.269900
10.408900 17.840800
10.425700 27.363800
10.442500 63.304500
10.459300 15.632400
10.476100 16.205600
10.492900 15.584000
10.509700 16.492000
10.526500 15.753300
10.543400 14.741400
10.560200 13.729400
10.577000 8.812500
10.593800 13.336300
10.610600 14.087000
10.627400 13.517600
10.644200 12.948200
10.661000 12.393900
10.677800 13.252800
10.694700 18.614300
10.711500 27.006300
10.728300 27.422600
10.745100 17.846500
10.761900 16.025200
10.778700 14.317000
10.795500 13.430700
10.812300 15.413400
10.829100 17.784600
10.846000 20.155700
10.862800 22.379700
10.879600 18.747500
10.896400 17.810200
10.913200 15.398500
10.930000 14.145200
10.946800 11.348200
10.963600 10.895700
10.980400 9.488200
10.997200 12.362900
11.014100 15.237600
11.030900 18.112300
11.047700 14.648900
11.064500 13.165500
11.081300 12.258600
11.098100 9.757000
11.114900 9.199000
11.131700 8.748400
11.148500 9.623600
11.165400 8.360300
11.182200 62.717600
11.199000 14.301400
11.215800 14.719300
11.232600 15.558900
11.249400 16.551200
11.266200 17.543500
11.283000 16.200700
11.299800 12.337800
11.316700 11.592300
11.333500 14.371100
11.350300 20.152500
11.367100 18.255300
11.383900 16.358100
11.400700 15.070700
11.417500 25.952800
11.434300 17.147500
11.451100 20.627100
11.468000 21.865100
11.484800 14.439700
11.501600 14.254100
11.518400 15.459200
11.535200 16.315400
11.552000 16.182000
11.568800 15.469300
11.585600 10.306200
11.602400 6.540200
11.619300 6.725700
11.636100 69.616900
11.652900 24.035800
11.669700 23.288700
11.686500 20.970200
11.703300 21.063500
11.720100 16.392200
11.736900 13.382000
11.753700 13.274800
11.770600 17.090500
11.787400 20.456800
11.804200 23.517200
11.821000 23.442500
11.837800 22.675300
11.854600 16.669400
11.871400 15.695200
11.888200 14.827300
11.905000 14.638100
11.921900 14.448800
11.938700 17.837100
11.955500 19.747700
11.972300 21.110100
11.989100 19.714200
12.005900 18.447800
12.022700 18.251800
12.039500 13.953800
12.056300 27.420800
12.073200 8.223700
12.090000 7.396100
12.106800 6.568400
12.123600 5.740800
12.140400 5.178300
12.157200 4.848900
12.174000 4.733900
12.190800 5.435000
12.207600 7.410000
12.224500 11.144100
12.241300 30.553600
12.258100 24.627600
12.274900 20.054700
12.291700 16.938800
12.308500 9.006000
12.325300 7.985800
12.342100 8.240800
12.358900 13.689500
12.375800 14.635000
12.392600 15.744700
12.409400 18.684300
12.426200 22.183900
12.443000 23.550000
12.459800 27.514300
12.476600 30.195000
12.493400 21.161100
12.510200 19.649700
12.527100 20.779000
12.543900 20.135900
12.560700 17.752800
12.577500 17.799000
12.594300 17.770400
12.611100 20.097200
12.627900 19.631200
12.644700 26.987400
12.661500 20.179500
12.678400 18.924400
12.695200 17.716600
12.712000 16.713400
12.728800 15.238300
12.745600 13.416200
12.762400 21.776300
12.779200 16.921300
12.796000 14.446900
12.812800 12.133500
12.829700 10.183200
12.846500 8.233000
12.863300 8.841500
12.880100 11.226600
12.896900 11.035200
12.913700 13.125500
12.930500 15.142700
12.947300 15.527700
12.964100 16.058100
12.981000 16.746400
12.997800 17.708200
13.014600 24.577500
13.031400 27.877800
13.048200 23.851900
13.065000 19.123500
13.081800 15.975400
13.098600 21.669600
13.115400 17.862700
13.132300 18.449200
13.149100 15.945100
13.165900 12.284100
13.182700 10.596100
13.199500 8.971900
13.216300 14.276600
13.233100 14.030600
13.249900 13.068000
13.266700 12.608100
13.283600 13.840000
13.300400 15.170000
13.317200 15.060900
13.334000 16.007900
13.350800 12.152900
13.367600 15.490300
13.384400 15.999200
13.401200 16.508100
13.418000 17.237600
13.434900 18.889400
13.451700 17.275000
13.468500 20.683300
13.485300 19.813800
13.502100 20.300500
13.518900 18.166600
13.535700 16.197100
13.552500 14.098200
13.569300 13.850600
13.586200 14.345700
13.603000 14.214600
13.619800 15.143500
13.636600 15.853000
13.653400 21.267500
13.670200 19.433600
13.687000 17.599700
13.703800 12.327900
13.720600 12.022200
13.737500 10.897000
13.754300 4.981700
13.771100 4.700500
13.787900 4.419300
13.804700 4.161200
13.821500 4.086500
13.838300 4.011700
13.855100 3.936900
13.871900 3.862200
13.888800 3.787400
13.905600 2.035300
13.922400 1.839600
13.939200 1.644000
13.956000 1.448300
13.972800 1.252600
13.989600 1.057000
14.006400 0.861300
14.023200 0.665600
14.040100 0.515500
14.056900 0.389500
14.073700 0.263500
14.090500 0.137500
14.107300 0.011500
14.124100 0.000000
14.140900 0.000000
14.157700 0.000000
14.174500 0.000000
14.191400 0.000000
14.208200 0.000000
14.225000 0.000000
14.241800 0.000000
14.258600 0.000000
14.275400 0.000000
14.292200 0.000000
14.309000 0.000000
14.325800 0.000000
14.342700 0.000000
14.359500 0.000000
14.376300 0.000000
14.393100 0.000000
14.409900 0.000000
14.426700 0.000000
14.443500 0.000000
14.460300 0.000000
14.477100 0.000000
14.494000 0.000000
14.510800 0.000000
14.527600 0.000000
14.544400 0.000000
14.561200 0.000000
14.578000 0.000000
14.594800 0.000000
14.611600 0.000000
14.628400 0.000000
14.645300 0.000000
14.662100 0.000000
14.678900 0.000000
14.695700 0.000000
14.712500 0.000000
14.729300 0.000000
14.746100 0.000000
14.762900 0.000000
14.779700 0.000000
14.796600 0.000000
14.813400 0.000000
14.830200 0.000000
14.847000 0.000000
14.863800 0.000000
14.880600 0.000000
14.897400 0.000000
14.914200 0.000000
14.931000 0.000000
14.947900 0.000000
14.964700 0.000000
14.981500 0.000000
14.998300 0.000000
15.015100 0.000000
15.031900 0.000000
15.048700 0.000000
15.065500 0.000000
15.082300 0.000000
15.099200 0.000000
15.116000 0.000000
15.132800 0.000000
15.149600 0.000000
15.166400 0.000000
15.183200 0.000000
15.200000 0.000000
15.216800 0.000000
15.233600 0.000000
15.250500 0.000000
15.267300 0.000000
15.284100 0.000000
15.300900 0.000000
15.317700 0.000000
15.334500 0.000000
15.351300 0.000000
15.368100 0.000000
15.384900 0.000000
15.401800 0.000000
15.418600 0.000000
15.435400 0.000000
15.452200 0.000000
15.469000 0.000000
15.485800 0.000000
15.502600 0.000000
15.519400 0.000000
15.536200 0.000000
15.553100 0.000000
15.569900 0.000000
15.586700 0.000000
15.603500 0.000000
15.620300 0.000000
15.637100 0.000000
e
