set title 'mp-617 - Density of States'
set xlabel 'Energy (eV)'
set ylabel 'DOS (states/eV)'
set grid
set xrange [-10:10]
set yrange [0:12.443]
set xzeroaxis lt -1
set terminal png size 800,600
set output 'mp-617_dos_gnuplot.png'
plot '-' using 1:2 with lines title 'DOS'
-19.666900 0.000000
-19.643500 0.000000
-19.620100 0.000000
-19.596800 0.000000
-19.573400 0.000000
-19.550100 0.000000
-19.526700 0.000000
-19.503400 0.000000
-19.480000 0.000000
-19.456600 0.000000
-19.433300 0.000000
-19.409900 0.000000
-19.386600 0.000000
-19.363200 0.000000
-19.339900 0.000000
-19.316500 0.000000
-19.293200 0.000000
-19.269800 0.000000
-19.246400 0.000000
-19.223100 0.000000
-19.199700 0.000000
-19.176400 0.000000
-19.153000 0.000000
-19.129700 0.000000
-19.106300 0.000000
-19.083000 0.000000
-19.059600 0.000000
-19.036200 0.000000
-19.012900 0.000000
-18.989500 0.000000
-18.966200 0.000000
-18.942800 0.000000
-18.919500 0.000000
-18.896100 0.000000
-18.872800 0.000000
-18.849400 0.000000
-18.826000 0.000000
-18.802700 0.000000
-18.779300 0.000000
-18.756000 0.000000
-18.732600 0.000000
-18.709300 0.000000
-18.685900 0.000000
-18.662600 0.000000
-18.639200 0.000000
-18.615800 0.000000
-18.592500 0.000000
-18.569100 0.000000
-18.545800 0.000000
-18.522400 0.000000
-18.499100 0.000000
-18.475700 0.000000
-18.452400 0.000000
-18.429000 0.000000
-18.405600 0.000000
-18.382300 0.000000
-18.358900 0.000000
-18.335600 0.000000
-18.312200 0.000000
-18.288900 0.000000
-18.265500 0.000000
-18.242200 0.000000
-18.218800 0.000000
-18.195400 0.000000
-18.172100 0.000000
-18.148700 0.000000
-18.125400 0.000000
-18.102000 0.000000
-18.078700 0.000000
-18.055300 0.000000
-18.032000 0.000000
-18.008600 0.000000
-17.985200 0.000000
-17.961900 0.000000
-17.938500 0.000000
-17.915200 0.000000
-17.891800 0.000000
-17.868500 0.000000
-17.845100 0.000000
-17.821800 0.000000
-17.798400 0.000000
-17.775000 0.000000
-17.751700 0.000000
-17.728300 0.000000
-17.705000 0.000000
-17.681600 0.000000
-17.658300 0.000000
-17.634900 0.000000
-17.611600 0.000000
-17.588200 0.000000
-17.564800 0.000000
-17.541500 0.003400
-17.518100 0.252100
-17.494800 0.358800
-17.471400 0.553500
-17.448100 0.695400
-17.424700 0.663100
-17.401400 0.683000
-17.378000 0.680000
-17.354600 0.699100
-17.331300 0.707800
-17.307900 0.716000
-17.284600 0.712600
-17.261200 0.724000
-17.237900 0.739400
-17.214500 0.756000
-17.191100 0.764800
-17.167800 0.773900
-17.144400 0.779200
-17.121100 0.792200
-17.097700 0.807300
-17.074400 0.823300
-17.051000 0.838800
-17.027700 0.853600
-17.004300 0.867700
-16.980900 0.883800
-16.957600 0.901400
-16.934200 0.919900
-16.910900 0.938800
-16.887500 0.959800
-16.864200 0.985200
-16.840800 1.013100
-16.817500 1.042900
-16.794100 1.072300
-16.770700 1.102200
-16.747400 1.132700
-16.724000 1.163800
-16.700700 1.212500
-16.677300 1.271000
-16.654000 1.340900
-16.630600 1.410900
-16.607300 1.485100
-16.583900 1.565700
-16.560500 1.652100
-16.537200 1.812100
-16.513800 2.067600
-16.490500 2.462400
-16.467100 2.973100
-16.443800 4.550600
-16.420400 6.304200
-16.397100 4.190600
-16.373700 3.409900
-16.350300 3.092400
-16.327000 2.698300
-16.303600 2.611200
-16.280300 2.442400
-16.256900 2.307000
-16.233600 2.148000
-16.210200 2.372600
-16.186900 1.545900
-16.163500 0.060900
-16.140100 4.945000
-16.116800 4.835900
-16.093400 5.372900
-16.070100 6.005300
-16.046700 7.547400
-16.023400 10.236700
-16.000000 10.815100
-15.976700 5.337400
-15.953300 2.652700
-15.929900 2.333000
-15.906600 2.131700
-15.883200 1.959900
-15.859900 1.818200
-15.836500 1.700500
-15.813200 1.610300
-15.789800 1.528100
-15.766500 1.451800
-15.743100 1.381200
-15.719700 1.328700
-15.696400 1.273800
-15.673000 1.222200
-15.649700 1.186800
-15.626300 1.138500
-15.603000 1.091800
-15.579600 1.073400
-15.556300 1.068800
-15.532900 0.782400
-15.509500 0.600500
-15.486200 0.452200
-15.462800 0.294800
-15.439500 0.057300
-15.416100 0.000000
-15.392800 0.000000
-15.369400 0.000000
-15.346100 0.000000
-15.322700 0.000000
-15.299300 0.000000
-15.276000 0.000000
-15.252600 0.000000
-15.229300 0.000000
-15.205900 0.000000
-15.182600 0.000000
-15.159200 0.000000
-15.135900 0.000000
-15.112500 0.000000
-15.089100 0.000000
-15.065800 0.000000
-15.042400 0.000000
-15.019100 0.000000
-14.995700 0.000000
-14.972400 0.000000
-14.949000 0.000000
-14.925700 0.000000
-14.902300 0.000000
-14.878900 0.000000
-14.855600 0.000000
-14.832200 0.000000
-14.808900 0.000000
-14.785500 0.000000
-14.762200 0.000000
-14.738800 0.000000
-14.715400 0.000000
-14.692100 0.000000
-14.668700 0.000000
-14.645400 0.000000
-14.622000 0.000000
-14.598700 0.000000
-14.575300 0.000000
-14.552000 0.000000
-14.528600 0.000000
-14.505200 0.000000
-14.481900 0.000000
-14.458500 0.000000
-14.435200 0.000000
-14.411800 0.000000
-14.388500 0.000000
-14.365100 0.000000
-14.341800 0.000000
-14.318400 0.000000
-14.295000 0.000000
-14.271700 0.000000
-14.248300 0.000000
-14.225000 0.000000
-14.201600 0.000000
-14.178300 0.000000
-14.154900 0.000000
-14.131600 0.000000
-14.108200 0.000000
-14.084800 0.000000
-14.061500 0.000000
-14.038100 0.000000
-14.014800 0.000000
-13.991400 0.000000
-13.968100 0.000000
-13.944700 0.000000
-13.921400 0.000000
-13.898000 0.000000
-13.874600 0.000000
-13.851300 0.000000
-13.827900 0.000000
-13.804600 0.000000
-13.781200 0.000000
-13.757900 0.000000
-13.734500 0.000000
-13.711200 0.000000
-13.687800 0.000000
-13.664400 0.000000
-13.641100 0.000000
-13.617700 0.000000
-13.594400 0.000000
-13.571000 0.000000
-13.547700 0.000000
-13.524300 0.000000
-13.501000 0.000000
-13.477600 0.000000
-13.454200 0.000000
-13.430900 0.000000
-13.407500 0.000000
-13.384200 0.000000
-13.360800 0.000000
-13.337500 0.000000
-13.314100 0.000000
-13.290800 0.000000
-13.267400 0.000000
-13.244000 0.000000
-13.220700 0.000000
-13.197300 0.000000
-13.174000 0.000000
-13.150600 0.000000
-13.127300 0.000000
-13.103900 0.000000
-13.080600 0.000000
-13.057200 0.000000
-13.033800 0.000000
-13.010500 0.000000
-12.987100 0.000000
-12.963800 0.000000
-12.940400 0.000000
-12.917100 0.000000
-12.893700 0.000000
-12.870400 0.000000
-12.847000 0.000000
-12.823600 0.000000
-12.800300 0.000000
-12.776900 0.000000
-12.753600 0.000000
-12.730200 0.000000
-12.706900 0.000000
-12.683500 0.000000
-12.660200 0.000000
-12.636800 0.000000
-12.613400 0.000000
-12.590100 0.000000
-12.566700 0.000000
-12.543400 0.000000
-12.520000 0.000000
-12.496700 0.000000
-12.473300 0.000000
-12.449900 0.000000
-12.426600 0.000000
-12.403200 0.000000
-12.379900 0.000000
-12.356500 0.000000
-12.333200 0.000000
-12.309800 0.000000
-12.286500 0.000000
-12.263100 0.000000
-12.239700 0.000000
-12.216400 0.000000
-12.193000 0.000000
-12.169700 0.000000
-12.146300 0.000000
-12.123000 0.000000
-12.099600 0.000000
-12.076300 0.000000
-12.052900 0.000000
-12.029500 0.000000
-12.006200 0.000000
-11.982800 0.000000
-11.959500 0.000000
-11.936100 0.000000
-11.912800 0.000000
-11.889400 0.000000
-11.866100 0.000000
-11.842700 0.000000
-11.819300 0.000000
-11.796000 0.000000
-11.772600 0.000000
-11.749300 0.000000
-11.725900 0.000000
-11.702600 0.000000
-11.679200 0.000000
-11.655900 0.000000
-11.632500 0.000000
-11.609100 0.000000
-11.585800 0.000000
-11.562400 0.000000
-11.539100 0.000000
-11.515700 0.000000
-11.492400 0.000000
-11.469000 0.000000
-11.445700 0.000000
-11.422300 0.000000
-11.398900 0.000000
-11.375600 0.000000
-11.352200 0.000000
-11.328900 0.000000
-11.305500 0.000000
-11.282200 0.000000
-11.258800 0.000000
-11.235500 0.000000
-11.212100 0.000000
-11.188700 0.000000
-11.165400 0.000000
-11.142000 0.000000
-11.118700 0.000000
-11.095300 0.000000
-11.072000 0.000000
-11.048600 0.000000
-11.025300 0.000000
-11.001900 0.000000
-10.978500 0.000000
-10.955200 0.000000
-10.931800 0.000000
-10.908500 0.000000
-10.885100 0.000000
-10.861800 0.000000
-10.838400 0.000000
-10.815100 0.000000
-10.791700 0.000000
-10.768300 0.000000
-10.745000 0.000000
-10.721600 0.000000
-10.698300 0.000000
-10.674900 0.000000
-10.651600 0.000000
-10.628200 0.000000
-10.604900 0.000000
-10.581500 0.000000
-10.558100 0.000000
-10.534800 0.000000
-10.511400 0.000000
-10.488100 0.000000
-10.464700 0.000000
-10.441400 0.000000
-10.418000 0.000000
-10.394700 0.000000
-10.371300 0.000000
-10.347900 0.000000
-10.324600 0.000000
-10.301200 0.000000
-10.277900 0.000000
-10.254500 0.000000
-10.231200 0.000000
-10.207800 0.000000
-10.184500 0.000000
-10.161100 0.000000
-10.137700 0.000000
-10.114400 0.000000
-10.091000 0.000000
-10.067700 0.000000
-10.044300 0.000000
-10.021000 0.000000
-9.997600 0.000000
-9.974200 0.000000
-9.950900 0.000000
-9.927500 0.000000
-9.904200 0.000000
-9.880800 0.000000
-9.857500 0.000000
-9.834100 0.000000
-9.810800 0.000000
-9.787400 0.000000
-9.764000 0.000000
-9.740700 0.000000
-9.717300 0.000000
-9.694000 0.000000
-9.670600 0.000000
-9.647300 0.000000
-9.623900 0.000000
-9.600600 0.000000
-9.577200 0.000000
-9.553800 0.000000
-9.530500 0.000000
-9.507100 0.000000
-9.483800 0.000000
-9.460400 0.000000
-9.437100 0.000000
-9.413700 0.000000
-9.390400 0.000000
-9.367000 0.000000
-9.343600 0.000000
-9.320300 0.000000
-9.296900 0.000000
-9.273600 0.000000
-9.250200 0.000000
-9.226900 0.000000
-9.203500 0.000000
-9.180200 0.000000
-9.156800 0.000000
-9.133400 0.000000
-9.110100 0.000000
-9.086700 0.000000
-9.063400 0.000000
-9.040000 0.000000
-9.016700 0.000000
-8.993300 0.000000
-8.970000 0.000000
-8.946600 0.000000
-8.923200 0.000000
-8.899900 0.000000
-8.876500 0.000000
-8.853200 0.000000
-8.829800 0.000000
-8.806500 0.000000
-8.783100 0.000000
-8.759800 0.000000
-8.736400 0.000000
-8.713000 0.000000
-8.689700 0.000000
-8.666300 0.000000
-8.643000 0.000000
-8.619600 0.000000
-8.596300 0.000000
-8.572900 0.000000
-8.549600 0.000000
-8.526200 0.000000
-8.502800 0.000000
-8.479500 0.000000
-8.456100 0.000000
-8.432800 0.000000
-8.409400 0.000000
-8.386100 0.000000
-8.362700 0.000000
-8.339400 0.000000
-8.316000 0.000000
-8.292600 0.000000
-8.269300 0.000000
-8.245900 0.000000
-8.222600 0.000000
-8.199200 0.000000
-8.175900 0.000000
-8.152500 0.000000
-8.129200 0.000000
-8.105800 0.000000
-8.082400 0.000000
-8.059100 0.000000
-8.035700 0.000000
-8.012400 0.000000
-7.989000 0.000000
-7.965700 0.000000
-7.942300 0.000000
-7.919000 0.000000
-7.895600 0.000000
-7.872200 0.000000
-7.848900 0.000000
-7.825500 0.000000
-7.802200 0.000000
-7.778800 0.000000
-7.755500 0.000000
-7.732100 0.000000
-7.708800 0.000000
-7.685400 0.000000
-7.662000 0.000000
-7.638700 0.000000
-7.615300 0.000000
-7.592000 0.000000
-7.568600 0.000000
-7.545300 0.000000
-7.521900 0.000000
-7.498500 0.000000
-7.475200 0.000000
-7.451800 0.000000
-7.428500 0.000000
-7.405100 0.000000
-7.381800 0.000000
-7.358400 0.000000
-7.335100 0.000000
-7.311700 0.000000
-7.288300 0.000000
-7.265000 0.000000
-7.241600 0.000000
-7.218300 0.000000
-7.194900 0.000000
-7.171600 0.000000
-7.148200 0.000000
-7.124900 0.000000
-7.101500 0.000000
-7.078100 0.000000
-7.054800 0.000000
-7.031400 0.000000
-7.008100 0.000000
-6.984700 0.000000
-6.961400 0.000000
-6.938000 0.000000
-6.914700 0.000000
-6.891300 0.000000
-6.867900 0.000000
-6.844600 0.000000
-6.821200 0.000000
-6.797900 0.000000
-6.774500 0.000000
-6.751200 0.000000
-6.727800 0.000000
-6.704500 0.000000
-6.681100 0.000000
-6.657700 0.000000
-6.634400 0.000000
-6.611000 0.000000
-6.587700 0.000000
-6.564300 0.000000
-6.541000 0.000000
-6.517600 0.000000
-6.494300 0.000000
-6.470900 0.000000
-6.447500 0.000000
-6.424200 0.000000
-6.400800 0.000000
-6.377500 0.000000
-6.354100 0.000000
-6.330800 0.000000
-6.307400 0.000000
-6.284100 0.000000
-6.260700 0.000000
-6.237300 0.000000
-6.214000 0.000000
-6.190600 0.000000
-6.167300 0.000000
-6.143900 0.000000
-6.120600 0.000000
-6.097200 0.000000
-6.073900 0.000000
-6.050500 0.000000
-6.027100 0.000000
-6.003800 0.000000
-5.980400 0.000000
-5.957100 0.000000
-5.933700 0.000000
-5.910400 0.000000
-5.887000 0.000000
-5.863700 0.000000
-5.840300 0.000000
-5.816900 0.000000
-5.793600 0.000000
-5.770200 0.000000
-5.746900 0.000000
-5.723500 0.000000
-5.700200 0.000000
-5.676800 0.000000
-5.653500 0.000000
-5.630100 0.000000
-5.606700 0.000000
-5.583400 0.000000
-5.560000 0.000000
-5.536700 0.000000
-5.513300 0.000000
-5.490000 0.000000
-5.466600 0.000000
-5.443300 0.000000
-5.419900 0.000000
-5.396500 0.000000
-5.373200 0.091700
-5.349800 0.337400
-5.326500 0.512500
-5.303100 0.637700
-5.279800 0.857500
-5.256400 1.028200
-5.233000 0.991300
-5.209700 1.011000
-5.186300 1.030200
-5.163000 2.321300
-5.139600 2.166200
-5.116300 2.316000
-5.092900 2.388700
-5.069600 2.336100
-5.046200 2.361100
-5.022800 2.442600
-4.999500 2.481000
-4.976100 2.525700
-4.952800 2.521700
-4.929400 2.565400
-4.906100 2.612500
-4.882700 2.660100
-4.859400 2.722900
-4.836000 2.793700
-4.812600 2.862000
-4.789300 2.948500
-4.765900 3.079800
-4.742600 3.289700
-4.719200 3.603400
-4.695900 3.596200
-4.672500 3.543600
-4.649200 3.601000
-4.625800 3.607000
-4.602400 3.586400
-4.579100 3.603100
-4.555700 3.607600
-4.532400 3.430600
-4.509000 3.337800
-4.485700 4.039400
-4.462300 3.626500
-4.439000 3.638000
-4.415600 3.016500
-4.392200 2.557800
-4.368900 2.319800
-4.345500 2.005000
-4.322200 1.777000
-4.298800 1.821700
-4.275500 1.942200
-4.252100 2.080300
-4.228800 2.248000
-4.205400 2.454800
-4.182000 2.808700
-4.158700 3.201300
-4.135300 4.837100
-4.112000 6.640200
-4.088600 8.160000
-4.065300 10.108900
-4.041900 11.312000
-4.018600 2.576700
-3.995200 0.300700
-3.971800 0.324100
-3.948500 0.349100
-3.925100 0.375200
-3.901800 0.405400
-3.878400 0.439200
-3.855100 0.475700
-3.831700 0.521600
-3.808400 0.573400
-3.785000 0.637300
-3.761600 0.717600
-3.738300 1.006300
-3.714900 1.319500
-3.691600 3.177800
-3.668200 3.803300
-3.644900 5.648700
-3.621500 5.587200
-3.598200 4.940800
-3.574800 3.849200
-3.551400 3.397400
-3.528100 2.811900
-3.504700 1.862300
-3.481400 1.942000
-3.458000 1.900400
-3.434700 1.853700
-3.411300 1.758400
-3.388000 1.522900
-3.364600 1.409500
-3.341200 1.296700
-3.317900 1.171700
-3.294500 1.118600
-3.271200 1.087000
-3.247800 1.062900
-3.224500 1.039300
-3.201100 1.016100
-3.177800 0.993600
-3.154400 0.971700
-3.131000 0.950300
-3.107700 0.929300
-3.084300 0.908300
-3.061000 0.883500
-3.037600 0.851300
-3.014300 0.820900
-2.990900 0.798500
-2.967600 0.779300
-2.944200 0.762600
-2.920800 0.748400
-2.897500 0.736000
-2.874100 0.724000
-2.850800 0.712200
-2.827400 0.700800
-2.804100 0.689900
-2.780700 0.679300
-2.757300 0.669300
-2.734000 0.660300
-2.710600 0.747300
-2.687300 0.938200
-2.663900 1.014300
-2.640600 1.151600
-2.617200 1.319100
-2.593900 1.514900
-2.570500 1.639300
-2.547100 2.007000
-2.523800 3.149600
-2.500400 3.624200
-2.477100 3.547700
-2.453700 3.277300
-2.430400 2.985200
-2.407000 2.910300
-2.383700 2.839600
-2.360300 3.105800
-2.336900 3.412800
-2.313600 3.552100
-2.290200 3.284600
-2.266900 3.776500
-2.243500 4.975000
-2.220200 5.320900
-2.196800 5.844700
-2.173500 5.435900
-2.150100 5.128500
-2.126700 4.701200
-2.103400 5.185000
-2.080000 6.044200
-2.056700 7.033800
-2.033300 5.944300
-2.010000 5.873300
-1.986600 6.487600
-1.963300 5.874300
-1.939900 5.485100
-1.916500 5.405800
-1.893200 5.045900
-1.869800 4.556700
-1.846500 3.697700
-1.823100 2.167900
-1.799800 1.932000
-1.776400 1.832200
-1.753100 1.732600
-1.729700 1.621000
-1.706300 1.520000
-1.683000 1.400300
-1.659600 1.312900
-1.636300 1.217100
-1.612900 1.194600
-1.589600 1.163700
-1.566200 1.124900
-1.542900 1.050100
-1.519500 0.931000
-1.496100 0.776400
-1.472800 0.647300
-1.449400 0.552900
-1.426100 0.485000
-1.402700 0.457600
-1.379400 0.446600
-1.356000 0.435500
-1.332700 0.424100
-1.309300 0.412700
-1.285900 0.401300
-1.262600 0.390000
-1.239200 0.378600
-1.215900 0.367200
-1.192500 0.355800
-1.169200 0.344800
-1.145800 0.327500
-1.122500 0.310500
-1.099100 0.297700
-1.075700 0.289500
-1.052400 0.343300
-1.029000 0.377100
-1.005700 0.416800
-0.982300 0.458100
-0.959000 0.510200
-0.935600 0.567200
-0.912300 0.621300
-0.888900 0.703000
-0.865500 0.865200
-0.842200 1.006300
-0.818800 1.084800
-0.795500 1.058800
-0.772100 1.044800
-0.748800 1.106500
-0.725400 1.177600
-0.702100 1.160200
-0.678700 1.090800
-0.655300 1.103500
-0.632000 1.125700
-0.608600 1.153000
-0.585300 1.205100
-0.561900 1.310400
-0.538600 1.481400
-0.515200 2.127100
-0.491800 2.041300
-0.468500 2.112000
-0.445100 2.082200
-0.421800 2.089100
-0.398400 2.136500
-0.375100 2.194600
-0.351700 2.290800
-0.328400 2.411900
-0.305000 2.573000
-0.281600 2.779100
-0.258300 3.477800
-0.234900 3.858000
-0.211600 4.413000
-0.188200 4.611200
-0.164900 4.524100
-0.141500 4.206700
-0.118200 4.073800
-0.094800 4.088600
-0.071400 4.110600
-0.048100 3.968700
-0.024700 3.862000
-0.001400 3.911600
0.022000 3.691200
0.045300 3.842900
0.068700 4.511500
0.092000 5.594100
0.115400 4.238200
0.138800 3.743100
0.162100 3.498900
0.185500 3.324000
0.208800 3.893300
0.232200 4.212800
0.255500 5.406500
0.278900 4.391200
0.302200 3.774700
0.325600 3.524800
0.349000 3.386500
0.372300 3.162300
0.395700 2.947600
0.419000 2.785000
0.442400 2.687100
0.465700 2.651700
0.489100 2.633600
0.512400 2.622300
0.535800 2.618200
0.559200 2.614800
0.582500 2.594600
0.605900 2.557800
0.629200 2.531200
0.652600 2.523800
0.675900 2.518200
0.699300 2.522600
0.722600 2.531500
0.746000 2.525600
0.769400 2.356400
0.792700 2.271200
0.816100 2.509300
0.839400 2.918000
0.862800 3.505300
0.886100 4.032000
0.909500 4.244500
0.932800 4.112200
0.956200 3.830400
0.979600 3.564500
1.002900 3.478000
1.026300 3.419800
1.049600 3.373700
1.073000 3.247800
1.096300 3.127500
1.119700 3.018000
1.143000 2.914300
1.166400 2.812500
1.189800 2.735300
1.213100 2.685700
1.236500 2.628500
1.259800 2.562600
1.283200 2.665600
1.306500 2.205900
1.329900 2.189200
1.353200 2.228000
1.376600 2.175700
1.400000 2.137700
1.423300 2.157500
1.446700 2.311500
1.470000 2.455600
1.493400 3.104700
1.516700 3.640900
1.540100 3.838400
1.563400 3.883000
1.586800 4.141600
1.610200 3.645500
1.633500 2.830100
1.656900 2.364400
1.680200 2.017000
1.703600 1.768500
1.726900 1.382500
1.750300 0.859900
1.773600 0.740900
1.797000 0.741200
1.820400 0.754800
1.843700 0.755200
1.867100 0.756000
1.890400 0.765500
1.913800 0.799400
1.937100 0.835200
1.960500 0.864500
1.983900 0.898500
2.007200 0.966100
2.030600 1.249700
2.053900 1.798900
2.077300 3.165100
2.100600 2.085000
2.124000 1.884800
2.147300 1.953000
2.170700 1.208500
2.194100 0.000000
2.217400 0.000000
2.240800 0.000000
2.264100 0.000000
2.287500 0.000000
2.310800 0.000000
2.334200 0.000000
2.357500 0.000000
2.380900 0.000000
2.404300 0.000000
2.427600 0.000000
2.451000 0.000000
2.474300 0.000000
2.497700 0.000000
2.521000 0.000000
2.544400 0.000000
2.567700 0.000000
2.591100 0.000000
2.614500 0.000000
2.637800 0.000000
2.661200 0.000000
2.684500 0.000000
2.707900 0.000000
2.731200 0.000000
2.754600 0.000000
2.777900 0.000000
2.801300 0.000000
2.824700 0.000000
2.848000 0.000000
2.871400 0.000000
2.894700 0.000000
2.918100 0.000000
2.941400 0.000000
2.964800 0.000000
2.988100 0.000000
3.011500 0.000000
3.034900 0.000000
3.058200 0.000000
3.081600 0.000000
3.104900 0.000000
3.128300 0.000000
3.151600 0.000000
3.175000 0.000000
3.198300 0.000000
3.221700 0.000000
3.245100 0.000000
3.268400 0.000000
3.291800 0.000000
3.315100 0.000000
3.338500 0.000000
3.361800 0.000000
3.385200 0.000000
3.408500 0.000000
3.431900 0.000000
3.455300 0.000000
3.478600 0.000000
3.502000 0.000000
3.525300 0.000000
3.548700 0.000000
3.572000 0.000000
3.595400 0.000000
3.618700 0.000000
3.642100 0.000000
3.665500 0.000000
3.688800 0.051700
3.712200 0.443000
3.735500 0.646000
3.758900 0.839800
3.782200 1.062200
3.805600 1.296100
3.828900 1.548000
3.852300 1.855900
3.875700 2.279700
3.899000 2.846100
3.922400 3.177700
3.945700 3.881800
3.969100 4.648100
3.992400 6.340100
4.015800 6.813300
4.039100 6.862500
4.062500 7.223900
4.085900 5.607300
4.109200 3.577100
4.132600 2.392400
4.155900 1.893000
4.179300 1.538000
4.202600 1.405900
4.226000 1.254800
4.249300 1.131800
4.272700 1.040700
4.296100 0.973600
4.319400 1.038700
4.342800 1.182000
4.366100 1.190200
4.389500 1.307700
4.412800 1.389600
4.436200 1.444800
4.459600 1.546600
4.482900 1.678400
4.506300 1.722900
4.529600 1.766400
4.553000 1.773000
4.576300 1.824800
4.599700 1.900500
4.623000 1.955700
4.646400 1.958300
4.669800 1.981300
4.693100 2.024600
4.716500 2.078800
4.739800 2.133000
4.763200 2.172300
4.786500 2.189400
4.809900 2.225800
4.833200 2.272700
4.856600 2.318500
4.880000 2.422000
4.903300 2.549400
4.926700 2.707300
4.950000 2.839800
4.973400 2.974300
4.996700 3.141300
5.020100 3.816400
5.043400 4.571700
5.066800 4.638200
5.090200 4.416800
5.113500 3.970500
5.136900 3.342400
5.160200 2.485700
5.183600 1.803200
5.206900 1.236100
5.230300 1.111800
5.253600 1.095800
5.277000 1.052200
5.300400 1.008600
5.323700 0.937600
5.347100 0.998300
5.370400 0.962800
5.393800 0.874000
5.417100 0.691300
5.440500 0.401700
5.463800 0.173200
5.487200 0.000000
5.510600 0.000000
5.533900 0.000000
5.557300 0.000000
5.580600 0.000000
5.604000 0.000000
5.627300 0.000000
5.650700 0.000000
5.674000 0.000000
5.697400 0.000000
5.720800 0.000000
5.744100 0.000000
5.767500 0.000000
5.790800 0.000000
5.814200 0.000000
5.837500 0.000000
5.860900 0.000000
5.884200 0.000000
5.907600 0.000000
5.931000 0.000000
5.954300 0.000000
5.977700 0.000000
6.001000 0.000000
6.024400 0.000000
6.047700 0.000000
6.071100 0.000000
6.094400 0.000000
6.117800 0.000000
6.141200 0.000000
6.164500 0.000000
6.187900 0.000000
6.211200 0.000000
6.234600 0.000000
6.257900 0.000000
6.281300 0.000000
6.304600 0.000000
6.328000 0.000000
6.351400 0.001800
6.374700 0.006600
6.398100 0.014600
6.421400 0.024700
6.444800 0.032200
6.468100 0.034400
6.491500 0.035000
6.514800 0.036300
6.538200 0.039900
6.561600 0.043600
6.584900 0.047400
6.608300 0.051300
6.631600 0.054900
6.655000 0.058200
6.678300 0.060800
6.701700 0.062500
6.725100 0.064500
6.748400 0.066300
6.771800 0.068200
6.795100 0.070400
6.818500 0.072800
6.841800 0.075300
6.865200 0.077900
6.888500 0.080400
6.911900 0.083000
6.935300 0.085500
6.958600 0.088100
6.982000 0.090700
7.005300 0.093400
7.028700 0.096300
7.052000 0.099100
7.075400 0.101200
7.098700 0.103200
7.122100 0.105300
7.145500 0.107600
7.168800 0.109900
7.192200 0.112100
7.215500 0.114400
7.238900 0.116900
7.262200 0.119400
7.285600 0.122100
7.308900 0.124800
7.332300 0.127600
7.355700 0.130400
7.379000 0.133200
7.402400 0.136000
7.425700 0.138900
7.449100 0.141800
7.472400 0.144700
7.495800 0.147600
7.519100 0.150500
7.542500 0.153600
7.565900 0.156600
7.589200 0.159500
7.612600 0.162400
7.635900 0.165700
7.659300 0.169500
7.682600 0.173700
7.706000 0.177700
7.729300 0.181600
7.752700 0.185600
7.776100 0.189600
7.799400 0.193700
7.822800 0.197800
7.846100 0.202000
7.869500 0.212300
7.892800 0.223400
7.916200 0.232800
7.939500 0.224800
7.962900 0.227000
7.986300 0.229200
8.009600 0.231200
8.033000 0.233100
8.056300 0.234900
8.079700 0.236600
8.103000 0.237200
8.126400 0.237500
8.149700 0.237900
8.173100 0.238800
8.196500 0.240500
8.219800 0.242100
8.243200 0.243600
8.266500 0.245100
8.289900 0.246600
8.313200 0.248100
8.336600 0.249500
8.359900 0.250900
8.383300 0.252200
8.406700 0.252400
8.430000 0.253800
8.453400 0.255200
8.476700 0.256600
8.500100 0.258000
8.523400 0.259500
8.546800 0.261000
8.570100 0.262700
8.593500 0.264300
8.616900 0.265900
8.640200 0.267500
8.663600 0.269100
8.686900 0.270700
8.710300 0.272300
8.733600 0.273900
8.757000 0.275500
8.780300 0.276900
8.803700 0.278400
8.827100 0.280000
8.850400 0.281800
8.873800 0.283600
8.897100 0.285400
8.920500 0.287200
8.943800 0.289000
8.967200 0.290800
8.990500 0.292600
9.013900 0.294500
9.037300 0.296400
9.060600 0.298300
9.084000 0.300200
9.107300 0.302100
9.130700 0.304100
9.154000 0.306000
9.177400 0.308000
9.200800 0.309900
9.224100 0.311800
9.247500 0.313800
9.270800 0.315800
9.294200 0.317800
9.317500 0.319800
9.340900 0.321900
9.364200 0.324400
9.387600 0.326700
9.411000 0.329100
9.434300 0.331600
9.457700 0.334100
9.481000 0.336500
9.504400 0.338900
9.527700 0.343300
9.551100 0.354000
9.574400 0.366200
9.597800 0.379800
9.621200 0.378300
9.644500 0.384800
9.667900 0.391600
9.691200 0.398600
9.714600 0.405800
9.737900 0.413200
9.761300 0.420700
9.784600 0.427200
9.808000 0.433300
9.831400 0.438900
9.854700 0.445000
9.878100 0.451500
9.901400 0.458200
9.924800 0.464800
9.948100 0.471600
9.971500 0.479100
9.994800 0.486800
10.018200 0.494500
10.041600 0.502300
10.064900 0.510300
10.088300 0.518500
10.111600 0.526700
10.135000 0.535200
10.158300 0.543700
10.181700 0.552400
10.205000 0.561700
10.228400 0.570700
10.251800 0.579700
10.275100 0.588600
10.298500 0.597900
10.321800 0.607600
10.345200 0.617100
10.368500 0.626700
10.391900 0.636400
10.415200 0.646400
10.438600 0.656600
10.462000 0.667200
10.485300 0.678200
10.508700 0.689300
10.532000 0.700400
10.555400 0.713200
10.578700 0.727500
10.602100 0.741800
10.625400 0.756100
10.648800 0.770500
10.672200 0.786500
10.695500 0.802900
10.718900 0.819500
10.742200 0.836700
10.765600 0.853600
10.788900 0.870700
10.812300 0.888700
10.835600 0.909800
10.859000 0.933200
10.882400 0.956000
10.905700 0.978200
10.929100 0.994800
10.952400 1.007500
10.975800 1.021000
10.999100 1.039200
11.022500 1.058200
11.045800 1.077600
11.069200 1.100300
11.092600 1.130300
11.115900 1.164700
11.139300 1.200900
11.162600 1.237800
11.186000 1.276400
11.209300 1.318200
11.232700 1.364100
11.256000 1.415600
11.279400 1.483300
11.302800 1.628100
11.326100 1.961400
11.349500 1.828700
11.372800 1.625600
11.396200 1.587500
11.419500 1.553600
11.442900 1.497200
11.466300 1.442600
11.489600 1.559300
11.513000 1.652000
11.536300 1.532800
11.559700 1.524900
11.583000 1.502600
11.606400 1.466900
11.629700 1.426500
11.653100 1.392200
11.676500 1.360300
11.699800 1.376400
11.723200 1.398500
11.746500 1.404000
11.769900 1.441200
11.793200 1.435700
11.816600 1.415000
11.839900 1.504400
11.863300 1.264600
11.886700 1.206200
11.910000 1.152900
11.933400 1.109200
11.956700 1.080800
11.980100 1.056200
12.003400 1.030800
12.026800 1.006500
12.050100 0.978000
12.073500 0.948000
12.096900 0.884900
12.120200 0.879100
12.143600 0.873500
12.166900 0.868700
12.190300 0.863900
12.213600 0.861000
12.237000 0.858400
12.260300 0.858000
12.283700 0.857600
12.307100 0.855800
12.330400 0.853100
12.353800 0.847200
12.377100 0.840700
12.400500 0.832500
12.423800 0.798200
12.447200 0.789600
12.470500 0.780700
12.493900 0.772000
12.517300 0.763500
12.540600 0.755000
12.564000 0.746200
12.587300 0.736500
12.610700 0.726100
12.634000 0.714400
12.657400 0.703300
12.680700 0.695600
12.704100 0.688800
12.727500 0.682700
12.750800 0.677100
12.774200 0.670900
12.797500 0.664700
12.820900 0.658700
12.844200 0.653100
12.867600 0.647800
12.890900 0.641400
12.914300 0.634900
12.937700 0.630100
12.961000 0.625200
12.984400 0.621100
13.007700 0.620200
13.031100 0.620500
13.054400 0.621200
13.077800 0.622400
13.101100 0.623400
13.124500 0.620800
13.147900 0.614600
13.171200 0.616000
13.194600 0.627600
13.217900 0.633700
13.241300 0.636500
13.264600 0.666100
13.288000 0.824900
13.311300 1.015500
13.334700 1.022000
13.358100 1.022500
13.381400 1.133200
13.404800 1.059700
13.428100 1.113400
13.451500 1.107900
13.474800 1.046900
13.498200 1.011700
13.521500 0.993600
13.544900 0.985700
13.568300 0.985300
13.591600 0.983700
13.615000 0.987500
13.638300 0.992800
13.661700 0.998100
13.685000 1.008400
13.708400 1.026200
13.731700 1.050800
13.755100 1.070200
13.778500 1.096200
13.801800 1.129300
13.825200 1.191500
13.848500 1.233300
13.871900 1.318000
13.895200 1.427300
13.918600 1.521300
13.942000 1.595900
13.965300 1.642000
13.988700 1.669700
14.012000 1.711400
14.035400 1.807100
14.058700 1.784500
14.082100 1.705300
14.105400 1.621300
14.128800 1.555100
14.152200 1.503200
14.175500 1.461700
14.198900 1.430000
14.222200 1.407000
14.245600 1.386200
14.268900 1.371200
14.292300 1.363700
14.315600 1.440500
14.339000 1.382900
14.362400 1.455400
14.385700 1.957100
14.409100 1.517300
14.432400 1.415400
14.455800 1.354900
14.479100 1.292200
14.502500 1.238600
14.525800 1.191800
14.549200 1.137200
14.572600 1.090900
14.595900 1.072900
14.619300 1.022800
14.642600 0.999000
14.666000 0.977800
14.689300 0.943800
14.712700 0.903800
14.736000 0.849500
14.759400 0.796800
14.782800 0.746400
14.806100 0.702400
14.829500 0.648900
14.852800 0.618300
14.876200 0.590400
14.899500 0.565200
14.922900 0.541300
14.946200 0.517200
14.969600 0.497000
14.993000 0.496000
15.016300 0.497900
15.039700 0.761200
15.063000 0.885100
15.086400 0.932400
15.109700 1.032700
15.133100 1.135700
15.156400 1.233300
15.179800 1.281800
15.203200 1.249300
15.226500 1.293200
15.249900 1.327900
15.273200 1.373500
15.296600 1.354400
15.319900 1.351300
15.343300 1.362300
15.366600 1.376700
15.390000 1.394700
15.413400 1.415500
15.436700 1.467900
15.460100 1.519100
15.483400 1.569300
15.506800 1.604300
15.530100 1.639000
15.553500 1.665800
15.576800 1.681700
15.600200 1.666900
15.623600 1.574600
15.646900 1.479700
15.670300 1.426800
15.693600 1.368000
15.717000 1.298400
15.740300 1.230700
15.763700 1.169500
15.787000 1.107800
15.810400 1.056400
15.833800 1.009300
15.857100 0.971200
15.880500 0.932700
15.903800 0.910700
15.927200 0.891000
15.950500 0.872900
15.973900 0.877600
15.997200 0.876100
16.020600 0.879700
16.044000 0.882700
16.067300 0.885300
16.090700 0.891700
16.114000 0.896800
16.137400 0.894600
16.160700 0.913800
16.184100 0.913100
16.207400 0.918200
16.230800 0.931500
16.254200 0.947800
16.277500 0.961800
16.300900 0.972300
16.324200 0.984400
16.347600 0.994100
16.370900 1.001700
16.394300 1.010600
16.417700 1.018400
16.441000 1.026600
16.464400 1.038500
16.487700 1.046900
16.511100 1.052400
16.534400 1.063700
16.557800 1.078400
16.581100 1.088800
16.604500 1.099100
16.627900 1.118300
16.651200 1.078000
16.674600 1.020500
16.697900 0.982300
16.721300 0.951800
16.744600 0.933200
16.768000 0.933600
16.791300 0.937700
16.814700 0.943800
16.838100 0.948500
16.861400 0.948600
16.884800 0.947900
16.908100 0.952200
16.931500 0.951500
16.954800 0.947600
16.978200 0.942900
17.001500 0.934800
17.024900 0.923600
17.048300 0.911100
17.071600 0.903000
17.095000 0.903200
17.118300 0.918100
17.141700 0.931800
17.165000 0.937400
17.188400 0.939500
17.211700 0.945800
17.235100 0.942200
17.258500 0.951200
17.281800 0.970600
17.305200 1.019600
17.328500 1.077800
17.351900 1.180000
17.375200 1.271500
17.398600 1.347400
17.421900 1.411200
17.445300 1.428300
17.468700 1.428000
17.492000 1.449400
17.515400 1.481200
17.538700 1.456200
17.562100 1.449000
17.585400 1.434700
17.608800 1.415800
17.632100 1.411600
17.655500 1.390800
17.678900 1.407000
17.702200 1.450300
17.725600 1.466900
17.748900 1.470200
17.772300 1.490400
17.795600 1.522600
17.819000 1.609500
17.842300 1.768800
17.865700 1.839400
17.889100 1.814400
17.912400 1.767600
17.935800 1.717100
17.959100 1.655500
17.982500 1.576300
18.005800 1.488100
18.029200 1.477000
18.052500 1.434000
18.075900 1.403700
18.099300 1.422100
18.122600 1.407800
18.146000 1.392500
18.169300 1.380300
18.192700 1.355600
18.216000 1.330600
18.239400 1.306400
18.262700 1.284400
18.286100 1.262000
18.309500 1.239700
18.332800 1.220600
18.356200 1.208500
18.379500 1.197300
18.402900 1.187200
18.426200 1.186400
18.449600 1.184200
18.472900 1.179700
18.496300 1.174800
18.519700 1.169700
18.543000 1.164900
18.566400 1.160600
18.589700 1.156600
18.613100 1.146400
18.636400 1.137100
18.659800 1.128400
18.683200 1.120700
18.706500 1.121500
18.729900 1.157600
18.753200 1.222500
18.776600 1.250500
18.799900 1.279600
18.823300 1.307400
18.846600 1.333400
18.870000 1.368700
18.893400 1.409000
18.916700 1.473400
18.940100 1.535100
18.963400 1.543600
18.986800 1.576000
19.010100 1.664800
19.033500 1.675200
19.056800 1.668300
19.080200 1.659800
19.103600 1.648100
19.126900 1.635400
19.150300 1.632400
19.173600 1.634000
19.197000 1.650700
19.220300 1.710000
19.243700 1.801900
19.267000 1.431700
19.290400 1.329400
19.313800 1.214400
19.337100 1.111200
19.360500 1.044800
19.383800 1.008000
19.407200 0.992600
19.430500 0.979200
19.453900 0.967700
19.477200 0.959100
19.500600 0.953900
19.524000 0.951100
19.547300 0.959200
19.570700 0.988300
19.594000 1.078300
19.617400 1.216100
19.640700 1.368600
19.664100 1.531200
19.687400 1.636100
19.710800 1.727600
19.734200 1.925100
19.757500 2.099500
19.780900 2.194800
19.804200 2.240300
19.827600 2.175800
19.850900 2.130800
19.874300 2.088400
19.897600 2.145900
19.921000 1.976100
19.944400 1.886400
19.967700 1.830200
19.991100 1.778900
20.014400 1.714600
20.037800 1.673400
20.061100 1.635600
20.084500 1.587500
20.107800 1.517100
20.131200 1.424400
20.154600 1.371700
20.177900 1.328900
20.201300 1.281300
20.224600 1.226800
20.248000 1.172800
20.271300 1.113200
20.294700 1.066400
20.318000 1.045100
20.341400 1.032200
20.364800 1.023300
20.388100 1.011000
20.411500 0.992500
20.434800 0.967600
20.458200 0.955000
20.481500 0.952600
20.504900 0.950800
20.528200 0.948700
20.551600 0.942500
20.575000 0.932100
20.598300 0.919100
20.621700 0.902800
20.645000 0.885500
20.668400 0.849200
20.691700 0.838100
20.715100 0.825200
20.738400 0.795200
20.761800 0.775900
20.785200 0.762800
20.808500 0.754100
20.831900 0.748200
20.855200 0.742700
20.878600 0.737600
20.901900 0.731800
20.925300 0.726300
20.948600 0.720900
20.972000 0.715200
20.995400 0.709900
21.018700 0.704800
21.042100 0.699900
21.065400 0.695700
21.088800 0.691400
21.112100 0.695900
21.135500 0.693000
21.158900 0.679100
21.182200 0.656800
21.205600 0.642900
21.228900 0.635700
21.252300 0.624300
21.275600 0.598600
21.299000 0.569200
21.322300 0.546000
21.345700 0.529800
21.369100 0.516500
21.392400 0.504200
21.415800 0.492800
21.439100 0.481200
21.462500 0.469400
21.485800 0.458800
21.509200 0.448700
21.532500 0.438300
21.555900 0.427200
21.579300 0.415500
21.602600 0.403400
21.626000 0.392800
21.649300 0.383700
21.672700 0.375200
21.696000 0.369000
21.719400 0.363800
21.742700 0.357700
21.766100 0.351300
21.789500 0.346300
21.812800 0.342300
21.836200 0.338000
21.859500 0.333700
21.882900 0.329200
21.906200 0.325500
21.929600 0.320900
21.952900 0.316000
21.976300 0.309300
21.999700 0.302700
22.023000 0.296300
22.046400 0.289500
22.069700 0.282500
22.093100 0.277100
22.116400 0.278800
22.139800 0.277500
22.163100 0.276600
22.186500 0.276300
22.209900 0.276700
22.233200 0.277400
22.256600 0.278100
22.279900 0.276800
22.303300 0.272600
22.326600 0.267200
22.350000 0.260400
22.373300 0.321600
22.396700 0.293900
22.420100 0.268100
22.443400 0.242900
22.466800 0.222100
22.490100 0.210600
22.513500 0.201400
22.536800 0.193900
22.560200 0.186400
22.583500 0.178800
22.606900 0.171100
22.630300 0.165400
22.653600 0.162200
22.677000 0.161500
22.700300 0.163000
22.723700 0.174600
22.747000 0.153700
22.770400 0.102900
22.793700 0.099900
22.817100 0.097000
22.840500 0.094400
22.863800 0.092100
22.887200 0.089900
22.910500 0.087700
22.933900 0.085600
22.957200 0.083600
22.980600 0.081600
23.003900 0.079600
23.027300 0.077700
23.050700 0.075900
23.074000 0.074100
23.097400 0.072400
23.120700 0.070700
23.144100 0.069100
23.167400 0.067500
23.190800 0.066000
23.214100 0.064400
23.237500 0.063000
23.260900 0.061800
23.284200 0.060400
23.307600 0.059000
23.330900 0.057600
23.354300 0.056200
23.377600 0.054800
23.401000 0.053600
23.424400 0.052400
23.447700 0.051300
23.471100 0.050200
23.494400 0.049200
23.517800 0.048200
23.541100 0.047200
23.564500 0.046300
23.587800 0.045300
23.611200 0.044500
23.634600 0.043600
23.657900 0.042800
23.681300 0.042100
23.704600 0.041300
23.728000 0.040600
23.751300 0.039900
23.774700 0.039200
23.798000 0.038600
23.821400 0.037900
23.844800 0.037300
23.868100 0.036700
23.891500 0.036100
23.914800 0.035500
23.938200 0.035000
23.961500 0.034400
23.984900 0.033900
24.008200 0.033400
24.031600 0.032900
24.055000 0.032500
24.078300 0.032000
24.101700 0.031600
24.125000 0.031200
24.148400 0.030900
24.171700 0.030600
24.195100 0.030300
24.218400 0.030100
24.241800 0.030000
24.265200 0.029900
24.288500 0.030000
24.311900 0.030100
24.335200 0.030200
24.358600 0.030200
24.381900 0.030300
24.405300 0.030400
24.428600 0.030500
24.452000 0.030700
24.475400 0.031000
24.498700 0.031300
24.522100 0.031800
24.545400 0.032300
24.568800 0.032900
24.592100 0.033500
24.615500 0.034100
24.638800 0.034800
24.662200 0.035400
24.685600 0.036000
24.708900 0.036600
24.732300 0.037000
24.755600 0.031500
24.779000 0.014900
24.802300 0.006700
24.825700 0.004200
24.849000 0.002400
24.872400 0.001100
24.895800 0.000300
24.919100 0.000000
24.942500 0.000000
24.965800 0.000000
24.989200 0.000000
25.012500 0.000000
25.035900 0.000000
25.059200 0.000000
25.082600 0.000000
25.106000 0.000000
25.129300 0.000000
25.152700 0.000000
25.176000 0.000000
25.199400 0.000000
25.222700 0.000000
25.246100 0.000000
25.269400 0.000000
25.292800 0.000000
25.316200 0.000000
25.339500 0.000000
25.362900 0.000000
25.386200 0.000000
25.409600 0.000000
25.432900 0.000000
25.456300 0.000000
25.479600 0.000000
25.503000 0.000000
25.526400 0.000000
25.549700 0.000000
25.573100 0.000000
25.596400 0.000000
25.619800 0.000000
25.643100 0.000000
25.666500 0.000000
25.689800 0.000000
25.713200 0.000000
25.736600 0.000000
25.759900 0.000000
25.783300 0.000000
25.806600 0.000000
25.830000 0.000000
25.853300 0.000000
25.876700 0.000000
25.900100 0.000000
25.923400 0.000000
25.946800 0.000000
25.970100 0.000000
25.993500 0.000000
26.016800 0.000000
26.040200 0.000000
26.063500 0.000000
26.086900 0.000000
26.110300 0.000000
26.133600 0.000000
26.157000 0.000000
26.180300 0.000000
26.203700 0.000000
26.227000 0.000000
26.250400 0.000000
26.273700 0.000000
26.297100 0.000000
26.320500 0.000000
26.343800 0.000000
26.367200 0.000000
26.390500 0.000000
26.413900 0.000000
26.437200 0.000000
26.460600 0.000000
26.483900 0.000000
26.507300 0.000000
26.530700 0.000000
26.554000 0.000000
26.577400 0.000000
26.600700 0.000000
26.624100 0.000000
26.647400 0.000000
26.670800 0.000000
26.694100 0.000000
26.717500 0.000000
26.740900 0.000000
26.764200 0.000000
26.787600 0.000000
26.810900 0.000000
26.834300 0.000000
26.857600 0.000000
26.881000 0.000000
26.904300 0.000000
26.927700 0.000000
26.951100 0.000000
26.974400 0.000000
26.997800 0.000000
27.021100 0.000000
27.044500 0.000000
e
