set title 'mp-1048410 - Density of States'
set xlabel 'Energy (eV)'
set ylabel 'DOS (states/eV)'
set grid
set xrange [-10:10]
set yrange [0:6.964]
set xzeroaxis lt -1
set terminal png size 800,600
set output 'mp-1048410_dos_gnuplot.png'
plot '-' using 1:2 with lines title 'DOS'
-34.704200 0.000000
-34.659800 0.000000
-34.615400 0.000000
-34.571000 0.000000
-34.526600 0.000000
-34.482200 0.000000
-34.437800 0.000000
-34.393400 0.000000
-34.349000 0.000000
-34.304600 0.000000
-34.260200 0.000000
-34.215800 0.000000
-34.171400 0.000000
-34.127000 0.000000
-34.082600 0.000000
-34.038200 0.000000
-33.993800 0.000000
-33.949400 0.000000
-33.905000 0.000000
-33.860600 0.000000
-33.816300 0.000000
-33.771900 0.000000
-33.727500 0.000000
-33.683100 0.000000
-33.638700 0.000000
-33.594300 0.000000
-33.549900 0.000000
-33.505500 0.000000
-33.461100 0.000000
-33.416700 0.000000
-33.372300 0.000000
-33.327900 0.000000
-33.283500 0.000000
-33.239100 0.000000
-33.194700 0.000000
-33.150300 0.000000
-33.105900 0.000000
-33.061500 0.000000
-33.017100 0.000000
-32.972700 0.000000
-32.928300 0.000000
-32.883900 0.000000
-32.839500 0.000000
-32.795100 0.000000
-32.750700 0.000000
-32.706300 0.000000
-32.662000 0.000000
-32.617600 0.000000
-32.573200 0.000000
-32.528800 0.000000
-32.484400 0.000000
-32.440000 0.000000
-32.395600 0.000000
-32.351200 0.000000
-32.306800 0.000000
-32.262400 0.000000
-32.218000 0.000000
-32.173600 0.000000
-32.129200 0.000000
-32.084800 0.000000
-32.040400 0.000000
-31.996000 0.000000
-31.951600 0.000000
-31.907200 0.000000
-31.862800 0.000000
-31.818400 0.000000
-31.774000 0.000000
-31.729600 0.000000
-31.685200 0.000000
-31.640800 0.000000
-31.596400 0.000000
-31.552100 0.000000
-31.507700 0.000000
-31.463300 0.000000
-31.418900 0.000000
-31.374500 0.000000
-31.330100 0.000000
-31.285700 0.000000
-31.241300 0.000000
-31.196900 0.000000
-31.152500 0.000000
-31.108100 0.000000
-31.063700 0.000000
-31.019300 0.000000
-30.974900 0.000000
-30.930500 0.000000
-30.886100 0.000000
-30.841700 0.000000
-30.797300 0.000000
-30.752900 0.000000
-30.708500 0.000000
-30.664100 0.796900
-30.619700 7.967100
-30.575300 35.785700
-30.530900 19.997500
-30.486500 16.504500
-30.442200 10.367200
-30.397800 12.893800
-30.353400 20.097200
-30.309000 27.424000
-30.264600 27.533500
-30.220200 24.067000
-30.175800 35.722900
-30.131400 12.491000
-30.087000 36.088700
-30.042600 5.868300
-29.998200 0.000000
-29.953800 0.000000
-29.909400 0.000000
-29.865000 0.000000
-29.820600 0.000000
-29.776200 0.000000
-29.731800 0.000000
-29.687400 0.000000
-29.643000 0.000000
-29.598600 0.000000
-29.554200 0.000000
-29.509800 0.000000
-29.465400 0.000000
-29.421000 0.000000
-29.376600 0.000000
-29.332200 0.000000
-29.287900 0.000000
-29.243500 0.000000
-29.199100 0.000000
-29.154700 0.000000
-29.110300 0.000000
-29.065900 0.000000
-29.021500 0.000000
-28.977100 0.000000
-28.932700 0.000000
-28.888300 0.000000
-28.843900 0.000000
-28.799500 0.000000
-28.755100 0.000000
-28.710700 0.000000
-28.666300 0.000000
-28.621900 0.000000
-28.577500 0.000000
-28.533100 0.000000
-28.488700 0.000000
-28.444300 0.000000
-28.399900 0.000000
-28.355500 0.000000
-28.311100 0.000000
-28.266700 0.000000
-28.222300 0.000000
-28.178000 0.000000
-28.133600 0.000000
-28.089200 0.000000
-28.044800 0.000000
-28.000400 0.000000
-27.956000 0.000000
-27.911600 0.000000
-27.867200 0.000000
-27.822800 0.000000
-27.778400 0.000000
-27.734000 0.000000
-27.689600 0.000000
-27.645200 0.000000
-27.600800 0.000000
-27.556400 0.000000
-27.512000 0.000000
-27.467600 0.000000
-27.423200 0.000000
-27.378800 0.000000
-27.334400 0.000000
-27.290000 0.000000
-27.245600 0.000000
-27.201200 0.000000
-27.156800 0.000000
-27.112400 0.000000
-27.068100 0.000000
-27.023700 0.000000
-26.979300 0.000000
-26.934900 0.000000
-26.890500 0.000000
-26.846100 0.000000
-26.801700 0.000000
-26.757300 0.000000
-26.712900 0.000000
-26.668500 0.000000
-26.624100 0.000000
-26.579700 0.000000
-26.535300 0.000000
-26.490900 0.000000
-26.446500 0.000000
-26.402100 0.000000
-26.357700 0.000000
-26.313300 0.000000
-26.268900 0.000000
-26.224500 0.000000
-26.180100 0.000000
-26.135700 0.000000
-26.091300 0.000000
-26.046900 0.000000
-26.002500 0.000000
-25.958200 0.000000
-25.913800 0.000000
-25.869400 0.000000
-25.825000 0.000000
-25.780600 0.000000
-25.736200 0.000000
-25.691800 0.000000
-25.647400 0.000000
-25.603000 0.000000
-25.558600 0.000000
-25.514200 0.000000
-25.469800 0.000000
-25.425400 0.000000
-25.381000 0.000000
-25.336600 0.000000
-25.292200 0.000000
-25.247800 0.000000
-25.203400 0.000000
-25.159000 0.000000
-25.114600 0.000000
-25.070200 0.000000
-25.025800 0.000000
-24.981400 0.000000
-24.937000 0.000000
-24.892600 0.000000
-24.848200 0.000000
-24.803900 0.000000
-24.759500 0.000000
-24.715100 0.000000
-24.670700 0.000000
-24.626300 0.000000
-24.581900 0.000000
-24.537500 0.000000
-24.493100 0.000000
-24.448700 0.000000
-24.404300 0.000000
-24.359900 0.000000
-24.315500 0.000000
-24.271100 0.000000
-24.226700 0.000000
-24.182300 0.000000
-24.137900 0.000000
-24.093500 0.000000
-24.049100 0.000000
-24.004700 0.000000
-23.960300 0.000000
-23.915900 0.000000
-23.871500 0.000000
-23.827100 0.000000
-23.782700 0.000000
-23.738300 0.000000
-23.694000 0.000000
-23.649600 0.000000
-23.605200 0.000000
-23.560800 0.000000
-23.516400 0.000000
-23.472000 0.000000
-23.427600 0.000000
-23.383200 0.000000
-23.338800 0.000000
-23.294400 0.000000
-23.250000 0.000000
-23.205600 0.000000
-23.161200 0.000000
-23.116800 0.000000
-23.072400 0.000000
-23.028000 0.000000
-22.983600 0.000000
-22.939200 0.000000
-22.894800 0.000000
-22.850400 0.000000
-22.806000 0.000000
-22.761600 0.000000
-22.717200 0.000000
-22.672800 0.000000
-22.628400 0.000000
-22.584100 0.000000
-22.539700 0.000000
-22.495300 0.000000
-22.450900 0.000000
-22.406500 0.000000
-22.362100 0.000000
-22.317700 0.000000
-22.273300 0.000000
-22.228900 0.000000
-22.184500 0.000000
-22.140100 0.000000
-22.095700 0.000000
-22.051300 0.000000
-22.006900 0.000000
-21.962500 0.000000
-21.918100 0.000000
-21.873700 0.000000
-21.829300 0.000000
-21.784900 0.000000
-21.740500 0.000000
-21.696100 0.000000
-21.651700 0.000000
-21.607300 0.000000
-21.562900 0.000000
-21.518500 0.000000
-21.474200 0.000000
-21.429800 0.000000
-21.385400 0.000000
-21.341000 0.000000
-21.296600 0.000000
-21.252200 0.000000
-21.207800 0.000000
-21.163400 0.000000
-21.119000 0.000000
-21.074600 0.000000
-21.030200 0.000000
-20.985800 0.000000
-20.941400 0.000000
-20.897000 0.000000
-20.852600 0.000000
-20.808200 0.000000
-20.763800 0.000000
-20.719400 0.000000
-20.675000 0.000000
-20.630600 0.000000
-20.586200 0.000000
-20.541800 0.000000
-20.497400 0.000000
-20.453000 0.000000
-20.408600 0.000000
-20.364200 0.000000
-20.319900 0.000000
-20.275500 0.000000
-20.231100 0.000000
-20.186700 0.000000
-20.142300 0.000000
-20.097900 0.000000
-20.053500 0.000000
-20.009100 0.000000
-19.964700 0.000000
-19.920300 0.000000
-19.875900 0.000000
-19.831500 0.000000
-19.787100 0.000000
-19.742700 0.000000
-19.698300 0.000000
-19.653900 0.000000
-19.609500 0.000000
-19.565100 0.000000
-19.520700 0.000000
-19.476300 0.000000
-19.431900 0.000000
-19.387500 0.000000
-19.343100 0.000000
-19.298700 0.000000
-19.254300 0.000000
-19.210000 0.000000
-19.165600 0.000000
-19.121200 0.000000
-19.076800 0.000000
-19.032400 0.000000
-18.988000 0.000000
-18.943600 0.000000
-18.899200 0.000000
-18.854800 0.000000
-18.810400 0.000000
-18.766000 0.000000
-18.721600 0.000000
-18.677200 0.000000
-18.632800 0.000000
-18.588400 0.000000
-18.544000 0.000000
-18.499600 0.000000
-18.455200 0.000000
-18.410800 0.000000
-18.366400 0.000000
-18.322000 0.000000
-18.277600 0.000000
-18.233200 0.000000
-18.188800 0.000000
-18.144400 0.000000
-18.100100 0.000000
-18.055700 0.000000
-18.011300 0.000000
-17.966900 0.000000
-17.922500 0.000000
-17.878100 0.000000
-17.833700 0.000000
-17.789300 0.000000
-17.744900 0.000000
-17.700500 0.000000
-17.656100 0.000000
-17.611700 0.000000
-17.567300 0.000000
-17.522900 0.000000
-17.478500 0.000000
-17.434100 0.000000
-17.389700 0.000000
-17.345300 0.000000
-17.300900 0.000000
-17.256500 0.000000
-17.212100 0.000000
-17.167700 0.000000
-17.123300 0.000000
-17.078900 0.000000
-17.034500 0.000000
-16.990100 0.000000
-16.945800 0.000000
-16.901400 0.000000
-16.857000 0.000000
-16.812600 0.000000
-16.768200 0.000000
-16.723800 0.000000
-16.679400 0.000000
-16.635000 0.000000
-16.590600 0.000000
-16.546200 0.000000
-16.501800 0.000000
-16.457400 0.000000
-16.413000 0.000000
-16.368600 0.000000
-16.324200 0.000000
-16.279800 0.000000
-16.235400 0.000000
-16.191000 0.000000
-16.146600 0.000000
-16.102200 0.000000
-16.057800 0.000000
-16.013400 0.000000
-15.969000 0.000000
-15.924600 0.000000
-15.880200 0.000000
-15.835900 0.000000
-15.791500 0.000000
-15.747100 0.000000
-15.702700 0.000000
-15.658300 0.000000
-15.613900 0.000000
-15.569500 0.000000
-15.525100 0.000000
-15.480700 0.000000
-15.436300 0.000000
-15.391900 0.000000
-15.347500 0.000000
-15.303100 0.000000
-15.258700 0.000000
-15.214300 0.000000
-15.169900 0.000000
-15.125500 0.000000
-15.081100 0.000000
-15.036700 0.000000
-14.992300 0.000000
-14.947900 0.000000
-14.903500 0.000000
-14.859100 0.000000
-14.814700 0.000000
-14.770300 0.000000
-14.726000 0.000000
-14.681600 0.000000
-14.637200 0.000000
-14.592800 0.000000
-14.548400 0.000000
-14.504000 0.000000
-14.459600 0.000000
-14.415200 0.000000
-14.370800 0.000000
-14.326400 0.000000
-14.282000 0.000000
-14.237600 0.000000
-14.193200 0.000000
-14.148800 0.000000
-14.104400 0.000000
-14.060000 0.000000
-14.015600 0.000000
-13.971200 0.000000
-13.926800 0.000000
-13.882400 0.000000
-13.838000 0.000000
-13.793600 0.000000
-13.749200 0.000000
-13.704800 0.000000
-13.660400 0.000000
-13.616100 0.000000
-13.571700 0.000000
-13.527300 0.000000
-13.482900 0.000000
-13.438500 0.000000
-13.394100 0.000000
-13.349700 0.000000
-13.305300 0.000000
-13.260900 0.000000
-13.216500 0.000000
-13.172100 0.000000
-13.127700 0.000000
-13.083300 0.000000
-13.038900 0.000000
-12.994500 0.000000
-12.950100 0.000000
-12.905700 0.000000
-12.861300 0.000000
-12.816900 0.000000
-12.772500 0.000000
-12.728100 0.000000
-12.683700 0.000000
-12.639300 0.000000
-12.594900 0.000000
-12.550500 0.000000
-12.506100 0.000000
-12.461800 0.000000
-12.417400 0.000000
-12.373000 0.000000
-12.328600 0.000000
-12.284200 0.000000
-12.239800 0.000000
-12.195400 0.000000
-12.151000 0.000000
-12.106600 0.000000
-12.062200 0.000000
-12.017800 0.000000
-11.973400 0.000000
-11.929000 0.000000
-11.884600 0.000000
-11.840200 0.000000
-11.795800 0.000000
-11.751400 0.000000
-11.707000 0.000000
-11.662600 0.000000
-11.618200 0.000000
-11.573800 0.000000
-11.529400 0.000000
-11.485000 0.000000
-11.440600 0.000000
-11.396200 0.000000
-11.351900 0.000000
-11.307500 0.000000
-11.263100 0.000000
-11.218700 0.000000
-11.174300 0.000000
-11.129900 0.000000
-11.085500 0.000000
-11.041100 0.000000
-10.996700 0.000000
-10.952300 0.000000
-10.907900 0.000000
-10.863500 0.000000
-10.819100 0.000000
-10.774700 0.000000
-10.730300 0.000000
-10.685900 0.000000
-10.641500 0.000000
-10.597100 0.000000
-10.552700 0.000000
-10.508300 0.000000
-10.463900 0.000000
-10.419500 0.000000
-10.375100 0.000000
-10.330700 0.000000
-10.286300 0.000000
-10.242000 0.000000
-10.197600 0.000000
-10.153200 0.000000
-10.108800 0.000000
-10.064400 0.000000
-10.020000 0.000000
-9.975600 0.000000
-9.931200 0.000000
-9.886800 0.000000
-9.842400 0.000000
-9.798000 0.000000
-9.753600 0.000000
-9.709200 0.000000
-9.664800 0.000000
-9.620400 0.000000
-9.576000 0.000000
-9.531600 0.000000
-9.487200 0.000000
-9.442800 0.000000
-9.398400 0.000000
-9.354000 0.000000
-9.309600 0.000000
-9.265200 0.000000
-9.220800 0.000000
-9.176400 0.000000
-9.132100 0.000000
-9.087700 0.000000
-9.043300 0.000000
-8.998900 0.000000
-8.954500 0.011300
-8.910100 0.081100
-8.865700 0.104000
-8.821300 0.128400
-8.776900 0.162400
-8.732500 0.180200
-8.688100 0.194900
-8.643700 0.215000
-8.599300 0.234800
-8.554900 0.256300
-8.510500 0.275700
-8.466100 0.291700
-8.421700 0.308600
-8.377300 0.325600
-8.332900 0.346100
-8.288500 0.367100
-8.244100 0.388400
-8.199700 0.408400
-8.155300 0.428200
-8.110900 0.450100
-8.066500 0.472900
-8.022100 0.497000
-7.977800 0.527200
-7.933400 0.559700
-7.889000 0.595200
-7.844600 0.631600
-7.800200 0.652300
-7.755800 0.668700
-7.711400 0.689000
-7.667000 0.708700
-7.622600 0.732900
-7.578200 0.771200
-7.533800 0.832400
-7.489400 0.890300
-7.445000 0.956100
-7.400600 1.031700
-7.356200 1.120000
-7.311800 1.211800
-7.267400 1.340700
-7.223000 1.497100
-7.178600 1.730900
-7.134200 2.532800
-7.089800 2.741400
-7.045400 2.830300
-7.001000 2.940100
-6.956600 2.989100
-6.912200 3.077900
-6.867900 3.265900
-6.823500 3.474000
-6.779100 3.710700
-6.734700 4.182300
-6.690300 4.995600
-6.645900 5.753600
-6.601500 5.882800
-6.557100 5.457200
-6.512700 4.265200
-6.468300 2.973800
-6.423900 2.141300
-6.379500 1.525400
-6.335100 1.067000
-6.290700 0.718300
-6.246300 0.181700
-6.201900 0.000000
-6.157500 0.000000
-6.113100 0.000000
-6.068700 0.000000
-6.024300 0.000000
-5.979900 0.000000
-5.935500 0.000000
-5.891100 0.000000
-5.846700 0.000000
-5.802300 0.000000
-5.758000 0.000000
-5.713600 0.000000
-5.669200 0.000000
-5.624800 0.000000
-5.580400 0.000000
-5.536000 0.000000
-5.491600 0.000000
-5.447200 0.000000
-5.402800 0.000000
-5.358400 0.000000
-5.314000 0.000000
-5.269600 0.000000
-5.225200 0.000000
-5.180800 0.000000
-5.136400 0.000000
-5.092000 0.000000
-5.047600 0.000000
-5.003200 0.000000
-4.958800 0.000000
-4.914400 0.000000
-4.870000 0.000000
-4.825600 0.000000
-4.781200 0.000000
-4.736800 0.000000
-4.692400 0.000000
-4.648000 0.000000
-4.603700 0.000000
-4.559300 0.000000
-4.514900 0.000000
-4.470500 0.000000
-4.426100 0.000000
-4.381700 0.000000
-4.337300 0.000000
-4.292900 0.000000
-4.248500 0.000000
-4.204100 0.000000
-4.159700 0.000000
-4.115300 0.000000
-4.070900 0.000000
-4.026500 0.000000
-3.982100 0.000000
-3.937700 0.000000
-3.893300 0.000000
-3.848900 0.000000
-3.804500 0.000000
-3.760100 0.000000
-3.715700 0.000000
-3.671300 0.000000
-3.626900 0.000000
-3.582500 0.000000
-3.538100 0.000000
-3.493800 0.000000
-3.449400 0.000000
-3.405000 0.000000
-3.360600 0.000000
-3.316200 0.000000
-3.271800 0.000000
-3.227400 0.000000
-3.183000 0.000000
-3.138600 0.000000
-3.094200 0.000000
-3.049800 0.000000
-3.005400 0.000000
-2.961000 0.000000
-2.916600 0.000000
-2.872200 0.000000
-2.827800 0.000000
-2.783400 0.000000
-2.739000 0.000000
-2.694600 0.000000
-2.650200 0.000000
-2.605800 0.000000
-2.561400 0.000000
-2.517000 0.000000
-2.472600 0.000000
-2.428200 0.000000
-2.383900 0.000000
-2.339500 0.000000
-2.295100 0.000000
-2.250700 0.000000
-2.206300 0.000000
-2.161900 0.000000
-2.117500 0.000000
-2.073100 0.000000
-2.028700 0.000000
-1.984300 0.000000
-1.939900 0.000000
-1.895500 0.000000
-1.851100 0.000000
-1.806700 0.000000
-1.762300 0.000000
-1.717900 0.000000
-1.673500 0.000000
-1.629100 0.000000
-1.584700 0.000000
-1.540300 0.000000
-1.495900 0.000000
-1.451500 0.000000
-1.407100 0.000000
-1.362700 0.000000
-1.318300 0.000000
-1.274000 0.000000
-1.229600 0.000000
-1.185200 0.000000
-1.140800 0.000000
-1.096400 0.000000
-1.052000 0.000000
-1.007600 0.000000
-0.963200 0.000000
-0.918800 0.000000
-0.874400 0.000000
-0.830000 0.000000
-0.785600 0.000000
-0.741200 0.000000
-0.696800 0.000000
-0.652400 0.000000
-0.608000 0.000000
-0.563600 0.000000
-0.519200 0.000000
-0.474800 0.000000
-0.430400 0.000000
-0.386000 0.000000
-0.341600 0.000000
-0.297200 0.000000
-0.252800 0.000000
-0.208400 0.000000
-0.164000 0.000000
-0.119700 0.000000
-0.075300 0.000000
-0.030900 0.000000
0.013500 0.000000
0.057900 0.000000
0.102300 0.000000
0.146700 0.001800
0.191100 0.083900
0.235500 0.166600
0.279900 0.218000
0.324300 0.273300
0.368700 0.320700
0.413100 0.372600
0.457500 0.416100
0.501900 0.459300
0.546300 0.500800
0.590700 0.542800
0.635100 0.588400
0.679500 0.635500
0.723900 0.684100
0.768300 0.732000
0.812700 0.782000
0.857100 0.838300
0.901500 0.897300
0.945900 0.965600
0.990200 1.042600
1.034600 1.127600
1.079000 1.221700
1.123400 1.321700
1.167800 1.452500
1.212200 1.744000
1.256600 1.856900
1.301000 1.893800
1.345400 1.951900
1.389800 2.023800
1.434200 2.100000
1.478600 2.206400
1.523000 2.319000
1.567400 2.450400
1.611800 2.541800
1.656200 2.630000
1.700600 2.765700
1.745000 2.957600
1.789400 3.162700
1.833800 3.437000
1.878200 2.525200
1.922600 2.354700
1.967000 2.202200
2.011400 2.128300
2.055800 2.080200
2.100100 2.043400
2.144500 2.019400
2.188900 2.042000
2.233300 2.226200
2.277700 2.463800
2.322100 2.493500
2.366500 1.756300
2.410900 1.136500
2.455300 0.733600
2.499700 0.697800
2.544100 0.734500
2.588500 0.986700
2.632900 1.377600
2.677300 1.814300
2.721700 2.965400
2.766100 4.770600
2.810500 5.784800
2.854900 5.073700
2.899300 3.941600
2.943700 3.284700
2.988100 3.499500
3.032500 3.299200
3.076900 3.121000
3.121300 3.391700
3.165700 4.206700
3.210000 4.165500
3.254400 4.070600
3.298800 4.206300
3.343200 4.889300
3.387600 5.411500
3.432000 5.747000
3.476400 5.140200
3.520800 5.097400
3.565200 5.262900
3.609600 4.877200
3.654000 4.448300
3.698400 4.110300
3.742800 3.870400
3.787200 3.705600
3.831600 3.559800
3.876000 3.401400
3.920400 3.242700
3.964800 3.112000
4.009200 2.996700
4.053600 2.895400
4.098000 2.802300
4.142400 2.738900
4.186800 2.674600
4.231200 2.613700
4.275600 2.524700
4.320000 2.432900
4.364300 2.357000
4.408700 2.282600
4.453100 2.205900
4.497500 2.133100
4.541900 2.066500
4.586300 2.008500
4.630700 1.944800
4.675100 1.888300
4.719500 1.826700
4.763900 1.759100
4.808300 1.670000
4.852700 1.591100
4.897100 1.520100
4.941500 1.456500
4.985900 1.392100
5.030300 1.331400
5.074700 1.243800
5.119100 1.173900
5.163500 1.109500
5.207900 0.877900
5.252300 0.747700
5.296700 0.684900
5.341100 0.631500
5.385500 0.558200
5.429900 0.514600
5.474200 0.486500
5.518600 0.469700
5.563000 0.455800
5.607400 0.441600
5.651800 0.418300
5.696200 0.397100
5.740600 0.375600
5.785000 0.335500
5.829400 0.313200
5.873800 0.312100
5.918200 0.315500
5.962600 0.327700
6.007000 0.330400
6.051400 0.337900
6.095800 0.346000
6.140200 0.358900
6.184600 0.379500
6.229000 0.418100
6.273400 0.435800
6.317800 0.468200
6.362200 0.499800
6.406600 0.533600
6.451000 0.591800
6.495400 0.587800
6.539800 0.590100
6.584100 0.609700
6.628500 0.632500
6.672900 0.657400
6.717300 0.686400
6.761700 0.724300
6.806100 0.779600
6.850500 0.839400
6.894900 0.877500
6.939300 0.910800
6.983700 0.939300
7.028100 0.970100
7.072500 1.003400
7.116900 1.034100
7.161300 1.068200
7.205700 1.123600
7.250100 1.198300
7.294500 1.367000
7.338900 1.379600
7.383300 1.432600
7.427700 1.492200
7.472100 1.543500
7.516500 1.600500
7.560900 1.637400
7.605300 1.685600
7.649700 1.742900
7.694100 1.805900
7.738400 1.843800
7.782800 1.879200
7.827200 1.942500
7.871600 2.030300
7.916000 2.152700
7.960400 2.278600
8.004800 2.401200
8.049200 2.467000
8.093600 2.521300
8.138000 2.597500
8.182400 2.655000
8.226800 2.691400
8.271200 2.814500
8.315600 2.917500
8.360000 2.995200
8.404400 2.938800
8.448800 2.950900
8.493200 2.952300
8.537600 2.798500
8.582000 2.737300
8.626400 2.705400
8.670800 2.727800
8.715200 2.797200
8.759600 2.890600
8.804000 3.049700
8.848300 3.305100
8.892700 3.490700
8.937100 3.527500
8.981500 3.192700
9.025900 3.181700
9.070300 2.791300
9.114700 2.853600
9.159100 2.905400
9.203500 3.057900
9.247900 3.163900
9.292300 3.277800
9.336700 3.549000
9.381100 3.842400
9.425500 4.427200
9.469900 4.751400
9.514300 5.021600
9.558700 5.719700
9.603100 6.017900
9.647500 5.856800
9.691900 6.253000
9.736300 6.330500
9.780700 5.659400
9.825100 5.227500
9.869500 4.784000
9.913900 4.447300
9.958200 4.724100
10.002600 6.670000
10.047000 5.502300
10.091400 5.700100
10.135800 4.640800
10.180200 4.958800
10.224600 5.874100
10.269000 9.836800
10.313400 8.237800
10.357800 6.709600
10.402200 3.878500
10.446600 3.180500
10.491000 2.304200
10.535400 2.340700
10.579800 2.562200
10.624200 2.384700
10.668600 2.385800
10.713000 2.419900
10.757400 2.442500
10.801800 2.443100
10.846200 2.463700
10.890600 2.435200
10.935000 2.490700
10.979400 2.374600
11.023800 2.378700
11.068100 2.454000
11.112500 2.480800
11.156900 2.473400
11.201300 2.471500
11.245700 2.438000
11.290100 2.435800
11.334500 2.415800
11.378900 2.399500
11.423300 2.402000
11.467700 2.504600
11.512100 2.765400
11.556500 3.051800
11.600900 3.108000
11.645300 3.384700
11.689700 3.229700
11.734100 3.081400
11.778500 3.016600
11.822900 2.991700
11.867300 2.914600
11.911700 2.851900
11.956100 2.803800
12.000500 2.772700
12.044900 2.761800
12.089300 2.814400
12.133700 2.800900
12.178100 2.750900
12.222400 2.707000
12.266800 2.671700
12.311200 2.651100
12.355600 2.609100
12.400000 2.543900
12.444400 2.490800
12.488800 2.447500
12.533200 2.410800
12.577600 2.373900
12.622000 2.330700
12.666400 2.293100
12.710800 2.258400
12.755200 2.228400
12.799600 2.200300
12.844000 2.179900
12.888400 2.174500
12.932800 2.146700
12.977200 2.094400
13.021600 2.053700
13.066000 2.027200
13.110400 1.999900
13.154800 1.973200
13.199200 1.966600
13.243600 1.980400
13.288000 1.979200
13.332300 2.002500
13.376700 1.919300
13.421100 1.806800
13.465500 1.719000
13.509900 1.643200
13.554300 1.522100
13.598700 1.307400
13.643100 0.917500
13.687500 0.474000
13.731900 0.211100
13.776300 0.002000
13.820700 0.000000
13.865100 0.000000
13.909500 0.000000
13.953900 0.000000
13.998300 0.000000
14.042700 0.000000
14.087100 0.000000
14.131500 0.000000
14.175900 0.000000
14.220300 0.000000
14.264700 0.000000
14.309100 0.000000
14.353500 0.000000
14.397900 0.000000
14.442200 0.000000
14.486600 0.000000
14.531000 0.000000
14.575400 0.000000
14.619800 0.000000
14.664200 0.000000
14.708600 0.000000
14.753000 0.000000
14.797400 0.000200
14.841800 0.004000
14.886200 0.012300
14.930600 0.024500
14.975000 0.033900
15.019400 0.038800
15.063800 0.040700
15.108200 0.043400
15.152600 0.047700
15.197000 0.053200
15.241400 0.059100
15.285800 0.065100
15.330200 0.070100
15.374600 0.073500
15.419000 0.076900
15.463400 0.082500
15.507800 0.090400
15.552100 0.104300
15.596500 0.114300
15.640900 0.126300
15.685300 0.141500
15.729700 0.158000
15.774100 0.173500
15.818500 0.196900
15.862900 0.219600
15.907300 0.237500
15.951700 0.253100
15.996100 0.267200
16.040500 0.281400
16.084900 0.298000
16.129300 0.317200
16.173700 0.338000
16.218100 0.360100
16.262500 0.383200
16.306900 0.405700
16.351300 0.428100
16.395700 0.455600
16.440100 0.494000
16.484500 0.542500
16.528900 0.591600
16.573300 0.647200
16.617700 0.717300
16.662100 0.778500
16.706400 0.827700
16.750800 0.855600
16.795200 0.858900
16.839600 0.858600
16.884000 0.865200
16.928400 0.871900
16.972800 0.881000
17.017200 0.888900
17.061600 0.895000
17.106000 0.897500
17.150400 0.896900
17.194800 0.901200
17.239200 0.911400
17.283600 0.933500
17.328000 0.959200
17.372400 0.960300
17.416800 0.957500
17.461200 0.943800
17.505600 0.891100
17.550000 0.821600
17.594400 0.787200
17.638800 0.756700
17.683200 0.726400
17.727600 0.721100
17.772000 0.722300
17.816300 0.726400
17.860700 0.727600
17.905100 0.723900
17.949500 0.715800
17.993900 0.708300
18.038300 0.702900
18.082700 0.700100
18.127100 0.701100
18.171500 0.704400
18.215900 0.709600
18.260300 0.715500
18.304700 0.718600
18.349100 0.722200
18.393500 0.727100
18.437900 0.733300
18.482300 0.742100
18.526700 0.753000
18.571100 0.763900
18.615500 0.775400
18.659900 0.789400
18.704300 0.804000
18.748700 0.823300
18.793100 0.847100
18.837500 0.882200
18.881900 0.988200
18.926200 1.013500
18.970600 1.022800
19.015000 1.021100
19.059400 1.014600
19.103800 0.996500
19.148200 0.981500
19.192600 1.057600
19.237000 1.137600
19.281400 1.222400
19.325800 1.391700
19.370200 1.377900
19.414600 1.277500
19.459000 1.207500
19.503400 1.206300
19.547800 1.163200
19.592200 1.136900
19.636600 1.098200
19.681000 1.092400
19.725400 1.098900
19.769800 1.084600
19.814200 1.055600
19.858600 1.028900
19.903000 0.987700
19.947400 0.976900
19.991800 0.967700
20.036100 0.967700
20.080500 0.947500
20.124900 0.904100
20.169300 0.849900
20.213700 0.830300
20.258100 0.757800
20.302500 0.689700
20.346900 0.636400
20.391300 0.603700
20.435700 0.587600
20.480100 0.542300
20.524500 0.505600
20.568900 0.476600
20.613300 0.447400
20.657700 0.421600
20.702100 0.404000
20.746500 0.392600
20.790900 0.419600
20.835300 0.385400
20.879700 0.347900
20.924100 0.341700
20.968500 0.450900
21.012900 0.600700
21.057300 0.718000
21.101700 0.835800
21.146100 1.019400
21.190400 1.302200
21.234800 1.598600
21.279200 1.846700
21.323600 2.231600
21.368000 2.965200
21.412400 3.428700
21.456800 3.143600
21.501200 3.273500
21.545600 3.502300
21.590000 3.082400
21.634400 3.004800
21.678800 2.920500
21.723200 2.724900
21.767600 2.693300
21.812000 2.787100
21.856400 2.924600
21.900800 3.147800
21.945200 3.511000
21.989600 3.727800
22.034000 3.786600
22.078400 3.693200
22.122800 3.749700
22.167200 3.955600
22.211600 3.579300
22.256000 3.463100
22.300300 3.505300
22.344700 3.561700
22.389100 3.583800
22.433500 3.618300
22.477900 3.830200
22.522300 3.701600
22.566700 3.234600
22.611100 3.075300
22.655500 3.030900
22.699900 2.950200
22.744300 2.927000
22.788700 2.834500
22.833100 2.508100
22.877500 2.197300
22.921900 1.989900
22.966300 1.874500
23.010700 1.774500
23.055100 1.692700
23.099500 1.634400
23.143900 1.571600
23.188300 1.469700
23.232700 1.411200
23.277100 1.368900
23.321500 1.328300
23.365900 1.266300
23.410200 1.224100
23.454600 1.188600
23.499000 1.150800
23.543400 1.127300
23.587800 1.099900
23.632200 1.079800
23.676600 1.075700
23.721000 0.986000
23.765400 0.897700
23.809800 0.838600
23.854200 0.802600
23.898600 0.660100
23.943000 0.662800
23.987400 0.646400
24.031800 0.634500
24.076200 0.611700
24.120600 0.594400
24.165000 0.589300
24.209400 0.574600
24.253800 0.572900
24.298200 0.598000
24.342600 0.627700
24.387000 0.624300
24.431400 0.607800
24.475800 0.606700
24.520200 0.625200
24.564500 0.671400
24.608900 0.662300
24.653300 0.658900
24.697700 0.652600
24.742100 0.655000
24.786500 0.694200
24.830900 0.701800
24.875300 0.707400
24.919700 0.710500
24.964100 0.714700
25.008500 0.719200
25.052900 0.724400
25.097300 0.732400
25.141700 0.744000
25.186100 0.756500
25.230500 0.769700
25.274900 0.783000
25.319300 0.795300
25.363700 0.806300
25.408100 0.817800
25.452500 0.830600
25.496900 0.844600
25.541300 0.857800
25.585700 0.872500
25.630100 0.888700
25.674400 0.908400
25.718800 0.933900
25.763200 0.958500
25.807600 0.986500
25.852000 1.018100
25.896400 1.055600
25.940800 1.100000
25.985200 1.142700
26.029600 1.185700
26.074000 1.246600
26.118400 1.294800
26.162800 1.343000
26.207200 1.414600
26.251600 1.480700
26.296000 1.581100
26.340400 1.634600
26.384800 1.707600
26.429200 1.732000
26.473600 1.725500
26.518000 1.730500
26.562400 1.725700
26.606800 1.674400
26.651200 1.649300
26.695600 1.652500
26.740000 1.667000
26.784300 1.691600
26.828700 1.726800
26.873100 1.747700
26.917500 1.752700
26.961900 1.777200
27.006300 1.851200
27.050700 1.932100
27.095100 1.994100
27.139500 2.002900
27.183900 2.057800
27.228300 2.053500
27.272700 2.051100
27.317100 1.991200
27.361500 1.912600
27.405900 1.859000
27.450300 1.825200
27.494700 1.794500
27.539100 1.791200
27.583500 1.709200
27.627900 1.656900
27.672300 1.567600
27.716700 1.459700
27.761100 1.395800
27.805500 1.338500
27.849900 1.294500
27.894200 1.257500
27.938600 1.230300
27.983000 1.204200
28.027400 1.171400
28.071800 1.134300
28.116200 1.105200
28.160600 0.982600
28.205000 0.953300
28.249400 0.952900
28.293800 0.959600
28.338200 1.017600
28.382600 0.855600
28.427000 0.849400
28.471400 0.847700
28.515800 0.863100
28.560200 0.888000
28.604600 0.892500
28.649000 0.891600
28.693400 0.855500
28.737800 0.836300
28.782200 0.841700
28.826600 0.824500
28.871000 0.817800
28.915400 0.835800
28.959800 0.846800
29.004200 0.883300
29.048500 0.921700
29.092900 0.944500
29.137300 0.974700
29.181700 0.987900
29.226100 0.996700
29.270500 1.051700
29.314900 1.090700
29.359300 1.073100
29.403700 1.081200
29.448100 1.087200
29.492500 1.119800
29.536900 1.175800
29.581300 1.344300
29.625700 1.297000
29.670100 1.296700
29.714500 1.273900
29.758900 1.255300
29.803300 1.251900
29.847700 1.257200
29.892100 1.274900
29.936500 1.243900
29.980900 1.214800
30.025300 1.193300
30.069700 1.185400
30.114100 1.175500
30.158400 1.164100
30.202800 1.159300
30.247200 1.145800
30.291600 1.122300
30.336000 1.104500
30.380400 1.093200
30.424800 1.063900
30.469200 1.036500
30.513600 1.058600
30.558000 1.059600
30.602400 1.031500
30.646800 1.018700
30.691200 1.016000
30.735600 1.018700
30.780000 1.021800
30.824400 1.036100
30.868800 1.049900
30.913200 1.058200
30.957600 1.074800
31.002000 1.094600
31.046400 1.137300
31.090800 1.175100
31.135200 1.207700
31.179600 1.246500
31.224000 1.264800
31.268300 1.287500
31.312700 1.295100
31.357100 1.303100
31.401500 1.240700
31.445900 1.178900
31.490300 1.134000
31.534700 1.111000
31.579100 1.074300
31.623500 1.033400
31.667900 1.001000
31.712300 0.980700
31.756700 0.965500
31.801100 0.972900
31.845500 0.987900
31.889900 1.003400
31.934300 1.052200
31.978700 1.121700
32.023100 1.168100
32.067500 1.195600
32.111900 1.201200
32.156300 1.205500
32.200700 1.189800
32.245100 1.154500
32.289500 1.117900
32.333900 1.089000
32.378200 1.069500
32.422600 1.061000
32.467000 1.052400
32.511400 1.048600
32.555800 1.057400
32.600200 1.049100
32.644600 1.041000
32.689000 1.028000
32.733400 1.015100
32.777800 1.005700
32.822200 1.011900
32.866600 0.994600
32.911000 0.976500
32.955400 0.963600
32.999800 0.967300
33.044200 1.004400
33.088600 1.045900
33.133000 1.048800
33.177400 1.055800
33.221800 1.061500
33.266200 1.078200
33.310600 1.114100
33.355000 1.102400
33.399400 1.095700
33.443800 1.115700
33.488200 1.105900
33.532500 1.103700
33.576900 1.105700
33.621300 1.103400
33.665700 1.105800
33.710100 1.128900
33.754500 1.150500
33.798900 1.185300
33.843300 1.208800
33.887700 1.228500
33.932100 1.247800
33.976500 1.253200
34.020900 1.263100
34.065300 1.263400
34.109700 1.305100
34.154100 1.297500
34.198500 1.312800
34.242900 1.304400
34.287300 1.295100
34.331700 1.284600
34.376100 1.271700
34.420500 1.270200
34.464900 1.283200
34.509300 1.318800
34.553700 1.352500
34.598100 1.357400
34.642400 1.369100
34.686800 1.390800
34.731200 1.439000
34.775600 1.421300
34.820000 1.409800
34.864400 1.381400
34.908800 1.348700
34.953200 1.328800
34.997600 1.324300
35.042000 1.324600
35.086400 1.332700
35.130800 1.308900
35.175200 1.325500
35.219600 1.370700
35.264000 1.383200
35.308400 1.410600
35.352800 1.460500
35.397200 1.507600
35.441600 1.537700
35.486000 1.599400
35.530400 1.645400
35.574800 1.626800
35.619200 1.616200
35.663600 1.606100
35.708000 1.693100
35.752300 1.632900
35.796700 1.568300
35.841100 1.496600
35.885500 1.446800
35.929900 1.428000
35.974300 1.424900
36.018700 1.417200
36.063100 1.383000
36.107500 1.359100
36.151900 1.340300
36.196300 1.325900
36.240700 1.295700
36.285100 1.270800
36.329500 1.243800
36.373900 1.227400
36.418300 1.214400
36.462700 1.206500
36.507100 1.211500
36.551500 1.227200
36.595900 1.241000
36.640300 1.266900
36.684700 1.317600
36.729100 1.366400
36.773500 1.425600
36.817900 1.527300
36.862300 1.664100
36.906600 1.856500
36.951000 2.124800
36.995400 2.605500
37.039800 4.113200
37.084200 5.527400
37.128600 2.696500
37.173000 2.113300
37.217400 1.849500
37.261800 1.669400
37.306200 1.561000
37.350600 1.502200
37.395000 1.493600
37.439400 1.466900
37.483800 1.487600
37.528200 1.513400
37.572600 1.555900
37.617000 1.600500
37.661400 1.635300
37.705800 1.690300
37.750200 1.752100
37.794600 1.830300
37.839000 1.929200
37.883400 1.965900
37.927800 2.024800
37.972200 2.008500
38.016500 1.982100
38.060900 1.864500
38.105300 1.855100
38.149700 1.854700
38.194100 1.873000
38.238500 1.906900
38.282900 1.950900
38.327300 1.995100
38.371700 2.031900
38.416100 2.063900
38.460500 2.095400
38.504900 2.117600
38.549300 2.115500
38.593700 2.179900
38.638100 2.185200
38.682500 2.222000
38.726900 2.291600
38.771300 2.276800
38.815700 2.289200
38.860100 2.303700
38.904500 2.306800
38.948900 2.334400
38.993300 2.386700
39.037700 2.431500
39.082100 2.437600
39.126400 2.391700
39.170800 2.333700
39.215200 2.234500
39.259600 2.188100
39.304000 2.165700
39.348400 2.079800
39.392800 2.052300
39.437200 2.036400
39.481600 2.026700
39.526000 2.035800
39.570400 2.040500
39.614800 2.050900
39.659200 2.091200
39.703600 2.144500
39.748000 2.130800
39.792400 2.133100
39.836800 2.135300
39.881200 2.117500
39.925600 2.079500
39.970000 2.044100
40.014400 2.009900
40.058800 2.042400
40.103200 2.111900
40.147600 2.184400
40.192000 2.260800
40.236300 2.347700
40.280700 2.424400
40.325100 2.413200
40.369500 2.357600
40.413900 2.362200
40.458300 2.332200
40.502700 2.293700
40.547100 2.270600
40.591500 2.214900
40.635900 2.179500
40.680300 2.150600
40.724700 2.153100
40.769100 2.166000
40.813500 2.157200
40.857900 2.126200
40.902300 2.149000
40.946700 2.162700
40.991100 2.149400
41.035500 2.144400
41.079900 2.165600
41.124300 2.178300
41.168700 2.202100
41.213100 2.267000
41.257500 2.338600
41.301900 2.365500
41.346300 2.364100
41.390600 2.364600
41.435000 2.379700
41.479400 2.430100
41.523800 2.490600
41.568200 2.477800
41.612600 2.479400
41.657000 2.469000
41.701400 2.481900
41.745800 2.485200
41.790200 2.405000
41.834600 2.351400
41.879000 2.374900
41.923400 2.360200
41.967800 2.408800
42.012200 2.514800
42.056600 2.622700
42.101000 2.390800
42.145400 2.243100
42.189800 2.253500
42.234200 2.296500
42.278600 2.229200
42.323000 2.295100
42.367400 2.338100
42.411800 2.260200
42.456200 2.235300
42.500500 2.184600
42.544900 2.117600
42.589300 2.186800
42.633700 1.968900
42.678100 1.944800
42.722500 1.888400
42.766900 1.870400
42.811300 1.885000
42.855700 1.863800
42.900100 1.880700
42.944500 1.889700
42.988900 1.848600
43.033300 1.811500
43.077700 1.840300
43.122100 1.841200
43.166500 1.855500
43.210900 1.914500
43.255300 1.961400
43.299700 2.001100
43.344100 1.911500
43.388500 1.791900
43.432900 1.699300
43.477300 1.620000
43.521700 1.596400
43.566100 1.576300
43.610400 1.582500
43.654800 1.543200
43.699200 1.528500
43.743600 1.584000
43.788000 1.688400
43.832400 1.743200
43.876800 1.782600
43.921200 1.770500
43.965600 1.773400
44.010000 1.759900
44.054400 1.770000
44.098800 1.820500
44.143200 1.910100
44.187600 1.986500
44.232000 2.031500
44.276400 2.066800
44.320800 2.070700
44.365200 1.999400
44.409600 1.905400
44.454000 1.826700
44.498400 1.777900
44.542800 1.762000
44.587200 1.755200
44.631600 1.799800
44.676000 1.803000
44.720300 1.767400
44.764700 1.817200
44.809100 1.905500
44.853500 1.973000
44.897900 1.960200
44.942300 1.871200
44.986700 1.793100
45.031100 1.726600
45.075500 1.648300
45.119900 1.547000
45.164300 1.442800
45.208700 1.319900
45.253100 1.249400
45.297500 1.125400
45.341900 1.043800
45.386300 0.986200
45.430700 0.939900
45.475100 0.906700
45.519500 0.885500
45.563900 0.865600
45.608300 0.849500
45.652700 0.837100
45.697100 0.829400
45.741500 0.821200
45.785900 0.807600
45.830300 0.790900
45.874600 0.768400
45.919000 0.755700
45.963400 0.734200
46.007800 0.696500
46.052200 0.670200
46.096600 0.645500
46.141000 0.653700
46.185400 0.648200
46.229800 0.614000
46.274200 0.540400
46.318600 0.503500
46.363000 0.480900
46.407400 0.461400
46.451800 0.443900
46.496200 0.426500
46.540600 0.409900
46.585000 0.393300
46.629400 0.377300
46.673800 0.362800
46.718200 0.349500
46.762600 0.337900
46.807000 0.327100
46.851400 0.316800
46.895800 0.307400
46.940200 0.298600
46.984500 0.290200
47.028900 0.281700
47.073300 0.273400
47.117700 0.265500
47.162100 0.257900
47.206500 0.250000
47.250900 0.242100
47.295300 0.234600
47.339700 0.227300
47.384100 0.221500
47.428500 0.215100
47.472900 0.208800
47.517300 0.202700
47.561700 0.196700
47.606100 0.191100
47.650500 0.185900
47.694900 0.181300
47.739300 0.176900
47.783700 0.172500
47.828100 0.168200
47.872500 0.163900
47.916900 0.160000
47.961300 0.156200
48.005700 0.152500
48.050100 0.149300
48.094400 0.146200
48.138800 0.143200
48.183200 0.140400
48.227600 0.137800
48.272000 0.135300
48.316400 0.133300
48.360800 0.131400
48.405200 0.128100
48.449600 0.125500
48.494000 0.123300
48.538400 0.121100
48.582800 0.118800
48.627200 0.119000
48.671600 0.120500
48.716000 0.118500
48.760400 0.115500
48.804800 0.112300
48.849200 0.108900
48.893600 0.103800
48.938000 0.096500
48.982400 0.089300
49.026800 0.082700
49.071200 0.074700
49.115600 0.066200
49.160000 0.059000
49.204400 0.053200
49.248700 0.049200
49.293100 0.045700
49.337500 0.041200
49.381900 0.038100
49.426300 0.036200
49.470700 0.035600
49.515100 0.034900
49.559500 0.034200
49.603900 0.033700
49.648300 0.035200
49.692700 0.036400
49.737100 0.045500
49.781500 0.051200
49.825900 0.045900
49.870300 0.023700
49.914700 0.013100
49.959100 0.009300
50.003500 0.004700
50.047900 0.000400
50.092300 0.000000
50.136700 0.000000
50.181100 0.000000
50.225500 0.000000
50.269900 0.000000
50.314300 0.000000
50.358600 0.000000
50.403000 0.000000
50.447400 0.000000
50.491800 0.000000
50.536200 0.000000
50.580600 0.000000
50.625000 0.000000
50.669400 0.000000
50.713800 0.000000
50.758200 0.000000
50.802600 0.000000
50.847000 0.000000
50.891400 0.000000
50.935800 0.000000
50.980200 0.000000
51.024600 0.000000
51.069000 0.000000
51.113400 0.000000
51.157800 0.000000
51.202200 0.000000
51.246600 0.000000
51.291000 0.000000
51.335400 0.000000
51.379800 0.000000
51.424200 0.000000
51.468500 0.000000
51.512900 0.000000
51.557300 0.000000
51.601700 0.000000
51.646100 0.000000
51.690500 0.000000
51.734900 0.000000
51.779300 0.000000
51.823700 0.000000
51.868100 0.000000
51.912500 0.000000
51.956900 0.000000
52.001300 0.000000
52.045700 0.000000
52.090100 0.000000
52.134500 0.000000
52.178900 0.000000
52.223300 0.000000
52.267700 0.000000
52.312100 0.000000
52.356500 0.000000
52.400900 0.000000
52.445300 0.000000
52.489700 0.000000
52.534100 0.000000
52.578400 0.000000
52.622800 0.000000
52.667200 0.000000
52.711600 0.000000
52.756000 0.000000
52.800400 0.000000
52.844800 0.000000
52.889200 0.000000
52.933600 0.000000
52.978000 0.000000
53.022400 0.000000
53.066800 0.000000
53.111200 0.000000
53.155600 0.000000
53.200000 0.000000
53.244400 0.000000
53.288800 0.000000
53.333200 0.000000
53.377600 0.000000
53.422000 0.000000
53.466400 0.000000
53.510800 0.000000
53.555200 0.000000
53.599600 0.000000
53.644000 0.000000
53.688400 0.000000
53.732700 0.000000
53.777100 0.000000
53.821500 0.000000
53.865900 0.000000
53.910300 0.000000
53.954700 0.000000
53.999100 0.000000
54.043500 0.000000
54.087900 0.000000
e
