set title 'mp-22859 - Density of States'
set xlabel 'Energy (eV)'
set ylabel 'DOS (states/eV)'
set grid
set xrange [-10:10]
set yrange [0:71.040]
set xzeroaxis lt -1
set terminal png size 800,600
set output 'mp-22859_dos_gnuplot.png'
plot '-' using 1:2 with lines title 'DOS'
-13.154600 0.000000
-13.132300 0.000000
-13.109900 0.000000
-13.087500 0.000000
-13.065100 0.000000
-13.042700 0.000000
-13.020300 0.000000
-12.997900 0.000000
-12.975500 0.000000
-12.953200 0.000000
-12.930800 0.000000
-12.908400 0.000000
-12.886000 0.000000
-12.863600 0.000000
-12.841200 0.000000
-12.818800 0.000000
-12.796500 0.000000
-12.774100 0.000000
-12.751700 0.000000
-12.729300 0.000000
-12.706900 0.000000
-12.684500 0.000000
-12.662100 0.000000
-12.639700 0.000000
-12.617400 0.000000
-12.595000 0.000000
-12.572600 0.000000
-12.550200 0.000000
-12.527800 0.000000
-12.505400 0.000000
-12.483000 0.000000
-12.460600 0.000000
-12.438300 0.000000
-12.415900 0.000000
-12.393500 0.000000
-12.371100 0.000000
-12.348700 0.000000
-12.326300 0.000000
-12.303900 0.000000
-12.281600 0.000000
-12.259200 0.000000
-12.236800 0.000000
-12.214400 0.000000
-12.192000 0.000000
-12.169600 0.000000
-12.147200 0.000000
-12.124800 0.000000
-12.102500 0.000000
-12.080100 0.000000
-12.057700 0.000000
-12.035300 0.000000
-12.012900 0.000000
-11.990500 0.000000
-11.968100 0.000000
-11.945700 0.000000
-11.923400 0.000000
-11.901000 0.000000
-11.878600 0.000000
-11.856200 0.000000
-11.833800 0.000000
-11.811400 0.000000
-11.789000 0.000000
-11.766700 0.000000
-11.744300 0.000000
-11.721900 0.000000
-11.699500 0.000000
-11.677100 0.000000
-11.654700 0.000000
-11.632300 0.000000
-11.609900 0.000000
-11.587600 0.000000
-11.565200 0.000000
-11.542800 0.000000
-11.520400 0.000000
-11.498000 0.000000
-11.475600 0.000000
-11.453200 0.000000
-11.430800 0.000000
-11.408500 0.000000
-11.386100 0.000000
-11.363700 0.000000
-11.341300 0.000000
-11.318900 0.000000
-11.296500 0.000000
-11.274100 0.000000
-11.251800 0.000000
-11.229400 0.000000
-11.207000 0.000000
-11.184600 0.000000
-11.162200 0.000000
-11.139800 0.000000
-11.117400 0.002200
-11.095000 0.318100
-11.072700 1.168600
-11.050300 2.647200
-11.027900 2.803800
-11.005500 3.531000
-10.983100 4.480600
-10.960700 5.732500
-10.938300 7.479200
-10.915900 12.553300
-10.893600 17.377700
-10.871200 22.791500
-10.848800 6.199500
-10.826400 2.169200
-10.804000 0.624500
-10.781600 0.000000
-10.759200 0.618000
-10.736900 1.544500
-10.714500 2.772900
-10.692100 3.683300
-10.669700 6.597300
-10.647300 12.483700
-10.624900 19.738100
-10.602500 14.951300
-10.580100 9.529300
-10.557800 6.151600
-10.535400 4.476800
-10.513000 3.189600
-10.490600 1.369900
-10.468200 0.114700
-10.445800 0.000000
-10.423400 0.000000
-10.401000 0.000000
-10.378700 0.000000
-10.356300 0.000000
-10.333900 0.000000
-10.311500 0.000000
-10.289100 0.000000
-10.266700 0.000000
-10.244300 0.000000
-10.222000 0.000000
-10.199600 0.000000
-10.177200 0.000000
-10.154800 0.000000
-10.132400 0.000000
-10.110000 0.000000
-10.087600 0.000000
-10.065200 0.000000
-10.042900 0.000000
-10.020500 0.000000
-9.998100 0.000000
-9.975700 0.000000
-9.953300 0.000000
-9.930900 0.000000
-9.908500 0.000000
-9.886100 0.000000
-9.863800 0.000000
-9.841400 0.000000
-9.819000 0.000000
-9.796600 0.000000
-9.774200 0.000000
-9.751800 0.000000
-9.729400 0.000000
-9.707100 0.000000
-9.684700 0.000000
-9.662300 0.000000
-9.639900 0.000000
-9.617500 0.000000
-9.595100 0.000000
-9.572700 0.000000
-9.550300 0.000000
-9.528000 0.000000
-9.505600 0.000000
-9.483200 0.000000
-9.460800 0.000000
-9.438400 0.000000
-9.416000 0.000000
-9.393600 0.000000
-9.371200 0.000000
-9.348900 0.000000
-9.326500 0.000000
-9.304100 0.000000
-9.281700 0.000000
-9.259300 0.000000
-9.236900 0.000000
-9.214500 0.000000
-9.192100 0.000000
-9.169800 0.000000
-9.147400 0.000000
-9.125000 0.000000
-9.102600 0.000000
-9.080200 0.000000
-9.057800 0.000000
-9.035400 0.000000
-9.013100 0.000000
-8.990700 0.000000
-8.968300 0.000000
-8.945900 0.000000
-8.923500 0.000000
-8.901100 0.000000
-8.878700 0.000000
-8.856300 0.000000
-8.834000 0.000000
-8.811600 0.000000
-8.789200 0.000000
-8.766800 0.000000
-8.744400 0.000000
-8.722000 0.000000
-8.699600 0.000000
-8.677200 0.000000
-8.654900 0.000000
-8.632500 0.000000
-8.610100 0.000000
-8.587700 0.000000
-8.565300 0.000000
-8.542900 0.000000
-8.520500 0.000000
-8.498200 0.000000
-8.475800 0.000000
-8.453400 0.000000
-8.431000 0.000000
-8.408600 0.000000
-8.386200 0.000000
-8.363800 0.000000
-8.341400 0.000000
-8.319100 0.000000
-8.296700 0.000000
-8.274300 0.000000
-8.251900 0.000000
-8.229500 0.000000
-8.207100 0.000000
-8.184700 0.000000
-8.162300 0.000000
-8.140000 0.000000
-8.117600 0.000000
-8.095200 0.000000
-8.072800 0.000000
-8.050400 0.000000
-8.028000 0.000000
-8.005600 0.000000
-7.983300 0.000000
-7.960900 0.000000
-7.938500 0.000000
-7.916100 0.000000
-7.893700 0.000000
-7.871300 0.000000
-7.848900 0.000000
-7.826500 0.000000
-7.804200 0.000000
-7.781800 0.000000
-7.759400 0.000000
-7.737000 0.000000
-7.714600 0.000000
-7.692200 0.000000
-7.669800 0.000000
-7.647400 0.000000
-7.625100 0.000000
-7.602700 0.000000
-7.580300 0.000000
-7.557900 0.000000
-7.535500 0.000000
-7.513100 0.000000
-7.490700 0.000000
-7.468400 0.000000
-7.446000 0.000000
-7.423600 0.000000
-7.401200 0.000000
-7.378800 0.000000
-7.356400 0.000000
-7.334000 0.000000
-7.311600 0.000000
-7.289300 0.000000
-7.266900 0.000000
-7.244500 0.000000
-7.222100 0.000000
-7.199700 0.000000
-7.177300 0.000000
-7.154900 0.000000
-7.132500 0.000000
-7.110200 0.000000
-7.087800 0.000000
-7.065400 0.000000
-7.043000 0.000000
-7.020600 0.000000
-6.998200 0.000000
-6.975800 0.000000
-6.953500 0.000000
-6.931100 0.000000
-6.908700 0.000000
-6.886300 0.000000
-6.863900 0.000000
-6.841500 0.000000
-6.819100 0.000000
-6.796700 0.000000
-6.774400 0.000000
-6.752000 0.000000
-6.729600 0.000000
-6.707200 0.000000
-6.684800 0.000000
-6.662400 0.000000
-6.640000 0.000000
-6.617600 0.000000
-6.595300 0.000000
-6.572900 0.000000
-6.550500 0.000000
-6.528100 0.000000
-6.505700 0.000000
-6.483300 0.000000
-6.460900 0.000000
-6.438600 0.000000
-6.416200 0.000000
-6.393800 0.000000
-6.371400 0.000000
-6.349000 0.000000
-6.326600 0.000000
-6.304200 0.000000
-6.281800 0.000000
-6.259500 0.000000
-6.237100 0.000000
-6.214700 0.000000
-6.192300 0.000000
-6.169900 13.273900
-6.147500 34.195600
-6.125100 25.123200
-6.102700 29.590800
-6.080400 0.000000
-6.058000 0.000000
-6.035600 0.000000
-6.013200 0.000000
-5.990800 0.000000
-5.968400 0.000000
-5.946000 0.000000
-5.923700 0.000000
-5.901300 0.000000
-5.878900 0.000000
-5.856500 0.000000
-5.834100 0.000000
-5.811700 0.000000
-5.789300 0.000000
-5.766900 0.000000
-5.744600 0.000000
-5.722200 0.000000
-5.699800 0.000000
-5.677400 0.000000
-5.655000 0.000000
-5.632600 0.000000
-5.610200 0.000000
-5.587800 0.000000
-5.565500 0.000000
-5.543100 0.000000
-5.520700 0.000000
-5.498300 0.000000
-5.475900 0.000000
-5.453500 0.000000
-5.431100 0.000000
-5.408800 0.000000
-5.386400 0.000000
-5.364000 37.719100
-5.341600 49.742700
-5.319200 57.556000
-5.296800 0.000000
-5.274400 0.000000
-5.252000 0.000000
-5.229700 0.000000
-5.207300 0.000000
-5.184900 0.000000
-5.162500 0.000000
-5.140100 0.000000
-5.117700 0.000000
-5.095300 0.000000
-5.072900 0.000000
-5.050600 0.000000
-5.028200 0.000000
-5.005800 0.000000
-4.983400 0.000000
-4.961000 0.000000
-4.938600 0.000000
-4.916200 0.000000
-4.893900 0.000000
-4.871500 0.000000
-4.849100 0.000000
-4.826700 0.000000
-4.804300 28.050700
-4.781900 45.281400
-4.759500 55.322400
-4.737100 35.377900
-4.714800 0.000000
-4.692400 0.000000
-4.670000 0.000000
-4.647600 29.365600
-4.625200 61.896600
-4.602800 60.314300
-4.580400 27.505800
-4.558000 6.267900
-4.535700 38.023500
-4.513300 46.291500
-4.490900 13.140100
-4.468500 47.545600
-4.446100 64.582100
-4.423700 20.358500
-4.401300 11.299100
-4.379000 6.365000
-4.356600 4.067600
-4.334200 1.703900
-4.311800 0.534800
-4.289400 0.182900
-4.267000 0.019500
-4.244600 0.000000
-4.222200 0.000000
-4.199900 0.000000
-4.177500 0.000000
-4.155100 0.000000
-4.132700 0.000000
-4.110300 0.000000
-4.087900 0.000000
-4.065500 0.000000
-4.043100 0.000000
-4.020800 0.000000
-3.998400 0.000000
-3.976000 0.000000
-3.953600 0.000000
-3.931200 0.000000
-3.908800 0.000000
-3.886400 0.000000
-3.864100 0.000000
-3.841700 0.000000
-3.819300 0.000000
-3.796900 0.000000
-3.774500 0.000000
-3.752100 0.000000
-3.729700 0.000000
-3.707300 0.000000
-3.685000 0.000000
-3.662600 0.000000
-3.640200 0.000000
-3.617800 0.000000
-3.595400 0.000000
-3.573000 0.000000
-3.550600 0.000000
-3.528200 0.000000
-3.505900 0.000000
-3.483500 0.000000
-3.461100 0.000000
-3.438700 0.000000
-3.416300 0.000000
-3.393900 0.000000
-3.371500 0.000000
-3.349100 0.000000
-3.326800 0.000000
-3.304400 0.000000
-3.282000 0.000000
-3.259600 0.527600
-3.237200 1.180600
-3.214800 1.808000
-3.192400 2.798500
-3.170100 4.313600
-3.147700 3.883300
-3.125300 4.261900
-3.102900 4.535600
-3.080500 4.693900
-3.058100 4.745500
-3.035700 5.150100
-3.013300 4.799500
-2.991000 4.683500
-2.968600 4.440800
-2.946200 4.215200
-2.923800 4.006800
-2.901400 3.815600
-2.879000 3.641600
-2.856600 3.484800
-2.834200 4.766600
-2.811900 2.908900
-2.789500 2.546200
-2.767100 2.206700
-2.744700 1.878600
-2.722300 1.562000
-2.699900 1.265000
-2.677500 0.486300
-2.655200 0.420000
-2.632800 0.452800
-2.610400 0.522200
-2.588000 0.628200
-2.565600 0.770700
-2.543200 0.949900
-2.520800 1.165500
-2.498400 1.417800
-2.476100 1.891600
-2.453700 2.654600
-2.431300 3.232300
-2.408900 3.681800
-2.386500 3.997900
-2.364100 4.180400
-2.341700 4.528000
-2.319300 4.424900
-2.297000 4.470600
-2.274600 4.519200
-2.252200 4.453500
-2.229800 4.037800
-2.207400 3.658500
-2.185000 3.220900
-2.162600 2.985000
-2.140300 2.769100
-2.117900 2.568200
-2.095500 2.382400
-2.073100 2.211600
-2.050700 2.055800
-2.028300 1.915000
-2.005900 1.789200
-1.983500 2.225900
-1.961200 2.388200
-1.938800 1.241800
-1.916400 1.093100
-1.894000 0.956300
-1.871600 0.831500
-1.849200 0.718600
-1.826800 0.617400
-1.804400 0.525700
-1.782100 0.443000
-1.759700 0.369300
-1.737300 0.304600
-1.714900 0.251200
-1.692500 0.216800
-1.670100 0.184800
-1.647700 0.270900
-1.625400 0.179800
-1.603000 0.013400
-1.580600 0.019900
-1.558200 0.267900
-1.535800 0.365600
-1.513400 0.470300
-1.491000 0.585400
-1.468600 0.715500
-1.446300 0.860800
-1.423900 1.021300
-1.401500 1.189200
-1.379100 1.323600
-1.356700 1.459300
-1.334300 1.596300
-1.311900 1.734700
-1.289500 1.877100
-1.267200 1.777400
-1.244800 1.911000
-1.222400 2.055200
-1.200000 2.436600
-1.177600 2.622600
-1.155200 2.798600
-1.132800 3.189700
-1.110500 3.413600
-1.088100 3.640400
-1.065700 3.739400
-1.043300 3.941500
-1.020900 4.157700
-0.998500 4.393400
-0.976100 4.667500
-0.953700 4.652700
-0.931400 3.927000
-0.909000 4.006800
-0.886600 4.023900
-0.864200 4.007500
-0.841800 3.963900
-0.819400 3.818300
-0.797000 3.846500
-0.774600 3.784200
-0.752300 3.681100
-0.729900 3.603200
-0.707500 3.476700
-0.685100 3.419500
-0.662700 3.715100
-0.640300 4.093700
-0.617900 3.864200
-0.595600 4.095400
-0.573200 4.318800
-0.550800 4.531900
-0.528400 4.734500
-0.506000 4.927800
-0.483600 5.128700
-0.461200 5.343800
-0.438800 4.914400
-0.416500 4.923500
-0.394100 4.678000
-0.371700 4.713100
-0.349300 4.910300
-0.326900 5.119000
-0.304500 5.311600
-0.282100 4.812000
-0.259700 4.441200
-0.237400 3.798500
-0.215000 3.797600
-0.192600 3.880200
-0.170200 4.010300
-0.147800 3.925500
-0.125400 3.964200
-0.103000 4.052500
-0.080700 4.184300
-0.058300 4.314900
-0.035900 4.454000
-0.013500 4.673400
0.008900 5.020700
0.031300 5.941300
0.053700 7.185900
0.076100 9.149100
0.098400 10.217900
0.120800 12.278700
0.143200 13.732800
0.165600 13.110000
0.188000 12.389600
0.210400 10.605500
0.232800 8.606900
0.255200 10.069400
0.277500 9.539700
0.299900 8.204700
0.322300 7.113700
0.344700 7.882000
0.367100 9.484600
0.389500 9.931100
0.411900 9.241600
0.434200 9.060800
0.456600 7.407600
0.479000 5.970000
0.501400 2.450500
0.523800 0.233600
0.546200 0.000000
0.568600 0.000000
0.591000 0.000000
0.613300 0.000000
0.635700 0.000000
0.658100 0.000000
0.680500 0.000000
0.702900 0.000000
0.725300 0.000000
0.747700 0.000000
0.770100 0.000000
0.792400 0.000000
0.814800 0.000000
0.837200 0.000000
0.859600 0.000000
0.882000 0.000000
0.904400 0.000000
0.926800 0.000000
0.949100 0.000000
0.971500 0.000000
0.993900 0.000000
1.016300 0.000000
1.038700 0.000000
1.061100 0.000000
1.083500 0.000000
1.105900 0.000000
1.128200 0.000000
1.150600 0.000000
1.173000 0.000000
1.195400 0.000000
1.217800 0.000000
1.240200 0.000000
1.262600 0.000000
1.285000 0.000000
1.307300 0.000000
1.329700 0.000000
1.352100 0.000000
1.374500 0.000000
1.396900 0.000000
1.419300 0.000000
1.441700 0.000000
1.464000 0.000000
1.486400 0.000000
1.508800 0.000000
1.531200 0.000000
1.553600 0.000000
1.576000 0.000000
1.598400 0.000000
1.620800 0.000000
1.643100 0.000000
1.665500 0.000000
1.687900 0.000000
1.710300 0.000000
1.732700 0.000000
1.755100 0.000000
1.777500 0.000000
1.799900 0.000000
1.822200 0.000000
1.844600 0.000000
1.867000 0.000000
1.889400 0.000000
1.911800 0.000000
1.934200 0.000000
1.956600 0.000000
1.978900 0.000000
2.001300 0.000000
2.023700 0.000000
2.046100 0.000000
2.068500 0.000000
2.090900 0.000000
2.113300 0.000000
2.135700 0.000000
2.158000 0.000000
2.180400 0.000000
2.202800 0.000000
2.225200 0.000000
2.247600 0.000000
2.270000 0.000000
2.292400 0.000000
2.314800 0.000000
2.337100 0.000000
2.359500 0.000000
2.381900 0.000000
2.404300 0.000000
2.426700 0.036300
2.449100 0.099300
2.471500 0.165600
2.493900 0.235300
2.516200 0.456800
2.538600 0.608800
2.561000 0.774000
2.583400 0.952400
2.605800 1.143700
2.628200 1.337400
2.650600 1.528900
2.672900 1.707700
2.695300 1.861800
2.717700 1.990000
2.740100 2.092300
2.762500 2.173100
2.784900 2.237400
2.807300 2.285100
2.829700 2.316300
2.852000 2.330900
2.874400 2.317300
2.896800 2.262900
2.919200 2.210500
2.941600 2.160000
2.964000 2.111500
2.986400 2.064900
3.008800 2.020300
3.031100 2.024800
3.053500 2.048100
3.075900 2.130400
3.098300 2.123600
3.120700 2.111100
3.143100 2.093000
3.165500 2.069200
3.187800 2.039800
3.210200 2.004800
3.232600 1.964200
3.255000 1.917900
3.277400 1.866000
3.299800 1.808400
3.322200 1.745300
3.344600 2.756000
3.366900 2.523200
3.389300 2.295800
3.411700 2.073700
3.434100 1.857000
3.456500 1.645600
3.478900 1.439600
3.501300 1.238900
3.523700 1.043500
3.546000 0.853500
3.568400 0.668800
3.590800 0.527400
3.613200 0.423000
3.635600 0.327000
3.658000 0.239300
3.680400 0.160000
3.702700 0.090100
3.725100 0.035800
3.747500 0.001400
3.769900 0.000200
3.792300 0.005300
3.814700 0.017800
3.837100 0.037600
3.859500 0.064600
3.881800 0.099000
3.904200 0.140700
3.926600 0.189700
3.949000 0.245900
3.971400 0.309500
3.993800 0.380300
4.016200 0.518300
4.038600 0.655900
4.060900 0.791700
4.083300 0.941900
4.105700 1.093400
4.128100 1.246300
4.150500 1.400400
4.172900 1.555900
4.195300 1.712600
4.217600 1.870700
4.240000 2.030100
4.262400 2.145600
4.284800 2.217800
4.307200 2.270100
4.329600 2.302400
4.352000 2.268300
4.374400 2.219400
4.396700 2.212100
4.419100 3.338300
4.441500 2.690500
4.463900 2.642300
4.486300 2.625300
4.508700 2.595200
4.531100 2.552000
4.553500 2.495700
4.575800 2.426300
4.598200 2.013200
4.620600 1.929100
4.643000 1.895700
4.665400 1.763100
4.687800 1.655900
4.710200 1.595900
4.732500 1.541300
4.754900 1.502500
4.777300 1.480000
4.799700 1.473800
4.822100 1.483800
4.844500 1.510100
4.866900 1.552700
4.889300 1.611500
4.911600 1.686600
4.934000 1.878800
4.956400 2.061900
4.978800 2.226200
5.001200 2.371900
5.023600 2.498800
5.046000 2.607200
5.068400 3.889000
5.090700 3.561800
5.113100 3.634100
5.135500 3.403900
5.157900 3.521100
5.180300 3.606000
5.202700 3.658600
5.225100 3.678900
5.247400 2.781000
5.269800 2.687800
5.292200 2.536700
5.314600 2.414300
5.337000 2.320400
5.359400 2.253600
5.381800 2.193900
5.404200 2.134400
5.426500 2.075300
5.448900 2.016500
5.471300 1.958500
5.493700 1.902000
5.516100 1.847500
5.538500 1.794000
5.560900 1.741500
5.583300 1.690000
5.605600 1.642300
5.628000 1.628600
5.650400 1.628900
5.672800 1.663700
5.695200 1.919200
5.717600 1.980700
5.740000 2.005000
5.762300 2.040300
5.784700 2.075600
5.807100 2.067200
5.829500 2.075400
5.851900 2.089800
5.874300 2.110500
5.896700 2.137400
5.919100 2.203100
5.941400 2.379900
5.963800 2.476200
5.986200 1.564200
6.008600 1.609600
6.031000 1.657300
6.053400 1.707100
6.075800 1.759100
6.098200 1.984500
6.120500 10.532300
6.142900 2.599400
6.165300 2.706300
6.187700 2.801100
6.210100 2.884000
6.232500 2.954900
6.254900 3.013800
6.277200 3.060700
6.299600 2.932700
6.322000 2.467600
6.344400 2.407000
6.366800 2.399200
6.389200 2.435100
6.411600 2.514700
6.434000 2.638100
6.456300 2.805300
6.478700 3.706100
6.501100 3.805200
6.523500 3.442800
6.545900 2.651400
6.568300 2.563800
6.590700 2.605600
6.613100 2.698800
6.635400 2.813300
6.657800 2.949200
6.680200 3.092500
6.702600 3.141400
6.725000 3.192900
6.747400 3.267700
6.769800 3.369000
6.792100 3.497200
6.814500 4.070300
6.836900 2.983100
6.859300 3.043300
6.881700 3.112600
6.904100 3.185000
6.926500 3.260500
6.948900 3.339100
6.971200 3.420700
6.993600 3.444700
7.016000 3.646600
7.038400 3.916400
7.060800 4.914100
7.083200 4.639300
7.105600 4.489000
7.128000 4.274100
7.150300 3.575400
7.172700 3.570300
7.195100 3.589000
7.217500 3.594900
7.239900 3.596500
7.262300 3.593900
7.284700 3.592800
7.307000 3.619300
7.329400 3.683700
7.351800 3.779300
7.374200 3.906300
7.396600 4.064700
7.419000 4.181300
7.441400 4.273400
7.463800 4.370400
7.486100 4.571300
7.508500 4.796100
7.530900 5.038100
7.553300 4.984300
7.575700 4.579100
7.598100 3.898800
7.620500 3.621300
7.642900 3.346900
7.665200 3.075700
7.687600 2.807800
7.710000 2.543000
7.732400 2.377000
7.754800 2.020200
7.777200 1.914100
7.799600 1.828100
7.821900 1.879500
7.844300 1.359600
7.866700 1.371300
7.889100 1.385200
7.911500 1.401300
7.933900 1.419500
7.956300 1.439900
7.978700 1.462500
8.001000 1.487300
8.023400 1.514200
8.045800 1.543400
8.068200 1.659300
8.090600 1.687700
8.113000 1.717000
8.135400 1.747100
8.157800 1.778000
8.180100 1.815900
8.202500 1.858200
8.224900 1.902600
8.247300 1.948400
8.269700 1.994300
8.292100 2.254500
8.314500 2.478500
8.336900 2.483100
8.359200 2.594200
8.381600 2.704900
8.404000 2.727200
8.426400 3.078500
8.448800 3.570100
8.471200 3.697200
8.493600 3.563100
8.515900 3.226800
8.538300 3.047700
8.560700 3.000000
8.583100 3.331600
8.605500 3.076600
8.627900 2.895100
8.650300 2.791500
8.672700 2.721500
8.695000 2.646600
8.717400 2.566500
8.739800 2.481200
8.762200 2.282600
8.784600 2.180700
8.807000 2.106800
8.829400 2.028000
8.851800 1.947700
8.874100 1.868800
8.896500 1.789100
8.918900 1.708400
8.941300 1.666100
8.963700 1.644400
8.986100 1.636300
9.008500 1.641900
9.030800 1.663500
9.053200 1.703300
9.075600 1.759900
9.098000 1.828200
9.120400 1.900600
9.142800 1.977300
9.165200 2.058100
9.187600 2.293300
9.209900 2.546500
9.232300 2.814000
9.254700 3.101000
9.277100 3.407000
9.299500 3.730100
9.321900 3.933600
9.344300 4.084300
9.366700 4.191400
9.389000 4.292100
9.411400 4.386100
9.433800 4.461200
9.456200 4.526000
9.478600 4.585100
9.501000 4.409600
9.523400 4.318400
9.545700 4.213800
9.568100 3.524600
9.590500 3.158900
9.612900 3.308500
9.635300 3.471100
9.657700 3.497800
9.680100 3.529000
9.702500 3.563400
9.724800 3.601000
9.747200 3.641600
9.769600 3.751900
9.792000 3.860300
9.814400 3.939700
9.836800 4.084600
9.859200 4.066400
9.881600 4.009800
9.903900 3.915100
9.926300 3.782100
9.948700 3.631700
9.971100 3.452200
9.993500 3.235900
10.015900 2.797800
10.038300 2.612100
10.060600 2.512100
10.083000 2.484000
10.105400 2.497900
10.127800 2.534600
10.150200 2.595600
10.172600 2.688600
10.195000 2.821000
10.217400 2.976000
10.239700 3.500200
10.262100 3.524300
10.284500 3.885200
10.306900 3.762100
10.329300 3.629100
10.351700 3.486300
10.374100 3.360900
10.396500 3.328700
10.418800 3.299600
10.441200 3.274800
10.463600 3.425900
10.486000 3.357200
10.508400 3.299900
10.530800 3.253800
10.553200 3.395500
10.575500 3.699800
10.597900 4.158700
10.620300 4.764500
10.642700 4.865400
10.665100 4.842100
10.687500 4.855700
10.709900 4.878800
10.732300 4.887800
10.754600 4.957800
10.777000 5.022500
10.799400 5.249700
10.821800 5.386200
10.844200 5.475600
10.866600 5.582000
10.889000 5.755800
10.911400 5.960200
10.933700 6.007300
10.956100 8.146300
10.978500 5.984000
11.000900 4.990900
11.023300 4.923400
11.045700 5.103600
11.068100 5.092000
11.090400 5.082200
11.112800 5.074600
11.135200 5.250100
11.157600 5.161300
11.180000 5.082700
11.202400 5.001900
11.224800 5.149000
11.247200 5.491600
11.269500 5.787900
11.291900 6.435000
11.314300 7.493800
11.336700 7.062100
11.359100 6.591900
11.381500 6.213400
11.403900 5.807700
11.426300 5.371600
11.448600 4.948400
11.471000 4.413000
11.493400 3.310100
11.515800 3.201900
11.538200 3.113800
11.560600 3.058400
11.583000 3.030300
11.605300 3.117500
11.627700 3.225800
11.650100 3.351100
11.672500 3.497800
11.694900 3.657100
11.717300 3.829100
11.739700 4.030400
11.762100 4.306100
11.784400 4.906600
11.806800 4.702100
11.829200 4.398100
11.851600 4.154600
11.874000 3.921400
11.896400 3.698500
11.918800 3.486000
11.941200 3.283700
11.963500 3.091800
11.985900 2.929200
12.008300 2.726000
12.030700 3.110500
12.053100 3.675000
12.075500 4.493300
12.097900 4.677500
12.120200 4.456800
12.142600 4.428600
12.165000 4.084600
12.187400 3.960300
12.209800 3.812300
12.232200 3.640800
12.254600 3.445800
12.277000 3.227200
12.299300 2.985100
12.321700 2.721400
12.344100 2.455200
12.366500 2.382100
12.388900 2.311700
12.411300 2.246800
12.433700 2.188000
12.456100 2.135200
12.478400 2.088000
12.500800 2.046500
12.523200 2.016500
12.545600 2.069700
12.568000 2.057000
12.590400 1.811800
12.612800 1.542200
12.635100 4.043800
12.657500 4.434500
12.679900 4.817600
12.702300 5.078100
12.724700 5.170700
12.747100 5.253500
12.769500 5.321400
12.791900 5.405200
12.814200 5.489700
12.836600 4.703900
12.859000 4.066600
12.881400 3.636100
12.903800 3.219100
12.926200 3.180000
12.948600 3.175800
12.971000 3.206600
12.993300 3.272600
13.015700 3.633700
13.038100 4.687600
13.060500 4.761800
13.082900 4.828000
13.105300 4.886200
13.127700 4.910700
13.150000 4.916400
13.172400 4.895200
13.194800 4.840400
13.217200 4.770800
13.239600 4.686600
13.262000 4.643400
13.284400 4.870700
13.306800 4.189600
13.329100 3.909900
13.351500 3.654800
13.373900 3.535500
13.396300 3.247100
13.418700 3.024900
13.441100 3.007200
13.463500 2.721100
13.485900 2.761200
13.508200 3.015200
13.530600 3.357400
13.553000 4.275600
13.575400 5.355200
13.597800 5.702700
13.620200 6.438700
13.642600 7.126800
13.664900 7.240800
13.687300 6.564300
13.709700 5.243300
13.732100 4.041500
13.754500 4.447600
13.776900 4.296300
13.799300 4.085200
13.821700 3.858400
13.844000 3.820600
13.866400 3.640800
13.888800 3.736800
13.911200 3.488600
13.933600 3.237400
13.956000 3.315700
13.978400 3.471400
14.000800 3.705400
14.023100 3.933300
14.045500 4.134800
14.067900 4.310000
14.090300 4.459800
14.112700 4.518700
14.135100 4.574500
14.157500 4.628100
14.179900 4.685300
14.202200 5.039100
14.224600 4.985900
14.247000 4.899400
14.269400 4.401400
14.291800 4.597500
14.314200 4.823700
14.336600 4.762900
14.358900 4.989500
14.381300 5.246400
14.403700 5.533500
14.426100 5.879000
14.448500 5.806900
14.470900 5.696300
14.493300 5.688900
14.515700 5.820800
14.538000 5.827700
14.560400 5.429600
14.582800 5.404300
14.605200 5.362500
14.627600 5.304100
14.650000 5.230100
14.672400 5.158700
14.694800 5.092300
14.717100 5.211000
14.739500 4.895400
14.761900 4.856100
14.784300 4.769200
14.806700 4.200400
14.829100 4.133200
14.851500 4.059000
14.873800 3.980600
14.896200 3.906400
14.918600 3.823900
14.941000 5.222600
14.963400 5.730300
14.985800 5.424600
15.008200 5.655800
15.030600 5.926600
15.052900 6.108000
15.075300 5.723900
15.097700 5.726200
15.120100 5.695700
15.142500 5.632300
15.164900 5.570900
15.187300 5.522200
15.209700 5.406000
15.232000 5.213400
15.254400 5.015800
15.276800 4.946500
15.299200 4.932100
15.321600 4.646300
15.344000 4.281900
15.366400 4.123400
15.388700 4.041500
15.411100 3.996200
15.433500 4.111100
15.455900 4.380000
15.478300 4.700400
15.500700 5.072100
15.523100 4.964300
15.545500 5.358900
15.567800 5.580600
15.590200 5.523000
15.612600 5.601200
15.635000 5.635200
15.657400 5.759700
15.679800 5.810200
15.702200 5.579400
15.724600 5.057900
15.746900 4.786100
15.769300 4.421900
15.791700 4.360200
15.814100 4.392100
15.836500 4.786800
15.858900 5.179800
15.881300 5.609800
15.903600 5.967200
15.926000 6.267800
15.948400 6.617500
15.970800 7.035200
15.993200 6.303300
16.015600 6.304700
16.038000 5.908000
16.060400 5.650600
16.082700 5.517900
16.105100 4.881300
16.127500 4.455500
16.149900 4.087200
16.172300 3.774400
16.194700 3.256500
16.217100 3.086600
16.239500 2.960800
16.261800 2.879000
16.284200 2.866500
16.306600 2.902600
16.329000 2.981800
16.351400 3.235400
16.373800 3.296400
16.396200 3.553100
16.418500 3.809500
16.440900 4.065600
16.463300 4.322500
16.485700 4.577800
16.508100 4.819500
16.530500 5.037400
16.552900 5.054600
16.575300 4.946000
16.597600 4.856000
16.620000 4.805100
16.642400 4.800600
16.664800 4.841900
16.687200 4.702800
16.709600 4.859900
16.732000 4.879600
16.754400 4.938100
16.776700 5.042800
16.799100 4.703300
16.821500 4.955100
16.843900 5.369200
16.866300 5.453500
16.888700 4.967000
16.911100 4.417900
16.933400 4.118900
16.955800 4.296600
16.978200 4.590100
17.000600 4.906300
17.023000 5.454800
17.045400 6.139900
17.067800 11.513800
17.090200 11.908300
17.112500 6.107800
17.134900 5.747700
17.157300 5.352800
17.179700 4.931500
17.202100 4.539600
17.224500 4.408800
17.246900 4.943400
17.269300 4.808400
17.291600 4.591900
17.314000 4.486900
17.336400 4.551800
17.358800 4.661300
17.381200 4.819100
17.403600 5.026300
17.426000 5.277300
17.448300 5.808500
17.470700 4.926000
17.493100 5.014400
17.515500 5.196400
17.537900 5.399400
17.560300 5.624400
17.582700 5.859200
17.605100 6.093300
17.627400 5.470500
17.649800 5.417400
17.672200 5.791300
17.694600 5.892700
17.717000 5.982700
17.739400 6.060300
17.761800 6.121400
17.784200 6.165600
17.806500 6.121500
17.828900 6.058100
17.851300 5.436600
17.873700 5.414100
17.896100 5.485500
17.918500 5.770200
17.940900 5.641900
17.963200 5.533100
17.985600 4.843400
18.008000 4.564500
18.030400 4.411400
18.052800 4.284400
18.075200 4.168900
18.097600 4.058700
18.120000 3.949000
18.142300 3.848100
18.164700 3.878700
18.187100 3.919400
18.209500 4.003100
18.231900 4.128900
18.254300 4.285000
18.276700 4.462100
18.299100 4.649800
18.321400 4.848000
18.343800 4.488400
18.366200 4.533800
18.388600 4.652600
18.411000 5.108100
18.433400 5.293600
18.455800 5.504500
18.478100 6.107600
18.500500 5.436900
18.522900 5.180200
18.545300 5.113900
18.567700 5.190000
18.590100 5.282600
18.612500 5.259900
18.634900 5.130300
18.657200 5.164300
18.679600 5.206900
18.702000 5.260500
18.724400 5.310700
18.746800 5.230300
18.769200 5.116300
18.791600 4.972500
18.814000 4.892400
18.836300 4.945500
18.858700 5.300100
18.881100 5.599300
18.903500 5.851400
18.925900 5.785000
18.948300 5.613800
18.970700 5.420500
18.993000 5.191200
19.015400 4.928100
19.037800 4.261300
19.060200 4.020900
19.082600 4.052100
19.105000 4.620000
19.127400 5.062500
19.149800 5.568400
19.172100 6.075300
19.194500 6.405200
19.216900 6.557500
19.239300 6.972300
19.261700 6.931300
19.284100 6.917200
19.306500 6.898000
19.328900 6.816800
19.351200 6.334100
19.373600 5.976600
19.396000 5.659700
19.418400 5.470700
19.440800 5.033800
19.463200 4.910800
19.485600 4.618600
19.507900 4.370500
19.530300 4.165000
19.552700 4.002200
19.575100 3.882000
19.597500 3.814000
19.619900 3.822500
19.642300 7.373400
19.664700 7.134900
19.687000 6.020500
19.709400 5.772500
19.731800 5.603200
19.754200 5.468800
19.776600 5.392100
19.799000 5.323300
19.821400 5.301300
19.843800 6.026300
19.866100 9.435700
19.888500 13.475400
19.910900 9.616200
19.933300 8.845100
19.955700 7.816000
19.978100 6.662400
20.000500 6.119200
20.022900 5.944100
20.045200 5.906400
20.067600 5.953400
20.090000 6.084800
20.112400 6.152100
20.134800 6.374500
20.157200 5.941700
20.179600 5.539300
20.201900 5.183500
20.224300 5.175500
20.246700 4.787800
20.269100 4.759500
20.291500 4.769100
20.313900 4.816400
20.336300 4.901500
20.358700 5.056800
20.381000 5.240200
20.403400 5.418300
20.425800 5.834400
20.448200 5.826800
20.470600 5.798900
20.493000 5.684300
20.515400 5.349000
20.537800 4.818000
20.560100 4.484400
20.582500 4.223400
20.604900 4.314500
20.627300 4.273900
20.649700 4.212100
20.672100 4.153400
20.694500 4.177400
20.716800 4.231600
20.739200 4.627500
20.761600 5.090600
20.784000 5.086900
20.806400 5.222100
20.828800 5.318200
20.851200 5.375200
20.873600 5.441200
20.895900 5.635100
20.918300 5.757200
20.940700 5.915400
20.963100 4.200000
20.985500 5.390300
21.007900 4.753900
21.030300 4.864600
21.052700 5.065500
21.075000 5.353700
21.097400 5.729200
21.119800 6.207500
21.142200 6.624500
21.164600 6.991500
21.187000 6.986400
21.209400 6.827000
21.231700 6.962700
21.254100 7.098900
21.276500 7.242500
21.298900 7.155900
21.321300 7.231900
21.343700 7.390400
21.366100 8.014400
21.388500 8.028500
21.410800 7.830200
21.433200 7.674900
21.455600 7.630700
21.478000 7.662300
21.500400 7.589200
21.522800 7.464800
21.545200 7.048400
21.567600 6.511200
21.589900 6.428400
21.612300 5.930900
21.634700 6.068800
21.657100 6.127300
21.679500 6.106300
21.701900 6.005700
21.724300 5.600600
21.746600 5.871800
21.769000 7.549400
21.791400 7.295800
21.813800 6.816500
21.836200 6.135500
21.858600 5.355800
21.881000 5.021400
21.903400 4.637400
21.925700 4.343800
21.948100 3.565900
21.970500 3.575300
21.992900 3.591300
22.015300 3.610200
22.037700 3.631700
22.060100 3.659000
22.082500 3.728100
22.104800 3.912200
22.127200 3.859900
22.149600 3.845400
22.172000 3.876600
22.194400 4.020800
22.216800 4.125700
22.239200 4.104800
22.261500 5.010600
22.283900 5.446500
22.306300 5.835200
22.328700 6.176400
22.351100 6.734400
22.373500 6.838100
22.395900 5.910400
22.418300 5.444900
22.440600 5.002700
22.463000 4.880900
22.485400 5.085900
22.507800 5.324800
22.530200 5.718300
22.552600 6.167200
22.575000 6.889600
22.597400 7.608900
22.619700 8.102700
22.642100 8.061200
22.664500 7.661200
22.686900 7.065900
22.709300 7.306700
22.731700 7.011400
22.754100 6.307300
22.776400 6.048700
22.798800 5.813300
22.821200 5.731200
22.843600 5.658800
22.866000 5.630400
22.888400 5.669000
22.910800 5.922700
22.933200 5.841600
22.955500 5.893700
22.977900 5.903300
23.000300 5.899000
23.022700 5.767700
23.045100 5.677000
23.067500 6.127300
23.089900 6.512600
23.112300 6.263600
23.134600 7.074300
23.157000 7.640900
23.179400 8.190700
23.201800 7.965100
23.224200 7.681000
23.246600 7.219800
23.269000 6.921700
23.291300 6.764800
23.313700 5.713700
23.336100 5.473100
23.358500 5.834000
23.380900 6.163400
23.403300 5.933300
23.425700 6.198400
23.448100 6.538100
23.470400 6.709100
23.492800 6.899700
23.515200 7.123500
23.537600 7.381900
23.560000 7.662600
23.582400 8.060600
23.604800 8.198000
23.627200 6.907800
23.649500 7.233800
23.671900 7.953600
23.694300 8.797700
23.716700 9.232700
23.739100 7.690400
23.761500 7.180600
23.783900 7.294000
23.806200 7.475900
23.828600 7.035000
23.851000 7.457100
23.873400 6.921400
23.895800 7.081100
23.918200 7.191900
23.940600 7.344100
23.963000 7.345900
23.985300 7.296800
24.007700 7.102000
24.030100 7.989600
24.052500 6.691300
24.074900 6.108300
24.097300 5.810900
24.119700 5.557500
24.142100 5.992300
24.164400 5.085400
24.186800 4.468800
24.209200 4.203700
24.231600 4.759200
24.254000 8.033100
24.276400 7.215600
24.298800 7.508200
24.321100 7.808300
24.343500 8.162700
24.365900 10.185100
24.388300 8.724100
24.410700 5.358400
24.433100 5.226900
24.455500 5.323600
24.477900 5.645300
24.500200 6.001400
24.522600 7.199400
24.545000 7.892500
24.567400 8.120900
24.589800 7.026200
24.612200 6.533600
24.634600 6.337000
24.657000 6.143200
24.679300 6.138200
24.701700 6.181700
24.724100 6.254500
24.746500 6.507200
24.768900 6.882600
24.791300 7.002300
24.813700 7.257800
24.836000 8.711400
24.858400 11.950200
24.880800 7.128500
24.903200 5.310800
24.925600 5.497300
24.948000 5.401200
24.970400 5.499900
24.992800 5.579200
25.015100 5.539800
25.037500 5.343900
25.059900 5.039400
25.082300 4.987300
25.104700 4.926300
25.127100 4.854500
25.149500 4.766000
25.171900 4.672200
25.194200 4.615500
25.216600 4.542500
25.239000 4.473400
25.261400 4.225500
25.283800 4.160700
25.306200 4.057300
25.328600 3.914400
25.350900 3.794500
25.373300 3.709300
25.395700 3.582300
25.418100 2.874100
25.440500 2.888100
25.462900 3.352200
25.485300 3.553000
25.507700 3.791400
25.530000 4.100000
25.552400 4.101400
25.574800 4.253200
25.597200 4.238900
25.619600 4.214600
25.642000 4.153000
25.664400 4.189500
25.686800 4.143800
25.709100 4.098100
25.731500 4.049900
25.753900 3.967400
25.776300 3.952200
25.798700 3.986600
25.821100 4.117400
25.843500 4.271400
25.865900 4.448900
25.888200 4.649700
25.910600 4.957800
25.933000 5.202800
25.955400 5.401100
25.977800 5.548300
26.000200 5.615800
26.022600 5.742600
26.044900 5.747800
26.067300 5.716100
26.089700 5.523500
26.112100 5.428100
26.134500 5.310500
26.156900 5.210500
26.179300 4.962800
26.201700 5.898300
26.224000 6.207800
26.246400 6.399700
26.268800 6.559100
26.291200 6.444200
26.313600 6.431900
26.336000 6.293100
26.358400 6.165600
26.380800 6.080000
26.403100 6.036100
26.425500 5.943400
26.447900 5.861300
26.470300 5.781900
26.492700 5.900400
26.515100 5.812300
26.537500 6.470500
26.559800 6.189900
26.582200 6.000700
26.604600 5.928000
26.627000 5.807500
26.649400 5.767700
26.671800 5.745400
26.694200 5.765800
26.716600 5.968900
26.738900 5.889800
26.761300 5.757200
26.783700 5.656600
26.806100 5.593200
26.828500 5.575000
26.850900 5.579500
26.873300 5.578300
26.895700 5.361300
26.918000 5.327700
26.940400 5.355900
26.962800 5.320600
26.985200 5.206300
27.007600 5.444900
27.030000 6.276200
27.052400 7.040000
27.074700 6.785300
27.097100 7.978600
27.119500 8.354800
27.141900 7.917800
27.164300 7.504300
27.186700 7.169900
27.209100 6.994400
27.231500 6.335100
27.253800 6.136900
27.276200 6.031800
27.298600 6.005700
27.321000 6.164700
27.343400 6.568800
27.365800 6.877300
27.388200 7.034400
27.410600 6.915000
27.432900 7.288000
27.455300 7.618300
27.477700 7.749900
27.500100 11.981800
27.522500 9.135100
27.544900 9.216800
27.567300 9.223400
27.589600 9.068800
27.612000 9.232800
27.634400 9.337000
27.656800 9.253900
27.679200 9.437000
27.701600 9.560600
27.724000 8.877500
27.746400 8.402600
27.768700 7.542900
27.791100 7.006000
27.813500 6.915300
27.835900 6.934300
27.858300 7.075900
27.880700 7.326600
27.903100 7.688100
27.925500 8.147600
27.947800 9.629400
27.970200 10.769500
27.992600 8.869900
28.015000 7.727700
28.037400 6.544000
28.059800 6.792900
28.082200 7.107600
28.104500 7.444200
28.126900 7.965600
28.149300 8.465500
28.171700 8.544700
28.194100 8.962600
28.216500 9.542100
28.238900 9.267500
28.261300 8.460900
28.283600 7.039100
28.306000 6.518500
28.328400 6.239200
28.350800 6.517000
28.373200 6.768700
28.395600 6.376000
28.418000 6.041500
28.440400 5.889800
28.462700 5.869500
28.485100 5.853900
28.507500 5.820200
28.529900 5.768100
28.552300 5.170400
28.574700 4.207700
28.597100 4.594400
28.619400 4.990600
28.641800 5.519000
28.664200 6.326200
28.686600 5.943700
28.709000 5.714400
28.731400 5.507000
28.753800 5.321600
28.776200 5.190400
28.798500 5.191700
28.820900 5.086600
28.843300 5.735600
28.865700 5.203600
28.888100 4.511300
28.910500 4.421800
28.932900 4.346500
28.955300 4.271100
28.977600 4.196000
29.000000 4.121500
29.022400 4.047400
29.044800 3.498500
29.067200 3.741500
29.089600 3.981900
29.112000 4.261500
29.134300 3.853600
29.156700 3.506800
29.179100 3.225200
29.201500 3.002000
29.223900 2.781000
29.246300 2.562800
29.268700 2.360600
29.291100 2.176600
29.313400 2.010600
29.335800 1.855700
29.358200 1.706200
29.380600 1.562300
29.403000 1.423900
29.425400 1.203900
29.447800 0.544400
29.470200 0.204500
29.492500 0.087500
29.514900 0.045300
29.537300 0.020700
29.559700 0.005600
29.582100 0.000000
29.604500 0.000000
29.626900 0.000000
29.649200 0.000000
29.671600 0.000000
29.694000 0.000000
29.716400 0.000000
29.738800 0.000000
29.761200 0.000000
29.783600 0.000000
29.806000 0.000000
29.828300 0.000000
29.850700 0.000000
29.873100 0.000000
29.895500 0.000000
29.917900 0.000000
29.940300 0.000000
29.962700 0.000000
29.985100 0.000000
30.007400 0.000000
30.029800 0.000000
30.052200 0.000000
30.074600 0.000000
30.097000 0.000000
30.119400 0.000000
30.141800 0.000000
30.164100 0.000000
30.186500 0.000000
30.208900 0.000000
30.231300 0.000000
30.253700 0.000000
30.276100 0.000000
30.298500 0.000000
30.320900 0.000000
30.343200 0.000000
30.365600 0.000000
30.388000 0.000000
30.410400 0.000000
30.432800 0.000000
30.455200 0.000000
30.477600 0.000000
30.500000 0.000000
30.522300 0.000000
30.544700 0.000000
30.567100 0.000000
30.589500 0.000000
30.611900 0.000000
30.634300 0.000000
30.656700 0.000000
30.679000 0.000000
30.701400 0.000000
30.723800 0.000000
30.746200 0.000000
30.768600 0.000000
30.791000 0.000000
30.813400 0.000000
30.835800 0.000000
30.858100 0.000000
30.880500 0.000000
30.902900 0.000000
30.925300 0.000000
30.947700 0.000000
30.970100 0.000000
30.992500 0.000000
31.014900 0.000000
31.037200 0.000000
31.059600 0.000000
31.082000 0.000000
31.104400 0.000000
31.126800 0.000000
31.149200 0.000000
31.171600 0.000000
31.193900 0.000000
31.216300 0.000000
31.238700 0.000000
31.261100 0.000000
31.283500 0.000000
31.305900 0.000000
31.328300 0.000000
31.350700 0.000000
31.373000 0.000000
31.395400 0.000000
31.417800 0.000000
31.440200 0.000000
31.462600 0.000000
31.485000 0.000000
31.507400 0.000000
31.529800 0.000000
31.552100 0.000000
31.574500 0.000000
31.596900 0.000000
31.619300 0.000000
e
