set title 'mp-754531 - Density of States'
set xlabel 'Energy (eV)'
set ylabel 'DOS (states/eV)'
set grid
set xrange [-10:10]
set yrange [0:32.971]
set xzeroaxis lt -1
set terminal png size 800,600
set output 'mp-754531_dos_gnuplot.png'
plot '-' using 1:2 with lines title 'DOS'
-16.705000 0.000000
-16.684300 0.000000
-16.663600 0.000000
-16.642900 0.000000
-16.622200 0.000000
-16.601500 0.000000
-16.580800 0.000000
-16.560100 0.000000
-16.539500 0.000000
-16.518800 0.000000
-16.498100 0.000000
-16.477400 0.000000
-16.456700 0.000000
-16.436000 0.000000
-16.415300 0.000000
-16.394600 0.000000
-16.373900 0.000000
-16.353200 0.000000
-16.332500 0.000000
-16.311800 0.000000
-16.291100 0.000000
-16.270400 0.000000
-16.249700 0.000000
-16.229000 0.000000
-16.208300 0.000000
-16.187700 0.000000
-16.167000 0.000000
-16.146300 0.000000
-16.125600 0.000000
-16.104900 0.000000
-16.084200 0.000000
-16.063500 0.000000
-16.042800 0.000000
-16.022100 0.000000
-16.001400 0.000000
-15.980700 0.000000
-15.960000 0.000000
-15.939300 0.000000
-15.918600 0.000000
-15.897900 0.000000
-15.877200 0.000000
-15.856500 0.000000
-15.835900 0.000000
-15.815200 0.000000
-15.794500 0.000000
-15.773800 0.000000
-15.753100 0.000000
-15.732400 0.000000
-15.711700 0.000000
-15.691000 0.000000
-15.670300 0.000000
-15.649600 0.000000
-15.628900 0.000000
-15.608200 0.000000
-15.587500 0.000000
-15.566800 0.000000
-15.546100 0.000000
-15.525400 0.000000
-15.504700 0.000000
-15.484100 0.000000
-15.463400 0.000000
-15.442700 0.000000
-15.422000 0.000000
-15.401300 0.000000
-15.380600 0.000000
-15.359900 0.000000
-15.339200 0.000000
-15.318500 0.000000
-15.297800 0.000000
-15.277100 0.000000
-15.256400 0.000000
-15.235700 0.000000
-15.215000 0.000000
-15.194300 0.000000
-15.173600 0.000000
-15.152900 0.000000
-15.132300 0.000000
-15.111600 0.000000
-15.090900 0.000000
-15.070200 0.000000
-15.049500 0.000000
-15.028800 0.000000
-15.008100 0.000000
-14.987400 0.000000
-14.966700 0.000000
-14.946000 0.000000
-14.925300 0.000000
-14.904600 0.000000
-14.883900 0.000000
-14.863200 0.000000
-14.842500 0.000000
-14.821800 0.000600
-14.801100 0.088500
-14.780500 0.325000
-14.759800 0.710200
-14.739100 1.261700
-14.718400 2.205900
-14.697700 2.743400
-14.677000 3.100000
-14.656300 3.306300
-14.635600 2.658800
-14.614900 2.764900
-14.594200 2.871100
-14.573500 2.977400
-14.552800 3.083800
-14.532100 3.190200
-14.511400 3.296600
-14.490700 3.855900
-14.470000 4.512900
-14.449300 5.293400
-14.428700 6.209700
-14.408000 6.208800
-14.387300 7.080000
-14.366600 7.424700
-14.345900 8.109000
-14.325200 7.953600
-14.304500 7.813800
-14.283800 7.750400
-14.263100 9.648200
-14.242400 10.214000
-14.221700 10.782900
-14.201000 11.978900
-14.180300 12.969000
-14.159600 11.427500
-14.138900 9.117300
-14.118200 6.935800
-14.097500 3.813500
-14.076900 1.787000
-14.056200 2.674800
-14.035500 4.735600
-14.014800 6.841300
-13.994100 8.602500
-13.973400 10.559700
-13.952700 15.056100
-13.932000 22.077800
-13.911300 14.985000
-13.890600 12.237900
-13.869900 12.024300
-13.849200 14.417800
-13.828500 13.319000
-13.807800 8.217000
-13.787100 6.866200
-13.766400 6.787300
-13.745700 7.763400
-13.725100 12.575400
-13.704400 12.996000
-13.683700 12.509200
-13.663000 13.986500
-13.642300 15.088100
-13.621600 15.026300
-13.600900 16.048900
-13.580200 14.610000
-13.559500 16.261600
-13.538800 18.212600
-13.518100 18.371200
-13.497400 12.902100
-13.476700 11.913100
-13.456000 11.117200
-13.435300 10.235800
-13.414600 5.769000
-13.393900 2.265100
-13.373300 0.000000
-13.352600 0.000000
-13.331900 0.000000
-13.311200 0.000000
-13.290500 0.000000
-13.269800 0.988500
-13.249100 17.507000
-13.228400 20.209700
-13.207700 25.050600
-13.187000 28.949700
-13.166300 23.406200
-13.145600 24.363800
-13.124900 32.090300
-13.104200 15.137400
-13.083500 16.644800
-13.062800 18.995700
-13.042100 28.959600
-13.021500 35.586900
-13.000800 53.998800
-12.980100 62.510900
-12.959400 0.000000
-12.938700 0.000000
-12.918000 0.000000
-12.897300 0.000000
-12.876600 0.000000
-12.855900 0.000000
-12.835200 0.000000
-12.814500 0.000000
-12.793800 0.000000
-12.773100 0.000000
-12.752400 0.000000
-12.731700 0.000000
-12.711000 0.000000
-12.690400 0.000000
-12.669700 0.000000
-12.649000 0.002600
-12.628300 2.173300
-12.607600 15.902200
-12.586900 26.825300
-12.566200 25.126600
-12.545500 32.770300
-12.524800 25.669300
-12.504100 17.622200
-12.483400 13.472400
-12.462700 11.220800
-12.442000 9.569200
-12.421300 4.706400
-12.400600 1.502000
-12.379900 0.000000
-12.359200 0.000000
-12.338600 0.000000
-12.317900 0.000000
-12.297200 0.000000
-12.276500 0.000000
-12.255800 0.000000
-12.235100 0.000000
-12.214400 0.000000
-12.193700 0.000000
-12.173000 0.000000
-12.152300 0.000000
-12.131600 0.000000
-12.110900 0.000000
-12.090200 0.000000
-12.069500 0.000000
-12.048800 0.000000
-12.028100 0.000000
-12.007400 0.000000
-11.986800 0.000000
-11.966100 0.000000
-11.945400 0.000000
-11.924700 0.000000
-11.904000 0.000000
-11.883300 0.000000
-11.862600 0.000000
-11.841900 0.000000
-11.821200 0.000000
-11.800500 0.000000
-11.779800 0.000000
-11.759100 0.000000
-11.738400 0.000000
-11.717700 0.000000
-11.697000 0.000000
-11.676300 0.000000
-11.655600 0.000000
-11.635000 0.000000
-11.614300 0.000000
-11.593600 0.000000
-11.572900 0.000000
-11.552200 0.000000
-11.531500 0.000000
-11.510800 0.000000
-11.490100 0.000000
-11.469400 0.000000
-11.448700 0.000000
-11.428000 0.000000
-11.407300 0.000000
-11.386600 0.000000
-11.365900 0.000000
-11.345200 0.000000
-11.324500 0.000000
-11.303800 0.000000
-11.283200 0.000000
-11.262500 0.000000
-11.241800 0.000000
-11.221100 0.000000
-11.200400 0.000000
-11.179700 0.000000
-11.159000 0.000000
-11.138300 0.000000
-11.117600 0.000000
-11.096900 0.000000
-11.076200 0.000000
-11.055500 0.000000
-11.034800 0.000000
-11.014100 0.000000
-10.993400 0.000000
-10.972700 0.000000
-10.952000 0.000000
-10.931400 0.000000
-10.910700 0.000000
-10.890000 0.000000
-10.869300 0.000000
-10.848600 0.000000
-10.827900 0.000000
-10.807200 0.000000
-10.786500 0.000000
-10.765800 0.000000
-10.745100 0.000000
-10.724400 0.000000
-10.703700 0.000000
-10.683000 0.000000
-10.662300 0.000000
-10.641600 0.000000
-10.620900 0.000000
-10.600200 0.000000
-10.579600 0.000000
-10.558900 0.000000
-10.538200 0.000000
-10.517500 0.000000
-10.496800 0.000000
-10.476100 0.000000
-10.455400 0.000000
-10.434700 0.000000
-10.414000 0.000000
-10.393300 0.000000
-10.372600 0.000000
-10.351900 0.000000
-10.331200 0.000000
-10.310500 0.000000
-10.289800 0.000000
-10.269100 0.000000
-10.248400 0.000000
-10.227800 0.000000
-10.207100 0.000000
-10.186400 0.000000
-10.165700 0.000000
-10.145000 0.000000
-10.124300 0.000000
-10.103600 0.000000
-10.082900 0.000000
-10.062200 0.000000
-10.041500 0.000000
-10.020800 0.000000
-10.000100 0.000000
-9.979400 0.000000
-9.958700 0.000000
-9.938000 0.000000
-9.917300 0.000000
-9.896600 0.000000
-9.876000 0.000000
-9.855300 0.000000
-9.834600 0.000000
-9.813900 0.000000
-9.793200 0.000000
-9.772500 0.000000
-9.751800 0.000000
-9.731100 0.000000
-9.710400 0.000000
-9.689700 0.000000
-9.669000 0.000000
-9.648300 0.000000
-9.627600 0.000000
-9.606900 0.000000
-9.586200 0.000000
-9.565500 0.000000
-9.544800 0.000000
-9.524200 0.000000
-9.503500 0.000000
-9.482800 0.000000
-9.462100 0.000000
-9.441400 0.000000
-9.420700 0.000000
-9.400000 0.000000
-9.379300 0.000000
-9.358600 0.000000
-9.337900 0.000000
-9.317200 0.000000
-9.296500 0.000000
-9.275800 0.000000
-9.255100 0.000000
-9.234400 0.000000
-9.213700 0.000000
-9.193000 0.000000
-9.172400 0.000000
-9.151700 0.000000
-9.131000 0.000000
-9.110300 0.000000
-9.089600 0.000000
-9.068900 0.000000
-9.048200 0.000000
-9.027500 0.000000
-9.006800 0.000000
-8.986100 0.000000
-8.965400 0.000000
-8.944700 0.000000
-8.924000 0.000000
-8.903300 0.000000
-8.882600 0.000000
-8.861900 0.000000
-8.841200 0.000000
-8.820600 0.000000
-8.799900 0.000000
-8.779200 0.000000
-8.758500 0.000000
-8.737800 0.000000
-8.717100 0.000000
-8.696400 0.000000
-8.675700 0.000000
-8.655000 0.000000
-8.634300 0.000000
-8.613600 0.000000
-8.592900 0.000000
-8.572200 0.000000
-8.551500 0.000000
-8.530800 0.000000
-8.510100 0.000000
-8.489400 0.000000
-8.468800 0.000000
-8.448100 0.000000
-8.427400 0.000000
-8.406700 0.000000
-8.386000 0.000000
-8.365300 0.000000
-8.344600 0.000000
-8.323900 0.000000
-8.303200 0.000000
-8.282500 0.000000
-8.261800 0.000000
-8.241100 0.000000
-8.220400 0.000000
-8.199700 0.000000
-8.179000 0.000000
-8.158300 0.000000
-8.137700 0.000000
-8.117000 0.000000
-8.096300 0.000000
-8.075600 0.000000
-8.054900 0.000000
-8.034200 0.000000
-8.013500 0.000000
-7.992800 0.000000
-7.972100 0.000000
-7.951400 0.000000
-7.930700 0.000000
-7.910000 0.000000
-7.889300 0.000000
-7.868600 0.000000
-7.847900 0.000000
-7.827200 0.000000
-7.806500 0.000000
-7.785900 0.000000
-7.765200 0.000000
-7.744500 0.000000
-7.723800 0.000000
-7.703100 0.000000
-7.682400 0.000000
-7.661700 0.000000
-7.641000 0.000000
-7.620300 0.000000
-7.599600 0.000000
-7.578900 0.000000
-7.558200 0.000000
-7.537500 0.000000
-7.516800 0.000000
-7.496100 0.000000
-7.475400 0.000000
-7.454700 0.000000
-7.434100 0.000000
-7.413400 0.000000
-7.392700 0.000000
-7.372000 0.000000
-7.351300 0.000000
-7.330600 0.000000
-7.309900 0.000000
-7.289200 0.000000
-7.268500 0.000000
-7.247800 0.000000
-7.227100 0.000000
-7.206400 0.000000
-7.185700 0.000000
-7.165000 0.000000
-7.144300 0.000000
-7.123600 0.000000
-7.102900 0.000000
-7.082300 0.000000
-7.061600 0.000000
-7.040900 0.000000
-7.020200 0.000000
-6.999500 0.000000
-6.978800 0.000000
-6.958100 0.000000
-6.937400 0.000000
-6.916700 0.000000
-6.896000 0.000000
-6.875300 0.000000
-6.854600 0.000000
-6.833900 0.000000
-6.813200 0.000000
-6.792500 0.000000
-6.771800 0.000000
-6.751100 0.000000
-6.730500 0.000000
-6.709800 0.000000
-6.689100 0.000000
-6.668400 0.000000
-6.647700 0.000000
-6.627000 0.000000
-6.606300 0.000000
-6.585600 0.000000
-6.564900 0.000000
-6.544200 0.000000
-6.523500 0.000000
-6.502800 0.000000
-6.482100 0.000000
-6.461400 0.000000
-6.440700 0.000000
-6.420000 0.000000
-6.399300 0.000000
-6.378700 0.000000
-6.358000 0.000000
-6.337300 0.000000
-6.316600 0.000000
-6.295900 0.000000
-6.275200 0.000000
-6.254500 0.000000
-6.233800 0.000000
-6.213100 0.000000
-6.192400 0.000000
-6.171700 0.000000
-6.151000 0.000000
-6.130300 0.000000
-6.109600 0.000000
-6.088900 0.000000
-6.068200 0.000000
-6.047500 0.000000
-6.026900 0.000000
-6.006200 0.000000
-5.985500 0.000000
-5.964800 0.000000
-5.944100 0.000000
-5.923400 0.000000
-5.902700 0.000000
-5.882000 0.000000
-5.861300 0.000000
-5.840600 0.000000
-5.819900 0.000000
-5.799200 0.000000
-5.778500 0.000000
-5.757800 0.000000
-5.737100 0.000000
-5.716400 0.000000
-5.695700 0.000000
-5.675100 0.000000
-5.654400 0.000000
-5.633700 0.000000
-5.613000 0.000000
-5.592300 0.000000
-5.571600 0.000000
-5.550900 0.000000
-5.530200 0.000000
-5.509500 0.000000
-5.488800 0.000000
-5.468100 0.000000
-5.447400 0.000000
-5.426700 0.000000
-5.406000 0.000000
-5.385300 0.000000
-5.364600 0.000000
-5.343900 0.000000
-5.323300 0.000000
-5.302600 0.000000
-5.281900 0.000000
-5.261200 0.000000
-5.240500 0.000000
-5.219800 0.000000
-5.199100 0.000000
-5.178400 0.000000
-5.157700 0.000000
-5.137000 0.000000
-5.116300 0.000000
-5.095600 0.000000
-5.074900 0.000000
-5.054200 0.000000
-5.033500 0.000000
-5.012800 0.000000
-4.992100 0.000000
-4.971500 0.000000
-4.950800 0.000000
-4.930100 0.000000
-4.909400 0.000000
-4.888700 0.000000
-4.868000 0.000000
-4.847300 0.000000
-4.826600 0.000000
-4.805900 0.000000
-4.785200 0.000000
-4.764500 0.000000
-4.743800 0.000000
-4.723100 0.000000
-4.702400 0.000000
-4.681700 0.000000
-4.661000 0.000000
-4.640300 0.000000
-4.619700 0.000000
-4.599000 0.000000
-4.578300 0.000000
-4.557600 0.000000
-4.536900 0.000000
-4.516200 0.000000
-4.495500 0.000000
-4.474800 0.000000
-4.454100 0.000000
-4.433400 0.000000
-4.412700 0.000000
-4.392000 0.000000
-4.371300 0.000000
-4.350600 0.000000
-4.329900 0.000000
-4.309200 0.000000
-4.288500 0.000000
-4.267900 0.000000
-4.247200 0.000000
-4.226500 0.000000
-4.205800 0.000000
-4.185100 0.000000
-4.164400 0.000000
-4.143700 0.000000
-4.123000 0.000000
-4.102300 0.000000
-4.081600 0.000000
-4.060900 0.000000
-4.040200 0.000000
-4.019500 0.000000
-3.998800 0.000000
-3.978100 0.000000
-3.957400 0.000000
-3.936800 0.000000
-3.916100 0.000000
-3.895400 0.000000
-3.874700 0.000000
-3.854000 0.000000
-3.833300 0.000000
-3.812600 0.000000
-3.791900 0.000000
-3.771200 0.000000
-3.750500 0.000000
-3.729800 0.000000
-3.709100 0.000000
-3.688400 0.000000
-3.667700 0.000000
-3.647000 0.000000
-3.626300 0.000000
-3.605600 0.000000
-3.585000 0.000000
-3.564300 0.000000
-3.543600 0.000000
-3.522900 0.000000
-3.502200 0.000000
-3.481500 0.000000
-3.460800 0.000000
-3.440100 0.000000
-3.419400 0.000000
-3.398700 0.000000
-3.378000 0.000000
-3.357300 0.000000
-3.336600 0.000000
-3.315900 0.000000
-3.295200 0.000000
-3.274500 0.000000
-3.253800 0.000000
-3.233200 0.000000
-3.212500 0.000000
-3.191800 0.000000
-3.171100 0.000000
-3.150400 0.000000
-3.129700 0.000000
-3.109000 0.000000
-3.088300 0.000000
-3.067600 0.000000
-3.046900 0.000000
-3.026200 0.000000
-3.005500 0.000000
-2.984800 0.000000
-2.964100 0.000000
-2.943400 0.000000
-2.922700 0.000000
-2.902000 0.000000
-2.881400 0.000000
-2.860700 0.000000
-2.840000 0.000000
-2.819300 0.000000
-2.798600 0.000000
-2.777900 0.000000
-2.757200 0.000000
-2.736500 0.000000
-2.715800 0.000000
-2.695100 0.000000
-2.674400 0.000000
-2.653700 0.000000
-2.633000 0.000000
-2.612300 0.000000
-2.591600 0.000000
-2.570900 0.000000
-2.550200 0.000000
-2.529600 0.000000
-2.508900 0.000000
-2.488200 0.000000
-2.467500 0.011300
-2.446800 0.300200
-2.426100 0.979100
-2.405400 2.043100
-2.384700 3.220100
-2.364000 10.165900
-2.343300 8.483900
-2.322600 7.327900
-2.301900 6.740900
-2.281200 10.464900
-2.260500 8.162500
-2.239800 8.747700
-2.219100 9.841700
-2.198400 12.415200
-2.177800 14.167800
-2.157100 14.774600
-2.136400 12.332700
-2.115700 11.191500
-2.095000 9.808700
-2.074300 10.227900
-2.053600 9.682800
-2.032900 8.961100
-2.012200 8.147300
-1.991500 7.685000
-1.970800 6.387600
-1.950100 6.753100
-1.929400 6.465500
-1.908700 6.550300
-1.888000 6.488400
-1.867300 6.021900
-1.846600 5.850400
-1.826000 6.151800
-1.805300 6.538900
-1.784600 7.178900
-1.763900 8.151200
-1.743200 9.234400
-1.722500 10.524100
-1.701800 10.548900
-1.681100 9.927100
-1.660400 8.979700
-1.639700 8.032900
-1.619000 8.828900
-1.598300 7.671400
-1.577600 7.517900
-1.556900 7.732800
-1.536200 8.958500
-1.515500 9.479600
-1.494800 9.675900
-1.474200 8.456600
-1.453500 7.389500
-1.432800 6.765100
-1.412100 6.485800
-1.391400 6.567800
-1.370700 7.223100
-1.350000 8.957700
-1.329300 11.691300
-1.308600 12.425900
-1.287900 9.292700
-1.267200 9.356000
-1.246500 9.416000
-1.225800 10.186600
-1.205100 9.571000
-1.184400 8.914800
-1.163700 10.440800
-1.143000 9.245900
-1.122400 9.955100
-1.101700 10.332200
-1.081000 10.580600
-1.060300 10.494100
-1.039600 11.178400
-1.018900 10.346000
-0.998200 9.029000
-0.977500 8.166300
-0.956800 7.765800
-0.936100 7.791700
-0.915400 9.794100
-0.894700 10.698400
-0.874000 11.457900
-0.853300 11.359100
-0.832600 11.831000
-0.811900 13.861800
-0.791200 6.373400
-0.770600 7.126800
-0.749900 23.026700
-0.729200 17.832500
-0.708500 8.912700
-0.687800 5.186800
-0.667100 3.585300
-0.646400 1.002700
-0.625700 1.732500
-0.605000 2.589800
-0.584300 4.164200
-0.563600 5.866800
-0.542900 7.332000
-0.522200 8.595000
-0.501500 8.040800
-0.480800 6.779900
-0.460100 6.837600
-0.439400 6.915700
-0.418800 8.637100
-0.398100 10.755100
-0.377400 13.671300
-0.356700 18.932200
-0.336000 16.202400
-0.315300 15.073200
-0.294600 13.438300
-0.273900 11.202400
-0.253200 10.693100
-0.232500 12.422900
-0.211800 13.328900
-0.191100 4.700800
-0.170400 5.762300
-0.149700 7.126500
-0.129000 8.323700
-0.108300 9.893500
-0.087600 12.049600
-0.067000 13.515300
-0.046300 14.618200
-0.025600 18.077900
-0.004900 13.062900
0.015800 12.942600
0.036500 12.681800
0.057200 14.080700
0.077900 16.686300
0.098600 10.807700
0.119300 9.097800
0.140000 10.460900
0.160700 11.820400
0.181400 15.587500
0.202100 17.972500
0.222800 20.108800
0.243500 16.498100
0.264200 18.204300
0.284800 17.580800
0.305500 18.319000
0.326200 17.292700
0.346900 11.727300
0.367600 8.988100
0.388300 5.429500
0.409000 4.762600
0.429700 5.822300
0.450400 7.332500
0.471100 8.871300
0.491800 10.382900
0.512500 13.347800
0.533200 12.136400
0.553900 10.143300
0.574600 9.384400
0.595300 9.236300
0.615900 9.537300
0.636600 11.471200
0.657300 14.310700
0.678000 17.644500
0.698700 10.728700
0.719400 9.827700
0.740100 9.405600
0.760800 9.422900
0.781500 8.924700
0.802200 9.282100
0.822900 8.621000
0.843600 8.041900
0.864300 9.083900
0.885000 10.435800
0.905700 12.232100
0.926400 13.038600
0.947100 13.035300
0.967700 11.778100
0.988400 10.839000
1.009100 9.975900
1.029800 10.499500
1.050500 10.326600
1.071200 8.601700
1.091900 10.401200
1.112600 12.052400
1.133300 12.090800
1.154000 11.413600
1.174700 14.551900
1.195400 14.553600
1.216100 20.860700
1.236800 21.259400
1.257500 19.001200
1.278200 15.927800
1.298900 14.116000
1.319500 13.543400
1.340200 15.407300
1.360900 16.060800
1.381600 13.462000
1.402300 7.312200
1.423000 5.588100
1.443700 9.307400
1.464400 11.947000
1.485100 22.110100
1.505800 18.136300
1.526500 12.972600
1.547200 12.142000
1.567900 16.189200
1.588600 16.468800
1.609300 17.833400
1.630000 24.672300
1.650700 28.974900
1.671300 13.114800
1.692000 9.278000
1.712700 8.144200
1.733400 12.311800
1.754100 16.200700
1.774800 16.864000
1.795500 18.450500
1.816200 22.187900
1.836900 22.068200
1.857600 17.557400
1.878300 15.036300
1.899000 17.953600
1.919700 18.419200
1.940400 20.742600
1.961100 17.280700
1.981800 19.871400
2.002500 14.545200
2.023100 12.770600
2.043800 13.692300
2.064500 19.847100
2.085200 21.894100
2.105900 22.942000
2.126600 19.327800
2.147300 19.255200
2.168000 17.399800
2.188700 15.320100
2.209400 12.946600
2.230100 12.560300
2.250800 12.833700
2.271500 12.691500
2.292200 12.754500
2.312900 13.488700
2.333600 12.279200
2.354300 9.071600
2.374900 15.157900
2.395600 20.412600
2.416300 18.069500
2.437000 18.690200
2.457700 15.568600
2.478400 15.554800
2.499100 17.073300
2.519800 22.818400
2.540500 16.608400
2.561200 22.934100
2.581900 17.419800
2.602600 16.180900
2.623300 14.215200
2.644000 12.763700
2.664700 12.812500
2.685400 15.234000
2.706100 11.371700
2.726700 17.440500
2.747400 22.565500
2.768100 20.915400
2.788800 14.825800
2.809500 12.755200
2.830200 16.142800
2.850900 13.536000
2.871600 18.287400
2.892300 11.289700
2.913000 14.038300
2.933700 13.042200
2.954400 16.695100
2.975100 17.127800
2.995800 16.270400
3.016500 14.551400
3.037200 15.691400
3.057900 14.141000
3.078500 10.912800
3.099200 10.161400
3.119900 10.189800
3.140600 8.878000
3.161300 8.733200
3.182000 11.486000
3.202700 11.944100
3.223400 10.353000
3.244100 15.670400
3.264800 22.136200
3.285500 29.973800
3.306200 24.780200
3.326900 27.011300
3.347600 24.112700
3.368300 17.139000
3.389000 6.141100
3.409700 3.116400
3.430300 1.506700
3.451000 0.240900
3.471700 0.000000
3.492400 0.000000
3.513100 0.000000
3.533800 0.000000
3.554500 0.000000
3.575200 0.000000
3.595900 0.000000
3.616600 0.000000
3.637300 0.000000
3.658000 0.000000
3.678700 0.000000
3.699400 0.000000
3.720100 0.000000
3.740800 0.000000
3.761500 0.000000
3.782100 0.000000
3.802800 0.000000
3.823500 0.000000
3.844200 0.000000
3.864900 0.000000
3.885600 0.000000
3.906300 0.000000
3.927000 0.000000
3.947700 0.000000
3.968400 0.000000
3.989100 0.000000
4.009800 0.000000
4.030500 0.000000
4.051200 0.000000
4.071900 0.000000
4.092600 0.000000
4.113300 0.000000
4.133900 0.000000
4.154600 0.000000
4.175300 0.000000
4.196000 0.000000
4.216700 0.000000
4.237400 0.000000
4.258100 0.000000
4.278800 0.000000
4.299500 0.000000
4.320200 0.000000
4.340900 0.000000
4.361600 0.000000
4.382300 0.000000
4.403000 0.000000
4.423700 0.000000
4.444400 0.000000
4.465100 0.000000
4.485700 0.000000
4.506400 0.000000
4.527100 0.000000
4.547800 0.000000
4.568500 0.000000
4.589200 0.000000
4.609900 0.000000
4.630600 0.000000
4.651300 0.000000
4.672000 0.000000
4.692700 0.000000
4.713400 0.000000
4.734100 0.000000
4.754800 0.000000
4.775500 0.000000
4.796200 0.000000
4.816900 0.000000
4.837500 0.000000
4.858200 0.000000
4.878900 0.000000
4.899600 0.000000
4.920300 0.000000
4.941000 0.000000
4.961700 0.000000
4.982400 0.000000
5.003100 0.000000
5.023800 0.000000
5.044500 0.000000
5.065200 0.000000
5.085900 0.000000
5.106600 0.000000
5.127300 0.000000
5.148000 0.000000
5.168600 0.000000
5.189300 0.000000
5.210000 0.000000
5.230700 0.000000
5.251400 0.000000
5.272100 0.000000
5.292800 0.000000
5.313500 0.000000
5.334200 0.000000
5.354900 0.000000
5.375600 0.000000
5.396300 0.000000
5.417000 0.000000
5.437700 0.000000
5.458400 0.000000
5.479100 0.000000
5.499800 0.000000
5.520400 0.000000
5.541100 0.000000
5.561800 0.000000
5.582500 0.000000
5.603200 0.000000
5.623900 0.000000
5.644600 0.000000
5.665300 0.000000
5.686000 0.000000
5.706700 0.000000
5.727400 0.000000
5.748100 0.000000
5.768800 0.000000
5.789500 0.000000
5.810200 0.000000
5.830900 0.000000
5.851600 0.000000
5.872200 0.000000
5.892900 0.000000
5.913600 0.000000
5.934300 0.000000
5.955000 0.000000
5.975700 0.000000
5.996400 0.000000
6.017100 0.000000
6.037800 0.000000
6.058500 0.000000
6.079200 0.000000
6.099900 0.000000
6.120600 0.000000
6.141300 0.000000
6.162000 0.000000
6.182700 0.000000
6.203400 0.000000
6.224000 0.000000
6.244700 0.000000
6.265400 0.000000
6.286100 0.000000
6.306800 0.000000
6.327500 0.000000
6.348200 0.000000
6.368900 0.000000
6.389600 0.000000
6.410300 0.000000
6.431000 0.000000
6.451700 0.000000
6.472400 0.000000
6.493100 0.000000
6.513800 0.000000
6.534500 0.000000
6.555200 0.000000
6.575800 0.000000
6.596500 0.000000
6.617200 0.000000
6.637900 0.000000
6.658600 0.000000
6.679300 0.000000
6.700000 0.000000
6.720700 0.000000
6.741400 0.000000
6.762100 0.000000
6.782800 0.000000
6.803500 0.000000
6.824200 0.000000
6.844900 0.000000
6.865600 0.000000
6.886300 0.000000
6.907000 0.000000
6.927600 0.000000
6.948300 0.000000
6.969000 0.000000
6.989700 0.000000
7.010400 0.000000
7.031100 0.000000
7.051800 0.000000
7.072500 0.000000
7.093200 0.000000
7.113900 0.000000
7.134600 0.000000
7.155300 0.000000
7.176000 0.000000
7.196700 0.000000
7.217400 0.000000
7.238100 0.000000
7.258800 0.000000
7.279400 0.000000
7.300100 0.000000
7.320800 0.000000
7.341500 0.000000
7.362200 0.000000
7.382900 0.000000
7.403600 0.000000
7.424300 0.000000
7.445000 0.000000
7.465700 0.000000
7.486400 0.000000
7.507100 0.000000
7.527800 0.000000
7.548500 0.000000
7.569200 0.000000
7.589900 0.000000
7.610600 0.000000
7.631200 0.000000
7.651900 0.000000
7.672600 0.000000
7.693300 0.000000
7.714000 0.000000
7.734700 0.000000
7.755400 0.000000
7.776100 0.000000
7.796800 0.000000
7.817500 0.000000
7.838200 0.000000
7.858900 0.000400
7.879600 0.001600
7.900300 0.003400
7.921000 0.006000
7.941700 0.009300
7.962400 0.013300
7.983000 0.018000
8.003700 0.023500
8.024400 0.029600
8.045100 0.036500
8.065800 0.044100
8.086500 0.052400
8.107200 0.061400
8.127900 0.071100
8.148600 0.081600
8.169300 0.092700
8.190000 0.104600
8.210700 0.117200
8.231400 0.130500
8.252100 0.144500
8.272800 0.159200
8.293500 0.174700
8.314200 0.190800
8.334800 0.207700
8.355500 0.225300
8.376200 0.243600
8.396900 0.271700
8.417600 0.308200
8.438300 0.348900
8.459000 0.389800
8.479700 0.416400
8.500400 0.441400
8.521100 0.465400
8.541800 0.488400
8.562500 0.510300
8.583200 0.531300
8.603900 0.551400
8.624600 0.570400
8.645300 0.588400
8.666000 0.605400
8.686600 0.621400
8.707300 0.636500
8.728000 0.650500
8.748700 0.663600
8.769400 0.675600
8.790100 0.686700
8.810800 0.696700
8.831500 0.705800
8.852200 0.713900
8.872900 0.721000
8.893600 0.613400
8.914300 0.619900
8.935000 0.626500
8.955700 0.633100
8.976400 0.639700
8.997100 0.646300
9.017800 0.652800
9.038400 0.659400
9.059100 0.666000
9.079800 0.672600
9.100500 0.679200
9.121200 0.685800
9.141900 0.692400
9.162600 0.699000
9.183300 0.705600
9.204000 0.712300
9.224700 0.718900
9.245400 0.725500
9.266100 0.732100
9.286800 0.738800
9.307500 0.745400
9.328200 0.752000
9.348900 0.758700
9.369600 0.765400
9.390200 0.772300
9.410900 0.779500
9.431600 0.786900
9.452300 0.794700
9.473000 0.802900
9.493700 0.811600
9.514400 0.820600
9.535100 0.830100
9.555800 0.840000
9.576500 0.874600
9.597200 0.919100
9.617900 0.965200
9.638600 1.013000
9.659300 1.062600
9.680000 1.115900
9.700700 1.173400
9.721300 1.240700
9.742000 1.314200
9.762700 1.404500
9.783400 1.494700
9.804100 1.583700
9.824800 1.671500
9.845500 1.758000
9.866200 1.843300
9.886900 1.796300
9.907600 1.772000
9.928300 1.818700
9.949000 1.863400
9.969700 1.906100
9.990400 2.105100
10.011100 2.183700
10.031800 2.166400
10.052500 2.149500
10.073100 2.132900
10.093800 2.116600
10.114500 2.100600
10.135200 2.085000
10.155900 2.069600
10.176600 2.054600
10.197300 2.039900
10.218000 2.025500
10.238700 2.011500
10.259400 1.997800
10.280100 1.984400
10.300800 1.971300
10.321500 1.958500
10.342200 1.946100
10.362900 1.934000
10.383600 1.923700
10.404300 1.938000
10.424900 1.977200
10.445600 2.047600
10.466300 2.159000
10.487000 2.300800
10.507700 2.472400
10.528400 2.673700
10.549100 2.903600
10.569800 3.110500
10.590500 3.327900
10.611200 4.354100
10.631900 4.609900
10.652600 4.524800
10.673300 4.294300
10.694000 3.885000
10.714700 3.777300
10.735400 3.771700
10.756100 3.710200
10.776700 3.585800
10.797400 3.398500
10.818100 3.161900
10.838800 2.919600
10.859500 2.655900
10.880200 2.395600
10.900900 2.169500
10.921600 1.983400
10.942300 1.834400
10.963000 1.685200
10.983700 1.188100
11.004400 1.071800
11.025100 1.043800
11.045800 3.219700
11.066500 4.716000
11.087200 4.431000
11.107900 5.007000
11.128500 5.677700
11.149200 6.285000
11.169900 6.883600
11.190600 7.375200
11.211300 7.246600
11.232000 7.650900
11.252700 7.803500
11.273400 8.225600
11.294100 9.306200
11.314800 9.410500
11.335500 8.584500
11.356200 8.417200
11.376900 8.570500
11.397600 8.448900
11.418300 8.166500
11.439000 7.678400
11.459700 7.189300
11.480300 6.549400
11.501000 5.833800
11.521700 5.752800
11.542400 5.408400
11.563100 4.565300
11.583800 3.603200
11.604500 3.192500
11.625200 3.161100
11.645900 3.233900
11.666600 2.835000
11.687300 2.557300
11.708000 2.417700
11.728700 2.643400
11.749400 2.927200
11.770100 3.320800
11.790800 4.031500
11.811500 4.384400
11.832100 4.872500
11.852800 5.410900
11.873500 5.952600
11.894200 6.469800
11.914900 7.028900
11.935600 7.094900
11.956300 7.639700
11.977000 8.250800
11.997700 8.861600
12.018400 9.452200
12.039100 10.254100
12.059800 10.999200
12.080500 11.026100
12.101200 10.042400
12.121900 9.502200
12.142600 10.955300
12.163300 12.346100
12.183900 10.632400
12.204600 10.782300
12.225300 10.669300
12.246000 9.514500
12.266700 7.953800
12.287400 7.167300
12.308100 6.384500
12.328800 5.408200
12.349500 5.122600
12.370200 6.947100
12.390900 7.416900
12.411600 8.753400
12.432300 9.333200
12.453000 9.892500
12.473700 10.086400
12.494400 9.739600
12.515100 9.260700
12.535700 8.776600
12.556400 6.213900
12.577100 5.476300
12.597800 6.139500
12.618500 7.722500
12.639200 8.244100
12.659900 9.350300
12.680600 10.187000
12.701300 11.110600
12.722000 12.800300
12.742700 9.369700
12.763400 10.688400
12.784100 10.440800
12.804800 10.127700
12.825500 9.661700
12.846200 9.651000
12.866900 9.424400
12.887500 12.020200
12.908200 11.161600
12.928900 10.018100
12.949600 9.459200
12.970300 8.344000
12.991000 8.947000
13.011700 8.830500
13.032400 9.728500
13.053100 9.501100
13.073800 9.350400
13.094500 9.624000
13.115200 8.980800
13.135900 8.297400
13.156600 7.337500
13.177300 6.774300
13.198000 5.933600
13.218700 4.795100
13.239300 4.490000
13.260000 5.371900
13.280700 6.493300
13.301400 8.599800
13.322100 9.669800
13.342800 10.920900
13.363500 9.596300
13.384200 9.675900
13.404900 9.592900
13.425600 9.312500
13.446300 9.050400
13.467000 8.711900
13.487700 7.952500
13.508400 7.329800
13.529100 6.608000
13.549800 4.829100
13.570500 6.133700
13.591100 6.307300
13.611800 6.208100
13.632500 6.131300
13.653200 5.633500
13.673900 5.920100
13.694600 6.298300
13.715300 6.669000
13.736000 7.191500
13.756700 8.084300
13.777400 9.276200
13.798100 11.243500
13.818800 11.089100
13.839500 13.383500
13.860200 12.623900
13.880900 12.393100
13.901600 10.353000
13.922300 8.541700
13.942900 8.483300
13.963600 9.101800
13.984300 12.460900
14.005000 11.467200
14.025700 8.532800
14.046400 7.999100
14.067100 2.948700
14.087800 3.304300
14.108500 4.249000
14.129200 5.345800
14.149900 7.654400
14.170600 13.501200
14.191300 10.302700
14.212000 9.115300
14.232700 7.547800
14.253400 11.549500
14.274000 15.648300
14.294700 15.502900
14.315400 14.617600
14.336100 13.483900
14.356800 10.460500
14.377500 8.567100
14.398200 9.175000
14.418900 10.171700
14.439600 12.267500
14.460300 12.743000
14.481000 11.220700
14.501700 8.503900
14.522400 7.787500
14.543100 7.312500
14.563800 6.509500
14.584500 7.035100
14.605200 8.122400
14.625800 7.661900
14.646500 7.204300
14.667200 5.550900
14.687900 6.618700
14.708600 6.739600
14.729300 6.911500
14.750000 7.181200
14.770700 7.151300
14.791400 7.643800
14.812100 7.932300
14.832800 10.724500
14.853500 9.775500
14.874200 9.880800
14.894900 7.194400
14.915600 6.857900
14.936300 6.651000
14.957000 7.163100
14.977600 7.661600
14.998300 6.975000
15.019000 7.190200
15.039700 7.721200
15.060400 8.549800
15.081100 8.653600
15.101800 8.140400
15.122500 7.933400
15.143200 8.217100
15.163900 8.997300
15.184600 11.556200
15.205300 11.599200
15.226000 12.299200
15.246700 13.763600
15.267400 15.421100
15.288100 10.195900
15.308800 9.708600
15.329400 9.533200
15.350100 9.243000
15.370800 7.393100
15.391500 6.184400
15.412200 4.753000
15.432900 4.905100
15.453600 8.234600
15.474300 10.144700
15.495000 15.810800
15.515700 10.278700
15.536400 9.151400
15.557100 10.221800
15.577800 10.508300
15.598500 8.412400
15.619200 8.268600
15.639900 10.866900
15.660600 19.843900
15.681200 20.239800
15.701900 15.146500
15.722600 14.719500
15.743300 10.382700
15.764000 8.008100
15.784700 8.105600
15.805400 9.525000
15.826100 10.631300
15.846800 12.190400
15.867500 12.430600
15.888200 13.177200
15.908900 12.588800
15.929600 11.569800
15.950300 10.864900
15.971000 10.053100
15.991700 9.304400
16.012400 10.209800
16.033000 10.832200
16.053700 10.870300
16.074400 9.363400
16.095100 8.611000
16.115800 7.317400
16.136500 6.918800
16.157200 7.209400
16.177900 8.567200
16.198600 8.930400
16.219300 8.824500
16.240000 9.244000
16.260700 7.589400
16.281400 6.888000
16.302100 6.499500
16.322800 11.488000
16.343500 12.077800
16.364200 12.196000
16.384800 12.798700
16.405500 12.130700
16.426200 11.508100
16.446900 12.408300
16.467600 5.983600
16.488300 4.864800
16.509000 4.377400
16.529700 3.861900
16.550400 3.398600
16.571100 2.991400
16.591800 2.660000
16.612500 2.504700
16.633200 2.563700
16.653900 3.819100
16.674600 5.756000
16.695300 6.577100
16.716000 6.608600
16.736600 6.831400
16.757300 6.979300
16.778000 7.761700
16.798700 8.657500
16.819400 9.590800
16.840100 10.633200
16.860800 12.233500
16.881500 15.883200
16.902200 14.199900
16.922900 13.146100
16.943600 14.278700
16.964300 12.923800
16.985000 11.484700
17.005700 12.203700
17.026400 10.103000
17.047100 5.101900
17.067800 3.179500
17.088400 1.594900
17.109100 0.976000
17.129800 1.080600
17.150500 1.446400
17.171200 2.371100
17.191900 3.136400
17.212600 1.520600
17.233300 1.607700
17.254000 1.791600
17.274700 2.045200
17.295400 2.338000
17.316100 2.707700
17.336800 3.296400
17.357500 4.770600
17.378200 6.137700
17.398900 8.302100
17.419600 7.307700
17.440200 7.100800
17.460900 7.002700
17.481600 6.971800
17.502300 11.231900
17.523000 6.688900
17.543700 6.446000
17.564400 6.193600
17.585100 5.736900
17.605800 5.782400
17.626500 7.177800
17.647200 7.669600
17.667900 8.073200
17.688600 7.909200
17.709300 8.722000
17.730000 6.430100
17.750700 7.627100
17.771400 6.112200
17.792000 5.970400
17.812700 6.226900
17.833400 7.504800
17.854100 8.006700
17.874800 8.547900
17.895500 8.926200
17.916200 9.145900
17.936900 9.306500
17.957600 9.286800
17.978300 8.977200
17.999000 8.159500
18.019700 8.241200
18.040400 8.143600
18.061100 8.225900
18.081800 9.065300
18.102500 8.724800
18.123200 8.521200
18.143800 8.544300
18.164500 8.223200
18.185200 7.861700
18.205900 7.680400
18.226600 7.485900
18.247300 7.046500
18.268000 6.689600
18.288700 6.013300
18.309400 6.461400
18.330100 6.681800
18.350800 5.981100
18.371500 5.972000
18.392200 5.935400
18.412900 7.400000
18.433600 7.763900
18.454300 8.207500
18.475000 8.724800
18.495600 9.193000
18.516300 8.943400
18.537000 9.045300
18.557700 8.588000
18.578400 8.618000
18.599100 8.880000
18.619800 9.608400
18.640500 11.879200
18.661200 11.649600
18.681900 11.941600
18.702600 11.456400
18.723300 10.422200
18.744000 12.486600
18.764700 12.385600
18.785400 10.837900
18.806100 10.045300
18.826700 9.448800
18.847400 9.128200
18.868100 8.472700
18.888800 8.576000
18.909500 8.658700
18.930200 8.581700
18.950900 8.636900
18.971600 10.773900
18.992300 12.723200
19.013000 13.279200
19.033700 13.845100
19.054400 11.770800
19.075100 6.731100
19.095800 5.544900
19.116500 10.306600
19.137200 3.538600
19.157900 3.563100
19.178500 3.860700
19.199200 4.289900
19.219900 4.810600
19.240600 5.401200
19.261300 6.776200
19.282000 8.396600
19.302700 10.667700
19.323400 10.076200
19.344100 10.777500
19.364800 9.945800
19.385500 8.981300
19.406200 10.276800
19.426900 11.863300
19.447600 8.960600
19.468300 6.858600
19.489000 6.332900
19.509700 5.768400
19.530300 5.453000
19.551000 5.253400
19.571700 5.171500
19.592400 5.279100
19.613100 5.492100
19.633800 5.754300
19.654500 6.041700
19.675200 6.278500
19.695900 7.855900
19.716600 5.901700
19.737300 6.688400
19.758000 7.176600
19.778700 7.761600
19.799400 7.279100
19.820100 7.954900
19.840800 10.135500
19.861500 9.314700
19.882100 8.614900
19.902800 10.050300
19.923500 9.453500
19.944200 9.918400
19.964900 10.329900
19.985600 10.669100
20.006300 12.345700
20.027000 13.103200
20.047700 9.109100
20.068400 9.515300
20.089100 9.440500
20.109800 8.390900
20.130500 7.294700
20.151200 6.910400
20.171900 6.352400
20.192600 6.984600
20.213300 3.944800
20.233900 2.718100
20.254600 2.229200
20.275300 2.082000
20.296000 2.074400
20.316700 2.210900
20.337400 2.453400
20.358100 2.754200
20.378800 3.375600
20.399500 3.850700
20.420200 4.409100
20.440900 5.240800
20.461600 8.122100
20.482300 9.521100
20.503000 11.471400
20.523700 14.151500
20.544400 15.191100
20.565100 12.408400
20.585700 10.617100
20.606400 8.877400
20.627100 7.616100
20.647800 7.444300
20.668500 7.158700
20.689200 6.889600
20.709900 6.637000
20.730600 6.428000
20.751300 6.850400
20.772000 6.892800
20.792700 8.926500
20.813400 12.279500
20.834100 8.993000
20.854800 7.038600
20.875500 6.508300
20.896200 6.025400
20.916900 5.043100
20.937500 4.074700
20.958200 3.515100
20.978900 3.348300
20.999600 3.267900
21.020300 3.118700
21.041000 2.941800
21.061700 3.091100
21.082400 3.361100
21.103100 3.791100
21.123800 4.348900
21.144500 7.696300
21.165200 6.260900
21.185900 6.692600
21.206600 7.159300
21.227300 7.717600
21.248000 8.417300
21.268700 8.751000
21.289300 7.556900
21.310000 6.671400
21.330700 6.583000
21.351400 8.148100
21.372100 12.194500
21.392800 11.507900
21.413500 10.766100
21.434200 9.245900
21.454900 8.423300
21.475600 8.087500
21.496300 7.599300
21.517000 6.883400
21.537700 6.914000
21.558400 11.568000
21.579100 9.768600
21.599800 9.661500
21.620500 9.795500
21.641100 10.175500
21.661800 9.220100
21.682500 9.014900
21.703200 8.660700
21.723900 8.738200
21.744600 7.644400
21.765300 6.558400
21.786000 5.390700
21.806700 5.658300
21.827400 6.074400
21.848100 6.550000
21.868800 6.653800
21.889500 6.260900
21.910200 5.607800
21.930900 5.330400
21.951600 4.171800
21.972300 4.367600
21.992900 4.432400
22.013600 3.273700
22.034300 3.750700
22.055000 4.617300
22.075700 5.912000
22.096400 7.703200
22.117100 12.381300
22.137800 15.453900
22.158500 13.086500
22.179200 7.818800
22.199900 4.623700
22.220600 2.461000
22.241300 2.496800
22.262000 2.653100
22.282700 2.947900
22.303400 3.458800
22.324100 5.221000
22.344700 7.820600
22.365400 7.979000
22.386100 7.979700
22.406800 7.766400
22.427500 7.495900
22.448200 7.087900
22.468900 6.544900
22.489600 5.929400
22.510300 4.191400
22.531000 3.394200
22.551700 2.956100
22.572400 2.659600
22.593100 2.461800
22.613800 2.290400
22.634500 2.168600
22.655200 2.101200
22.675900 2.034300
22.696500 1.968000
22.717200 1.902100
22.737900 1.795600
22.758600 1.565400
22.779300 1.259800
22.800000 2.666700
22.820700 0.000000
22.841400 0.000000
22.862100 0.000000
22.882800 0.000000
22.903500 0.000000
22.924200 0.000000
22.944900 0.000000
22.965600 0.000000
22.986300 0.000000
23.007000 0.000000
23.027600 0.000000
23.048300 0.000000
23.069000 0.000000
23.089700 0.000000
23.110400 0.000000
23.131100 0.000000
23.151800 0.000000
23.172500 0.000000
23.193200 0.000000
23.213900 0.000000
23.234600 0.000000
23.255300 0.000000
23.276000 0.000000
23.296700 0.000000
23.317400 0.000000
23.338100 0.000000
23.358800 0.000000
23.379400 0.000000
23.400100 0.000000
23.420800 0.000000
23.441500 0.000000
23.462200 0.000000
23.482900 0.000000
23.503600 0.000000
23.524300 0.000000
23.545000 0.000000
23.565700 0.000000
23.586400 0.000000
23.607100 0.000000
23.627800 0.000000
23.648500 0.000000
23.669200 0.000000
23.689900 0.000000
23.710600 0.000000
23.731200 0.000000
23.751900 0.000000
23.772600 0.000000
23.793300 0.000000
23.814000 0.000000
23.834700 0.000000
23.855400 0.000000
23.876100 0.000000
23.896800 0.000000
23.917500 0.000000
23.938200 0.000000
23.958900 0.000000
23.979600 0.000000
24.000300 0.000000
24.021000 0.000000
24.041700 0.000000
24.062400 0.000000
24.083000 0.000000
24.103700 0.000000
24.124400 0.000000
24.145100 0.000000
24.165800 0.000000
24.186500 0.000000
24.207200 0.000000
24.227900 0.000000
24.248600 0.000000
24.269300 0.000000
24.290000 0.000000
24.310700 0.000000
24.331400 0.000000
24.352100 0.000000
24.372800 0.000000
24.393500 0.000000
24.414200 0.000000
24.434800 0.000000
24.455500 0.000000
24.476200 0.000000
24.496900 0.000000
24.517600 0.000000
24.538300 0.000000
24.559000 0.000000
24.579700 0.000000
24.600400 0.000000
24.621100 0.000000
24.641800 0.000000
24.662500 0.000000
24.683200 0.000000
e
