set title 'mp-570019 - Density of States'
set xlabel 'Energy (eV)'
set ylabel 'DOS (states/eV)'
set grid
set xrange [-10:10]
set yrange [0:1238.632]
set xzeroaxis lt -1
set terminal png size 800,600
set output 'mp-570019_dos_gnuplot.png'
plot '-' using 1:2 with lines title 'DOS'
-11.963000 0.000000
-11.950300 0.000000
-11.937600 0.000000
-11.924900 0.000000
-11.912200 0.000000
-11.899500 0.000000
-11.886900 0.000000
-11.874200 0.000000
-11.861500 0.000000
-11.848800 0.000000
-11.836100 0.000000
-11.823400 0.000000
-11.810800 0.000000
-11.798100 0.000000
-11.785400 0.000000
-11.772700 0.000000
-11.760000 0.000000
-11.747300 0.000000
-11.734600 0.000000
-11.722000 0.000000
-11.709300 0.000000
-11.696600 0.000000
-11.683900 0.000000
-11.671200 0.000000
-11.658500 0.000000
-11.645900 0.000000
-11.633200 0.000000
-11.620500 0.000000
-11.607800 0.000000
-11.595100 0.000000
-11.582400 0.000000
-11.569700 0.000000
-11.557100 0.000000
-11.544400 0.000000
-11.531700 0.000000
-11.519000 0.000000
-11.506300 0.000000
-11.493600 0.000000
-11.481000 0.000000
-11.468300 0.000000
-11.455600 0.000000
-11.442900 0.000000
-11.430200 0.000000
-11.417500 0.000000
-11.404900 0.000000
-11.392200 0.000000
-11.379500 0.000000
-11.366800 0.000000
-11.354100 0.000000
-11.341400 0.000000
-11.328700 0.000000
-11.316100 0.000000
-11.303400 0.000000
-11.290700 0.000000
-11.278000 0.000000
-11.265300 0.000000
-11.252600 0.000000
-11.240000 0.000000
-11.227300 0.000000
-11.214600 0.000000
-11.201900 0.000000
-11.189200 0.000000
-11.176500 0.000000
-11.163900 0.000000
-11.151200 0.000000
-11.138500 0.000000
-11.125800 0.000000
-11.113100 0.000000
-11.100400 0.000000
-11.087700 0.000000
-11.075100 0.000000
-11.062400 0.000000
-11.049700 0.000000
-11.037000 0.000000
-11.024300 0.000000
-11.011600 0.000000
-10.999000 0.000000
-10.986300 0.000000
-10.973600 0.000000
-10.960900 0.000000
-10.948200 0.000000
-10.935500 0.000000
-10.922900 0.000000
-10.910200 0.000000
-10.897500 0.000000
-10.884800 0.000000
-10.872100 0.000000
-10.859400 0.000000
-10.846700 0.000000
-10.834100 0.000000
-10.821400 0.000000
-10.808700 0.040100
-10.796000 0.890000
-10.783300 2.225500
-10.770600 4.306800
-10.758000 6.564400
-10.745300 9.775600
-10.732600 13.467200
-10.719900 15.745300
-10.707200 15.902600
-10.694500 15.679400
-10.681800 17.429100
-10.669200 16.182400
-10.656500 15.532300
-10.643800 16.053800
-10.631100 16.575300
-10.618400 17.096900
-10.605700 17.618400
-10.593100 18.140000
-10.580400 18.662500
-10.567700 19.234600
-10.555000 19.844700
-10.542300 20.507600
-10.529600 21.228900
-10.517000 22.023400
-10.504300 22.820500
-10.491600 23.613400
-10.478900 24.400900
-10.466200 25.173000
-10.453500 25.941500
-10.440800 26.710000
-10.428200 27.478500
-10.415500 28.247000
-10.402800 29.015500
-10.390100 29.784000
-10.377400 31.369300
-10.364700 36.697400
-10.352100 48.844000
-10.339400 70.257500
-10.326700 83.333100
-10.314000 110.935300
-10.301300 127.021600
-10.288600 139.518400
-10.276000 153.001500
-10.263300 172.593200
-10.250600 296.195700
-10.237900 248.889500
-10.225200 327.487100
-10.212500 0.000000
-10.199800 0.000000
-10.187200 0.000000
-10.174500 0.000000
-10.161800 0.000000
-10.149100 0.000000
-10.136400 0.000000
-10.123700 0.000000
-10.111100 0.000000
-10.098400 0.000000
-10.085700 0.000000
-10.073000 0.000000
-10.060300 0.000000
-10.047600 0.000000
-10.034900 0.000000
-10.022300 0.000000
-10.009600 0.000000
-9.996900 0.000000
-9.984200 0.000000
-9.971500 0.000000
-9.958800 0.000000
-9.946200 0.000000
-9.933500 0.000000
-9.920800 0.000000
-9.908100 0.000000
-9.895400 0.000000
-9.882700 0.000000
-9.870100 0.000000
-9.857400 0.000000
-9.844700 0.000000
-9.832000 0.000000
-9.819300 0.000000
-9.806600 0.000000
-9.793900 0.000000
-9.781300 0.000000
-9.768600 0.000000
-9.755900 0.000000
-9.743200 0.000000
-9.730500 0.000000
-9.717800 0.000000
-9.705200 0.000000
-9.692500 0.000000
-9.679800 0.000000
-9.667100 0.000000
-9.654400 0.000000
-9.641700 0.000000
-9.629100 0.000000
-9.616400 0.000000
-9.603700 0.000000
-9.591000 0.000000
-9.578300 0.000000
-9.565600 0.000000
-9.552900 0.000000
-9.540300 0.000000
-9.527600 0.000000
-9.514900 0.000000
-9.502200 0.000000
-9.489500 0.000000
-9.476800 0.000000
-9.464200 0.000000
-9.451500 0.000000
-9.438800 0.000000
-9.426100 0.000000
-9.413400 0.000000
-9.400700 0.000000
-9.388000 0.000000
-9.375400 0.000000
-9.362700 0.000000
-9.350000 0.000000
-9.337300 0.000000
-9.324600 0.000000
-9.311900 0.000000
-9.299300 0.000000
-9.286600 0.000000
-9.273900 0.000000
-9.261200 0.000000
-9.248500 0.000000
-9.235800 0.000000
-9.223200 0.000000
-9.210500 0.000000
-9.197800 0.000000
-9.185100 0.000000
-9.172400 0.000000
-9.159700 0.000000
-9.147000 0.000000
-9.134400 0.000000
-9.121700 0.000000
-9.109000 0.000000
-9.096300 0.000000
-9.083600 0.000000
-9.070900 0.000000
-9.058300 0.000000
-9.045600 0.000000
-9.032900 0.000000
-9.020200 0.000000
-9.007500 0.000000
-8.994800 0.000000
-8.982200 0.000000
-8.969500 0.000000
-8.956800 0.000000
-8.944100 0.000000
-8.931400 0.000000
-8.918700 0.000000
-8.906000 0.000000
-8.893400 0.000000
-8.880700 0.000000
-8.868000 0.000000
-8.855300 0.000000
-8.842600 0.000000
-8.829900 0.000000
-8.817300 0.000000
-8.804600 0.000000
-8.791900 0.000000
-8.779200 0.000000
-8.766500 0.000000
-8.753800 0.000000
-8.741200 0.000000
-8.728500 0.000000
-8.715800 0.000000
-8.703100 0.000000
-8.690400 0.000000
-8.677700 0.000000
-8.665000 0.000000
-8.652400 0.000000
-8.639700 0.000000
-8.627000 0.000000
-8.614300 0.000000
-8.601600 0.000000
-8.588900 0.000000
-8.576300 0.000000
-8.563600 0.000000
-8.550900 0.000000
-8.538200 0.000000
-8.525500 0.000000
-8.512800 0.000000
-8.500100 0.000000
-8.487500 0.000000
-8.474800 0.000000
-8.462100 0.000000
-8.449400 0.000000
-8.436700 0.000000
-8.424000 0.000000
-8.411400 0.000000
-8.398700 0.000000
-8.386000 0.000000
-8.373300 0.000000
-8.360600 0.000000
-8.347900 0.000000
-8.335300 0.000000
-8.322600 0.000000
-8.309900 0.000000
-8.297200 0.000000
-8.284500 0.000000
-8.271800 0.000000
-8.259100 0.000000
-8.246500 0.000000
-8.233800 0.000000
-8.221100 0.000000
-8.208400 0.000000
-8.195700 0.000000
-8.183000 0.000000
-8.170400 0.000000
-8.157700 0.000000
-8.145000 0.000000
-8.132300 0.000000
-8.119600 0.000000
-8.106900 0.000000
-8.094300 0.000000
-8.081600 0.000000
-8.068900 0.000000
-8.056200 0.000000
-8.043500 0.000000
-8.030800 0.000000
-8.018100 0.000000
-8.005500 0.000000
-7.992800 0.000000
-7.980100 0.000000
-7.967400 0.000000
-7.954700 0.000000
-7.942000 0.000000
-7.929400 0.000000
-7.916700 0.000000
-7.904000 0.000000
-7.891300 0.000000
-7.878600 0.000000
-7.865900 0.000000
-7.853200 0.000000
-7.840600 0.000000
-7.827900 0.000000
-7.815200 0.000000
-7.802500 0.000000
-7.789800 0.000000
-7.777100 0.000000
-7.764500 0.000000
-7.751800 0.000000
-7.739100 0.000000
-7.726400 0.000000
-7.713700 0.000000
-7.701000 0.000000
-7.688400 0.000000
-7.675700 0.000000
-7.663000 0.000000
-7.650300 0.000000
-7.637600 0.000000
-7.624900 0.000000
-7.612200 0.000000
-7.599600 0.000000
-7.586900 0.000000
-7.574200 0.000000
-7.561500 0.000000
-7.548800 0.000000
-7.536100 0.000000
-7.523500 0.000000
-7.510800 0.000000
-7.498100 0.000000
-7.485400 0.000000
-7.472700 0.000000
-7.460000 0.000000
-7.447400 0.000000
-7.434700 0.000000
-7.422000 0.000000
-7.409300 0.000000
-7.396600 0.000000
-7.383900 0.000000
-7.371200 0.000000
-7.358600 0.000000
-7.345900 0.000000
-7.333200 0.000000
-7.320500 0.000000
-7.307800 0.000000
-7.295100 0.000000
-7.282500 0.000000
-7.269800 0.000000
-7.257100 0.000000
-7.244400 0.000000
-7.231700 0.000000
-7.219000 0.000000
-7.206300 0.000000
-7.193700 0.000000
-7.181000 0.000000
-7.168300 0.000000
-7.155600 0.000000
-7.142900 0.000000
-7.130200 0.000000
-7.117600 0.000000
-7.104900 0.000000
-7.092200 0.000000
-7.079500 0.000000
-7.066800 0.000000
-7.054100 0.000000
-7.041500 0.000000
-7.028800 0.000000
-7.016100 0.000000
-7.003400 0.000000
-6.990700 0.000000
-6.978000 0.000000
-6.965300 0.000000
-6.952700 0.000000
-6.940000 0.000000
-6.927300 0.000000
-6.914600 0.000000
-6.901900 0.000000
-6.889200 0.000000
-6.876600 0.000000
-6.863900 0.000000
-6.851200 0.000000
-6.838500 0.000000
-6.825800 0.000000
-6.813100 0.000000
-6.800500 0.000000
-6.787800 0.000000
-6.775100 0.000000
-6.762400 0.000000
-6.749700 0.000000
-6.737000 0.000000
-6.724300 0.000000
-6.711700 0.000000
-6.699000 0.000000
-6.686300 0.000000
-6.673600 0.000000
-6.660900 0.000000
-6.648200 0.000000
-6.635600 0.000000
-6.622900 0.000000
-6.610200 0.000000
-6.597500 0.000000
-6.584800 0.000000
-6.572100 0.000000
-6.559500 0.000000
-6.546800 0.000000
-6.534100 0.000000
-6.521400 0.000000
-6.508700 111.093200
-6.496000 193.293100
-6.483300 390.098200
-6.470700 316.868300
-6.458000 174.224400
-6.445300 128.331500
-6.432600 121.922400
-6.419900 115.513300
-6.407200 495.649100
-6.394600 338.956000
-6.381900 257.478100
-6.369200 116.682300
-6.356500 142.025200
-6.343800 825.543100
-6.331100 1126.028700
-6.318400 239.054500
-6.305800 589.575100
-6.293100 165.624700
-6.280400 293.639000
-6.267700 131.069500
-6.255000 113.724900
-6.242300 96.380300
-6.229700 79.035700
-6.217000 0.000000
-6.204300 0.000000
-6.191600 0.000000
-6.178900 0.000000
-6.166200 0.000000
-6.153600 0.000000
-6.140900 0.000000
-6.128200 0.000000
-6.115500 0.000000
-6.102800 0.000000
-6.090100 0.000000
-6.077400 0.000000
-6.064800 0.000000
-6.052100 0.000000
-6.039400 0.000000
-6.026700 0.000000
-6.014000 0.000000
-6.001300 0.000000
-5.988700 0.000000
-5.976000 0.000000
-5.963300 0.000000
-5.950600 0.000000
-5.937900 0.000000
-5.925200 0.000000
-5.912600 0.000000
-5.899900 0.000000
-5.887200 0.000000
-5.874500 0.000000
-5.861800 0.000000
-5.849100 0.000000
-5.836400 0.000000
-5.823800 0.000000
-5.811100 0.000000
-5.798400 0.000000
-5.785700 0.000000
-5.773000 0.000000
-5.760300 0.000000
-5.747700 0.000000
-5.735000 0.000000
-5.722300 0.000000
-5.709600 0.000000
-5.696900 0.000000
-5.684200 0.000000
-5.671500 0.000000
-5.658900 0.000000
-5.646200 0.000000
-5.633500 0.000000
-5.620800 0.000000
-5.608100 0.000000
-5.595400 0.000000
-5.582800 0.000000
-5.570100 0.000000
-5.557400 0.000000
-5.544700 0.000000
-5.532000 0.000000
-5.519300 0.000000
-5.506700 0.000000
-5.494000 0.000000
-5.481300 0.000000
-5.468600 0.000000
-5.455900 0.000000
-5.443200 0.000000
-5.430500 0.000000
-5.417900 0.000000
-5.405200 0.000000
-5.392500 0.000000
-5.379800 0.000000
-5.367100 0.000000
-5.354400 0.000000
-5.341800 0.000000
-5.329100 0.000000
-5.316400 0.000000
-5.303700 0.000000
-5.291000 0.000000
-5.278300 0.000000
-5.265700 0.000000
-5.253000 0.000000
-5.240300 0.000000
-5.227600 0.000000
-5.214900 0.000000
-5.202200 0.000000
-5.189500 0.000000
-5.176900 0.000000
-5.164200 0.000000
-5.151500 0.000000
-5.138800 0.000000
-5.126100 0.000000
-5.113400 0.000000
-5.100800 0.000000
-5.088100 0.000000
-5.075400 0.000000
-5.062700 0.000000
-5.050000 0.000000
-5.037300 0.000000
-5.024600 0.000000
-5.012000 0.000000
-4.999300 0.000000
-4.986600 0.000000
-4.973900 0.000000
-4.961200 0.000000
-4.948500 0.000000
-4.935900 0.000000
-4.923200 0.000000
-4.910500 0.000000
-4.897800 0.000000
-4.885100 0.000000
-4.872400 0.000000
-4.859800 0.000000
-4.847100 0.000000
-4.834400 0.000000
-4.821700 0.000000
-4.809000 0.000000
-4.796300 0.000000
-4.783600 0.000000
-4.771000 0.000000
-4.758300 0.000000
-4.745600 0.000000
-4.732900 0.000000
-4.720200 0.000000
-4.707500 0.000000
-4.694900 0.000000
-4.682200 0.000000
-4.669500 0.000000
-4.656800 0.000000
-4.644100 0.000000
-4.631400 0.000000
-4.618800 0.000000
-4.606100 0.000000
-4.593400 0.000000
-4.580700 0.000000
-4.568000 0.000000
-4.555300 0.000000
-4.542600 0.000000
-4.530000 0.000000
-4.517300 0.000000
-4.504600 0.000000
-4.491900 0.000000
-4.479200 0.000000
-4.466500 0.000000
-4.453900 0.000000
-4.441200 0.000000
-4.428500 0.000000
-4.415800 0.000000
-4.403100 0.000000
-4.390400 0.000000
-4.377800 0.000000
-4.365100 0.000000
-4.352400 0.000000
-4.339700 0.000000
-4.327000 0.000000
-4.314300 0.000000
-4.301600 0.000000
-4.289000 0.000000
-4.276300 0.000000
-4.263600 0.000000
-4.250900 0.000000
-4.238200 0.000000
-4.225500 0.000000
-4.212900 0.000000
-4.200200 0.000000
-4.187500 0.000000
-4.174800 0.000000
-4.162100 0.000000
-4.149400 0.000000
-4.136700 0.000000
-4.124100 0.000000
-4.111400 0.000000
-4.098700 0.000000
-4.086000 0.000000
-4.073300 0.000000
-4.060600 0.000000
-4.048000 0.000000
-4.035300 0.000000
-4.022600 0.000000
-4.009900 0.000000
-3.997200 0.000000
-3.984500 0.000000
-3.971900 0.000000
-3.959200 0.000000
-3.946500 0.000000
-3.933800 0.000000
-3.921100 0.000000
-3.908400 0.000000
-3.895700 0.000000
-3.883100 0.000000
-3.870400 0.000000
-3.857700 0.000000
-3.845000 0.000000
-3.832300 0.000000
-3.819600 0.000000
-3.807000 0.000000
-3.794300 0.000000
-3.781600 0.000000
-3.768900 0.000000
-3.756200 0.000000
-3.743500 0.000000
-3.730900 0.000000
-3.718200 0.000000
-3.705500 0.000000
-3.692800 0.000000
-3.680100 0.000000
-3.667400 0.000000
-3.654700 0.000000
-3.642100 0.000000
-3.629400 0.000000
-3.616700 0.000000
-3.604000 0.000000
-3.591300 0.000000
-3.578600 0.000000
-3.566000 0.000000
-3.553300 0.000000
-3.540600 0.000000
-3.527900 0.000000
-3.515200 0.000000
-3.502500 0.000000
-3.489800 0.000000
-3.477200 0.000000
-3.464500 0.000000
-3.451800 0.000000
-3.439100 0.000000
-3.426400 0.000000
-3.413700 0.000000
-3.401100 0.000000
-3.388400 0.000000
-3.375700 0.000000
-3.363000 0.000000
-3.350300 0.000000
-3.337600 0.000000
-3.325000 0.000000
-3.312300 0.000000
-3.299600 0.000000
-3.286900 0.000000
-3.274200 0.000000
-3.261500 0.000000
-3.248800 0.000000
-3.236200 0.000000
-3.223500 0.000000
-3.210800 0.000000
-3.198100 0.000000
-3.185400 0.000000
-3.172700 0.000000
-3.160100 0.000000
-3.147400 0.000000
-3.134700 0.000000
-3.122000 0.000000
-3.109300 0.000000
-3.096600 0.000000
-3.084000 0.000000
-3.071300 0.000000
-3.058600 0.000000
-3.045900 0.000000
-3.033200 0.000000
-3.020500 0.000000
-3.007800 0.000000
-2.995200 0.000000
-2.982500 0.000000
-2.969800 0.000000
-2.957100 0.000000
-2.944400 0.000000
-2.931700 0.000000
-2.919100 0.000000
-2.906400 0.000000
-2.893700 0.000000
-2.881000 0.000000
-2.868300 0.000000
-2.855600 0.000000
-2.842900 0.000000
-2.830300 0.000000
-2.817600 0.000000
-2.804900 0.000000
-2.792200 0.000000
-2.779500 0.000000
-2.766800 0.000000
-2.754200 0.000000
-2.741500 0.000000
-2.728800 0.000000
-2.716100 0.000000
-2.703400 0.000000
-2.690700 0.000000
-2.678100 0.000000
-2.665400 0.000000
-2.652700 0.000000
-2.640000 0.000000
-2.627300 0.000000
-2.614600 0.000000
-2.601900 0.000000
-2.589300 0.000000
-2.576600 9.867600
-2.563900 17.317500
-2.551200 35.701000
-2.538500 50.807500
-2.525800 45.758700
-2.513200 52.300600
-2.500500 58.842400
-2.487800 54.499800
-2.475100 47.684500
-2.462400 41.602100
-2.449700 40.786000
-2.437100 39.969900
-2.424400 34.134200
-2.411700 29.199300
-2.399000 28.696100
-2.386300 24.869700
-2.373600 21.597800
-2.360900 21.502500
-2.348300 21.407200
-2.335600 21.311900
-2.322900 21.293700
-2.310200 22.179100
-2.297500 23.064600
-2.284800 23.950000
-2.272200 33.019700
-2.259500 40.100500
-2.246800 41.986800
-2.234100 44.233400
-2.221400 31.722600
-2.208700 14.839000
-2.196100 15.454500
-2.183400 16.089100
-2.170700 16.973500
-2.158000 18.201800
-2.145300 43.240800
-2.132600 7.084500
-2.119900 6.958700
-2.107300 6.832800
-2.094600 6.707000
-2.081900 6.581200
-2.069200 6.455300
-2.056500 6.329500
-2.043800 6.203700
-2.031200 14.474500
-2.018500 5.277600
-2.005800 1.712800
-1.993100 4.931500
-1.980400 3.666700
-1.967700 2.401900
-1.955000 1.137100
-1.942400 0.000000
-1.929700 0.000000
-1.917000 0.000000
-1.904300 0.000000
-1.891600 0.000000
-1.878900 0.000000
-1.866300 0.000000
-1.853600 0.000000
-1.840900 0.000000
-1.828200 0.000000
-1.815500 0.000000
-1.802800 0.000000
-1.790200 0.000000
-1.777500 0.000000
-1.764800 0.000000
-1.752100 0.000000
-1.739400 0.000000
-1.726700 0.000000
-1.714000 0.000000
-1.701400 0.000000
-1.688700 0.000000
-1.676000 0.000000
-1.663300 5.835700
-1.650600 9.891800
-1.637900 7.291400
-1.625300 9.476900
-1.612600 12.937200
-1.599900 17.542900
-1.587200 14.108800
-1.574500 17.960000
-1.561800 15.271200
-1.549200 13.955300
-1.536500 24.958500
-1.523800 21.755000
-1.511100 18.804300
-1.498400 18.356800
-1.485700 19.067300
-1.473000 19.777700
-1.460400 20.488200
-1.447700 21.198600
-1.435000 21.909000
-1.422300 22.619500
-1.409600 23.329900
-1.396900 24.040400
-1.384300 24.750800
-1.371600 22.737300
-1.358900 19.868300
-1.346200 18.371900
-1.333500 18.716300
-1.320800 25.997300
-1.308100 18.371000
-1.295500 14.609000
-1.282800 14.746100
-1.270100 19.962800
-1.257400 17.677000
-1.244700 39.038100
-1.232000 16.896700
-1.219400 14.378900
-1.206700 11.861100
-1.194000 8.579200
-1.181300 8.476900
-1.168600 8.374700
-1.155900 8.272500
-1.143300 8.744900
-1.130600 9.268500
-1.117900 9.822700
-1.105200 9.851900
-1.092500 9.883400
-1.079800 11.783900
-1.067100 11.904400
-1.054500 12.671800
-1.041800 13.465300
-1.029100 13.644200
-1.016400 13.823100
-1.003700 14.002000
-0.991000 14.179700
-0.978400 14.355400
-0.965700 14.527000
-0.953000 14.698600
-0.940300 14.870300
-0.927600 15.037600
-0.914900 15.191600
-0.902300 15.342700
-0.889600 15.493800
-0.876900 15.644900
-0.864200 15.796000
-0.851500 15.947100
-0.838800 16.098200
-0.826100 16.249300
-0.813500 16.400400
-0.800800 16.551500
-0.788100 16.702600
-0.775400 16.853700
-0.762700 17.004800
-0.750000 17.999400
-0.737400 18.551600
-0.724700 20.127100
-0.712000 21.333100
-0.699300 23.300600
-0.686600 26.543500
-0.673900 27.254300
-0.661200 29.316800
-0.648600 32.766600
-0.635900 33.343600
-0.623200 34.484300
-0.610500 36.322200
-0.597800 38.019500
-0.585100 38.857100
-0.572500 38.647400
-0.559800 39.780100
-0.547100 39.975600
-0.534400 38.538200
-0.521700 38.576100
-0.509000 37.071800
-0.496400 36.945600
-0.483700 36.830800
-0.471000 36.793700
-0.458300 36.828100
-0.445600 37.030300
-0.432900 37.555000
-0.420200 36.997400
-0.407600 36.247900
-0.394900 36.498500
-0.382200 37.031500
-0.369500 37.678800
-0.356800 38.552100
-0.344100 39.453700
-0.331500 40.332400
-0.318800 40.314500
-0.306100 41.044500
-0.293400 41.330900
-0.280700 41.614000
-0.268000 39.066600
-0.255400 38.034400
-0.242700 35.453900
-0.230000 34.959000
-0.217300 33.333900
-0.204600 29.919200
-0.191900 28.939200
-0.179200 32.415800
-0.166600 28.013200
-0.153900 27.131100
-0.141200 28.145800
-0.128500 27.062900
-0.115800 25.980000
-0.103100 25.074200
-0.090500 23.968800
-0.077800 22.885600
-0.065100 22.158900
-0.052400 21.056200
-0.039700 20.040700
-0.027000 19.457300
-0.014300 18.873800
-0.001700 18.347000
0.011000 17.835900
0.023700 17.341800
0.036400 16.915700
0.049100 16.515900
0.061800 16.183700
0.074400 15.935900
0.087100 15.740500
0.099800 15.518400
0.112500 15.296300
0.125200 16.039500
0.137900 16.032300
0.150500 16.115300
0.163200 17.219100
0.175900 17.506400
0.188600 18.993800
0.201300 19.701600
0.214000 20.242200
0.226700 20.782800
0.239300 21.323500
0.252000 23.085900
0.264700 25.015600
0.277400 26.984200
0.290100 31.764700
0.302800 33.991600
0.315400 37.661000
0.328100 41.022000
0.340800 43.607900
0.353500 45.854900
0.366200 45.851300
0.378900 47.382000
0.391500 54.099600
0.404200 56.805100
0.416900 62.635400
0.429600 67.830900
0.442300 61.698100
0.455000 55.942900
0.467700 68.604400
0.480300 66.660900
0.493000 64.012400
0.505700 61.926800
0.518400 56.276600
0.531100 54.903700
0.543800 53.401200
0.556400 55.918600
0.569100 64.229600
0.581800 41.966700
0.594500 54.109800
0.607200 56.985100
0.619900 50.780600
0.632500 59.615200
0.645200 57.122800
0.657900 74.717000
0.670600 96.238100
0.683300 63.499300
0.696000 60.974200
0.708700 59.046300
0.721300 65.113400
0.734000 64.851600
0.746700 55.767500
0.759400 58.211300
0.772100 56.997200
0.784800 51.209000
0.797400 48.277600
0.810100 45.793800
0.822800 40.197400
0.835500 35.706900
0.848200 32.128300
0.860900 28.823500
0.873600 25.845900
0.886200 22.868200
0.898900 26.402100
0.911600 24.566900
0.924300 31.251300
0.937000 15.053700
0.949700 24.990300
0.962300 24.404100
0.975000 0.000000
0.987700 0.000000
1.000400 0.000000
1.013100 0.000000
1.025800 0.000000
1.038400 0.000000
1.051100 0.000000
1.063800 0.000000
1.076500 0.000000
1.089200 0.000000
1.101900 0.000000
1.114600 0.000000
1.127200 0.000000
1.139900 0.000000
1.152600 0.000000
1.165300 0.000000
1.178000 0.000000
1.190700 0.000000
1.203300 0.000000
1.216000 0.000000
1.228700 0.000000
1.241400 0.000000
1.254100 0.000000
1.266800 0.000000
1.279400 0.000000
1.292100 0.000000
1.304800 0.000000
1.317500 0.000000
1.330200 0.000000
1.342900 0.000000
1.355600 0.000000
1.368200 0.000000
1.380900 0.000000
1.393600 0.000000
1.406300 0.000000
1.419000 0.000000
1.431700 0.000000
1.444300 0.000000
1.457000 0.000000
1.469700 0.000000
1.482400 0.000000
1.495100 0.000000
1.507800 0.000000
1.520500 0.000000
1.533100 0.000000
1.545800 0.000000
1.558500 0.000000
1.571200 0.000000
1.583900 0.000000
1.596600 0.000000
1.609200 0.000000
1.621900 0.000000
1.634600 0.000000
1.647300 0.000000
1.660000 0.000000
1.672700 0.000000
1.685300 0.000000
1.698000 0.000000
1.710700 0.000000
1.723400 0.000000
1.736100 0.000000
1.748800 0.000000
1.761500 0.000000
1.774100 0.000000
1.786800 0.000000
1.799500 0.000000
1.812200 0.000000
1.824900 0.000000
1.837600 0.000000
1.850200 0.000000
1.862900 0.000000
1.875600 0.000000
1.888300 0.000000
1.901000 0.000000
1.913700 0.000000
1.926300 0.000000
1.939000 0.000000
1.951700 0.000000
1.964400 0.000000
1.977100 0.000000
1.989800 0.000000
2.002500 0.000000
2.015100 0.000000
2.027800 0.000000
2.040500 0.000000
2.053200 0.000000
2.065900 0.000000
2.078600 0.000000
2.091200 0.000000
2.103900 0.000000
2.116600 0.000000
2.129300 0.000000
2.142000 0.000000
2.154700 0.000000
2.167400 0.000000
2.180000 0.000000
2.192700 0.000000
2.205400 0.000000
2.218100 0.000000
2.230800 0.000000
2.243500 0.000000
2.256100 0.000000
2.268800 0.000000
2.281500 0.000000
2.294200 0.000000
2.306900 0.000000
2.319600 0.000000
2.332200 0.000000
2.344900 0.000000
2.357600 0.000000
2.370300 0.000000
2.383000 0.000000
2.395700 0.000000
2.408400 0.000000
2.421000 0.000000
2.433700 0.000000
2.446400 0.000000
2.459100 0.000000
2.471800 0.000000
2.484500 0.000000
2.497100 0.000000
2.509800 0.000000
2.522500 0.000000
2.535200 0.000000
2.547900 0.000000
2.560600 0.000000
2.573200 0.000000
2.585900 0.000000
2.598600 0.000000
2.611300 0.000000
2.624000 0.000000
2.636700 0.000000
2.649400 0.000000
2.662000 0.000000
2.674700 0.000000
2.687400 0.000000
2.700100 0.000000
2.712800 0.000000
2.725500 0.000000
2.738100 0.000000
2.750800 0.000000
2.763500 0.000000
2.776200 0.000000
2.788900 0.000000
2.801600 0.000000
2.814200 0.000000
2.826900 0.000000
2.839600 0.000000
2.852300 0.000000
2.865000 0.000000
2.877700 0.000000
2.890400 0.000000
2.903000 0.000000
2.915700 0.000000
2.928400 0.000000
2.941100 0.000000
2.953800 0.000000
2.966500 0.000000
2.979100 0.000000
2.991800 0.000000
3.004500 0.000000
3.017200 0.000000
3.029900 0.000000
3.042600 0.000000
3.055300 0.000000
3.067900 0.000000
3.080600 0.000000
3.093300 0.000000
3.106000 0.000000
3.118700 0.000000
3.131400 0.000000
3.144000 0.000000
3.156700 0.000000
3.169400 0.000000
3.182100 0.000000
3.194800 0.000000
3.207500 0.000000
3.220100 0.000000
3.232800 0.000000
3.245500 0.000000
3.258200 0.000000
3.270900 0.000000
3.283600 0.000000
3.296300 0.000000
3.308900 0.000000
3.321600 0.000000
3.334300 0.000000
3.347000 0.000000
3.359700 0.000000
3.372400 0.000000
3.385000 0.000000
3.397700 0.005400
3.410400 0.902500
3.423100 1.837400
3.435800 1.916000
3.448500 2.918600
3.461100 3.029200
3.473800 3.139800
3.486500 3.250400
3.499200 4.344400
3.511900 4.492200
3.524600 5.751500
3.537300 5.948900
3.549900 6.146300
3.562600 6.343700
3.575300 7.717800
3.588000 9.140100
3.600700 10.620600
3.613400 10.892400
3.626000 11.164300
3.638700 11.436200
3.651400 11.708100
3.664100 11.980000
3.676800 12.251800
3.689500 12.561400
3.702200 12.974800
3.714800 13.460700
3.727500 14.010900
3.740200 14.561100
3.752900 15.193900
3.765600 15.907400
3.778300 16.623000
3.790900 17.440800
3.803600 18.341300
3.816300 19.312500
3.829000 20.294200
3.841700 21.275900
3.854400 22.257700
3.867000 23.239400
3.879700 24.496700
3.892400 34.787500
3.905100 32.890900
3.917800 30.994400
3.930500 33.396800
3.943200 32.394900
3.955800 31.949000
3.968500 31.684000
3.981200 30.662700
3.993900 36.629500
4.006600 36.250800
4.019300 31.344000
4.031900 32.775900
4.044600 34.431700
4.057300 31.169200
4.070000 28.862900
4.082700 26.440200
4.095400 23.251400
4.108000 21.529000
4.120700 20.955700
4.133400 20.382400
4.146100 19.809000
4.158800 20.291500
4.171500 21.363000
4.184200 19.218400
4.196800 17.179700
4.209500 15.193100
4.222200 13.206600
4.234900 11.269900
4.247600 9.851300
4.260300 9.530400
4.272900 7.951500
4.285600 14.376500
4.298300 4.505200
4.311000 5.267800
4.323700 6.030300
4.336400 0.000000
4.349100 0.000000
4.361700 0.000000
4.374400 0.000000
4.387100 0.000000
4.399800 0.000000
4.412500 0.000000
4.425200 0.000000
4.437800 0.000000
4.450500 0.000000
4.463200 0.000000
4.475900 0.000000
4.488600 0.000000
4.501300 0.000000
4.513900 0.000000
4.526600 0.000000
4.539300 0.000000
4.552000 0.000000
4.564700 0.000000
4.577400 0.000000
4.590100 0.000000
4.602700 0.000000
4.615400 0.000000
4.628100 0.000000
4.640800 0.000000
4.653500 0.000000
4.666200 0.000000
4.678800 0.000000
4.691500 0.000000
4.704200 0.000000
4.716900 0.000000
4.729600 0.000000
4.742300 0.000000
4.754900 0.000000
4.767600 0.000000
4.780300 0.000000
4.793000 0.000000
4.805700 0.000000
4.818400 0.000000
4.831100 0.000000
4.843700 0.000000
4.856400 0.000000
4.869100 0.000000
4.881800 0.000000
4.894500 0.000000
4.907200 0.000000
4.919800 0.000000
4.932500 0.000000
4.945200 0.000000
4.957900 0.000000
4.970600 0.000000
4.983300 0.000000
4.995900 0.000000
5.008600 0.000000
5.021300 0.000000
5.034000 0.000000
5.046700 0.000000
5.059400 0.000000
5.072100 0.000000
5.084700 0.000000
5.097400 0.000000
5.110100 0.000000
5.122800 0.000000
5.135500 0.000000
5.148200 0.000000
5.160800 0.000000
5.173500 0.000000
5.186200 0.000000
5.198900 0.000000
5.211600 0.000000
5.224300 0.000000
5.237000 0.000000
5.249600 0.000000
5.262300 0.000000
5.275000 0.000000
5.287700 0.000000
5.300400 0.000000
5.313100 0.000000
5.325700 0.000000
5.338400 0.000000
5.351100 0.000000
5.363800 0.000000
5.376500 0.000000
5.389200 0.000000
5.401800 0.000000
5.414500 0.000000
5.427200 0.000000
5.439900 0.000000
5.452600 0.000000
5.465300 0.000000
5.478000 0.000000
5.490600 0.027300
5.503300 0.094100
5.516000 0.166500
5.528700 0.238900
5.541400 0.311300
5.554100 0.383700
5.566700 0.456200
5.579400 0.528600
5.592100 0.601000
5.604800 0.673400
5.617500 0.745800
5.630200 0.818200
5.642800 0.890600
5.655500 0.963000
5.668200 1.035400
5.680900 1.107800
5.693600 1.180200
5.706300 1.252600
5.719000 1.325000
5.731600 1.397400
5.744300 1.469800
5.757000 1.542200
5.769700 1.614600
5.782400 1.687000
5.795100 1.759400
5.807700 1.831800
5.820400 1.904200
5.833100 1.976600
5.845800 2.049100
5.858500 2.121500
5.871200 2.193900
5.883900 2.266300
5.896500 2.338700
5.909200 2.411100
5.921900 2.483500
5.934600 2.555900
5.947300 2.628300
5.960000 2.700700
5.972600 4.592400
5.985300 6.498500
5.998000 7.023100
6.010700 7.547800
6.023400 8.637600
6.036100 9.298200
6.048700 9.560200
6.061400 10.884100
6.074100 12.047300
6.086800 12.317100
6.099500 12.713500
6.112200 13.091800
6.124900 14.106100
6.137500 14.519300
6.150200 14.636800
6.162900 14.754300
6.175600 15.406300
6.188300 15.601600
6.201000 15.796800
6.213600 15.992100
6.226300 16.731300
6.239000 16.980600
6.251700 17.230000
6.264400 18.062800
6.277100 18.202500
6.289700 18.338000
6.302400 18.473400
6.315100 18.608900
6.327800 18.744300
6.340500 18.879800
6.353200 18.913500
6.365900 18.923900
6.378500 18.934300
6.391200 18.944700
6.403900 23.550000
6.416600 23.270200
6.429300 26.968800
6.442000 26.188000
6.454600 24.898900
6.467300 23.476900
6.480000 21.996000
6.492700 32.062700
6.505400 25.667500
6.518100 21.188600
6.530800 20.612600
6.543400 20.036500
6.556100 24.151800
6.568800 21.604400
6.581500 19.056900
6.594200 16.387600
6.606900 16.516400
6.619500 16.645200
6.632200 16.774100
6.644900 16.902900
6.657600 15.666900
6.670300 12.434700
6.683000 14.534800
6.695600 16.689700
6.708300 11.407200
6.721000 13.391000
6.733700 13.155100
6.746400 15.302300
6.759100 17.279600
6.771800 16.833300
6.784400 16.387100
6.797100 15.940800
6.809800 15.494600
6.822500 15.048300
6.835200 14.602000
6.847900 13.931200
6.860500 16.184800
6.873200 18.807600
6.885900 15.939900
6.898600 15.259800
6.911300 14.651200
6.924000 14.042600
6.936600 13.434000
6.949300 12.825300
6.962000 12.216700
6.974700 11.212000
6.987400 11.141400
7.000100 11.070900
7.012800 11.000300
7.025400 14.774900
7.038100 14.345200
7.050800 17.596000
7.063500 16.741600
7.076200 19.907500
7.088900 24.144000
7.101500 27.297000
7.114200 27.464700
7.126900 32.498700
7.139600 38.512100
7.152300 38.734900
7.165000 35.048400
7.177600 31.365700
7.190300 30.826800
7.203000 22.798000
7.215700 22.200300
7.228400 28.443300
7.241100 35.695300
7.253800 23.802100
7.266400 22.924800
7.279100 24.269300
7.291800 27.083500
7.304500 36.446000
7.317200 35.469300
7.329900 22.740700
7.342500 22.881000
7.355200 23.490900
7.367900 24.326500
7.380600 41.398700
7.393300 21.751200
7.406000 26.180300
7.418700 30.609400
7.431300 35.038500
7.444000 40.734800
7.456700 33.559200
7.469400 29.121000
7.482100 29.428500
7.494800 28.101500
7.507400 30.816200
7.520100 28.395100
7.532800 45.261100
7.545500 29.945200
7.558200 27.163000
7.570900 30.178800
7.583500 29.777100
7.596200 29.375400
7.608900 29.583000
7.621600 32.056900
7.634300 33.593400
7.647000 36.159700
7.659700 37.554300
7.672300 37.414700
7.685000 39.456000
7.697700 39.619100
7.710400 41.443200
7.723100 43.483500
7.735800 43.426800
7.748400 47.158300
7.761100 38.912700
7.773800 34.075700
7.786500 32.179600
7.799200 35.190800
7.811900 31.489200
7.824500 28.840900
7.837200 38.250900
7.849900 36.697400
7.862600 38.527600
7.875300 37.293800
7.888000 36.060100
7.900700 34.709800
7.913300 29.475200
7.926000 25.487300
7.938700 31.515200
7.951400 28.605900
7.964100 26.301000
7.976800 26.064500
7.989400 25.828000
8.002100 28.642300
8.014800 30.380300
8.027500 30.221300
8.040200 30.315700
8.052900 31.092300
8.065600 29.081600
8.078200 31.788700
8.090900 31.328500
8.103600 30.868300
8.116300 30.408100
8.129000 29.947800
8.141700 29.421200
8.154300 28.941200
8.167000 28.466200
8.179700 33.496600
8.192400 32.497500
8.205100 31.212300
8.217800 30.061800
8.230400 31.229800
8.243100 29.009900
8.255800 27.304600
8.268500 32.819600
8.281200 33.062100
8.293900 25.965200
8.306600 27.328200
8.319200 25.241800
8.331900 25.946900
8.344600 17.032100
8.357300 14.564500
8.370000 13.155600
8.382700 12.848500
8.395300 12.107300
8.408000 11.356300
8.420700 11.108900
8.433400 10.861400
8.446100 10.614000
8.458800 10.366500
8.471400 10.119100
8.484100 9.871600
8.496800 9.624200
8.509500 9.376800
8.522200 9.129300
8.534900 8.881900
8.547600 8.634400
8.560200 8.387000
8.572900 8.139500
8.585600 9.820900
8.598300 9.019000
8.611000 8.661300
8.623700 11.059100
8.636300 9.570300
8.649000 8.143200
8.661700 6.568600
8.674400 6.641500
8.687100 7.250200
8.699800 8.485200
8.712500 9.857600
8.725100 11.634900
8.737800 13.412100
8.750500 9.760800
8.763200 10.650300
8.775900 11.539800
8.788600 8.393900
8.801200 8.870000
8.813900 8.954600
8.826600 6.608000
8.839300 6.826000
8.852000 9.726300
8.864700 11.604000
8.877300 11.753100
8.890000 12.407100
8.902700 14.961400
8.915400 15.321500
8.928100 15.685900
8.940800 15.365100
8.953500 15.144900
8.966100 14.924700
8.978800 14.704500
8.991500 14.484300
9.004200 14.264100
9.016900 15.181100
9.029600 15.305200
9.042200 15.429400
9.054900 19.183900
9.067600 20.007400
9.080300 19.688500
9.093000 19.627000
9.105700 19.565500
9.118300 22.949300
9.131000 27.705800
9.143700 31.603600
9.156400 23.022800
9.169100 23.213200
9.181800 28.284200
9.194500 23.852000
9.207100 24.128000
9.219800 25.844100
9.232500 28.335900
9.245200 29.215700
9.257900 28.100800
9.270600 26.836100
9.283200 25.783500
9.295900 25.631300
9.308600 25.479100
9.321300 25.326900
9.334000 23.814500
9.346700 24.053300
9.359300 44.390600
9.372000 33.211700
9.384700 33.898700
9.397400 25.087900
9.410100 25.663400
9.422800 24.698400
9.435500 27.163000
9.448100 26.666100
9.460800 26.292300
9.473500 25.918400
9.486200 25.614900
9.498900 25.518200
9.511600 25.428900
9.524200 27.127700
9.536900 26.942200
9.549600 26.756800
9.562300 25.587100
9.575000 25.331000
9.587700 24.871100
9.600400 24.411300
9.613000 31.278400
9.625700 28.632500
9.638400 28.343800
9.651100 28.247600
9.663800 29.557300
9.676500 30.828200
9.689100 22.447600
9.701800 22.970400
9.714500 23.213200
9.727200 21.108800
9.739900 21.460500
9.752600 22.280900
9.765200 32.290200
9.777900 33.394800
9.790600 30.704500
9.803300 28.230500
9.816000 22.876300
9.828700 23.474300
9.841400 24.081200
9.854000 22.147400
9.866700 22.807900
9.879400 23.576100
9.892100 24.574700
9.904800 25.378300
9.917500 26.229300
9.930100 26.099200
9.942800 25.902500
9.955500 22.457100
9.968200 23.699600
9.980900 21.929900
9.993600 20.107900
10.006200 21.905500
10.018900 23.717500
10.031600 22.028900
10.044300 24.077200
10.057000 42.598900
10.069700 20.194700
10.082400 23.489700
10.095000 24.597200
10.107700 27.934200
10.120400 24.156200
10.133100 18.915500
10.145800 18.636700
10.158500 20.822100
10.171100 20.988500
10.183800 21.201900
10.196500 21.887000
10.209200 22.572100
10.221900 23.111300
10.234600 19.597200
10.247300 19.348100
10.259900 18.860900
10.272600 18.442600
10.285300 19.008500
10.298000 19.696900
10.310700 20.509000
10.323400 21.321100
10.336000 22.960000
10.348700 23.776300
10.361400 21.592700
10.374100 22.134000
10.386800 19.851900
10.399500 17.692800
10.412100 17.722200
10.424800 18.121700
10.437500 18.215600
10.450200 18.323300
10.462900 18.430900
10.475600 18.538600
10.488300 16.726500
10.500900 16.637300
10.513600 16.548000
10.526300 16.458800
10.539000 16.369600
10.551700 16.288700
10.564400 16.227300
10.577000 16.165800
10.589700 16.104300
10.602400 16.042800
10.615100 17.020300
10.627800 17.027700
10.640500 17.041800
10.653100 16.117900
10.665800 16.129700
10.678500 16.769100
10.691200 17.203300
10.703900 17.894800
10.716600 16.977800
10.729300 17.119900
10.741900 17.524100
10.754600 18.424300
10.767300 19.066300
10.780000 16.859500
10.792700 16.251200
10.805400 16.633600
10.818000 16.986000
10.830700 17.287800
10.843400 17.589600
10.856100 17.891400
10.868800 15.315100
10.881500 15.279000
10.894200 15.255800
10.906800 15.221300
10.919500 15.134600
10.932200 14.984700
10.944900 14.834800
10.957600 16.435100
10.970300 16.660300
10.982900 16.885400
10.995600 17.020100
11.008300 16.993300
11.021000 18.734700
11.033700 19.219700
11.046400 20.751400
11.059000 20.948800
11.071700 21.146100
11.084400 22.102900
11.097100 22.110400
11.109800 21.769000
11.122500 21.174800
11.135200 20.582700
11.147800 19.990700
11.160500 19.398600
11.173200 19.275600
11.185900 18.700100
11.198600 18.125600
11.211300 17.551000
11.223900 17.015300
11.236600 16.682400
11.249300 16.231600
11.262000 16.848400
11.274700 16.460600
11.287400 16.119200
11.300000 15.784400
11.312700 15.456500
11.325400 15.208400
11.338100 15.005300
11.350800 15.585700
11.363500 15.290600
11.376200 14.995500
11.388800 14.706000
11.401500 15.024000
11.414200 14.725600
11.426900 14.427300
11.439600 13.789100
11.452300 14.095100
11.464900 14.086700
11.477600 13.870700
11.490300 13.259800
11.503000 13.113300
11.515700 12.966800
11.528400 12.820300
11.541000 12.673800
11.553700 12.527300
11.566400 12.380800
11.579100 12.234300
11.591800 13.137900
11.604500 12.931700
11.617200 12.186500
11.629800 12.003400
11.642500 11.820300
11.655200 11.079300
11.667900 11.378700
11.680600 12.794700
11.693300 14.210700
11.705900 15.639400
11.718600 9.991400
11.731300 9.906000
11.744000 9.828000
11.756700 9.750100
11.769400 9.672100
11.782100 9.594200
11.794700 9.516200
11.807400 11.279600
11.820100 11.303100
11.832800 11.326600
11.845500 11.350200
11.858200 9.645200
11.870800 9.672800
11.883500 9.800700
11.896200 9.928600
11.908900 10.056600
11.921600 8.916300
11.934300 6.960200
11.946900 6.923600
11.959600 6.912300
11.972300 6.951900
11.985000 6.991400
11.997700 7.030900
12.010400 7.070500
12.023100 5.373800
12.035700 5.332500
12.048400 5.315000
12.061100 4.068900
12.073800 4.123000
12.086500 4.177100
12.099200 4.231200
12.111800 4.285400
12.124500 4.414600
12.137200 3.126300
12.149900 3.270900
12.162600 3.415500
12.175300 1.463900
12.187900 1.519000
12.200600 1.574100
12.213300 1.629200
12.226000 1.684200
12.238700 1.739300
12.251400 1.794400
12.264100 0.000000
12.276700 0.000000
12.289400 0.000000
12.302100 0.000000
12.314800 0.000000
12.327500 0.000000
12.340200 0.000000
12.352800 0.000000
12.365500 0.000000
12.378200 0.000000
12.390900 0.000000
12.403600 0.000000
12.416300 0.000000
12.429000 0.000000
12.441600 0.000000
12.454300 0.000000
12.467000 0.000000
12.479700 0.000000
12.492400 0.000000
12.505100 0.000000
12.517700 0.000000
12.530400 0.000000
12.543100 0.000000
12.555800 0.000000
12.568500 0.000000
12.581200 0.000000
12.593800 0.000000
12.606500 0.000000
12.619200 0.000000
12.631900 0.000000
12.644600 0.000000
12.657300 0.000000
12.670000 0.000000
12.682600 0.000000
12.695300 0.000000
12.708000 0.000000
12.720700 0.000000
12.733400 0.000000
12.746100 0.000000
12.758700 0.000000
12.771400 0.000000
12.784100 0.000000
12.796800 0.000000
12.809500 0.000000
12.822200 0.000000
12.834800 0.000000
12.847500 0.000000
12.860200 0.000000
12.872900 0.000000
12.885600 0.000000
12.898300 0.000000
12.911000 0.000000
12.923600 0.000000
12.936300 0.000000
12.949000 0.000000
12.961700 0.000000
12.974400 0.000000
12.987100 0.000000
12.999700 0.000000
13.012400 0.000000
13.025100 0.000000
13.037800 0.000000
13.050500 0.000000
13.063200 0.000000
13.075900 0.000000
13.088500 0.000000
13.101200 0.000000
13.113900 0.000000
13.126600 0.000000
13.139300 0.000000
13.152000 0.000000
13.164600 0.000000
13.177300 0.000000
13.190000 0.000000
13.202700 0.000000
13.215400 0.000000
13.228100 0.000000
13.240700 0.000000
13.253400 0.000000
13.266100 0.000000
13.278800 0.000000
13.291500 0.000000
13.304200 0.000000
13.316900 0.000000
13.329500 0.000000
13.342200 0.000000
13.354900 0.000000
13.367600 0.000000
13.380300 0.000000
13.393000 0.000000
13.405600 0.000000
e
