set title 'mp-1004526 - Density of States'
set xlabel 'Energy (eV)'
set ylabel 'DOS (states/eV)'
set grid
set xrange [-10:10]
set yrange [0:7.519]
set xzeroaxis lt -1
set terminal png size 800,600
set output 'mp-1004526_dos_gnuplot.png'
plot '-' using 1:2 with lines title 'DOS'
-34.393500 0.000000
-34.357600 0.000000
-34.321800 0.000000
-34.285900 0.000000
-34.250000 0.000000
-34.214200 0.000000
-34.178300 0.000000
-34.142400 0.000000
-34.106500 0.000000
-34.070700 0.000000
-34.034800 0.000000
-33.998900 0.000000
-33.963100 0.000000
-33.927200 0.000000
-33.891300 0.000000
-33.855400 0.000000
-33.819600 0.000000
-33.783700 0.000000
-33.747800 0.000000
-33.712000 0.000000
-33.676100 0.000000
-33.640200 0.000000
-33.604400 0.000000
-33.568500 0.000000
-33.532600 0.000000
-33.496700 0.000000
-33.460900 0.000000
-33.425000 0.000000
-33.389100 0.000000
-33.353300 0.000000
-33.317400 0.000000
-33.281500 0.000000
-33.245600 0.000000
-33.209800 0.000000
-33.173900 0.000000
-33.138000 0.000000
-33.102200 0.000000
-33.066300 0.000000
-33.030400 0.000000
-32.994600 0.000000
-32.958700 0.000000
-32.922800 0.000000
-32.886900 0.000000
-32.851100 0.000000
-32.815200 0.000000
-32.779300 0.000000
-32.743500 0.000000
-32.707600 0.000000
-32.671700 0.000000
-32.635800 0.000000
-32.600000 0.000000
-32.564100 0.000000
-32.528200 0.000000
-32.492400 0.000000
-32.456500 0.000000
-32.420600 0.000000
-32.384800 0.000000
-32.348900 0.000000
-32.313000 0.000000
-32.277100 0.000000
-32.241300 0.000000
-32.205400 0.000000
-32.169500 0.000000
-32.133700 0.000000
-32.097800 0.000000
-32.061900 0.000000
-32.026000 0.000000
-31.990200 0.000000
-31.954300 0.000000
-31.918400 0.000000
-31.882600 0.000000
-31.846700 0.000000
-31.810800 0.000000
-31.775000 0.000000
-31.739100 0.000000
-31.703200 0.000000
-31.667300 0.000000
-31.631500 0.000000
-31.595600 0.000000
-31.559700 0.000000
-31.523900 0.000000
-31.488000 0.000000
-31.452100 0.000000
-31.416200 0.000000
-31.380400 0.000000
-31.344500 0.000000
-31.308600 0.000000
-31.272800 0.000000
-31.236900 0.000000
-31.201000 0.000000
-31.165200 0.000000
-31.129300 10.644200
-31.093400 16.068000
-31.057500 41.198100
-31.021700 63.544700
-30.985800 142.624700
-30.949900 7.963800
-30.914100 9.478000
-30.878200 10.654700
-30.842300 12.219800
-30.806400 15.248200
-30.770600 21.136000
-30.734700 27.796300
-30.698800 18.600800
-30.663000 16.924100
-30.627100 13.289900
-30.591200 0.000000
-30.555400 0.000000
-30.519500 0.000000
-30.483600 0.000000
-30.447700 0.000000
-30.411900 0.000000
-30.376000 0.000000
-30.340100 0.000000
-30.304300 0.000000
-30.268400 0.000000
-30.232500 0.000000
-30.196600 0.000000
-30.160800 0.000000
-30.124900 0.000000
-30.089000 0.000000
-30.053200 0.000000
-30.017300 0.000000
-29.981400 0.000000
-29.945600 0.000000
-29.909700 0.000000
-29.873800 0.000000
-29.837900 0.000000
-29.802100 0.000000
-29.766200 0.000000
-29.730300 0.000000
-29.694500 0.000000
-29.658600 0.000000
-29.622700 0.000000
-29.586800 0.000000
-29.551000 0.000000
-29.515100 0.000000
-29.479200 0.000000
-29.443400 0.000000
-29.407500 0.000000
-29.371600 0.000000
-29.335700 0.000000
-29.299900 0.000000
-29.264000 0.000000
-29.228100 0.000000
-29.192300 0.000000
-29.156400 0.000000
-29.120500 0.000000
-29.084700 0.000000
-29.048800 0.000000
-29.012900 0.000000
-28.977000 0.000000
-28.941200 0.000000
-28.905300 0.000000
-28.869400 0.000000
-28.833600 0.000000
-28.797700 0.000000
-28.761800 0.000000
-28.725900 0.000000
-28.690100 0.000000
-28.654200 0.000000
-28.618300 0.000000
-28.582500 0.000000
-28.546600 0.000000
-28.510700 0.000000
-28.474900 0.000000
-28.439000 0.000000
-28.403100 0.000000
-28.367200 0.000000
-28.331400 0.000000
-28.295500 0.000000
-28.259600 0.000000
-28.223800 0.000000
-28.187900 0.000000
-28.152000 0.000000
-28.116100 0.000000
-28.080300 0.000000
-28.044400 0.000000
-28.008500 0.000000
-27.972700 0.000000
-27.936800 0.000000
-27.900900 0.000000
-27.865100 0.000000
-27.829200 0.000000
-27.793300 0.000000
-27.757400 0.000000
-27.721600 0.000000
-27.685700 0.000000
-27.649800 0.000000
-27.614000 0.000000
-27.578100 0.000000
-27.542200 0.000000
-27.506300 0.000000
-27.470500 0.000000
-27.434600 0.000000
-27.398700 0.000000
-27.362900 0.000000
-27.327000 0.000000
-27.291100 0.000000
-27.255300 0.000000
-27.219400 0.000000
-27.183500 0.000000
-27.147600 0.000000
-27.111800 0.000000
-27.075900 0.000000
-27.040000 0.000000
-27.004200 0.000000
-26.968300 0.000000
-26.932400 0.000000
-26.896500 0.000000
-26.860700 0.000000
-26.824800 0.000000
-26.788900 0.000000
-26.753100 0.000000
-26.717200 0.000000
-26.681300 0.000000
-26.645500 0.000000
-26.609600 0.000000
-26.573700 0.000000
-26.537800 0.000000
-26.502000 0.000000
-26.466100 0.000000
-26.430200 0.000000
-26.394400 0.000000
-26.358500 0.000000
-26.322600 0.000000
-26.286700 0.000000
-26.250900 0.000000
-26.215000 0.000000
-26.179100 0.000000
-26.143300 0.000000
-26.107400 0.000000
-26.071500 0.000000
-26.035700 0.000000
-25.999800 0.000000
-25.963900 0.000000
-25.928000 0.000000
-25.892200 0.000000
-25.856300 0.000000
-25.820400 0.000000
-25.784600 0.000000
-25.748700 0.000000
-25.712800 0.000000
-25.676900 0.000000
-25.641100 0.000000
-25.605200 0.000000
-25.569300 0.000000
-25.533500 0.000000
-25.497600 0.000000
-25.461700 0.000000
-25.425900 0.000000
-25.390000 0.000000
-25.354100 0.000000
-25.318200 0.000000
-25.282400 0.000000
-25.246500 0.000000
-25.210600 0.000000
-25.174800 0.000000
-25.138900 0.000000
-25.103000 0.000000
-25.067100 0.000000
-25.031300 0.000000
-24.995400 0.000000
-24.959500 0.000000
-24.923700 0.000000
-24.887800 0.000000
-24.851900 0.000000
-24.816100 0.000000
-24.780200 0.000000
-24.744300 0.000000
-24.708400 0.000000
-24.672600 0.000000
-24.636700 0.000000
-24.600800 0.000000
-24.565000 0.000000
-24.529100 0.000000
-24.493200 0.000000
-24.457300 0.000000
-24.421500 0.000000
-24.385600 0.000000
-24.349700 0.000000
-24.313900 0.000000
-24.278000 0.000000
-24.242100 0.000000
-24.206300 0.000000
-24.170400 0.000000
-24.134500 0.000000
-24.098600 0.000000
-24.062800 0.000000
-24.026900 0.000000
-23.991000 0.000000
-23.955200 0.000000
-23.919300 0.000000
-23.883400 0.000000
-23.847500 0.000000
-23.811700 0.000000
-23.775800 0.000000
-23.739900 0.000000
-23.704100 0.000000
-23.668200 0.000000
-23.632300 0.000000
-23.596500 0.000000
-23.560600 0.000000
-23.524700 0.000000
-23.488800 0.000000
-23.453000 0.000000
-23.417100 0.000000
-23.381200 0.000000
-23.345400 0.000000
-23.309500 0.000000
-23.273600 0.000000
-23.237700 0.000000
-23.201900 0.000000
-23.166000 0.000000
-23.130100 0.000000
-23.094300 0.000000
-23.058400 0.000000
-23.022500 0.000000
-22.986600 0.000000
-22.950800 0.000000
-22.914900 0.000000
-22.879000 0.000000
-22.843200 0.000000
-22.807300 0.000000
-22.771400 0.000000
-22.735600 0.000000
-22.699700 0.000000
-22.663800 0.000000
-22.627900 0.000000
-22.592100 0.000000
-22.556200 0.000000
-22.520300 0.000000
-22.484500 0.000000
-22.448600 0.000000
-22.412700 0.000000
-22.376800 0.000000
-22.341000 0.000000
-22.305100 0.000000
-22.269200 0.000000
-22.233400 0.000000
-22.197500 0.000000
-22.161600 0.000000
-22.125800 0.000000
-22.089900 0.000000
-22.054000 0.000000
-22.018100 0.000000
-21.982300 0.000000
-21.946400 0.000000
-21.910500 0.000000
-21.874700 0.000000
-21.838800 0.000000
-21.802900 0.000000
-21.767000 0.000000
-21.731200 0.000000
-21.695300 0.000000
-21.659400 0.000000
-21.623600 0.000000
-21.587700 0.000000
-21.551800 0.000000
-21.516000 0.000000
-21.480100 0.000000
-21.444200 0.000000
-21.408300 0.000000
-21.372500 0.000000
-21.336600 0.000000
-21.300700 0.000000
-21.264900 0.000000
-21.229000 0.000000
-21.193100 0.000000
-21.157200 0.000000
-21.121400 0.000000
-21.085500 0.000000
-21.049600 0.000000
-21.013800 0.000000
-20.977900 0.000000
-20.942000 0.000000
-20.906200 0.000000
-20.870300 0.000000
-20.834400 0.000000
-20.798500 0.000000
-20.762700 0.000000
-20.726800 0.000000
-20.690900 0.000000
-20.655100 0.000000
-20.619200 0.000000
-20.583300 0.000000
-20.547400 0.000000
-20.511600 0.000000
-20.475700 0.000000
-20.439800 0.000000
-20.404000 0.000000
-20.368100 0.000000
-20.332200 0.000000
-20.296400 0.000000
-20.260500 0.000000
-20.224600 0.000000
-20.188700 0.000000
-20.152900 0.000000
-20.117000 0.000000
-20.081100 0.000000
-20.045300 0.000000
-20.009400 0.000000
-19.973500 0.000000
-19.937600 0.000000
-19.901800 0.000000
-19.865900 0.000000
-19.830000 0.000000
-19.794200 0.000000
-19.758300 0.000000
-19.722400 0.000000
-19.686600 0.000000
-19.650700 0.000000
-19.614800 0.000000
-19.578900 0.000000
-19.543100 0.000000
-19.507200 0.000000
-19.471300 0.000000
-19.435500 0.000000
-19.399600 0.000000
-19.363700 0.000000
-19.327800 0.000000
-19.292000 0.000000
-19.256100 0.000000
-19.220200 0.000000
-19.184400 0.000000
-19.148500 0.000000
-19.112600 0.000000
-19.076800 0.000000
-19.040900 0.000000
-19.005000 0.000000
-18.969100 0.000000
-18.933300 0.000000
-18.897400 0.000000
-18.861500 0.000000
-18.825700 0.000000
-18.789800 0.000000
-18.753900 0.000000
-18.718000 0.000000
-18.682200 0.000000
-18.646300 0.000000
-18.610400 0.000000
-18.574600 0.000000
-18.538700 0.000000
-18.502800 0.000000
-18.467000 0.000000
-18.431100 0.000000
-18.395200 0.000000
-18.359300 0.000000
-18.323500 0.000000
-18.287600 0.000000
-18.251700 0.000000
-18.215900 0.000000
-18.180000 0.000000
-18.144100 0.000000
-18.108200 0.000000
-18.072400 0.000000
-18.036500 0.000000
-18.000600 0.000000
-17.964800 0.000000
-17.928900 0.000000
-17.893000 0.000000
-17.857200 0.000000
-17.821300 0.000000
-17.785400 0.000000
-17.749500 0.000000
-17.713700 0.000000
-17.677800 0.000000
-17.641900 0.000000
-17.606100 0.000000
-17.570200 0.000000
-17.534300 0.000000
-17.498400 0.000000
-17.462600 0.000000
-17.426700 0.000000
-17.390800 0.000000
-17.355000 0.000000
-17.319100 0.000000
-17.283200 0.000000
-17.247400 0.000000
-17.211500 0.000000
-17.175600 0.000000
-17.139700 0.000000
-17.103900 0.000000
-17.068000 0.000000
-17.032100 0.000000
-16.996300 0.000000
-16.960400 0.000000
-16.924500 0.000000
-16.888600 0.000000
-16.852800 0.000000
-16.816900 0.000000
-16.781000 0.000000
-16.745200 0.000000
-16.709300 0.000000
-16.673400 0.000000
-16.637600 0.000000
-16.601700 0.000000
-16.565800 0.000000
-16.529900 0.000000
-16.494100 0.000000
-16.458200 0.000000
-16.422300 0.000000
-16.386500 0.000000
-16.350600 0.000000
-16.314700 0.000000
-16.278800 0.000000
-16.243000 0.000000
-16.207100 0.000000
-16.171200 0.000000
-16.135400 0.000000
-16.099500 0.000000
-16.063600 0.000000
-16.027700 0.000000
-15.991900 0.000000
-15.956000 0.000000
-15.920100 0.000000
-15.884300 0.000000
-15.848400 0.000000
-15.812500 0.000000
-15.776700 0.000000
-15.740800 0.000000
-15.704900 0.000000
-15.669000 0.000000
-15.633200 0.000000
-15.597300 0.000000
-15.561400 0.000000
-15.525600 0.000000
-15.489700 0.000000
-15.453800 0.000000
-15.417900 0.000000
-15.382100 0.000000
-15.346200 0.000000
-15.310300 0.000000
-15.274500 0.000000
-15.238600 0.000000
-15.202700 0.000000
-15.166900 0.000000
-15.131000 0.000000
-15.095100 0.000000
-15.059200 0.000000
-15.023400 0.000000
-14.987500 0.000000
-14.951600 0.000000
-14.915800 0.000000
-14.879900 0.000000
-14.844000 0.000000
-14.808100 0.000000
-14.772300 0.000000
-14.736400 0.000000
-14.700500 0.000000
-14.664700 0.000000
-14.628800 0.000000
-14.592900 0.000000
-14.557100 0.000000
-14.521200 0.000000
-14.485300 0.000000
-14.449400 0.000000
-14.413600 0.000000
-14.377700 0.000000
-14.341800 0.000000
-14.306000 0.000000
-14.270100 0.000000
-14.234200 0.000000
-14.198300 0.000000
-14.162500 0.000000
-14.126600 0.000000
-14.090700 0.000000
-14.054900 0.000000
-14.019000 0.000000
-13.983100 0.000000
-13.947300 0.000000
-13.911400 0.000000
-13.875500 0.000000
-13.839600 0.000000
-13.803800 0.000000
-13.767900 0.000000
-13.732000 0.000000
-13.696200 0.000000
-13.660300 0.000000
-13.624400 0.000000
-13.588500 0.000000
-13.552700 0.000000
-13.516800 0.000000
-13.480900 0.000000
-13.445100 0.000000
-13.409200 0.000000
-13.373300 0.000000
-13.337500 0.000000
-13.301600 0.000000
-13.265700 0.000000
-13.229800 0.000000
-13.194000 0.000000
-13.158100 0.000000
-13.122200 0.000000
-13.086400 0.000000
-13.050500 0.000000
-13.014600 0.000000
-12.978700 0.000000
-12.942900 0.000000
-12.907000 0.000000
-12.871100 0.000000
-12.835300 0.000000
-12.799400 0.000000
-12.763500 0.000000
-12.727700 0.000000
-12.691800 0.000000
-12.655900 0.000000
-12.620000 0.000000
-12.584200 0.000000
-12.548300 0.000000
-12.512400 0.000000
-12.476600 0.000000
-12.440700 0.000000
-12.404800 0.000000
-12.368900 0.000000
-12.333100 0.000000
-12.297200 0.000000
-12.261300 0.000000
-12.225500 0.000000
-12.189600 0.000000
-12.153700 0.000000
-12.117900 0.000000
-12.082000 0.000000
-12.046100 0.000000
-12.010200 0.000000
-11.974400 0.000000
-11.938500 0.000000
-11.902600 0.000000
-11.866800 0.000000
-11.830900 0.000000
-11.795000 0.000000
-11.759100 0.000000
-11.723300 0.000000
-11.687400 0.000000
-11.651500 0.000000
-11.615700 0.000000
-11.579800 0.000000
-11.543900 0.000000
-11.508100 0.000000
-11.472200 0.000000
-11.436300 0.000000
-11.400400 0.000000
-11.364600 0.000000
-11.328700 0.000000
-11.292800 0.000000
-11.257000 0.000000
-11.221100 0.000000
-11.185200 0.000000
-11.149300 0.000000
-11.113500 0.000000
-11.077600 0.000000
-11.041700 0.000000
-11.005900 0.000000
-10.970000 0.000000
-10.934100 0.000000
-10.898300 0.000000
-10.862400 0.000000
-10.826500 0.000000
-10.790600 0.000000
-10.754800 0.000000
-10.718900 0.000000
-10.683000 0.000000
-10.647200 0.000000
-10.611300 0.000000
-10.575400 0.000000
-10.539500 0.000000
-10.503700 0.000000
-10.467800 0.000000
-10.431900 0.000000
-10.396100 0.000000
-10.360200 0.000000
-10.324300 0.000000
-10.288500 0.000000
-10.252600 0.000000
-10.216700 0.000000
-10.180800 0.000000
-10.145000 0.000000
-10.109100 0.000000
-10.073200 0.000000
-10.037400 0.000000
-10.001500 0.000000
-9.965600 0.000000
-9.929700 0.000000
-9.893900 0.000000
-9.858000 0.000000
-9.822100 0.000000
-9.786300 0.000000
-9.750400 0.000000
-9.714500 0.000000
-9.678600 0.000000
-9.642800 0.000000
-9.606900 0.000000
-9.571000 0.000000
-9.535200 0.000000
-9.499300 0.000000
-9.463400 0.000000
-9.427600 0.000000
-9.391700 0.000000
-9.355800 0.000000
-9.319900 0.000000
-9.284100 0.000000
-9.248200 0.000000
-9.212300 0.000000
-9.176500 0.000000
-9.140600 0.000000
-9.104700 0.000000
-9.068800 0.000000
-9.033000 0.000000
-8.997100 0.000000
-8.961200 0.000000
-8.925400 0.000000
-8.889500 0.000000
-8.853600 0.000000
-8.817800 0.000000
-8.781900 0.000000
-8.746000 0.000000
-8.710100 0.000000
-8.674300 0.033400
-8.638400 0.158500
-8.602500 0.187600
-8.566700 0.231300
-8.530800 0.285600
-8.494900 0.326900
-8.459000 0.347100
-8.423200 0.379700
-8.387300 0.415100
-8.351400 0.450900
-8.315600 0.489600
-8.279700 0.518800
-8.243800 0.550500
-8.208000 0.582200
-8.172100 0.615000
-8.136200 0.652500
-8.100300 0.693400
-8.064500 0.741900
-8.028600 0.787400
-7.992700 0.830700
-7.956900 0.880400
-7.921000 0.982300
-7.885100 1.089900
-7.849200 1.094200
-7.813400 1.121600
-7.777500 1.133800
-7.741600 1.137700
-7.705800 1.155200
-7.669900 1.172700
-7.634000 1.185700
-7.598200 1.193700
-7.562300 1.208700
-7.526400 1.225500
-7.490500 1.244100
-7.454700 1.262500
-7.418800 1.279000
-7.382900 1.293400
-7.347100 1.314000
-7.311200 1.336600
-7.275300 1.360000
-7.239400 1.384700
-7.203600 1.409900
-7.167700 1.435600
-7.131800 1.461900
-7.096000 1.490100
-7.060100 1.520000
-7.024200 1.551000
-6.988400 1.590700
-6.952500 1.635100
-6.916600 1.683000
-6.880700 1.736200
-6.844900 1.792700
-6.809000 1.853100
-6.773100 1.917400
-6.737300 1.985700
-6.701400 2.062400
-6.665500 2.161000
-6.629600 2.304600
-6.593800 2.492200
-6.557900 2.764800
-6.522000 3.269500
-6.486200 3.256500
-6.450300 3.375300
-6.414400 3.345400
-6.378600 3.454000
-6.342700 3.528100
-6.306800 3.531700
-6.270900 3.548300
-6.235100 3.469200
-6.199200 3.046200
-6.163300 2.786400
-6.127500 2.393400
-6.091600 2.226600
-6.055700 1.303800
-6.019800 0.000000
-5.984000 0.000000
-5.948100 0.000000
-5.912200 0.000000
-5.876400 0.000000
-5.840500 0.000000
-5.804600 0.000000
-5.768800 0.000000
-5.732900 0.000000
-5.697000 0.000000
-5.661100 0.000000
-5.625300 0.000000
-5.589400 0.000000
-5.553500 0.000000
-5.517700 0.000000
-5.481800 0.000000
-5.445900 0.000000
-5.410000 0.000000
-5.374200 0.000000
-5.338300 0.000000
-5.302400 0.000000
-5.266600 0.000000
-5.230700 0.000000
-5.194800 0.000000
-5.159000 0.000000
-5.123100 0.000000
-5.087200 0.000000
-5.051300 0.000000
-5.015500 0.000000
-4.979600 0.000000
-4.943700 0.000000
-4.907900 0.000000
-4.872000 0.000000
-4.836100 0.000000
-4.800200 0.000000
-4.764400 0.000000
-4.728500 0.000000
-4.692600 0.000000
-4.656800 0.000000
-4.620900 0.000000
-4.585000 0.000000
-4.549200 0.000000
-4.513300 0.000000
-4.477400 0.000000
-4.441500 0.000000
-4.405700 0.000000
-4.369800 0.000000
-4.333900 0.000000
-4.298100 0.000000
-4.262200 0.000000
-4.226300 0.000000
-4.190400 0.000000
-4.154600 0.000000
-4.118700 0.000000
-4.082800 0.000000
-4.047000 0.000000
-4.011100 0.000000
-3.975200 0.000000
-3.939400 0.000000
-3.903500 0.000000
-3.867600 0.000000
-3.831700 0.000000
-3.795900 0.000000
-3.760000 0.000000
-3.724100 0.000000
-3.688300 0.000000
-3.652400 0.000000
-3.616500 0.000000
-3.580600 0.000000
-3.544800 0.000000
-3.508900 0.000000
-3.473000 0.000000
-3.437200 0.000000
-3.401300 0.000000
-3.365400 0.000000
-3.329600 0.000000
-3.293700 0.000000
-3.257800 0.000000
-3.221900 0.000000
-3.186100 0.000000
-3.150200 0.000000
-3.114300 0.000000
-3.078500 0.000000
-3.042600 0.000000
-3.006700 0.000000
-2.970800 0.000000
-2.935000 0.000000
-2.899100 0.000000
-2.863200 0.000000
-2.827400 0.000000
-2.791500 0.000000
-2.755600 0.000000
-2.719700 0.000000
-2.683900 0.000000
-2.648000 0.000000
-2.612100 0.000000
-2.576300 0.000000
-2.540400 0.000000
-2.504500 0.000000
-2.468700 0.000000
-2.432800 0.000000
-2.396900 0.000000
-2.361000 0.000000
-2.325200 0.000000
-2.289300 0.000000
-2.253400 0.000000
-2.217600 0.000000
-2.181700 0.000000
-2.145800 0.000000
-2.109900 0.000000
-2.074100 0.000000
-2.038200 0.000000
-2.002300 0.000000
-1.966500 0.000000
-1.930600 0.000000
-1.894700 0.000000
-1.858900 0.000000
-1.823000 0.000000
-1.787100 0.000000
-1.751200 0.000000
-1.715400 0.000000
-1.679500 0.000000
-1.643600 0.000000
-1.607800 0.000000
-1.571900 0.000000
-1.536000 0.000000
-1.500100 0.000000
-1.464300 0.000000
-1.428400 0.000000
-1.392500 0.000000
-1.356700 0.000000
-1.320800 0.000000
-1.284900 0.000000
-1.249100 0.000000
-1.213200 0.000000
-1.177300 0.000000
-1.141400 0.000000
-1.105600 0.000100
-1.069700 0.012000
-1.033800 0.044100
-0.998000 0.077200
-0.962100 0.100600
-0.926200 0.112700
-0.890300 0.121900
-0.854500 0.138900
-0.818600 0.154900
-0.782700 0.167900
-0.746900 0.178300
-0.711000 0.189200
-0.675100 0.202600
-0.639300 0.217000
-0.603400 0.229600
-0.567500 0.242700
-0.531600 0.256300
-0.495800 0.267700
-0.459900 0.278600
-0.424000 0.520200
-0.388200 0.626400
-0.352300 0.764800
-0.316400 0.918500
-0.280500 1.053700
-0.244700 1.142600
-0.208800 1.252000
-0.172900 1.391200
-0.137100 1.596000
-0.101200 2.025600
-0.065300 2.176500
-0.029500 2.319900
0.006400 2.431900
0.042300 2.514800
0.078200 2.474700
0.114000 2.551200
0.149900 2.633900
0.185800 2.731900
0.221600 2.866300
0.257500 3.015100
0.293400 3.182700
0.329300 3.412000
0.365100 3.937400
0.401000 4.314000
0.436900 4.355400
0.472700 4.178900
0.508600 4.190300
0.544500 4.469600
0.580300 4.658600
0.616200 4.131300
0.652100 3.815400
0.688000 3.526800
0.723800 3.215400
0.759700 2.999100
0.795600 2.952000
0.831400 2.974900
0.867300 2.915900
0.903200 2.598400
0.939100 1.981500
0.974900 1.780400
1.010800 1.102500
1.046700 0.231800
1.082500 0.108000
1.118400 0.152700
1.154300 0.200100
1.190100 0.257200
1.226000 0.327600
1.261900 0.450700
1.297800 0.607500
1.333600 0.819500
1.369500 1.499900
1.405400 2.285500
1.441200 2.648500
1.477100 3.256700
1.513000 3.631000
1.548900 3.873900
1.584700 4.206300
1.620600 5.459400
1.656500 5.406500
1.692300 4.848200
1.728200 3.887000
1.764100 3.190600
1.799900 3.054200
1.835800 3.091800
1.871700 3.533800
1.907600 3.514800
1.943400 2.713300
1.979300 2.449400
2.015200 2.252500
2.051000 2.065500
2.086900 1.908900
2.122800 1.772900
2.158700 1.644100
2.194500 1.518900
2.230400 1.422500
2.266300 1.341100
2.302100 1.265500
2.338000 1.184900
2.373900 1.101300
2.409700 1.887400
2.445600 2.175000
2.481500 1.934700
2.517400 1.840500
2.553200 1.853500
2.589100 1.918300
2.625000 1.930600
2.660800 1.970000
2.696700 1.977200
2.732600 1.960000
2.768500 1.976100
2.804300 1.985500
2.840200 1.992500
2.876100 1.988000
2.911900 1.950800
2.947800 1.887600
2.983700 1.845000
3.019500 1.825500
3.055400 1.815200
3.091300 1.807800
3.127200 1.805700
3.163000 1.815700
3.198900 1.832000
3.234800 1.856900
3.270600 1.880500
3.306500 1.907000
3.342400 1.934700
3.378300 1.969900
3.414100 2.004900
3.450000 2.026400
3.485900 2.046100
3.521700 2.071200
3.557600 2.169300
3.593500 2.274400
3.629400 2.370600
3.665200 2.466700
3.701100 2.460400
3.737000 2.438000
3.772800 2.419300
3.808700 2.427800
3.844600 2.458900
3.880400 2.482000
3.916300 2.466700
3.952200 2.454100
3.988100 2.435800
4.023900 2.414100
4.059800 2.337800
4.095700 2.261600
4.131500 2.219300
4.167400 2.132000
4.203300 2.051800
4.239200 1.976200
4.275000 1.946200
4.310900 1.989100
4.346800 2.020200
4.382600 2.049100
4.418500 2.082700
4.454400 2.127800
4.490200 2.318700
4.526100 2.714300
4.562000 2.923500
4.597900 3.117000
4.633700 3.669000
4.669600 3.105700
4.705500 3.320300
4.741300 5.679700
4.777200 3.051000
4.813100 2.444700
4.849000 4.115900
4.884800 5.818700
4.920700 6.835500
4.956600 5.610800
4.992400 4.476200
5.028300 4.248400
5.064200 3.971900
5.100000 3.899700
5.135900 3.770400
5.171800 3.858000
5.207700 3.936600
5.243500 4.073500
5.279400 3.753400
5.315300 3.484000
5.351100 3.323200
5.387000 3.137300
5.422900 3.002000
5.458800 2.838800
5.494600 2.725700
5.530500 2.595600
5.566400 2.470300
5.602200 2.373000
5.638100 2.328200
5.674000 2.282500
5.709800 2.204200
5.745700 2.173200
5.781600 3.793600
5.817500 0.925300
5.853300 0.556100
5.889200 0.361300
5.925100 0.072100
5.960900 0.058800
5.996800 0.121900
6.032700 0.209500
6.068600 0.327700
6.104400 1.034800
6.140300 2.649500
6.176200 4.832100
6.212000 6.379400
6.247900 5.869700
6.283800 5.340500
6.319600 5.044300
6.355500 4.725100
6.391400 4.595600
6.427300 4.790000
6.463100 5.274800
6.499000 4.816000
6.534900 4.244900
6.570700 3.665900
6.606600 3.355700
6.642500 3.230200
6.678400 3.105400
6.714200 2.910900
6.750100 2.689300
6.786000 2.450300
6.821800 2.279200
6.857700 2.152200
6.893600 2.035200
6.929400 1.922100
6.965300 1.813700
7.001200 1.716400
7.037100 1.637200
7.072900 1.568300
7.108800 1.506500
7.144700 1.450600
7.180500 1.400100
7.216400 1.387000
7.252300 1.433900
7.288200 1.470900
7.324000 1.408200
7.359900 1.386000
7.395800 1.640200
7.431600 0.852100
7.467500 0.387900
7.503400 0.332600
7.539200 0.943300
7.575100 1.284000
7.611000 1.371200
7.646900 1.673100
7.682700 1.251900
7.718600 1.213900
7.754500 1.214600
7.790300 1.269000
7.826200 1.393000
7.862100 1.538500
7.898000 1.783100
7.933800 1.880700
7.969700 1.966500
8.005600 2.282600
8.041400 2.470300
8.077300 2.207500
8.113200 1.936400
8.149000 1.891900
8.184900 1.912200
8.220800 1.961300
8.256700 2.027400
8.292500 2.101700
8.328400 2.305000
8.364300 2.335900
8.400100 2.320300
8.436000 2.309000
8.471900 2.276000
8.507800 2.200900
8.543600 2.211500
8.579500 2.227900
8.615400 2.250300
8.651200 2.269300
8.687100 2.284900
8.723000 2.297900
8.758800 2.320300
8.794700 2.371800
8.830600 2.465400
8.866500 2.584600
8.902300 2.680100
8.938200 2.727100
8.974100 2.682300
9.009900 2.580400
9.045800 2.437200
9.081700 2.322500
9.117600 2.258800
9.153400 2.240700
9.189300 2.230800
9.225200 2.211300
9.261000 2.201100
9.296900 2.195500
9.332800 2.137800
9.368600 2.066200
9.404500 1.994800
9.440400 1.920100
9.476300 1.865400
9.512100 1.931100
9.548000 2.081200
9.583900 2.301200
9.619700 2.394900
9.655600 2.395900
9.691500 2.419900
9.727400 2.512200
9.763200 2.501700
9.799100 2.577800
9.835000 2.664100
9.870800 2.799600
9.906700 3.017200
9.942600 3.440000
9.978500 3.819500
10.014300 3.909900
10.050200 4.229400
10.086100 4.044100
10.121900 4.110800
10.157800 4.463600
10.193700 5.101800
10.229500 4.920700
10.265400 4.727400
10.301300 4.881600
10.337200 4.453900
10.373000 3.443500
10.408900 2.828300
10.444800 2.365300
10.480600 2.244100
10.516500 2.369600
10.552400 2.940000
10.588300 3.687000
10.624100 3.976200
10.660000 3.491800
10.695900 3.217000
10.731700 3.031900
10.767600 2.855900
10.803500 2.890400
10.839300 2.927700
10.875200 2.918300
10.911100 2.909900
10.947000 3.154900
10.982800 3.602900
11.018700 3.833700
11.054600 3.707500
11.090400 3.411700
11.126300 3.225800
11.162200 3.070700
11.198100 3.018900
11.233900 3.083700
11.269800 3.111600
11.305700 3.158700
11.341500 3.244600
11.377400 3.196700
11.413300 3.235400
11.449100 3.472000
11.485000 3.677100
11.520900 3.795500
11.556800 3.865000
11.592600 4.493500
11.628500 4.203000
11.664400 3.556600
11.700200 3.435300
11.736100 3.156500
11.772000 3.191100
11.807900 3.429500
11.843700 3.612900
11.879600 3.701500
11.915500 2.579700
11.951300 1.784200
11.987200 1.352600
12.023100 1.179900
12.058900 1.081000
12.094800 1.000700
12.130700 0.973800
12.166600 0.959000
12.202400 0.962700
12.238300 0.976100
12.274200 0.996700
12.310000 1.026800
12.345900 1.062100
12.381800 1.095700
12.417700 1.118700
12.453500 1.131500
12.489400 1.139100
12.525300 1.145200
12.561100 1.151400
12.597000 1.153300
12.632900 1.152900
12.668700 1.177100
12.704600 1.198200
12.740500 1.186600
12.776400 1.172300
12.812200 1.157100
12.848100 1.140400
12.884000 1.121700
12.919800 1.104000
12.955700 1.094500
12.991600 1.094300
13.027500 1.098500
13.063300 1.102900
13.099200 1.108000
13.135100 1.115400
13.170900 1.127000
13.206800 1.139900
13.242700 1.146700
13.278500 1.151000
13.314400 1.163300
13.350300 1.177000
13.386200 1.197600
13.422000 1.228100
13.457900 1.269900
13.493800 1.323900
13.529600 1.419200
13.565500 1.568400
13.601400 1.727000
13.637300 1.912800
13.673100 2.388000
13.709000 2.529300
13.744900 2.763700
13.780700 2.471700
13.816600 2.285200
13.852500 2.351900
13.888300 2.474000
13.924200 2.208000
13.960100 1.989800
13.996000 1.813300
14.031800 1.817700
14.067700 1.810100
14.103600 1.810300
14.139400 1.843200
14.175300 1.942400
14.211200 2.076600
14.247100 2.173400
14.282900 2.222700
14.318800 2.273400
14.354700 2.232200
14.390500 2.136800
14.426400 2.064400
14.462300 2.003400
14.498100 2.003900
14.534000 1.907000
14.569900 1.815400
14.605800 1.752400
14.641600 1.719900
14.677500 1.701900
14.713400 1.694700
14.749200 1.708100
14.785100 1.707000
14.821000 1.786200
14.856900 1.871100
14.892700 1.977500
14.928600 2.062100
14.964500 2.075800
15.000300 2.104500
15.036200 2.127600
15.072100 2.078600
15.107900 2.045700
15.143800 1.959400
15.179700 1.938400
15.215600 1.931300
15.251400 1.928800
15.287300 1.929900
15.323200 1.936900
15.359000 1.937900
15.394900 2.004600
15.430800 2.040900
15.466700 2.039700
15.502500 2.068100
15.538400 2.105100
15.574300 2.170400
15.610100 2.261700
15.646000 2.387300
15.681900 2.507300
15.717700 2.530600
15.753600 2.548200
15.789500 2.545200
15.825400 2.519900
15.861200 2.470200
15.897100 2.403300
15.933000 2.316500
15.968800 2.275100
16.004700 2.362500
16.040600 2.341400
16.076500 2.314500
16.112300 2.277600
16.148200 2.131800
16.184100 2.029300
16.219900 1.954800
16.255800 1.878400
16.291700 1.804500
16.327500 1.739200
16.363400 1.719300
16.399300 1.739200
16.435200 1.785200
16.471000 1.836300
16.506900 1.861800
16.542800 1.660100
16.578600 1.490900
16.614500 1.284000
16.650400 1.134000
16.686300 1.029500
16.722100 1.108300
16.758000 0.835000
16.793900 0.786500
16.829700 0.848300
16.865600 0.873200
16.901500 0.953000
16.937400 0.988200
16.973200 1.037400
17.009100 1.076800
17.045000 1.113700
17.080800 1.259100
17.116700 1.410500
17.152600 1.592800
17.188400 1.839700
17.224300 2.457800
17.260200 3.165000
17.296100 5.035600
17.331900 4.907200
17.367800 4.673900
17.403700 3.480100
17.439500 3.672400
17.475400 4.052300
17.511300 4.349600
17.547200 3.674800
17.583000 3.316300
17.618900 2.841400
17.654800 2.584900
17.690600 2.437000
17.726500 2.308300
17.762400 2.213900
17.798200 2.260100
17.834100 2.320100
17.870000 2.321000
17.905900 2.377000
17.941700 2.393400
17.977600 2.414000
18.013500 2.437000
18.049300 2.668000
18.085200 2.453700
18.121100 2.480600
18.157000 2.757900
18.192800 2.710300
18.228700 2.698800
18.264600 2.574800
18.300400 2.554300
18.336300 2.631300
18.372200 2.866400
18.408000 3.319100
18.443900 4.076100
18.479800 4.020400
18.515700 4.111100
18.551500 4.147400
18.587400 3.864800
18.623300 3.770300
18.659100 3.643300
18.695000 3.746700
18.730900 3.991600
18.766800 3.840700
18.802600 3.834400
18.838500 3.301000
18.874400 3.259100
18.910200 3.295800
18.946100 3.335800
18.982000 3.354500
19.017800 3.169500
19.053700 2.824500
19.089600 2.733400
19.125500 2.533800
19.161300 2.191900
19.197200 1.963500
19.233100 1.897300
19.268900 1.872800
19.304800 1.974200
19.340700 2.065700
19.376600 2.123600
19.412400 2.144800
19.448300 2.123600
19.484200 2.255400
19.520000 2.573500
19.555900 2.505100
19.591800 2.565000
19.627600 2.634900
19.663500 2.722500
19.699400 2.914100
19.735300 2.901100
19.771100 2.901700
19.807000 2.811400
19.842900 2.741200
19.878700 2.741700
19.914600 3.101600
19.950500 3.198300
19.986400 3.350100
20.022200 3.568900
20.058100 3.789100
20.094000 3.840300
20.129800 3.573800
20.165700 3.256800
20.201600 3.017700
20.237400 2.948100
20.273300 2.953900
20.309200 2.945000
20.345100 2.893600
20.380900 2.804600
20.416800 2.677100
20.452700 2.526100
20.488500 2.391900
20.524400 2.307400
20.560300 2.263500
20.596200 2.210600
20.632000 1.997600
20.667900 1.808100
20.703800 1.696400
20.739600 1.586000
20.775500 1.524400
20.811400 1.445600
20.847200 1.375700
20.883100 1.329800
20.919000 1.277600
20.954900 1.209500
20.990700 1.229100
21.026600 1.240600
21.062500 1.216200
21.098300 1.266300
21.134200 1.341000
21.170100 1.392200
21.206000 1.404000
21.241800 1.417100
21.277700 1.438400
21.313600 1.547700
21.349400 1.549700
21.385300 1.624700
21.421200 1.732500
21.457000 1.887900
21.492900 2.144300
21.528800 2.678200
21.564700 2.619200
21.600500 2.544800
21.636400 2.573400
21.672300 2.569600
21.708100 2.401100
21.744000 2.241100
21.779900 2.125600
21.815800 2.185200
21.851600 2.524900
21.887500 2.572900
21.923400 2.570500
21.959200 2.194700
21.995100 2.255800
22.031000 2.262100
22.066800 2.202000
22.102700 2.210300
22.138600 2.355200
22.174500 2.515800
22.210300 2.706900
22.246200 2.998400
22.282100 3.247800
22.317900 3.338000
22.353800 3.405700
22.389700 4.035000
22.425600 3.330400
22.461400 2.561400
22.497300 2.250400
22.533200 2.095300
22.569000 2.269500
22.604900 2.432600
22.640800 2.202600
22.676600 2.118600
22.712500 2.128700
22.748400 2.140300
22.784300 2.177200
22.820100 2.189200
22.856000 2.102800
22.891900 2.179800
22.927700 2.231700
22.963600 2.266900
22.999500 2.302900
23.035400 2.337900
23.071200 2.375000
23.107100 2.413000
23.143000 2.443400
23.178800 2.466500
23.214700 2.489400
23.250600 2.511600
23.286500 2.433200
23.322300 2.248800
23.358200 1.852900
23.394100 1.715500
23.429900 1.700700
23.465800 1.751200
23.501700 1.814200
23.537500 1.871900
23.573400 1.915600
23.609300 1.995500
23.645200 2.223600
23.681000 2.343200
23.716900 2.486000
23.752800 2.609100
23.788600 2.650200
23.824500 2.734900
23.860400 2.735600
23.896300 2.801900
23.932100 2.818700
23.968000 2.766500
24.003900 2.706200
24.039700 2.560100
24.075600 2.488600
24.111500 2.292300
24.147300 2.209600
24.183200 2.186000
24.219100 2.188400
24.255000 2.206000
24.290800 2.287400
24.326700 2.313500
24.362600 2.376200
24.398400 2.473000
24.434300 2.494600
24.470200 2.546300
24.506100 2.588200
24.541900 2.637300
24.577800 2.473100
24.613700 2.490500
24.649500 2.550600
24.685400 2.656300
24.721300 2.724000
24.757100 2.671700
24.793000 2.561900
24.828900 2.423100
24.864800 2.332700
24.900600 2.288200
24.936500 2.266100
24.972400 2.282600
25.008200 2.349200
25.044100 2.328200
25.080000 2.273400
25.115900 2.281900
25.151700 2.238800
25.187600 2.180200
25.223500 2.133300
25.259300 2.048300
25.295200 2.030600
25.331100 2.021800
25.366900 2.023600
25.402800 2.029400
25.438700 1.984900
25.474600 2.028700
25.510400 2.188600
25.546300 2.356300
25.582200 2.456100
25.618000 2.450700
25.653900 2.279400
25.689800 2.208600
25.725700 2.202700
25.761500 2.199200
25.797400 2.151700
25.833300 2.115500
25.869100 2.126700
25.905000 2.359700
25.940900 2.127400
25.976700 1.947800
26.012600 1.990700
26.048500 2.127500
26.084400 2.258000
26.120200 2.392200
26.156100 2.512000
26.192000 2.484000
26.227800 2.455200
26.263700 2.377800
26.299600 2.169100
26.335500 1.958700
26.371300 1.682300
26.407200 1.357000
26.443100 1.072300
26.478900 0.967900
26.514800 0.904500
26.550700 0.850200
26.586500 0.836700
26.622400 0.865800
26.658300 0.911300
26.694200 0.969400
26.730000 1.065700
26.765900 1.288000
26.801800 1.686700
26.837600 1.701500
26.873500 1.912000
26.909400 2.097400
26.945300 2.250000
26.981100 2.306700
27.017000 2.229000
27.052900 2.164700
27.088700 2.156800
27.124600 2.144600
27.160500 2.203400
27.196300 2.129700
27.232200 2.183400
27.268100 2.279300
27.304000 2.485200
27.339800 2.436100
27.375700 2.374800
27.411600 2.354800
27.447400 2.354900
27.483300 2.355500
27.519200 2.420900
27.555100 2.570400
27.590900 2.781700
27.626800 2.962800
27.662700 3.310800
27.698500 3.234300
27.734400 3.465900
27.770300 3.386300
27.806100 3.161400
27.842000 3.015000
27.877900 2.950000
27.913800 3.206500
27.949600 2.439000
27.985500 2.331300
28.021400 2.264200
28.057200 2.064700
28.093100 2.055500
28.129000 2.028900
28.164900 2.031400
28.200700 2.042200
28.236600 1.969500
28.272500 1.880900
28.308300 2.056700
28.344200 2.159600
28.380100 2.365900
28.415900 2.616100
28.451800 2.927600
28.487700 3.230800
28.523600 3.454400
28.559400 3.580600
28.595300 3.425100
28.631200 3.338800
28.667000 3.335700
28.702900 3.229700
28.738800 2.791200
28.774700 2.513500
28.810500 2.296200
28.846400 2.161000
28.882300 2.091300
28.918100 2.138900
28.954000 2.270700
28.989900 2.271700
29.025700 2.224500
29.061600 2.193500
29.097500 2.254800
29.133400 2.650300
29.169200 2.785500
29.205100 2.720300
29.241000 2.558400
29.276800 2.354300
29.312700 2.144700
29.348600 2.043900
29.384500 2.081100
29.420300 2.110800
29.456200 2.142500
29.492100 2.178900
29.527900 2.172800
29.563800 2.167000
29.599700 2.201400
29.635600 2.321800
29.671400 2.342800
29.707300 2.342300
29.743200 2.370600
29.779000 2.414800
29.814900 2.443500
29.850800 2.500800
29.886600 2.471700
29.922500 2.441800
29.958400 2.474300
29.994300 2.529700
30.030100 2.596700
30.066000 2.649700
30.101900 2.718900
30.137700 2.806600
30.173600 2.893000
30.209500 3.039700
30.245400 3.427100
30.281200 4.183800
30.317100 4.030000
30.353000 3.678100
30.388800 2.900000
30.424700 2.330200
30.460600 2.136000
30.496400 2.178100
30.532300 2.134800
30.568200 2.115100
30.604100 2.200700
30.639900 2.176200
30.675800 2.293600
30.711700 2.462000
30.747500 2.606000
30.783400 2.580000
30.819300 2.492100
30.855200 2.550600
30.891000 2.637300
30.926900 2.752000
30.962800 2.693600
30.998600 2.642700
31.034500 2.734300
31.070400 2.825100
31.106200 2.892100
31.142100 2.935100
31.178000 2.987400
31.213900 2.954700
31.249700 2.821600
31.285600 2.699800
31.321500 2.581100
31.357300 2.495000
31.393200 2.333900
31.429100 2.168600
31.465000 2.016400
31.500800 1.849700
31.536700 1.586800
31.572600 1.457900
31.608400 1.500100
31.644300 1.518500
31.680200 1.509000
31.716000 1.557800
31.751900 1.589000
31.787800 1.579100
31.823700 1.594700
31.859500 1.621600
31.895400 1.575900
31.931300 1.604900
31.967100 1.687900
32.003000 1.840800
32.038900 2.088100
32.074800 2.294600
32.110600 2.417700
32.146500 2.395600
32.182400 2.378900
32.218200 2.114300
32.254100 2.196000
32.290000 2.296200
32.325800 2.341900
32.361700 2.307200
32.397600 2.323800
32.433500 2.644800
32.469300 3.006800
32.505200 3.240700
32.541100 3.379400
32.576900 3.398100
32.612800 3.365000
32.648700 3.315100
32.684600 3.258700
32.720400 3.069100
32.756300 2.813900
32.792200 2.466100
32.828000 2.203300
32.863900 1.975200
32.899800 1.768700
32.935600 1.578300
32.971500 1.434000
33.007400 1.272200
33.043300 1.106000
33.079100 0.993200
33.115000 0.908500
33.150900 0.817600
33.186700 0.754600
33.222600 0.598700
33.258500 0.497900
33.294400 0.442700
33.330200 0.436500
33.366100 0.440600
33.402000 0.447700
33.437800 0.481700
33.473700 0.468900
33.509600 0.430800
33.545400 0.394400
33.581300 0.356400
33.617200 0.342200
33.653100 0.295000
33.688900 0.249300
33.724800 0.096700
33.760700 0.085900
33.796500 0.075900
33.832400 0.066900
33.868300 0.058900
33.904200 0.051700
33.940000 0.052800
33.975900 0.043700
34.011800 0.035000
34.047600 0.026800
34.083500 0.014600
34.119400 0.000000
34.155200 0.000000
34.191100 0.000000
34.227000 0.000000
34.262900 0.000000
34.298700 0.000000
34.334600 0.000000
34.370500 0.000000
34.406300 0.000000
34.442200 0.000000
34.478100 0.000000
34.514000 0.000000
34.549800 0.000000
34.585700 0.000000
34.621600 0.000000
34.657400 0.000000
34.693300 0.000000
34.729200 0.000000
34.765000 0.000000
34.800900 0.000000
34.836800 0.000000
34.872700 0.000000
34.908500 0.000000
34.944400 0.000000
34.980300 0.000000
35.016100 0.000000
35.052000 0.000000
35.087900 0.000000
35.123800 0.000000
35.159600 0.000000
35.195500 0.000000
35.231400 0.000000
35.267200 0.000000
35.303100 0.000000
35.339000 0.000000
35.374800 0.000000
35.410700 0.000000
35.446600 0.000000
35.482500 0.000000
35.518300 0.000000
35.554200 0.000000
35.590100 0.000000
35.625900 0.000000
35.661800 0.000000
35.697700 0.000000
35.733600 0.000000
35.769400 0.000000
35.805300 0.000000
35.841200 0.000000
35.877000 0.000000
35.912900 0.000000
35.948800 0.000000
35.984600 0.000000
36.020500 0.000000
36.056400 0.000000
36.092300 0.000000
36.128100 0.000000
36.164000 0.000000
36.199900 0.000000
36.235700 0.000000
36.271600 0.000000
36.307500 0.000000
36.343400 0.000000
36.379200 0.000000
36.415100 0.000000
36.451000 0.000000
36.486800 0.000000
36.522700 0.000000
36.558600 0.000000
36.594500 0.000000
36.630300 0.000000
36.666200 0.000000
36.702100 0.000000
36.737900 0.000000
36.773800 0.000000
36.809700 0.000000
36.845500 0.000000
36.881400 0.000000
36.917300 0.000000
36.953200 0.000000
36.989000 0.000000
37.024900 0.000000
37.060800 0.000000
37.096600 0.000000
37.132500 0.000000
37.168400 0.000000
37.204300 0.000000
37.240100 0.000000
37.276000 0.000000
37.311900 0.000000
37.347700 0.000000
e
