set title 'mp-31033 - Density of States'
set xlabel 'Energy (eV)'
set ylabel 'DOS (states/eV)'
set grid
set xrange [-10:10]
set yrange [0:105.084]
set xzeroaxis lt -1
set terminal png size 800,600
set output 'mp-31033_dos_gnuplot.png'
plot '-' using 1:2 with lines title 'DOS'
-32.758500 0.000000
-32.731000 0.000000
-32.703500 0.000000
-32.676100 0.000000
-32.648600 0.000000
-32.621200 0.000000
-32.593700 0.000000
-32.566300 0.000000
-32.538800 0.000000
-32.511400 0.000000
-32.483900 0.000000
-32.456400 0.000000
-32.429000 0.000000
-32.401500 0.000000
-32.374100 0.000000
-32.346600 0.000000
-32.319200 0.000000
-32.291700 0.000000
-32.264200 0.000000
-32.236800 0.000000
-32.209300 0.000000
-32.181900 0.000000
-32.154400 0.000000
-32.127000 0.000000
-32.099500 0.000000
-32.072000 0.000000
-32.044600 0.000000
-32.017100 0.000000
-31.989700 0.000000
-31.962200 0.000000
-31.934800 0.000000
-31.907300 0.000000
-31.879800 0.000000
-31.852400 0.000000
-31.824900 0.000000
-31.797500 0.000000
-31.770000 0.000000
-31.742600 0.000000
-31.715100 0.000000
-31.687700 0.000000
-31.660200 0.000000
-31.632700 0.000000
-31.605300 0.000000
-31.577800 0.000000
-31.550400 0.000000
-31.522900 0.000000
-31.495500 0.000000
-31.468000 0.000000
-31.440500 0.000000
-31.413100 0.000000
-31.385600 0.000000
-31.358200 0.000000
-31.330700 0.000000
-31.303300 0.000000
-31.275800 0.000000
-31.248300 0.000000
-31.220900 0.000000
-31.193400 0.000000
-31.166000 0.000000
-31.138500 0.000000
-31.111100 0.000000
-31.083600 0.000000
-31.056100 0.000000
-31.028700 0.000000
-31.001200 0.000000
-30.973800 0.000000
-30.946300 0.000000
-30.918900 0.000000
-30.891400 0.000000
-30.864000 0.000000
-30.836500 0.000000
-30.809000 0.000000
-30.781600 0.000000
-30.754100 0.000000
-30.726700 0.000000
-30.699200 0.000000
-30.671800 0.000000
-30.644300 0.000000
-30.616800 0.000000
-30.589400 0.000000
-30.561900 0.000000
-30.534500 0.000000
-30.507000 0.000000
-30.479600 0.000000
-30.452100 0.000000
-30.424600 0.000000
-30.397200 0.000000
-30.369700 0.000000
-30.342300 0.000000
-30.314800 0.000000
-30.287400 0.000000
-30.259900 36.645100
-30.232400 71.462100
-30.205000 33.184600
-30.177500 139.802300
-30.150100 77.211300
-30.122600 101.920600
-30.095200 111.953200
-30.067700 104.773300
-30.040300 67.493600
-30.012800 156.671400
-29.985300 123.478100
-29.957900 127.969000
-29.930400 63.457400
-29.903000 0.000000
-29.875500 0.000000
-29.848100 0.000000
-29.820600 0.000000
-29.793100 0.000000
-29.765700 0.000000
-29.738200 0.000000
-29.710800 0.000000
-29.683300 0.000000
-29.655900 0.000000
-29.628400 0.000000
-29.600900 0.000000
-29.573500 0.000000
-29.546000 0.000000
-29.518600 0.000000
-29.491100 0.000000
-29.463700 0.000000
-29.436200 0.000000
-29.408800 0.000000
-29.381300 0.000000
-29.353800 0.000000
-29.326400 0.000000
-29.298900 0.000000
-29.271500 0.000000
-29.244000 0.000000
-29.216600 0.000000
-29.189100 0.000000
-29.161600 0.000000
-29.134200 0.000000
-29.106700 0.000000
-29.079300 0.000000
-29.051800 0.000000
-29.024400 0.000000
-28.996900 0.000000
-28.969400 0.000000
-28.942000 0.000000
-28.914500 0.000000
-28.887100 0.000000
-28.859600 0.000000
-28.832200 0.000000
-28.804700 0.000000
-28.777200 0.000000
-28.749800 0.000000
-28.722300 0.000000
-28.694900 0.000000
-28.667400 0.000000
-28.640000 0.000000
-28.612500 0.000000
-28.585100 0.000000
-28.557600 0.000000
-28.530100 0.000000
-28.502700 0.000000
-28.475200 0.000000
-28.447800 0.000000
-28.420300 0.000000
-28.392900 0.000000
-28.365400 0.000000
-28.337900 0.000000
-28.310500 0.000000
-28.283000 0.000000
-28.255600 0.000000
-28.228100 0.000000
-28.200700 0.000000
-28.173200 0.000000
-28.145700 0.000000
-28.118300 0.000000
-28.090800 0.000000
-28.063400 0.000000
-28.035900 0.000000
-28.008500 0.000000
-27.981000 0.000000
-27.953500 0.000000
-27.926100 0.000000
-27.898600 0.000000
-27.871200 0.000000
-27.843700 0.000000
-27.816300 0.000000
-27.788800 0.000000
-27.761400 0.000000
-27.733900 0.000000
-27.706400 0.000000
-27.679000 0.000000
-27.651500 0.000000
-27.624100 0.000000
-27.596600 0.000000
-27.569200 0.000000
-27.541700 0.000000
-27.514200 0.000000
-27.486800 0.000000
-27.459300 0.000000
-27.431900 0.000000
-27.404400 0.000000
-27.377000 0.000000
-27.349500 0.000000
-27.322000 0.000000
-27.294600 0.000000
-27.267100 0.000000
-27.239700 0.000000
-27.212200 0.000000
-27.184800 0.000000
-27.157300 0.000000
-27.129800 0.000000
-27.102400 0.000000
-27.074900 0.000000
-27.047500 0.000000
-27.020000 0.000000
-26.992600 0.000000
-26.965100 0.000000
-26.937700 0.000000
-26.910200 0.000000
-26.882700 0.000000
-26.855300 0.000000
-26.827800 0.000000
-26.800400 0.000000
-26.772900 0.000000
-26.745500 0.000000
-26.718000 0.000000
-26.690500 0.000000
-26.663100 0.000000
-26.635600 0.000000
-26.608200 0.000000
-26.580700 0.000000
-26.553300 0.000000
-26.525800 0.000000
-26.498300 0.000000
-26.470900 0.000000
-26.443400 0.000000
-26.416000 0.000000
-26.388500 0.000000
-26.361100 0.000000
-26.333600 0.000000
-26.306100 0.000000
-26.278700 0.000000
-26.251200 0.000000
-26.223800 0.000000
-26.196300 0.000000
-26.168900 0.000000
-26.141400 0.000000
-26.114000 0.000000
-26.086500 0.000000
-26.059000 0.000000
-26.031600 0.000000
-26.004100 0.000000
-25.976700 0.000000
-25.949200 0.000000
-25.921800 0.000000
-25.894300 0.000000
-25.866800 0.000000
-25.839400 0.000000
-25.811900 0.000000
-25.784500 0.000000
-25.757000 0.000000
-25.729600 0.000000
-25.702100 0.000000
-25.674600 0.000000
-25.647200 0.000000
-25.619700 0.000000
-25.592300 0.000000
-25.564800 0.000000
-25.537400 0.000000
-25.509900 0.000000
-25.482500 0.000000
-25.455000 0.000000
-25.427500 0.000000
-25.400100 0.000000
-25.372600 0.000000
-25.345200 0.000000
-25.317700 0.000000
-25.290300 0.000000
-25.262800 0.000000
-25.235300 0.000000
-25.207900 0.000000
-25.180400 0.000000
-25.153000 0.000000
-25.125500 0.000000
-25.098100 0.000000
-25.070600 0.000000
-25.043100 0.000000
-25.015700 0.000000
-24.988200 0.000000
-24.960800 0.000000
-24.933300 0.000000
-24.905900 0.000000
-24.878400 0.000000
-24.850900 0.000000
-24.823500 0.000000
-24.796000 0.000000
-24.768600 0.000000
-24.741100 0.000000
-24.713700 0.000000
-24.686200 0.000000
-24.658800 0.000000
-24.631300 0.000000
-24.603800 0.000000
-24.576400 0.000000
-24.548900 0.000000
-24.521500 0.000000
-24.494000 0.000000
-24.466600 0.000000
-24.439100 0.000000
-24.411600 0.000000
-24.384200 0.000000
-24.356700 0.000000
-24.329300 0.000000
-24.301800 0.000000
-24.274400 0.000000
-24.246900 0.000000
-24.219400 0.000000
-24.192000 0.000000
-24.164500 0.000000
-24.137100 0.000000
-24.109600 0.000000
-24.082200 0.000000
-24.054700 0.000000
-24.027200 0.000000
-23.999800 0.000000
-23.972300 0.000000
-23.944900 0.000000
-23.917400 0.000000
-23.890000 0.000000
-23.862500 0.000000
-23.835100 0.000000
-23.807600 0.000000
-23.780100 0.000000
-23.752700 0.000000
-23.725200 0.000000
-23.697800 0.000000
-23.670300 0.000000
-23.642900 0.000000
-23.615400 0.000000
-23.587900 0.000000
-23.560500 0.000000
-23.533000 0.000000
-23.505600 0.000000
-23.478100 0.000000
-23.450700 0.000000
-23.423200 0.000000
-23.395700 0.000000
-23.368300 0.000000
-23.340800 0.000000
-23.313400 0.000000
-23.285900 0.000000
-23.258500 0.000000
-23.231000 0.000000
-23.203500 0.000000
-23.176100 0.000000
-23.148600 0.000000
-23.121200 0.000000
-23.093700 0.000000
-23.066300 0.000000
-23.038800 0.000000
-23.011400 0.000000
-22.983900 0.000000
-22.956400 0.000000
-22.929000 0.000000
-22.901500 0.000000
-22.874100 0.000000
-22.846600 0.000000
-22.819200 0.000000
-22.791700 0.000000
-22.764200 0.000000
-22.736800 0.000000
-22.709300 0.000000
-22.681900 0.000000
-22.654400 0.416000
-22.627000 2.021000
-22.599500 2.475200
-22.572000 3.200300
-22.544600 4.051900
-22.517100 5.389700
-22.489700 7.409000
-22.462200 8.540400
-22.434800 10.356900
-22.407300 11.345000
-22.379900 9.845000
-22.352400 5.776200
-22.324900 7.235600
-22.297500 11.535000
-22.270000 26.936600
-22.242600 15.690700
-22.215100 11.593700
-22.187700 15.505400
-22.160200 23.519300
-22.132700 27.080200
-22.105300 8.810400
-22.077800 0.726800
-22.050400 13.727900
-22.022900 22.334400
-21.995500 16.067200
-21.968000 19.539300
-21.940500 3.673800
-21.913100 11.796800
-21.885600 20.043200
-21.858200 22.541100
-21.830700 13.667100
-21.803300 14.130700
-21.775800 30.524200
-21.748300 27.420500
-21.720900 0.000000
-21.693400 35.678700
-21.666000 56.738500
-21.638500 50.266800
-21.611100 22.435900
-21.583600 54.505200
-21.556200 29.523800
-21.528700 35.639500
-21.501200 7.659500
-21.473800 127.513200
-21.446300 224.951500
-21.418900 79.890000
-21.391400 20.577800
-21.364000 101.938500
-21.336500 38.435500
-21.309000 107.821700
-21.281600 10.503800
-21.254100 55.230600
-21.226700 90.925500
-21.199200 145.311300
-21.171800 62.217700
-21.144300 0.000000
-21.116800 0.000000
-21.089400 0.000000
-21.061900 0.000000
-21.034500 0.000000
-21.007000 0.000000
-20.979600 0.000000
-20.952100 0.000000
-20.924600 0.000000
-20.897200 0.000000
-20.869700 0.000000
-20.842300 0.000000
-20.814800 0.000000
-20.787400 0.000000
-20.759900 0.000000
-20.732500 0.000000
-20.705000 0.000000
-20.677500 0.000000
-20.650100 0.000000
-20.622600 0.000000
-20.595200 0.000000
-20.567700 0.000000
-20.540300 0.000000
-20.512800 0.000000
-20.485300 0.000000
-20.457900 0.000000
-20.430400 0.000000
-20.403000 0.000000
-20.375500 0.000000
-20.348100 0.000000
-20.320600 0.000000
-20.293100 0.000000
-20.265700 0.000000
-20.238200 0.000000
-20.210800 0.000000
-20.183300 0.000000
-20.155900 0.000000
-20.128400 0.000000
-20.100900 0.000000
-20.073500 0.000000
-20.046000 0.000000
-20.018600 0.000000
-19.991100 0.000000
-19.963700 0.000000
-19.936200 0.000000
-19.908800 0.000000
-19.881300 0.000000
-19.853800 0.000000
-19.826400 0.000000
-19.798900 0.000000
-19.771500 0.000000
-19.744000 0.000000
-19.716600 0.000000
-19.689100 0.000000
-19.661600 0.000000
-19.634200 0.000000
-19.606700 0.000000
-19.579300 0.000000
-19.551800 0.000000
-19.524400 0.000000
-19.496900 0.000000
-19.469400 0.000000
-19.442000 0.000000
-19.414500 0.000000
-19.387100 0.000000
-19.359600 0.000000
-19.332200 0.000000
-19.304700 0.000000
-19.277200 0.000000
-19.249800 0.000000
-19.222300 0.000000
-19.194900 0.000000
-19.167400 0.000000
-19.140000 0.000000
-19.112500 0.000000
-19.085100 0.000000
-19.057600 0.000000
-19.030100 0.000000
-19.002700 0.000000
-18.975200 0.000000
-18.947800 0.000000
-18.920300 0.000000
-18.892900 0.000000
-18.865400 0.000000
-18.837900 0.000000
-18.810500 0.000000
-18.783000 0.000000
-18.755600 0.000000
-18.728100 0.000000
-18.700700 0.000000
-18.673200 0.000000
-18.645700 0.000000
-18.618300 0.000000
-18.590800 0.000000
-18.563400 0.000000
-18.535900 0.000000
-18.508500 0.000000
-18.481000 0.000000
-18.453600 0.000000
-18.426100 0.000000
-18.398600 0.000000
-18.371200 0.000000
-18.343700 0.000000
-18.316300 0.000000
-18.288800 0.000000
-18.261400 0.000000
-18.233900 0.000000
-18.206400 0.000000
-18.179000 0.000000
-18.151500 0.000000
-18.124100 0.000000
-18.096600 0.000000
-18.069200 0.000000
-18.041700 0.000000
-18.014200 0.000000
-17.986800 0.000000
-17.959300 0.000000
-17.931900 0.000000
-17.904400 0.000000
-17.877000 0.000000
-17.849500 0.000000
-17.822000 0.000000
-17.794600 0.000000
-17.767100 0.000000
-17.739700 0.000000
-17.712200 0.000000
-17.684800 0.000000
-17.657300 0.000000
-17.629900 0.000000
-17.602400 0.000000
-17.574900 0.000000
-17.547500 0.000000
-17.520000 0.000000
-17.492600 0.000000
-17.465100 0.000000
-17.437700 0.000000
-17.410200 0.000000
-17.382700 0.000000
-17.355300 0.000000
-17.327800 0.000000
-17.300400 0.000000
-17.272900 0.000000
-17.245500 0.000000
-17.218000 0.000000
-17.190500 0.000000
-17.163100 0.000000
-17.135600 0.000000
-17.108200 0.000000
-17.080700 0.000000
-17.053300 0.000000
-17.025800 0.000000
-16.998300 0.000000
-16.970900 0.000000
-16.943400 0.000000
-16.916000 0.000000
-16.888500 0.000000
-16.861100 0.000000
-16.833600 0.000000
-16.806200 0.000000
-16.778700 0.000000
-16.751200 0.000000
-16.723800 0.000000
-16.696300 0.000000
-16.668900 0.000000
-16.641400 0.000000
-16.614000 0.000000
-16.586500 0.000000
-16.559000 0.000000
-16.531600 0.000000
-16.504100 0.000000
-16.476700 0.000000
-16.449200 0.000000
-16.421800 0.000000
-16.394300 0.000000
-16.366800 0.000000
-16.339400 0.000000
-16.311900 0.000000
-16.284500 0.000000
-16.257000 0.000000
-16.229600 0.000000
-16.202100 0.000000
-16.174600 0.000000
-16.147200 0.000000
-16.119700 0.000000
-16.092300 0.000000
-16.064800 0.000000
-16.037400 0.000000
-16.009900 0.000000
-15.982500 0.000000
-15.955000 0.000000
-15.927500 0.000000
-15.900100 0.000000
-15.872600 0.000000
-15.845200 0.000000
-15.817700 0.000000
-15.790300 0.000000
-15.762800 0.000000
-15.735300 0.000000
-15.707900 0.000000
-15.680400 0.000000
-15.653000 0.000000
-15.625500 0.000000
-15.598100 0.000000
-15.570600 0.000000
-15.543100 0.000000
-15.515700 0.000000
-15.488200 0.000000
-15.460800 0.000000
-15.433300 0.000000
-15.405900 0.000000
-15.378400 0.000000
-15.350900 0.000000
-15.323500 0.000000
-15.296000 0.000000
-15.268600 0.000000
-15.241100 0.000000
-15.213700 0.000000
-15.186200 0.000000
-15.158800 0.000000
-15.131300 0.000000
-15.103800 0.000000
-15.076400 0.000000
-15.048900 0.000000
-15.021500 0.000000
-14.994000 0.000000
-14.966600 0.000000
-14.939100 0.000000
-14.911600 0.000000
-14.884200 0.000000
-14.856700 0.000000
-14.829300 0.000000
-14.801800 0.000000
-14.774400 0.000000
-14.746900 0.000000
-14.719400 0.000000
-14.692000 0.000000
-14.664500 0.000000
-14.637100 0.000000
-14.609600 0.000000
-14.582200 0.000000
-14.554700 0.000000
-14.527300 0.000000
-14.499800 0.000000
-14.472300 0.000000
-14.444900 0.000000
-14.417400 0.000000
-14.390000 0.000000
-14.362500 0.000000
-14.335100 0.000000
-14.307600 0.000000
-14.280100 0.000000
-14.252700 0.000000
-14.225200 0.000000
-14.197800 0.000000
-14.170300 0.000000
-14.142900 0.000000
-14.115400 0.000000
-14.087900 0.000000
-14.060500 0.000000
-14.033000 0.000000
-14.005600 0.000000
-13.978100 0.000000
-13.950700 0.000000
-13.923200 0.000000
-13.895700 0.000000
-13.868300 0.000000
-13.840800 0.000000
-13.813400 0.000000
-13.785900 0.000000
-13.758500 0.000000
-13.731000 0.000000
-13.703600 0.000000
-13.676100 0.000000
-13.648600 0.000000
-13.621200 0.000000
-13.593700 0.000000
-13.566300 0.000000
-13.538800 0.000000
-13.511400 0.000000
-13.483900 0.000000
-13.456400 0.000000
-13.429000 0.000000
-13.401500 0.000000
-13.374100 0.000000
-13.346600 0.000000
-13.319200 0.000000
-13.291700 0.000000
-13.264200 0.000000
-13.236800 0.000000
-13.209300 0.000000
-13.181900 0.000000
-13.154400 0.000000
-13.127000 0.000000
-13.099500 0.000000
-13.072000 0.000000
-13.044600 0.000000
-13.017100 0.000000
-12.989700 0.000000
-12.962200 0.000000
-12.934800 0.000000
-12.907300 0.000000
-12.879900 0.000000
-12.852400 0.000000
-12.824900 0.000000
-12.797500 0.000000
-12.770000 0.000000
-12.742600 0.000000
-12.715100 0.000000
-12.687700 0.000000
-12.660200 0.000000
-12.632700 0.000000
-12.605300 0.000000
-12.577800 0.000000
-12.550400 0.000000
-12.522900 0.000000
-12.495500 0.000000
-12.468000 0.000000
-12.440500 0.000000
-12.413100 0.000000
-12.385600 0.000000
-12.358200 0.000000
-12.330700 0.000000
-12.303300 0.000000
-12.275800 0.000000
-12.248300 0.000000
-12.220900 0.000000
-12.193400 0.000000
-12.166000 0.000000
-12.138500 0.000000
-12.111100 0.000000
-12.083600 0.000000
-12.056200 0.000000
-12.028700 0.000000
-12.001200 0.000000
-11.973800 0.000000
-11.946300 0.000000
-11.918900 0.000000
-11.891400 0.000000
-11.864000 0.000000
-11.836500 0.000000
-11.809000 0.000000
-11.781600 0.000000
-11.754100 0.000000
-11.726700 0.000000
-11.699200 0.000000
-11.671800 0.000000
-11.644300 0.000000
-11.616800 0.000000
-11.589400 0.000000
-11.561900 0.000000
-11.534500 0.000000
-11.507000 0.000000
-11.479600 0.000000
-11.452100 0.000000
-11.424700 0.000000
-11.397200 0.000000
-11.369700 0.000000
-11.342300 0.000000
-11.314800 0.000000
-11.287400 0.000000
-11.259900 0.000000
-11.232500 0.000000
-11.205000 0.000000
-11.177500 0.000000
-11.150100 0.000000
-11.122600 0.000000
-11.095200 0.000000
-11.067700 0.000000
-11.040300 0.000000
-11.012800 0.000000
-10.985300 0.000000
-10.957900 0.000000
-10.930400 0.000000
-10.903000 0.000000
-10.875500 0.000000
-10.848100 0.000000
-10.820600 0.000000
-10.793100 0.000000
-10.765700 0.000000
-10.738200 0.000000
-10.710800 0.000000
-10.683300 0.000000
-10.655900 0.000000
-10.628400 0.000000
-10.601000 0.000000
-10.573500 0.000000
-10.546000 0.000000
-10.518600 0.000000
-10.491100 0.000000
-10.463700 0.000000
-10.436200 0.000000
-10.408800 0.000000
-10.381300 0.000000
-10.353800 0.000000
-10.326400 0.000000
-10.298900 0.000000
-10.271500 0.000000
-10.244000 0.000000
-10.216600 0.000000
-10.189100 0.000000
-10.161600 0.000000
-10.134200 0.000000
-10.106700 0.000000
-10.079300 0.000000
-10.051800 0.000000
-10.024400 0.000000
-9.996900 0.000000
-9.969400 0.000000
-9.942000 0.000000
-9.914500 0.000000
-9.887100 0.000000
-9.859600 0.000000
-9.832200 0.000000
-9.804700 0.000000
-9.777300 0.000000
-9.749800 0.000000
-9.722300 0.000000
-9.694900 0.000000
-9.667400 0.000000
-9.640000 0.000000
-9.612500 0.000000
-9.585100 0.000000
-9.557600 0.000000
-9.530100 0.000000
-9.502700 0.000000
-9.475200 0.000000
-9.447800 0.000000
-9.420300 0.000000
-9.392900 0.000000
-9.365400 0.000000
-9.337900 0.000000
-9.310500 0.000000
-9.283000 0.000000
-9.255600 0.000000
-9.228100 0.000000
-9.200700 0.000000
-9.173200 0.000000
-9.145700 0.000000
-9.118300 0.000000
-9.090800 0.000000
-9.063400 0.000000
-9.035900 0.000000
-9.008500 0.000000
-8.981000 0.000000
-8.953600 0.000000
-8.926100 0.000000
-8.898600 0.000000
-8.871200 0.000000
-8.843700 0.000000
-8.816300 0.000000
-8.788800 0.000000
-8.761400 0.000000
-8.733900 0.000000
-8.706400 0.000000
-8.679000 0.000000
-8.651500 0.000000
-8.624100 0.000000
-8.596600 0.000000
-8.569200 0.000000
-8.541700 0.000000
-8.514200 0.000000
-8.486800 0.000000
-8.459300 0.000000
-8.431900 0.000000
-8.404400 0.000000
-8.377000 0.000000
-8.349500 0.000000
-8.322000 0.000000
-8.294600 0.000000
-8.267100 0.000000
-8.239700 0.000000
-8.212200 0.000000
-8.184800 0.000000
-8.157300 0.000000
-8.129900 0.000000
-8.102400 0.000000
-8.074900 0.000000
-8.047500 0.000000
-8.020000 0.000000
-7.992600 0.000000
-7.965100 0.000000
-7.937700 0.000000
-7.910200 0.000000
-7.882700 0.000000
-7.855300 0.000000
-7.827800 0.000000
-7.800400 0.000000
-7.772900 0.000000
-7.745500 0.000000
-7.718000 0.000000
-7.690500 0.000000
-7.663100 0.000000
-7.635600 0.000000
-7.608200 0.000000
-7.580700 0.000000
-7.553300 0.000000
-7.525800 0.000000
-7.498400 0.000000
-7.470900 0.000000
-7.443400 0.000000
-7.416000 0.000000
-7.388500 0.000000
-7.361100 0.000000
-7.333600 0.000000
-7.306200 0.000000
-7.278700 0.000000
-7.251200 0.000000
-7.223800 0.000000
-7.196300 0.000000
-7.168900 0.000000
-7.141400 0.000000
-7.114000 0.000000
-7.086500 0.000000
-7.059000 0.000000
-7.031600 0.000000
-7.004100 0.000000
-6.976700 0.000000
-6.949200 0.000000
-6.921800 0.000000
-6.894300 0.000000
-6.866800 0.000000
-6.839400 0.000000
-6.811900 0.000000
-6.784500 0.000000
-6.757000 0.000000
-6.729600 0.000000
-6.702100 0.000000
-6.674700 0.000000
-6.647200 0.000000
-6.619700 0.000000
-6.592300 0.000000
-6.564800 0.000000
-6.537400 0.000000
-6.509900 0.000000
-6.482500 0.000000
-6.455000 0.000000
-6.427500 0.000000
-6.400100 0.000000
-6.372600 0.000000
-6.345200 0.000000
-6.317700 0.149800
-6.290300 2.547400
-6.262800 6.682800
-6.235300 16.016400
-6.207900 19.736800
-6.180400 22.672400
-6.153000 6.753900
-6.125500 3.058600
-6.098100 4.648700
-6.070600 5.844100
-6.043100 9.605800
-6.015700 21.355500
-5.988200 17.911600
-5.960800 9.589900
-5.933300 5.889000
-5.905900 6.562600
-5.878400 9.850800
-5.851000 14.424500
-5.823500 13.526600
-5.796000 17.420100
-5.768600 15.435900
-5.741100 15.141400
-5.713700 15.151700
-5.686200 12.039000
-5.658800 12.335700
-5.631300 11.246000
-5.603800 9.220200
-5.576400 9.096200
-5.548900 9.715800
-5.521500 11.849800
-5.494000 13.381700
-5.466600 11.290900
-5.439100 6.514700
-5.411600 1.620900
-5.384200 6.203600
-5.356700 39.437300
-5.329300 24.180500
-5.301800 21.592400
-5.274400 30.026700
-5.246900 38.025000
-5.219400 25.936300
-5.192000 24.289700
-5.164500 27.670100
-5.137100 26.617400
-5.109600 38.958500
-5.082200 24.322500
-5.054700 35.247500
-5.027300 38.119000
-4.999800 35.761900
-4.972300 19.328900
-4.944900 26.061500
-4.917400 30.528400
-4.890000 22.308000
-4.862500 32.967300
-4.835100 2.541500
-4.807600 39.724400
-4.780100 32.070500
-4.752700 47.024500
-4.725200 24.958900
-4.697800 28.521400
-4.670300 29.044100
-4.642900 32.816200
-4.615400 38.603500
-4.587900 35.065700
-4.560500 21.034900
-4.533000 19.000200
-4.505600 22.434200
-4.478100 35.129100
-4.450700 37.869000
-4.423200 30.516600
-4.395700 27.768600
-4.368300 29.320400
-4.340800 42.796900
-4.313400 23.611200
-4.285900 29.949400
-4.258500 42.517400
-4.231000 47.452800
-4.203600 17.117200
-4.176100 44.842600
-4.148600 29.157300
-4.121200 43.797800
-4.093700 25.763300
-4.066300 31.890500
-4.038800 40.977400
-4.011400 29.798000
-3.983900 33.051100
-3.956400 45.552100
-3.929000 26.879400
-3.901500 23.509900
-3.874100 26.109400
-3.846600 29.572000
-3.819200 39.295400
-3.791700 23.052100
-3.764200 37.969600
-3.736800 19.228700
-3.709300 15.428200
-3.681900 25.050300
-3.654400 26.848500
-3.627000 23.554900
-3.599500 25.879100
-3.572100 33.784800
-3.544600 23.254700
-3.517100 22.242100
-3.489700 20.185200
-3.462200 19.229100
-3.434800 29.258300
-3.407300 26.650400
-3.379900 33.030800
-3.352400 16.256700
-3.324900 17.868600
-3.297500 10.033500
-3.270000 8.847200
-3.242600 39.905700
-3.215100 18.771600
-3.187700 19.568500
-3.160200 24.811400
-3.132700 22.497000
-3.105300 29.300400
-3.077800 23.493700
-3.050400 31.720400
-3.022900 28.741700
-2.995500 22.654500
-2.968000 20.393800
-2.940500 26.824400
-2.913100 28.651400
-2.885600 22.031200
-2.858200 22.920500
-2.830700 20.674500
-2.803300 10.909200
-2.775800 7.447100
-2.748400 28.437200
-2.720900 26.682700
-2.693400 36.909600
-2.666000 25.908200
-2.638500 28.191200
-2.611100 67.210200
-2.583600 56.515500
-2.556200 19.131500
-2.528700 27.139700
-2.501200 34.494100
-2.473800 35.285400
-2.446300 44.298500
-2.418900 26.412700
-2.391400 41.786400
-2.364000 21.616600
-2.336500 32.041400
-2.309000 45.406600
-2.281600 37.529800
-2.254100 18.257800
-2.226700 40.875300
-2.199200 26.680200
-2.171800 24.432200
-2.144300 36.475700
-2.116800 66.808800
-2.089400 35.759600
-2.061900 43.050200
-2.034500 44.951300
-2.007000 41.775800
-1.979600 49.151200
-1.952100 52.575200
-1.924700 68.847200
-1.897200 59.704300
-1.869700 36.686800
-1.842300 48.274300
-1.814800 44.565200
-1.787400 42.926200
-1.759900 95.530800
-1.732500 30.307000
-1.705000 45.561400
-1.677500 49.138700
-1.650100 42.192700
-1.622600 55.135700
-1.595200 39.090100
-1.567700 42.356400
-1.540300 37.833800
-1.512800 16.576000
-1.485300 17.409400
-1.457900 42.558500
-1.430400 35.995300
-1.403000 60.941100
-1.375500 15.220800
-1.348100 26.867400
-1.320600 53.337400
-1.293100 15.951200
-1.265700 3.270700
-1.238200 0.000000
-1.210800 0.000000
-1.183300 0.000000
-1.155900 0.000000
-1.128400 0.000000
-1.101000 0.000000
-1.073500 0.000000
-1.046000 0.000000
-1.018600 0.000000
-0.991100 0.000000
-0.963700 0.000000
-0.936200 0.000000
-0.908800 0.000000
-0.881300 0.000000
-0.853800 0.000000
-0.826400 0.000000
-0.798900 0.000000
-0.771500 0.000000
-0.744000 0.000000
-0.716600 0.000000
-0.689100 0.000000
-0.661600 0.000000
-0.634200 0.000000
-0.606700 0.000000
-0.579300 0.000000
-0.551800 0.000000
-0.524400 0.000000
-0.496900 0.000000
-0.469400 0.000000
-0.442000 0.000000
-0.414500 0.000000
-0.387100 0.000000
-0.359600 0.000000
-0.332200 0.000000
-0.304700 0.000000
-0.277300 0.000000
-0.249800 0.000000
-0.222300 0.000000
-0.194900 0.000000
-0.167400 0.000000
-0.140000 0.000000
-0.112500 0.000000
-0.085100 0.000000
-0.057600 0.000000
-0.030100 0.000000
-0.002700 0.000000
0.024800 0.000000
0.052200 0.000000
0.079700 0.000000
0.107100 0.000000
0.134600 0.000000
0.162100 0.000000
0.189500 0.000000
0.217000 0.000000
0.244400 0.000000
0.271900 0.000000
0.299300 0.000000
0.326800 0.000000
0.354200 0.000000
0.381700 0.000000
0.409200 0.000000
0.436600 0.000000
0.464100 0.000000
0.491500 0.000000
0.519000 0.000000
0.546400 0.000000
0.573900 0.000000
0.601400 0.000000
0.628800 0.000000
0.656300 0.000000
0.683700 0.000000
0.711200 0.000000
0.738600 0.000000
0.766100 0.000000
0.793600 0.000000
0.821000 0.000000
0.848500 0.000000
0.875900 0.000000
0.903400 0.000000
0.930800 0.000000
0.958300 0.000000
0.985800 0.000000
1.013200 0.000000
1.040700 0.000000
1.068100 0.000000
1.095600 0.000000
1.123000 0.000000
1.150500 0.000000
1.177900 0.000000
1.205400 0.000000
1.232900 0.000000
1.260300 0.000000
1.287800 0.000000
1.315200 0.000000
1.342700 0.000000
1.370100 0.000000
1.397600 0.000000
1.425100 0.000000
1.452500 0.000000
1.480000 0.000000
1.507400 0.000000
1.534900 0.000000
1.562300 0.000000
1.589800 0.000000
1.617300 0.000000
1.644700 0.000000
1.672200 0.000000
1.699600 0.000000
1.727100 0.000000
1.754500 0.000000
1.782000 0.000000
1.809500 0.000000
1.836900 0.000000
1.864400 0.000000
1.891800 0.000000
1.919300 0.000000
1.946700 0.000000
1.974200 0.000000
2.001600 0.000000
2.029100 0.000000
2.056600 0.000000
2.084000 0.000000
2.111500 0.000000
2.138900 0.000000
2.166400 0.000000
2.193800 0.000000
2.221300 0.000000
2.248800 0.000000
2.276200 0.000000
2.303700 0.000000
2.331100 0.000000
2.358600 0.000000
2.386000 0.000000
2.413500 0.000000
2.441000 0.000000
2.468400 0.000000
2.495900 0.000000
2.523300 0.000000
2.550800 0.000000
2.578200 0.000000
2.605700 0.000000
2.633200 0.000000
2.660600 0.000000
2.688100 0.000000
2.715500 0.000000
2.743000 0.000000
2.770400 0.000000
2.797900 0.000000
2.825300 0.000000
2.852800 0.000000
2.880300 0.000000
2.907700 0.000000
2.935200 0.000000
2.962600 0.000000
2.990100 0.000000
3.017500 0.000000
3.045000 0.000000
3.072500 0.000000
3.099900 0.000000
3.127400 0.000000
3.154800 0.000000
3.182300 0.000000
3.209700 0.000000
3.237200 0.000000
3.264700 0.000000
3.292100 0.000000
3.319600 0.000000
3.347000 0.000000
3.374500 0.000000
3.401900 0.000000
3.429400 0.000000
3.456800 0.000000
3.484300 0.000000
3.511800 0.000000
3.539200 0.000000
3.566700 0.000000
3.594100 0.000000
3.621600 0.000000
3.649000 0.000000
3.676500 0.000000
3.704000 0.000000
3.731400 0.000000
3.758900 0.000000
3.786300 0.000000
3.813800 0.000000
3.841200 0.000000
3.868700 0.000000
3.896200 0.000000
3.923600 0.000000
3.951100 0.000000
3.978500 0.000000
4.006000 0.000000
4.033400 0.000000
4.060900 0.000000
4.088400 0.000000
4.115800 0.000000
4.143300 0.000000
4.170700 0.000000
4.198200 0.000000
4.225600 0.271700
4.253100 0.808600
4.280500 1.071100
4.308000 1.223100
4.335500 1.398600
4.362900 1.585300
4.390400 1.784600
4.417800 1.996600
4.445300 2.230000
4.472700 2.525400
4.500200 2.888000
4.527700 3.321200
4.555100 3.980500
4.582600 4.908800
4.610000 5.065200
4.637500 5.709500
4.664900 6.150400
4.692400 6.375300
4.719900 6.143600
4.747300 5.478800
4.774800 5.111500
4.802200 2.029900
4.829700 0.426100
4.857100 0.101600
4.884600 0.433400
4.912100 2.590700
4.939500 13.260900
4.967000 14.191200
4.994400 14.008000
5.021900 8.522100
5.049300 8.192300
5.076800 9.936100
5.104200 15.032600
5.131700 16.206200
5.159200 15.300800
5.186600 10.629300
5.214100 10.265300
5.241500 9.975600
5.269000 14.288900
5.296400 21.512500
5.323900 24.780400
5.351400 7.728800
5.378800 2.779300
5.406300 3.572700
5.433700 5.692100
5.461200 11.979300
5.488600 27.928200
5.516100 16.143000
5.543600 11.036100
5.571000 9.141100
5.598500 16.967900
5.625900 16.025900
5.653400 15.887900
5.680800 8.141300
5.708300 0.857800
5.735800 0.000000
5.763200 0.000000
5.790700 0.000000
5.818100 0.000000
5.845600 0.000000
5.873000 0.000000
5.900500 0.000000
5.927900 0.000000
5.955400 0.000000
5.982900 0.000000
6.010300 0.000000
6.037800 2.494500
6.065200 4.038300
6.092700 6.035800
6.120100 11.642800
6.147600 19.585700
6.175100 25.663100
6.202500 25.920200
6.230000 15.083300
6.257400 17.346000
6.284900 16.343200
6.312300 8.977500
6.339800 12.179900
6.367300 27.355600
6.394700 39.111800
6.422200 15.102700
6.449600 22.466300
6.477100 33.134300
6.504500 23.980000
6.532000 37.983400
6.559500 25.858200
6.586900 25.585800
6.614400 22.785500
6.641800 26.417600
6.669300 20.551800
6.696700 24.491000
6.724200 21.170500
6.751600 19.084800
6.779100 18.931700
6.806600 23.244800
6.834000 26.780800
6.861500 19.001200
6.888900 16.086800
6.916400 18.587300
6.943800 15.301200
6.971300 21.531200
6.998800 14.831300
7.026200 13.217000
7.053700 12.980400
7.081100 17.514200
7.108600 12.252400
7.136000 14.510600
7.163500 17.585400
7.191000 13.034600
7.218400 10.192800
7.245900 9.234600
7.273300 10.541100
7.300800 16.640500
7.328200 9.664700
7.355700 4.942700
7.383100 0.455600
7.410600 0.189300
7.438100 3.733200
7.465500 12.471800
7.493000 26.048300
7.520400 17.958200
7.547900 6.441300
7.575300 2.438100
7.602800 1.409300
7.630300 16.217700
7.657700 16.172200
7.685200 13.937500
7.712600 12.053800
7.740100 11.070100
7.767500 7.608200
7.795000 4.840100
7.822500 5.377900
7.849900 8.520500
7.877400 14.638700
7.904800 14.864300
7.932300 11.347200
7.959700 8.396800
7.987200 10.905100
8.014700 10.769000
8.042100 14.764100
8.069600 18.568000
8.097000 19.221700
8.124500 18.830000
8.151900 14.953200
8.179400 12.818300
8.206800 11.607900
8.234300 7.576100
8.261800 9.942700
8.289200 19.210500
8.316700 23.381700
8.344100 18.625500
8.371600 20.346900
8.399000 21.338600
8.426500 20.710900
8.454000 11.379500
8.481400 7.508600
8.508900 6.344500
8.536300 11.687200
8.563800 25.573500
8.591200 20.692100
8.618700 5.804500
8.646200 11.119200
8.673600 17.845000
8.701100 15.248600
8.728500 11.348000
8.756000 9.503600
8.783400 11.478700
8.810900 11.602200
8.838400 16.624900
8.865800 15.056800
8.893300 10.160900
8.920700 13.331900
8.948200 22.152000
8.975600 26.800400
9.003100 16.991300
9.030500 10.835000
9.058000 10.702300
9.085500 11.573700
9.112900 10.643200
9.140400 9.983300
9.167800 9.321900
9.195300 8.574500
9.222700 7.938200
9.250200 7.180700
9.277700 8.792000
9.305100 11.120500
9.332600 11.031900
9.360000 8.809200
9.387500 7.110800
9.414900 6.874700
9.442400 7.568200
9.469900 8.388200
9.497300 8.538200
9.524800 8.378200
9.552200 7.641100
9.579700 7.121100
9.607100 6.183800
9.634600 4.145800
9.662100 4.225700
9.689500 4.038300
9.717000 4.067900
9.744400 4.071800
9.771900 4.090300
9.799300 4.133100
9.826800 4.271500
9.854200 4.355400
9.881700 4.402800
9.909200 4.420500
9.936600 4.296000
9.964100 3.995300
9.991500 3.666000
10.019000 3.450200
10.046400 3.345500
10.073900 3.417700
10.101400 3.912500
10.128800 4.301600
10.156300 4.542600
10.183700 4.804900
10.211200 6.508400
10.238600 6.483800
10.266100 6.832500
10.293600 7.307400
10.321000 7.992200
10.348500 7.781800
10.375900 7.037500
10.403400 6.445600
10.430800 5.601900
10.458300 4.920000
10.485800 4.324400
10.513200 3.785300
10.540700 3.607600
10.568100 3.559600
10.595600 3.559600
10.623000 3.552600
10.650500 3.558700
10.677900 3.747200
10.705400 3.787100
10.732900 3.564800
10.760300 3.433000
10.787800 3.524200
10.815200 2.878900
10.842700 3.169400
10.870100 3.492900
10.897600 3.806400
10.925100 3.996400
10.952500 4.057500
10.980000 4.609300
11.007400 5.453200
11.034900 6.166000
11.062300 6.690700
11.089800 5.319800
11.117300 4.380200
11.144700 3.650300
11.172200 3.275800
11.199600 3.004900
11.227100 2.796600
11.254500 2.647900
11.282000 2.542600
11.309400 2.552800
11.336900 2.591900
11.364400 2.726300
11.391800 2.896200
11.419300 3.095700
11.446700 3.324900
11.474200 3.583700
11.501600 4.000700
11.529100 4.852800
11.556600 6.559300
11.584000 6.790600
11.611500 4.309900
11.638900 4.305600
11.666400 4.903300
11.693800 5.569700
11.721300 6.176900
11.748800 6.887900
11.776200 11.404200
11.803700 16.995000
11.831100 46.949100
11.858600 66.005400
11.886000 46.507900
11.913500 13.117200
11.941000 12.719200
11.968400 11.651800
11.995900 9.647100
12.023300 5.887900
12.050800 1.756600
12.078200 0.003600
12.105700 0.732800
12.133100 2.035800
12.160600 3.255300
12.188100 4.834600
12.215500 7.374700
12.243000 9.670500
12.270400 8.788800
12.297900 9.395200
12.325300 10.044800
12.352800 6.368800
12.380300 4.251300
12.407700 3.534300
12.435200 3.236400
12.462600 3.120800
12.490100 7.112600
12.517500 7.343100
12.545000 6.824300
12.572500 5.896300
12.599900 5.130600
12.627400 4.726300
12.654800 4.716200
12.682300 4.520500
12.709700 4.063200
12.737200 3.639200
12.764700 3.805900
12.792100 4.060900
12.819600 4.120000
12.847000 3.993600
12.874500 4.897400
12.901900 5.873700
12.929400 7.417300
12.956800 6.962500
12.984300 7.412000
13.011800 10.441900
13.039200 7.574000
13.066700 7.257500
13.094100 6.679400
13.121600 6.612400
13.149000 6.475800
13.176500 5.372200
13.204000 4.714300
13.231400 4.839500
13.258900 4.322000
13.286300 4.516100
13.313800 5.559600
13.341200 6.451900
13.368700 7.059200
13.396200 7.424000
13.423600 8.075100
13.451100 9.284600
13.478500 9.935300
13.506000 8.809600
13.533400 8.178800
13.560900 8.127900
13.588400 8.463400
13.615800 9.161200
13.643300 9.400700
13.670700 9.644600
13.698200 10.021000
13.725600 11.300700
13.753100 10.778700
13.780500 11.333900
13.808000 11.232400
13.835500 9.079500
13.862900 8.667100
13.890400 9.888600
13.917800 8.926000
13.945300 8.350400
13.972700 7.703800
14.000200 7.316300
14.027700 7.079700
14.055100 7.199200
14.082600 7.469900
14.110000 8.716600
14.137500 9.847400
14.164900 9.861000
14.192400 10.293800
14.219900 9.131900
14.247300 9.382300
14.274800 10.277100
14.302200 9.353400
14.329700 9.488900
14.357100 9.749600
14.384600 10.428600
14.412000 10.300200
14.439500 10.151500
14.467000 9.335600
14.494400 10.037400
14.521900 12.788800
14.549300 13.544000
14.576800 12.858900
14.604200 9.716700
14.631700 8.422100
14.659200 7.732000
14.686600 7.564200
14.714100 7.612400
14.741500 8.580000
14.769000 7.184600
14.796400 7.987500
14.823900 7.869100
14.851400 8.350700
14.878800 8.963400
14.906300 9.473700
14.933700 10.894500
14.961200 22.379500
14.988600 9.722700
15.016100 8.435900
15.043600 9.717400
15.071000 10.916000
15.098500 9.502700
15.125900 8.150800
15.153400 9.573900
15.180800 9.953500
15.208300 8.369100
15.235700 7.924800
15.263200 10.214400
15.290700 11.912700
15.318100 12.572800
15.345600 12.015700
15.373000 10.988500
15.400500 10.321000
15.427900 11.371400
15.455400 11.870800
15.482900 12.571000
15.510300 7.797700
15.537800 8.487900
15.565200 7.576300
15.592700 7.295200
15.620100 7.802700
15.647600 9.184900
15.675100 11.760400
15.702500 11.874400
15.730000 8.870900
15.757400 7.780500
15.784900 7.819400
15.812300 8.341300
15.839800 9.064300
15.867300 10.307300
15.894700 12.671200
15.922200 12.559100
15.949600 11.676500
15.977100 9.801900
16.004500 9.614300
16.032000 10.915900
16.059400 14.860900
16.086900 8.960000
16.114400 9.068300
16.141800 8.892000
16.169300 8.807100
16.196700 8.912600
16.224200 11.878000
16.251600 10.722500
16.279100 9.692100
16.306600 8.758000
16.334000 8.315500
16.361500 9.385000
16.388900 12.819800
16.416400 12.825100
16.443800 11.942100
16.471300 10.976900
16.498800 10.737500
16.526200 11.537200
16.553700 12.849800
16.581100 16.147500
16.608600 14.353500
16.636000 12.490500
16.663500 12.580400
16.691000 13.093000
16.718400 13.566000
16.745900 12.980500
16.773300 10.468600
16.800800 9.371200
16.828200 8.743300
16.855700 10.159800
16.883100 8.556100
16.910600 8.727500
16.938100 8.727500
16.965500 10.885900
16.993000 10.749400
17.020400 13.468200
17.047900 12.107700
17.075300 10.530100
17.102800 9.147600
17.130300 7.522400
17.157700 7.904100
17.185200 8.130700
17.212600 7.418100
17.240100 7.923000
17.267500 8.583500
17.295000 8.951200
17.322500 8.912400
17.349900 9.664100
17.377400 10.179200
17.404800 11.635800
17.432300 11.323700
17.459700 11.474600
17.487200 10.277600
17.514700 10.262400
17.542100 10.338800
17.569600 10.931800
17.597000 11.693800
17.624500 13.250100
17.651900 7.482900
17.679400 6.749100
17.706800 6.407900
17.734300 6.381200
17.761800 7.075700
17.789200 8.754800
17.816700 11.859000
17.844100 17.795300
17.871600 21.975200
17.899000 15.734000
17.926500 10.993600
17.954000 10.834400
17.981400 11.533600
18.008900 11.828500
18.036300 10.795700
18.063800 9.321700
18.091200 7.345100
18.118700 11.843800
18.146200 12.333800
18.173600 5.766600
18.201100 2.873900
18.228500 2.589100
18.256000 10.296800
18.283400 14.827200
18.310900 17.444200
18.338300 16.241300
18.365800 9.838400
18.393300 10.196200
18.420700 8.695400
18.448200 7.732200
18.475600 7.447700
18.503100 7.584500
18.530500 8.886200
18.558000 10.477400
18.585500 17.515200
18.612900 10.192400
18.640400 9.094600
18.667800 10.246500
18.695300 11.113400
18.722700 10.421700
18.750200 11.198400
18.777700 10.965900
18.805100 10.082700
18.832600 10.540700
18.860000 9.944600
18.887500 8.580000
18.914900 7.711200
18.942400 9.325100
18.969900 11.138400
18.997300 12.851800
19.024800 14.153100
19.052200 12.892700
19.079700 11.916100
19.107100 12.471600
19.134600 12.565900
19.162000 12.291500
19.189500 12.408900
19.217000 12.217000
19.244400 10.194600
19.271900 8.549100
19.299300 7.406000
19.326800 12.316300
19.354200 15.700700
19.381700 16.267600
19.409200 10.294600
19.436600 8.468900
19.464100 6.753400
19.491500 5.372300
19.519000 3.416100
19.546400 2.862300
19.573900 2.321700
19.601400 1.242900
19.628800 0.449500
19.656300 0.020900
19.683700 0.000000
19.711200 0.000000
19.738600 0.000000
19.766100 0.000000
19.793600 0.000000
19.821000 0.000000
19.848500 0.000000
19.875900 0.000000
19.903400 0.000000
19.930800 0.000000
19.958300 0.000000
19.985700 0.000000
20.013200 0.000000
20.040700 0.000000
20.068100 0.000000
20.095600 0.000000
20.123000 0.000000
20.150500 0.000000
20.177900 0.000000
20.205400 0.000000
20.232900 0.000000
20.260300 0.000000
20.287800 0.000000
20.315200 0.000000
20.342700 0.000000
20.370100 0.000000
20.397600 0.000000
20.425100 0.000000
20.452500 0.000000
20.480000 0.000000
20.507400 0.000000
20.534900 0.000000
20.562300 0.000000
20.589800 0.000000
20.617300 0.000000
20.644700 0.000000
20.672200 0.000000
20.699600 0.000000
20.727100 0.000000
20.754500 0.000000
20.782000 0.000000
20.809400 0.000000
20.836900 0.000000
20.864400 0.000000
20.891800 0.000000
20.919300 0.000000
20.946700 0.000000
20.974200 0.000000
21.001600 0.000000
21.029100 0.000000
21.056600 0.000000
21.084000 0.000000
21.111500 0.000000
21.138900 0.000000
21.166400 0.000000
21.193800 0.000000
21.221300 0.000000
21.248800 0.000000
21.276200 0.000000
21.303700 0.000000
21.331100 0.000000
21.358600 0.000000
21.386000 0.000000
21.413500 0.000000
21.441000 0.000000
21.468400 0.000000
21.495900 0.000000
21.523300 0.000000
21.550800 0.000000
21.578200 0.000000
21.605700 0.000000
21.633100 0.000000
21.660600 0.000000
21.688100 0.000000
21.715500 0.000000
21.743000 0.000000
21.770400 0.000000
21.797900 0.000000
21.825300 0.000000
21.852800 0.000000
21.880300 0.000000
21.907700 0.000000
21.935200 0.000000
21.962600 0.000000
21.990100 0.000000
22.017500 0.000000
22.045000 0.000000
22.072500 0.000000
22.099900 0.000000
22.127400 0.000000
22.154800 0.000000
e
