set title 'mp-1181940 - Density of States'
set xlabel 'Energy (eV)'
set ylabel 'DOS (states/eV)'
set grid
set xrange [-10:10]
set yrange [0:58.251]
set xzeroaxis lt -1
set terminal png size 800,600
set output 'mp-1181940_dos_gnuplot.png'
plot '-' using 1:2 with lines title 'DOS'
-17.344300 0.000000
-17.320800 0.000000
-17.297300 0.000000
-17.273800 0.000000
-17.250200 0.000000
-17.226700 0.000000
-17.203200 0.000000
-17.179700 0.000000
-17.156200 0.000000
-17.132600 0.000000
-17.109100 0.000000
-17.085600 0.000000
-17.062100 0.000000
-17.038500 0.000000
-17.015000 0.000000
-16.991500 0.000000
-16.968000 0.000000
-16.944400 0.000000
-16.920900 0.000000
-16.897400 0.000000
-16.873900 0.000000
-16.850400 0.000000
-16.826800 0.000000
-16.803300 0.000000
-16.779800 0.000000
-16.756300 0.000000
-16.732700 0.000000
-16.709200 0.000000
-16.685700 0.000000
-16.662200 0.000000
-16.638700 0.000000
-16.615100 0.000000
-16.591600 0.000000
-16.568100 0.000000
-16.544600 0.000000
-16.521000 0.000000
-16.497500 0.000000
-16.474000 0.000000
-16.450500 0.000000
-16.426900 0.000000
-16.403400 0.000000
-16.379900 0.000000
-16.356400 0.000000
-16.332900 0.000000
-16.309300 0.000000
-16.285800 0.000000
-16.262300 0.000000
-16.238800 0.000000
-16.215200 0.000000
-16.191700 0.000000
-16.168200 0.000000
-16.144700 0.000000
-16.121200 0.000000
-16.097600 0.000000
-16.074100 0.000000
-16.050600 0.000000
-16.027100 0.000000
-16.003500 0.000000
-15.980000 0.000000
-15.956500 0.000000
-15.933000 0.000000
-15.909500 0.000000
-15.885900 0.000000
-15.862400 0.000000
-15.838900 0.000000
-15.815400 0.000000
-15.791800 0.000000
-15.768300 0.000000
-15.744800 0.000000
-15.721300 0.000000
-15.697700 0.000000
-15.674200 0.000000
-15.650700 0.000000
-15.627200 0.000000
-15.603700 0.000000
-15.580100 0.000000
-15.556600 0.000000
-15.533100 0.000000
-15.509600 0.000000
-15.486000 0.000000
-15.462500 0.000000
-15.439000 0.000000
-15.415500 0.000000
-15.392000 0.000000
-15.368400 0.000000
-15.344900 0.000000
-15.321400 0.000000
-15.297900 0.000000
-15.274300 0.000000
-15.250800 0.000000
-15.227300 0.000000
-15.203800 0.008500
-15.180200 1.225900
-15.156700 2.910800
-15.133200 3.811500
-15.109700 6.100100
-15.086200 7.496100
-15.062600 8.749600
-15.039100 10.235900
-15.015600 17.434300
-14.992100 16.553700
-14.968500 34.790600
-14.945000 40.809900
-14.921500 5.170900
-14.898000 0.000000
-14.874500 0.000000
-14.850900 0.000000
-14.827400 0.000000
-14.803900 0.000000
-14.780400 0.000000
-14.756800 0.000000
-14.733300 0.000000
-14.709800 0.000000
-14.686300 0.000000
-14.662700 0.000000
-14.639200 0.000000
-14.615700 0.000000
-14.592200 0.000000
-14.568700 0.000000
-14.545100 0.000000
-14.521600 0.000000
-14.498100 0.000000
-14.474600 0.000000
-14.451000 0.000000
-14.427500 0.000000
-14.404000 0.000000
-14.380500 0.000000
-14.357000 0.000000
-14.333400 0.000000
-14.309900 0.000000
-14.286400 0.000000
-14.262900 0.000000
-14.239300 0.000000
-14.215800 0.000000
-14.192300 0.000000
-14.168800 0.000000
-14.145200 0.000000
-14.121700 0.000000
-14.098200 0.000000
-14.074700 0.000000
-14.051200 0.000000
-14.027600 0.000000
-14.004100 0.000000
-13.980600 0.000000
-13.957100 0.000000
-13.933500 0.000000
-13.910000 0.000000
-13.886500 0.000000
-13.863000 0.000000
-13.839500 0.000000
-13.815900 0.000000
-13.792400 0.000000
-13.768900 0.000000
-13.745400 0.000000
-13.721800 0.000000
-13.698300 0.000000
-13.674800 0.000000
-13.651300 0.000000
-13.627800 0.000000
-13.604200 0.000000
-13.580700 0.000000
-13.557200 0.000000
-13.533700 0.000000
-13.510100 0.000000
-13.486600 0.000000
-13.463100 0.000000
-13.439600 0.000000
-13.416000 0.000000
-13.392500 0.000000
-13.369000 0.000000
-13.345500 0.000000
-13.322000 0.000000
-13.298400 0.000000
-13.274900 0.000000
-13.251400 0.000000
-13.227900 0.000000
-13.204300 0.000000
-13.180800 0.000000
-13.157300 0.000000
-13.133800 0.000000
-13.110300 0.000000
-13.086700 0.000000
-13.063200 0.000000
-13.039700 0.000000
-13.016200 0.000000
-12.992600 0.000000
-12.969100 0.000000
-12.945600 0.000000
-12.922100 0.000000
-12.898500 0.000000
-12.875000 0.000000
-12.851500 0.000000
-12.828000 0.000000
-12.804500 0.000000
-12.780900 0.000000
-12.757400 0.000000
-12.733900 0.000000
-12.710400 0.000000
-12.686800 0.000000
-12.663300 0.000000
-12.639800 0.000000
-12.616300 0.000000
-12.592800 0.000000
-12.569200 0.000000
-12.545700 0.000000
-12.522200 0.000000
-12.498700 0.000000
-12.475100 0.000000
-12.451600 0.000000
-12.428100 0.000000
-12.404600 0.000000
-12.381000 0.000000
-12.357500 0.000000
-12.334000 0.000000
-12.310500 0.000000
-12.287000 0.000000
-12.263400 0.000000
-12.239900 0.000000
-12.216400 0.000000
-12.192900 0.000000
-12.169300 0.000000
-12.145800 0.000000
-12.122300 0.000000
-12.098800 0.000000
-12.075300 0.000000
-12.051700 0.000000
-12.028200 0.000000
-12.004700 0.000000
-11.981200 0.000000
-11.957600 0.000000
-11.934100 0.000000
-11.910600 0.000000
-11.887100 0.000000
-11.863500 0.000000
-11.840000 0.000000
-11.816500 0.000000
-11.793000 0.000000
-11.769500 0.000000
-11.745900 0.000000
-11.722400 0.000000
-11.698900 0.000000
-11.675400 0.000000
-11.651800 0.000000
-11.628300 0.000000
-11.604800 0.000000
-11.581300 0.000000
-11.557800 0.000000
-11.534200 0.000000
-11.510700 0.000000
-11.487200 0.000000
-11.463700 0.000000
-11.440100 0.000000
-11.416600 0.000000
-11.393100 0.000000
-11.369600 0.000000
-11.346100 0.000000
-11.322500 0.000000
-11.299000 0.000000
-11.275500 0.000000
-11.252000 0.000000
-11.228400 0.000000
-11.204900 0.000000
-11.181400 0.000000
-11.157900 0.000000
-11.134300 0.000000
-11.110800 0.000000
-11.087300 0.000000
-11.063800 0.000000
-11.040300 0.000000
-11.016700 0.000000
-10.993200 0.000000
-10.969700 0.000000
-10.946200 0.000000
-10.922600 0.000000
-10.899100 0.000000
-10.875600 0.000000
-10.852100 0.000000
-10.828600 0.000000
-10.805000 0.000000
-10.781500 0.000000
-10.758000 0.000000
-10.734500 0.000000
-10.710900 0.000000
-10.687400 0.000000
-10.663900 0.000000
-10.640400 0.000000
-10.616800 0.000000
-10.593300 0.000000
-10.569800 0.000000
-10.546300 0.000000
-10.522800 0.000000
-10.499200 0.000000
-10.475700 0.000000
-10.452200 0.000000
-10.428700 0.000000
-10.405100 0.000000
-10.381600 0.000000
-10.358100 0.000000
-10.334600 0.000000
-10.311100 0.000000
-10.287500 0.000000
-10.264000 0.000000
-10.240500 0.000000
-10.217000 0.000000
-10.193400 0.000000
-10.169900 0.000000
-10.146400 0.000000
-10.122900 0.000000
-10.099300 0.000000
-10.075800 0.000000
-10.052300 0.000000
-10.028800 0.000000
-10.005300 0.000000
-9.981700 0.000000
-9.958200 0.000000
-9.934700 0.000000
-9.911200 0.000000
-9.887600 0.000000
-9.864100 0.000000
-9.840600 0.000000
-9.817100 0.000000
-9.793600 0.000000
-9.770000 0.000000
-9.746500 0.000000
-9.723000 0.000000
-9.699500 0.000000
-9.675900 0.000000
-9.652400 0.000000
-9.628900 0.000000
-9.605400 0.000000
-9.581800 0.000000
-9.558300 0.000000
-9.534800 0.000000
-9.511300 0.000000
-9.487800 0.000000
-9.464200 0.000000
-9.440700 0.000000
-9.417200 0.000000
-9.393700 0.000000
-9.370100 0.000000
-9.346600 0.000000
-9.323100 0.000000
-9.299600 0.000000
-9.276100 0.000000
-9.252500 0.000000
-9.229000 0.000000
-9.205500 0.000000
-9.182000 0.000000
-9.158400 0.000000
-9.134900 0.000000
-9.111400 0.000000
-9.087900 0.000000
-9.064300 0.000000
-9.040800 0.000000
-9.017300 0.000000
-8.993800 0.000000
-8.970300 0.000000
-8.946700 0.000000
-8.923200 0.000000
-8.899700 0.000000
-8.876200 0.000000
-8.852600 0.000000
-8.829100 0.000000
-8.805600 0.000000
-8.782100 0.000000
-8.758600 0.000000
-8.735000 0.000000
-8.711500 0.000000
-8.688000 0.000000
-8.664500 0.000000
-8.640900 0.000000
-8.617400 0.000000
-8.593900 0.000000
-8.570400 0.000000
-8.546900 1.665000
-8.523300 42.047600
-8.499800 16.146800
-8.476300 13.970600
-8.452800 13.815700
-8.429200 13.164700
-8.405700 14.720100
-8.382200 12.774100
-8.358700 6.190400
-8.335100 5.870000
-8.311600 6.896900
-8.288100 19.112300
-8.264600 10.207900
-8.241100 37.111600
-8.217500 26.930000
-8.194000 12.263900
-8.170500 21.451900
-8.147000 52.955500
-8.123400 22.972100
-8.099900 38.389300
-8.076400 15.158800
-8.052900 0.000000
-8.029400 0.000000
-8.005800 0.000000
-7.982300 0.000000
-7.958800 0.000000
-7.935300 0.000000
-7.911700 0.000000
-7.888200 0.000000
-7.864700 0.000000
-7.841200 0.000000
-7.817600 0.000000
-7.794100 0.000000
-7.770600 0.000000
-7.747100 0.000000
-7.723600 0.000000
-7.700000 0.000000
-7.676500 0.000000
-7.653000 0.000000
-7.629500 0.000000
-7.605900 0.000000
-7.582400 0.000000
-7.558900 0.000000
-7.535400 0.000000
-7.511900 0.000000
-7.488300 0.000000
-7.464800 0.000000
-7.441300 0.000000
-7.417800 0.000000
-7.394200 0.000000
-7.370700 0.000000
-7.347200 0.000000
-7.323700 0.000000
-7.300100 0.000000
-7.276600 0.000000
-7.253100 0.000000
-7.229600 0.000000
-7.206100 0.000000
-7.182500 0.000000
-7.159000 0.000000
-7.135500 0.000000
-7.112000 0.000000
-7.088400 0.000000
-7.064900 0.000000
-7.041400 0.000000
-7.017900 0.000000
-6.994400 0.000000
-6.970800 0.000000
-6.947300 0.000000
-6.923800 0.000000
-6.900300 0.000000
-6.876700 0.000000
-6.853200 0.000000
-6.829700 0.000000
-6.806200 0.000000
-6.782600 0.000000
-6.759100 0.000000
-6.735600 0.000000
-6.712100 0.000000
-6.688600 0.000000
-6.665000 0.000000
-6.641500 0.000000
-6.618000 0.000000
-6.594500 0.000000
-6.570900 0.000000
-6.547400 0.000000
-6.523900 0.000000
-6.500400 0.000000
-6.476900 0.000000
-6.453300 0.000000
-6.429800 0.000000
-6.406300 0.000000
-6.382800 0.000000
-6.359200 0.000000
-6.335700 0.000000
-6.312200 0.000000
-6.288700 0.000000
-6.265200 0.000000
-6.241600 0.000000
-6.218100 0.000000
-6.194600 0.000000
-6.171100 0.000000
-6.147500 0.000000
-6.124000 0.000000
-6.100500 0.000000
-6.077000 0.000000
-6.053400 0.000000
-6.029900 0.000000
-6.006400 0.000000
-5.982900 0.000000
-5.959400 0.000000
-5.935800 0.000000
-5.912300 0.000000
-5.888800 0.000000
-5.865300 0.000000
-5.841700 0.000000
-5.818200 0.000000
-5.794700 0.000000
-5.771200 0.000000
-5.747700 0.000000
-5.724100 0.000000
-5.700600 0.000000
-5.677100 0.000000
-5.653600 0.000000
-5.630000 0.000000
-5.606500 0.000000
-5.583000 0.000000
-5.559500 0.000000
-5.535900 0.000000
-5.512400 0.000000
-5.488900 0.000000
-5.465400 0.000000
-5.441900 0.000000
-5.418300 0.000000
-5.394800 0.000000
-5.371300 0.000000
-5.347800 0.000000
-5.324200 0.000000
-5.300700 0.455700
-5.277200 0.637000
-5.253700 0.656500
-5.230200 0.835800
-5.206600 1.032500
-5.183100 2.052200
-5.159600 2.901700
-5.136100 3.573600
-5.112500 4.736700
-5.089000 3.919400
-5.065500 3.582500
-5.042000 3.356300
-5.018400 3.273600
-4.994900 3.134600
-4.971400 2.932200
-4.947900 2.153800
-4.924400 2.088100
-4.900800 2.022400
-4.877300 1.956700
-4.853800 1.891100
-4.830300 1.825500
-4.806700 1.816700
-4.783200 1.822900
-4.759700 1.829600
-4.736200 1.836300
-4.712700 1.640400
-4.689100 1.550100
-4.665600 1.471700
-4.642100 1.418400
-4.618600 1.386200
-4.595000 1.352100
-4.571500 1.308800
-4.548000 1.265400
-4.524500 1.222100
-4.500900 1.178800
-4.477400 1.135500
-4.453900 1.092200
-4.430400 1.049000
-4.406900 1.005800
-4.383300 0.962600
-4.359800 0.949100
-4.336300 1.357900
-4.312800 1.796400
-4.289200 1.509000
-4.265700 1.151300
-4.242200 0.824800
-4.218700 0.487900
-4.195200 0.355900
-4.171600 0.258700
-4.148100 0.175600
-4.124600 0.106400
-4.101100 0.051300
-4.077500 0.010200
-4.054000 0.000000
-4.030500 0.000000
-4.007000 0.000000
-3.983500 0.000000
-3.959900 0.000000
-3.936400 0.000000
-3.912900 0.000000
-3.889400 0.000000
-3.865800 0.000000
-3.842300 0.518000
-3.818800 1.380700
-3.795300 2.168100
-3.771700 3.118200
-3.748200 7.099600
-3.724700 3.592300
-3.701200 3.782000
-3.677700 3.928800
-3.654100 4.037200
-3.630600 4.102600
-3.607100 4.449400
-3.583600 4.781100
-3.560000 5.111800
-3.536500 5.633700
-3.513000 5.664900
-3.489500 5.514400
-3.466000 4.576900
-3.442400 3.295000
-3.418900 2.627100
-3.395400 2.322800
-3.371900 2.504100
-3.348300 2.754500
-3.324800 3.392000
-3.301300 4.011700
-3.277800 4.342100
-3.254200 4.957500
-3.230700 5.224100
-3.207200 5.312100
-3.183700 5.207500
-3.160200 5.943100
-3.136600 5.534900
-3.113100 6.373100
-3.089600 6.292400
-3.066100 6.131500
-3.042500 5.991200
-3.019000 5.746700
-2.995500 5.590300
-2.972000 5.559500
-2.948500 4.861400
-2.924900 4.801200
-2.901400 5.906200
-2.877900 5.921400
-2.854400 5.239800
-2.830800 5.440600
-2.807300 5.731400
-2.783800 5.846200
-2.760300 6.082400
-2.736700 6.502000
-2.713200 6.523300
-2.689700 6.171500
-2.666200 5.837900
-2.642700 6.145000
-2.619100 6.339600
-2.595600 7.720400
-2.572100 8.644800
-2.548600 6.572400
-2.525000 5.863800
-2.501500 5.695700
-2.478000 5.970100
-2.454500 6.376700
-2.431000 7.031700
-2.407400 7.266000
-2.383900 6.976800
-2.360400 7.628800
-2.336900 8.073400
-2.313300 8.043800
-2.289800 8.748600
-2.266300 8.406700
-2.242800 8.933900
-2.219200 9.528300
-2.195700 10.805000
-2.172200 13.729800
-2.148700 6.568800
-2.125200 4.860900
-2.101600 3.034800
-2.078100 1.633200
-2.054600 0.726000
-2.031100 0.021600
-2.007500 0.000000
-1.984000 0.000000
-1.960500 0.000000
-1.937000 0.000000
-1.913500 0.000000
-1.889900 0.000000
-1.866400 0.000000
-1.842900 0.000000
-1.819400 0.000000
-1.795800 0.000000
-1.772300 0.000000
-1.748800 0.000000
-1.725300 0.000000
-1.701800 0.000000
-1.678200 0.000000
-1.654700 0.000000
-1.631200 0.000000
-1.607700 0.000000
-1.584100 0.000000
-1.560600 0.000000
-1.537100 0.000000
-1.513600 0.000000
-1.490000 0.000000
-1.466500 0.000000
-1.443000 0.000000
-1.419500 0.000000
-1.396000 0.000000
-1.372400 0.000000
-1.348900 0.000000
-1.325400 0.000000
-1.301900 0.000000
-1.278300 0.000000
-1.254800 0.000000
-1.231300 0.000000
-1.207800 0.000000
-1.184300 0.000000
-1.160700 0.000000
-1.137200 0.000000
-1.113700 0.000000
-1.090200 0.000000
-1.066600 0.000000
-1.043100 0.000000
-1.019600 0.000000
-0.996100 0.000000
-0.972500 0.000000
-0.949000 0.000000
-0.925500 0.000000
-0.902000 0.000000
-0.878500 0.000000
-0.854900 0.000000
-0.831400 0.000000
-0.807900 0.000000
-0.784400 0.000000
-0.760800 0.000000
-0.737300 0.000000
-0.713800 0.000000
-0.690300 0.000000
-0.666800 0.000000
-0.643200 0.000000
-0.619700 0.000000
-0.596200 0.000000
-0.572700 0.000000
-0.549100 0.000000
-0.525600 0.000000
-0.502100 0.000000
-0.478600 0.000000
-0.455000 0.000000
-0.431500 0.000000
-0.408000 0.000000
-0.384500 0.000000
-0.361000 0.000000
-0.337400 0.000000
-0.313900 0.000000
-0.290400 0.000000
-0.266900 0.000000
-0.243300 0.000000
-0.219800 0.000000
-0.196300 0.000000
-0.172800 0.000000
-0.149300 0.000000
-0.125700 0.000000
-0.102200 0.000000
-0.078700 0.000000
-0.055200 0.000000
-0.031600 0.000000
-0.008100 0.000000
0.015400 0.000000
0.038900 0.000000
0.062500 0.000000
0.086000 0.000000
0.109500 0.000000
0.133000 0.000000
0.156500 0.000000
0.180100 0.000000
0.203600 0.000000
0.227100 0.000000
0.250600 0.000000
0.274200 0.000000
0.297700 0.000000
0.321200 0.000000
0.344700 0.000000
0.368200 0.000000
0.391800 0.000000
0.415300 0.000000
0.438800 0.000000
0.462300 0.000000
0.485900 0.000000
0.509400 0.000000
0.532900 0.000000
0.556400 0.000000
0.580000 0.000000
0.603500 0.000000
0.627000 0.000000
0.650500 0.000000
0.674000 0.000000
0.697600 0.000000
0.721100 0.000000
0.744600 0.000000
0.768100 0.000000
0.791700 0.000000
0.815200 0.000000
0.838700 0.000000
0.862200 0.000000
0.885700 0.000000
0.909300 0.000000
0.932800 0.000000
0.956300 0.000000
0.979800 0.000000
1.003400 0.000000
1.026900 0.000000
1.050400 0.000000
1.073900 0.000000
1.097400 0.000000
1.121000 0.000100
1.144500 0.001000
1.168000 0.002800
1.191500 0.005500
1.215100 0.009000
1.238600 0.013400
1.262100 0.018800
1.285600 0.025000
1.309200 0.032000
1.332700 0.040000
1.356200 0.048800
1.379700 0.058600
1.403200 0.069200
1.426800 0.080700
1.450300 0.093100
1.473800 0.108000
1.497300 0.125900
1.520900 0.143800
1.544400 0.161000
1.567900 0.177400
1.591400 0.193100
1.614900 0.208000
1.638500 0.222200
1.662000 0.235700
1.685500 0.248400
1.709000 0.260400
1.732600 0.271600
1.756100 0.282900
1.779600 0.294700
1.803100 0.307000
1.826700 0.319800
1.850200 0.333400
1.873700 0.348200
1.897200 0.364200
1.920700 0.381500
1.944300 0.400100
1.967800 0.419900
1.991300 0.441000
2.014800 0.463300
2.038400 0.487000
2.061900 0.539200
2.085400 0.592000
2.108900 0.641400
2.132400 0.687600
2.156000 0.730500
2.179500 0.770100
2.203000 0.770800
2.226500 0.804900
2.250100 0.848700
2.273600 0.900600
2.297100 0.953600
2.320600 1.007000
2.344200 1.060900
2.367700 1.115100
2.391200 1.220500
2.414700 1.399400
2.438200 1.441300
2.461800 1.477800
2.485300 1.508800
2.508800 1.536400
2.532300 1.559200
2.555900 1.574800
2.579400 1.583100
2.602900 1.583900
2.626400 1.581000
2.649900 1.589200
2.673500 1.592000
2.697000 1.564400
2.720500 1.557500
2.744000 1.545800
2.767600 1.521800
2.791100 1.427600
2.814600 1.373900
2.838100 1.322600
2.861700 1.273900
2.885200 1.227700
2.908700 1.184100
2.932200 1.137400
2.955700 1.090000
2.979300 1.046800
3.002800 1.007600
3.026300 0.984900
3.049800 0.975100
3.073400 0.963200
3.096900 0.949400
3.120400 0.935100
3.143900 0.922200
3.167400 0.910500
3.191000 0.900100
3.214500 0.893900
3.238000 0.888800
3.261500 0.883700
3.285100 0.878700
3.308600 0.873700
3.332100 0.868800
3.355600 0.864000
3.379100 0.859200
3.402700 0.889900
3.426200 1.043000
3.449700 1.041000
3.473200 1.000500
3.496800 0.949000
3.520300 0.898600
3.543800 0.849100
3.567300 0.800600
3.590900 0.753100
3.614400 0.824500
3.637900 0.722800
3.661400 0.627100
3.684900 0.537600
3.708500 0.410400
3.732000 0.369600
3.755500 0.330500
3.779000 0.293100
3.802600 0.257500
3.826100 0.223500
3.849600 0.191400
3.873100 0.000000
3.896600 0.000000
3.920200 0.000000
3.943700 0.000000
3.967200 0.000000
3.990700 0.005100
4.014300 0.013900
4.037800 0.025000
4.061300 0.038400
4.084800 0.054100
4.108400 0.076000
4.131900 0.107000
4.155400 0.137900
4.178900 0.168900
4.202400 0.199900
4.226000 0.230900
4.249500 0.262000
4.273000 0.293000
4.296500 0.324100
4.320100 0.355200
4.343600 0.384600
4.367100 0.406800
4.390600 0.426300
4.414100 0.442900
4.437700 0.456800
4.461200 0.464800
4.484700 0.460900
4.508200 0.457000
4.531800 0.453100
4.555300 0.449200
4.578800 0.445300
4.602300 0.521000
4.625900 0.537300
4.649400 0.618900
4.672900 0.648400
4.696400 0.681500
4.719900 0.718300
4.743500 0.758200
4.767000 0.801100
4.790500 0.848700
4.814000 0.904200
4.837600 0.926100
4.861100 0.981000
4.884600 1.037900
4.908100 1.096800
4.931600 1.129100
4.955200 1.179400
4.978700 1.230900
5.002200 1.283800
5.025700 1.338200
5.049300 1.393900
5.072800 1.451200
5.096300 1.509800
5.119800 1.569900
5.143400 1.644100
5.166900 1.742000
5.190400 1.852500
5.213900 1.975900
5.237400 2.112000
5.261000 2.295400
5.284500 2.561000
5.308000 2.827400
5.331500 3.113900
5.355100 3.458000
5.378600 3.832300
5.402100 4.306300
5.425600 4.584600
5.449100 5.994400
5.472700 6.377000
5.496200 5.740000
5.519700 3.730000
5.543200 3.276100
5.566800 1.908200
5.590300 1.763200
5.613800 1.635000
5.637300 1.523700
5.660800 1.429200
5.684400 1.352100
5.707900 1.300300
5.731400 1.276100
5.754900 1.277200
5.778500 1.333500
5.802000 1.456000
5.825500 1.690700
5.849000 1.959100
5.872600 2.188600
5.896100 2.266200
5.919600 2.339600
5.943100 2.408900
5.966600 2.474000
5.990200 2.535000
6.013700 2.666700
6.037200 3.736600
6.060700 3.478100
6.084300 3.221700
6.107800 2.808100
6.131300 2.378600
6.154800 2.222800
6.178300 2.073100
6.201900 1.939100
6.225400 1.822600
6.248900 1.723500
6.272400 1.639200
6.296000 5.302300
6.319500 0.900900
6.343000 0.876700
6.366500 0.816000
6.390100 0.733000
6.413600 0.664000
6.437100 0.605500
6.460600 0.553100
6.484100 0.505600
6.507700 0.463000
6.531200 0.451700
6.554700 0.519700
6.578200 0.591800
6.601800 0.406000
6.625300 0.453300
6.648800 0.508000
6.672300 0.569900
6.695800 0.639200
6.719400 0.715700
6.742900 0.834400
6.766400 0.913000
6.789900 1.003400
6.813500 1.173300
6.837000 1.456300
6.860500 2.291700
6.884000 2.465400
6.907600 2.476600
6.931100 2.470200
6.954600 2.473700
6.978100 2.487000
7.001600 2.507600
7.025200 2.525900
7.048700 2.542000
7.072200 2.558900
7.095700 2.429200
7.119300 2.382600
7.142800 2.332200
7.166300 2.280000
7.189800 2.226400
7.213300 2.171200
7.236900 2.114600
7.260400 2.056400
7.283900 1.996800
7.307400 1.935600
7.331000 1.875100
7.354500 1.824300
7.378000 1.785800
7.401500 1.750500
7.425100 1.716900
7.448600 1.684700
7.472100 1.653800
7.495600 1.624300
7.519100 1.583800
7.542700 1.520600
7.566200 1.483500
7.589700 2.114200
7.613200 2.330100
7.636800 3.159400
7.660300 3.385900
7.683800 3.136800
7.707300 3.098300
7.730800 2.744500
7.754400 3.117700
7.777900 3.194600
7.801400 3.408000
7.824900 3.628100
7.848500 7.471900
7.872000 4.216600
7.895500 4.161200
7.919000 4.240100
7.942500 4.300600
7.966100 4.255500
7.989600 4.297400
8.013100 4.295800
8.036600 3.371400
8.060200 3.157900
8.083700 2.940200
8.107200 2.718200
8.130700 2.471500
8.154300 2.260900
8.177800 2.047400
8.201300 1.791600
8.224800 1.597900
8.248300 1.438400
8.271900 1.348200
8.295400 1.209000
8.318900 1.104600
8.342400 1.046800
8.366000 1.035300
8.389500 1.072500
8.413000 1.161800
8.436500 1.297600
8.460000 1.395500
8.483600 1.499500
8.507100 1.609600
8.530600 1.830100
8.554100 2.149600
8.577700 2.698900
8.601200 3.605800
8.624700 4.769900
8.648200 7.511500
8.671800 4.739600
8.695300 4.423600
8.718800 4.145200
8.742300 4.246200
8.765800 4.044400
8.789400 3.714300
8.812900 3.430300
8.836400 3.395300
8.859900 3.180700
8.883500 2.983700
8.907000 2.858400
8.930500 2.672000
8.954000 2.775400
8.977500 2.929000
9.001100 3.121500
9.024600 3.420000
9.048100 3.252400
9.071600 3.531900
9.095200 3.802500
9.118700 4.190400
9.142200 4.501800
9.165700 4.896000
9.189300 5.043500
9.212800 4.912500
9.236300 4.695900
9.259800 4.156200
9.283300 3.748000
9.306900 4.017000
9.330400 3.726600
9.353900 3.501300
9.377400 3.316300
9.401000 3.009100
9.424500 2.690100
9.448000 2.498300
9.471500 2.310500
9.495000 2.126700
9.518600 1.946800
9.542100 1.770800
9.565600 0.630000
9.589100 0.792000
9.612700 0.680200
9.636200 0.577100
9.659700 0.482700
9.683200 0.459700
9.706800 0.661300
9.730300 0.794000
9.753800 0.939500
9.777300 1.197400
9.800800 1.362100
9.824400 1.535300
9.847900 1.526600
9.871400 1.568600
9.894900 1.675100
9.918500 1.782800
9.942000 1.891500
9.965500 2.001400
9.989000 2.114100
10.012500 2.237200
10.036100 2.357700
10.059600 2.434600
10.083100 2.531400
10.106600 2.828200
10.130200 3.158300
10.153700 3.067400
10.177200 3.119500
10.200700 3.106000
10.224200 3.026800
10.247800 2.701600
10.271300 2.351000
10.294800 2.064000
10.318300 1.975300
10.341900 1.891800
10.365400 1.813700
10.388900 1.740800
10.412400 1.672200
10.436000 1.604800
10.459500 1.538100
10.483000 1.472400
10.506500 1.407400
10.530000 1.362800
10.553600 1.336400
10.577100 1.315300
10.600600 1.299600
10.624100 1.311300
10.647700 1.342800
10.671200 1.381500
10.694700 1.424100
10.718200 1.470500
10.741700 1.520800
10.765300 1.630700
10.788800 1.880100
10.812300 2.122500
10.835800 2.369400
10.859400 2.735500
10.882900 4.206200
10.906400 5.017400
10.929900 4.095600
10.953500 4.049000
10.977000 3.868000
11.000500 3.550900
11.024000 3.344600
11.047500 3.081000
11.071100 2.776100
11.094600 2.574000
11.118100 2.443500
11.141600 2.343200
11.165200 2.251200
11.188700 2.162000
11.212200 2.071500
11.235700 1.983300
11.259200 1.888900
11.282800 1.788200
11.306300 2.022500
11.329800 2.304400
11.353300 2.068600
11.376900 1.722000
11.400400 1.682900
11.423900 1.651100
11.447400 1.626000
11.471000 1.607500
11.494500 1.598000
11.518000 1.573600
11.541500 1.580500
11.565000 1.594900
11.588600 1.616800
11.612100 1.646500
11.635600 1.681000
11.659100 1.714600
11.682700 1.744500
11.706200 1.770900
11.729700 1.817600
11.753200 1.871000
11.776700 1.931300
11.800300 1.998600
11.823800 2.072900
11.847300 2.323500
11.870800 2.466800
11.894400 2.831500
11.917900 3.174000
11.941400 3.623500
11.964900 3.295900
11.988500 3.401500
12.012000 3.457700
12.035500 3.464500
12.059000 3.435700
12.082500 3.378200
12.106100 3.292000
12.129600 3.133700
12.153100 3.009100
12.176600 2.891500
12.200200 2.710000
12.223700 2.638400
12.247200 2.575700
12.270700 2.522000
12.294200 2.477400
12.317800 2.441700
12.341300 2.415300
12.364800 2.399700
12.388300 2.709200
12.411900 3.137400
12.435400 3.121700
12.458900 3.250000
12.482400 2.929200
12.506000 2.650700
12.529500 2.599400
12.553000 2.750300
12.576500 2.780900
12.600000 2.579400
12.623600 2.306100
12.647100 2.276200
12.670600 2.283400
12.694100 2.286500
12.717700 2.285600
12.741200 2.280800
12.764700 2.387600
12.788200 3.109300
12.811700 3.330100
12.835300 3.555600
12.858800 3.012700
12.882300 2.673600
12.905800 2.557100
12.929400 2.451000
12.952900 2.355200
12.976400 2.269700
12.999900 2.194500
13.023400 2.129600
13.047000 2.088200
13.070500 3.754500
13.094000 2.684500
13.117500 2.347800
13.141100 1.747300
13.164600 1.902900
13.188100 1.981300
13.211600 2.041200
13.235200 2.100100
13.258700 2.166700
13.282200 2.262500
13.305700 2.348000
13.329200 2.514900
13.352800 2.655200
13.376300 2.769200
13.399800 2.844400
13.423300 2.801300
13.446900 2.864200
13.470400 2.917000
13.493900 2.960200
13.517400 2.996000
13.540900 3.354800
13.564500 5.048400
13.588000 5.400500
13.611500 5.521000
13.635000 4.795200
13.658600 4.467500
13.682100 4.789300
13.705600 4.422000
13.729100 4.077400
13.752700 3.755200
13.776200 3.076200
13.799700 3.070400
13.823200 3.030000
13.846700 2.982600
13.870300 2.928400
13.893800 2.867200
13.917300 2.891900
13.940800 2.981100
13.964400 3.038800
13.987900 3.045900
14.011400 3.057200
14.034900 3.070200
14.058400 3.004800
14.082000 3.128900
14.105500 4.027100
14.129000 4.088700
14.152500 4.038900
14.176100 3.957800
14.199600 3.528400
14.223100 3.635800
14.246600 3.649600
14.270200 3.618100
14.293700 3.599300
14.317200 3.593300
14.340700 3.600100
14.364200 3.630300
14.387800 3.550100
14.411300 3.610600
14.434800 3.898200
14.458300 3.969900
14.481900 4.041200
14.505400 4.090700
14.528900 4.128700
14.552400 3.970700
14.575900 3.783400
14.599500 3.748200
14.623000 3.730000
14.646500 3.718700
14.670000 3.717300
14.693600 3.787500
14.717100 3.798600
14.740600 3.811900
14.764100 3.829100
14.787700 3.450400
14.811200 3.289400
14.834700 3.126800
14.858200 2.961800
14.881700 2.795400
14.905300 2.894400
14.928800 2.847400
14.952300 2.855600
14.975800 3.028300
14.999400 3.082800
15.022900 3.121200
15.046400 3.145600
15.069900 3.155600
15.093400 3.139300
15.117000 3.073100
15.140500 3.022700
15.164000 3.025300
15.187500 3.065700
15.211100 3.113700
15.234600 3.157700
15.258100 3.198300
15.281600 3.235600
15.305100 3.242800
15.328700 3.200200
15.352200 3.144400
15.375700 3.075900
15.399200 2.952900
15.422800 2.917200
15.446300 2.881800
15.469800 2.847600
15.493300 2.811700
15.516900 2.760600
15.540400 2.697900
15.563900 2.639600
15.587400 2.586000
15.610900 2.702100
15.634500 2.731700
15.658000 2.782000
15.681500 3.210700
15.705000 3.323200
15.728600 3.642200
15.752100 3.801600
15.775600 3.577800
15.799100 3.701900
15.822600 3.824400
15.846200 3.976000
15.869700 4.128800
15.893200 4.213100
15.916700 4.116600
15.940300 4.101600
15.963800 4.027100
15.987300 3.919300
16.010800 3.813700
16.034400 3.709500
16.057900 3.621500
16.081400 3.578600
16.104900 3.715200
16.128400 3.785000
16.152000 3.815100
16.175500 3.795900
16.199000 3.555600
16.222500 3.242000
16.246100 3.166000
16.269600 3.202700
16.293100 3.286600
16.316600 3.410800
16.340100 3.426000
16.363700 3.578800
16.387200 3.796600
16.410700 4.035500
16.434200 4.277000
16.457800 4.506400
16.481300 4.701300
16.504800 4.851700
16.528300 4.945100
16.551900 4.800600
16.575400 4.608000
16.598900 4.371500
16.622400 4.106800
16.645900 3.918100
16.669500 3.645900
16.693000 3.330700
16.716500 3.241900
16.740000 3.188300
16.763600 3.228300
16.787100 3.279000
16.810600 3.356800
16.834100 3.519500
16.857600 3.677300
16.881200 3.938700
16.904700 4.061300
16.928200 4.303200
16.951700 4.551600
16.975300 4.809500
16.998800 4.238500
17.022300 4.170000
17.045800 3.993500
17.069400 3.415100
17.092900 2.862300
17.116400 2.354600
17.139900 2.085200
17.163400 1.790300
17.187000 1.771800
17.210500 1.828700
17.234000 1.958300
17.257500 2.170200
17.281100 2.393700
17.304600 2.658900
17.328100 2.968800
17.351600 3.312500
17.375100 3.638400
17.398700 3.872900
17.422200 4.049000
17.445700 4.108000
17.469200 4.103500
17.492800 4.056900
17.516300 3.976200
17.539800 3.763700
17.563300 3.569700
17.586800 3.440600
17.610400 3.382800
17.633900 3.112000
17.657400 2.863300
17.680900 2.619500
17.704500 2.371200
17.728000 2.178100
17.751500 2.079300
17.775000 1.879900
17.798600 1.762500
17.822100 1.864900
17.845600 2.063400
17.869100 2.237600
17.892600 2.319700
17.916200 2.392000
17.939700 2.508300
17.963200 2.645600
17.986700 2.769900
18.010300 3.246800
18.033800 3.496000
18.057300 3.721300
18.080800 4.025400
18.104300 4.298100
18.127900 4.685500
18.151400 5.249100
18.174900 5.569300
18.198400 5.550600
18.222000 4.897800
18.245500 3.015400
18.269000 2.407500
18.292500 1.807600
18.316100 1.503100
18.339600 1.395600
18.363100 1.302200
18.386600 1.223200
18.410100 0.996900
18.433700 0.990600
18.457200 0.991000
18.480700 1.090200
18.504200 1.885000
18.527800 2.045300
18.551300 2.179200
18.574800 2.285400
18.598300 2.354300
18.621800 2.493000
18.645400 2.501800
18.668900 2.497700
18.692400 2.489500
18.715900 2.476800
18.739500 2.491900
18.763000 2.529600
18.786500 2.559100
18.810000 2.591900
18.833600 2.601900
18.857100 2.611300
18.880600 2.616900
18.904100 2.633400
18.927600 2.807600
18.951200 2.807300
18.974700 2.816300
18.998200 2.817400
19.021700 2.784800
19.045300 2.718900
19.068800 2.633000
19.092300 2.639000
19.115800 2.780800
19.139300 2.052400
19.162900 2.111000
19.186400 2.204300
19.209900 2.309800
19.233400 2.425100
19.257000 2.580400
19.280500 2.761100
19.304000 2.955000
19.327500 3.076600
19.351100 3.199200
19.374600 3.264400
19.398100 3.201100
19.421600 3.124800
19.445100 3.042600
19.468700 2.829100
19.492200 2.744400
19.515700 2.662700
19.539200 2.586500
19.562800 2.516000
19.586300 2.451100
19.609800 2.391800
19.633300 2.338100
19.656800 2.273800
19.680400 2.379600
19.703900 2.326000
19.727400 2.308900
19.750900 2.302100
19.774500 2.299600
19.798000 2.301400
19.821500 2.307200
19.845000 2.321500
19.868500 2.346500
19.892100 2.452100
19.915600 2.503900
19.939100 2.619500
19.962600 2.692200
19.986200 2.829800
20.009700 2.936500
20.033200 3.076100
20.056700 3.216300
20.080300 3.352800
20.103800 3.475900
20.127300 3.495900
20.150800 3.598600
20.174300 3.954900
20.197900 3.675500
20.221400 3.327100
20.244900 3.092700
20.268400 2.997200
20.292000 2.980800
20.315500 2.970100
20.339000 2.952600
20.362500 3.276800
20.386000 3.147600
20.409600 3.035100
20.433100 3.044200
20.456600 3.055400
20.480100 3.059700
20.503700 3.041700
20.527200 2.923700
20.550700 3.010000
20.574200 3.074200
20.597800 3.417200
20.621300 3.903200
20.644800 4.123100
20.668300 8.534300
20.691800 4.039700
20.715400 4.135100
20.738900 4.256300
20.762400 4.404300
20.785900 4.288400
20.809500 4.028100
20.833000 3.604700
20.856500 3.301500
20.880000 3.075100
20.903500 2.878400
20.927100 2.743300
20.950600 2.619300
20.974100 2.571900
20.997600 2.538500
21.021200 2.531100
21.044700 2.684400
21.068200 2.699700
21.091700 2.740000
21.115300 2.846900
21.138800 2.980800
21.162300 3.143100
21.185800 3.317600
21.209300 3.401600
21.232900 3.478600
21.256400 3.512700
21.279900 3.918600
21.303400 4.567800
21.327000 3.659700
21.350500 3.646100
21.374000 3.265000
21.397500 3.298600
21.421000 3.312500
21.444600 3.611100
21.468100 3.548000
21.491600 3.386800
21.515100 3.337600
21.538700 3.166300
21.562200 3.146400
21.585700 3.124200
21.609200 3.084500
21.632800 2.981200
21.656300 2.981200
21.679800 2.992000
21.703300 3.086300
21.726800 3.266400
21.750400 3.604600
21.773900 3.937100
21.797400 4.199200
21.820900 4.381100
21.844500 4.645700
21.868000 4.912800
21.891500 4.924700
21.915000 4.749600
21.938500 4.582800
21.962100 4.368400
21.985600 4.271500
22.009100 4.222600
22.032600 3.815800
22.056200 3.473000
22.079700 3.326700
22.103200 3.240100
22.126700 3.183200
22.150300 3.141000
22.173800 2.977800
22.197300 3.125600
22.220800 3.064000
22.244300 3.012200
22.267900 2.970300
22.291400 2.954900
22.314900 2.978600
22.338400 2.960000
22.362000 2.810000
22.385500 2.826800
22.409000 2.849500
22.432500 2.879900
22.456000 2.926700
22.479600 2.995800
22.503100 3.120300
22.526600 3.152700
22.550100 3.320000
22.573700 5.748700
22.597200 4.247400
22.620700 4.255100
22.644200 3.518700
22.667700 2.428900
22.691300 2.428700
22.714800 2.471800
22.738300 2.547700
22.761800 2.620800
22.785400 2.691200
22.808900 2.758800
22.832400 2.823700
22.855900 2.807800
22.879500 2.722700
22.903000 2.669700
22.926500 2.622300
22.950000 2.577900
22.973500 2.536400
22.997100 2.530900
23.020600 2.538700
23.044100 2.569600
23.067600 2.914600
23.091200 2.940300
23.114700 3.041400
23.138200 3.003300
23.161700 3.465200
23.185200 3.684000
23.208800 3.731700
23.232300 3.784600
23.255800 3.325000
23.279300 3.326900
23.302900 3.432900
23.326400 3.503300
23.349900 3.536000
23.373400 3.648700
23.397000 3.783700
23.420500 3.809500
23.444000 4.012800
23.467500 4.335700
23.491000 5.032500
23.514600 4.553300
23.538100 3.731300
23.561600 2.462600
23.585100 2.477000
23.608700 2.634400
23.632200 3.053300
23.655700 3.337600
23.679200 3.625000
23.702700 4.008200
23.726300 4.847200
23.749800 4.726900
23.773300 4.860300
23.796800 4.907900
23.820400 4.483700
23.843900 3.875500
23.867400 3.761700
23.890900 3.703400
23.914500 3.692700
23.938000 3.801000
23.961500 3.868800
23.985000 3.920600
24.008500 3.956400
24.032100 3.984300
24.055600 4.059600
24.079100 4.147800
24.102600 4.217900
24.126200 4.389000
24.149700 4.563600
24.173200 4.726500
24.196700 4.857100
24.220200 4.856800
24.243800 4.934100
24.267300 4.903200
24.290800 5.558800
24.314300 5.164000
24.337900 4.957500
24.361400 4.360400
24.384900 4.162000
24.408400 3.983900
24.432000 3.941900
24.455500 3.837400
24.479000 3.907900
24.502500 4.037800
24.526000 3.981700
24.549600 3.780300
24.573100 3.679100
24.596600 4.784100
24.620100 3.655500
24.643700 3.362800
24.667200 3.107800
24.690700 2.353000
24.714200 2.249000
24.737700 2.128300
24.761300 2.027800
24.784800 2.251500
24.808300 2.392600
24.831800 2.574200
24.855400 2.796500
24.878900 3.131400
24.902400 3.565300
24.925900 4.068400
24.949400 4.748000
24.973000 5.802700
24.996500 6.668100
25.020000 6.268400
25.043500 6.002000
25.067100 5.193500
25.090600 4.695100
25.114100 4.229400
25.137600 3.878700
25.161200 3.584700
25.184700 3.345000
25.208200 3.167300
25.231700 2.881900
25.255200 2.766600
25.278800 2.676500
25.302300 3.055700
25.325800 3.055900
25.349300 3.045300
25.372900 3.023900
25.396400 2.991700
25.419900 2.662000
25.443400 2.511700
25.466900 2.948800
25.490500 2.959200
25.514000 2.987700
25.537500 3.033200
25.561000 3.237800
25.584600 3.441500
25.608100 3.464200
25.631600 3.286000
25.655100 3.050100
25.678700 2.756700
25.702200 2.303700
25.725700 1.812400
25.749200 1.574300
25.772700 1.634000
25.796300 1.638500
25.819800 1.737100
25.843300 1.975600
25.866800 2.316300
25.890400 2.559600
25.913900 2.845500
25.937400 3.261500
25.960900 3.867600
25.984400 4.616600
26.008000 5.093000
26.031500 5.091900
26.055000 5.236800
26.078500 5.236900
26.102100 5.475900
26.125600 5.363300
26.149100 4.999900
26.172600 4.780200
26.196200 4.782300
26.219700 4.849200
26.243200 4.738100
26.266700 6.142500
26.290200 3.715400
26.313800 3.537400
26.337300 3.367000
26.360800 3.206000
26.384300 3.054400
26.407900 2.943300
26.431400 2.864000
26.454900 2.699100
26.478400 2.743000
26.501900 3.391900
26.525500 3.381500
26.549000 3.434900
26.572500 3.529400
26.596000 3.655700
26.619600 3.873300
26.643100 3.854100
26.666600 4.244400
26.690100 4.686600
26.713700 5.121500
26.737200 5.697200
26.760700 6.087300
26.784200 6.285600
26.807700 5.912600
26.831300 5.296800
26.854800 4.672800
26.878300 4.062400
26.901800 3.567000
26.925400 3.351900
26.948900 3.271400
26.972400 3.251400
26.995900 3.240200
27.019400 3.230500
27.043000 3.227000
27.066500 3.228700
27.090000 3.198300
27.113500 3.165000
27.137100 3.139400
27.160600 3.042900
27.184100 3.007300
27.207600 2.949600
27.231100 2.849700
27.254700 1.920100
27.278200 1.240000
27.301700 0.721500
27.325200 0.509800
27.348800 0.355700
27.372300 0.233400
27.395800 0.143000
27.419300 0.084500
27.442900 0.055600
27.466400 0.035900
27.489900 0.020500
27.513400 0.009400
27.536900 0.002600
27.560500 0.000000
27.584000 0.000000
27.607500 0.000000
27.631000 0.000000
27.654600 0.000000
27.678100 0.000000
27.701600 0.000000
27.725100 0.000000
27.748600 0.000000
27.772200 0.000000
27.795700 0.000000
27.819200 0.000000
27.842700 0.000000
27.866300 0.000000
27.889800 0.000000
27.913300 0.000000
27.936800 0.000000
27.960400 0.000000
27.983900 0.000000
28.007400 0.000000
28.030900 0.000000
28.054400 0.000000
28.078000 0.000000
28.101500 0.000000
28.125000 0.000000
28.148500 0.000000
28.172100 0.000000
28.195600 0.000000
28.219100 0.000000
28.242600 0.000000
28.266100 0.000000
28.289700 0.000000
28.313200 0.000000
28.336700 0.000000
28.360200 0.000000
28.383800 0.000000
28.407300 0.000000
28.430800 0.000000
28.454300 0.000000
28.477900 0.000000
28.501400 0.000000
28.524900 0.000000
28.548400 0.000000
28.571900 0.000000
28.595500 0.000000
28.619000 0.000000
28.642500 0.000000
28.666000 0.000000
28.689600 0.000000
28.713100 0.000000
28.736600 0.000000
28.760100 0.000000
28.783600 0.000000
28.807200 0.000000
28.830700 0.000000
28.854200 0.000000
28.877700 0.000000
28.901300 0.000000
28.924800 0.000000
28.948300 0.000000
28.971800 0.000000
28.995400 0.000000
29.018900 0.000000
29.042400 0.000000
29.065900 0.000000
29.089400 0.000000
29.113000 0.000000
29.136500 0.000000
29.160000 0.000000
29.183500 0.000000
29.207100 0.000000
29.230600 0.000000
29.254100 0.000000
29.277600 0.000000
29.301100 0.000000
29.324700 0.000000
29.348200 0.000000
29.371700 0.000000
29.395200 0.000000
29.418800 0.000000
29.442300 0.000000
29.465800 0.000000
29.489300 0.000000
29.512800 0.000000
29.536400 0.000000
29.559900 0.000000
29.583400 0.000000
29.606900 0.000000
29.630500 0.000000
29.654000 0.000000
29.677500 0.000000
29.701000 0.000000
e
