set title 'mp-556319 - Density of States'
set xlabel 'Energy (eV)'
set ylabel 'DOS (states/eV)'
set grid
set xrange [-10:10]
set yrange [0:36.033]
set xzeroaxis lt -1
set terminal png size 800,600
set output 'mp-556319_dos_gnuplot.png'
plot '-' using 1:2 with lines title 'DOS'
-21.295700 0.000000
-21.274700 0.000000
-21.253800 0.000000
-21.232900 0.000000
-21.212000 0.000000
-21.191100 0.000000
-21.170100 0.000000
-21.149200 0.000000
-21.128300 0.000000
-21.107400 0.000000
-21.086500 0.000000
-21.065500 0.000000
-21.044600 0.000000
-21.023700 0.000000
-21.002800 0.000000
-20.981900 0.000000
-20.960900 0.000000
-20.940000 0.000000
-20.919100 0.000000
-20.898200 0.000000
-20.877300 0.000000
-20.856300 0.000000
-20.835400 0.000000
-20.814500 0.000000
-20.793600 0.000000
-20.772700 0.000000
-20.751700 0.000000
-20.730800 0.000000
-20.709900 0.000000
-20.689000 0.000000
-20.668100 0.000000
-20.647100 0.000000
-20.626200 0.000000
-20.605300 0.000000
-20.584400 0.000000
-20.563500 0.000000
-20.542500 0.000000
-20.521600 0.000000
-20.500700 0.000000
-20.479800 0.000000
-20.458900 0.000000
-20.437900 0.000000
-20.417000 0.000000
-20.396100 0.000000
-20.375200 0.000000
-20.354300 0.000000
-20.333300 0.000000
-20.312400 0.000000
-20.291500 0.000000
-20.270600 0.000000
-20.249600 0.000000
-20.228700 0.000000
-20.207800 0.000000
-20.186900 0.000000
-20.166000 0.000000
-20.145000 0.000000
-20.124100 0.000000
-20.103200 0.000000
-20.082300 0.000000
-20.061400 0.000000
-20.040400 0.000000
-20.019500 0.000000
-19.998600 0.000000
-19.977700 0.000000
-19.956800 0.000000
-19.935800 0.000000
-19.914900 0.000000
-19.894000 0.000000
-19.873100 0.000000
-19.852200 0.000000
-19.831200 0.000000
-19.810300 0.000000
-19.789400 0.000000
-19.768500 0.000000
-19.747600 0.000000
-19.726600 0.000000
-19.705700 0.000000
-19.684800 0.000000
-19.663900 0.000000
-19.643000 0.000000
-19.622000 0.000000
-19.601100 0.000000
-19.580200 0.000000
-19.559300 0.000000
-19.538400 0.000000
-19.517400 0.000000
-19.496500 0.000000
-19.475600 0.000000
-19.454700 0.000000
-19.433800 0.000000
-19.412800 0.000000
-19.391900 0.001000
-19.371000 0.138200
-19.350100 0.507600
-19.329200 1.090600
-19.308200 1.733600
-19.287300 2.318900
-19.266400 2.811500
-19.245500 3.256000
-19.224600 3.737800
-19.203600 4.443200
-19.182700 5.127800
-19.161800 5.699400
-19.140900 6.367200
-19.120000 6.711200
-19.099000 6.686600
-19.078100 6.370100
-19.057200 5.969900
-19.036300 5.321900
-19.015400 4.703300
-18.994400 4.126700
-18.973500 3.986400
-18.952600 3.828100
-18.931700 3.131000
-18.910800 2.408400
-18.889800 1.857900
-18.868900 1.461600
-18.848000 1.058200
-18.827100 0.694600
-18.806200 0.082200
-18.785200 0.000000
-18.764300 0.000000
-18.743400 0.000000
-18.722500 0.000000
-18.701600 0.157100
-18.680600 0.730200
-18.659700 1.480000
-18.638800 1.967300
-18.617900 2.435800
-18.597000 2.898700
-18.576000 3.355700
-18.555100 4.144200
-18.534200 7.383700
-18.513300 8.165500
-18.492400 8.263500
-18.471400 11.349100
-18.450500 9.376200
-18.429600 9.138400
-18.408700 7.347700
-18.387800 4.722400
-18.366800 2.739600
-18.345900 2.228400
-18.325000 2.605100
-18.304100 2.968000
-18.283200 3.206500
-18.262200 3.173600
-18.241300 2.986900
-18.220400 2.882500
-18.199500 3.076400
-18.178600 3.336700
-18.157600 3.459400
-18.136700 3.627600
-18.115800 4.113600
-18.094900 4.826200
-18.074000 6.289400
-18.053000 7.777500
-18.032100 7.631800
-18.011200 8.532700
-17.990300 8.155400
-17.969400 6.217900
-17.948400 4.658200
-17.927500 3.763300
-17.906600 3.101600
-17.885700 3.160500
-17.864800 3.448600
-17.843800 4.513700
-17.822900 5.113000
-17.802000 4.639800
-17.781100 4.781400
-17.760200 4.890000
-17.739200 4.913000
-17.718300 4.986700
-17.697400 5.087700
-17.676500 5.185700
-17.655600 5.353700
-17.634600 5.878700
-17.613700 6.203700
-17.592800 6.397700
-17.571900 6.777400
-17.551000 5.961100
-17.530000 4.408400
-17.509100 3.373900
-17.488200 3.278200
-17.467300 3.695500
-17.446400 4.749100
-17.425400 6.140600
-17.404500 6.634700
-17.383600 6.733000
-17.362700 7.078100
-17.341800 8.451600
-17.320800 12.472500
-17.299900 21.969100
-17.279000 26.005700
-17.258100 9.069100
-17.237200 10.723600
-17.216200 27.799600
-17.195300 30.954800
-17.174400 20.211300
-17.153500 38.189900
-17.132600 24.252700
-17.111600 20.840200
-17.090700 12.196400
-17.069800 1.498800
-17.048900 3.335800
-17.028000 8.371000
-17.007000 10.042600
-16.986100 13.550100
-16.965200 14.193600
-16.944300 13.699400
-16.923400 11.100200
-16.902400 8.106000
-16.881500 6.121000
-16.860600 4.313600
-16.839700 0.812500
-16.818800 0.000000
-16.797800 0.000000
-16.776900 0.000000
-16.756000 0.000000
-16.735100 0.000000
-16.714200 0.000000
-16.693200 0.000000
-16.672300 0.000000
-16.651400 0.000000
-16.630500 0.000000
-16.609600 0.000000
-16.588600 0.000000
-16.567700 0.000000
-16.546800 0.000000
-16.525900 0.000000
-16.505000 0.000000
-16.484000 0.000000
-16.463100 0.000000
-16.442200 0.000000
-16.421300 0.000000
-16.400400 0.000000
-16.379400 0.000000
-16.358500 0.000000
-16.337600 0.000000
-16.316700 0.000000
-16.295700 0.000000
-16.274800 0.000000
-16.253900 0.000000
-16.233000 0.000000
-16.212100 0.000000
-16.191100 0.000000
-16.170200 0.000000
-16.149300 0.000000
-16.128400 0.000000
-16.107500 0.000000
-16.086500 0.000000
-16.065600 0.000000
-16.044700 0.000000
-16.023800 0.000000
-16.002900 0.000000
-15.981900 0.000000
-15.961000 0.000000
-15.940100 0.000000
-15.919200 0.000000
-15.898300 0.000000
-15.877300 0.000000
-15.856400 0.000000
-15.835500 0.000000
-15.814600 0.000000
-15.793700 0.000000
-15.772700 0.000000
-15.751800 0.000000
-15.730900 0.000000
-15.710000 0.000000
-15.689100 0.000000
-15.668100 0.000000
-15.647200 0.000000
-15.626300 0.000000
-15.605400 0.000000
-15.584500 0.000000
-15.563500 0.000000
-15.542600 0.000000
-15.521700 0.000000
-15.500800 0.000000
-15.479900 0.000000
-15.458900 0.000000
-15.438000 0.000000
-15.417100 0.000000
-15.396200 0.000000
-15.375300 0.000000
-15.354300 0.000000
-15.333400 0.000000
-15.312500 0.000000
-15.291600 0.000000
-15.270700 0.000000
-15.249700 0.000000
-15.228800 0.000000
-15.207900 0.000000
-15.187000 0.000000
-15.166100 0.000000
-15.145100 0.000000
-15.124200 0.000000
-15.103300 0.000000
-15.082400 0.000000
-15.061500 0.000000
-15.040500 0.000000
-15.019600 0.000000
-14.998700 0.000000
-14.977800 0.000000
-14.956900 0.000000
-14.935900 0.000000
-14.915000 0.000000
-14.894100 0.000000
-14.873200 0.000000
-14.852300 0.000000
-14.831300 0.000000
-14.810400 0.000000
-14.789500 0.000000
-14.768600 0.000000
-14.747700 0.000000
-14.726700 0.000000
-14.705800 0.000000
-14.684900 0.000000
-14.664000 0.000000
-14.643100 0.000000
-14.622100 0.000000
-14.601200 0.000000
-14.580300 0.000000
-14.559400 0.000000
-14.538500 0.000000
-14.517500 0.000000
-14.496600 0.000000
-14.475700 0.000000
-14.454800 0.000000
-14.433900 0.000000
-14.412900 0.000000
-14.392000 0.000000
-14.371100 0.000000
-14.350200 0.000000
-14.329300 0.000000
-14.308300 0.000000
-14.287400 0.000000
-14.266500 0.000000
-14.245600 0.000000
-14.224700 0.000000
-14.203700 0.000000
-14.182800 0.000000
-14.161900 0.000000
-14.141000 0.000000
-14.120100 0.000000
-14.099100 0.000000
-14.078200 0.000000
-14.057300 0.000000
-14.036400 0.000000
-14.015500 0.000000
-13.994500 0.000000
-13.973600 0.000000
-13.952700 0.000000
-13.931800 0.000000
-13.910900 0.000000
-13.889900 0.000000
-13.869000 0.000000
-13.848100 0.000000
-13.827200 0.000000
-13.806300 0.000000
-13.785300 0.000000
-13.764400 0.000000
-13.743500 0.000000
-13.722600 0.000000
-13.701700 0.000000
-13.680700 0.000000
-13.659800 0.000000
-13.638900 0.000000
-13.618000 0.000000
-13.597100 0.000000
-13.576100 0.000000
-13.555200 0.000000
-13.534300 0.000000
-13.513400 0.000000
-13.492500 0.000000
-13.471500 0.000000
-13.450600 0.000000
-13.429700 0.000000
-13.408800 0.000000
-13.387900 0.000000
-13.366900 0.000000
-13.346000 0.000000
-13.325100 0.000000
-13.304200 0.000000
-13.283300 0.000000
-13.262300 0.000000
-13.241400 0.000000
-13.220500 0.000000
-13.199600 0.000000
-13.178700 0.000000
-13.157700 0.000000
-13.136800 0.000000
-13.115900 0.000000
-13.095000 0.000000
-13.074100 0.000000
-13.053100 0.000000
-13.032200 0.000000
-13.011300 0.000000
-12.990400 0.000000
-12.969500 0.000000
-12.948500 0.000000
-12.927600 0.000000
-12.906700 0.000000
-12.885800 0.000000
-12.864900 0.000000
-12.843900 0.000000
-12.823000 0.000000
-12.802100 0.000000
-12.781200 0.000000
-12.760300 0.000000
-12.739300 0.000000
-12.718400 0.000000
-12.697500 0.000000
-12.676600 0.000000
-12.655700 0.000000
-12.634700 0.000000
-12.613800 0.000000
-12.592900 0.000000
-12.572000 0.000000
-12.551100 0.000000
-12.530100 0.000000
-12.509200 0.000000
-12.488300 0.000000
-12.467400 0.000000
-12.446400 0.000000
-12.425500 0.000000
-12.404600 0.000000
-12.383700 0.000000
-12.362800 0.000000
-12.341800 0.000000
-12.320900 0.000000
-12.300000 0.000000
-12.279100 0.000000
-12.258200 0.000000
-12.237200 0.000000
-12.216300 0.000000
-12.195400 0.000000
-12.174500 0.000000
-12.153600 0.000000
-12.132600 0.000000
-12.111700 0.000000
-12.090800 0.000000
-12.069900 0.000000
-12.049000 0.000000
-12.028000 0.000000
-12.007100 0.000000
-11.986200 0.000000
-11.965300 0.000000
-11.944400 0.000000
-11.923400 0.000000
-11.902500 0.000000
-11.881600 0.000000
-11.860700 0.000000
-11.839800 0.000000
-11.818800 0.000000
-11.797900 0.000000
-11.777000 0.000000
-11.756100 0.000000
-11.735200 0.000000
-11.714200 0.000000
-11.693300 0.000000
-11.672400 0.000000
-11.651500 0.000000
-11.630600 0.000000
-11.609600 0.000000
-11.588700 0.000000
-11.567800 0.000000
-11.546900 0.000000
-11.526000 0.000000
-11.505000 0.000000
-11.484100 0.000000
-11.463200 0.000000
-11.442300 0.000000
-11.421400 0.000000
-11.400400 0.000000
-11.379500 0.000000
-11.358600 0.000000
-11.337700 0.000000
-11.316800 0.000000
-11.295800 0.000000
-11.274900 0.000000
-11.254000 0.000000
-11.233100 0.000000
-11.212200 0.000000
-11.191200 0.000000
-11.170300 0.000000
-11.149400 0.000000
-11.128500 0.000000
-11.107600 0.000000
-11.086600 0.000000
-11.065700 0.000000
-11.044800 0.000000
-11.023900 0.000000
-11.003000 0.000000
-10.982000 0.000000
-10.961100 0.000000
-10.940200 0.000000
-10.919300 0.000000
-10.898400 0.000000
-10.877400 0.000000
-10.856500 0.000000
-10.835600 0.000000
-10.814700 0.000000
-10.793800 0.000000
-10.772800 0.000000
-10.751900 0.000000
-10.731000 0.000000
-10.710100 0.000000
-10.689200 0.000000
-10.668200 0.000000
-10.647300 0.000000
-10.626400 0.000000
-10.605500 0.000000
-10.584600 0.000000
-10.563600 0.000000
-10.542700 0.000000
-10.521800 0.000000
-10.500900 0.000000
-10.480000 0.000000
-10.459000 0.000000
-10.438100 0.000000
-10.417200 0.000000
-10.396300 0.000000
-10.375400 0.000000
-10.354400 0.000000
-10.333500 0.000000
-10.312600 0.000000
-10.291700 0.000000
-10.270800 0.000000
-10.249800 0.000000
-10.228900 0.000000
-10.208000 0.000000
-10.187100 0.000000
-10.166200 0.000000
-10.145200 0.000000
-10.124300 0.000000
-10.103400 0.000000
-10.082500 0.000000
-10.061600 0.000000
-10.040600 0.000000
-10.019700 0.000000
-9.998800 0.000000
-9.977900 0.000000
-9.957000 0.000000
-9.936000 0.000000
-9.915100 0.000000
-9.894200 0.000000
-9.873300 0.000000
-9.852400 0.000000
-9.831400 0.000000
-9.810500 0.000000
-9.789600 0.000000
-9.768700 0.000000
-9.747800 0.000000
-9.726800 0.000000
-9.705900 0.000000
-9.685000 0.000000
-9.664100 0.000000
-9.643200 0.000000
-9.622200 0.000000
-9.601300 0.000000
-9.580400 0.000000
-9.559500 0.000000
-9.538600 0.000000
-9.517600 0.000000
-9.496700 0.000000
-9.475800 0.000000
-9.454900 0.000000
-9.434000 0.000000
-9.413000 0.000000
-9.392100 0.000000
-9.371200 0.000000
-9.350300 0.000000
-9.329400 0.000000
-9.308400 0.000000
-9.287500 0.000000
-9.266600 0.000000
-9.245700 0.000000
-9.224800 0.000000
-9.203800 0.000000
-9.182900 0.000000
-9.162000 0.000000
-9.141100 0.000000
-9.120200 0.000000
-9.099200 0.000000
-9.078300 0.000000
-9.057400 0.000000
-9.036500 0.000000
-9.015600 0.000000
-8.994600 0.000000
-8.973700 0.000000
-8.952800 0.000000
-8.931900 0.000000
-8.911000 0.000000
-8.890000 0.000000
-8.869100 0.000000
-8.848200 0.000000
-8.827300 0.000000
-8.806400 0.000000
-8.785400 0.000000
-8.764500 0.000000
-8.743600 0.000000
-8.722700 0.000000
-8.701800 0.000000
-8.680800 0.003500
-8.659900 0.094600
-8.639000 0.240100
-8.618100 0.440200
-8.597200 0.693100
-8.576200 0.987500
-8.555300 1.314000
-8.534400 1.672700
-8.513500 2.067500
-8.492500 2.499300
-8.471600 4.322700
-8.450700 5.310000
-8.429800 5.136800
-8.408900 4.975800
-8.387900 4.891800
-8.367000 4.812600
-8.346100 4.762600
-8.325200 4.725700
-8.304300 4.623900
-8.283300 4.258800
-8.262400 3.697100
-8.241500 3.340200
-8.220600 3.063300
-8.199700 2.893400
-8.178700 2.779100
-8.157800 2.705000
-8.136900 2.662300
-8.116000 2.649400
-8.095100 2.583800
-8.074100 2.482800
-8.053200 2.451700
-8.032300 2.494600
-8.011400 2.608900
-7.990500 2.768900
-7.969500 2.954400
-7.948600 2.860100
-7.927700 2.486300
-7.906800 2.053500
-7.885900 1.855300
-7.864900 1.789700
-7.844000 1.744200
-7.823100 1.710000
-7.802200 1.711200
-7.781300 1.776600
-7.760300 1.890700
-7.739400 2.006000
-7.718500 2.114700
-7.697600 2.179600
-7.676700 2.287200
-7.655700 2.411400
-7.634800 2.552000
-7.613900 2.706700
-7.593000 2.887000
-7.572100 3.147700
-7.551100 3.504100
-7.530200 3.972900
-7.509300 5.599600
-7.488400 5.301100
-7.467500 4.014800
-7.446500 3.879600
-7.425600 3.748400
-7.404700 3.693600
-7.383800 3.218400
-7.362900 2.658800
-7.341900 2.134100
-7.321000 1.623000
-7.300100 1.354400
-7.279200 1.128600
-7.258300 0.929600
-7.237300 0.751300
-7.216400 0.590700
-7.195500 0.447600
-7.174600 0.322200
-7.153700 0.214400
-7.132700 0.124100
-7.111800 0.051600
-7.090900 0.008100
-7.070000 0.000000
-7.049100 0.000000
-7.028100 0.000000
-7.007200 0.000000
-6.986300 0.001400
-6.965400 0.123700
-6.944500 0.402600
-6.923500 0.742900
-6.902600 1.138000
-6.881700 1.702700
-6.860800 2.443400
-6.839900 3.253600
-6.818900 4.300900
-6.798000 5.563400
-6.777100 6.266300
-6.756200 6.991200
-6.735300 7.095100
-6.714300 5.731600
-6.693400 5.028300
-6.672500 4.306400
-6.651600 3.527700
-6.630700 3.042100
-6.609700 2.752100
-6.588800 2.569100
-6.567900 2.421000
-6.547000 2.260200
-6.526100 2.090600
-6.505100 1.926800
-6.484200 1.785400
-6.463300 1.670800
-6.442400 1.637200
-6.421500 1.593600
-6.400500 1.540100
-6.379600 1.500600
-6.358700 1.468800
-6.337800 1.443000
-6.316900 1.422300
-6.295900 1.404400
-6.275000 1.394200
-6.254100 1.398100
-6.233200 1.416200
-6.212300 1.448000
-6.191300 1.457900
-6.170400 1.449300
-6.149500 1.470600
-6.128600 1.511600
-6.107700 1.561600
-6.086700 1.580700
-6.065800 1.442200
-6.044900 1.385500
-6.024000 1.401000
-6.003100 1.424800
-5.982100 1.457100
-5.961200 1.497200
-5.940300 1.541200
-5.919400 1.588300
-5.898500 1.638500
-5.877500 1.691900
-5.856600 1.750000
-5.835700 1.815400
-5.814800 1.901200
-5.793900 2.020500
-5.772900 2.174300
-5.752000 2.356100
-5.731100 2.575300
-5.710200 2.850000
-5.689300 3.179800
-5.668300 3.564500
-5.647400 4.046200
-5.626500 4.591500
-5.605600 5.005900
-5.584700 5.215600
-5.563700 5.449600
-5.542800 5.355400
-5.521900 4.498000
-5.501000 3.141000
-5.480100 2.632000
-5.459100 2.349200
-5.438200 2.320700
-5.417300 2.358300
-5.396400 3.567900
-5.375500 6.203000
-5.354500 9.571100
-5.333600 13.575700
-5.312700 22.442000
-5.291800 21.225600
-5.270900 10.405800
-5.249900 6.003800
-5.229000 1.875400
-5.208100 1.316400
-5.187200 1.952500
-5.166300 3.037700
-5.145300 4.945700
-5.124400 7.072000
-5.103500 7.895200
-5.082600 8.999700
-5.061700 10.097100
-5.040700 7.453000
-5.019800 6.365700
-4.998900 5.565500
-4.978000 4.750000
-4.957100 4.562800
-4.936100 4.550700
-4.915200 4.561400
-4.894300 4.925600
-4.873400 4.450000
-4.852500 4.013200
-4.831500 3.802600
-4.810600 3.697600
-4.789700 3.735300
-4.768800 4.065900
-4.747900 4.326800
-4.726900 5.410000
-4.706000 8.369200
-4.685100 14.684600
-4.664200 18.067500
-4.643200 12.226000
-4.622300 9.577600
-4.601400 5.039500
-4.580500 1.078400
-4.559600 0.000000
-4.538600 0.000000
-4.517700 0.000000
-4.496800 0.160000
-4.475900 1.738800
-4.455000 5.531800
-4.434000 13.210600
-4.413100 12.254000
-4.392200 12.196700
-4.371300 9.844600
-4.350400 7.985700
-4.329400 6.224500
-4.308500 5.210400
-4.287600 4.400300
-4.266700 3.844700
-4.245800 3.365800
-4.224800 3.037300
-4.203900 2.434500
-4.183000 1.870400
-4.162100 1.375500
-4.141200 0.909300
-4.120200 0.511900
-4.099300 0.000000
-4.078400 0.000000
-4.057500 0.000000
-4.036600 0.000000
-4.015600 0.000000
-3.994700 1.069600
-3.973800 3.283000
-3.952900 5.779400
-3.932000 8.213300
-3.911000 9.793900
-3.890100 9.473400
-3.869200 9.025700
-3.848300 8.591400
-3.827400 8.271200
-3.806400 8.185100
-3.785500 8.198500
-3.764600 7.279600
-3.743700 4.777700
-3.722800 2.828300
-3.701800 0.823200
-3.680900 0.000000
-3.660000 0.000000
-3.639100 0.000000
-3.618200 0.000000
-3.597200 0.000000
-3.576300 0.000000
-3.555400 0.000000
-3.534500 0.000000
-3.513600 0.000000
-3.492600 0.000000
-3.471700 0.000000
-3.450800 0.000000
-3.429900 0.000000
-3.409000 0.000000
-3.388000 0.000000
-3.367100 0.000000
-3.346200 0.000000
-3.325300 0.549000
-3.304400 0.965600
-3.283400 1.415200
-3.262500 1.921000
-3.241600 2.606300
-3.220700 3.744300
-3.199800 4.540500
-3.178800 5.455000
-3.157900 6.471800
-3.137000 9.354400
-3.116100 13.174800
-3.095200 13.464600
-3.074200 14.440100
-3.053300 13.646400
-3.032400 3.583100
-3.011500 0.761300
-2.990600 0.845600
-2.969600 1.422600
-2.948700 1.759800
-2.927800 2.075700
-2.906900 2.388500
-2.886000 2.698200
-2.865000 3.005000
-2.844100 3.507400
-2.823200 4.183800
-2.802300 5.010000
-2.781400 5.864300
-2.760400 6.787300
-2.739500 8.078600
-2.718600 8.757100
-2.697700 8.219200
-2.676800 6.507200
-2.655800 5.043900
-2.634900 4.082100
-2.614000 3.254500
-2.593100 2.789100
-2.572200 2.323800
-2.551200 1.931400
-2.530300 1.596300
-2.509400 1.318300
-2.488500 1.554500
-2.467600 1.479200
-2.446600 3.092500
-2.425700 5.257400
-2.404800 10.172400
-2.383900 15.561800
-2.363000 20.104700
-2.342000 17.608800
-2.321100 14.233000
-2.300200 12.057100
-2.279300 10.459500
-2.258400 11.205000
-2.237400 20.136500
-2.216500 14.538200
-2.195600 15.318700
-2.174700 8.889500
-2.153800 5.748000
-2.132800 4.967000
-2.111900 4.831000
-2.091000 5.966200
-2.070100 8.422300
-2.049200 11.482300
-2.028200 17.382700
-2.007300 21.893000
-1.986400 10.488200
-1.965500 7.699300
-1.944600 7.424900
-1.923600 7.246500
-1.902700 8.338700
-1.881800 8.498700
-1.860900 8.915000
-1.840000 8.318000
-1.819000 9.224500
-1.798100 9.367400
-1.777200 9.141600
-1.756300 8.360200
-1.735400 7.648600
-1.714400 6.414300
-1.693500 5.059700
-1.672600 4.158900
-1.651700 4.161800
-1.630800 7.475300
-1.609800 9.413100
-1.588900 13.331600
-1.568000 15.346300
-1.547100 12.251100
-1.526200 9.463400
-1.505200 7.320700
-1.484300 6.374700
-1.463400 4.687900
-1.442500 2.820700
-1.421600 5.210300
-1.400600 6.662000
-1.379700 8.336200
-1.358800 11.461700
-1.337900 10.381100
-1.317000 11.190100
-1.296000 14.395400
-1.275100 17.512200
-1.254200 14.816700
-1.233300 10.501500
-1.212400 7.389000
-1.191400 8.866700
-1.170500 13.881100
-1.149600 18.257300
-1.128700 18.484800
-1.107800 9.662200
-1.086800 4.792400
-1.065900 2.253700
-1.045000 5.125300
-1.024100 32.757500
-1.003200 27.222300
-0.982200 19.494300
-0.961300 10.392300
-0.940400 1.685900
-0.919500 0.248500
-0.898600 0.001700
-0.877600 0.573400
-0.856700 1.823600
-0.835800 2.871100
-0.814900 4.244500
-0.794000 5.996200
-0.773000 7.750300
-0.752100 8.736200
-0.731200 10.170000
-0.710300 11.788700
-0.689300 11.232100
-0.668400 10.319500
-0.647500 12.834400
-0.626600 19.889600
-0.605700 27.835700
-0.584700 18.707300
-0.563800 13.284400
-0.542900 11.977500
-0.522000 8.580500
-0.501100 3.886100
-0.480100 0.155000
-0.459200 4.305500
-0.438300 19.983200
-0.417400 29.740400
-0.396500 17.103400
-0.375500 12.229300
-0.354600 4.716700
-0.333700 2.589900
-0.312800 4.595300
-0.291900 14.257000
-0.270900 17.347300
-0.250000 12.850800
-0.229100 8.138000
-0.208200 6.446000
-0.187300 6.027800
-0.166300 7.144900
-0.145400 8.177800
-0.124500 7.318900
-0.103600 7.646500
-0.082700 9.422300
-0.061700 14.779400
-0.040800 18.189700
-0.019900 19.029900
0.001000 10.386000
0.021900 8.057100
0.042900 5.748900
0.063800 3.758100
0.084700 1.930800
0.105600 0.459200
0.126500 0.000000
0.147500 0.000000
0.168400 0.000000
0.189300 0.000000
0.210200 0.000000
0.231100 0.000000
0.252100 0.000000
0.273000 0.000000
0.293900 0.000000
0.314800 0.000000
0.335700 0.000000
0.356700 0.000000
0.377600 0.000000
0.398500 0.000000
0.419400 0.000000
0.440300 0.000000
0.461300 0.000000
0.482200 0.000000
0.503100 0.000000
0.524000 0.000000
0.544900 0.000000
0.565900 0.000000
0.586800 0.000000
0.607700 0.000000
0.628600 0.000000
0.649500 0.000000
0.670500 0.000000
0.691400 0.000000
0.712300 0.000000
0.733200 0.000000
0.754100 0.000000
0.775100 0.000000
0.796000 0.000000
0.816900 0.000000
0.837800 0.000000
0.858700 0.000000
0.879700 0.000000
0.900600 0.000000
0.921500 0.000000
0.942400 0.000000
0.963300 0.000000
0.984300 0.000000
1.005200 0.000000
1.026100 0.000000
1.047000 0.000000
1.067900 0.000000
1.088900 0.000000
1.109800 0.000000
1.130700 0.000000
1.151600 0.000000
1.172500 0.000000
1.193500 0.000000
1.214400 0.000000
1.235300 0.000000
1.256200 0.000000
1.277100 0.000000
1.298100 0.000000
1.319000 0.000000
1.339900 0.000000
1.360800 0.000000
1.381700 0.000000
1.402700 0.000000
1.423600 0.000000
1.444500 0.000000
1.465400 0.000000
1.486300 0.000000
1.507300 0.000000
1.528200 0.000000
1.549100 0.000000
1.570000 0.000000
1.590900 0.000000
1.611900 0.000000
1.632800 0.000000
1.653700 0.000000
1.674600 0.000000
1.695500 0.000000
1.716500 0.000000
1.737400 0.000000
1.758300 0.000000
1.779200 0.000000
1.800100 0.000000
1.821100 0.000000
1.842000 0.000000
1.862900 0.000000
1.883800 0.000000
1.904700 0.000000
1.925700 0.000000
1.946600 0.000000
1.967500 0.000000
1.988400 0.000000
2.009300 0.000000
2.030300 0.000000
2.051200 0.000000
2.072100 0.000000
2.093000 0.000000
2.113900 0.000000
2.134900 0.000000
2.155800 0.000000
2.176700 0.000000
2.197600 0.000000
2.218500 0.000000
2.239500 0.000000
2.260400 0.000000
2.281300 0.000000
2.302200 0.000000
2.323100 0.000000
2.344100 0.000000
2.365000 0.000000
2.385900 0.000000
2.406800 0.000000
2.427700 0.000000
2.448700 0.000000
2.469600 0.000000
2.490500 0.000000
2.511400 0.000000
2.532300 0.000000
2.553300 0.000000
2.574200 0.000000
2.595100 0.000000
2.616000 0.000000
2.636900 0.000000
2.657900 0.000000
2.678800 0.000000
2.699700 0.000000
2.720600 0.000000
2.741500 0.000000
2.762500 0.000000
2.783400 0.000000
2.804300 0.000000
2.825200 0.000000
2.846100 0.000000
2.867100 0.000000
2.888000 0.000000
2.908900 0.000000
2.929800 0.000000
2.950700 0.000000
2.971700 0.000000
2.992600 0.000000
3.013500 0.000000
3.034400 0.000000
3.055300 0.000000
3.076300 0.000000
3.097200 0.000000
3.118100 0.000000
3.139000 0.000000
3.159900 0.000000
3.180900 0.000000
3.201800 0.000000
3.222700 0.000000
3.243600 0.000000
3.264600 0.000000
3.285500 0.000000
3.306400 0.000000
3.327300 0.000000
3.348200 0.000000
3.369200 0.000000
3.390100 0.000000
3.411000 0.000000
3.431900 0.000000
3.452800 0.000000
3.473800 0.000000
3.494700 0.000000
3.515600 0.000000
3.536500 0.000000
3.557400 0.000000
3.578400 0.000000
3.599300 0.000000
3.620200 0.000000
3.641100 0.000000
3.662000 0.000000
3.683000 0.000000
3.703900 0.000000
3.724800 0.000000
3.745700 0.000000
3.766600 0.000000
3.787600 0.000000
3.808500 0.000000
3.829400 0.000000
3.850300 0.000000
3.871200 0.000000
3.892200 0.000000
3.913100 0.000000
3.934000 0.000000
3.954900 0.000000
3.975800 0.000000
3.996800 0.000000
4.017700 0.000000
4.038600 0.000000
4.059500 0.000000
4.080400 0.000000
4.101400 0.000000
4.122300 0.000000
4.143200 0.000000
4.164100 0.000000
4.185000 0.000000
4.206000 0.000000
4.226900 0.000000
4.247800 0.000000
4.268700 0.000000
4.289600 0.000000
4.310600 0.000000
4.331500 0.000000
4.352400 0.000000
4.373300 0.000000
4.394200 0.000000
4.415200 0.000000
4.436100 0.000000
4.457000 0.000000
4.477900 0.000000
4.498800 0.000000
4.519800 0.000000
4.540700 0.000000
4.561600 0.000000
4.582500 0.000000
4.603400 0.000000
4.624400 0.000000
4.645300 0.000000
4.666200 0.000000
4.687100 0.000000
4.708000 0.000000
4.729000 0.000000
4.749900 0.000000
4.770800 0.000000
4.791700 0.000000
4.812600 0.000000
4.833600 0.000000
4.854500 0.000000
4.875400 0.000000
4.896300 0.000000
4.917200 0.000000
4.938200 0.000000
4.959100 0.000000
4.980000 0.000000
5.000900 0.000000
5.021800 0.000000
5.042800 0.000000
5.063700 0.000000
5.084600 0.000000
5.105500 0.000000
5.126400 0.000000
5.147400 0.000000
5.168300 0.000000
5.189200 0.000000
5.210100 0.000000
5.231000 0.000000
5.252000 0.000000
5.272900 0.000000
5.293800 0.000000
5.314700 0.000000
5.335600 0.000100
5.356600 0.001300
5.377500 0.003800
5.398400 0.007600
5.419300 0.012700
5.440200 0.019000
5.461200 0.026600
5.482100 0.035500
5.503000 0.045700
5.523900 0.057200
5.544800 0.069900
5.565800 0.083900
5.586700 0.099300
5.607600 0.115900
5.628500 0.133700
5.649400 0.152900
5.670400 0.172900
5.691300 0.193700
5.712200 0.215300
5.733100 0.237700
5.754000 0.260900
5.775000 0.286000
5.795900 0.311900
5.816800 0.336700
5.837700 0.360500
5.858600 0.383300
5.879600 0.405000
5.900500 0.425700
5.921400 0.445300
5.942300 0.463800
5.963200 0.481300
5.984200 0.497800
6.005100 0.513200
6.026000 0.527500
6.046900 0.540700
6.067800 0.551900
6.088800 0.562600
6.109700 0.573300
6.130600 0.584000
6.151500 0.595300
6.172400 0.607800
6.193400 0.621200
6.214300 0.635700
6.235200 0.651300
6.256100 0.668000
6.277000 0.685700
6.298000 0.704400
6.318900 0.724200
6.339800 0.745100
6.360700 0.767000
6.381600 0.802400
6.402600 0.839100
6.423500 0.875500
6.444400 0.911300
6.465300 0.946700
6.486200 0.981700
6.507200 1.016100
6.528100 1.050100
6.549000 1.083600
6.569900 1.116700
6.590800 1.149200
6.611800 1.181400
6.632700 1.211900
6.653600 1.239600
6.674500 1.264700
6.695400 1.287000
6.716400 1.324400
6.737300 1.351600
6.758200 1.350600
6.779100 1.364300
6.800000 1.403100
6.821000 1.438900
6.841900 1.471900
6.862800 1.504100
6.883700 1.537500
6.904600 1.572000
6.925600 1.607800
6.946500 1.644700
6.967400 1.688200
6.988300 1.738500
7.009200 1.743000
7.030200 1.745400
7.051100 1.745400
7.072000 1.741500
7.092900 1.733800
7.113900 1.722300
7.134800 1.706900
7.155700 1.694300
7.176600 1.702700
7.197500 1.708300
7.218500 1.711300
7.239400 1.711700
7.260300 1.709700
7.281200 1.704700
7.302100 1.660100
7.323100 1.472600
7.344000 1.434500
7.364900 1.394800
7.385800 1.354100
7.406700 1.336500
7.427700 1.358000
7.448600 1.486800
7.469500 1.764800
7.490400 2.713100
7.511300 2.311600
7.532300 0.476800
7.553200 0.545000
7.574100 0.617900
7.595000 0.964600
7.615900 1.307200
7.636900 1.614400
7.657800 1.983800
7.678700 2.429700
7.699600 2.684100
7.720500 2.763700
7.741500 2.872600
7.762400 3.045200
7.783300 3.278700
7.804200 3.507300
7.825100 3.712900
7.846100 4.105200
7.867000 5.040600
7.887900 6.231500
7.908800 6.402500
7.929700 6.288500
7.950700 5.600700
7.971600 4.118800
7.992500 2.360700
8.013400 1.792200
8.034300 1.645400
8.055300 1.570500
8.076200 1.548200
8.097100 1.515800
8.118000 1.483000
8.138900 1.453100
8.159900 1.426000
8.180800 1.407700
8.201700 1.449600
8.222600 1.561200
8.243500 1.727400
8.264500 1.968600
8.285400 2.191300
8.306300 2.134800
8.327200 2.136200
8.348100 2.276000
8.369100 2.540200
8.390000 2.848900
8.410900 3.138100
8.431800 3.375400
8.452700 3.320300
8.473700 3.337600
8.494600 3.484900
8.515500 3.349700
8.536400 3.401200
8.557300 3.498900
8.578300 3.585300
8.599200 3.605300
8.620100 3.628700
8.641000 3.686500
8.661900 3.798000
8.682900 4.027000
8.703800 4.516600
8.724700 6.201400
8.745600 7.927100
8.766500 8.539000
8.787500 8.879900
8.808400 8.653200
8.829300 8.040900
8.850200 7.810700
8.871100 7.346500
8.892100 6.854300
8.913000 6.822700
8.933900 7.024600
8.954800 6.998000
8.975700 6.716100
8.996700 6.436700
9.017600 6.841800
9.038500 8.035700
9.059400 8.909800
9.080300 8.757000
9.101300 7.856700
9.122200 6.057300
9.143100 6.244400
9.164000 8.192500
9.184900 8.898500
9.205900 7.311300
9.226800 6.247700
9.247700 5.552000
9.268600 5.368500
9.289500 5.250500
9.310500 5.153700
9.331400 5.196800
9.352300 5.325100
9.373200 5.385900
9.394100 5.494100
9.415100 6.152400
9.436000 7.171000
9.456900 8.023900
9.477800 9.271300
9.498700 10.545400
9.519700 8.641900
9.540600 6.241700
9.561500 4.885500
9.582400 4.268400
9.603300 4.808000
9.624300 7.083900
9.645200 9.727100
9.666100 11.880900
9.687000 11.502000
9.707900 11.653500
9.728900 9.014300
9.749800 7.351400
9.770700 6.518300
9.791600 5.436600
9.812500 4.303400
9.833500 3.980900
9.854400 3.697800
9.875300 3.487500
9.896200 3.350600
9.917100 3.475300
9.938100 3.985500
9.959000 4.952700
9.979900 5.672600
10.000800 6.025800
10.021700 6.084700
10.042700 6.733500
10.063600 7.627600
10.084500 9.107600
10.105400 11.965100
10.126300 11.403300
10.147300 9.650400
10.168200 7.812200
10.189100 6.991400
10.210000 7.046000
10.230900 5.952800
10.251900 4.423500
10.272800 3.537100
10.293700 3.298200
10.314600 3.508800
10.335500 3.902200
10.356500 4.547900
10.377400 5.171300
10.398300 5.537500
10.419200 5.973900
10.440100 6.521600
10.461100 6.365100
10.482000 6.273300
10.502900 6.448600
10.523800 6.863200
10.544700 7.186000
10.565700 7.248500
10.586600 5.904000
10.607500 4.619100
10.628400 3.257600
10.649300 3.504500
10.670300 3.769200
10.691200 4.065200
10.712100 4.407500
10.733000 4.859600
10.753900 5.333200
10.774900 6.298800
10.795800 8.238600
10.816700 8.316900
10.837600 7.196300
10.858500 6.087700
10.879500 5.423200
10.900400 5.334200
10.921300 5.351500
10.942200 5.414200
10.963100 5.585000
10.984100 5.814400
11.005000 5.842200
11.025900 6.157400
11.046800 6.705000
11.067800 7.020900
11.088700 7.050300
11.109600 6.704200
11.130500 6.009700
11.151400 5.814300
11.172400 5.565400
11.193300 5.152700
11.214200 5.015900
11.235100 5.061200
11.256000 5.376600
11.277000 6.229300
11.297900 7.638300
11.318800 6.015800
11.339700 6.370600
11.360600 7.811100
11.381600 8.489900
11.402500 7.857700
11.423400 7.248500
11.444300 7.007300
11.465200 6.979900
11.486200 7.208500
11.507100 7.981600
11.528000 8.716800
11.548900 8.904400
11.569800 8.383100
11.590800 8.252900
11.611700 8.397800
11.632600 8.846200
11.653500 8.303400
11.674400 6.934200
11.695400 5.850000
11.716300 5.645100
11.737200 5.714200
11.758100 5.997300
11.779000 6.157500
11.800000 5.803100
11.820900 5.218100
11.841800 5.477100
11.862700 6.395400
11.883600 6.858300
11.904600 7.518700
11.925500 7.797000
11.946400 7.995500
11.967300 7.621400
11.988200 7.581500
12.009200 7.604300
12.030100 7.659700
12.051000 7.801600
12.071900 8.026100
12.092800 7.725000
12.113800 7.001400
12.134700 7.001000
12.155600 7.124100
12.176500 7.187100
12.197400 7.835800
12.218400 8.429300
12.239300 9.257900
12.260200 10.311400
12.281100 11.080500
12.302000 11.684900
12.323000 11.002600
12.343900 7.370100
12.364800 4.664500
12.385700 3.305300
12.406600 3.113500
12.427600 3.363000
12.448500 3.696300
12.469400 4.111100
12.490300 4.770100
12.511200 5.869600
12.532200 6.456700
12.553100 8.104300
12.574000 7.702900
12.594900 7.162200
12.615800 6.683300
12.636800 5.939600
12.657700 4.817800
12.678600 3.906600
12.699500 3.825900
12.720400 4.247600
12.741400 4.886800
12.762300 5.525200
12.783200 5.561300
12.804100 5.792000
12.825000 6.266000
12.846000 6.322100
12.866900 6.414000
12.887800 6.506300
12.908700 6.369500
12.929600 6.654300
12.950600 6.981500
12.971500 7.090600
12.992400 7.091200
13.013300 6.046400
13.034200 4.841900
13.055200 4.190700
13.076100 3.900700
13.097000 3.635500
13.117900 3.480000
13.138800 3.388400
13.159800 3.233000
13.180700 3.296100
13.201600 3.500200
13.222500 3.967800
13.243400 4.490700
13.264400 4.789300
13.285300 4.242600
13.306200 3.879300
13.327100 3.637500
13.348000 3.552500
13.369000 3.560200
13.389900 3.722100
13.410800 4.276500
13.431700 5.142500
13.452600 6.040000
13.473600 6.782500
13.494500 7.740200
13.515400 8.067300
13.536300 8.232100
13.557200 7.102900
13.578200 5.067500
13.599100 4.566100
13.620000 4.273100
13.640900 5.008900
13.661800 4.977700
13.682800 5.074800
13.703700 5.453000
13.724600 5.977700
13.745500 6.554200
13.766400 7.155700
13.787400 7.719700
13.808300 8.019600
13.829200 7.757100
13.850100 7.277200
13.871000 6.740400
13.892000 5.789800
13.912900 5.309600
13.933800 4.990700
13.954700 4.678200
13.975600 4.506600
13.996600 4.559700
14.017500 4.498400
14.038400 4.295700
14.059300 4.156600
14.080200 4.085800
14.101200 4.014500
14.122100 3.933800
14.143000 3.850100
14.163900 3.835900
14.184800 3.838300
14.205800 3.812900
14.226700 3.763800
14.247600 3.693400
14.268500 3.691900
14.289400 3.680100
14.310400 3.000400
14.331300 2.677200
14.352200 2.569000
14.373100 2.571500
14.394000 2.708900
14.415000 2.979600
14.435900 3.372300
14.456800 4.004200
14.477700 5.072000
14.498600 6.643700
14.519600 8.436600
14.540500 9.655400
14.561400 10.119800
14.582300 9.195600
14.603200 7.439600
14.624200 4.477200
14.645100 1.807700
14.666000 0.686200
14.686900 0.128600
14.707800 0.256400
14.728800 0.585200
14.749700 0.924500
14.770600 1.343700
14.791500 2.666800
14.812400 3.128900
14.833400 3.540500
14.854300 3.926300
14.875200 4.293500
14.896100 4.677000
14.917100 5.412700
14.938000 6.350000
14.958900 6.945600
14.979800 6.664300
15.000700 6.387700
15.021700 6.308500
15.042600 6.145200
15.063500 6.380000
15.084400 6.174100
15.105300 4.981100
15.126300 5.773300
15.147200 7.340500
15.168100 7.780600
15.189000 5.814800
15.209900 5.759500
15.230900 6.185100
15.251800 7.180100
15.272700 8.736400
15.293600 10.534300
15.314500 10.901300
15.335500 9.069300
15.356400 6.800300
15.377300 4.784000
15.398200 4.018300
15.419100 3.407200
15.440100 3.696000
15.461000 3.663600
15.481900 3.753300
15.502800 3.905600
15.523700 4.020900
15.544700 4.056600
15.565600 4.154100
15.586500 4.290900
15.607400 4.527900
15.628300 4.501400
15.649300 4.697900
15.670200 5.479600
15.691100 4.980000
15.712000 4.622000
15.732900 4.688200
15.753900 4.970000
15.774800 5.392500
15.795700 6.790200
15.816600 7.190400
15.837500 7.475400
15.858500 7.942400
15.879400 7.864000
15.900300 7.543900
15.921200 6.670700
15.942100 6.352900
15.963100 6.396200
15.984000 6.537300
16.004900 6.602000
16.025800 6.591200
16.046700 6.587000
16.067700 6.931600
16.088600 7.008800
16.109500 7.009900
16.130400 7.516100
16.151300 4.516000
16.172300 4.209800
16.193200 4.463200
16.214100 4.663700
16.235000 4.860500
16.255900 5.110000
16.276900 5.435400
16.297800 5.889800
16.318700 5.986600
16.339600 5.379300
16.360500 4.884300
16.381500 4.597800
16.402400 4.507900
16.423300 4.393400
16.444200 4.124900
16.465100 4.200300
16.486100 4.473800
16.507000 4.893200
16.527900 5.389700
16.548800 6.102200
16.569700 6.975500
16.590700 6.455600
16.611600 6.321700
16.632500 6.253700
16.653400 6.371100
16.674300 6.530200
16.695300 6.744400
16.716200 7.192400
16.737100 7.793200
16.758000 7.858100
16.778900 8.064900
16.799900 8.299500
16.820800 7.709000
16.841700 7.400700
16.862600 7.257300
16.883500 7.162200
16.904500 6.921800
16.925400 7.071400
16.946300 6.306200
16.967200 5.828000
16.988100 5.036200
17.009100 4.632900
17.030000 4.832100
17.050900 5.077600
17.071800 5.654000
17.092700 6.333000
17.113700 7.786800
17.134600 7.232200
17.155500 7.124800
17.176400 6.644000
17.197300 6.210900
17.218300 5.380800
17.239200 4.892100
17.260100 5.072000
17.281000 5.619900
17.301900 5.613100
17.322900 5.733500
17.343800 5.500700
17.364700 5.663700
17.385600 5.036900
17.406500 4.661900
17.427500 4.529800
17.448400 4.518400
17.469300 4.672500
17.490200 4.964500
17.511100 5.300800
17.532100 8.395500
17.553000 8.587200
17.573900 8.057000
17.594800 7.162400
17.615700 6.943300
17.636700 7.300300
17.657600 7.540300
17.678500 6.717000
17.699400 6.043400
17.720300 5.055300
17.741300 4.603400
17.762200 3.987800
17.783100 3.294100
17.804000 2.714400
17.824900 2.128300
17.845900 2.008700
17.866800 1.968900
17.887700 2.007700
17.908600 2.139000
17.929500 2.398500
17.950500 2.802900
17.971400 3.345400
17.992300 4.033100
18.013200 5.129300
18.034100 6.194400
18.055100 7.025900
18.076000 7.811100
18.096900 9.545100
18.117800 10.949800
18.138700 12.489900
18.159700 11.301100
18.180600 6.331800
18.201500 2.443500
18.222400 1.742500
18.243300 1.983300
18.264300 2.569000
18.285200 3.733900
18.306100 5.850500
18.327000 8.372500
18.347900 8.042500
18.368900 8.719200
18.389800 8.496000
18.410700 8.011000
18.431600 7.353900
18.452500 6.928000
18.473500 6.719100
18.494400 5.505500
18.515300 4.168500
18.536200 3.180700
18.557100 2.197600
18.578100 1.218400
18.599000 0.195500
18.619900 0.028100
18.640800 0.000200
18.661700 0.000000
18.682700 0.000000
18.703600 0.000000
18.724500 0.000000
18.745400 0.000000
18.766300 0.000000
18.787300 0.000000
18.808200 0.000000
18.829100 0.000000
18.850000 0.000000
18.871000 0.000000
18.891900 0.000000
18.912800 0.000000
18.933700 0.000000
18.954600 0.000000
18.975600 0.000000
18.996500 0.000000
19.017400 0.000000
19.038300 0.000000
19.059200 0.000000
19.080200 0.000000
19.101100 0.000000
19.122000 0.000000
19.142900 0.000000
19.163800 0.000000
19.184800 0.000000
19.205700 0.000000
19.226600 0.000000
19.247500 0.000000
19.268400 0.000000
19.289400 0.000000
19.310300 0.000000
19.331200 0.000000
19.352100 0.000000
19.373000 0.000000
19.394000 0.000000
19.414900 0.000000
19.435800 0.000000
19.456700 0.000000
19.477600 0.000000
19.498600 0.000000
19.519500 0.000000
19.540400 0.000000
19.561300 0.000000
19.582200 0.000000
19.603200 0.000000
19.624100 0.000000
19.645000 0.000000
19.665900 0.000000
19.686800 0.000000
19.707800 0.000000
19.728700 0.000000
19.749600 0.000000
19.770500 0.000000
19.791400 0.000000
19.812400 0.000000
19.833300 0.000000
19.854200 0.000000
19.875100 0.000000
19.896000 0.000000
19.917000 0.000000
19.937900 0.000000
19.958800 0.000000
19.979700 0.000000
20.000600 0.000000
20.021600 0.000000
20.042500 0.000000
20.063400 0.000000
20.084300 0.000000
20.105200 0.000000
20.126200 0.000000
20.147100 0.000000
20.168000 0.000000
20.188900 0.000000
20.209800 0.000000
20.230800 0.000000
20.251700 0.000000
20.272600 0.000000
20.293500 0.000000
20.314400 0.000000
20.335400 0.000000
20.356300 0.000000
20.377200 0.000000
20.398100 0.000000
20.419000 0.000000
20.440000 0.000000
20.460900 0.000000
20.481800 0.000000
20.502700 0.000000
20.523600 0.000000
20.544600 0.000000
e
