set title 'mp-1692 - Density of States'
set xlabel 'Energy (eV)'
set ylabel 'DOS (states/eV)'
set grid
set xrange [-10:10]
set yrange [0:22.581]
set xzeroaxis lt -1
set terminal png size 800,600
set output 'mp-1692_dos_gnuplot.png'
plot '-' using 1:2 with lines title 'DOS'
-74.013200 0.000000
-73.920200 0.000000
-73.827200 0.000000
-73.734100 0.000000
-73.641100 0.000000
-73.548100 0.000000
-73.455100 0.000000
-73.362100 0.000000
-73.269100 0.000000
-73.176000 0.000000
-73.083000 0.000000
-72.990000 0.000000
-72.897000 0.000000
-72.804000 0.000000
-72.711000 0.000000
-72.617900 0.000000
-72.524900 0.000000
-72.431900 0.000000
-72.338900 0.000000
-72.245900 0.000000
-72.152900 0.000000
-72.059800 0.000000
-71.966800 0.000000
-71.873800 0.000000
-71.780800 0.000000
-71.687800 0.000000
-71.594800 0.000000
-71.501700 0.000000
-71.408700 0.000000
-71.315700 0.000000
-71.222700 0.000000
-71.129700 0.000000
-71.036700 0.000000
-70.943600 0.000000
-70.850600 0.000000
-70.757600 0.000000
-70.664600 0.000000
-70.571600 0.000000
-70.478600 0.000000
-70.385600 0.000000
-70.292500 0.000000
-70.199500 0.000000
-70.106500 0.000000
-70.013500 0.000000
-69.920500 0.000000
-69.827500 0.000000
-69.734400 0.000000
-69.641400 0.000000
-69.548400 0.000000
-69.455400 0.000000
-69.362400 0.000000
-69.269400 0.000000
-69.176300 0.000000
-69.083300 0.000000
-68.990300 0.000000
-68.897300 0.000000
-68.804300 0.000000
-68.711300 0.000000
-68.618200 0.000000
-68.525200 0.000000
-68.432200 0.000000
-68.339200 0.000000
-68.246200 0.000000
-68.153200 0.000000
-68.060100 0.000000
-67.967100 0.000000
-67.874100 0.000000
-67.781100 0.000000
-67.688100 0.000000
-67.595100 0.000000
-67.502000 0.000000
-67.409000 0.000000
-67.316000 0.000000
-67.223000 0.000000
-67.130000 0.000000
-67.037000 0.000000
-66.944000 0.000000
-66.850900 0.000000
-66.757900 0.000000
-66.664900 0.000000
-66.571900 0.000000
-66.478900 0.000000
-66.385900 0.000000
-66.292800 0.000000
-66.199800 0.000000
-66.106800 0.000000
-66.013800 0.000000
-65.920800 0.000000
-65.827800 0.000000
-65.734700 0.000000
-65.641700 0.000000
-65.548700 234.871400
-65.455700 0.000000
-65.362700 0.000000
-65.269700 0.000000
-65.176600 0.000000
-65.083600 0.000000
-64.990600 0.000000
-64.897600 0.000000
-64.804600 0.000000
-64.711600 0.000000
-64.618500 0.000000
-64.525500 0.000000
-64.432500 0.000000
-64.339500 0.000000
-64.246500 0.000000
-64.153500 0.000000
-64.060400 0.000000
-63.967400 0.000000
-63.874400 0.000000
-63.781400 0.000000
-63.688400 0.000000
-63.595400 0.000000
-63.502400 0.000000
-63.409300 0.000000
-63.316300 0.000000
-63.223300 0.000000
-63.130300 0.000000
-63.037300 0.000000
-62.944300 0.000000
-62.851200 0.000000
-62.758200 0.000000
-62.665200 0.000000
-62.572200 0.000000
-62.479200 0.000000
-62.386200 0.000000
-62.293100 0.000000
-62.200100 0.000000
-62.107100 0.000000
-62.014100 0.000000
-61.921100 0.000000
-61.828100 0.000000
-61.735000 0.000000
-61.642000 0.000000
-61.549000 0.000000
-61.456000 0.000000
-61.363000 0.000000
-61.270000 0.000000
-61.176900 0.000000
-61.083900 0.000000
-60.990900 0.000000
-60.897900 0.000000
-60.804900 0.000000
-60.711900 0.000000
-60.618900 0.000000
-60.525800 0.000000
-60.432800 0.000000
-60.339800 0.000000
-60.246800 0.000000
-60.153800 0.000000
-60.060800 0.000000
-59.967700 0.000000
-59.874700 0.000000
-59.781700 0.000000
-59.688700 0.000000
-59.595700 0.000000
-59.502700 0.000000
-59.409600 0.000000
-59.316600 0.000000
-59.223600 0.000000
-59.130600 0.000000
-59.037600 0.000000
-58.944600 0.000000
-58.851500 0.000000
-58.758500 0.000000
-58.665500 0.000000
-58.572500 0.000000
-58.479500 0.000000
-58.386500 0.000000
-58.293400 0.000000
-58.200400 0.000000
-58.107400 0.000000
-58.014400 0.000000
-57.921400 0.000000
-57.828400 0.000000
-57.735300 0.000000
-57.642300 0.000000
-57.549300 0.000000
-57.456300 0.000000
-57.363300 0.000000
-57.270300 0.000000
-57.177300 0.000000
-57.084200 0.000000
-56.991200 0.000000
-56.898200 0.000000
-56.805200 0.000000
-56.712200 0.000000
-56.619200 0.000000
-56.526100 0.000000
-56.433100 0.000000
-56.340100 0.000000
-56.247100 0.000000
-56.154100 0.000000
-56.061100 0.000000
-55.968000 0.000000
-55.875000 0.000000
-55.782000 0.000000
-55.689000 0.000000
-55.596000 0.000000
-55.503000 0.000000
-55.409900 0.000000
-55.316900 0.000000
-55.223900 0.000000
-55.130900 0.000000
-55.037900 0.000000
-54.944900 0.000000
-54.851800 0.000000
-54.758800 0.000000
-54.665800 0.000000
-54.572800 0.000000
-54.479800 0.000000
-54.386800 0.000000
-54.293700 0.000000
-54.200700 0.000000
-54.107700 0.000000
-54.014700 0.000000
-53.921700 0.000000
-53.828700 0.000000
-53.735700 0.000000
-53.642600 0.000000
-53.549600 0.000000
-53.456600 0.000000
-53.363600 0.000000
-53.270600 0.000000
-53.177600 0.000000
-53.084500 0.000000
-52.991500 0.000000
-52.898500 0.000000
-52.805500 0.000000
-52.712500 0.000000
-52.619500 0.000000
-52.526400 0.000000
-52.433400 0.000000
-52.340400 0.000000
-52.247400 0.000000
-52.154400 0.000000
-52.061400 0.000000
-51.968300 0.000000
-51.875300 0.000000
-51.782300 0.000000
-51.689300 0.000000
-51.596300 0.000000
-51.503300 0.000000
-51.410200 0.000000
-51.317200 0.000000
-51.224200 0.000000
-51.131200 0.000000
-51.038200 0.000000
-50.945200 0.000000
-50.852100 0.000000
-50.759100 0.000000
-50.666100 0.000000
-50.573100 0.000000
-50.480100 0.000000
-50.387100 0.000000
-50.294100 0.000000
-50.201000 0.000000
-50.108000 0.000000
-50.015000 0.000000
-49.922000 0.000000
-49.829000 0.000000
-49.736000 0.000000
-49.642900 0.000000
-49.549900 0.000000
-49.456900 0.000000
-49.363900 0.000000
-49.270900 0.000000
-49.177900 0.000000
-49.084800 0.000000
-48.991800 0.000000
-48.898800 0.000000
-48.805800 0.000000
-48.712800 0.000000
-48.619800 0.000000
-48.526700 0.000000
-48.433700 0.000000
-48.340700 0.000000
-48.247700 0.000000
-48.154700 0.000000
-48.061700 0.000000
-47.968600 0.000000
-47.875600 0.000000
-47.782600 0.000000
-47.689600 0.000000
-47.596600 0.000000
-47.503600 0.000000
-47.410500 0.000000
-47.317500 0.000000
-47.224500 0.000000
-47.131500 0.000000
-47.038500 0.000000
-46.945500 0.000000
-46.852500 0.000000
-46.759400 0.000000
-46.666400 0.000000
-46.573400 0.000000
-46.480400 0.000000
-46.387400 0.000000
-46.294400 0.000000
-46.201300 0.000000
-46.108300 0.000000
-46.015300 0.000000
-45.922300 0.000000
-45.829300 0.000000
-45.736300 0.000000
-45.643200 0.000000
-45.550200 0.000000
-45.457200 0.000000
-45.364200 0.000000
-45.271200 0.000000
-45.178200 0.000000
-45.085100 0.000000
-44.992100 0.000000
-44.899100 0.000000
-44.806100 0.000000
-44.713100 0.000000
-44.620100 0.000000
-44.527000 0.000000
-44.434000 0.000000
-44.341000 0.000000
-44.248000 0.000000
-44.155000 0.000000
-44.062000 0.000000
-43.969000 0.000000
-43.875900 0.000000
-43.782900 0.000000
-43.689900 0.000000
-43.596900 0.000000
-43.503900 0.000000
-43.410900 0.000000
-43.317800 0.000000
-43.224800 0.000000
-43.131800 0.000000
-43.038800 0.000000
-42.945800 0.000000
-42.852800 0.000000
-42.759700 0.000000
-42.666700 0.000000
-42.573700 0.000000
-42.480700 0.000000
-42.387700 0.000000
-42.294700 0.000000
-42.201600 0.000000
-42.108600 0.000000
-42.015600 0.000000
-41.922600 0.000000
-41.829600 0.000000
-41.736600 0.000000
-41.643500 0.000000
-41.550500 0.000000
-41.457500 0.000000
-41.364500 0.000000
-41.271500 0.000000
-41.178500 0.000000
-41.085400 0.000000
-40.992400 0.000000
-40.899400 0.000000
-40.806400 0.000000
-40.713400 0.000000
-40.620400 0.000000
-40.527400 0.000000
-40.434300 0.000000
-40.341300 0.000000
-40.248300 0.000000
-40.155300 0.000000
-40.062300 0.000000
-39.969300 0.000000
-39.876200 0.000000
-39.783200 0.000000
-39.690200 0.000000
-39.597200 0.000000
-39.504200 0.000000
-39.411200 0.000000
-39.318100 0.000000
-39.225100 0.000000
-39.132100 0.000000
-39.039100 0.000000
-38.946100 0.000000
-38.853100 0.000000
-38.760000 0.000000
-38.667000 0.000000
-38.574000 0.000000
-38.481000 0.000000
-38.388000 0.000000
-38.295000 0.000000
-38.201900 0.000000
-38.108900 0.000000
-38.015900 0.000000
-37.922900 0.000000
-37.829900 0.000000
-37.736900 0.000000
-37.643800 0.000000
-37.550800 0.000000
-37.457800 0.000000
-37.364800 0.000000
-37.271800 0.000000
-37.178800 0.000000
-37.085800 0.000000
-36.992700 0.000000
-36.899700 0.000000
-36.806700 0.000000
-36.713700 0.000000
-36.620700 0.000000
-36.527700 0.000000
-36.434600 0.000000
-36.341600 0.000000
-36.248600 0.000000
-36.155600 0.000000
-36.062600 0.000000
-35.969600 0.000000
-35.876500 0.000000
-35.783500 0.000000
-35.690500 0.000000
-35.597500 0.000000
-35.504500 0.000000
-35.411500 0.000000
-35.318400 0.000000
-35.225400 0.000000
-35.132400 0.000000
-35.039400 0.000000
-34.946400 0.000000
-34.853400 0.000000
-34.760300 0.000000
-34.667300 0.000000
-34.574300 0.000000
-34.481300 0.000000
-34.388300 0.000000
-34.295300 0.000000
-34.202200 0.000000
-34.109200 0.000000
-34.016200 0.000000
-33.923200 0.000000
-33.830200 0.000000
-33.737200 0.000000
-33.644200 0.000000
-33.551100 0.000000
-33.458100 0.000000
-33.365100 0.000000
-33.272100 0.000000
-33.179100 0.000000
-33.086100 0.000000
-32.993000 0.000000
-32.900000 0.000000
-32.807000 0.000000
-32.714000 0.000000
-32.621000 0.000000
-32.528000 0.000000
-32.434900 0.000000
-32.341900 0.000000
-32.248900 0.000000
-32.155900 0.000000
-32.062900 0.000000
-31.969900 0.000000
-31.876800 0.000000
-31.783800 0.000000
-31.690800 0.000000
-31.597800 0.000000
-31.504800 0.000000
-31.411800 0.000000
-31.318700 0.000000
-31.225700 0.000000
-31.132700 0.000000
-31.039700 0.000000
-30.946700 0.000000
-30.853700 0.000000
-30.760700 0.000000
-30.667600 0.000000
-30.574600 0.000000
-30.481600 0.000000
-30.388600 0.000000
-30.295600 0.000000
-30.202600 0.000000
-30.109500 0.000000
-30.016500 0.000000
-29.923500 0.000000
-29.830500 0.000000
-29.737500 0.000000
-29.644500 0.000000
-29.551400 0.000000
-29.458400 0.000000
-29.365400 0.000000
-29.272400 0.000000
-29.179400 0.000000
-29.086400 0.000000
-28.993300 0.000000
-28.900300 0.000000
-28.807300 0.000000
-28.714300 0.000000
-28.621300 0.000000
-28.528300 0.000000
-28.435200 0.000000
-28.342200 0.000000
-28.249200 0.000000
-28.156200 0.000000
-28.063200 0.000000
-27.970200 0.000000
-27.877100 0.000000
-27.784100 0.000000
-27.691100 0.000000
-27.598100 0.000000
-27.505100 0.000000
-27.412100 0.000000
-27.319100 0.000000
-27.226000 0.000000
-27.133000 0.000000
-27.040000 0.000000
-26.947000 0.000000
-26.854000 0.000000
-26.761000 0.000000
-26.667900 0.000000
-26.574900 0.000000
-26.481900 0.000000
-26.388900 0.000000
-26.295900 0.000000
-26.202900 0.000000
-26.109800 0.000000
-26.016800 0.000000
-25.923800 0.000000
-25.830800 0.000000
-25.737800 0.000000
-25.644800 0.000000
-25.551700 0.000000
-25.458700 0.000000
-25.365700 0.000000
-25.272700 0.000000
-25.179700 0.000000
-25.086700 0.000000
-24.993600 0.000000
-24.900600 0.000000
-24.807600 0.000000
-24.714600 0.000000
-24.621600 0.000000
-24.528600 0.000000
-24.435500 0.000000
-24.342500 0.000000
-24.249500 0.000000
-24.156500 0.000000
-24.063500 0.000000
-23.970500 0.000000
-23.877500 0.000000
-23.784400 0.000000
-23.691400 0.000000
-23.598400 0.000000
-23.505400 0.000000
-23.412400 0.000000
-23.319400 0.000000
-23.226300 0.000000
-23.133300 0.000000
-23.040300 0.000000
-22.947300 0.000000
-22.854300 0.000000
-22.761300 0.000000
-22.668200 0.000000
-22.575200 0.000000
-22.482200 0.000000
-22.389200 0.000000
-22.296200 0.000000
-22.203200 0.000000
-22.110100 0.000000
-22.017100 0.000000
-21.924100 0.000000
-21.831100 0.000000
-21.738100 0.000000
-21.645100 0.000000
-21.552000 0.000000
-21.459000 0.000000
-21.366000 0.000000
-21.273000 0.000000
-21.180000 0.000000
-21.087000 0.000000
-20.993900 0.000000
-20.900900 0.000000
-20.807900 0.000000
-20.714900 0.000000
-20.621900 0.000000
-20.528900 0.000000
-20.435900 0.000000
-20.342800 0.000000
-20.249800 0.000000
-20.156800 0.000000
-20.063800 0.000000
-19.970800 0.000000
-19.877800 0.000000
-19.784700 0.000000
-19.691700 0.000000
-19.598700 0.000000
-19.505700 0.000000
-19.412700 0.000000
-19.319700 0.000000
-19.226600 0.000000
-19.133600 0.000000
-19.040600 0.000000
-18.947600 0.000000
-18.854600 0.000000
-18.761600 0.000000
-18.668500 0.000000
-18.575500 0.000000
-18.482500 0.000000
-18.389500 0.000000
-18.296500 0.000000
-18.203500 0.000000
-18.110400 0.000000
-18.017400 0.000000
-17.924400 0.000000
-17.831400 0.000000
-17.738400 0.000000
-17.645400 0.000000
-17.552300 0.000000
-17.459300 0.000000
-17.366300 0.000000
-17.273300 0.000000
-17.180300 0.000000
-17.087300 0.000000
-16.994300 0.000000
-16.901200 0.000000
-16.808200 0.000000
-16.715200 0.000000
-16.622200 0.000000
-16.529200 0.000000
-16.436200 0.000000
-16.343100 0.000000
-16.250100 0.000000
-16.157100 0.000000
-16.064100 0.000000
-15.971100 0.000000
-15.878100 0.000000
-15.785000 0.000000
-15.692000 0.000000
-15.599000 0.000000
-15.506000 0.000000
-15.413000 0.000000
-15.320000 0.000000
-15.226900 0.253300
-15.133900 0.545800
-15.040900 0.784100
-14.947900 1.049300
-14.854900 1.351400
-14.761900 1.967100
-14.668800 2.655200
-14.575800 2.862800
-14.482800 3.174200
-14.389800 2.863500
-14.296800 2.618200
-14.203800 2.780000
-14.110800 2.982600
-14.017700 3.736800
-13.924700 4.652000
-13.831700 4.903300
-13.738700 3.053900
-13.645700 0.000000
-13.552700 0.000000
-13.459600 0.000000
-13.366600 0.000000
-13.273600 0.000000
-13.180600 0.000000
-13.087600 0.000000
-12.994600 0.000000
-12.901500 0.000000
-12.808500 0.000000
-12.715500 0.000000
-12.622500 0.000000
-12.529500 0.000000
-12.436500 0.000000
-12.343400 0.000000
-12.250400 0.000000
-12.157400 0.000000
-12.064400 0.000000
-11.971400 0.000000
-11.878400 0.000000
-11.785300 0.000000
-11.692300 0.000000
-11.599300 0.000000
-11.506300 0.000000
-11.413300 0.000000
-11.320300 0.000000
-11.227200 0.000000
-11.134200 0.000000
-11.041200 0.000000
-10.948200 0.000000
-10.855200 0.000000
-10.762200 0.000000
-10.669200 0.000000
-10.576100 0.000000
-10.483100 0.000000
-10.390100 0.000000
-10.297100 0.000000
-10.204100 0.000000
-10.111100 0.000000
-10.018000 0.000000
-9.925000 0.000000
-9.832000 0.000000
-9.739000 0.000000
-9.646000 0.000000
-9.553000 0.000000
-9.459900 0.000000
-9.366900 0.000000
-9.273900 0.000000
-9.180900 0.000000
-9.087900 0.000000
-8.994900 0.000000
-8.901800 0.000000
-8.808800 0.000000
-8.715800 0.000000
-8.622800 0.000000
-8.529800 0.000000
-8.436800 0.000000
-8.343700 0.000000
-8.250700 0.000000
-8.157700 0.000000
-8.064700 0.000000
-7.971700 0.000000
-7.878700 0.000000
-7.785600 0.000000
-7.692600 0.000000
-7.599600 0.000000
-7.506600 0.000000
-7.413600 0.000000
-7.320600 0.000000
-7.227600 0.000000
-7.134500 0.000000
-7.041500 0.000000
-6.948500 0.000000
-6.855500 0.000000
-6.762500 0.000000
-6.669500 0.000000
-6.576400 0.000000
-6.483400 0.000000
-6.390400 0.000000
-6.297400 0.000000
-6.204400 0.000000
-6.111400 0.000000
-6.018300 0.000000
-5.925300 0.000000
-5.832300 0.000000
-5.739300 0.000000
-5.646300 0.000000
-5.553300 0.000000
-5.460200 0.000000
-5.367200 0.000000
-5.274200 0.000000
-5.181200 0.000000
-5.088200 0.000000
-4.995200 0.000000
-4.902100 0.000000
-4.809100 0.000000
-4.716100 0.000000
-4.623100 0.000000
-4.530100 0.000000
-4.437100 0.000000
-4.344000 0.000000
-4.251000 0.000000
-4.158000 0.000000
-4.065000 0.000000
-3.972000 0.000000
-3.879000 0.000000
-3.786000 0.000000
-3.692900 0.000000
-3.599900 0.000000
-3.506900 0.066400
-3.413900 0.171000
-3.320900 0.217000
-3.227900 0.275800
-3.134800 0.335000
-3.041800 0.397700
-2.948800 0.455300
-2.855800 0.526000
-2.762800 0.609200
-2.669800 0.717100
-2.576700 0.865100
-2.483700 1.380900
-2.390700 1.777700
-2.297700 2.191800
-2.204700 2.741200
-2.111700 3.087900
-2.018600 3.610900
-1.925600 3.585100
-1.832600 3.017500
-1.739600 2.922700
-1.646600 2.806400
-1.553600 2.611400
-1.460500 2.403100
-1.367500 2.338900
-1.274500 3.437100
-1.181500 3.741800
-1.088500 4.844600
-0.995500 5.998100
-0.902500 5.204900
-0.809400 11.572000
-0.716400 5.406400
-0.623400 2.725500
-0.530400 3.273800
-0.437400 2.294700
-0.344400 2.104000
-0.251300 1.942900
-0.158300 2.120700
-0.065300 2.114600
0.027700 2.310700
0.120700 2.585700
0.213700 2.982700
0.306800 2.793300
0.399800 2.391400
0.492800 3.383900
0.585800 3.048500
0.678800 2.775600
0.771800 2.341000
0.864900 1.865700
0.957900 1.314200
1.050900 1.117500
1.143900 1.113800
1.236900 1.687800
1.329900 3.393600
1.423000 5.537800
1.516000 4.042100
1.609000 4.513800
1.702000 5.714500
1.795000 6.214500
1.888000 20.528500
1.981100 17.747000
2.074100 13.277400
2.167100 16.763400
2.260100 9.571700
2.353100 13.502100
2.446100 12.345000
2.539100 8.577600
2.632200 9.258700
2.725200 5.880400
2.818200 8.089500
2.911200 7.110600
3.004200 3.114000
3.097200 2.787900
3.190300 2.397400
3.283300 0.402800
3.376300 0.578700
3.469300 0.418500
3.562300 0.470700
3.655300 0.533000
3.748400 0.762200
3.841400 1.056600
3.934400 1.558300
4.027400 2.541700
4.120400 2.089600
4.213400 1.924400
4.306500 2.046500
4.399500 2.585900
4.492500 2.272400
4.585500 2.130400
4.678500 2.313200
4.771500 2.289900
4.864600 2.147600
4.957600 2.425000
5.050600 2.979100
5.143600 6.558500
5.236600 2.056900
5.329600 0.739500
5.422700 0.529400
5.515700 0.384900
5.608700 0.271100
5.701700 0.084500
5.794700 0.000000
5.887700 0.000000
5.980700 0.000000
6.073800 0.005800
6.166800 0.029200
6.259800 0.046800
6.352800 0.054700
6.445800 0.067500
6.538800 0.080600
6.631900 0.091000
6.724900 0.102000
6.817900 0.140600
6.910900 0.160600
7.003900 0.187700
7.096900 0.216200
7.190000 0.239300
7.283000 0.264300
7.376000 0.290200
7.469000 0.318700
7.562000 0.352200
7.655000 0.386800
7.748100 0.421900
7.841100 0.480300
7.934100 0.518900
8.027100 0.561800
8.120100 0.616200
8.213100 0.678600
8.306200 0.797200
8.399200 1.085300
8.492200 1.508500
8.585200 1.926200
8.678200 2.356900
8.771200 2.105500
8.864300 2.293000
8.957300 1.765500
9.050300 1.493500
9.143300 0.807800
9.236300 0.552100
9.329300 0.418400
9.422300 0.538000
9.515400 0.744700
9.608400 1.124200
9.701400 1.678600
9.794400 2.943500
9.887400 3.063300
9.980400 2.128400
10.073500 1.725400
10.166500 1.361300
10.259500 1.185400
10.352500 0.848200
10.445500 0.425900
10.538500 0.355500
10.631600 0.295100
10.724600 0.245000
10.817600 0.196500
10.910600 0.155500
11.003600 0.123800
11.096600 0.090600
11.189700 0.053900
11.282700 0.035900
11.375700 0.084000
11.468700 0.073900
11.561700 0.095300
11.654700 0.124100
11.747800 0.153600
11.840800 0.181700
11.933800 0.208600
12.026800 0.235100
12.119800 0.262200
12.212800 0.287900
12.305900 0.312200
12.398900 0.329100
12.491900 0.354000
12.584900 0.377400
12.677900 0.400800
12.770900 0.456600
12.863900 0.474400
12.957000 0.503100
13.050000 0.586300
13.143000 0.644700
13.236000 0.639800
13.329000 0.627700
13.422000 0.627600
13.515100 0.622900
13.608100 0.688900
13.701100 0.702300
13.794100 0.720500
13.887100 0.759800
13.980100 0.966200
14.073200 1.102000
14.166200 1.301100
14.259200 1.347600
14.352200 1.389700
14.445200 1.438800
14.538200 1.703500
14.631300 1.500000
14.724300 1.494100
14.817300 1.516100
14.910300 1.577200
15.003300 1.625300
15.096300 1.963200
15.189400 2.149300
15.282400 1.886500
15.375400 2.183500
15.468400 1.873700
15.561400 1.378100
15.654400 1.406400
15.747400 1.364100
15.840500 1.298800
15.933500 1.247700
16.026500 1.414700
16.119500 1.763400
16.212500 2.110200
16.305500 2.279100
16.398600 2.146800
16.491600 2.076800
16.584600 2.041600
16.677600 1.997400
16.770600 2.755800
16.863600 2.538200
16.956700 1.313500
17.049700 1.166700
17.142700 1.104900
17.235700 1.051800
17.328700 1.036200
17.421700 1.084100
17.514800 1.092900
17.607800 1.308000
17.700800 1.273500
17.793800 1.269900
17.886800 1.230800
17.979800 1.218400
18.072900 1.295400
18.165900 1.332200
18.258900 1.363300
18.351900 1.401600
18.444900 1.420600
18.537900 1.463600
18.631000 1.547100
18.724000 1.629800
18.817000 1.745600
18.910000 1.963900
19.003000 1.922200
19.096000 1.839200
19.189000 1.957500
19.282100 1.914700
19.375100 2.409200
19.468100 2.565800
19.561100 2.297300
19.654100 1.924300
19.747100 1.570600
19.840200 1.325100
19.933200 1.491200
20.026200 1.633400
20.119200 1.953300
20.212200 1.515400
20.305200 1.219700
20.398300 1.018700
20.491300 1.088500
20.584300 1.153900
20.677300 1.305100
20.770300 1.587500
20.863300 1.900400
20.956400 1.733400
21.049400 1.719900
21.142400 1.824600
21.235400 1.823100
21.328400 1.906200
21.421400 2.050400
21.514500 2.194600
21.607500 2.092200
21.700500 2.081400
21.793500 2.223700
21.886500 2.258200
21.979500 1.897400
22.072600 1.685400
22.165600 1.375100
22.258600 1.391900
22.351600 1.379100
22.444600 1.491500
22.537600 1.704000
22.630600 1.980800
22.723700 1.865700
22.816700 1.840900
22.909700 1.723100
23.002700 1.699600
23.095700 1.520600
23.188700 1.416700
23.281800 1.255200
23.374800 1.155900
23.467800 1.112200
23.560800 1.056100
23.653800 1.049000
23.746800 1.140500
23.839900 1.160300
23.932900 1.089300
24.025900 1.078000
24.118900 1.048900
24.211900 1.071500
24.304900 1.054500
24.398000 1.034600
24.491000 1.039300
24.584000 1.088800
24.677000 1.114600
24.770000 1.109200
24.863000 1.142900
24.956100 1.154600
25.049100 1.267800
25.142100 1.432800
25.235100 1.688300
25.328100 2.133600
25.421100 2.265600
25.514200 1.728000
25.607200 1.471800
25.700200 1.316100
25.793200 1.176700
25.886200 1.028800
25.979200 0.903100
26.072200 0.802400
26.165300 0.758100
26.258300 0.721200
26.351300 0.704500
26.444300 0.791200
26.537300 0.892200
26.630300 0.958300
26.723400 1.012400
26.816400 1.055800
26.909400 1.235200
27.002400 1.339400
27.095400 1.548300
27.188400 1.698000
27.281500 1.664100
27.374500 1.569900
27.467500 1.533400
27.560500 1.625000
27.653500 1.573500
27.746500 1.469400
27.839600 1.578800
27.932600 1.739600
28.025600 1.638500
28.118600 1.450600
28.211600 1.411000
28.304600 1.461500
28.397700 1.375400
28.490700 1.259300
28.583700 1.427100
28.676700 1.685400
28.769700 1.857100
28.862700 2.104400
28.955700 2.024100
29.048800 1.939500
29.141800 1.869200
29.234800 1.950700
29.327800 1.929500
29.420800 1.972400
29.513800 1.856900
29.606900 1.907200
29.699900 1.752100
29.792900 1.453000
29.885900 1.355200
29.978900 1.243300
30.071900 1.292300
30.165000 1.366000
30.258000 1.429000
30.351000 1.735000
30.444000 1.470500
30.537000 1.292000
30.630000 1.258100
30.723100 1.235900
30.816100 1.240100
30.909100 1.241800
31.002100 1.252500
31.095100 1.255300
31.188100 1.313900
31.281200 1.557000
31.374200 1.680400
31.467200 1.748600
31.560200 1.891800
31.653200 1.989500
31.746200 1.976800
31.839300 1.779500
31.932300 1.733500
32.025300 1.670300
32.118300 1.688000
32.211300 1.799000
32.304300 1.750200
32.397300 1.854700
32.490400 2.120000
32.583400 2.060000
32.676400 2.079300
32.769400 1.853900
32.862400 1.765000
32.955400 1.623300
33.048500 1.616000
33.141500 1.712300
33.234500 1.845100
33.327500 1.918000
33.420500 1.958200
33.513500 2.001800
33.606600 2.091100
33.699600 2.168800
33.792600 2.182300
33.885600 2.064400
33.978600 2.101800
34.071600 2.183900
34.164700 2.056000
34.257700 2.190500
34.350700 2.045600
34.443700 1.978000
34.536700 1.821600
34.629700 1.917800
34.722800 1.803900
34.815800 1.768500
34.908800 1.720700
35.001800 1.593300
35.094800 1.574000
35.187800 1.542600
35.280900 1.449800
35.373900 1.433400
35.466900 1.578000
35.559900 1.686400
35.652900 1.775100
35.745900 1.869100
35.838900 2.012900
35.932000 2.106600
36.025000 2.192500
36.118000 2.250200
36.211000 2.030000
36.304000 1.982700
36.397000 2.009100
36.490100 2.098200
36.583100 2.030600
36.676100 2.031600
36.769100 2.095400
36.862100 2.142500
36.955100 2.225800
37.048200 2.395100
37.141200 2.709000
37.234200 3.310500
37.327200 3.614000
37.420200 4.490500
37.513200 6.387400
37.606300 25.071900
37.699300 12.141100
37.792300 5.592300
37.885300 3.879600
37.978300 3.163600
38.071300 2.994800
38.164400 2.913800
38.257400 2.811000
38.350400 2.652800
38.443400 2.568900
38.536400 2.613300
38.629400 2.719200
38.722500 2.691100
38.815500 2.709800
38.908500 2.613500
39.001500 2.453200
39.094500 2.359200
39.187500 2.377000
39.280500 2.470800
39.373600 2.448400
39.466600 2.508800
39.559600 2.296500
39.652600 2.084400
39.745600 2.209200
39.838600 2.221600
39.931700 2.365300
40.024700 2.294200
40.117700 2.295900
40.210700 2.218600
40.303700 2.257100
40.396700 2.048800
40.489800 1.976100
40.582800 1.952300
40.675800 1.990600
40.768800 2.060900
40.861800 2.097900
40.954800 2.194600
41.047900 2.260900
41.140900 2.214200
41.233900 2.164600
41.326900 2.156000
41.419900 2.262600
41.512900 2.248600
41.606000 2.090200
41.699000 2.056300
41.792000 1.878000
41.885000 1.846600
41.978000 1.847400
42.071000 2.372000
42.164100 1.624100
42.257100 1.474900
42.350100 1.507100
42.443100 1.719600
42.536100 1.888000
42.629100 1.958600
42.722100 1.948500
42.815200 1.960500
42.908200 1.935900
43.001200 1.644700
43.094200 1.377500
43.187200 1.607000
43.280200 1.887900
43.373300 2.019600
43.466300 1.976400
43.559300 1.898700
43.652300 2.001600
43.745300 1.740700
43.838300 1.829500
43.931400 1.806000
44.024400 1.921700
44.117400 2.008900
44.210400 1.929800
44.303400 2.080200
44.396400 1.980900
44.489500 2.002100
44.582500 2.072800
44.675500 2.180300
44.768500 2.091500
44.861500 2.153200
44.954500 1.928200
45.047600 1.862000
45.140600 1.895400
45.233600 1.897900
45.326600 2.112400
45.419600 2.224100
45.512600 2.155300
45.605600 2.227600
45.698700 2.307600
45.791700 2.424200
45.884700 2.274200
45.977700 2.102700
46.070700 2.007700
46.163700 1.956000
46.256800 2.073400
46.349800 2.061300
46.442800 2.033200
46.535800 2.085500
46.628800 2.311500
46.721800 2.507500
46.814900 2.727400
46.907900 2.743300
47.000900 2.332500
47.093900 2.381900
47.186900 2.496400
47.279900 2.693200
47.373000 2.508600
47.466000 2.476700
47.559000 2.530100
47.652000 2.558500
47.745000 2.501600
47.838000 2.644600
47.931100 2.857800
48.024100 2.454600
48.117100 2.326300
48.210100 2.245200
48.303100 2.230000
48.396100 2.186800
48.489200 2.038800
48.582200 1.938900
48.675200 1.953400
48.768200 2.069100
48.861200 2.121600
48.954200 2.065900
49.047200 2.189400
49.140300 2.175300
49.233300 2.251500
49.326300 2.339200
49.419300 2.171600
49.512300 1.934900
49.605300 1.873500
49.698400 1.876800
49.791400 1.952000
49.884400 1.934300
49.977400 2.123300
50.070400 2.276900
50.163400 2.228200
50.256500 2.251700
50.349500 2.229900
50.442500 2.193300
50.535500 2.179700
50.628500 2.316900
50.721500 2.428400
50.814600 2.494400
50.907600 2.486500
51.000600 2.362900
51.093600 2.182400
51.186600 2.136900
51.279600 2.136900
51.372700 2.408400
51.465700 2.359300
51.558700 2.252000
51.651700 2.301800
51.744700 2.238900
51.837700 2.199000
51.930800 2.233000
52.023800 2.355600
52.116800 2.504200
52.209800 2.601900
52.302800 2.475700
52.395800 2.402000
52.488800 2.317100
52.581900 2.246300
52.674900 2.186200
52.767900 2.241700
52.860900 2.399400
52.953900 2.313100
53.046900 2.140500
53.140000 2.312200
53.233000 2.525900
53.326000 2.227600
53.419000 2.227700
53.512000 2.153900
53.605000 2.147700
53.698100 2.077300
53.791100 2.249600
53.884100 2.314100
53.977100 2.407500
54.070100 2.606300
54.163100 2.569500
54.256200 2.493400
54.349200 2.466900
54.442200 2.307100
54.535200 2.406200
54.628200 2.624400
54.721200 2.510900
54.814300 2.472900
54.907300 2.444200
55.000300 2.360400
55.093300 2.471100
55.186300 2.347500
55.279300 2.389700
55.372400 2.446300
55.465400 2.640200
55.558400 2.503200
55.651400 2.440900
55.744400 2.506100
55.837400 2.484700
55.930400 2.421800
56.023500 2.270000
56.116500 2.219600
56.209500 2.257900
56.302500 2.425500
56.395500 2.425100
56.488500 2.574100
56.581600 2.537500
56.674600 2.526000
56.767600 2.470400
56.860600 2.578400
56.953600 2.577700
57.046600 2.591900
57.139700 2.546100
57.232700 2.778300
57.325700 2.675800
57.418700 2.631500
57.511700 2.614500
57.604700 2.501800
57.697800 2.284000
57.790800 2.184500
57.883800 2.252700
57.976800 2.384800
58.069800 2.586100
58.162800 2.576400
58.255900 2.607200
58.348900 2.593700
58.441900 2.552200
58.534900 2.621300
58.627900 2.414400
58.720900 2.344500
58.813900 2.396800
58.907000 2.512900
59.000000 2.535600
59.093000 2.387700
59.186000 2.274700
59.279000 2.217600
59.372000 2.335900
59.465100 2.371300
59.558100 2.483400
59.651100 2.335200
59.744100 2.377600
59.837100 2.306400
59.930100 2.253200
60.023200 2.193500
60.116200 2.116800
60.209200 2.261800
60.302200 2.239500
60.395200 2.212500
60.488200 2.361400
60.581300 2.459000
60.674300 2.599200
60.767300 2.816800
60.860300 2.752100
60.953300 2.672800
61.046300 2.526600
61.139400 2.401800
61.232400 2.455900
61.325400 2.691100
61.418400 2.688300
61.511400 2.592800
61.604400 2.545300
61.697500 2.679600
61.790500 2.517100
61.883500 2.514300
61.976500 2.588300
62.069500 2.543600
62.162500 2.532300
62.255500 2.472800
62.348600 2.443600
62.441600 2.378000
62.534600 2.279600
62.627600 2.124900
62.720600 2.009500
62.813600 1.956000
62.906700 1.976200
62.999700 2.053600
63.092700 2.105200
63.185700 2.264000
63.278700 2.513500
63.371700 2.806600
63.464800 2.955800
63.557800 2.704500
63.650800 2.560600
63.743800 2.379100
63.836800 2.450100
63.929800 2.557800
64.022900 2.548900
64.115900 2.695900
64.208900 2.665700
64.301900 2.612700
64.394900 2.652400
64.487900 2.758900
64.581000 2.803700
64.674000 2.838800
64.767000 2.960100
64.860000 3.065500
64.953000 3.057200
65.046000 2.759100
65.139100 2.592800
65.232100 2.696300
65.325100 2.824800
65.418100 2.807000
65.511100 2.773300
65.604100 2.679500
65.697100 2.624500
65.790200 2.517100
65.883200 2.448200
65.976200 2.306300
66.069200 2.221400
66.162200 2.268700
66.255200 2.360400
66.348300 2.409700
66.441300 2.382400
66.534300 2.426700
66.627300 2.325300
66.720300 2.374800
66.813300 2.465200
66.906400 2.474400
66.999400 2.210300
67.092400 2.161000
67.185400 2.142700
67.278400 2.198100
67.371400 2.250400
67.464500 2.298100
67.557500 2.362900
67.650500 2.480700
67.743500 2.537000
67.836500 2.725600
67.929500 2.697300
68.022600 2.603700
68.115600 2.619500
68.208600 2.680000
68.301600 2.739800
68.394600 3.008200
68.487600 2.891400
68.580700 2.663000
68.673700 2.472000
68.766700 2.506300
68.859700 2.582700
68.952700 2.524700
69.045700 2.567100
69.138700 2.545000
69.231800 2.488700
69.324800 2.301300
69.417800 2.255400
69.510800 2.123600
69.603800 2.086300
69.696800 2.138900
69.789900 2.340200
69.882900 2.540500
69.975900 2.552300
70.068900 2.557300
70.161900 2.468800
70.254900 2.231600
70.348000 2.241300
70.441000 2.398400
70.534000 2.580100
70.627000 2.580500
70.720000 2.545100
70.813000 2.523400
70.906100 2.742700
70.999100 2.932300
71.092100 2.918700
71.185100 2.819100
71.278100 2.776600
71.371100 2.754500
71.464200 2.662400
71.557200 2.523700
71.650200 2.566200
71.743200 2.655800
71.836200 2.743500
71.929200 2.613500
72.022300 2.434200
72.115300 2.417500
72.208300 2.453200
72.301300 2.501800
72.394300 2.658000
72.487300 2.840900
72.580300 2.917800
72.673400 2.764700
72.766400 2.828900
72.859400 2.849500
72.952400 2.860400
73.045400 3.105200
73.138400 3.049500
73.231500 3.117600
73.324500 3.260000
73.417500 3.132800
73.510500 2.931500
73.603500 2.797900
73.696500 2.696900
73.789600 2.610100
73.882600 2.726000
73.975600 2.914300
74.068600 3.084200
74.161600 3.100200
74.254600 3.038200
74.347700 3.010100
74.440700 2.875200
74.533700 2.762700
74.626700 2.632300
74.719700 2.571100
74.812700 2.553000
74.905800 2.564700
74.998800 2.655400
75.091800 2.684300
75.184800 2.872700
75.277800 2.726600
75.370800 2.851600
75.463800 2.886400
75.556900 2.767300
75.649900 2.603400
75.742900 2.544600
75.835900 2.473400
75.928900 2.591800
76.021900 2.745400
76.115000 2.804800
76.208000 2.865400
76.301000 2.845000
76.394000 2.909200
76.487000 2.910200
76.580000 2.565500
76.673100 2.668000
76.766100 2.890400
76.859100 2.746000
76.952100 2.711400
77.045100 2.716400
77.138100 2.699300
77.231200 2.862000
77.324200 2.737000
77.417200 2.658800
77.510200 2.557700
77.603200 2.529000
77.696200 2.521900
77.789300 2.447700
77.882300 2.467000
77.975300 2.614500
78.068300 2.819800
78.161300 2.806700
78.254300 3.020500
78.347400 3.040600
78.440400 2.786000
78.533400 2.728800
78.626400 2.643600
78.719400 2.527500
78.812400 2.549100
78.905400 2.552100
78.998500 2.688800
79.091500 3.048800
79.184500 3.245100
79.277500 2.595500
79.370500 2.520000
79.463500 2.544600
79.556600 2.496900
79.649600 2.559800
79.742600 2.645600
79.835600 2.701800
79.928600 2.771400
80.021600 2.846900
80.114700 2.666100
80.207700 2.704100
80.300700 2.780000
80.393700 2.809700
80.486700 2.804400
80.579700 3.026600
80.672800 3.028800
80.765800 3.074700
80.858800 3.091900
80.951800 2.969200
81.044800 2.851600
81.137800 2.718800
81.230900 2.639400
81.323900 2.708500
81.416900 2.866200
81.509900 2.983800
81.602900 2.897100
81.695900 2.881500
81.789000 2.631700
81.882000 2.686500
81.975000 2.700500
82.068000 2.883100
82.161000 3.259300
82.254000 3.122400
82.347000 3.253700
82.440100 3.040700
82.533100 2.890400
82.626100 2.760900
82.719100 2.866900
82.812100 3.025600
82.905100 3.061500
82.998200 2.828500
83.091200 2.883000
83.184200 3.051300
83.277200 3.216100
83.370200 3.420200
83.463200 3.157100
83.556300 2.855800
83.649300 2.792500
83.742300 2.625100
83.835300 2.719500
83.928300 2.857300
84.021300 2.827400
84.114400 2.714500
84.207400 2.589900
84.300400 2.384000
84.393400 2.450900
84.486400 2.645000
84.579400 2.831100
84.672500 3.245300
84.765500 3.350700
84.858500 2.914200
84.951500 2.736800
85.044500 2.752200
85.137500 2.998800
85.230600 3.462600
85.323600 3.699600
85.416600 3.451800
85.509600 3.215200
85.602600 2.827600
85.695600 2.691000
85.788600 2.967300
85.881700 3.077500
85.974700 3.274200
86.067700 3.460600
86.160700 3.051500
86.253700 2.961100
86.346700 2.687100
86.439800 2.667600
86.532800 2.865900
86.625800 3.173200
86.718800 3.218800
86.811800 3.330200
86.904800 2.878400
86.997900 2.661400
87.090900 2.515400
87.183900 2.780700
87.276900 2.954400
87.369900 3.308800
87.462900 3.630900
87.556000 3.506200
87.649000 2.927400
87.742000 2.626800
87.835000 2.443800
87.928000 2.467500
88.021000 2.923100
88.114100 3.147400
88.207100 3.234500
88.300100 3.124600
88.393100 3.060700
88.486100 3.205100
88.579100 3.205600
88.672100 3.230100
88.765200 3.113700
88.858200 2.869300
88.951200 3.011100
89.044200 2.984200
89.137200 2.967300
89.230200 2.867200
89.323300 2.807900
89.416300 2.829700
89.509300 2.789700
89.602300 3.014800
89.695300 2.695500
89.788300 2.831200
89.881400 2.900000
89.974400 2.927300
90.067400 2.892600
90.160400 2.730500
90.253400 2.709400
90.346400 2.487500
90.439500 2.308800
90.532500 2.298200
90.625500 2.602000
90.718500 2.850100
90.811500 2.950200
90.904500 3.095800
90.997600 2.867500
91.090600 2.756400
91.183600 2.841700
91.276600 2.836100
91.369600 3.074600
91.462600 3.069100
91.555700 3.052100
91.648700 2.919300
91.741700 2.904400
91.834700 2.809400
91.927700 2.765600
92.020700 2.709500
92.113700 2.792000
92.206800 3.064000
92.299800 3.046700
92.392800 2.948700
92.485800 2.749900
92.578800 2.823100
92.671800 2.832700
92.764900 2.875300
92.857900 2.974200
92.950900 3.063000
93.043900 2.967400
93.136900 2.917800
93.229900 3.007000
93.323000 3.057000
93.416000 2.926400
93.509000 2.955500
93.602000 2.977400
93.695000 3.159900
93.788000 3.083400
93.881100 2.962900
93.974100 3.124800
94.067100 3.483600
94.160100 3.300700
94.253100 3.255900
94.346100 3.029700
94.439200 3.169300
94.532200 3.330800
94.625200 3.153000
94.718200 2.985600
94.811200 2.841000
94.904200 3.045200
94.997300 2.914900
95.090300 2.883300
95.183300 2.833200
95.276300 2.765000
95.369300 2.792100
95.462300 2.770500
95.555300 3.080700
95.648400 3.212300
95.741400 3.128100
95.834400 3.063700
95.927400 2.934700
96.020400 2.682600
96.113400 2.578600
96.206500 2.739000
96.299500 2.928100
96.392500 3.051100
96.485500 3.150800
96.578500 3.241200
96.671500 3.149700
96.764600 2.947300
96.857600 2.797600
96.950600 2.699700
97.043600 2.774000
97.136600 2.714100
97.229600 2.622600
97.322700 2.618000
97.415700 2.666700
97.508700 2.490600
97.601700 2.641200
97.694700 2.693700
97.787700 2.618200
97.880800 2.626800
97.973800 2.527700
98.066800 2.277900
98.159800 2.173400
98.252800 2.152500
98.345800 2.363800
98.438900 2.528100
98.531900 2.527000
98.624900 2.456400
98.717900 2.353700
98.810900 2.392000
98.903900 2.317500
98.996900 2.242800
99.090000 2.099500
99.183000 1.970800
99.276000 1.862400
99.369000 1.797300
99.462000 1.633900
99.555000 1.554800
99.648100 1.518800
99.741100 1.517200
99.834100 1.290200
99.927100 1.097100
100.020100 0.995800
100.113100 0.811400
100.206200 0.687500
100.299200 0.590600
100.392200 0.521000
100.485200 0.467100
100.578200 0.416800
100.671200 0.339700
100.764300 0.288100
100.857300 0.240400
100.950300 0.199900
101.043300 0.181100
101.136300 0.165300
101.229300 0.152600
101.322400 0.130800
101.415400 0.121700
101.508400 0.113400
101.601400 0.108900
101.694400 0.104200
101.787400 0.094500
101.880400 0.086600
101.973500 0.075200
102.066500 0.071300
102.159500 0.069100
102.252500 0.064800
102.345500 0.060200
102.438500 0.052400
102.531600 0.048600
102.624600 0.048300
102.717600 0.043900
102.810600 0.039700
102.903600 0.036700
102.996600 0.036100
103.089700 0.034100
103.182700 0.025800
103.275700 0.015800
103.368700 0.012800
103.461700 0.010100
103.554700 0.007500
103.647800 0.000000
103.740800 0.000000
103.833800 0.000000
103.926800 0.000000
104.019800 0.000000
104.112800 0.000000
104.205900 0.000000
104.298900 0.000000
104.391900 0.000000
104.484900 0.000000
104.577900 0.000000
104.670900 0.000000
104.764000 0.000000
104.857000 0.000000
104.950000 0.000000
105.043000 0.000000
105.136000 0.000000
105.229000 0.000000
105.322000 0.000000
105.415100 0.000000
105.508100 0.000000
105.601100 0.000000
105.694100 0.000000
105.787100 0.000000
105.880100 0.000000
105.973200 0.000000
106.066200 0.000000
106.159200 0.000000
106.252200 0.000000
106.345200 0.000000
106.438200 0.000000
106.531300 0.000000
106.624300 0.000000
106.717300 0.000000
106.810300 0.000000
106.903300 0.000000
106.996300 0.000000
107.089400 0.000000
107.182400 0.000000
107.275400 0.000000
107.368400 0.000000
107.461400 0.000000
107.554400 0.000000
107.647500 0.000000
107.740500 0.000000
107.833500 0.000000
107.926500 0.000000
108.019500 0.000000
108.112500 0.000000
108.205600 0.000000
108.298600 0.000000
108.391600 0.000000
108.484600 0.000000
108.577600 0.000000
108.670600 0.000000
108.763600 0.000000
108.856700 0.000000
108.949700 0.000000
109.042700 0.000000
109.135700 0.000000
109.228700 0.000000
109.321700 0.000000
109.414800 0.000000
109.507800 0.000000
109.600800 0.000000
109.693800 0.000000
109.786800 0.000000
109.879800 0.000000
109.972900 0.000000
110.065900 0.000000
110.158900 0.000000
110.251900 0.000000
110.344900 0.000000
110.437900 0.000000
110.531000 0.000000
110.624000 0.000000
110.717000 0.000000
110.810000 0.000000
110.903000 0.000000
110.996000 0.000000
111.089100 0.000000
111.182100 0.000000
111.275100 0.000000
111.368100 0.000000
111.461100 0.000000
111.554100 0.000000
111.647200 0.000000
111.740200 0.000000
111.833200 0.000000
111.926200 0.000000
112.019200 0.000000
e
