set title 'mp-14 - Density of States'
set xlabel 'Energy (eV)'
set ylabel 'DOS (states/eV)'
set grid
set xrange [-10:10]
set yrange [0:8.532]
set xzeroaxis lt -1
set terminal png size 800,600
set output 'mp-14_dos_gnuplot.png'
plot '-' using 1:2 with lines title 'DOS'
-14.896000 0.000000
-14.880600 0.000000
-14.865100 0.000000
-14.849700 0.000000
-14.834200 0.000000
-14.818800 0.000000
-14.803400 0.000000
-14.787900 0.000000
-14.772500 0.000000
-14.757100 0.000000
-14.741600 0.000000
-14.726200 0.000000
-14.710700 0.000000
-14.695300 0.000000
-14.679900 0.000000
-14.664400 0.000000
-14.649000 0.000000
-14.633600 0.000000
-14.618100 0.000000
-14.602700 0.000000
-14.587200 0.000000
-14.571800 0.000000
-14.556400 0.000000
-14.540900 0.000000
-14.525500 0.000000
-14.510100 0.000000
-14.494600 0.000000
-14.479200 0.000000
-14.463700 0.000000
-14.448300 0.000000
-14.432900 0.000000
-14.417400 0.000000
-14.402000 0.000000
-14.386600 0.000000
-14.371100 0.000000
-14.355700 0.000000
-14.340200 0.000000
-14.324800 0.000000
-14.309400 0.000000
-14.293900 0.000000
-14.278500 0.000000
-14.263100 0.000000
-14.247600 0.000000
-14.232200 0.000000
-14.216800 0.000000
-14.201300 0.000000
-14.185900 0.000000
-14.170400 0.000000
-14.155000 0.000000
-14.139600 0.000000
-14.124100 0.000000
-14.108700 0.000000
-14.093300 0.000000
-14.077800 0.000000
-14.062400 0.000000
-14.046900 0.000000
-14.031500 0.000000
-14.016100 0.000000
-14.000600 0.000000
-13.985200 0.000000
-13.969800 0.000000
-13.954300 0.000000
-13.938900 0.000000
-13.923400 0.000000
-13.908000 0.000000
-13.892600 0.000000
-13.877100 0.000000
-13.861700 0.000000
-13.846300 0.000000
-13.830800 0.000000
-13.815400 0.000000
-13.799900 0.000000
-13.784500 0.000000
-13.769100 0.000000
-13.753600 0.000000
-13.738200 0.000000
-13.722800 0.000000
-13.707300 0.000000
-13.691900 0.000000
-13.676400 0.000000
-13.661000 0.000000
-13.645600 0.000000
-13.630100 0.000000
-13.614700 0.000000
-13.599300 0.000000
-13.583800 0.000000
-13.568400 0.000000
-13.552900 0.000000
-13.537500 0.000000
-13.522100 0.000000
-13.506600 0.000000
-13.491200 0.001400
-13.475800 0.192200
-13.460300 0.376100
-13.444900 0.461000
-13.429500 0.552000
-13.414000 0.624600
-13.398600 0.720500
-13.383100 0.818500
-13.367700 0.881900
-13.352300 0.951800
-13.336800 1.026800
-13.321400 1.108500
-13.306000 1.194600
-13.290500 1.285800
-13.275100 1.382200
-13.259600 1.483300
-13.244200 1.590700
-13.228800 1.717700
-13.213300 1.854200
-13.197900 1.996700
-13.182500 2.160700
-13.167000 2.417100
-13.151600 2.757200
-13.136100 3.212100
-13.120700 4.066400
-13.105300 3.967000
-13.089800 3.929300
-13.074400 3.549600
-13.059000 2.922000
-13.043500 2.772000
-13.028100 2.546400
-13.012600 2.377900
-12.997200 2.229700
-12.981800 2.128000
-12.966300 2.089200
-12.950900 2.044100
-12.935500 1.990400
-12.920000 1.925200
-12.904600 1.828200
-12.889100 1.762200
-12.873700 1.701800
-12.858300 1.672100
-12.842800 1.658800
-12.827400 1.639900
-12.812000 1.619400
-12.796500 1.596900
-12.781100 1.571200
-12.765600 1.540200
-12.750200 1.501800
-12.734800 1.447600
-12.719300 1.412700
-12.703900 1.380800
-12.688500 1.370200
-12.673000 1.363200
-12.657600 1.355800
-12.642200 1.348000
-12.626700 1.339600
-12.611300 1.330200
-12.595800 1.320000
-12.580400 1.309000
-12.565000 1.351600
-12.549500 1.460100
-12.534100 1.450500
-12.518700 1.390400
-12.503200 1.362500
-12.487800 1.341200
-12.472300 1.315500
-12.456900 1.296400
-12.441500 1.277300
-12.426000 1.263300
-12.410600 1.245300
-12.395200 1.223900
-12.379700 1.199000
-12.364300 1.213100
-12.348800 1.202500
-12.333400 1.187700
-12.318000 1.285000
-12.302500 1.434100
-12.287100 1.449800
-12.271700 0.942000
-12.256200 0.878400
-12.240800 0.170500
-12.225300 0.265200
-12.209900 0.329400
-12.194500 0.338700
-12.179000 0.388600
-12.163600 0.420300
-12.148200 0.461300
-12.132700 0.510800
-12.117300 0.562100
-12.101800 0.619900
-12.086400 0.681000
-12.071000 0.760400
-12.055500 0.859900
-12.040100 0.960800
-12.024700 1.118000
-12.009200 1.371300
-11.993800 1.718000
-11.978300 2.320700
-11.962900 1.746800
-11.947500 0.939500
-11.932000 0.939600
-11.916600 0.939600
-11.901200 0.939700
-11.885700 0.939700
-11.870300 0.938200
-11.854900 0.935900
-11.839400 0.933500
-11.824000 0.930900
-11.808500 0.928200
-11.793100 0.925300
-11.777700 0.922100
-11.762200 0.918600
-11.746800 0.914800
-11.731400 0.910500
-11.715900 0.905500
-11.700500 0.899600
-11.685000 0.891600
-11.669600 0.877600
-11.654200 0.866000
-11.638700 0.862700
-11.623300 0.862700
-11.607900 0.862800
-11.592400 0.862800
-11.577000 0.862900
-11.561500 0.862900
-11.546100 0.862900
-11.530700 0.863000
-11.515200 0.863000
-11.499800 0.863000
-11.484400 0.863000
-11.468900 0.861000
-11.453500 0.858800
-11.438000 0.856500
-11.422600 0.854000
-11.407200 0.851300
-11.391700 0.848200
-11.376300 0.844800
-11.360900 0.840700
-11.345400 0.835600
-11.330000 0.827100
-11.314500 0.818400
-11.299100 0.817300
-11.283700 0.817300
-11.268200 0.817300
-11.252800 0.817300
-11.237400 0.817300
-11.221900 0.817400
-11.206500 0.817400
-11.191000 0.817400
-11.175600 0.817400
-11.160200 0.817500
-11.144700 0.817500
-11.129300 0.817500
-11.113900 0.817500
-11.098400 0.817600
-11.083000 0.817600
-11.067600 0.817600
-11.052100 0.816800
-11.036700 0.814500
-11.021200 0.812000
-11.005800 0.809100
-10.990400 0.805600
-10.974900 0.801300
-10.959500 0.795600
-10.944100 0.795500
-10.928600 0.795500
-10.913200 0.795500
-10.897700 0.795500
-10.882300 0.795500
-10.866900 0.795500
-10.851400 0.795500
-10.836000 0.795500
-10.820600 0.795500
-10.805100 0.795500
-10.789700 0.795500
-10.774200 0.795500
-10.758800 0.795600
-10.743400 0.795600
-10.727900 0.795600
-10.712500 0.795600
-10.697100 0.795600
-10.681600 0.795600
-10.666200 0.795600
-10.650700 0.795600
-10.635300 0.795600
-10.619900 0.795700
-10.604400 0.800200
-10.589000 0.803200
-10.573600 0.803200
-10.558100 0.803100
-10.542700 0.803100
-10.527200 0.803100
-10.511800 0.803000
-10.496400 0.803000
-10.480900 0.803000
-10.465500 0.802900
-10.450100 0.802900
-10.434600 0.802900
-10.419200 0.802900
-10.403700 0.802900
-10.388300 0.802800
-10.372900 0.802800
-10.357400 0.802800
-10.342000 0.802800
-10.326600 0.802800
-10.311100 0.802700
-10.295700 0.802700
-10.280300 0.802700
-10.264800 0.821600
-10.249400 0.886500
-10.233900 0.963800
-10.218500 1.001700
-10.203100 1.027500
-10.187600 1.045800
-10.172200 1.058900
-10.156800 1.066700
-10.141300 1.068000
-10.125900 1.067500
-10.110400 1.066900
-10.095000 1.066400
-10.079600 1.066000
-10.064100 1.065500
-10.048700 1.042400
-10.033300 0.962700
-10.017800 0.889600
-10.002400 0.809900
-9.986900 0.727400
-9.971500 0.637400
-9.956100 0.515400
-9.940600 0.417900
-9.925200 0.349700
-9.909800 0.309000
-9.894300 0.271800
-9.878900 0.242100
-9.863400 0.214100
-9.848000 0.196300
-9.832600 0.188600
-9.817100 0.185300
-9.801700 0.186900
-9.786300 0.195800
-9.770800 0.213200
-9.755400 0.240600
-9.739900 0.280200
-9.724500 0.327200
-9.709100 0.402300
-9.693600 0.516000
-9.678200 0.699400
-9.662800 1.132800
-9.647300 1.142600
-9.631900 1.142500
-9.616400 1.142400
-9.601000 1.142300
-9.585600 1.142300
-9.570100 1.142300
-9.554700 1.141500
-9.539300 1.136500
-9.523800 1.127300
-9.508400 1.113900
-9.493000 1.094300
-9.477500 1.066400
-9.462100 1.021700
-9.446600 0.997600
-9.431200 0.981800
-9.415800 0.969800
-9.400300 0.960400
-9.384900 0.953600
-9.369500 0.948100
-9.354000 0.943700
-9.338600 0.940600
-9.323100 0.938200
-9.307700 0.936300
-9.292300 0.935200
-9.276800 0.934500
-9.261400 0.934100
-9.246000 0.939100
-9.230500 0.945800
-9.215100 0.952400
-9.199600 0.960300
-9.184200 0.970300
-9.168800 0.978500
-9.153300 0.985000
-9.137900 0.990500
-9.122500 0.995100
-9.107000 0.999200
-9.091600 1.003100
-9.076100 1.006700
-9.060700 1.010000
-9.045300 1.012900
-9.029800 1.015700
-9.014400 1.018300
-8.999000 1.020700
-8.983500 1.029900
-8.968100 1.044000
-8.952600 1.058000
-8.937200 1.074800
-8.921800 1.099100
-8.906300 1.116600
-8.890900 1.130700
-8.875500 1.142900
-8.860000 1.153700
-8.844600 1.163000
-8.829100 1.171300
-8.813700 1.179000
-8.798300 1.186400
-8.782800 1.192600
-8.767400 1.211500
-8.752000 1.241400
-8.736500 1.270500
-8.721100 1.304000
-8.705700 1.356700
-8.690200 1.392800
-8.674800 1.421300
-8.659300 1.446500
-8.643900 1.469000
-8.628500 1.489200
-8.613000 1.544500
-8.597600 1.637700
-8.582200 1.729200
-8.566700 1.828800
-8.551300 1.994100
-8.535800 2.340700
-8.520400 2.490800
-8.505000 2.340100
-8.489500 2.333800
-8.474100 3.088100
-8.458700 1.914900
-8.443200 1.705400
-8.427800 1.568000
-8.412300 1.456400
-8.396900 1.355200
-8.381500 1.267000
-8.366000 1.182300
-8.350600 1.108600
-8.335200 1.059100
-8.319700 1.012600
-8.304300 0.968700
-8.288800 0.926500
-8.273400 0.885800
-8.258000 0.846100
-8.242500 0.807500
-8.227100 0.766900
-8.211700 0.738600
-8.196200 0.711200
-8.180800 0.685400
-8.165300 0.660700
-8.149900 0.636600
-8.134500 0.613000
-8.119000 0.589700
-8.103600 0.566700
-8.088200 0.543600
-8.072700 0.521300
-8.057300 0.499200
-8.041800 0.478300
-8.026400 0.458500
-8.011000 0.439100
-7.995500 0.419900
-7.980100 0.401300
-7.964700 0.382700
-7.949200 0.364200
-7.933800 0.347300
-7.918400 0.330200
-7.902900 0.313900
-7.887500 0.297500
-7.872000 0.281100
-7.856600 0.265300
-7.841200 0.252000
-7.825700 0.237500
-7.810300 0.218600
-7.794900 0.194000
-7.779400 0.168900
-7.764000 0.145100
-7.748500 0.122600
-7.733100 0.101300
-7.717700 0.088000
-7.702200 0.028100
-7.686800 0.000000
-7.671400 0.000000
-7.655900 0.000000
-7.640500 0.000000
-7.625000 0.000000
-7.609600 0.000000
-7.594200 0.000000
-7.578700 0.000000
-7.563300 0.000000
-7.547900 0.000000
-7.532400 0.000000
-7.517000 0.000000
-7.501500 0.000000
-7.486100 0.000000
-7.470700 0.000000
-7.455200 0.000000
-7.439800 0.000000
-7.424400 0.000000
-7.408900 0.000000
-7.393500 0.000000
-7.378000 0.000000
-7.362600 0.000000
-7.347200 0.000000
-7.331700 0.000000
-7.316300 0.000000
-7.300900 0.000000
-7.285400 0.000000
-7.270000 0.000000
-7.254500 0.000000
-7.239100 0.000000
-7.223700 0.000000
-7.208200 0.000000
-7.192800 0.000000
-7.177400 0.000000
-7.161900 0.000000
-7.146500 0.000000
-7.131100 0.000000
-7.115600 0.000000
-7.100200 0.000000
-7.084700 0.000000
-7.069300 0.000000
-7.053900 0.000000
-7.038400 0.000000
-7.023000 0.000000
-7.007600 0.000000
-6.992100 0.000000
-6.976700 0.000000
-6.961200 0.000000
-6.945800 0.000000
-6.930400 0.000000
-6.914900 0.000000
-6.899500 0.000000
-6.884100 0.000000
-6.868600 0.000000
-6.853200 0.000000
-6.837700 0.000000
-6.822300 0.000000
-6.806900 0.000000
-6.791400 0.000000
-6.776000 0.000000
-6.760600 0.000000
-6.745100 0.000000
-6.729700 0.000000
-6.714200 0.000000
-6.698800 0.000000
-6.683400 0.000000
-6.667900 0.000000
-6.652500 0.000000
-6.637100 0.000000
-6.621600 0.000000
-6.606200 0.000000
-6.590700 0.000000
-6.575300 0.000000
-6.559900 0.000000
-6.544400 0.000000
-6.529000 0.000000
-6.513600 0.000000
-6.498100 0.000000
-6.482700 0.000000
-6.467200 0.000000
-6.451800 0.000000
-6.436400 0.000000
-6.420900 0.000000
-6.405500 0.000000
-6.390100 0.000000
-6.374600 0.000000
-6.359200 0.000000
-6.343800 0.000000
-6.328300 0.000000
-6.312900 0.000000
-6.297400 0.000000
-6.282000 0.000000
-6.266600 0.000000
-6.251100 0.000000
-6.235700 0.000000
-6.220300 0.000000
-6.204800 0.000000
-6.189400 0.000000
-6.173900 0.000000
-6.158500 0.000000
-6.143100 0.000000
-6.127600 0.000000
-6.112200 0.000000
-6.096800 0.000000
-6.081300 0.000000
-6.065900 0.000000
-6.050400 0.000000
-6.035000 0.000000
-6.019600 0.000000
-6.004100 0.000000
-5.988700 0.000000
-5.973300 0.000000
-5.957800 0.000000
-5.942400 0.000000
-5.926900 0.000000
-5.911500 0.000000
-5.896100 0.000000
-5.880600 0.000000
-5.865200 0.000000
-5.849800 0.000000
-5.834300 0.000000
-5.818900 0.000000
-5.803400 0.000000
-5.788000 0.000000
-5.772600 0.000000
-5.757100 0.000000
-5.741700 0.000000
-5.726300 0.000000
-5.710800 0.000000
-5.695400 0.000000
-5.679900 0.000000
-5.664500 0.000000
-5.649100 0.000000
-5.633600 0.000000
-5.618200 0.000000
-5.602800 0.000000
-5.587300 0.000000
-5.571900 0.000000
-5.556500 0.000000
-5.541000 0.000000
-5.525600 0.000000
-5.510100 0.000000
-5.494700 0.000000
-5.479300 0.000000
-5.463800 0.000000
-5.448400 0.000000
-5.433000 0.000000
-5.417500 0.000000
-5.402100 0.000000
-5.386600 0.000000
-5.371200 0.000000
-5.355800 0.000000
-5.340300 0.000000
-5.324900 0.000000
-5.309500 0.000000
-5.294000 0.000000
-5.278600 0.000000
-5.263100 0.000000
-5.247700 0.000000
-5.232300 0.000000
-5.216800 0.000000
-5.201400 0.000000
-5.186000 0.000000
-5.170500 0.000000
-5.155100 0.000000
-5.139600 0.000000
-5.124200 0.000000
-5.108800 0.000000
-5.093300 0.000000
-5.077900 0.000000
-5.062500 0.000000
-5.047000 0.000000
-5.031600 0.000000
-5.016100 0.000000
-5.000700 0.000000
-4.985300 0.000000
-4.969800 0.000000
-4.954400 0.000000
-4.939000 0.000000
-4.923500 0.000000
-4.908100 0.000000
-4.892600 0.000000
-4.877200 0.000000
-4.861800 0.000000
-4.846300 0.000000
-4.830900 0.000000
-4.815500 0.000000
-4.800000 0.000000
-4.784600 0.000000
-4.769200 0.000000
-4.753700 0.000000
-4.738300 0.000000
-4.722800 0.000000
-4.707400 0.000000
-4.692000 0.000000
-4.676500 0.000000
-4.661100 0.000000
-4.645700 0.000000
-4.630200 0.000000
-4.614800 0.000000
-4.599300 0.000000
-4.583900 0.000000
-4.568500 0.000000
-4.553000 0.000000
-4.537600 0.000000
-4.522200 0.000000
-4.506700 0.000000
-4.491300 0.000000
-4.475800 0.000000
-4.460400 0.000000
-4.445000 0.000000
-4.429500 0.000000
-4.414100 0.000000
-4.398700 0.000000
-4.383200 0.000000
-4.367800 0.000000
-4.352300 0.000000
-4.336900 0.000000
-4.321500 0.000000
-4.306000 0.000000
-4.290600 0.000000
-4.275200 0.000000
-4.259700 0.000000
-4.244300 0.000000
-4.228800 0.000000
-4.213400 0.000000
-4.198000 0.000000
-4.182500 0.000000
-4.167100 0.000000
-4.151700 0.000000
-4.136200 0.000000
-4.120800 0.000000
-4.105300 0.000000
-4.089900 0.000000
-4.074500 0.000000
-4.059000 0.000000
-4.043600 0.000000
-4.028200 0.000000
-4.012700 0.000000
-3.997300 0.000000
-3.981900 0.000000
-3.966400 0.000000
-3.951000 0.000000
-3.935500 0.000000
-3.920100 0.000000
-3.904700 0.000000
-3.889200 0.000000
-3.873800 0.000000
-3.858400 0.000000
-3.842900 0.000000
-3.827500 0.000000
-3.812000 0.000000
-3.796600 0.000000
-3.781200 0.000000
-3.765700 0.000000
-3.750300 0.000000
-3.734900 0.000000
-3.719400 0.000000
-3.704000 0.000000
-3.688500 0.000000
-3.673100 0.000000
-3.657700 0.000000
-3.642200 0.000000
-3.626800 0.000000
-3.611400 0.000000
-3.595900 0.000000
-3.580500 0.000000
-3.565000 0.278600
-3.549600 0.586500
-3.534200 0.661700
-3.518700 0.879900
-3.503300 1.128100
-3.487900 1.721600
-3.472400 1.632900
-3.457000 1.701400
-3.441500 1.584700
-3.426100 1.604100
-3.410700 1.615400
-3.395200 1.584700
-3.379800 1.485500
-3.364400 1.464100
-3.348900 1.474800
-3.333500 1.491900
-3.318000 1.508900
-3.302600 1.525800
-3.287200 1.528300
-3.271700 1.530100
-3.256300 1.522300
-3.240900 1.525800
-3.225400 1.529200
-3.210000 1.532500
-3.194600 1.542500
-3.179100 1.556800
-3.163700 1.573800
-3.148200 1.587900
-3.132800 1.599100
-3.117400 1.611200
-3.101900 1.625500
-3.086500 1.640600
-3.071100 1.671200
-3.055600 1.748400
-3.040200 1.903700
-3.024700 2.038900
-3.009300 2.096000
-2.993900 2.142300
-2.978400 2.384500
-2.963000 2.479100
-2.947600 2.625900
-2.932100 2.830300
-2.916700 3.064400
-2.901200 3.385600
-2.885800 4.033500
-2.870400 6.796800
-2.854900 6.123800
-2.839500 5.226600
-2.824100 4.917900
-2.808600 4.671200
-2.793200 4.819800
-2.777700 4.733000
-2.762300 4.474200
-2.746900 4.410300
-2.731400 4.552900
-2.716000 4.955900
-2.700600 5.072700
-2.685100 4.951200
-2.669700 4.737900
-2.654200 4.517200
-2.638800 4.419500
-2.623400 4.327000
-2.607900 4.198200
-2.592500 4.032900
-2.577100 3.896100
-2.561600 3.764600
-2.546200 3.598700
-2.530700 3.377800
-2.515300 3.153500
-2.499900 3.034300
-2.484400 3.032300
-2.469000 2.954500
-2.453600 2.873800
-2.438100 2.785200
-2.422700 2.692000
-2.407300 2.625300
-2.391800 2.561000
-2.376400 2.516400
-2.360900 2.509200
-2.345500 2.455500
-2.330100 2.387200
-2.314600 2.235800
-2.299200 2.121000
-2.283800 2.052600
-2.268300 2.004100
-2.252900 1.959200
-2.237400 1.920000
-2.222000 1.880400
-2.206600 1.844000
-2.191100 1.806000
-2.175700 1.766700
-2.160300 1.733800
-2.144800 1.709200
-2.129400 1.691200
-2.113900 1.675700
-2.098500 1.737800
-2.083100 1.760500
-2.067600 1.790900
-2.052200 1.822800
-2.036800 1.768400
-2.021300 1.716900
-2.005900 1.683200
-1.990400 1.655100
-1.975000 1.634800
-1.959600 1.617400
-1.944100 1.601400
-1.928700 1.586200
-1.913300 1.592700
-1.897800 1.587000
-1.882400 1.569600
-1.866900 1.541200
-1.851500 1.521300
-1.836100 1.507300
-1.820600 1.494000
-1.805200 1.482000
-1.789800 1.470500
-1.774300 1.467800
-1.758900 1.466100
-1.743400 1.464100
-1.728000 1.462300
-1.712600 1.461400
-1.697100 1.461900
-1.681700 1.463800
-1.666300 1.466700
-1.650800 1.479200
-1.635400 1.492200
-1.620000 1.505200
-1.604500 1.527100
-1.589100 1.546700
-1.573600 1.566200
-1.558200 1.608000
-1.542800 1.671300
-1.527300 1.746200
-1.511900 1.827500
-1.496500 1.922800
-1.481000 2.108600
-1.465600 2.374900
-1.450100 2.660200
-1.434700 3.007100
-1.419300 3.505500
-1.403800 4.317100
-1.388400 5.118800
-1.373000 5.432700
-1.357500 5.433600
-1.342100 5.808800
-1.326600 5.829500
-1.311200 4.463900
-1.295800 3.802100
-1.280300 3.308100
-1.264900 2.752300
-1.249500 2.516000
-1.234000 2.164000
-1.218600 1.726800
-1.203100 1.398900
-1.187700 1.227900
-1.172300 1.100400
-1.156800 0.962600
-1.141400 0.826000
-1.126000 0.706800
-1.110500 0.608700
-1.095100 0.540000
-1.079600 0.481100
-1.064200 0.427400
-1.048800 0.379100
-1.033300 0.336200
-1.017900 0.298200
-1.002500 0.263600
-0.987000 0.230800
-0.971600 0.202300
-0.956100 0.175400
-0.940700 0.150300
-0.925300 0.126900
-0.909800 0.112000
-0.894400 0.095400
-0.879000 0.080000
-0.863500 0.065700
-0.848100 0.052600
-0.832700 0.040600
-0.817200 0.029800
-0.801800 0.020200
-0.786300 0.000000
-0.770900 0.000000
-0.755500 0.000000
-0.740000 0.002500
-0.724600 0.501500
-0.709200 0.733300
-0.693700 1.084400
-0.678300 1.257700
-0.662800 1.357000
-0.647400 1.317100
-0.632000 1.237600
-0.616500 1.184300
-0.601100 1.168700
-0.585700 1.194100
-0.570200 1.207000
-0.554800 1.216600
-0.539300 1.221600
-0.523900 1.203700
-0.508500 1.182000
-0.493000 1.191300
-0.477600 1.208400
-0.462200 1.239600
-0.446700 1.277100
-0.431300 1.317800
-0.415800 1.361700
-0.400400 1.373200
-0.385000 1.377100
-0.369500 1.385900
-0.354100 1.414400
-0.338700 1.432900
-0.323200 1.456100
-0.307800 1.465800
-0.292300 1.485300
-0.276900 1.512000
-0.261500 1.545200
-0.246000 1.580600
-0.230600 1.615200
-0.215200 1.650000
-0.199700 1.699100
-0.184300 1.751400
-0.168800 1.799000
-0.153400 1.849500
-0.138000 1.901700
-0.122500 1.966000
-0.107100 2.076300
-0.091700 2.234200
-0.076200 2.302200
-0.060800 2.360200
-0.045400 2.452900
-0.029900 2.852500
-0.014500 3.006500
0.001000 3.138600
0.016400 2.793900
0.031800 2.652900
0.047300 2.611000
0.062700 2.554200
0.078100 2.557500
0.093600 2.604100
0.109000 2.746300
0.124500 3.065900
0.139900 3.348700
0.155300 3.724900
0.170800 3.906400
0.186200 3.919200
0.201600 3.959200
0.217100 3.998100
0.232500 4.088800
0.248000 4.192400
0.263400 4.287100
0.278800 4.326700
0.294300 4.376600
0.309700 4.086600
0.325100 4.160700
0.340600 4.076100
0.356000 3.967800
0.371500 3.864000
0.386900 3.751900
0.402300 3.713700
0.417800 3.704200
0.433200 3.704700
0.448600 3.700300
0.464100 3.840500
0.479500 3.946300
0.495000 3.904700
0.510400 3.652000
0.525800 3.232300
0.541300 2.939400
0.556700 2.842100
0.572100 3.002700
0.587600 3.197000
0.603000 2.851900
0.618500 2.709200
0.633900 2.611600
0.649300 2.546300
0.664800 2.505700
0.680200 2.508400
0.695600 2.549100
0.711100 2.904100
0.726500 3.220000
0.741900 3.004100
0.757400 2.569800
0.772800 2.424000
0.788300 2.178100
0.803700 2.033000
0.819100 1.980000
0.834600 2.002700
0.850000 2.156100
0.865400 2.414800
0.880900 2.811300
0.896300 2.378800
0.911800 2.119400
0.927200 2.178000
0.942600 2.289400
0.958100 2.490800
0.973500 2.707400
0.988900 2.795700
1.004400 2.690100
1.019800 2.706100
1.035300 2.780900
1.050700 2.841300
1.066100 2.900600
1.081600 2.918100
1.097000 3.052300
1.112400 3.132100
1.127900 3.281600
1.143300 3.528200
1.158800 4.021200
1.174200 4.173000
1.189600 3.981200
1.205100 3.796900
1.220500 3.631500
1.235900 3.519900
1.251400 3.495900
1.266800 3.145600
1.282300 2.804100
1.297700 2.617400
1.313100 2.492900
1.328600 2.397500
1.344000 2.314700
1.359400 2.225000
1.374900 2.126100
1.390300 2.059000
1.405800 1.973200
1.421200 1.876100
1.436600 1.788100
1.452100 1.646500
1.467500 1.595600
1.482900 1.534600
1.498400 1.470100
1.513800 1.386200
1.529200 1.339900
1.544700 1.329300
1.560100 1.324100
1.575600 1.411400
1.591000 1.442900
1.606400 1.348000
1.621900 1.262800
1.637300 1.233300
1.652700 1.234400
1.668200 1.255600
1.683600 1.284300
1.699100 1.298400
1.714500 1.374100
1.729900 1.021500
1.745400 0.883400
1.760800 0.709600
1.776200 0.567000
1.791700 0.416500
1.807100 0.280800
1.822600 0.103700
1.838000 0.000000
1.853400 0.000000
1.868900 0.000000
1.884300 0.000000
1.899700 0.000000
1.915200 0.000000
1.930600 0.000000
1.946100 0.000000
1.961500 0.000000
1.976900 0.000000
1.992400 0.000000
2.007800 0.000000
2.023200 0.000000
2.038700 0.000000
2.054100 0.000000
2.069600 0.000000
2.085000 0.000000
2.100400 0.000000
2.115900 0.000000
2.131300 0.000000
2.146700 0.000000
2.162200 0.000000
2.177600 0.000000
2.193100 0.000000
2.208500 0.000000
2.223900 0.000000
2.239400 0.000000
2.254800 0.000000
2.270200 0.000000
2.285700 0.000000
2.301100 0.000000
2.316500 0.000000
2.332000 0.000000
2.347400 0.000000
2.362900 0.000000
2.378300 0.000000
2.393700 0.000000
2.409200 0.000000
2.424600 0.000000
2.440000 0.000000
2.455500 0.000000
2.470900 0.000000
2.486400 0.000000
2.501800 0.000000
2.517200 0.000000
2.532700 0.000000
2.548100 0.000000
2.563500 0.000000
2.579000 0.000000
2.594400 0.000000
2.609900 0.000000
2.625300 0.000000
2.640700 0.000000
2.656200 0.000000
2.671600 0.000000
2.687000 0.000000
2.702500 0.000000
2.717900 0.000000
2.733400 0.000000
2.748800 0.000000
2.764200 0.000000
2.779700 0.000000
2.795100 0.000000
2.810500 0.000000
2.826000 0.000000
2.841400 0.000000
2.856900 0.000000
2.872300 0.000000
2.887700 0.000000
2.903200 0.000000
2.918600 0.000000
2.934000 0.000000
2.949500 0.053400
2.964900 0.062800
2.980400 0.073000
2.995800 0.084100
3.011200 0.096100
3.026700 0.108900
3.042100 0.122500
3.057500 0.135800
3.073000 0.150100
3.088400 0.166400
3.103800 0.183700
3.119300 0.204000
3.134700 0.227700
3.150200 0.252800
3.165600 0.279100
3.181000 0.306700
3.196500 0.379800
3.211900 0.545900
3.227300 0.763100
3.242800 0.901100
3.258200 1.100500
3.273700 1.342600
3.289100 1.532000
3.304500 1.896400
3.320000 2.407100
3.335400 3.187600
3.350800 4.504700
3.366300 3.968500
3.381700 3.598500
3.397200 3.213100
3.412600 3.033400
3.428000 2.859300
3.443500 2.807500
3.458900 2.778700
3.474300 2.761300
3.489800 2.738800
3.505200 2.736800
3.520700 2.750800
3.536100 2.780000
3.551500 2.819200
3.567000 2.864900
3.582400 2.931300
3.597800 3.000600
3.613300 3.062800
3.628700 3.131800
3.644200 3.224900
3.659600 3.365700
3.675000 3.612000
3.690500 3.933500
3.705900 4.109500
3.721300 3.962100
3.736800 3.935800
3.752200 4.028100
3.767700 4.207500
3.783100 3.762100
3.798500 3.673700
3.814000 3.634500
3.829400 3.675000
3.844800 4.025000
3.860300 4.036400
3.875700 3.664500
3.891100 3.320900
3.906600 2.939700
3.922000 2.739300
3.937500 2.666200
3.952900 2.608900
3.968300 2.561900
3.983800 2.533100
3.999200 2.515300
4.014600 2.501100
4.030100 2.485500
4.045500 2.468500
4.061000 2.454100
4.076400 2.443400
4.091800 2.452400
4.107300 2.494200
4.122700 2.566400
4.138100 2.685500
4.153600 2.758400
4.169000 2.809700
4.184500 2.850700
4.199900 2.907900
4.215300 2.983900
4.230800 3.095400
4.246200 3.245300
4.261600 3.417800
4.277100 3.478500
4.292500 3.579000
4.308000 3.669300
4.323400 3.758300
4.338800 3.801800
4.354300 3.789600
4.369700 3.828600
4.385100 3.918900
4.400600 4.036600
4.416000 4.197400
4.431500 4.509000
4.446900 5.231700
4.462300 5.630200
4.477800 3.999300
4.493200 3.687500
4.508600 3.429900
4.524100 3.164000
4.539500 2.899100
4.555000 2.748500
4.570400 2.620200
4.585800 2.502900
4.601300 2.441100
4.616700 2.382600
4.632100 2.329000
4.647600 2.490800
4.663000 2.555900
4.678400 2.768800
4.693900 3.150000
4.709300 3.603700
4.724800 3.590300
4.740200 3.418600
4.755600 3.321200
4.771100 3.207100
4.786500 3.189400
4.801900 2.830500
4.817400 2.721200
4.832800 2.625000
4.848300 2.551600
4.863700 2.358900
4.879100 2.208500
4.894600 2.029900
4.910000 1.876100
4.925400 1.666600
4.940900 1.619500
4.956300 1.574000
4.971800 1.538400
4.987200 1.509500
5.002600 1.484600
5.018100 1.460500
5.033500 1.434900
5.048900 1.400800
5.064400 1.374500
5.079800 1.355200
5.095300 1.335600
5.110700 1.315500
5.126100 1.293500
5.141600 1.273900
5.157000 1.257700
5.172400 1.239200
5.187900 1.223000
5.203300 1.213500
5.218800 1.206200
5.234200 1.189300
5.249600 1.174400
5.265100 1.179500
5.280500 1.148000
5.295900 1.122800
5.311400 1.102700
5.326800 1.094000
5.342300 1.106000
5.357700 1.134600
5.373100 1.134600
5.388600 1.076300
5.404000 0.982600
5.419400 0.865800
5.434900 0.728200
5.450300 0.689100
5.465700 0.631400
5.481200 0.573300
5.496600 0.530600
5.512100 0.489000
5.527500 0.446200
5.542900 0.405400
5.558400 0.366400
5.573800 0.336300
5.589200 0.310700
5.604700 0.283400
5.620100 0.202500
5.635600 0.099300
5.651000 0.045300
5.666400 0.012300
5.681900 0.000100
5.697300 0.000000
5.712700 0.000000
5.728200 0.000000
5.743600 0.000000
5.759100 0.000000
5.774500 0.000000
5.789900 0.000000
5.805400 0.000000
5.820800 0.000000
5.836200 0.000000
5.851700 0.000000
5.867100 0.000000
5.882600 0.000000
5.898000 0.000000
5.913400 0.000000
5.928900 0.000000
5.944300 0.000000
5.959700 0.000000
5.975200 0.000000
5.990600 0.000000
6.006100 0.000000
6.021500 0.000000
6.036900 0.000000
6.052400 0.000000
6.067800 0.000000
6.083200 0.000000
6.098700 0.000000
6.114100 0.000000
6.129600 0.000000
6.145000 0.000000
6.160400 0.000000
6.175900 0.000000
6.191300 0.000000
6.206700 0.000000
6.222200 0.000000
6.237600 0.000000
6.253000 0.000000
6.268500 0.000000
6.283900 0.000000
6.299400 0.000000
6.314800 0.000000
6.330200 0.000000
6.345700 0.000000
6.361100 0.000000
6.376500 0.000000
6.392000 0.000000
6.407400 0.000000
6.422900 0.000000
6.438300 0.000000
6.453700 0.000000
6.469200 0.000000
6.484600 0.000000
6.500000 0.000000
6.515500 0.000000
6.530900 0.000000
6.546400 0.000000
6.561800 0.000000
6.577200 0.000000
6.592700 0.000000
6.608100 0.000000
6.623500 0.000000
6.639000 0.000000
6.654400 0.000000
6.669900 0.000000
6.685300 0.000000
6.700700 0.000000
6.716200 0.000000
6.731600 0.000000
6.747000 0.000000
6.762500 0.000000
6.777900 0.000000
6.793400 0.000000
6.808800 0.000000
6.824200 0.000000
6.839700 0.000000
6.855100 0.000000
6.870500 0.000000
6.886000 0.000000
6.901400 0.000000
6.916900 0.000000
6.932300 0.000000
6.947700 0.000000
6.963200 0.000000
6.978600 0.000000
6.994000 0.000000
7.009500 0.000000
7.024900 0.000000
7.040300 0.000000
7.055800 0.000000
7.071200 0.000000
7.086700 0.000000
7.102100 0.000000
7.117500 0.000000
7.133000 0.000000
7.148400 0.000000
7.163800 0.000000
7.179300 0.000000
7.194700 0.000000
7.210200 0.000000
7.225600 0.000000
7.241000 0.000000
7.256500 0.000000
7.271900 0.000000
7.287300 0.000000
7.302800 0.000000
7.318200 0.000000
7.333700 0.000000
7.349100 0.000000
7.364500 0.000000
7.380000 0.000000
7.395400 0.000000
7.410800 0.000000
7.426300 0.000000
7.441700 0.000000
7.457200 0.000000
7.472600 0.000000
7.488000 0.000000
7.503500 0.010000
7.518900 0.038900
7.534300 0.086700
7.549800 0.186800
7.565200 0.267000
7.580700 0.288800
7.596100 0.325600
7.611500 0.367300
7.627000 0.412500
7.642400 0.456200
7.657800 0.499100
7.673300 0.542400
7.688700 0.588200
7.704200 0.636800
7.719600 0.691100
7.735000 0.752300
7.750500 0.821500
7.765900 0.886000
7.781300 0.982400
7.796800 1.112700
7.812200 1.313900
7.827600 1.835300
7.843100 2.060700
7.858500 2.315400
7.874000 2.610600
7.889400 2.709500
7.904800 2.825100
7.920300 2.716500
7.935700 2.553000
7.951100 2.446500
7.966600 2.329400
7.982000 2.203800
7.997500 2.107600
8.012900 2.034800
8.028300 1.996600
8.043800 1.983900
8.059200 1.967700
8.074600 1.990700
8.090100 2.032400
8.105500 2.045600
8.121000 2.085400
8.136400 2.147200
8.151800 2.249600
8.167300 2.387700
8.182700 2.848600
8.198100 4.514600
8.213600 6.429600
8.229000 7.756400
8.244500 7.257500
8.259900 5.859100
8.275300 4.104700
8.290800 3.310400
8.306200 3.017500
8.321600 2.774700
8.337100 2.623300
8.352500 2.530500
8.368000 2.812600
8.383400 2.806000
8.398800 3.012900
8.414300 3.497300
8.429700 3.617300
8.445100 3.205400
8.460600 2.788900
8.476000 2.135800
8.491500 1.646100
8.506900 1.152900
8.522300 1.055500
8.537800 0.998500
8.553200 0.963800
8.568600 0.941300
8.584100 0.932600
8.599500 0.921300
8.614900 0.887900
8.630400 0.883800
8.645800 0.893100
8.661300 0.904400
8.676700 0.919000
8.692100 1.063000
8.707600 1.176000
8.723000 1.247500
8.738400 1.295200
8.753900 1.330600
8.769300 1.371600
8.784800 1.410500
8.800200 1.454900
8.815600 1.507000
8.831100 1.563900
8.846500 1.636600
8.861900 1.754500
8.877400 1.857700
8.892800 1.931200
8.908300 2.037800
8.923700 2.151500
8.939100 2.374400
8.954600 2.753400
8.970000 3.003900
8.985400 3.015500
9.000900 3.008100
9.016300 2.743100
9.031800 2.646300
9.047200 2.561300
9.062600 2.513100
9.078100 2.507800
9.093500 2.475600
9.108900 2.422400
9.124400 2.368400
9.139800 2.415500
9.155300 2.344800
9.170700 2.258700
9.186100 2.180600
9.201600 2.139400
9.217000 2.134700
9.232400 2.113400
9.247900 2.091300
9.263300 2.102300
9.278800 2.124300
9.294200 2.157300
9.309600 2.213400
9.325100 2.252800
9.340500 2.230300
9.355900 2.144600
9.371400 2.071000
9.386800 2.047000
9.402200 2.039100
9.417700 2.067300
9.433100 2.081400
9.448600 2.090000
9.464000 2.106000
9.479400 2.145200
9.494900 2.194900
9.510300 2.263100
9.525700 2.310900
9.541200 2.355500
9.556600 2.411300
9.572100 2.468600
9.587500 2.545500
9.602900 2.637000
9.618400 2.679900
9.633800 2.746500
9.649200 3.140100
9.664700 3.094600
9.680100 3.214900
9.695600 3.190500
9.711000 3.071900
9.726400 2.532800
9.741900 2.077400
9.757300 1.902700
9.772700 1.822900
9.788200 1.756700
9.803600 1.806900
9.819100 1.859900
9.834500 1.914700
9.849900 2.028000
9.865400 2.069100
9.880800 2.074100
9.896200 2.044800
9.911700 2.052600
9.927100 2.072800
9.942600 2.102300
9.958000 2.132100
9.973400 2.170800
9.988900 2.283000
10.004300 2.395900
10.019700 2.502100
10.035200 2.585200
10.050600 2.659700
10.066100 2.731500
10.081500 2.789100
10.096900 2.827000
10.112400 2.842300
10.127800 2.886900
10.143200 2.927000
10.158700 2.956500
10.174100 2.988200
10.189500 3.015500
10.205000 2.985100
10.220400 3.012600
10.235900 2.960300
10.251300 2.845200
10.266700 2.722200
10.282200 2.667900
10.297600 2.626700
10.313000 2.577800
10.328500 2.569900
10.343900 2.582600
10.359400 2.595100
10.374800 2.591300
10.390200 2.585000
10.405700 2.545700
10.421100 2.526300
10.436500 2.526300
10.452000 2.528800
10.467400 2.533100
10.482900 2.540200
10.498300 2.569500
10.513700 2.631700
10.529200 2.770300
10.544600 3.041700
10.560000 2.858700
10.575500 2.706300
10.590900 2.668400
10.606400 2.679500
10.621800 2.714200
10.637200 2.737700
10.652700 2.750000
10.668100 2.737500
10.683500 2.737200
10.699000 2.768000
10.714400 2.807700
10.729900 2.852400
10.745300 2.889100
10.760700 2.881300
10.776200 2.871900
10.791600 2.866000
10.807000 2.819200
10.822500 2.734600
10.837900 2.623100
10.853400 2.475400
10.868800 2.274800
10.884200 2.088300
10.899700 1.961700
10.915100 1.884900
10.930500 1.823500
10.946000 1.775300
10.961400 1.734700
10.976800 1.711400
10.992300 1.713900
11.007700 1.716700
11.023200 1.737400
11.038600 1.797900
11.054000 1.928200
11.069500 2.156400
11.084900 2.355000
11.100300 2.463000
11.115800 2.580400
11.131200 2.664600
11.146700 2.693000
11.162100 2.607000
11.177500 2.516300
11.193000 2.496100
11.208400 2.449200
11.223800 2.410900
11.239300 2.363500
11.254700 2.321500
11.270200 2.188500
11.285600 2.097300
11.301000 1.984900
11.316500 1.882600
11.331900 1.820900
11.347300 1.778700
11.362800 1.746700
11.378200 1.730300
11.393700 1.749600
11.409100 1.838000
11.424500 1.945400
11.440000 1.952600
11.455400 1.853400
11.470800 1.817300
11.486300 1.778800
11.501700 1.740700
11.517200 1.718500
11.532600 1.726100
11.548000 1.794900
11.563500 1.951100
11.578900 2.263500
11.594300 2.417400
11.609800 2.575600
11.625200 2.759900
11.640700 2.896100
11.656100 3.057300
11.671500 3.166300
11.687000 3.199700
11.702400 3.240200
11.717800 3.217100
11.733300 3.080300
11.748700 2.887600
11.764100 2.979600
11.779600 2.731700
11.795000 2.579500
11.810500 2.431500
11.825900 2.313000
11.841300 2.121700
11.856800 1.932300
11.872200 1.883300
11.887600 1.862200
11.903100 1.841000
11.918500 1.845400
11.934000 1.859400
11.949400 1.886100
11.964800 1.937200
11.980300 2.000900
11.995700 2.101400
12.011100 2.265500
12.026600 2.450600
12.042000 2.607500
12.057500 2.721300
12.072900 2.828800
12.088300 2.944900
12.103800 3.065500
12.119200 3.188800
12.134600 3.382000
12.150100 3.572100
12.165500 3.720100
12.181000 3.866800
12.196400 3.899800
12.211800 3.755000
12.227300 3.686200
12.242700 3.712100
12.258100 3.715900
12.273600 3.768600
12.289000 3.842600
12.304500 3.772000
12.319900 3.622900
12.335300 3.454400
12.350800 3.293500
12.366200 3.182800
12.381600 3.015300
12.397100 2.895100
12.412500 2.809700
12.428000 2.835500
12.443400 3.075700
12.458800 3.094500
12.474300 3.136900
12.489700 3.245900
12.505100 3.343600
12.520600 3.421500
12.536000 3.650300
12.551400 3.613600
12.566900 3.809900
12.582300 3.731000
12.597800 3.589600
12.613200 3.415800
12.628600 3.313600
12.644100 3.210200
12.659500 3.002500
12.674900 2.836700
12.690400 2.698900
12.705800 2.560300
12.721300 2.407300
12.736700 2.258900
12.752100 2.131400
12.767600 2.017500
12.783000 1.970400
12.798400 2.076900
12.813900 2.166800
12.829300 2.308700
12.844800 2.432800
12.860200 2.480300
12.875600 2.578800
12.891100 2.590300
12.906500 2.599000
12.921900 2.478200
12.937400 2.388400
12.952800 2.416500
12.968300 2.490500
12.983700 2.593200
12.999100 2.690400
13.014600 2.704700
13.030000 2.606200
13.045400 2.584700
13.060900 2.622200
13.076300 2.709000
13.091800 2.807500
13.107200 2.932500
13.122600 2.856700
13.138100 2.673600
13.153500 2.492200
13.168900 2.365900
13.184400 2.278300
13.199800 2.216500
13.215300 2.178600
13.230700 2.141300
13.246100 2.127400
13.261600 2.114800
13.277000 2.120500
13.292400 2.182100
13.307900 2.100800
13.323300 2.052900
13.338700 2.022500
13.354200 1.993400
13.369600 1.959400
13.385100 1.926500
13.400500 1.888500
13.415900 1.862600
13.431400 1.929200
13.446800 2.026700
13.462200 2.096500
13.477700 2.130900
13.493100 2.146500
13.508600 2.164100
13.524000 2.185000
13.539400 2.190300
13.554900 2.220900
13.570300 2.252800
13.585700 2.303400
13.601200 2.357600
13.616600 2.396600
13.632100 2.405100
13.647500 2.393600
13.662900 2.382500
13.678400 2.374100
13.693800 2.374100
13.709200 2.373900
13.724700 2.407100
13.740100 2.503800
13.755600 2.700200
13.771000 2.911400
13.786400 3.086500
13.801900 3.204800
13.817300 3.231900
13.832700 3.170000
13.848200 3.099100
13.863600 2.965000
13.879100 2.825100
13.894500 2.708700
13.909900 2.661000
13.925400 2.589600
13.940800 2.485700
13.956200 2.408900
13.971700 2.328600
13.987100 2.245700
14.002600 2.156000
14.018000 2.060300
14.033400 1.959500
14.048900 1.893900
14.064300 1.836900
14.079700 1.725400
14.095200 1.626900
14.110600 1.576100
14.126000 1.443900
14.141500 1.383700
14.156900 1.333800
14.172400 1.287700
14.187800 1.217400
14.203200 1.132900
14.218700 1.065100
14.234100 0.979700
14.249500 0.874300
14.265000 0.770400
14.280400 0.720500
14.295900 0.683700
14.311300 0.637000
14.326700 0.593400
14.342200 0.548800
14.357600 0.507200
14.373000 0.447300
14.388500 0.398400
14.403900 0.345900
14.419400 0.289900
14.434800 0.204700
14.450200 0.138200
14.465700 0.094600
14.481100 0.075100
14.496500 0.059400
14.512000 0.046300
14.527400 0.035300
14.542900 0.026100
14.558300 0.000500
14.573700 0.000000
14.589200 0.000000
14.604600 0.000000
14.620000 0.000000
14.635500 0.000000
14.650900 0.000000
14.666400 0.000000
14.681800 0.000000
14.697200 0.000000
14.712700 0.000000
14.728100 0.000000
14.743500 0.000000
14.759000 0.000000
14.774400 0.000000
14.789900 0.000000
14.805300 0.000000
14.820700 0.000000
14.836200 0.000000
14.851600 0.000000
14.867000 0.000000
14.882500 0.000000
14.897900 0.000000
14.913300 0.000000
14.928800 0.000000
14.944200 0.000000
14.959700 0.000000
14.975100 0.000000
14.990500 0.000000
15.006000 0.000000
15.021400 0.000000
15.036800 0.000000
15.052300 0.000000
15.067700 0.000000
15.083200 0.000000
15.098600 0.000000
15.114000 0.000000
15.129500 0.000000
15.144900 0.000000
15.160300 0.000000
15.175800 0.000000
15.191200 0.000000
15.206700 0.000000
15.222100 0.000000
15.237500 0.000000
15.253000 0.000000
15.268400 0.000000
15.283800 0.000000
15.299300 0.000000
15.314700 0.000000
15.330200 0.000000
15.345600 0.000000
15.361000 0.000000
15.376500 0.000000
15.391900 0.000000
15.407300 0.000000
15.422800 0.000000
15.438200 0.000000
15.453700 0.000000
15.469100 0.000000
15.484500 0.000000
15.500000 0.000000
15.515400 0.000000
15.530800 0.000000
15.546300 0.000000
15.561700 0.000000
15.577200 0.000000
15.592600 0.000000
15.608000 0.000000
15.623500 0.000000
15.638900 0.000000
15.654300 0.000000
15.669800 0.000000
15.685200 0.000000
15.700600 0.000000
15.716100 0.000000
15.731500 0.000000
15.747000 0.000000
15.762400 0.000000
15.777800 0.000000
15.793300 0.000000
15.808700 0.000000
15.824100 0.000000
15.839600 0.000000
15.855000 0.000000
15.870500 0.000000
15.885900 0.000000
15.901300 0.000000
15.916800 0.000000
15.932200 0.000000
15.947600 0.000000
15.963100 0.000000
15.978500 0.000000
e
