set title 'mp-571495 - Density of States'
set xlabel 'Energy (eV)'
set ylabel 'DOS (states/eV)'
set grid
set xrange [-10:10]
set yrange [0:23.583]
set xzeroaxis lt -1
set terminal png size 800,600
set output 'mp-571495_dos_gnuplot.png'
plot '-' using 1:2 with lines title 'DOS'
-22.819100 0.000000
-22.798200 0.000000
-22.777300 0.000000
-22.756400 0.000000
-22.735400 0.000000
-22.714500 0.000000
-22.693600 0.000000
-22.672700 0.000000
-22.651800 0.000000
-22.630900 0.000000
-22.610000 0.000000
-22.589100 0.000000
-22.568200 0.000000
-22.547300 0.000000
-22.526400 0.000000
-22.505500 0.000000
-22.484600 0.000000
-22.463700 0.000000
-22.442800 0.000000
-22.421800 0.000000
-22.400900 0.000000
-22.380000 0.000000
-22.359100 0.000000
-22.338200 0.000000
-22.317300 0.000000
-22.296400 0.000000
-22.275500 0.000000
-22.254600 0.000000
-22.233700 0.000000
-22.212800 0.000000
-22.191900 0.000000
-22.171000 0.000000
-22.150100 0.000000
-22.129200 0.000000
-22.108200 0.000000
-22.087300 0.000000
-22.066400 0.000000
-22.045500 0.000000
-22.024600 0.000000
-22.003700 0.000000
-21.982800 0.000000
-21.961900 0.000000
-21.941000 0.000000
-21.920100 0.000000
-21.899200 0.000000
-21.878300 0.000000
-21.857400 0.000000
-21.836500 0.000000
-21.815600 0.000000
-21.794600 0.000000
-21.773700 0.000000
-21.752800 0.000000
-21.731900 0.000000
-21.711000 0.000000
-21.690100 0.000000
-21.669200 0.000000
-21.648300 0.000000
-21.627400 0.000000
-21.606500 0.000000
-21.585600 0.000000
-21.564700 0.000000
-21.543800 0.000000
-21.522900 0.000000
-21.502000 0.000000
-21.481000 0.000000
-21.460100 0.000000
-21.439200 0.000000
-21.418300 0.000000
-21.397400 0.000000
-21.376500 0.000000
-21.355600 0.000000
-21.334700 0.000000
-21.313800 0.000000
-21.292900 0.000000
-21.272000 0.000000
-21.251100 0.000000
-21.230200 0.000000
-21.209300 0.000000
-21.188400 0.000000
-21.167400 0.000000
-21.146500 0.000000
-21.125600 0.000000
-21.104700 0.000000
-21.083800 0.000000
-21.062900 0.000000
-21.042000 0.000000
-21.021100 0.000000
-21.000200 0.000000
-20.979300 0.000000
-20.958400 0.000000
-20.937500 0.000000
-20.916600 2.096700
-20.895700 37.792500
-20.874800 45.910300
-20.853800 106.678700
-20.832900 89.567300
-20.812000 120.343400
-20.791100 95.728800
-20.770200 101.832800
-20.749300 147.353200
-20.728400 68.019400
-20.707500 72.710500
-20.686600 21.289800
-20.665700 35.079300
-20.644800 26.140800
-20.623900 12.623600
-20.603000 127.064800
-20.582100 39.471300
-20.561200 0.000000
-20.540300 0.000000
-20.519300 0.000000
-20.498400 0.000000
-20.477500 0.000000
-20.456600 0.000000
-20.435700 0.000000
-20.414800 0.000000
-20.393900 0.000000
-20.373000 0.000000
-20.352100 0.000000
-20.331200 0.000000
-20.310300 0.000000
-20.289400 0.000000
-20.268500 0.000000
-20.247600 0.000000
-20.226700 0.000000
-20.205700 0.000000
-20.184800 0.000000
-20.163900 0.000000
-20.143000 0.000000
-20.122100 0.000000
-20.101200 0.000000
-20.080300 0.000000
-20.059400 0.000000
-20.038500 0.000000
-20.017600 0.000000
-19.996700 0.000000
-19.975800 0.000000
-19.954900 0.000000
-19.934000 0.000000
-19.913100 0.000000
-19.892100 0.000000
-19.871200 0.000000
-19.850300 0.000000
-19.829400 0.000000
-19.808500 0.000000
-19.787600 0.000000
-19.766700 0.000000
-19.745800 0.000000
-19.724900 0.000000
-19.704000 0.000000
-19.683100 0.000000
-19.662200 0.000000
-19.641300 0.000000
-19.620400 0.000000
-19.599500 0.000000
-19.578500 0.000000
-19.557600 0.000000
-19.536700 0.000000
-19.515800 0.000000
-19.494900 0.000000
-19.474000 0.000000
-19.453100 0.000000
-19.432200 0.000000
-19.411300 0.000000
-19.390400 0.000000
-19.369500 0.000000
-19.348600 0.000000
-19.327700 0.000000
-19.306800 0.000000
-19.285900 0.000000
-19.264900 0.000000
-19.244000 0.000000
-19.223100 0.000000
-19.202200 0.000000
-19.181300 0.000000
-19.160400 0.000000
-19.139500 0.000000
-19.118600 0.000000
-19.097700 0.000000
-19.076800 0.000000
-19.055900 0.000000
-19.035000 0.000000
-19.014100 0.000000
-18.993200 0.000000
-18.972300 0.000000
-18.951300 0.000000
-18.930400 0.000000
-18.909500 0.000000
-18.888600 0.000000
-18.867700 0.000000
-18.846800 0.000000
-18.825900 0.000000
-18.805000 0.000000
-18.784100 0.000000
-18.763200 0.000000
-18.742300 0.000000
-18.721400 0.000000
-18.700500 0.000000
-18.679600 0.000000
-18.658700 0.000000
-18.637700 0.000000
-18.616800 0.000000
-18.595900 0.000000
-18.575000 0.000000
-18.554100 0.000000
-18.533200 0.000000
-18.512300 0.000000
-18.491400 0.000000
-18.470500 0.000000
-18.449600 0.000000
-18.428700 0.000000
-18.407800 0.000000
-18.386900 0.000000
-18.366000 0.000000
-18.345100 0.000000
-18.324100 0.000000
-18.303200 0.000000
-18.282300 0.000000
-18.261400 0.000000
-18.240500 0.000000
-18.219600 0.000000
-18.198700 0.000000
-18.177800 0.000000
-18.156900 0.000000
-18.136000 0.000000
-18.115100 0.000000
-18.094200 0.000000
-18.073300 0.000000
-18.052400 0.000000
-18.031500 0.000000
-18.010500 0.000000
-17.989600 0.000000
-17.968700 0.000000
-17.947800 0.000000
-17.926900 0.000000
-17.906000 0.000000
-17.885100 0.000000
-17.864200 0.000000
-17.843300 0.000000
-17.822400 0.000000
-17.801500 0.000000
-17.780600 0.000000
-17.759700 0.000000
-17.738800 0.000000
-17.717900 0.000000
-17.696900 0.000000
-17.676000 0.000000
-17.655100 0.000000
-17.634200 0.000000
-17.613300 0.000000
-17.592400 0.000000
-17.571500 0.000000
-17.550600 0.000000
-17.529700 0.000000
-17.508800 0.000000
-17.487900 0.000000
-17.467000 0.000000
-17.446100 0.000000
-17.425200 0.000000
-17.404300 0.000000
-17.383300 0.000000
-17.362400 0.000000
-17.341500 0.000000
-17.320600 0.000000
-17.299700 0.000000
-17.278800 0.000000
-17.257900 0.000000
-17.237000 0.000000
-17.216100 0.000000
-17.195200 0.000000
-17.174300 0.000000
-17.153400 0.000000
-17.132500 0.000000
-17.111600 0.000000
-17.090700 0.000000
-17.069700 0.000000
-17.048800 0.000000
-17.027900 0.000000
-17.007000 0.000000
-16.986100 0.000000
-16.965200 0.000000
-16.944300 0.000000
-16.923400 0.000000
-16.902500 0.000000
-16.881600 0.000000
-16.860700 0.000000
-16.839800 0.000000
-16.818900 0.000000
-16.798000 0.000000
-16.777100 0.000000
-16.756100 0.000000
-16.735200 0.000000
-16.714300 0.000000
-16.693400 0.000000
-16.672500 0.000000
-16.651600 0.000000
-16.630700 0.000000
-16.609800 0.000000
-16.588900 0.000000
-16.568000 0.000000
-16.547100 0.000000
-16.526200 0.000000
-16.505300 0.000000
-16.484400 0.000000
-16.463500 0.000000
-16.442500 0.000000
-16.421600 0.000000
-16.400700 0.000000
-16.379800 0.000000
-16.358900 0.000000
-16.338000 0.000000
-16.317100 0.000000
-16.296200 0.000000
-16.275300 0.000000
-16.254400 0.000000
-16.233500 0.000000
-16.212600 0.000000
-16.191700 0.000000
-16.170800 0.000000
-16.149900 0.000000
-16.128900 0.000000
-16.108000 0.000000
-16.087100 0.000000
-16.066200 0.000000
-16.045300 0.000000
-16.024400 0.000000
-16.003500 0.000000
-15.982600 0.000000
-15.961700 0.000000
-15.940800 0.000000
-15.919900 0.000000
-15.899000 0.000000
-15.878100 0.000000
-15.857200 0.000000
-15.836300 0.000000
-15.815300 0.000000
-15.794400 0.000000
-15.773500 0.000000
-15.752600 0.000000
-15.731700 0.000000
-15.710800 0.000000
-15.689900 0.000000
-15.669000 0.000000
-15.648100 0.000000
-15.627200 0.000000
-15.606300 0.000000
-15.585400 0.000000
-15.564500 0.000000
-15.543600 0.000000
-15.522700 0.000000
-15.501700 0.000000
-15.480800 0.000000
-15.459900 0.000000
-15.439000 0.000000
-15.418100 0.000000
-15.397200 0.000000
-15.376300 0.000000
-15.355400 0.000000
-15.334500 0.000000
-15.313600 0.000000
-15.292700 0.000000
-15.271800 0.000000
-15.250900 0.000000
-15.230000 0.000000
-15.209100 0.000000
-15.188100 0.000000
-15.167200 0.000000
-15.146300 0.000000
-15.125400 0.000000
-15.104500 0.000000
-15.083600 0.000000
-15.062700 0.000000
-15.041800 0.000000
-15.020900 0.000000
-15.000000 0.000000
-14.979100 0.000000
-14.958200 0.000000
-14.937300 0.000000
-14.916400 0.000000
-14.895500 0.000000
-14.874500 0.000000
-14.853600 0.000000
-14.832700 0.000000
-14.811800 0.000000
-14.790900 0.000000
-14.770000 0.000000
-14.749100 0.000000
-14.728200 0.000000
-14.707300 0.000000
-14.686400 0.000000
-14.665500 0.000000
-14.644600 0.000000
-14.623700 0.000000
-14.602800 0.000000
-14.581900 0.000000
-14.560900 0.000000
-14.540000 0.000000
-14.519100 0.000000
-14.498200 0.000000
-14.477300 0.000000
-14.456400 0.000000
-14.435500 0.000000
-14.414600 0.000000
-14.393700 0.000000
-14.372800 0.000000
-14.351900 0.000000
-14.331000 0.000000
-14.310100 0.000000
-14.289200 0.000000
-14.268300 0.000000
-14.247300 0.000000
-14.226400 0.000000
-14.205500 0.000000
-14.184600 0.000000
-14.163700 0.000000
-14.142800 0.000000
-14.121900 0.000000
-14.101000 0.000000
-14.080100 0.000000
-14.059200 0.000000
-14.038300 0.000000
-14.017400 0.000000
-13.996500 0.000000
-13.975600 0.000000
-13.954700 0.000000
-13.933800 0.000000
-13.912800 0.000000
-13.891900 0.000000
-13.871000 0.000000
-13.850100 0.000000
-13.829200 0.000000
-13.808300 0.000000
-13.787400 0.000000
-13.766500 0.000000
-13.745600 0.000000
-13.724700 0.000000
-13.703800 0.000000
-13.682900 0.000000
-13.662000 0.000000
-13.641100 0.000000
-13.620200 0.000000
-13.599200 0.000000
-13.578300 0.000000
-13.557400 0.000000
-13.536500 0.000000
-13.515600 0.000000
-13.494700 0.000000
-13.473800 0.000000
-13.452900 0.000000
-13.432000 0.000000
-13.411100 0.000000
-13.390200 0.000000
-13.369300 0.000000
-13.348400 0.000000
-13.327500 0.000000
-13.306600 0.000000
-13.285600 0.000000
-13.264700 0.000000
-13.243800 0.000000
-13.222900 0.000000
-13.202000 0.000000
-13.181100 0.000000
-13.160200 0.000000
-13.139300 0.000000
-13.118400 0.000000
-13.097500 0.000000
-13.076600 0.000000
-13.055700 0.000000
-13.034800 0.000000
-13.013900 0.000000
-12.993000 0.000000
-12.972000 0.000000
-12.951100 0.000000
-12.930200 0.000000
-12.909300 0.000000
-12.888400 0.000000
-12.867500 0.000000
-12.846600 0.000000
-12.825700 0.000000
-12.804800 0.000000
-12.783900 0.000000
-12.763000 0.000000
-12.742100 0.000000
-12.721200 0.000000
-12.700300 0.000000
-12.679400 0.000000
-12.658400 0.000000
-12.637500 0.000000
-12.616600 0.000000
-12.595700 0.000000
-12.574800 0.000000
-12.553900 0.000000
-12.533000 0.000000
-12.512100 0.000000
-12.491200 0.000000
-12.470300 0.000000
-12.449400 0.000000
-12.428500 0.000000
-12.407600 0.000000
-12.386700 0.000000
-12.365800 0.000000
-12.344800 0.000000
-12.323900 0.000000
-12.303000 0.000000
-12.282100 0.000000
-12.261200 0.000000
-12.240300 0.000000
-12.219400 0.000000
-12.198500 0.000000
-12.177600 0.000000
-12.156700 0.000000
-12.135800 0.000000
-12.114900 0.000000
-12.094000 0.000000
-12.073100 0.000000
-12.052200 0.000000
-12.031200 0.000000
-12.010300 0.000000
-11.989400 0.000000
-11.968500 0.000000
-11.947600 0.000000
-11.926700 0.000000
-11.905800 0.000000
-11.884900 0.000000
-11.864000 0.000000
-11.843100 0.000000
-11.822200 0.000000
-11.801300 0.000000
-11.780400 0.000000
-11.759500 0.000000
-11.738600 0.000000
-11.717600 0.000000
-11.696700 0.000000
-11.675800 0.000000
-11.654900 0.000000
-11.634000 0.000000
-11.613100 0.000000
-11.592200 0.000000
-11.571300 0.000000
-11.550400 0.000000
-11.529500 0.000000
-11.508600 0.000000
-11.487700 0.000000
-11.466800 0.000000
-11.445900 0.000000
-11.425000 0.000000
-11.404000 0.000000
-11.383100 0.000000
-11.362200 0.000000
-11.341300 0.000000
-11.320400 0.000000
-11.299500 0.000000
-11.278600 0.000000
-11.257700 0.000000
-11.236800 0.000000
-11.215900 0.000000
-11.195000 0.000000
-11.174100 0.000000
-11.153200 0.000000
-11.132300 0.000000
-11.111400 0.000000
-11.090400 0.000000
-11.069500 0.000000
-11.048600 0.000000
-11.027700 0.000000
-11.006800 0.000000
-10.985900 0.000000
-10.965000 0.000000
-10.944100 0.000000
-10.923200 0.000000
-10.902300 0.000000
-10.881400 0.000000
-10.860500 0.000000
-10.839600 0.000000
-10.818700 0.000000
-10.797800 0.000000
-10.776800 0.000000
-10.755900 0.000000
-10.735000 0.000000
-10.714100 0.000000
-10.693200 0.000000
-10.672300 0.000000
-10.651400 0.000000
-10.630500 0.000000
-10.609600 0.000000
-10.588700 0.000000
-10.567800 0.000000
-10.546900 0.000000
-10.526000 0.000000
-10.505100 0.000000
-10.484200 0.000000
-10.463200 0.000000
-10.442300 0.000000
-10.421400 0.000000
-10.400500 0.000000
-10.379600 0.000000
-10.358700 0.000000
-10.337800 0.000000
-10.316900 0.000000
-10.296000 0.000000
-10.275100 0.000000
-10.254200 0.000000
-10.233300 0.000000
-10.212400 0.000000
-10.191500 0.000000
-10.170600 0.000000
-10.149600 0.000000
-10.128700 0.000000
-10.107800 0.000000
-10.086900 0.000000
-10.066000 0.000000
-10.045100 0.000000
-10.024200 0.000000
-10.003300 0.000000
-9.982400 0.000000
-9.961500 0.000000
-9.940600 0.000000
-9.919700 0.000000
-9.898800 0.000000
-9.877900 0.000000
-9.857000 0.000000
-9.836000 0.000000
-9.815100 0.000000
-9.794200 0.000000
-9.773300 0.000000
-9.752400 0.000000
-9.731500 0.000000
-9.710600 0.000000
-9.689700 0.000000
-9.668800 0.073600
-9.647900 0.577300
-9.627000 1.004700
-9.606100 1.149300
-9.585200 1.457200
-9.564300 1.745000
-9.543400 1.986600
-9.522400 2.292100
-9.501500 2.572500
-9.480600 2.946500
-9.459700 4.384300
-9.438800 4.254800
-9.417900 4.237000
-9.397000 3.957200
-9.376100 4.486300
-9.355200 7.999800
-9.334300 6.565600
-9.313400 6.828400
-9.292500 7.055100
-9.271600 7.052900
-9.250700 7.322600
-9.229800 7.486100
-9.208800 7.663300
-9.187900 8.400700
-9.167000 8.023000
-9.146100 7.721000
-9.125200 7.839100
-9.104300 8.286000
-9.083400 8.661700
-9.062500 9.075500
-9.041600 14.675100
-9.020700 21.439500
-8.999800 0.000000
-8.978900 0.000000
-8.958000 0.000000
-8.937100 0.000000
-8.916200 0.000000
-8.895200 0.000000
-8.874300 0.000000
-8.853400 0.000000
-8.832500 0.000000
-8.811600 0.000000
-8.790700 0.000000
-8.769800 0.000000
-8.748900 0.000000
-8.728000 0.000000
-8.707100 0.000000
-8.686200 0.000000
-8.665300 0.000000
-8.644400 0.000000
-8.623500 0.000000
-8.602600 0.000000
-8.581600 0.000000
-8.560700 0.000000
-8.539800 0.000000
-8.518900 0.000000
-8.498000 0.000000
-8.477100 0.000000
-8.456200 0.000000
-8.435300 0.000000
-8.414400 0.000000
-8.393500 0.000000
-8.372600 0.000000
-8.351700 0.000000
-8.330800 0.000000
-8.309900 0.000000
-8.289000 0.000000
-8.268000 0.000000
-8.247100 0.000000
-8.226200 0.000000
-8.205300 0.000000
-8.184400 0.000000
-8.163500 0.000000
-8.142600 0.000000
-8.121700 0.000000
-8.100800 0.000000
-8.079900 0.000000
-8.059000 0.000000
-8.038100 0.000000
-8.017200 0.000000
-7.996300 0.000000
-7.975400 0.000000
-7.954400 0.000000
-7.933500 0.000000
-7.912600 0.000000
-7.891700 0.000000
-7.870800 0.000000
-7.849900 0.000000
-7.829000 0.000000
-7.808100 0.000000
-7.787200 0.000000
-7.766300 0.000000
-7.745400 0.000000
-7.724500 0.000000
-7.703600 0.000000
-7.682700 0.000000
-7.661800 0.000000
-7.640800 0.000000
-7.619900 0.000000
-7.599000 0.000000
-7.578100 0.000000
-7.557200 0.000000
-7.536300 0.000000
-7.515400 0.000000
-7.494500 0.000000
-7.473600 0.000000
-7.452700 0.000000
-7.431800 0.000000
-7.410900 0.000000
-7.390000 0.000000
-7.369100 0.000000
-7.348200 0.000000
-7.327300 0.000000
-7.306300 0.000000
-7.285400 0.000000
-7.264500 0.000000
-7.243600 0.000000
-7.222700 0.000000
-7.201800 0.000000
-7.180900 0.000000
-7.160000 0.000000
-7.139100 0.000000
-7.118200 0.000000
-7.097300 0.000000
-7.076400 0.000000
-7.055500 0.000000
-7.034600 0.000000
-7.013700 0.000000
-6.992700 0.000000
-6.971800 0.000000
-6.950900 0.000000
-6.930000 0.000000
-6.909100 0.000000
-6.888200 0.000000
-6.867300 0.000000
-6.846400 0.000000
-6.825500 0.000000
-6.804600 0.000000
-6.783700 0.000000
-6.762800 0.000000
-6.741900 0.000000
-6.721000 0.000000
-6.700100 0.000000
-6.679100 0.000000
-6.658200 0.000000
-6.637300 0.000000
-6.616400 0.000000
-6.595500 0.000000
-6.574600 0.000000
-6.553700 0.000000
-6.532800 0.000000
-6.511900 0.000000
-6.491000 0.000000
-6.470100 0.000000
-6.449200 0.000000
-6.428300 0.000000
-6.407400 0.000000
-6.386500 0.000000
-6.365500 0.000000
-6.344600 0.000000
-6.323700 0.000000
-6.302800 0.000000
-6.281900 0.000000
-6.261000 0.000000
-6.240100 0.000000
-6.219200 0.000000
-6.198300 0.000000
-6.177400 0.000000
-6.156500 0.000000
-6.135600 0.000000
-6.114700 0.000000
-6.093800 0.000000
-6.072900 0.000000
-6.051900 0.000000
-6.031000 0.000000
-6.010100 0.000000
-5.989200 0.000000
-5.968300 0.000000
-5.947400 0.000000
-5.926500 0.000000
-5.905600 0.000000
-5.884700 0.000000
-5.863800 0.000000
-5.842900 0.000000
-5.822000 0.000000
-5.801100 0.000000
-5.780200 0.000000
-5.759300 0.000000
-5.738300 0.000000
-5.717400 0.000000
-5.696500 0.000000
-5.675600 0.000000
-5.654700 0.000000
-5.633800 0.000000
-5.612900 0.000000
-5.592000 0.000000
-5.571100 0.000000
-5.550200 0.000000
-5.529300 0.000000
-5.508400 0.000000
-5.487500 0.000000
-5.466600 0.000000
-5.445700 0.000000
-5.424700 0.000000
-5.403800 0.000000
-5.382900 0.166000
-5.362000 0.440200
-5.341100 0.663800
-5.320200 0.771500
-5.299300 0.842200
-5.278400 1.008000
-5.257500 1.152400
-5.236600 1.275700
-5.215700 1.392900
-5.194800 1.482500
-5.173900 1.539500
-5.153000 1.648400
-5.132100 1.759600
-5.111100 1.871200
-5.090200 1.992600
-5.069300 2.168400
-5.048400 2.415400
-5.027500 2.694600
-5.006600 2.974400
-4.985700 3.254800
-4.964800 3.569100
-4.943900 3.868600
-4.923000 4.137700
-4.902100 4.382100
-4.881200 4.538200
-4.860300 4.659500
-4.839400 4.806800
-4.818500 4.860300
-4.797500 4.955500
-4.776600 5.100000
-4.755700 5.279300
-4.734800 5.617500
-4.713900 6.222800
-4.693000 6.705300
-4.672100 7.201300
-4.651200 7.734800
-4.630300 7.878400
-4.609400 7.738600
-4.588500 6.764500
-4.567600 5.231600
-4.546700 4.936300
-4.525800 4.680200
-4.504900 5.396500
-4.483900 5.353500
-4.463000 4.358800
-4.442100 4.258500
-4.421200 4.466000
-4.400300 4.762300
-4.379400 4.729300
-4.358500 4.699900
-4.337600 4.527900
-4.316700 4.430500
-4.295800 4.530800
-4.274900 4.747100
-4.254000 5.012700
-4.233100 5.390200
-4.212200 5.705800
-4.191300 5.665400
-4.170300 5.472700
-4.149400 5.355100
-4.128500 5.346800
-4.107600 5.328200
-4.086700 5.247100
-4.065800 5.158000
-4.044900 5.117900
-4.024000 4.988200
-4.003100 4.802500
-3.982200 4.453200
-3.961300 3.883000
-3.940400 3.771400
-3.919500 3.947500
-3.898600 3.620100
-3.877700 3.322100
-3.856700 3.093200
-3.835800 2.889700
-3.814900 2.808600
-3.794000 2.743400
-3.773100 2.864700
-3.752200 3.373000
-3.731300 3.872400
-3.710400 3.966200
-3.689500 4.009100
-3.668600 3.985300
-3.647700 4.211800
-3.626800 4.417000
-3.605900 4.631300
-3.585000 4.552500
-3.564100 4.678100
-3.543100 4.715800
-3.522200 4.842200
-3.501300 5.277000
-3.480400 5.803700
-3.459500 5.910100
-3.438600 6.134700
-3.417700 6.158300
-3.396800 6.019000
-3.375900 5.781200
-3.355000 5.582000
-3.334100 5.281700
-3.313200 5.048800
-3.292300 4.905800
-3.271400 4.562200
-3.250500 4.374300
-3.229500 4.242900
-3.208600 4.063100
-3.187700 3.897500
-3.166800 3.939400
-3.145900 4.147300
-3.125000 4.708000
-3.104100 4.593800
-3.083200 4.476500
-3.062300 4.459900
-3.041400 4.382000
-3.020500 4.772500
-2.999600 4.005200
-2.978700 4.049700
-2.957800 4.114800
-2.936900 4.218200
-2.915900 4.350800
-2.895000 4.385300
-2.874100 4.391300
-2.853200 4.996200
-2.832300 4.288900
-2.811400 4.182900
-2.790500 4.100400
-2.769600 4.414000
-2.748700 4.023400
-2.727800 4.512900
-2.706900 4.344300
-2.686000 3.833800
-2.665100 4.107900
-2.644200 4.010700
-2.623300 4.111000
-2.602300 4.047000
-2.581400 3.620400
-2.560500 3.573000
-2.539600 3.539900
-2.518700 3.557100
-2.497800 3.569500
-2.476900 3.575500
-2.456000 3.906100
-2.435100 4.022600
-2.414200 3.717600
-2.393300 3.809900
-2.372400 4.217300
-2.351500 4.185400
-2.330600 4.162400
-2.309700 4.154400
-2.288700 4.356300
-2.267800 4.022400
-2.246900 4.818000
-2.226000 6.480600
-2.205100 6.115500
-2.184200 5.785400
-2.163300 5.454900
-2.142400 5.087400
-2.121500 4.946600
-2.100600 5.626800
-2.079700 4.479100
-2.058800 3.726400
-2.037900 3.641400
-2.017000 3.527100
-1.996100 3.437500
-1.975100 3.416900
-1.954200 3.295400
-1.933300 4.350300
-1.912400 5.361500
-1.891500 4.556200
-1.870600 3.916900
-1.849700 3.799300
-1.828800 3.648400
-1.807900 3.576600
-1.787000 3.469400
-1.766100 3.464000
-1.745200 3.435800
-1.724300 3.427100
-1.703400 3.500800
-1.682500 3.025900
-1.661500 2.643500
-1.640600 2.267200
-1.619700 1.797800
-1.598800 1.745900
-1.577900 1.620700
-1.557000 1.351400
-1.536100 1.357100
-1.515200 1.530900
-1.494300 1.505700
-1.473400 1.452700
-1.452500 1.456600
-1.431600 1.483800
-1.410700 1.445000
-1.389800 1.474000
-1.368900 1.493000
-1.347900 1.519400
-1.327000 1.524000
-1.306100 2.000500
-1.285200 2.612900
-1.264300 3.289000
-1.243400 3.755400
-1.222500 3.250500
-1.201600 3.380800
-1.180700 3.477000
-1.159800 3.645200
-1.138900 3.754200
-1.118000 3.887700
-1.097100 3.525300
-1.076200 3.554200
-1.055300 3.570200
-1.034300 3.595400
-1.013400 3.627800
-0.992500 3.671800
-0.971600 3.720000
-0.950700 3.770600
-0.929800 3.832000
-0.908900 3.917800
-0.888000 3.957100
-0.867100 3.916400
-0.846200 3.859500
-0.825300 3.789100
-0.804400 3.719900
-0.783500 3.641600
-0.762600 3.620700
-0.741700 3.613100
-0.720800 3.607400
-0.699800 3.606100
-0.678900 3.671600
-0.658000 3.709000
-0.637100 3.757700
-0.616200 3.787800
-0.595300 3.616500
-0.574400 3.371000
-0.553500 3.389100
-0.532600 3.410000
-0.511700 3.440300
-0.490800 3.488700
-0.469900 3.557400
-0.449000 3.664200
-0.428100 3.835600
-0.407200 4.073600
-0.386200 4.169800
-0.365300 4.367200
-0.344400 4.676100
-0.323500 4.516200
-0.302600 4.307200
-0.281700 4.107800
-0.260800 4.050600
-0.239900 4.052400
-0.219000 4.062900
-0.198100 4.083600
-0.177200 4.228800
-0.156300 4.285000
-0.135400 4.336900
-0.114500 4.318400
-0.093600 4.442100
-0.072600 4.465500
-0.051700 4.671700
-0.030800 4.527900
-0.009900 4.508900
0.011000 4.473400
0.031900 4.472500
0.052800 4.564800
0.073700 4.580900
0.094600 4.586800
0.115500 4.390900
0.136400 4.280600
0.157300 4.709700
0.178200 4.197200
0.199100 4.350200
0.220000 4.840400
0.241000 5.276700
0.261900 5.967500
0.282800 6.547600
0.303700 7.077800
0.324600 7.569100
0.345500 7.621700
0.366400 6.712600
0.387300 6.217500
0.408200 6.033900
0.429100 6.043600
0.450000 6.001000
0.470900 6.098900
0.491800 6.666200
0.512700 7.248400
0.533600 7.538100
0.554600 7.606700
0.575500 8.193800
0.596400 7.827400
0.617300 7.057600
0.638200 6.745200
0.659100 6.487200
0.680000 6.244200
0.700900 6.046600
0.721800 6.121500
0.742700 6.415700
0.763600 6.589700
0.784500 6.889400
0.805400 6.677300
0.826300 6.436400
0.847200 6.218100
0.868200 6.294800
0.889100 6.088400
0.910000 6.025700
0.930900 6.060300
0.951800 6.209600
0.972700 6.525400
0.993600 6.782400
1.014500 6.984400
1.035400 7.883700
1.056300 8.557900
1.077200 8.194600
1.098100 7.425100
1.119000 6.840000
1.139900 6.485100
1.160800 6.176000
1.181800 5.904800
1.202700 5.914400
1.223600 6.078400
1.244500 6.543400
1.265400 6.629400
1.286300 7.419800
1.307200 7.660300
1.328100 7.808000
1.349000 7.840800
1.369900 9.083900
1.390800 8.918300
1.411700 9.867100
1.432600 8.791600
1.453500 8.814500
1.474400 8.195700
1.495400 8.212200
1.516300 8.440900
1.537200 8.319500
1.558100 8.378500
1.579000 8.751100
1.599900 8.190800
1.620800 7.483000
1.641700 7.022300
1.662600 7.502900
1.683500 7.445300
1.704400 7.726200
1.725300 7.789600
1.746200 7.596400
1.767100 7.395500
1.788000 7.394300
1.809000 7.442700
1.829900 7.558600
1.850800 7.572600
1.871700 7.688300
1.892600 8.520000
1.913500 10.530000
1.934400 10.275700
1.955300 9.613900
1.976200 9.324500
1.997100 9.307400
2.018000 9.265700
2.038900 8.675400
2.059800 8.396600
2.080700 8.349500
2.101600 8.265500
2.122600 8.183700
2.143500 8.291300
2.164400 8.016800
2.185300 7.284300
2.206200 7.084300
2.227100 7.104700
2.248000 7.228000
2.268900 7.015400
2.289800 7.213300
2.310700 6.672600
2.331600 5.994000
2.352500 5.714700
2.373400 5.758600
2.394300 5.903000
2.415200 6.050700
2.436200 6.391200
2.457100 6.679600
2.478000 6.590000
2.498900 6.407500
2.519800 6.666100
2.540700 7.355600
2.561600 7.316600
2.582500 6.606800
2.603400 6.524100
2.624300 7.322300
2.645200 7.641700
2.666100 7.294600
2.687000 7.059300
2.707900 7.046900
2.728800 7.264900
2.749800 7.321100
2.770700 6.921200
2.791600 6.759000
2.812500 6.688800
2.833400 6.658500
2.854300 6.801000
2.875200 6.942900
2.896100 6.827800
2.917000 6.959100
2.937900 6.959600
2.958800 6.884600
2.979700 6.896200
3.000600 6.855800
3.021500 6.813100
3.042400 6.666100
3.063400 6.148100
3.084300 6.127800
3.105200 6.277900
3.126100 4.381100
3.147000 4.079600
3.167900 4.150100
3.188800 4.075000
3.209700 4.186700
3.230600 4.851800
3.251500 4.358900
3.272400 4.420400
3.293300 6.160800
3.314200 5.580600
3.335100 5.972700
3.356000 6.241000
3.377000 6.684900
3.397900 5.755300
3.418800 5.350800
3.439700 5.312900
3.460600 5.388200
3.481500 5.520900
3.502400 6.363100
3.523300 6.458900
3.544200 6.095300
3.565100 5.880300
3.586000 6.239900
3.606900 6.633500
3.627800 7.071700
3.648700 7.668000
3.669600 8.162900
3.690600 8.384600
3.711500 8.428900
3.732400 9.592500
3.753300 9.892100
3.774200 8.994500
3.795100 9.234900
3.816000 8.690900
3.836900 8.104000
3.857800 7.054800
3.878700 6.291100
3.899600 5.575100
3.920500 5.035200
3.941400 4.884200
3.962300 5.002900
3.983200 4.829600
4.004200 4.512100
4.025100 4.308000
4.046000 3.938400
4.066900 5.193700
4.087800 4.800000
4.108700 4.720000
4.129600 5.237800
4.150500 6.050200
4.171400 6.524600
4.192300 6.872500
4.213200 6.010400
4.234100 5.180200
4.255000 4.484000
4.275900 4.607100
4.296800 4.802300
4.317800 5.250900
4.338700 6.536300
4.359600 7.760100
4.380500 7.357900
4.401400 6.760200
4.422300 6.388100
4.443200 5.733600
4.464100 5.179900
4.485000 4.607300
4.505900 4.170100
4.526800 4.112600
4.547700 3.614800
4.568600 3.607700
4.589500 3.671600
4.610400 3.783300
4.631400 3.901700
4.652300 3.824000
4.673200 3.756100
4.694100 3.697700
4.715000 3.696800
4.735900 3.637800
4.756800 3.561200
4.777700 3.470200
4.798600 3.314200
4.819500 3.125800
4.840400 3.044900
4.861300 3.076200
4.882200 2.909900
4.903100 2.745800
4.924000 2.486600
4.945000 2.377000
4.965900 2.310600
4.986800 2.440100
5.007700 2.398800
5.028600 2.164800
5.049500 2.078800
5.070400 1.926500
5.091300 1.858300
5.112200 2.014100
5.133100 2.335600
5.154000 2.675000
5.174900 2.950200
5.195800 3.107600
5.216700 3.089600
5.237600 2.941100
5.258600 2.900400
5.279500 2.885500
5.300400 3.002800
5.321300 3.052200
5.342200 3.092000
5.363100 3.118100
5.384000 3.119800
5.404900 3.125900
5.425800 3.221000
5.446700 3.249200
5.467600 3.277300
5.488500 3.295600
5.509400 3.302100
5.530300 3.317700
5.551200 3.249400
5.572200 3.271100
5.593100 3.204500
5.614000 3.198400
5.634900 3.197300
5.655800 3.195100
5.676700 3.179200
5.697600 3.152800
5.718500 3.096700
5.739400 3.002100
5.760300 3.220700
5.781200 2.486600
5.802100 2.352200
5.823000 2.117500
5.843900 1.938600
5.864800 1.882000
5.885700 1.820700
5.906700 1.756500
5.927600 1.705200
5.948500 1.667200
5.969400 1.650200
5.990300 1.658200
6.011200 1.664600
6.032100 1.652400
6.053000 1.693900
6.073900 1.649000
6.094800 1.554900
6.115700 1.727300
6.136600 1.748900
6.157500 1.667000
6.178400 1.625300
6.199300 1.645800
6.220300 1.692200
6.241200 1.748300
6.262100 1.815500
6.283000 1.883400
6.303900 2.000200
6.324800 2.041000
6.345700 2.140400
6.366600 2.135700
6.387500 2.116300
6.408400 2.118300
6.429300 2.134300
6.450200 2.160000
6.471100 2.227900
6.492000 2.322400
6.512900 2.415400
6.533900 2.636600
6.554800 2.945000
6.575700 2.955500
6.596600 2.619200
6.617500 2.351500
6.638400 2.369600
6.659300 2.443200
6.680200 2.509900
6.701100 2.581900
6.722000 2.651200
6.742900 2.722500
6.763800 2.792300
6.784700 2.797600
6.805600 2.472700
6.826500 2.317500
6.847500 2.332200
6.868400 2.349300
6.889300 2.365600
6.910200 2.324100
6.931100 2.233700
6.952000 2.178900
6.972900 2.156700
6.993800 2.158100
7.014700 2.166900
7.035600 2.166000
7.056500 2.139500
7.077400 2.096300
7.098300 2.813900
7.119200 2.779100
7.140100 2.852000
7.161100 2.913900
7.182000 2.974700
7.202900 3.045000
7.223800 3.125700
7.244700 3.207500
7.265600 3.295100
7.286500 3.632400
7.307400 3.251000
7.328300 3.373300
7.349200 3.419400
7.370100 3.477200
7.391000 3.588100
7.411900 3.542100
7.432800 3.442700
7.453700 3.433500
7.474700 3.427800
7.495600 3.415100
7.516500 3.420100
7.537400 3.430800
7.558300 3.454500
7.579200 3.481700
7.600100 3.526200
7.621000 3.556800
7.641900 3.523400
7.662800 3.433100
7.683700 3.371600
7.704600 3.343400
7.725500 3.361100
7.746400 3.366800
7.767300 3.411400
7.788300 3.453000
7.809200 3.406400
7.830100 3.383200
7.851000 3.430400
7.871900 3.521300
7.892800 3.746200
7.913700 3.874100
7.934600 3.931500
7.955500 3.972400
7.976400 3.980700
7.997300 3.992500
8.018200 3.996300
8.039100 3.967700
8.060000 3.908100
8.080900 3.881700
8.101900 3.905700
8.122800 3.944100
8.143700 3.869700
8.164600 3.778500
8.185500 3.764300
8.206400 3.784000
8.227300 3.826900
8.248200 3.885200
8.269100 3.954300
8.290000 4.065900
8.310900 4.572000
8.331800 4.973800
8.352700 4.960900
8.373600 4.657200
8.394500 4.578600
8.415500 4.588200
8.436400 4.629700
8.457300 4.729700
8.478200 4.839100
8.499100 4.927000
8.520000 4.998300
8.540900 5.202700
8.561800 5.471000
8.582700 5.566600
8.603600 5.612100
8.624500 5.668500
8.645400 5.639700
8.666300 5.617000
8.687200 5.677100
8.708100 6.221100
8.729100 6.401400
8.750000 6.552100
8.770900 6.627900
8.791800 6.678800
8.812700 6.518700
8.833600 6.589600
8.854500 6.758300
8.875400 7.159500
8.896300 7.610000
8.917200 7.827200
8.938100 7.871500
8.959000 7.918600
8.979900 7.775200
9.000800 7.544900
9.021700 7.558200
9.042700 7.518600
9.063600 7.178700
9.084500 6.704700
9.105400 6.272100
9.126300 6.070500
9.147200 5.858200
9.168100 5.609500
9.189000 5.091100
9.209900 5.241100
9.230800 5.286500
9.251700 5.388200
9.272600 5.617800
9.293500 5.912900
9.314400 6.002100
9.335300 5.993900
9.356300 6.115700
9.377200 6.239700
9.398100 6.184700
9.419000 6.633000
9.439900 7.003900
9.460800 7.740800
9.481700 8.726700
9.502600 8.942400
9.523500 9.112300
9.544400 8.982800
9.565300 9.206700
9.586200 8.906300
9.607100 9.752300
9.628000 10.095500
9.648900 9.726900
9.669900 9.348600
9.690800 9.858100
9.711700 9.401800
9.732600 11.236800
9.753500 9.177000
9.774400 9.552100
9.795300 10.644400
9.816200 12.234100
9.837100 12.083600
9.858000 12.396300
9.878900 12.294600
9.899800 12.659800
9.920700 12.939000
9.941600 14.463700
9.962500 14.627200
9.983500 15.443500
10.004400 14.214800
10.025300 14.798600
10.046200 14.338500
10.067100 12.749300
10.088000 12.102000
10.108900 11.689900
10.129800 11.317600
10.150700 11.169700
10.171600 10.825700
10.192500 11.970700
10.213400 10.981700
10.234300 10.721700
10.255200 10.409700
10.276100 9.855600
10.297100 9.469100
10.318000 9.070400
10.338900 9.117500
10.359800 8.690000
10.380700 10.483600
10.401600 10.597100
10.422500 10.903400
10.443400 12.177500
10.464300 12.222600
10.485200 11.748200
10.506100 11.727300
10.527000 11.989200
10.547900 12.454400
10.568800 11.662300
10.589700 11.364900
10.610700 10.964300
10.631600 10.108500
10.652500 9.863100
10.673400 10.455900
10.694300 11.098400
10.715200 11.681100
10.736100 11.953200
10.757000 10.670100
10.777900 9.296700
10.798800 9.099000
10.819700 9.824400
10.840600 11.993700
10.861500 16.171400
10.882400 12.243100
10.903300 12.116400
10.924300 11.387500
10.945200 10.384400
10.966100 9.924300
10.987000 9.760700
11.007900 10.515700
11.028800 11.696900
11.049700 14.671800
11.070600 11.892400
11.091500 12.417700
11.112400 12.844200
11.133300 14.714400
11.154200 12.269700
11.175100 10.983500
11.196000 10.492400
11.216900 10.079600
11.237900 10.272800
11.258800 12.165700
11.279700 11.755600
11.300600 11.546800
11.321500 11.951100
11.342400 12.641800
11.363300 13.313300
11.384200 13.096500
11.405100 13.549000
11.426000 13.440800
11.446900 12.481300
11.467800 11.805800
11.488700 11.695900
11.509600 11.861800
11.530500 11.278900
11.551500 10.866500
11.572400 10.867200
11.593300 10.920900
11.614200 11.239700
11.635100 11.647300
11.656000 12.247300
11.676900 13.015800
11.697800 14.604000
11.718700 13.981000
11.739600 12.797900
11.760500 12.263000
11.781400 11.268900
11.802300 10.264500
11.823200 9.511800
11.844100 9.461500
11.865100 8.759500
11.886000 8.760300
11.906900 9.046500
11.927800 8.456900
11.948700 8.572500
11.969600 9.249200
11.990500 9.265300
12.011400 9.572400
12.032300 10.153100
12.053200 10.924700
12.074100 11.020500
12.095000 11.002400
12.115900 12.120300
12.136800 11.784700
12.157700 11.891800
12.178700 11.884700
12.199600 11.970300
12.220500 11.275700
12.241400 11.108300
12.262300 10.864300
12.283200 10.798400
12.304100 8.956400
12.325000 8.255400
12.345900 8.065800
12.366800 9.172400
12.387700 9.257200
12.408600 9.731200
12.429500 10.324200
12.450400 9.334900
12.471300 7.939300
12.492200 7.660600
12.513200 7.347100
12.534100 7.284100
12.555000 7.521600
12.575900 7.617400
12.596800 8.271600
12.617700 8.923400
12.638600 10.272500
12.659500 12.046300
12.680400 13.530200
12.701300 14.003000
12.722200 13.312800
12.743100 13.506300
12.764000 12.472200
12.784900 10.140700
12.805800 8.926600
12.826800 8.706800
12.847700 9.908700
12.868600 12.250400
12.889500 10.510800
12.910400 7.774100
12.931300 6.514100
12.952200 5.581300
12.973100 5.146100
12.994000 5.175800
13.014900 5.494800
13.035800 5.896300
13.056700 5.959400
13.077600 5.918100
13.098500 6.056800
13.119400 6.771900
13.140400 7.200200
13.161300 8.099200
13.182200 8.159300
13.203100 8.836900
13.224000 8.534500
13.244900 8.380400
13.265800 7.572800
13.286700 7.250500
13.307600 7.316300
13.328500 7.497900
13.349400 7.421800
13.370300 8.162900
13.391200 8.140500
13.412100 9.037300
13.433000 8.640700
13.454000 8.933000
13.474900 8.954600
13.495800 9.107500
13.516700 9.674800
13.537600 9.633200
13.558500 9.385400
13.579400 8.716400
13.600300 7.453600
13.621200 7.204400
13.642100 7.389300
13.663000 7.630200
13.683900 7.902600
13.704800 7.339300
13.725700 7.108100
13.746600 7.256800
13.767600 7.422700
13.788500 7.766200
13.809400 8.073100
13.830300 9.008700
13.851200 9.615900
13.872100 10.086400
13.893000 11.636500
13.913900 10.477600
13.934800 9.585600
13.955700 9.601700
13.976600 9.883000
13.997500 7.774900
14.018400 8.015500
14.039300 8.196200
14.060200 7.865100
14.081200 7.281100
14.102100 7.545000
14.123000 7.847100
14.143900 8.304700
14.164800 8.390900
14.185700 8.815700
14.206600 9.113100
14.227500 8.952400
14.248400 8.271700
14.269300 7.982700
14.290200 8.568100
14.311100 8.855600
14.332000 8.800500
14.352900 8.534000
14.373800 8.015300
14.394800 8.272000
14.415700 8.617600
14.436600 8.673600
14.457500 9.145800
14.478400 9.407300
14.499300 9.468700
14.520200 8.352300
14.541100 6.656500
14.562000 5.684600
14.582900 5.174200
14.603800 4.761400
14.624700 4.972000
14.645600 6.192200
14.666500 8.260200
14.687400 9.437100
14.708400 10.220600
14.729300 10.571200
14.750200 10.276500
14.771100 9.799900
14.792000 8.745000
14.812900 8.418100
14.833800 8.275200
14.854700 8.012600
14.875600 8.268800
14.896500 8.765400
14.917400 9.609800
14.938300 9.353600
14.959200 8.764700
14.980100 8.302500
15.001000 7.774100
15.022000 7.301500
15.042900 6.826800
15.063800 6.705000
15.084700 6.743900
15.105600 6.994000
15.126500 6.941600
15.147400 6.633800
15.168300 6.329600
15.189200 6.280900
15.210100 6.314200
15.231000 6.605300
15.251900 6.909200
15.272800 7.161200
15.293700 7.816100
15.314600 7.929900
15.335600 8.685000
15.356500 8.375400
15.377400 8.069300
15.398300 8.060000
15.419200 8.769600
15.440100 8.989600
15.461000 9.269200
15.481900 8.239600
15.502800 7.287200
15.523700 6.608500
15.544600 6.469900
15.565500 6.560000
15.586400 6.178300
15.607300 5.867700
15.628200 5.760500
15.649200 5.635500
15.670100 5.502900
15.691000 5.352600
15.711900 5.108800
15.732800 4.599900
15.753700 4.198600
15.774600 3.978500
15.795500 3.771700
15.816400 4.235500
15.837300 4.495700
15.858200 4.280400
15.879100 4.429300
15.900000 4.683500
15.920900 5.135100
15.941800 5.325600
15.962800 5.412900
15.983700 5.972600
16.004600 5.881900
16.025500 5.448100
16.046400 4.554800
16.067300 4.165800
16.088200 3.796500
16.109100 3.416000
16.130000 3.070200
16.150900 2.763900
16.171800 2.478200
16.192700 2.194000
16.213600 1.892900
16.234500 1.696400
16.255400 1.516800
16.276400 1.362100
16.297300 1.225700
16.318200 1.105700
16.339100 0.994900
16.360000 0.892800
16.380900 0.799000
16.401800 0.710700
16.422700 0.629400
16.443600 0.566500
16.464500 0.511700
16.485400 0.468300
16.506300 0.431000
16.527200 0.406400
16.548100 0.389400
16.569000 0.375400
16.590000 0.364200
16.610900 0.355300
16.631800 0.347600
16.652700 0.341000
16.673600 0.335300
16.694500 0.330600
16.715400 0.326900
16.736300 0.331200
16.757200 0.344200
16.778100 0.322100
16.799000 0.282700
16.819900 0.250900
16.840800 0.227900
16.861700 0.207500
16.882600 0.188700
16.903600 0.171600
16.924500 0.156300
16.945400 0.142800
16.966300 0.131400
16.987200 0.119300
17.008100 0.104400
17.029000 0.086800
17.049900 0.066500
17.070800 0.043400
17.091700 0.002700
17.112600 0.000000
17.133500 0.000000
17.154400 0.000000
17.175300 0.000000
17.196200 0.000000
17.217200 0.000000
17.238100 0.000000
17.259000 0.000000
17.279900 0.000000
17.300800 0.000000
17.321700 0.000000
17.342600 0.000000
17.363500 0.000000
17.384400 0.000000
17.405300 0.000000
17.426200 0.000000
17.447100 0.000000
17.468000 0.000000
17.488900 0.000000
17.509800 0.000000
17.530800 0.000000
17.551700 0.000000
17.572600 0.000000
17.593500 0.000000
17.614400 0.000000
17.635300 0.000000
17.656200 0.000000
17.677100 0.000000
17.698000 0.000000
17.718900 0.000000
17.739800 0.000000
17.760700 0.000000
17.781600 0.000000
17.802500 0.000000
17.823400 0.000000
17.844400 0.000000
17.865300 0.000000
17.886200 0.000000
17.907100 0.000000
17.928000 0.000000
17.948900 0.000000
17.969800 0.000000
17.990700 0.000000
18.011600 0.000000
18.032500 0.000000
18.053400 0.000000
18.074300 0.000000
18.095200 0.000000
18.116100 0.000000
18.137000 0.000000
18.158000 0.000000
18.178900 0.000000
18.199800 0.000000
18.220700 0.000000
18.241600 0.000000
18.262500 0.000000
18.283400 0.000000
18.304300 0.000000
18.325200 0.000000
18.346100 0.000000
18.367000 0.000000
18.387900 0.000000
18.408800 0.000000
18.429700 0.000000
18.450600 0.000000
18.471600 0.000000
18.492500 0.000000
18.513400 0.000000
18.534300 0.000000
18.555200 0.000000
18.576100 0.000000
18.597000 0.000000
18.617900 0.000000
18.638800 0.000000
18.659700 0.000000
18.680600 0.000000
18.701500 0.000000
18.722400 0.000000
18.743300 0.000000
18.764200 0.000000
18.785200 0.000000
18.806100 0.000000
18.827000 0.000000
18.847900 0.000000
18.868800 0.000000
18.889700 0.000000
18.910600 0.000000
18.931500 0.000000
18.952400 0.000000
18.973300 0.000000
18.994200 0.000000
e
