set title 'mp-555574 - Density of States'
set xlabel 'Energy (eV)'
set ylabel 'DOS (states/eV)'
set grid
set xrange [-10:10]
set yrange [0:39.150]
set xzeroaxis lt -1
set terminal png size 800,600
set output 'mp-555574_dos_gnuplot.png'
plot '-' using 1:2 with lines title 'DOS'
-21.358900 0.000000
-21.338300 0.000000
-21.317800 0.000000
-21.297200 0.000000
-21.276700 0.000000
-21.256100 0.000000
-21.235500 0.000000
-21.215000 0.000000
-21.194400 0.000000
-21.173900 0.000000
-21.153300 0.000000
-21.132700 0.000000
-21.112200 0.000000
-21.091600 0.000000
-21.071000 0.000000
-21.050500 0.000000
-21.029900 0.000000
-21.009400 0.000000
-20.988800 0.000000
-20.968200 0.000000
-20.947700 0.000000
-20.927100 0.000000
-20.906500 0.000000
-20.886000 0.000000
-20.865400 0.000000
-20.844900 0.000000
-20.824300 0.000000
-20.803700 0.000000
-20.783200 0.000000
-20.762600 0.000000
-20.742100 0.000000
-20.721500 0.000000
-20.700900 0.000000
-20.680400 0.000000
-20.659800 0.000000
-20.639200 0.000000
-20.618700 0.000000
-20.598100 0.000000
-20.577600 0.000000
-20.557000 0.000000
-20.536400 0.000000
-20.515900 0.000000
-20.495300 0.000000
-20.474700 0.000000
-20.454200 0.000000
-20.433600 0.000000
-20.413100 0.000000
-20.392500 0.000000
-20.371900 0.000000
-20.351400 0.000000
-20.330800 0.000000
-20.310300 0.000000
-20.289700 0.000000
-20.269100 0.000000
-20.248600 0.000000
-20.228000 0.000000
-20.207400 0.000000
-20.186900 0.000000
-20.166300 0.000000
-20.145800 0.000000
-20.125200 0.000000
-20.104600 0.000000
-20.084100 0.000000
-20.063500 0.000000
-20.042900 0.000000
-20.022400 0.000000
-20.001800 0.000000
-19.981300 0.000000
-19.960700 0.000000
-19.940100 0.000000
-19.919600 0.000000
-19.899000 0.000000
-19.878500 0.000000
-19.857900 0.000000
-19.837300 0.000000
-19.816800 0.000000
-19.796200 0.000000
-19.775600 0.000000
-19.755100 0.000000
-19.734500 0.000000
-19.714000 0.000000
-19.693400 0.000000
-19.672800 0.000000
-19.652300 0.000000
-19.631700 0.000000
-19.611100 0.000000
-19.590600 0.000000
-19.570000 0.000000
-19.549500 0.000000
-19.528900 0.000000
-19.508300 0.000000
-19.487800 0.001400
-19.467200 0.207400
-19.446600 0.759900
-19.426100 1.481600
-19.405500 2.240500
-19.385000 3.125100
-19.364400 3.877700
-19.343800 5.234500
-19.323300 63.827200
-19.302700 14.194700
-19.282200 10.121300
-19.261600 7.859200
-19.241000 5.752800
-19.220500 6.019200
-19.199900 15.836700
-19.179300 16.870200
-19.158800 25.869100
-19.138200 27.904800
-19.117700 18.917400
-19.097100 21.085800
-19.076500 35.464700
-19.056000 22.046400
-19.035400 31.467000
-19.014800 25.895500
-18.994300 17.663300
-18.973700 26.371300
-18.953200 26.720300
-18.932600 23.487800
-18.912000 21.887800
-18.891500 10.529800
-18.870900 7.889000
-18.850400 12.150500
-18.829800 12.365000
-18.809200 10.444300
-18.788700 9.278800
-18.768100 8.935500
-18.747500 10.146500
-18.727000 16.307900
-18.706400 19.238900
-18.685900 18.166300
-18.665300 14.923100
-18.644700 14.670200
-18.624200 12.593400
-18.603600 19.039700
-18.583000 27.554400
-18.562500 25.618500
-18.541900 17.081000
-18.521400 16.662000
-18.500800 46.671300
-18.480200 25.321600
-18.459700 38.751800
-18.439100 23.819600
-18.418600 32.467100
-18.398000 38.458200
-18.377400 33.376400
-18.356900 46.626700
-18.336300 54.930400
-18.315700 53.061800
-18.295200 51.666700
-18.274600 53.711100
-18.254100 72.296200
-18.233500 97.126200
-18.212900 68.331000
-18.192400 70.980400
-18.171800 63.317000
-18.151200 45.757200
-18.130700 29.032700
-18.110100 15.175800
-18.089600 13.049700
-18.069000 13.037500
-18.048400 13.055700
-18.027900 8.216200
-18.007300 2.295100
-17.986700 0.000000
-17.966200 0.000000
-17.945600 0.000000
-17.925100 0.000000
-17.904500 0.000000
-17.883900 0.000000
-17.863400 0.000000
-17.842800 0.000000
-17.822300 0.000000
-17.801700 0.000000
-17.781100 0.000000
-17.760600 0.000000
-17.740000 0.000000
-17.719400 0.000000
-17.698900 0.000000
-17.678300 0.000000
-17.657800 0.000000
-17.637200 0.000000
-17.616600 0.000000
-17.596100 0.000000
-17.575500 0.000000
-17.554900 0.000000
-17.534400 0.000000
-17.513800 0.000000
-17.493300 0.000000
-17.472700 0.000000
-17.452100 0.000000
-17.431600 0.000000
-17.411000 0.000000
-17.390500 0.000000
-17.369900 0.000000
-17.349300 0.000000
-17.328800 0.000000
-17.308200 0.000000
-17.287600 0.000000
-17.267100 0.000000
-17.246500 0.000000
-17.226000 0.000000
-17.205400 0.000000
-17.184800 0.000000
-17.164300 0.000000
-17.143700 0.000000
-17.123100 0.000000
-17.102600 0.000000
-17.082000 0.000000
-17.061500 0.000000
-17.040900 0.000000
-17.020300 0.000000
-16.999800 0.000000
-16.979200 0.000000
-16.958700 0.000000
-16.938100 0.000000
-16.917500 0.000000
-16.897000 0.000000
-16.876400 0.000000
-16.855800 0.000000
-16.835300 0.000000
-16.814700 0.000000
-16.794200 0.000000
-16.773600 0.000000
-16.753000 0.000000
-16.732500 0.000000
-16.711900 0.000000
-16.691300 0.000000
-16.670800 0.000000
-16.650200 0.000000
-16.629700 0.000000
-16.609100 0.000000
-16.588500 0.000000
-16.568000 0.000000
-16.547400 0.000000
-16.526800 0.000000
-16.506300 0.000000
-16.485700 0.000000
-16.465200 0.000000
-16.444600 0.000000
-16.424000 0.000000
-16.403500 0.000000
-16.382900 0.000000
-16.362400 0.000000
-16.341800 0.000000
-16.321200 0.000000
-16.300700 0.000000
-16.280100 0.000000
-16.259500 0.000000
-16.239000 0.000000
-16.218400 0.000000
-16.197900 0.000000
-16.177300 0.000000
-16.156700 0.000000
-16.136200 0.000000
-16.115600 0.000000
-16.095000 0.000000
-16.074500 0.000000
-16.053900 0.000000
-16.033400 0.000000
-16.012800 0.000000
-15.992200 0.000000
-15.971700 0.000000
-15.951100 0.000000
-15.930600 0.000000
-15.910000 0.000000
-15.889400 0.000000
-15.868900 0.000000
-15.848300 0.000000
-15.827700 0.000000
-15.807200 0.000000
-15.786600 0.000000
-15.766100 0.000000
-15.745500 0.000000
-15.724900 0.000000
-15.704400 0.000000
-15.683800 0.000000
-15.663200 0.000000
-15.642700 0.000000
-15.622100 0.000000
-15.601600 0.000000
-15.581000 0.000000
-15.560400 0.000000
-15.539900 0.000000
-15.519300 0.000000
-15.498800 0.000000
-15.478200 0.000000
-15.457600 0.000000
-15.437100 0.000000
-15.416500 0.000000
-15.395900 0.000000
-15.375400 0.000000
-15.354800 0.000000
-15.334300 0.000000
-15.313700 0.000000
-15.293100 0.000000
-15.272600 0.000000
-15.252000 0.000000
-15.231400 0.000000
-15.210900 0.000000
-15.190300 0.000000
-15.169800 0.000000
-15.149200 0.000000
-15.128600 0.000000
-15.108100 0.000000
-15.087500 0.000000
-15.067000 0.000000
-15.046400 0.000000
-15.025800 0.000000
-15.005300 0.000000
-14.984700 0.000000
-14.964100 0.000000
-14.943600 0.000000
-14.923000 0.000000
-14.902500 0.000000
-14.881900 0.000000
-14.861300 0.000000
-14.840800 0.000000
-14.820200 0.000000
-14.799600 0.000000
-14.779100 0.000000
-14.758500 0.000000
-14.738000 0.000000
-14.717400 0.000000
-14.696800 0.000000
-14.676300 0.000000
-14.655700 0.000000
-14.635100 0.000000
-14.614600 0.000000
-14.594000 0.000000
-14.573500 0.000000
-14.552900 0.000000
-14.532300 0.000000
-14.511800 0.000000
-14.491200 0.000000
-14.470700 0.000000
-14.450100 0.000000
-14.429500 0.000000
-14.409000 0.000000
-14.388400 0.000000
-14.367800 0.000000
-14.347300 0.000700
-14.326700 0.010200
-14.306200 0.030700
-14.285600 0.062200
-14.265000 0.104700
-14.244500 0.158300
-14.223900 0.222700
-14.203300 0.290900
-14.182800 0.357900
-14.162200 0.423700
-14.141700 0.490500
-14.121100 0.560300
-14.100500 0.633300
-14.080000 0.709300
-14.059400 0.788300
-14.038900 0.875400
-14.018300 0.977800
-13.997700 1.095500
-13.977200 1.221400
-13.956600 1.328500
-13.936000 1.414300
-13.915500 1.530600
-13.894900 1.669500
-13.874400 1.809000
-13.853800 2.032400
-13.833200 2.375800
-13.812700 2.689100
-13.792100 3.005500
-13.771500 3.374300
-13.751000 4.255600
-13.730400 5.735700
-13.709900 7.607700
-13.689300 11.010700
-13.668700 13.011900
-13.648200 12.046900
-13.627600 10.914100
-13.607100 10.001700
-13.586500 9.477700
-13.565900 10.320100
-13.545400 13.051900
-13.524800 16.506600
-13.504200 13.713000
-13.483700 10.537800
-13.463100 8.345900
-13.442600 7.223100
-13.422000 6.340500
-13.401400 6.408900
-13.380900 6.432700
-13.360300 7.610200
-13.339700 9.328300
-13.319200 12.839600
-13.298600 16.720300
-13.278100 22.171100
-13.257500 20.954300
-13.236900 18.369400
-13.216400 11.000900
-13.195800 14.427300
-13.175200 19.247700
-13.154700 23.319100
-13.134100 26.127200
-13.113600 16.045700
-13.093000 14.696600
-13.072400 29.006700
-13.051900 14.323100
-13.031300 8.582500
-13.010800 7.180000
-12.990200 8.223400
-12.969600 10.053900
-12.949100 12.644600
-12.928500 12.151100
-12.907900 15.623700
-12.887400 20.006800
-12.866800 20.907200
-12.846300 19.744200
-12.825700 19.104000
-12.805100 19.755800
-12.784600 18.690700
-12.764000 16.993400
-12.743400 15.272500
-12.722900 15.670300
-12.702300 23.603300
-12.681800 19.750000
-12.661200 16.949400
-12.640600 10.072500
-12.620100 8.522200
-12.599500 9.268400
-12.579000 12.933900
-12.558400 12.971000
-12.537800 8.313100
-12.517300 3.632400
-12.496700 1.961400
-12.476100 1.644300
-12.455600 1.344200
-12.435000 1.078700
-12.414500 0.837900
-12.393900 0.617200
-12.373300 0.393100
-12.352800 0.189400
-12.332200 0.059300
-12.311600 0.002700
-12.291100 0.000000
-12.270500 0.000000
-12.250000 0.000000
-12.229400 0.000000
-12.208800 0.000000
-12.188300 0.000000
-12.167700 0.000000
-12.147200 0.000000
-12.126600 0.000000
-12.106000 0.000000
-12.085500 0.000000
-12.064900 0.000000
-12.044300 0.000000
-12.023800 0.000000
-12.003200 0.000000
-11.982700 0.000000
-11.962100 0.000000
-11.941500 0.000000
-11.921000 0.000000
-11.900400 0.000000
-11.879800 0.000000
-11.859300 0.000000
-11.838700 0.000000
-11.818200 0.000000
-11.797600 0.000000
-11.777000 0.000000
-11.756500 0.000000
-11.735900 0.000000
-11.715300 0.000000
-11.694800 0.000000
-11.674200 0.000000
-11.653700 0.000000
-11.633100 0.000000
-11.612500 0.000000
-11.592000 0.000000
-11.571400 0.000000
-11.550900 0.000000
-11.530300 0.000000
-11.509700 0.000000
-11.489200 0.000000
-11.468600 0.000000
-11.448000 0.000000
-11.427500 0.000000
-11.406900 0.000000
-11.386400 0.000000
-11.365800 0.000000
-11.345200 0.000000
-11.324700 0.000000
-11.304100 0.000000
-11.283500 0.000000
-11.263000 0.000000
-11.242400 0.000000
-11.221900 0.000000
-11.201300 0.000000
-11.180700 0.000000
-11.160200 0.000000
-11.139600 0.000000
-11.119100 0.000000
-11.098500 0.000000
-11.077900 0.000000
-11.057400 0.000000
-11.036800 0.000000
-11.016200 0.000000
-10.995700 0.000000
-10.975100 0.000000
-10.954600 0.000000
-10.934000 0.000000
-10.913400 0.000000
-10.892900 0.000000
-10.872300 0.000000
-10.851700 0.000000
-10.831200 0.000000
-10.810600 0.000000
-10.790100 0.000000
-10.769500 0.000000
-10.748900 0.000000
-10.728400 0.000000
-10.707800 0.000000
-10.687300 0.000000
-10.666700 0.000000
-10.646100 0.000000
-10.625600 0.000000
-10.605000 0.000000
-10.584400 0.000000
-10.563900 0.000000
-10.543300 0.000000
-10.522800 0.000000
-10.502200 0.000000
-10.481600 0.000000
-10.461100 0.000000
-10.440500 0.000000
-10.419900 0.000000
-10.399400 0.000000
-10.378800 0.000000
-10.358300 0.000000
-10.337700 0.000000
-10.317100 0.000000
-10.296600 0.000000
-10.276000 0.000000
-10.255500 0.000000
-10.234900 0.000000
-10.214300 0.000000
-10.193800 0.000000
-10.173200 0.000000
-10.152600 0.000000
-10.132100 0.000000
-10.111500 0.000000
-10.091000 0.000000
-10.070400 0.000000
-10.049800 0.000000
-10.029300 0.000000
-10.008700 0.000000
-9.988100 0.000000
-9.967600 0.000000
-9.947000 0.000000
-9.926500 0.000000
-9.905900 0.000000
-9.885300 0.000000
-9.864800 0.000000
-9.844200 0.000000
-9.823600 0.000000
-9.803100 0.000000
-9.782500 0.000000
-9.762000 0.000000
-9.741400 0.000000
-9.720800 0.000000
-9.700300 0.000000
-9.679700 0.000000
-9.659200 0.000000
-9.638600 0.000000
-9.618000 0.000000
-9.597500 0.000000
-9.576900 0.000000
-9.556300 0.000000
-9.535800 0.000000
-9.515200 0.000000
-9.494700 0.000000
-9.474100 0.000000
-9.453500 0.000000
-9.433000 0.000000
-9.412400 0.000000
-9.391800 0.000000
-9.371300 0.000000
-9.350700 0.000000
-9.330200 0.000000
-9.309600 0.000000
-9.289000 0.000000
-9.268500 0.000000
-9.247900 0.000000
-9.227400 0.000000
-9.206800 0.000000
-9.186200 0.000000
-9.165700 0.000000
-9.145100 0.000000
-9.124500 0.000000
-9.104000 0.000000
-9.083400 0.000000
-9.062900 0.000000
-9.042300 0.000000
-9.021700 0.000000
-9.001200 0.000000
-8.980600 0.000000
-8.960000 0.000000
-8.939500 0.000000
-8.918900 0.000000
-8.898400 0.000000
-8.877800 0.000000
-8.857200 0.000000
-8.836700 0.000000
-8.816100 0.000000
-8.795600 0.000000
-8.775000 0.000000
-8.754400 0.000000
-8.733900 0.000000
-8.713300 0.000000
-8.692700 0.000000
-8.672200 0.000000
-8.651600 0.000000
-8.631100 0.000000
-8.610500 0.000000
-8.589900 0.000000
-8.569400 0.000000
-8.548800 0.000000
-8.528200 0.000000
-8.507700 0.000000
-8.487100 0.000000
-8.466600 0.000000
-8.446000 0.000000
-8.425400 0.000000
-8.404900 0.000000
-8.384300 0.000000
-8.363700 0.000000
-8.343200 0.000000
-8.322600 0.000000
-8.302100 0.000000
-8.281500 0.000000
-8.260900 0.000000
-8.240400 0.000000
-8.219800 0.000000
-8.199300 0.000000
-8.178700 0.000000
-8.158100 0.000000
-8.137600 0.000000
-8.117000 0.000000
-8.096400 0.000000
-8.075900 0.000000
-8.055300 0.000000
-8.034800 0.000000
-8.014200 0.000000
-7.993600 0.000000
-7.973100 0.000000
-7.952500 0.000000
-7.931900 0.000000
-7.911400 0.000000
-7.890800 0.000000
-7.870300 0.000000
-7.849700 0.000000
-7.829100 0.000000
-7.808600 0.000000
-7.788000 0.000000
-7.767500 0.000000
-7.746900 0.000000
-7.726300 0.000000
-7.705800 0.000000
-7.685200 0.000000
-7.664600 0.000000
-7.644100 0.000000
-7.623500 0.000000
-7.603000 0.000000
-7.582400 0.000000
-7.561800 0.000000
-7.541300 0.000000
-7.520700 0.000000
-7.500100 0.000000
-7.479600 0.000000
-7.459000 0.000000
-7.438500 0.000000
-7.417900 0.000000
-7.397300 0.000000
-7.376800 0.000000
-7.356200 0.000000
-7.335700 0.000000
-7.315100 0.000000
-7.294500 0.000000
-7.274000 0.000000
-7.253400 0.000000
-7.232800 0.000000
-7.212300 0.000000
-7.191700 0.000000
-7.171200 0.000000
-7.150600 0.000000
-7.130000 0.000000
-7.109500 0.000000
-7.088900 0.000000
-7.068300 0.000000
-7.047800 0.000000
-7.027200 0.000000
-7.006700 0.000000
-6.986100 0.000000
-6.965500 0.000000
-6.945000 0.000000
-6.924400 0.000000
-6.903800 0.000000
-6.883300 0.000000
-6.862700 0.000000
-6.842200 0.000000
-6.821600 0.000000
-6.801000 0.000000
-6.780500 0.000000
-6.759900 0.000000
-6.739400 0.000000
-6.718800 0.000000
-6.698200 0.000000
-6.677700 0.000000
-6.657100 0.000000
-6.636500 0.000000
-6.616000 0.000000
-6.595400 0.000000
-6.574900 0.000000
-6.554300 0.000000
-6.533700 0.000000
-6.513200 0.000000
-6.492600 0.000000
-6.472000 0.000000
-6.451500 0.000000
-6.430900 0.000000
-6.410400 0.000000
-6.389800 0.000000
-6.369200 0.000000
-6.348700 0.000000
-6.328100 0.000000
-6.307600 0.000000
-6.287000 0.000000
-6.266400 0.000000
-6.245900 0.000000
-6.225300 0.000000
-6.204700 0.000000
-6.184200 0.000000
-6.163600 0.000000
-6.143100 0.000000
-6.122500 0.000000
-6.101900 0.000000
-6.081400 0.000000
-6.060800 0.000000
-6.040200 0.000000
-6.019700 0.000000
-5.999100 0.000000
-5.978600 0.000000
-5.958000 0.000000
-5.937400 0.000000
-5.916900 0.000000
-5.896300 0.000000
-5.875800 0.000000
-5.855200 0.000000
-5.834600 0.000000
-5.814100 0.000000
-5.793500 0.000000
-5.772900 0.000000
-5.752400 0.000000
-5.731800 0.000000
-5.711300 0.000000
-5.690700 0.000000
-5.670100 0.000000
-5.649600 0.000000
-5.629000 0.000000
-5.608400 0.000000
-5.587900 0.000000
-5.567300 0.000000
-5.546800 0.000000
-5.526200 0.000000
-5.505600 0.000000
-5.485100 0.000000
-5.464500 0.000000
-5.443900 0.000000
-5.423400 0.000000
-5.402800 0.000000
-5.382300 0.000000
-5.361700 0.000000
-5.341100 0.000000
-5.320600 0.000000
-5.300000 0.000000
-5.279500 0.000000
-5.258900 0.000000
-5.238300 0.000000
-5.217800 0.000000
-5.197200 0.000000
-5.176600 0.000000
-5.156100 0.000000
-5.135500 0.000000
-5.115000 0.000000
-5.094400 0.000000
-5.073800 0.000000
-5.053300 0.000000
-5.032700 0.000000
-5.012100 0.000000
-4.991600 0.000000
-4.971000 0.000000
-4.950500 0.000000
-4.929900 0.000000
-4.909300 0.000000
-4.888800 0.000000
-4.868200 0.000000
-4.847700 0.000000
-4.827100 0.000000
-4.806500 0.000000
-4.786000 0.000000
-4.765400 0.000000
-4.744800 0.000000
-4.724300 0.000000
-4.703700 0.000000
-4.683200 0.000000
-4.662600 0.000000
-4.642000 0.000000
-4.621500 0.000000
-4.600900 0.000000
-4.580300 0.000000
-4.559800 0.000000
-4.539200 0.000000
-4.518700 0.000000
-4.498100 0.000000
-4.477500 0.000000
-4.457000 0.000000
-4.436400 0.000000
-4.415900 0.000000
-4.395300 0.000000
-4.374700 0.000000
-4.354200 0.000000
-4.333600 0.000000
-4.313000 0.000000
-4.292500 0.000000
-4.271900 0.000000
-4.251400 0.000000
-4.230800 0.000000
-4.210200 0.000000
-4.189700 0.000000
-4.169100 0.000000
-4.148500 0.000000
-4.128000 0.000000
-4.107400 0.000000
-4.086900 0.000000
-4.066300 0.000000
-4.045700 0.000000
-4.025200 0.000000
-4.004600 0.000000
-3.984100 0.000000
-3.963500 0.000000
-3.942900 0.000000
-3.922400 0.000000
-3.901800 0.000000
-3.881200 0.000000
-3.860700 0.000000
-3.840100 0.000000
-3.819600 0.000000
-3.799000 0.000000
-3.778400 0.000000
-3.757900 0.000000
-3.737300 0.000000
-3.716700 0.000000
-3.696200 0.000000
-3.675600 0.000000
-3.655100 0.000000
-3.634500 0.000000
-3.613900 0.000000
-3.593400 0.000000
-3.572800 0.000000
-3.552200 0.000000
-3.531700 0.000000
-3.511100 0.000000
-3.490600 0.000000
-3.470000 0.000000
-3.449400 0.000000
-3.428900 0.000000
-3.408300 0.000000
-3.387800 0.000000
-3.367200 0.000000
-3.346600 0.000000
-3.326100 0.000000
-3.305500 0.000000
-3.284900 0.000000
-3.264400 0.000000
-3.243800 0.000000
-3.223300 0.000000
-3.202700 0.000000
-3.182100 0.000000
-3.161600 0.000000
-3.141000 0.000000
-3.120400 0.000000
-3.099900 0.000000
-3.079300 0.000000
-3.058800 0.000000
-3.038200 0.000000
-3.017600 0.000000
-2.997100 0.000000
-2.976500 0.000000
-2.956000 0.000000
-2.935400 0.000000
-2.914800 0.000000
-2.894300 0.000000
-2.873700 0.000000
-2.853100 0.000000
-2.832600 0.000000
-2.812000 0.000000
-2.791500 0.000000
-2.770900 0.000000
-2.750300 0.000000
-2.729800 0.000000
-2.709200 0.000000
-2.688600 0.000000
-2.668100 0.000000
-2.647500 0.000000
-2.627000 0.000000
-2.606400 0.000000
-2.585800 0.000000
-2.565300 0.000000
-2.544700 0.000000
-2.524200 0.000000
-2.503600 0.000000
-2.483000 0.000000
-2.462500 0.000000
-2.441900 0.000000
-2.421300 0.000000
-2.400800 0.000000
-2.380200 0.000000
-2.359700 0.000000
-2.339100 0.000000
-2.318500 0.000000
-2.298000 0.000000
-2.277400 0.000000
-2.256800 0.000000
-2.236300 0.000000
-2.215700 0.000000
-2.195200 0.000000
-2.174600 0.000000
-2.154000 0.000000
-2.133500 0.000000
-2.112900 0.000000
-2.092300 0.000000
-2.071800 0.000000
-2.051200 0.000000
-2.030700 0.000000
-2.010100 0.000000
-1.989500 0.000000
-1.969000 0.000000
-1.948400 0.000000
-1.927900 0.000000
-1.907300 0.000000
-1.886700 0.000000
-1.866200 0.000000
-1.845600 0.000000
-1.825000 0.000000
-1.804500 0.000000
-1.783900 0.000000
-1.763400 0.000000
-1.742800 0.000000
-1.722200 0.000000
-1.701700 0.000000
-1.681100 0.000000
-1.660500 0.000000
-1.640000 0.004600
-1.619400 0.029900
-1.598900 0.077400
-1.578300 0.433500
-1.557700 1.238400
-1.537200 2.183600
-1.516600 2.839800
-1.496100 3.104900
-1.475500 3.254300
-1.454900 3.362400
-1.434400 3.452300
-1.413800 3.614800
-1.393200 3.977700
-1.372700 4.438300
-1.352100 4.952800
-1.331600 5.551000
-1.311000 6.234300
-1.290400 6.297600
-1.269900 5.845800
-1.249300 5.853900
-1.228700 6.191100
-1.208200 7.319600
-1.187600 8.762200
-1.167100 10.163500
-1.146500 13.324500
-1.125900 12.623800
-1.105400 12.345500
-1.084800 12.032400
-1.064300 10.928000
-1.043700 8.818600
-1.023100 7.413600
-1.002600 8.904400
-0.982000 11.875100
-0.961400 11.320200
-0.940900 11.963900
-0.920300 12.327600
-0.899800 13.294700
-0.879200 14.372300
-0.858600 14.405900
-0.838100 15.711700
-0.817500 15.706500
-0.796900 12.611000
-0.776400 19.710700
-0.755800 18.872400
-0.735300 12.909900
-0.714700 10.785200
-0.694100 7.312000
-0.673600 6.783900
-0.653000 10.129200
-0.632400 18.688300
-0.611900 15.213300
-0.591300 12.311900
-0.570800 11.572400
-0.550200 11.579600
-0.529600 14.383800
-0.509100 18.890700
-0.488500 24.547000
-0.468000 20.728400
-0.447400 14.746700
-0.426800 11.618400
-0.406300 12.240300
-0.385700 16.707000
-0.365100 18.717400
-0.344600 16.120800
-0.324000 16.203400
-0.303500 20.759600
-0.282900 21.000200
-0.262300 16.793500
-0.241800 19.770200
-0.221200 26.808800
-0.200600 32.341800
-0.180100 24.037400
-0.159500 24.300800
-0.139000 22.985400
-0.118400 21.576400
-0.097800 22.216700
-0.077300 16.699700
-0.056700 13.924800
-0.036200 11.980500
-0.015600 13.233800
0.005000 18.823300
0.025500 20.279700
0.046100 17.721600
0.066700 19.202600
0.087200 20.610900
0.107800 18.123400
0.128300 17.367100
0.148900 16.898200
0.169500 17.022200
0.190000 14.364600
0.210600 17.808600
0.231200 21.819600
0.251700 19.772200
0.272300 16.140700
0.292800 14.749400
0.313400 16.507700
0.334000 18.965800
0.354500 22.392200
0.375100 16.199800
0.395600 15.983900
0.416200 18.152900
0.436800 20.383600
0.457300 19.979900
0.477900 14.281800
0.498500 11.852000
0.519000 12.244900
0.539600 14.533500
0.560100 15.820400
0.580700 19.463300
0.601300 19.968100
0.621800 14.405100
0.642400 10.326200
0.663000 11.565000
0.683500 12.736200
0.704100 13.462600
0.724600 14.637100
0.745200 15.832200
0.765800 16.860300
0.786300 23.005400
0.806900 19.401200
0.827400 18.013900
0.848000 18.242000
0.868600 16.470600
0.889100 12.641100
0.909700 10.761900
0.930300 9.628500
0.950800 13.437100
0.971400 20.660300
0.991900 23.681300
1.012500 24.417500
1.033100 15.801200
1.053600 12.640000
1.074200 14.659600
1.094800 15.671800
1.115300 23.337300
1.135900 29.962200
1.156400 23.316000
1.177000 12.477800
1.197600 20.827400
1.218100 24.659700
1.238700 20.170400
1.259300 7.304400
1.279800 6.866100
1.300400 12.310300
1.320900 22.683300
1.341500 27.855500
1.362100 24.722700
1.382600 27.979200
1.403200 22.639100
1.423700 16.262400
1.444300 15.370300
1.464900 19.415100
1.485400 22.411400
1.506000 17.751200
1.526600 17.350500
1.547100 17.245600
1.567700 17.818300
1.588200 18.875500
1.608800 20.409300
1.629400 18.454100
1.649900 17.841200
1.670500 13.147100
1.691100 11.120900
1.711600 10.787100
1.732200 12.868300
1.752700 32.497900
1.773300 35.590500
1.793900 19.111400
1.814400 19.277600
1.835000 19.733500
1.855500 17.042000
1.876100 18.050000
1.896700 15.165200
1.917200 9.033700
1.937800 4.472600
1.958400 2.748200
1.978900 1.183900
1.999500 0.285600
2.020000 0.000600
2.040600 0.000000
2.061200 0.000000
2.081700 0.000000
2.102300 0.000000
2.122900 0.000000
2.143400 0.000000
2.164000 0.000000
2.184500 0.000000
2.205100 0.000000
2.225700 0.000000
2.246200 0.000000
2.266800 0.000000
2.287300 0.000000
2.307900 0.000000
2.328500 0.000000
2.349000 0.000000
2.369600 0.000000
2.390200 0.000000
2.410700 0.000000
2.431300 0.000000
2.451800 0.000000
2.472400 0.000000
2.493000 0.000000
2.513500 0.000000
2.534100 0.000000
2.554700 0.000000
2.575200 0.000000
2.595800 0.000000
2.616300 0.000000
2.636900 0.000000
2.657500 0.000000
2.678000 0.000000
2.698600 0.000000
2.719200 0.000000
2.739700 0.000000
2.760300 0.000000
2.780800 0.000000
2.801400 0.000000
2.822000 0.000000
2.842500 0.000000
2.863100 0.000000
2.883600 0.000000
2.904200 0.000000
2.924800 0.000000
2.945300 0.000000
2.965900 0.000000
2.986500 0.000000
3.007000 0.000000
3.027600 0.000000
3.048100 0.000000
3.068700 0.000000
3.089300 0.000000
3.109800 0.000000
3.130400 0.000000
3.151000 0.000000
3.171500 0.000000
3.192100 0.000000
3.212600 0.000000
3.233200 0.000000
3.253800 0.000000
3.274300 0.000000
3.294900 0.000000
3.315400 0.000000
3.336000 0.000000
3.356600 0.000000
3.377100 0.000000
3.397700 0.000000
3.418300 0.000000
3.438800 0.000000
3.459400 0.000000
3.479900 0.000000
3.500500 0.000000
3.521100 0.000000
3.541600 0.000000
3.562200 0.000000
3.582800 0.000000
3.603300 0.000000
3.623900 0.000000
3.644400 0.000000
3.665000 0.000000
3.685600 0.000000
3.706100 0.000000
3.726700 0.000000
3.747200 0.000000
3.767800 0.000000
3.788400 0.000000
3.808900 0.000000
3.829500 0.000000
3.850100 0.000000
3.870600 0.000000
3.891200 0.000000
3.911700 0.000000
3.932300 0.000000
3.952900 0.000000
3.973400 0.000000
3.994000 0.000000
4.014600 0.000000
4.035100 0.000000
4.055700 0.000000
4.076200 0.000000
4.096800 0.000000
4.117400 0.000000
4.137900 0.000000
4.158500 0.000000
4.179100 0.000000
4.199600 0.000000
4.220200 0.000000
4.240700 0.000000
4.261300 0.000000
4.281900 0.000000
4.302400 0.000000
4.323000 0.000000
4.343500 0.000000
4.364100 0.000000
4.384700 0.000000
4.405200 0.000000
4.425800 0.000000
4.446400 0.000000
4.466900 0.000000
4.487500 0.000000
4.508000 0.000000
4.528600 0.000000
4.549200 0.000000
4.569700 0.000000
4.590300 0.000000
4.610900 0.000000
4.631400 0.000000
4.652000 0.000000
4.672500 0.000000
4.693100 0.000000
4.713700 0.000000
4.734200 0.000000
4.754800 0.000000
4.775300 0.000000
4.795900 0.000000
4.816500 0.000000
4.837000 0.000000
4.857600 0.000000
4.878200 0.000000
4.898700 0.000000
4.919300 0.000000
4.939800 0.000000
4.960400 0.000000
4.981000 0.000000
5.001500 0.000000
5.022100 0.000000
5.042700 0.000000
5.063200 0.000000
5.083800 0.000000
5.104300 0.000000
5.124900 0.000000
5.145500 0.000000
5.166000 0.000000
5.186600 0.000000
5.207100 0.000000
5.227700 0.000000
5.248300 0.000000
5.268800 0.000000
5.289400 0.000000
5.310000 0.000000
5.330500 0.000000
5.351100 0.000000
5.371600 0.000000
5.392200 0.000000
5.412800 0.000000
5.433300 0.000000
5.453900 0.000000
5.474500 0.000000
5.495000 0.000000
5.515600 0.000000
5.536100 0.000000
5.556700 0.000000
5.577300 0.000000
5.597800 0.000000
5.618400 0.000000
5.638900 0.000000
5.659500 0.000000
5.680100 0.000000
5.700600 0.000000
5.721200 0.000000
5.741800 0.000000
5.762300 0.000000
5.782900 0.000000
5.803400 0.000000
5.824000 0.000000
5.844600 0.000000
5.865100 0.000000
5.885700 0.000000
5.906300 0.000000
5.926800 0.000000
5.947400 0.000000
5.967900 0.000000
5.988500 0.000000
6.009100 0.000000
6.029600 0.000000
6.050200 0.004200
6.070800 0.065300
6.091300 0.145100
6.111900 0.243600
6.132400 0.360800
6.153000 0.496600
6.173600 0.650300
6.194100 0.827700
6.214700 1.047600
6.235200 1.259800
6.255800 1.464300
6.276400 1.660300
6.296900 1.840400
6.317500 2.013900
6.338100 2.182700
6.358600 2.345600
6.379200 2.496500
6.399700 2.549100
6.420300 2.582600
6.440900 2.624700
6.461400 2.523600
6.482000 2.455400
6.502600 2.427600
6.523100 2.440000
6.543700 2.479600
6.564200 2.533000
6.584800 2.589400
6.605400 2.608100
6.625900 2.611500
6.646500 2.620500
6.667000 2.682100
6.687600 2.806800
6.708200 2.974600
6.728700 3.317600
6.749300 4.018100
6.769900 5.113500
6.790400 5.729000
6.811000 5.924400
6.831500 5.701600
6.852100 5.318700
6.872700 5.214300
6.893200 5.145000
6.913800 5.103400
6.934400 5.005400
6.954900 4.879900
6.975500 4.751400
6.996000 4.768200
7.016600 5.074500
7.037200 5.523000
7.057700 5.914700
7.078300 6.266100
7.098800 6.591700
7.119400 6.894000
7.140000 7.190900
7.160500 7.682500
7.181100 8.948300
7.201700 9.616200
7.222200 8.991600
7.242800 9.113900
7.263300 8.997100
7.283900 8.502100
7.304500 7.474600
7.325000 7.075900
7.345600 6.722600
7.366200 6.602000
7.386700 7.760000
7.407300 8.578100
7.427800 10.762400
7.448400 8.697400
7.469000 7.487400
7.489500 6.704000
7.510100 6.406800
7.530700 6.251400
7.551200 6.108700
7.571800 5.230300
7.592300 3.898200
7.612900 3.851000
7.633500 3.888800
7.654000 3.953800
7.674600 3.995900
7.695100 4.009800
7.715700 4.130400
7.736300 4.423400
7.756800 4.972900
7.777400 6.371400
7.798000 8.397200
7.818500 10.491900
7.839100 11.555900
7.859600 11.627200
7.880200 9.063100
7.900800 7.501900
7.921300 6.239300
7.941900 6.716900
7.962500 7.849200
7.983000 10.077100
8.003600 9.645100
8.024100 6.143800
8.044700 2.204700
8.065300 1.599000
8.085800 3.722300
8.106400 5.581200
8.126900 7.081300
8.147500 9.404700
8.168100 9.947500
8.188600 10.986800
8.209200 12.146200
8.229800 12.636700
8.250300 12.941500
8.270900 12.149600
8.291400 12.030100
8.312000 11.951500
8.332600 13.329200
8.353100 14.940900
8.373700 14.720500
8.394300 15.009900
8.414800 14.553300
8.435400 14.166000
8.455900 12.828500
8.476500 13.496900
8.497100 13.084300
8.517600 12.907500
8.538200 13.486900
8.558700 15.430900
8.579300 15.164300
8.599900 13.723600
8.620400 12.106300
8.641000 9.639900
8.661600 9.905300
8.682100 9.820500
8.702700 9.487600
8.723200 10.872100
8.743800 9.700900
8.764400 8.911600
8.784900 9.629500
8.805500 11.478900
8.826100 13.465500
8.846600 12.597900
8.867200 11.871500
8.887700 11.959100
8.908300 11.868000
8.928900 9.179300
8.949400 8.550200
8.970000 8.875000
8.990600 8.590500
9.011100 9.869800
9.031700 7.094700
9.052200 7.812800
9.072800 8.778900
9.093400 9.361400
9.113900 9.573200
9.134500 9.320500
9.155000 9.210200
9.175600 9.323300
9.196200 9.927300
9.216700 13.533500
9.237300 16.346200
9.257900 17.743500
9.278400 17.259300
9.299000 14.835800
9.319500 12.986400
9.340100 12.377100
9.360700 12.526900
9.381200 12.388800
9.401800 12.285800
9.422400 12.353700
9.442900 12.435700
9.463500 17.460400
9.484000 14.734700
9.504600 12.447800
9.525200 13.677800
9.545700 16.472200
9.566300 16.425700
9.586800 15.678800
9.607400 15.874600
9.628000 11.326100
9.648500 12.842200
9.669100 14.467200
9.689700 15.044300
9.710200 11.333700
9.730800 10.966000
9.751300 10.430100
9.771900 10.266300
9.792500 10.105400
9.813000 11.404200
9.833600 11.389400
9.854200 11.603000
9.874700 10.782800
9.895300 10.068800
9.915800 7.831200
9.936400 7.076300
9.957000 7.122200
9.977500 8.260700
9.998100 8.649700
10.018600 9.414700
10.039200 9.819900
10.059800 10.510600
10.080300 13.034000
10.100900 13.609100
10.121500 12.478300
10.142000 12.817700
10.162600 12.898900
10.183100 13.075000
10.203700 12.111400
10.224300 11.305600
10.244800 10.651300
10.265400 10.657000
10.286000 11.381100
10.306500 11.518400
10.327100 10.580900
10.347600 10.060100
10.368200 9.769200
10.388800 9.916500
10.409300 10.588100
10.429900 11.481200
10.450400 11.450800
10.471000 10.483100
10.491600 10.140000
10.512100 9.944800
10.532700 9.713000
10.553300 9.087300
10.573800 8.318400
10.594400 7.420400
10.614900 7.502300
10.635500 7.910200
10.656100 8.846700
10.676600 10.180100
10.697200 10.933800
10.717800 12.056700
10.738300 10.383600
10.758900 8.933600
10.779400 8.418600
10.800000 8.080300
10.820600 8.661500
10.841100 10.131700
10.861700 11.664000
10.882300 15.792500
10.902800 17.014900
10.923400 16.876000
10.943900 14.234200
10.964500 14.556600
10.985100 19.696300
11.005600 15.674000
11.026200 10.236200
11.046700 11.318400
11.067300 12.435600
11.087900 12.678800
11.108400 11.489800
11.129000 11.012700
11.149600 10.531500
11.170100 9.486900
11.190700 9.274000
11.211200 9.949500
11.231800 11.034800
11.252400 11.807000
11.272900 11.687800
11.293500 13.152100
11.314100 13.189500
11.334600 13.064700
11.355200 10.561300
11.375700 10.598000
11.396300 14.445600
11.416900 12.874800
11.437400 7.731900
11.458000 6.351700
11.478500 5.721000
11.499100 5.698900
11.519700 6.106800
11.540200 6.676600
11.560800 6.539500
11.581400 6.603900
11.601900 7.591100
11.622500 8.643600
11.643000 11.458000
11.663600 12.608200
11.684200 12.243100
11.704700 10.682100
11.725300 8.165500
11.745900 8.906000
11.766400 9.281500
11.787000 11.204200
11.807500 15.002800
11.828100 14.612000
11.848700 13.489100
11.869200 11.316900
11.889800 10.454400
11.910300 10.096400
11.930900 10.154500
11.951500 10.705400
11.972000 13.496000
11.992600 14.015600
12.013200 13.126100
12.033700 9.945800
12.054300 9.580400
12.074800 8.565100
12.095400 7.541100
12.116000 6.841500
12.136500 6.708300
12.157100 6.866400
12.177700 6.558500
12.198200 7.005200
12.218800 7.068100
12.239300 7.472400
12.259900 8.392500
12.280500 9.604800
12.301000 10.681000
12.321600 10.286300
12.342200 9.993700
12.362700 8.950900
12.383300 7.705000
12.403800 6.525700
12.424400 5.976100
12.445000 5.827800
12.465500 5.984400
12.486100 6.104100
12.506600 6.150700
12.527200 5.476900
12.547800 5.658200
12.568300 6.573600
12.588900 7.686600
12.609500 8.452400
12.630000 8.490000
12.650600 8.713100
12.671100 6.770800
12.691700 5.713200
12.712300 5.418700
12.732800 5.226900
12.753400 5.161500
12.774000 5.259600
12.794500 5.568800
12.815100 6.042900
12.835600 6.645600
12.856200 7.419300
12.876800 8.443700
12.897300 8.979700
12.917900 9.187500
12.938400 9.319100
12.959000 9.448000
12.979600 9.605600
13.000100 9.916600
13.020700 10.199100
13.041300 9.711600
13.061800 9.559700
13.082400 9.781400
13.102900 9.959500
13.123500 12.209600
13.144100 14.517000
13.164600 14.444200
13.185200 9.980900
13.205800 10.516500
13.226300 7.254500
13.246900 7.191900
13.267400 6.647200
13.288000 6.426000
13.308600 6.679800
13.329100 6.790100
13.349700 6.629800
13.370200 6.275900
13.390800 5.964500
13.411400 5.588100
13.431900 4.959600
13.452500 4.654800
13.473100 4.522500
13.493600 4.931600
13.514200 4.947900
13.534700 4.987800
13.555300 5.050200
13.575900 5.049000
13.596400 4.926600
13.617000 4.689700
13.637600 4.340000
13.658100 4.103000
13.678700 3.871900
13.699200 3.610600
13.719800 3.536000
13.740400 3.489400
13.760900 3.443300
13.781500 3.387300
13.802100 3.334400
13.822600 3.293500
13.843200 3.254000
13.863700 3.204900
13.884300 3.137200
13.904900 3.108100
13.925400 3.093600
13.946000 3.079200
13.966500 3.072700
13.987100 3.094700
14.007700 3.148000
14.028200 3.232900
14.048800 3.347800
14.069400 3.464800
14.089900 4.933200
14.110500 3.964400
14.131000 3.948100
14.151600 3.940200
14.172200 3.938000
14.192700 3.938700
14.213300 3.940200
14.233900 3.944800
14.254400 3.952400
14.275000 3.961700
14.295500 3.971900
14.316100 3.983200
14.336700 3.995100
14.357200 4.007500
14.377800 4.017900
14.398300 4.025400
14.418900 4.015900
14.439500 3.943900
14.460000 3.875300
14.480600 3.815200
14.501200 3.781500
14.521700 3.778700
14.542300 3.788800
14.562800 3.803300
14.583400 3.831700
14.604000 3.876000
14.624500 3.965300
14.645100 4.105400
14.665700 4.288600
14.686200 4.502600
14.706800 4.690500
14.727300 4.835800
14.747900 4.940200
14.768500 4.920900
14.789000 4.763300
14.809600 4.572000
14.830100 4.428700
14.850700 4.345900
14.871300 4.340100
14.891800 4.349000
14.912400 4.305400
14.933000 4.286900
14.953500 4.320500
14.974100 4.389900
14.994600 4.452300
15.015200 4.463400
15.035800 4.685400
15.056300 4.659500
15.076900 4.367300
15.097500 4.264400
15.118000 4.362000
15.138600 4.529700
15.159100 4.721400
15.179700 4.922000
15.200300 5.131000
15.220800 5.348400
15.241400 5.410500
15.262000 4.973500
15.282500 5.044000
15.303100 5.138500
15.323600 5.199000
15.344200 5.200100
15.364800 6.990000
15.385300 6.075000
15.405900 6.171100
15.426400 6.194700
15.447000 6.217200
15.467600 6.564700
15.488100 7.169800
15.508700 8.030000
15.529300 7.438400
15.549800 6.488600
15.570400 6.414800
15.590900 5.754100
15.611500 5.262300
15.632100 5.004300
15.652600 4.739000
15.673200 4.475400
15.693800 4.269900
15.714300 4.106300
15.734900 3.941400
15.755400 3.824700
15.776000 3.813200
15.796600 3.885100
15.817100 4.090600
15.837700 4.392300
15.858200 4.713500
15.878800 5.129400
15.899400 5.631000
15.919900 6.119400
15.940500 6.690900
15.961100 7.302600
15.981600 8.839900
16.002200 8.869500
16.022700 7.465100
16.043300 5.410900
16.063900 4.774300
16.084400 3.743200
16.105000 2.563500
16.125600 2.584400
16.146100 3.758100
16.166700 4.547100
16.187200 4.883900
16.207800 5.025800
16.228400 5.109800
16.248900 5.205800
16.269500 5.266500
16.290000 5.120100
16.310600 4.950700
16.331200 4.774100
16.351700 4.608700
16.372300 4.506500
16.392900 4.465500
16.413400 4.489500
16.434000 4.603900
16.454500 4.813600
16.475100 5.080100
16.495700 5.454900
16.516200 5.883100
16.536800 6.267900
16.557400 6.216100
16.577900 6.339600
16.598500 6.511000
16.619000 6.505800
16.639600 5.906700
16.660200 5.398000
16.680700 4.533100
16.701300 4.367800
16.721800 4.218600
16.742400 4.079700
16.763000 4.135200
16.783500 4.425200
16.804100 4.777800
16.824700 5.141200
16.845200 5.706700
16.865800 6.385300
16.886300 6.625900
16.906900 6.273100
16.927500 5.863600
16.948000 5.543600
16.968600 5.119500
16.989200 4.333100
17.009700 3.904700
17.030300 3.758900
17.050800 3.913000
17.071400 3.783200
17.092000 3.658100
17.112500 3.537900
17.133100 3.420700
17.153700 3.297600
17.174200 3.145400
17.194800 3.001800
17.215300 2.880800
17.235900 2.790100
17.256500 2.703500
17.277000 2.610800
17.297600 2.485800
17.318100 2.221200
17.338700 1.928500
17.359300 1.607500
17.379800 1.117700
17.400400 0.745200
17.421000 0.707000
17.441500 0.671600
17.462100 0.639100
17.482600 0.609500
17.503200 0.582700
17.523800 0.558800
17.544300 0.537500
17.564900 0.514800
17.585500 0.490200
17.606000 0.466300
17.626600 0.431200
17.647100 0.395200
17.667700 0.357600
17.688300 0.318600
17.708800 0.278100
17.729400 0.236100
17.749900 0.192500
17.770500 0.147500
17.791100 0.103300
17.811600 0.066700
17.832200 0.038100
17.852800 0.017400
17.873300 0.004700
17.893900 0.000000
17.914400 0.000000
17.935000 0.000000
17.955600 0.000000
17.976100 0.000000
17.996700 0.000000
18.017300 0.000000
18.037800 0.000000
18.058400 0.000000
18.078900 0.000000
18.099500 0.000000
18.120100 0.000000
18.140600 0.000000
18.161200 0.000000
18.181700 0.000000
18.202300 0.000000
18.222900 0.000000
18.243400 0.000000
18.264000 0.000000
18.284600 0.000000
18.305100 0.000000
18.325700 0.000000
18.346200 0.000000
18.366800 0.000000
18.387400 0.000000
18.407900 0.000000
18.428500 0.000000
18.449100 0.000000
18.469600 0.000000
18.490200 0.000000
18.510700 0.000000
18.531300 0.000000
18.551900 0.000000
18.572400 0.000000
18.593000 0.000000
18.613600 0.000000
18.634100 0.000000
18.654700 0.000000
18.675200 0.000000
18.695800 0.000000
18.716400 0.000000
18.736900 0.000000
18.757500 0.000000
18.778000 0.000000
18.798600 0.000000
18.819200 0.000000
18.839700 0.000000
18.860300 0.000000
18.880900 0.000000
18.901400 0.000000
18.922000 0.000000
18.942500 0.000000
18.963100 0.000000
18.983700 0.000000
19.004200 0.000000
19.024800 0.000000
19.045400 0.000000
19.065900 0.000000
19.086500 0.000000
19.107000 0.000000
19.127600 0.000000
19.148200 0.000000
19.168700 0.000000
19.189300 0.000000
19.209800 0.000000
19.230400 0.000000
19.251000 0.000000
19.271500 0.000000
19.292100 0.000000
19.312700 0.000000
19.333200 0.000000
19.353800 0.000000
19.374300 0.000000
19.394900 0.000000
19.415500 0.000000
19.436000 0.000000
19.456600 0.000000
19.477200 0.000000
19.497700 0.000000
19.518300 0.000000
19.538800 0.000000
19.559400 0.000000
19.580000 0.000000
19.600500 0.000000
19.621100 0.000000
19.641600 0.000000
19.662200 0.000000
19.682800 0.000000
19.703300 0.000000
19.723900 0.000000
19.744500 0.000000
19.765000 0.000000
e
