set title 'mp-1071032 - Density of States'
set xlabel 'Energy (eV)'
set ylabel 'DOS (states/eV)'
set grid
set xrange [-10:10]
set yrange [0:21.313]
set xzeroaxis lt -1
set terminal png size 800,600
set output 'mp-1071032_dos_gnuplot.png'
plot '-' using 1:2 with lines title 'DOS'
-25.318600 0.000000
-25.290700 0.000000
-25.262900 0.000000
-25.235000 0.000000
-25.207100 0.000000
-25.179200 0.000000
-25.151400 0.000000
-25.123500 0.000000
-25.095600 0.000000
-25.067700 0.000000
-25.039900 0.000000
-25.012000 0.000000
-24.984100 0.000000
-24.956300 0.000000
-24.928400 0.000000
-24.900500 0.000000
-24.872600 0.000000
-24.844800 0.000000
-24.816900 0.000000
-24.789000 0.000000
-24.761100 0.000000
-24.733300 0.000000
-24.705400 0.000000
-24.677500 0.000000
-24.649600 0.000000
-24.621800 0.000000
-24.593900 0.000000
-24.566000 0.000000
-24.538100 0.000000
-24.510300 0.000000
-24.482400 0.000000
-24.454500 0.000000
-24.426600 0.000000
-24.398800 0.000000
-24.370900 0.000000
-24.343000 0.000000
-24.315100 0.000000
-24.287300 0.000000
-24.259400 0.000000
-24.231500 0.000000
-24.203600 0.000000
-24.175800 0.000000
-24.147900 0.000000
-24.120000 0.000000
-24.092200 0.000000
-24.064300 0.000000
-24.036400 0.000000
-24.008500 0.000000
-23.980700 0.000000
-23.952800 0.000000
-23.924900 0.000000
-23.897000 0.000000
-23.869200 0.000000
-23.841300 0.000000
-23.813400 0.000000
-23.785500 0.000000
-23.757700 0.000000
-23.729800 0.000000
-23.701900 0.000000
-23.674000 0.000000
-23.646200 0.000000
-23.618300 0.000000
-23.590400 0.000000
-23.562500 0.000000
-23.534700 0.000000
-23.506800 0.000000
-23.478900 0.000000
-23.451000 0.000000
-23.423200 0.000000
-23.395300 0.000000
-23.367400 0.000000
-23.339500 0.000000
-23.311700 0.000000
-23.283800 0.000000
-23.255900 0.000000
-23.228100 0.000000
-23.200200 0.000000
-23.172300 0.000000
-23.144400 0.000000
-23.116600 0.000000
-23.088700 0.000000
-23.060800 0.000000
-23.032900 0.000000
-23.005100 0.000000
-22.977200 0.000000
-22.949300 0.000000
-22.921400 0.000000
-22.893600 0.000000
-22.865700 0.000000
-22.837800 0.000000
-22.809900 0.000000
-22.782100 538.881300
-22.754200 118.197700
-22.726300 0.000000
-22.698400 0.000000
-22.670600 0.000000
-22.642700 0.000000
-22.614800 0.000000
-22.586900 0.000000
-22.559100 0.000000
-22.531200 0.000000
-22.503300 0.000000
-22.475400 0.000000
-22.447600 0.000000
-22.419700 0.000000
-22.391800 0.000000
-22.364000 0.000000
-22.336100 0.000000
-22.308200 0.000000
-22.280300 0.000000
-22.252500 0.000000
-22.224600 0.000000
-22.196700 0.000000
-22.168800 0.000000
-22.141000 0.000000
-22.113100 0.000000
-22.085200 0.000000
-22.057300 0.000000
-22.029500 0.000000
-22.001600 0.000000
-21.973700 0.000000
-21.945800 0.000000
-21.918000 0.000000
-21.890100 0.000000
-21.862200 0.000000
-21.834300 0.000000
-21.806500 0.000000
-21.778600 0.000000
-21.750700 0.000000
-21.722800 0.000000
-21.695000 0.000000
-21.667100 0.000000
-21.639200 0.000000
-21.611300 0.000000
-21.583500 0.000000
-21.555600 0.000000
-21.527700 0.000000
-21.499900 0.000000
-21.472000 0.000000
-21.444100 0.000000
-21.416200 0.000000
-21.388400 0.000000
-21.360500 0.000000
-21.332600 0.000000
-21.304700 0.000000
-21.276900 0.000000
-21.249000 0.000000
-21.221100 0.000000
-21.193200 0.000000
-21.165400 0.000000
-21.137500 0.000000
-21.109600 0.000000
-21.081700 0.000000
-21.053900 0.000000
-21.026000 0.000000
-20.998100 0.000000
-20.970200 0.000000
-20.942400 0.000000
-20.914500 0.000000
-20.886600 0.000000
-20.858700 0.000000
-20.830900 0.000000
-20.803000 0.000000
-20.775100 0.000000
-20.747200 0.000000
-20.719400 0.000000
-20.691500 0.000000
-20.663600 0.000000
-20.635800 0.000000
-20.607900 0.000000
-20.580000 0.000000
-20.552100 0.000000
-20.524300 0.000000
-20.496400 0.000000
-20.468500 0.000000
-20.440600 0.000000
-20.412800 0.000000
-20.384900 0.000000
-20.357000 0.000000
-20.329100 0.000000
-20.301300 0.000000
-20.273400 0.000000
-20.245500 0.000000
-20.217600 0.000000
-20.189800 0.000000
-20.161900 0.000000
-20.134000 0.000000
-20.106100 0.000000
-20.078300 0.000000
-20.050400 0.000000
-20.022500 0.000000
-19.994600 0.000000
-19.966800 0.000000
-19.938900 0.000000
-19.911000 0.000000
-19.883100 0.000000
-19.855300 0.000000
-19.827400 0.000000
-19.799500 0.000000
-19.771700 0.000000
-19.743800 0.000000
-19.715900 0.000000
-19.688000 0.000000
-19.660200 0.000000
-19.632300 0.000000
-19.604400 0.000000
-19.576500 0.000000
-19.548700 0.000000
-19.520800 0.000000
-19.492900 0.000000
-19.465000 0.000000
-19.437200 0.000000
-19.409300 0.000000
-19.381400 0.000000
-19.353500 0.000000
-19.325700 0.000000
-19.297800 0.000000
-19.269900 0.000000
-19.242000 0.000000
-19.214200 0.000000
-19.186300 0.000000
-19.158400 0.000000
-19.130500 0.000000
-19.102700 0.000000
-19.074800 0.000000
-19.046900 0.000000
-19.019000 0.000000
-18.991200 0.000000
-18.963300 0.000000
-18.935400 0.000000
-18.907600 0.000000
-18.879700 0.000000
-18.851800 0.000000
-18.823900 0.000000
-18.796100 0.000000
-18.768200 0.000000
-18.740300 0.000000
-18.712400 0.000000
-18.684600 0.000000
-18.656700 0.000000
-18.628800 0.000000
-18.600900 0.000000
-18.573100 0.000000
-18.545200 0.000000
-18.517300 0.000000
-18.489400 0.000000
-18.461600 0.000000
-18.433700 0.000000
-18.405800 0.000000
-18.377900 0.000000
-18.350100 0.000000
-18.322200 0.000000
-18.294300 0.000000
-18.266400 0.000000
-18.238600 0.000000
-18.210700 0.000000
-18.182800 0.000000
-18.154900 0.000000
-18.127100 0.000000
-18.099200 0.000000
-18.071300 0.000000
-18.043500 0.000000
-18.015600 0.000000
-17.987700 0.000000
-17.959800 0.000000
-17.932000 0.000000
-17.904100 0.000000
-17.876200 0.000000
-17.848300 0.000000
-17.820500 0.000000
-17.792600 0.000000
-17.764700 0.000000
-17.736800 0.000000
-17.709000 0.000000
-17.681100 0.000000
-17.653200 0.000000
-17.625300 0.000000
-17.597500 0.000000
-17.569600 0.000000
-17.541700 0.000000
-17.513800 0.000000
-17.486000 0.000000
-17.458100 0.000000
-17.430200 0.000000
-17.402300 0.000000
-17.374500 0.000000
-17.346600 0.000000
-17.318700 0.000000
-17.290800 0.000000
-17.263000 0.000000
-17.235100 0.000000
-17.207200 0.000000
-17.179400 0.000000
-17.151500 0.000000
-17.123600 0.000000
-17.095700 0.000000
-17.067900 0.000000
-17.040000 0.000000
-17.012100 0.000000
-16.984200 0.000000
-16.956400 0.000000
-16.928500 0.000000
-16.900600 0.000000
-16.872700 0.000000
-16.844900 0.000000
-16.817000 0.000000
-16.789100 0.000000
-16.761200 0.000000
-16.733400 0.000000
-16.705500 0.000000
-16.677600 0.000000
-16.649700 0.000000
-16.621900 0.000000
-16.594000 0.000000
-16.566100 0.000000
-16.538200 0.000000
-16.510400 0.000000
-16.482500 0.000000
-16.454600 0.000000
-16.426700 0.000000
-16.398900 0.000000
-16.371000 0.000000
-16.343100 0.000000
-16.315300 0.000000
-16.287400 0.000000
-16.259500 0.000000
-16.231600 0.000000
-16.203800 0.000000
-16.175900 0.000000
-16.148000 0.000000
-16.120100 0.000000
-16.092300 0.000000
-16.064400 0.000000
-16.036500 0.000000
-16.008600 0.000000
-15.980800 0.000000
-15.952900 0.000000
-15.925000 0.000000
-15.897100 0.000000
-15.869300 0.000000
-15.841400 0.000000
-15.813500 0.000000
-15.785600 0.000000
-15.757800 0.000000
-15.729900 0.000000
-15.702000 0.000000
-15.674100 0.000000
-15.646300 0.000000
-15.618400 0.000000
-15.590500 0.000000
-15.562600 0.000000
-15.534800 0.000000
-15.506900 0.000000
-15.479000 0.000000
-15.451200 0.000000
-15.423300 0.000000
-15.395400 0.000000
-15.367500 0.000000
-15.339700 0.000000
-15.311800 0.000000
-15.283900 0.000000
-15.256000 0.000000
-15.228200 0.000000
-15.200300 0.000000
-15.172400 0.000000
-15.144500 0.000000
-15.116700 0.000000
-15.088800 0.000000
-15.060900 0.000000
-15.033000 0.000000
-15.005200 0.000000
-14.977300 0.000000
-14.949400 0.000000
-14.921500 0.000000
-14.893700 0.000000
-14.865800 0.000000
-14.837900 0.000000
-14.810000 0.000000
-14.782200 0.000000
-14.754300 0.000000
-14.726400 0.000000
-14.698500 0.000000
-14.670700 0.000000
-14.642800 0.000000
-14.614900 0.000000
-14.587100 0.000000
-14.559200 0.000000
-14.531300 0.000000
-14.503400 0.000000
-14.475600 0.000000
-14.447700 0.000000
-14.419800 0.000000
-14.391900 0.000000
-14.364100 0.000000
-14.336200 0.000000
-14.308300 0.000000
-14.280400 0.000000
-14.252600 0.000000
-14.224700 0.000000
-14.196800 0.000000
-14.168900 0.000000
-14.141100 0.000000
-14.113200 0.000000
-14.085300 0.000000
-14.057400 0.000000
-14.029600 0.000000
-14.001700 0.000000
-13.973800 0.000000
-13.945900 0.000000
-13.918100 0.000000
-13.890200 0.000000
-13.862300 0.000000
-13.834400 0.000000
-13.806600 0.000000
-13.778700 0.000000
-13.750800 0.000000
-13.723000 0.000000
-13.695100 0.000000
-13.667200 0.000000
-13.639300 0.000000
-13.611500 0.000000
-13.583600 0.000000
-13.555700 0.000000
-13.527800 0.000000
-13.500000 0.000000
-13.472100 0.000000
-13.444200 0.000000
-13.416300 0.000000
-13.388500 0.000000
-13.360600 0.000000
-13.332700 0.000000
-13.304800 0.000000
-13.277000 0.000000
-13.249100 0.000000
-13.221200 0.000000
-13.193300 0.000000
-13.165500 0.000000
-13.137600 0.000000
-13.109700 0.000000
-13.081800 0.000000
-13.054000 0.000000
-13.026100 0.000000
-12.998200 0.000000
-12.970300 0.000000
-12.942500 0.000000
-12.914600 0.000000
-12.886700 0.000000
-12.858800 0.000000
-12.831000 0.000000
-12.803100 0.000000
-12.775200 0.000000
-12.747400 0.000000
-12.719500 0.000000
-12.691600 0.000000
-12.663700 0.000000
-12.635900 0.000000
-12.608000 0.000000
-12.580100 0.000000
-12.552200 0.000000
-12.524400 0.000000
-12.496500 0.000000
-12.468600 0.000000
-12.440700 0.000000
-12.412900 0.000000
-12.385000 0.000000
-12.357100 0.000000
-12.329200 0.000000
-12.301400 0.000000
-12.273500 0.000000
-12.245600 0.000000
-12.217700 0.000000
-12.189900 0.000000
-12.162000 0.000000
-12.134100 0.554000
-12.106200 0.614600
-12.078400 0.675200
-12.050500 1.282800
-12.022600 1.406500
-11.994700 1.530200
-11.966900 1.653900
-11.939000 1.777600
-11.911100 1.901300
-11.883300 1.749700
-11.855400 1.821900
-11.827500 1.894100
-11.799600 1.694800
-11.771800 1.714100
-11.743900 1.733400
-11.716000 1.752700
-11.688100 1.771900
-11.660300 1.793100
-11.632400 1.821500
-11.604500 1.849900
-11.576600 1.880600
-11.548800 1.918000
-11.520900 1.955400
-11.493000 1.992900
-11.465100 2.035400
-11.437300 2.074600
-11.409400 2.139400
-11.381500 2.184800
-11.353600 2.230300
-11.325800 2.275800
-11.297900 2.321300
-11.270000 2.366700
-11.242100 2.412200
-11.214300 2.448600
-11.186400 2.491100
-11.158500 2.523800
-11.130600 2.559500
-11.102800 2.595200
-11.074900 2.786700
-11.047000 2.761900
-11.019200 2.822400
-10.991300 2.732300
-10.963400 2.642300
-10.935500 2.552200
-10.907700 2.462200
-10.879800 2.372100
-10.851900 2.282100
-10.824000 2.192000
-10.796200 1.897200
-10.768300 1.631500
-10.740400 1.582500
-10.712500 1.546900
-10.684700 1.513900
-10.656800 1.480900
-10.628900 1.447900
-10.601000 1.415000
-10.573200 1.382000
-10.545300 1.349000
-10.517400 1.316100
-10.489500 1.283100
-10.461700 1.250100
-10.433800 1.217100
-10.405900 1.184200
-10.378000 1.151200
-10.350200 1.118200
-10.322300 1.075000
-10.294400 2.442000
-10.266500 2.764300
-10.238700 3.086500
-10.210800 3.408800
-10.182900 3.362700
-10.155100 3.543400
-10.127200 3.724100
-10.099300 5.705600
-10.071400 8.353800
-10.043600 10.025800
-10.015700 9.628800
-9.987800 9.896100
-9.959900 19.375900
-9.932100 10.863700
-9.904200 10.058300
-9.876300 7.865800
-9.848400 6.999800
-9.820600 6.380900
-9.792700 6.056200
-9.764800 7.479800
-9.736900 4.864700
-9.709100 3.798500
-9.681200 1.574900
-9.653300 0.000000
-9.625400 0.000000
-9.597600 0.000000
-9.569700 0.000000
-9.541800 0.000000
-9.513900 0.000000
-9.486100 0.000000
-9.458200 0.000000
-9.430300 0.000000
-9.402400 0.000000
-9.374600 0.000000
-9.346700 0.000000
-9.318800 0.000000
-9.291000 0.000000
-9.263100 0.000000
-9.235200 0.000000
-9.207300 0.000000
-9.179500 0.000000
-9.151600 0.000000
-9.123700 0.000000
-9.095800 0.000000
-9.068000 0.000000
-9.040100 0.000000
-9.012200 0.000000
-8.984300 0.000000
-8.956500 0.000000
-8.928600 0.000000
-8.900700 0.000000
-8.872800 0.000000
-8.845000 0.000000
-8.817100 0.000000
-8.789200 0.000000
-8.761300 0.000000
-8.733500 0.000000
-8.705600 0.000000
-8.677700 0.000000
-8.649800 0.000000
-8.622000 0.000000
-8.594100 0.000000
-8.566200 0.000000
-8.538300 0.000000
-8.510500 0.000000
-8.482600 0.000000
-8.454700 0.000000
-8.426900 0.000000
-8.399000 0.000000
-8.371100 0.000000
-8.343200 0.000000
-8.315400 0.000000
-8.287500 0.000000
-8.259600 0.000000
-8.231700 0.000000
-8.203900 0.000000
-8.176000 0.000000
-8.148100 0.000000
-8.120200 0.000000
-8.092400 0.000000
-8.064500 0.000000
-8.036600 0.000000
-8.008700 0.000000
-7.980900 0.000000
-7.953000 0.000000
-7.925100 0.000000
-7.897200 0.000000
-7.869400 0.000000
-7.841500 0.000000
-7.813600 0.000000
-7.785700 0.000000
-7.757900 0.000000
-7.730000 0.000000
-7.702100 0.000000
-7.674200 0.000000
-7.646400 0.000000
-7.618500 0.000000
-7.590600 0.000000
-7.562800 0.000000
-7.534900 0.000000
-7.507000 0.000000
-7.479100 0.000000
-7.451300 0.000000
-7.423400 0.000000
-7.395500 0.000000
-7.367600 0.000000
-7.339800 0.000000
-7.311900 0.000000
-7.284000 0.000000
-7.256100 0.000000
-7.228300 0.000000
-7.200400 0.000000
-7.172500 0.000000
-7.144600 0.000000
-7.116800 0.000000
-7.088900 0.000000
-7.061000 0.000000
-7.033100 0.000000
-7.005300 0.000000
-6.977400 0.000000
-6.949500 0.000000
-6.921600 0.000000
-6.893800 0.000000
-6.865900 0.000000
-6.838000 0.000000
-6.810100 0.000000
-6.782300 0.000000
-6.754400 0.000000
-6.726500 0.233300
-6.698700 0.478000
-6.670800 0.501100
-6.642900 0.524100
-6.615000 0.547200
-6.587200 0.570300
-6.559300 0.593400
-6.531400 0.616500
-6.503500 0.639600
-6.475700 0.662600
-6.447800 0.685700
-6.419900 0.708800
-6.392000 0.731900
-6.364200 0.755000
-6.336300 0.778100
-6.308400 0.801100
-6.280500 0.824200
-6.252700 0.847300
-6.224800 0.870400
-6.196900 0.893500
-6.169000 1.018900
-6.141200 1.137700
-6.113300 1.176500
-6.085400 1.215300
-6.057500 1.254000
-6.029700 1.292800
-6.001800 1.331600
-5.973900 1.370300
-5.946000 1.409100
-5.918200 1.447900
-5.890300 1.486600
-5.862400 1.525400
-5.834600 1.564200
-5.806700 2.762000
-5.778800 2.895000
-5.750900 3.932900
-5.723100 2.829600
-5.695200 2.895200
-5.667300 2.960900
-5.639400 1.945200
-5.611600 1.917800
-5.583700 1.893500
-5.555800 1.874600
-5.527900 1.855700
-5.500100 1.836800
-5.472200 1.817900
-5.444300 1.799000
-5.416400 1.780100
-5.388600 1.761200
-5.360700 1.742300
-5.332800 1.723400
-5.304900 1.704500
-5.277100 1.685500
-5.249200 1.666600
-5.221300 1.647700
-5.193400 1.628800
-5.165600 1.549900
-5.137700 1.517100
-5.109800 1.484300
-5.081900 1.423100
-5.054100 1.367400
-5.026200 1.347000
-4.998300 1.326500
-4.970500 1.306100
-4.942600 1.285600
-4.914700 1.239100
-4.886800 1.222500
-4.859000 1.205900
-4.831100 1.189300
-4.803200 1.172700
-4.775300 1.156100
-4.747500 1.139500
-4.719600 1.122900
-4.691700 1.106300
-4.663800 1.089700
-4.636000 1.073100
-4.608100 1.056600
-4.580200 1.040000
-4.552300 1.023400
-4.524500 1.006800
-4.496600 0.990200
-4.468700 1.023700
-4.440800 1.069600
-4.413000 1.115400
-4.385100 1.161200
-4.357200 1.212300
-4.329300 1.270100
-4.301500 1.506000
-4.273600 1.443600
-4.245700 1.381200
-4.217800 1.318800
-4.190000 1.256400
-4.162100 1.194000
-4.134200 1.131600
-4.106400 1.069200
-4.078500 0.489800
-4.050600 0.493500
-4.022700 0.554200
-3.994900 0.536200
-3.967000 0.518300
-3.939100 0.500300
-3.911200 0.482400
-3.883400 0.464400
-3.855500 0.446500
-3.827600 0.428500
-3.799700 0.410600
-3.771900 0.392600
-3.744000 0.374700
-3.716100 0.356700
-3.688200 0.338800
-3.660400 0.320800
-3.632500 0.302900
-3.604600 0.284900
-3.576700 0.000000
-3.548900 0.000000
-3.521000 0.000000
-3.493100 0.000000
-3.465200 0.000000
-3.437400 0.000000
-3.409500 0.000000
-3.381600 0.000000
-3.353700 0.000000
-3.325900 0.000000
-3.298000 0.000000
-3.270100 0.000000
-3.242300 0.000000
-3.214400 0.000000
-3.186500 0.000000
-3.158600 0.000000
-3.130800 0.000000
-3.102900 0.000000
-3.075000 0.000000
-3.047100 0.000000
-3.019300 0.000000
-2.991400 0.000000
-2.963500 0.000000
-2.935600 0.000000
-2.907800 0.000000
-2.879900 0.000000
-2.852000 0.000000
-2.824100 0.000000
-2.796300 0.000000
-2.768400 0.000000
-2.740500 0.920300
-2.712600 1.941500
-2.684800 2.352400
-2.656900 2.763300
-2.629000 3.174200
-2.601100 5.530000
-2.573300 2.481400
-2.545400 2.653900
-2.517500 1.674600
-2.489600 1.721900
-2.461800 1.769100
-2.433900 1.816400
-2.406000 1.863600
-2.378200 1.910800
-2.350300 1.958100
-2.322400 3.207800
-2.294500 5.299800
-2.266700 5.192000
-2.238800 5.084100
-2.210900 4.976200
-2.183000 5.437000
-2.155200 4.866200
-2.127300 4.295400
-2.099400 2.025700
-2.071500 2.010700
-2.043700 1.995600
-2.015800 1.980600
-1.987900 3.012100
-1.960000 4.137000
-1.932200 4.533200
-1.904300 4.508700
-1.876400 4.474900
-1.848500 4.416100
-1.820700 3.099300
-1.792800 2.587000
-1.764900 2.074700
-1.737000 1.695900
-1.709200 1.616700
-1.681300 1.537500
-1.653400 2.343400
-1.625500 2.459200
-1.597700 2.574900
-1.569800 2.690700
-1.541900 2.806400
-1.514100 2.537300
-1.486200 4.234700
-1.458300 5.410500
-1.430400 8.693000
-1.402600 4.385400
-1.374700 4.665900
-1.346800 4.946400
-1.318900 10.731600
-1.291100 5.314100
-1.263200 4.494000
-1.235300 3.812400
-1.207400 3.757100
-1.179600 3.701800
-1.151700 3.646500
-1.123800 3.591200
-1.095900 3.535900
-1.068100 3.152100
-1.040200 3.138900
-1.012300 3.125800
-0.984400 3.112600
-0.956600 3.616200
-0.928700 2.994800
-0.900800 4.402100
-0.872900 4.701600
-0.845100 8.467600
-0.817200 9.135400
-0.789300 9.229700
-0.761400 5.697000
-0.733600 5.884800
-0.705700 6.072700
-0.677800 6.099200
-0.650000 9.485600
-0.622100 3.136200
-0.594200 3.310600
-0.566300 3.485000
-0.538500 5.241700
-0.510600 5.028800
-0.482700 4.816000
-0.454800 4.561900
-0.427000 2.921000
-0.399100 2.766000
-0.371200 4.021500
-0.343300 4.264000
-0.315500 3.209700
-0.287600 3.173900
-0.259700 3.138100
-0.231800 3.102300
-0.204000 4.756900
-0.176100 4.422700
-0.148200 4.088500
-0.120300 3.754300
-0.092500 3.420100
-0.064600 2.495800
-0.036700 2.517000
-0.008800 2.538200
0.019000 2.559400
0.046900 2.498400
0.074800 2.795200
0.102700 2.766400
0.130500 2.737600
0.158400 2.708800
0.186300 2.680000
0.214100 2.830300
0.242000 2.886500
0.269900 2.942700
0.297800 2.999000
0.325600 3.055200
0.353500 3.111400
0.381400 3.167600
0.409300 9.106700
0.437100 7.131600
0.465000 6.564900
0.492900 4.658800
0.520800 2.930900
0.548600 2.901500
0.576500 3.593300
0.604400 3.669400
0.632300 3.745600
0.660100 3.821700
0.688000 3.803200
0.715900 3.787900
0.743800 4.184500
0.771600 3.766200
0.799500 3.832400
0.827400 3.898500
0.855300 3.964700
0.883100 4.030800
0.911000 4.183700
0.938900 3.956700
0.966800 4.186000
0.994600 3.290100
1.022500 3.318200
1.050400 3.246000
1.078200 3.195700
1.106100 3.127400
1.134000 3.059100
1.161900 3.015800
1.189700 3.015800
1.217600 3.015800
1.245500 3.015800
1.273400 3.015800
1.301200 3.041700
1.329100 3.080900
1.357000 3.120200
1.384900 3.837600
1.412700 3.532400
1.440600 3.250200
1.468500 3.273400
1.496400 3.639300
1.524200 3.635200
1.552100 3.631100
1.580000 3.627100
1.607900 3.522900
1.635700 4.276500
1.663600 3.820600
1.691500 2.685900
1.719400 2.768500
1.747200 2.851000
1.775100 2.933600
1.803000 5.129400
1.830900 4.893400
1.858700 4.657300
1.886600 4.421300
1.914500 3.129200
1.942300 3.095600
1.970200 5.160200
1.998100 5.403700
2.026000 5.647100
2.053800 3.332000
2.081700 3.123600
2.109600 2.915100
2.137500 1.769600
2.165300 2.702900
2.193200 2.482000
2.221100 0.000000
2.249000 0.000000
2.276800 0.000000
2.304700 0.000000
2.332600 0.000000
2.360500 0.000000
2.388300 0.000000
2.416200 0.000000
2.444100 0.000000
2.472000 0.000000
2.499800 0.000000
2.527700 0.000000
2.555600 0.000000
2.583500 0.000000
2.611300 0.000000
2.639200 0.000000
2.667100 0.000000
2.695000 0.000000
2.722800 0.000000
2.750700 0.000000
2.778600 0.000000
2.806400 0.000000
2.834300 0.000000
2.862200 0.000000
2.890100 0.000000
2.917900 0.000000
2.945800 0.000000
2.973700 0.000000
3.001600 0.000000
3.029400 0.000000
3.057300 0.000000
3.085200 0.000000
3.113100 0.000000
3.140900 0.000000
3.168800 0.000000
3.196700 0.000000
3.224600 0.000000
3.252400 0.000000
3.280300 0.000000
3.308200 0.000000
3.336100 0.000000
3.363900 0.000000
3.391800 0.000000
3.419700 0.000000
3.447600 0.000000
3.475400 0.000000
3.503300 0.000000
3.531200 0.000000
3.559100 0.000000
3.586900 0.000000
3.614800 0.000000
3.642700 0.000000
3.670500 0.000000
3.698400 0.000000
3.726300 0.000000
3.754200 0.000000
3.782000 0.000000
3.809900 0.426300
3.837800 0.455700
3.865700 0.485200
3.893500 0.514600
3.921400 0.544000
3.949300 0.573500
3.977200 0.602900
4.005000 0.632400
4.032900 2.713100
4.060800 2.839300
4.088700 2.965500
4.116500 1.067500
4.144400 1.061300
4.172300 1.055100
4.200200 1.048900
4.228000 1.042700
4.255900 2.910700
4.283800 3.139600
4.311700 3.879000
4.339500 4.151500
4.367400 5.582400
4.395300 5.483000
4.423200 5.771800
4.451000 6.060600
4.478900 4.547600
4.506800 4.593900
4.534600 4.677900
4.562500 4.768300
4.590400 4.866600
4.618300 5.060000
4.646100 4.152000
4.674000 3.952000
4.701900 3.752000
4.729800 3.551900
4.757600 3.392500
4.785500 2.588600
4.813400 2.437500
4.841300 2.286400
4.869100 2.135300
4.897000 1.984100
4.924900 1.833000
4.952800 1.681900
4.980600 1.530800
5.008500 1.518500
5.036400 1.599600
5.064300 1.680600
5.092100 1.761700
5.120000 1.842700
5.147900 0.266500
5.175800 0.271200
5.203600 0.275900
5.231500 0.280600
5.259400 0.285200
5.287300 0.289900
5.315100 0.294600
5.343000 0.299200
5.370900 0.303900
5.398700 0.308600
5.426600 0.594000
5.454500 0.616200
5.482400 0.868100
5.510200 0.903800
5.538100 0.939600
5.566000 0.975400
5.593900 1.011100
5.621700 1.046900
5.649600 1.082600
5.677500 1.118400
5.705400 1.154200
5.733200 1.189900
5.761100 1.225700
5.789000 1.261400
5.816900 1.297200
5.844700 1.333000
5.872600 1.368700
5.900500 1.522800
5.928400 1.568400
5.956200 1.831400
5.984100 1.900400
6.012000 1.969300
6.039900 2.974000
6.067700 3.106400
6.095600 3.430800
6.123500 3.585800
6.151400 4.104400
6.179200 4.285000
6.207100 4.500100
6.235000 4.734400
6.262800 4.451400
6.290700 4.802300
6.318600 5.107900
6.346500 5.413400
6.374300 5.719000
6.402200 6.024600
6.430100 6.893200
6.458000 7.119300
6.485800 7.426300
6.513700 6.897300
6.541600 6.324400
6.569500 5.751600
6.597300 4.307500
6.625200 4.700000
6.653100 4.484700
6.681000 3.579700
6.708800 2.735200
6.736700 2.666900
6.764600 2.638800
6.792500 2.610700
6.820300 2.582600
6.848200 2.554500
6.876100 3.081900
6.904000 3.195300
6.931800 3.308700
6.959700 2.813100
6.987600 3.006800
7.015500 6.063600
7.043300 3.661900
7.071200 3.687800
7.099100 3.753400
7.126900 5.445200
7.154800 6.706200
7.182700 7.196100
7.210600 7.686100
7.238400 4.717700
7.266300 4.341100
7.294200 3.964500
7.322100 3.587900
7.349900 2.225600
7.377800 2.121600
7.405700 2.058300
7.433600 1.994900
7.461400 1.931600
7.489300 2.515000
7.517200 2.447800
7.545100 2.380700
7.572900 2.313500
7.600800 3.566100
7.628700 3.652000
7.656600 3.737800
7.684400 3.823700
7.712300 3.180800
7.740200 2.927700
7.768100 2.897300
7.795900 2.892200
7.823800 3.136400
7.851700 4.141100
7.879600 5.791800
7.907400 5.660600
7.935300 5.529400
7.963200 5.398100
7.991000 5.266900
8.018900 5.135700
8.046800 4.423800
8.074700 3.544800
8.102500 3.527100
8.130400 3.509400
8.158300 3.491600
8.186200 2.115800
8.214000 1.926400
8.241900 1.737100
8.269800 1.547800
8.297700 1.358400
8.325500 1.169100
8.353400 0.965700
8.381300 0.959500
8.409200 0.953300
8.437000 0.947100
8.464900 0.940900
8.492800 0.934700
8.520700 0.928500
8.548500 0.922300
8.576400 0.916100
8.604300 1.098400
8.632200 1.100200
8.660000 1.102100
8.687900 1.104000
8.715800 1.105900
8.743700 1.107800
8.771500 1.109700
8.799400 1.111600
8.827300 1.670700
8.855100 2.112700
8.883000 2.209400
8.910900 2.306100
8.938800 2.402800
8.966600 2.738800
8.994500 2.847400
9.022400 2.955900
9.050300 3.064400
9.078100 2.424300
9.106000 2.329000
9.133900 2.233600
9.161800 2.138300
9.189600 1.602200
9.217500 1.402600
9.245400 1.282600
9.273300 1.252900
9.301100 1.205200
9.329000 1.157600
9.356900 1.109900
9.384800 1.062200
9.412600 1.014500
9.440500 0.966800
9.468400 0.983300
9.496300 0.953400
9.524100 2.009400
9.552000 2.300000
9.579900 2.590600
9.607800 2.881200
9.635600 3.171800
9.663500 3.992100
9.691400 4.326000
9.719200 5.606600
9.747100 5.955000
9.775000 7.496300
9.802900 7.580600
9.830700 6.425000
9.858600 6.174300
9.886500 5.802800
9.914400 4.972800
9.942200 4.111800
9.970100 4.162700
9.998000 4.193200
10.025900 5.836800
10.053700 5.544500
10.081600 5.252300
10.109500 3.210700
10.137400 3.220400
10.165200 3.230000
10.193100 3.239700
10.221000 3.249400
10.248900 3.310900
10.276700 9.020000
10.304600 3.254600
10.332500 3.091100
10.360400 2.927500
10.388200 2.763900
10.416100 2.902200
10.444000 3.161600
10.471900 3.154100
10.499700 3.031000
10.527600 2.908000
10.555500 2.784900
10.583400 2.661800
10.611200 2.667800
10.639100 3.039800
10.667000 3.150700
10.694800 3.261600
10.722700 4.416000
10.750600 6.285200
10.778500 6.065800
10.806300 5.846400
10.834200 4.796400
10.862100 4.711500
10.890000 3.035700
10.917800 3.163200
10.945700 3.290600
10.973600 3.418100
11.001500 3.545500
11.029300 4.464600
11.057200 4.222700
11.085100 3.980800
11.113000 4.881200
11.140800 4.955300
11.168700 4.741900
11.196600 4.903100
11.224500 6.477800
11.252300 6.562900
11.280200 3.534200
11.308100 3.345500
11.336000 2.243400
11.363800 2.158100
11.391700 3.933000
11.419600 4.480400
11.447500 4.181400
11.475300 4.204000
11.503200 3.670700
11.531100 3.539500
11.558900 3.408200
11.586800 3.292400
11.614700 3.199800
11.642600 3.107300
11.670400 3.049700
11.698300 3.011300
11.726200 5.352500
11.754100 5.740500
11.781900 2.168700
11.809800 2.277500
11.837700 2.386300
11.865600 2.495100
11.893400 2.552400
11.921300 2.643400
11.949200 3.014700
11.977100 3.080200
12.004900 4.306000
12.032800 4.256300
12.060700 4.206600
12.088600 4.191900
12.116400 4.473900
12.144300 4.781900
12.172200 4.107800
12.200100 4.507900
12.227900 6.010400
12.255800 5.827300
12.283700 5.794100
12.311600 5.338400
12.339400 5.310600
12.367300 5.282800
12.395200 3.935300
12.423000 3.936400
12.450900 3.657600
12.478800 3.760300
12.506700 4.011700
12.534500 4.263100
12.562400 5.082800
12.590300 5.594300
12.618200 6.831100
12.646000 6.940100
12.673900 11.158400
12.701800 6.783800
12.729700 5.382800
12.757500 4.990600
12.785400 4.618400
12.813300 3.798600
12.841200 3.567200
12.869000 3.442200
12.896900 3.401600
12.924800 3.361000
12.952700 3.128200
12.980500 3.095900
13.008400 2.627000
13.036300 2.648200
13.064200 2.669500
13.092000 21.440500
13.119900 1.712000
13.147800 1.769000
13.175700 1.825900
13.203500 1.882800
13.231400 1.939700
13.259300 1.996600
13.287100 2.691700
13.315000 2.871100
13.342900 3.050500
13.370800 3.398700
13.398600 3.705000
13.426500 4.011400
13.454400 8.169700
13.482300 4.662800
13.510100 5.055900
13.538000 5.983100
13.565900 5.861100
13.593800 5.631600
13.621600 5.398900
13.649500 5.250000
13.677400 5.119300
13.705300 4.988500
13.733100 4.527400
13.761000 4.318800
13.788900 3.129900
13.816800 3.039700
13.844600 2.949400
13.872500 2.859200
13.900400 2.876500
13.928300 2.440000
13.956100 2.223200
13.984000 2.193300
14.011900 2.163400
14.039800 2.133500
14.067600 2.103600
14.095500 2.073700
14.123400 2.046000
14.151200 2.027200
14.179100 2.008300
14.207000 2.345400
14.234900 3.217300
14.262700 3.660300
14.290600 4.103300
14.318500 4.392000
14.346400 4.842400
14.374200 5.292800
14.402100 7.174800
14.430000 12.750600
14.457900 5.354600
14.485700 5.281000
14.513600 5.290900
14.541500 5.352500
14.569400 5.414100
14.597200 5.475600
14.625100 8.482300
14.653000 5.152800
14.680900 4.924400
14.708700 4.696300
14.736600 4.468200
14.764500 4.070000
14.792400 3.926200
14.820200 3.581200
14.848100 3.457400
14.876000 3.333600
14.903900 2.571600
14.931700 3.366700
14.959600 3.610400
14.987500 3.854000
15.015300 4.097700
15.043200 4.137600
15.071100 4.350000
15.099000 4.361200
15.126800 4.372400
15.154700 4.383700
15.182600 4.891300
15.210500 4.729100
15.238300 4.781200
15.266200 7.541000
15.294100 3.270100
15.322000 3.211800
15.349800 3.153500
15.377700 3.095300
15.405600 3.011000
15.433500 2.986500
15.461300 2.433100
15.489200 2.413100
15.517100 2.021600
15.545000 2.019300
15.572800 2.017000
15.600700 2.014700
15.628600 2.012400
15.656500 2.120400
15.684300 3.347300
15.712200 3.405500
15.740100 3.855600
15.768000 3.898600
15.795800 3.941600
15.823700 3.984600
15.851600 3.181000
15.879400 3.193200
15.907300 3.205400
15.935200 3.672300
15.963100 3.624900
15.990900 3.577400
16.018800 3.715300
16.046700 4.514900
16.074600 4.679900
16.102400 3.776900
16.130300 3.964900
16.158200 4.135900
16.186100 4.306800
16.213900 4.477800
16.241800 4.648800
16.269700 5.539800
16.297600 5.520400
16.325400 3.746200
16.353300 3.695200
16.381200 3.644300
16.409100 4.036300
16.436900 4.020000
16.464800 4.987700
16.492700 4.633900
16.520600 4.547600
16.548400 4.461200
16.576300 4.458900
16.604200 8.060700
16.632100 5.321800
16.659900 5.359800
16.687800 5.397800
16.715700 4.564500
16.743500 4.374500
16.771400 4.344500
16.799300 4.314600
16.827200 4.284700
16.855000 4.510000
16.882900 6.779500
16.910800 7.222300
16.938700 4.526400
16.966500 5.800000
16.994400 6.525100
17.022300 6.482700
17.050200 6.747800
17.078000 5.776200
17.105900 5.605500
17.133800 5.434800
17.161700 6.107600
17.189500 6.025500
17.217400 5.943400
17.245300 5.760200
17.273200 5.679000
17.301000 5.597700
17.328900 5.608500
17.356800 4.683500
17.384700 4.311700
17.412500 3.665300
17.440400 3.554800
17.468300 4.657500
17.496200 4.921600
17.524000 5.185600
17.551900 5.269600
17.579800 5.320000
17.607600 3.656300
17.635500 3.531100
17.663400 3.322000
17.691300 4.262900
17.719100 4.209400
17.747000 4.156000
17.774900 4.378900
17.802800 5.586700
17.830600 5.624500
17.858500 5.662300
17.886400 5.700100
17.914300 3.338200
17.942100 3.327600
17.970000 3.316900
17.997900 2.869800
18.025800 3.048100
18.053600 4.045300
18.081500 2.953200
18.109400 2.951000
18.137300 2.948500
18.165100 3.355700
18.193000 3.885200
18.220900 3.182900
18.248800 2.661600
18.276600 2.618900
18.304500 2.576200
18.332400 2.533500
18.360300 8.311900
18.388100 4.262300
18.416000 4.310700
18.443900 3.536600
18.471700 3.590500
18.499600 3.644400
18.527500 3.698200
18.555400 3.752100
18.583200 3.806000
18.611100 4.359400
18.639000 6.136300
18.666900 5.955600
18.694700 5.775000
18.722600 4.102400
18.750500 5.013600
18.778400 5.158900
18.806200 11.018400
18.834100 5.585800
18.862000 5.610600
18.889900 5.114600
18.917700 4.386600
18.945600 5.236000
18.973500 5.261900
19.001400 5.287800
19.029200 6.746700
19.057100 6.279800
19.085000 5.810900
19.112900 5.559500
19.140700 5.491200
19.168600 5.276800
19.196500 4.565800
19.224400 4.122100
19.252200 3.079300
19.280100 3.005400
19.308000 4.435600
19.335800 4.723900
19.363700 5.012200
19.391600 5.300400
19.419500 3.030400
19.447300 2.913100
19.475200 15.972600
19.503100 3.393300
19.531000 3.285100
19.558800 3.177000
19.586700 3.558500
19.614600 4.680700
19.642500 5.177500
19.670300 5.110700
19.698200 5.058100
19.726100 5.045600
19.754000 4.235200
19.781800 4.241500
19.809700 4.247800
19.837600 5.065300
19.865500 5.312800
19.893300 4.409400
19.921200 4.008300
19.949100 3.948700
19.977000 3.929900
20.004800 4.490500
20.032700 4.978700
20.060600 5.844900
20.088500 5.164600
20.116300 5.155100
20.144200 5.145600
20.172100 5.136100
20.199900 5.126600
20.227800 5.117100
20.255700 5.419200
20.283600 5.127400
20.311400 4.769000
20.339300 4.096100
20.367200 4.054800
20.395100 4.120800
20.422900 4.186700
20.450800 4.781800
20.478700 4.876800
20.506600 4.971400
20.534400 5.066000
20.562300 5.125800
20.590200 5.060300
20.618100 4.994700
20.645900 4.955900
20.673800 4.941300
20.701700 4.735300
20.729600 4.846500
20.757400 4.715400
20.785300 4.449100
20.813200 4.355600
20.841100 4.469400
20.868900 4.583200
20.896800 4.698100
20.924700 8.558000
20.952600 4.132500
20.980400 4.216000
21.008300 4.216500
21.036200 4.217000
21.064000 4.404400
21.091900 14.984100
21.119800 6.549900
21.147700 6.046800
21.175500 5.988900
21.203400 5.930900
21.231300 5.873000
21.259200 5.815000
21.287000 6.797400
21.314900 6.547600
21.342800 4.566700
21.370700 4.541600
21.398500 4.925900
21.426400 4.821600
21.454300 4.717500
21.482200 4.516100
21.510000 4.546200
21.537900 4.576300
21.565800 4.606400
21.593700 4.636500
21.621500 4.666600
21.649400 6.537300
21.677300 5.481500
21.705200 4.697700
21.733000 4.721400
21.760900 5.110500
21.788800 7.559700
21.816700 6.315600
21.844500 4.269900
21.872400 5.914400
21.900300 6.442500
21.928100 7.339900
21.956000 6.663200
21.983900 5.275200
22.011800 5.314300
22.039600 4.931000
22.067500 5.007100
22.095400 4.728100
22.123300 4.973100
22.151100 4.150700
22.179000 3.335200
22.206900 3.225800
22.234800 3.233000
22.262600 3.240200
22.290500 3.247400
22.318400 3.254600
22.346300 5.105200
22.374100 5.395900
22.402000 5.686500
22.429900 2.750200
22.457800 2.770200
22.485600 5.154500
22.513500 4.542400
22.541400 4.487600
22.569300 4.432800
22.597100 4.524700
22.625000 4.335000
22.652900 5.132900
22.680800 4.658300
22.708600 5.536500
22.736500 7.407300
22.764400 8.200700
22.792200 7.394100
22.820100 6.135200
22.848000 5.180100
22.875900 8.337700
22.903700 8.519000
22.931600 4.843800
22.959500 5.040700
22.987400 4.316000
23.015200 4.661200
23.043100 5.500200
23.071000 5.177700
23.098900 4.697400
23.126700 5.448700
23.154600 3.690700
23.182500 6.240200
23.210400 7.127100
23.238200 3.215100
23.266100 3.795400
23.294000 5.148900
23.321900 4.469400
23.349700 4.161500
23.377600 4.704200
23.405500 4.594300
23.433400 5.265600
23.461200 5.281900
23.489100 5.328500
23.517000 5.375000
23.544900 5.421600
23.572700 4.735900
23.600600 4.722500
23.628500 3.904700
23.656300 3.942300
23.684200 3.980000
23.712100 4.017700
23.740000 4.593300
23.767800 4.610900
23.795700 4.628500
23.823600 4.042800
23.851500 4.124200
23.879300 11.383600
23.907200 5.365000
23.935100 5.569600
23.963000 6.718400
23.990800 6.736300
24.018700 4.618700
24.046600 3.732600
24.074500 4.074300
24.102300 3.566200
24.130200 3.693100
24.158100 5.630600
24.186000 5.366600
24.213800 5.102700
24.241700 4.838800
24.269600 4.961400
24.297500 3.529300
24.325300 3.363500
24.353200 3.637400
24.381100 3.068100
24.409000 3.093300
24.436800 3.118600
24.464700 3.143800
24.492600 4.435000
24.520400 4.160900
24.548300 4.566300
24.576200 4.971700
24.604100 4.879600
24.631900 4.846600
24.659800 4.834800
24.687700 4.900200
24.715600 5.107500
24.743400 4.333400
24.771300 4.206400
24.799200 4.010300
24.827100 4.058000
24.854900 4.105700
24.882800 5.220500
24.910700 5.162900
24.938600 5.105400
24.966400 5.047800
24.994300 4.776300
25.022200 5.554000
25.050100 5.500400
25.077900 4.650600
25.105800 4.504300
25.133700 4.358000
25.161600 4.211700
25.189400 5.550100
25.217300 4.710200
25.245200 4.737200
25.273100 4.764100
25.300900 4.791000
25.328800 4.436400
25.356700 5.128000
25.384500 5.066800
25.412400 5.066400
25.440300 5.458400
25.468200 6.794700
25.496000 6.891000
25.523900 5.636600
25.551800 5.765800
25.579700 5.895100
25.607500 5.823400
25.635400 5.149500
25.663300 5.107500
25.691200 5.087700
25.719000 6.234800
25.746900 6.073600
25.774800 5.008700
25.802700 4.771400
25.830500 4.324900
25.858400 3.504800
25.886300 3.572100
25.914200 3.639300
25.942000 3.706600
25.969900 3.773900
25.997800 3.841100
26.025700 3.908400
26.053500 3.975700
26.081400 4.042900
26.109300 4.110200
26.137200 5.155400
26.165000 5.717000
26.192900 5.477700
26.220800 6.000800
26.248600 6.043700
26.276500 6.086700
26.304400 5.089700
26.332300 5.095500
26.360100 5.720400
26.388000 5.830600
26.415900 5.940700
26.443800 6.050900
26.471600 5.050900
26.499500 4.666900
26.527400 4.273500
26.555300 4.215900
26.583100 3.852200
26.611000 3.290000
26.638900 3.216700
26.666800 3.143500
26.694600 3.070200
26.722500 3.268700
26.750400 3.323500
26.778300 5.772000
26.806100 5.896900
26.834000 6.518400
26.861900 7.304000
26.889800 6.785200
26.917600 6.025500
26.945500 4.490900
26.973400 12.684000
27.001300 6.009000
27.029100 6.282700
27.057000 6.877600
27.084900 5.662600
27.112700 6.181300
27.140600 6.162400
27.168500 6.075900
27.196400 5.989300
27.224200 5.902700
27.252100 5.917500
27.280000 5.423300
27.307900 5.693200
27.335700 5.475100
27.363600 5.258500
27.391500 5.126800
27.419400 4.661800
27.447200 4.618600
27.475100 5.273000
27.503000 5.363600
27.530900 5.239200
27.558700 5.644500
27.586600 6.382000
27.614500 5.411000
27.642400 5.186300
27.670200 5.074400
27.698100 4.964100
27.726000 4.855500
27.753900 4.748500
27.781700 5.712000
27.809600 4.816800
27.837500 3.899200
27.865400 2.977100
27.893200 0.471200
27.921100 0.000000
27.949000 0.000000
27.976800 0.000000
28.004700 0.000000
28.032600 0.000000
28.060500 0.000000
28.088300 0.000000
28.116200 0.000000
28.144100 0.000000
28.172000 0.000000
28.199800 0.000000
28.227700 0.000000
28.255600 0.000000
28.283500 0.000000
28.311300 0.000000
28.339200 0.000000
28.367100 0.000000
28.395000 0.000000
28.422800 0.000000
28.450700 0.000000
28.478600 0.000000
28.506500 0.000000
28.534300 0.000000
28.562200 0.000000
28.590100 0.000000
28.618000 0.000000
28.645800 0.000000
28.673700 0.000000
28.701600 0.000000
28.729500 0.000000
28.757300 0.000000
28.785200 0.000000
28.813100 0.000000
28.840900 0.000000
28.868800 0.000000
28.896700 0.000000
28.924600 0.000000
28.952400 0.000000
28.980300 0.000000
29.008200 0.000000
29.036100 0.000000
29.063900 0.000000
29.091800 0.000000
29.119700 0.000000
29.147600 0.000000
29.175400 0.000000
29.203300 0.000000
29.231200 0.000000
29.259100 0.000000
29.286900 0.000000
29.314800 0.000000
29.342700 0.000000
29.370600 0.000000
29.398400 0.000000
29.426300 0.000000
29.454200 0.000000
29.482100 0.000000
29.509900 0.000000
29.537800 0.000000
29.565700 0.000000
29.593600 0.000000
29.621400 0.000000
29.649300 0.000000
29.677200 0.000000
29.705000 0.000000
29.732900 0.000000
29.760800 0.000000
29.788700 0.000000
29.816500 0.000000
29.844400 0.000000
29.872300 0.000000
29.900200 0.000000
29.928000 0.000000
29.955900 0.000000
29.983800 0.000000
30.011700 0.000000
30.039500 0.000000
30.067400 0.000000
30.095300 0.000000
30.123200 0.000000
30.151000 0.000000
30.178900 0.000000
30.206800 0.000000
30.234700 0.000000
30.262500 0.000000
30.290400 0.000000
30.318300 0.000000
30.346200 0.000000
30.374000 0.000000
30.401900 0.000000
30.429800 0.000000
e
