set title 'mp-1184879 - Density of States'
set xlabel 'Energy (eV)'
set ylabel 'DOS (states/eV)'
set grid
set xrange [-10:10]
set yrange [0:22.876]
set xzeroaxis lt -1
set terminal png size 800,600
set output 'mp-1184879_dos_gnuplot.png'
plot '-' using 1:2 with lines title 'DOS'
-16.527700 0.000000
-16.512200 0.000000
-16.496700 0.000000
-16.481300 0.000000
-16.465800 0.000000
-16.450400 0.000000
-16.434900 0.000000
-16.419400 0.000000
-16.404000 0.000000
-16.388500 0.000000
-16.373000 0.000000
-16.357600 0.000000
-16.342100 0.000000
-16.326600 0.000000
-16.311200 0.000000
-16.295700 0.000000
-16.280200 0.000000
-16.264800 0.000000
-16.249300 0.000000
-16.233800 0.000000
-16.218400 0.000000
-16.202900 0.000000
-16.187500 0.000000
-16.172000 0.000000
-16.156500 0.000000
-16.141100 0.000000
-16.125600 0.000000
-16.110100 0.000000
-16.094700 0.000000
-16.079200 0.000000
-16.063700 0.000000
-16.048300 0.000000
-16.032800 0.000000
-16.017300 0.000000
-16.001900 0.000000
-15.986400 0.000000
-15.970900 0.000000
-15.955500 0.000000
-15.940000 0.000000
-15.924600 0.000000
-15.909100 0.000000
-15.893600 0.000000
-15.878200 0.000000
-15.862700 0.000000
-15.847200 0.000000
-15.831800 0.000000
-15.816300 0.000000
-15.800800 0.000000
-15.785400 0.000000
-15.769900 0.000000
-15.754400 0.000000
-15.739000 0.000000
-15.723500 0.000000
-15.708100 0.000000
-15.692600 0.000000
-15.677100 0.000000
-15.661700 0.000000
-15.646200 0.000000
-15.630700 0.000000
-15.615300 0.000000
-15.599800 0.000000
-15.584300 0.000000
-15.568900 0.000000
-15.553400 0.000000
-15.537900 0.000000
-15.522500 0.000000
-15.507000 0.000000
-15.491500 0.000000
-15.476100 0.000000
-15.460600 0.000000
-15.445200 0.000000
-15.429700 0.000000
-15.414200 0.000000
-15.398800 0.000000
-15.383300 0.000000
-15.367800 0.000000
-15.352400 0.000000
-15.336900 0.000000
-15.321400 0.000000
-15.306000 0.000000
-15.290500 0.000000
-15.275000 0.000000
-15.259600 0.000000
-15.244100 0.000000
-15.228600 0.000000
-15.213200 0.000000
-15.197700 0.000000
-15.182300 0.000000
-15.166800 0.000000
-15.151300 0.000000
-15.135900 0.000000
-15.120400 0.000000
-15.104900 0.000000
-15.089500 0.000000
-15.074000 0.000000
-15.058500 0.633300
-15.043100 1.139800
-15.027600 1.547400
-15.012100 1.906900
-14.996700 2.201400
-14.981200 2.512300
-14.965800 2.892900
-14.950300 3.369200
-14.934800 3.991900
-14.919400 6.169900
-14.903900 5.994100
-14.888400 6.315800
-14.873000 6.267000
-14.857500 6.851300
-14.842000 9.637200
-14.826600 13.402300
-14.811100 20.804500
-14.795600 9.338900
-14.780200 5.423100
-14.764700 4.168100
-14.749200 3.474000
-14.733800 3.008700
-14.718300 2.443900
-14.702900 1.966400
-14.687400 1.530000
-14.671900 1.214800
-14.656500 0.897200
-14.641000 0.780900
-14.625500 0.000000
-14.610100 0.000000
-14.594600 0.000000
-14.579100 0.000000
-14.563700 0.000000
-14.548200 0.000000
-14.532700 0.000000
-14.517300 0.000000
-14.501800 0.000000
-14.486400 0.000000
-14.470900 0.000000
-14.455400 0.000000
-14.440000 0.000000
-14.424500 0.000000
-14.409000 0.000000
-14.393600 0.000000
-14.378100 0.000000
-14.362600 0.000000
-14.347200 0.000000
-14.331700 76.815800
-14.316200 26.171800
-14.300800 0.000000
-14.285300 0.000000
-14.269800 0.000000
-14.254400 0.000000
-14.238900 0.000000
-14.223500 0.000000
-14.208000 0.000000
-14.192500 0.000000
-14.177100 0.000000
-14.161600 0.000000
-14.146100 0.000000
-14.130700 0.000000
-14.115200 0.000000
-14.099700 0.000000
-14.084300 0.000000
-14.068800 0.000000
-14.053300 0.000000
-14.037900 0.000000
-14.022400 0.000000
-14.006900 0.000000
-13.991500 0.000000
-13.976000 0.000000
-13.960600 0.000000
-13.945100 0.000000
-13.929600 0.000000
-13.914200 0.000000
-13.898700 0.000000
-13.883200 0.000000
-13.867800 0.000000
-13.852300 0.000000
-13.836800 0.000000
-13.821400 0.000000
-13.805900 0.000000
-13.790400 0.000000
-13.775000 0.000000
-13.759500 0.000000
-13.744100 0.000000
-13.728600 0.000000
-13.713100 0.000000
-13.697700 0.000000
-13.682200 0.000000
-13.666700 0.000000
-13.651300 0.000000
-13.635800 0.000000
-13.620300 0.000000
-13.604900 0.000000
-13.589400 0.000000
-13.573900 0.000000
-13.558500 0.000000
-13.543000 0.000000
-13.527500 0.000000
-13.512100 0.000000
-13.496600 0.000000
-13.481200 0.000000
-13.465700 0.000000
-13.450200 0.000000
-13.434800 0.000000
-13.419300 0.000000
-13.403800 0.000000
-13.388400 0.000000
-13.372900 0.000000
-13.357400 0.000000
-13.342000 0.000000
-13.326500 0.000000
-13.311000 0.000000
-13.295600 0.000000
-13.280100 0.000000
-13.264600 0.000000
-13.249200 0.000000
-13.233700 0.000000
-13.218300 0.000000
-13.202800 0.000000
-13.187300 0.000000
-13.171900 0.000000
-13.156400 0.000000
-13.140900 0.000000
-13.125500 0.000000
-13.110000 0.000000
-13.094500 0.000000
-13.079100 0.000000
-13.063600 0.000000
-13.048100 0.000000
-13.032700 0.000000
-13.017200 0.000000
-13.001800 0.000000
-12.986300 0.000000
-12.970800 0.000000
-12.955400 0.000000
-12.939900 0.000000
-12.924400 0.000000
-12.909000 0.000000
-12.893500 0.000000
-12.878000 0.000000
-12.862600 0.000000
-12.847100 0.000000
-12.831600 0.000000
-12.816200 0.000000
-12.800700 0.000000
-12.785200 0.000000
-12.769800 0.000000
-12.754300 0.000000
-12.738900 0.000000
-12.723400 0.000000
-12.707900 0.000000
-12.692500 0.000000
-12.677000 0.000000
-12.661500 0.000000
-12.646100 0.000000
-12.630600 0.000000
-12.615100 0.000000
-12.599700 0.361100
-12.584200 0.526700
-12.568700 0.617100
-12.553300 0.776500
-12.537800 0.952300
-12.522400 1.144700
-12.506900 1.265700
-12.491400 1.425400
-12.476000 1.569600
-12.460500 1.710000
-12.445000 1.863700
-12.429600 2.130700
-12.414100 2.384100
-12.398600 2.675300
-12.383200 2.995500
-12.367700 3.445900
-12.352200 5.613000
-12.336800 6.385900
-12.321300 7.590900
-12.305800 8.425800
-12.290400 23.699400
-12.274900 3.059300
-12.259500 7.099300
-12.244000 8.398600
-12.228500 7.089800
-12.213100 7.177800
-12.197600 6.442100
-12.182100 3.446400
-12.166700 3.029200
-12.151200 2.693400
-12.135700 2.385400
-12.120300 2.080400
-12.104800 1.878800
-12.089300 1.728800
-12.073900 1.568500
-12.058400 1.382000
-12.042900 1.217300
-12.027500 0.986700
-12.012000 0.778500
-11.996600 0.674500
-11.981100 0.457400
-11.965600 0.000000
-11.950200 0.000000
-11.934700 0.000000
-11.919200 0.000000
-11.903800 0.000000
-11.888300 0.000000
-11.872800 0.000000
-11.857400 0.000000
-11.841900 0.000000
-11.826400 0.000000
-11.811000 0.000000
-11.795500 0.000000
-11.780100 0.000000
-11.764600 0.000000
-11.749100 0.000000
-11.733700 0.000000
-11.718200 0.000000
-11.702700 0.000000
-11.687300 0.000000
-11.671800 0.000000
-11.656300 0.000000
-11.640900 0.000000
-11.625400 0.000000
-11.609900 0.000000
-11.594500 0.000000
-11.579000 0.000000
-11.563500 0.000000
-11.548100 0.000000
-11.532600 0.000000
-11.517200 0.000000
-11.501700 0.000000
-11.486200 0.000000
-11.470800 0.000000
-11.455300 0.000000
-11.439800 0.000000
-11.424400 0.000000
-11.408900 0.000000
-11.393400 0.000000
-11.378000 0.000000
-11.362500 0.000000
-11.347000 0.000000
-11.331600 0.000000
-11.316100 0.000000
-11.300600 0.000000
-11.285200 0.000000
-11.269700 0.000000
-11.254300 0.000000
-11.238800 0.000000
-11.223300 0.000000
-11.207900 0.000000
-11.192400 0.000000
-11.176900 0.000000
-11.161500 0.000000
-11.146000 0.000000
-11.130500 0.000000
-11.115100 0.000000
-11.099600 0.000000
-11.084100 0.000000
-11.068700 0.000000
-11.053200 0.000000
-11.037800 0.000000
-11.022300 0.000000
-11.006800 0.000000
-10.991400 0.000000
-10.975900 0.000000
-10.960400 0.000000
-10.945000 0.000000
-10.929500 0.000000
-10.914000 0.000000
-10.898600 0.000000
-10.883100 0.000000
-10.867600 0.000000
-10.852200 0.000000
-10.836700 0.000000
-10.821200 0.000000
-10.805800 0.000000
-10.790300 0.000000
-10.774900 0.000000
-10.759400 0.000000
-10.743900 0.000000
-10.728500 0.000000
-10.713000 0.000000
-10.697500 0.000000
-10.682100 0.000000
-10.666600 0.000000
-10.651100 0.000000
-10.635700 0.000000
-10.620200 0.000000
-10.604700 0.000000
-10.589300 0.000000
-10.573800 0.000000
-10.558400 0.000000
-10.542900 0.000000
-10.527400 0.000000
-10.512000 0.000000
-10.496500 0.000000
-10.481000 0.000000
-10.465600 0.000000
-10.450100 0.000000
-10.434600 0.000000
-10.419200 0.000000
-10.403700 0.000000
-10.388200 0.000000
-10.372800 0.000000
-10.357300 0.000000
-10.341800 0.000000
-10.326400 0.000000
-10.310900 0.000000
-10.295500 0.000000
-10.280000 0.000000
-10.264500 0.000000
-10.249100 0.000000
-10.233600 0.000000
-10.218100 0.000000
-10.202700 0.000000
-10.187200 0.000000
-10.171700 0.000000
-10.156300 0.000000
-10.140800 0.000000
-10.125300 0.000000
-10.109900 0.000000
-10.094400 0.000000
-10.078900 0.000000
-10.063500 0.000000
-10.048000 0.000000
-10.032600 0.000000
-10.017100 0.000000
-10.001600 0.000000
-9.986200 0.000000
-9.970700 0.000000
-9.955200 0.000000
-9.939800 0.000000
-9.924300 0.000000
-9.908800 0.000000
-9.893400 0.000000
-9.877900 0.000000
-9.862400 0.000000
-9.847000 0.000000
-9.831500 0.000000
-9.816100 0.000000
-9.800600 0.000000
-9.785100 0.000000
-9.769700 0.000000
-9.754200 0.000000
-9.738700 0.000000
-9.723300 0.000000
-9.707800 0.000000
-9.692300 0.000000
-9.676900 0.000000
-9.661400 0.000000
-9.645900 0.000000
-9.630500 0.000000
-9.615000 0.000000
-9.599500 0.000000
-9.584100 0.000000
-9.568600 0.000000
-9.553200 0.000000
-9.537700 0.000000
-9.522200 0.000000
-9.506800 0.000000
-9.491300 0.000000
-9.475800 0.000000
-9.460400 0.000000
-9.444900 0.000000
-9.429400 0.000000
-9.414000 0.000000
-9.398500 0.000000
-9.383000 0.000000
-9.367600 0.000000
-9.352100 0.000000
-9.336600 0.000000
-9.321200 0.000000
-9.305700 0.000000
-9.290300 0.000000
-9.274800 0.000000
-9.259300 0.000000
-9.243900 0.000000
-9.228400 0.000000
-9.212900 0.000000
-9.197500 0.000000
-9.182000 0.000000
-9.166500 0.000000
-9.151100 0.000000
-9.135600 0.000000
-9.120100 0.000000
-9.104700 0.000000
-9.089200 0.000000
-9.073800 0.000000
-9.058300 0.000000
-9.042800 0.000000
-9.027400 0.000000
-9.011900 0.000000
-8.996400 0.000000
-8.981000 0.000000
-8.965500 0.000000
-8.950000 0.000000
-8.934600 0.000000
-8.919100 0.000000
-8.903600 0.000000
-8.888200 0.000000
-8.872700 0.000000
-8.857200 0.000000
-8.841800 0.000000
-8.826300 0.000000
-8.810900 0.000000
-8.795400 0.000000
-8.779900 0.000000
-8.764500 0.000000
-8.749000 0.000000
-8.733500 0.000000
-8.718100 0.000000
-8.702600 0.000000
-8.687100 0.000000
-8.671700 0.000000
-8.656200 0.000000
-8.640700 0.000000
-8.625300 0.000000
-8.609800 0.000000
-8.594400 0.000000
-8.578900 0.000000
-8.563400 0.000000
-8.548000 0.000000
-8.532500 0.000000
-8.517000 0.000000
-8.501600 0.000000
-8.486100 0.000000
-8.470600 0.000000
-8.455200 0.000000
-8.439700 0.000000
-8.424200 0.000000
-8.408800 0.000000
-8.393300 0.000000
-8.377800 0.000000
-8.362400 0.000000
-8.346900 0.000000
-8.331500 0.000000
-8.316000 0.000000
-8.300500 0.000000
-8.285100 0.000000
-8.269600 0.000000
-8.254100 0.000000
-8.238700 0.000000
-8.223200 0.000000
-8.207700 0.000000
-8.192300 0.000000
-8.176800 0.000000
-8.161300 0.000000
-8.145900 0.000000
-8.130400 0.000000
-8.114900 0.000000
-8.099500 0.000000
-8.084000 0.000000
-8.068600 0.000000
-8.053100 0.000000
-8.037600 0.000000
-8.022200 0.000000
-8.006700 0.000000
-7.991200 0.000000
-7.975800 0.000000
-7.960300 0.000000
-7.944800 0.000000
-7.929400 0.000000
-7.913900 0.000000
-7.898400 0.000000
-7.883000 0.000000
-7.867500 0.000000
-7.852100 0.000000
-7.836600 0.000000
-7.821100 0.000000
-7.805700 0.000000
-7.790200 0.000000
-7.774700 0.000000
-7.759300 0.000000
-7.743800 0.000000
-7.728300 0.000000
-7.712900 0.000000
-7.697400 0.000000
-7.681900 0.000000
-7.666500 0.000000
-7.651000 0.000000
-7.635500 0.000000
-7.620100 0.000000
-7.604600 0.000000
-7.589200 0.000000
-7.573700 0.000000
-7.558200 0.000000
-7.542800 0.000000
-7.527300 0.000000
-7.511800 0.000000
-7.496400 0.000000
-7.480900 0.000000
-7.465400 0.000000
-7.450000 0.000000
-7.434500 0.000000
-7.419000 0.000000
-7.403600 0.000000
-7.388100 0.000000
-7.372700 0.000000
-7.357200 0.000000
-7.341700 0.000000
-7.326300 0.000000
-7.310800 0.000000
-7.295300 0.000000
-7.279900 0.000000
-7.264400 0.000000
-7.248900 0.000000
-7.233500 0.000000
-7.218000 0.000000
-7.202500 0.000000
-7.187100 0.000000
-7.171600 0.000000
-7.156100 0.000000
-7.140700 0.000000
-7.125200 0.000000
-7.109800 0.000000
-7.094300 0.000000
-7.078800 0.000000
-7.063400 0.000000
-7.047900 0.000000
-7.032400 0.000000
-7.017000 0.000000
-7.001500 0.000000
-6.986000 0.000000
-6.970600 0.000000
-6.955100 0.000000
-6.939600 0.000000
-6.924200 0.000000
-6.908700 0.000000
-6.893200 0.000000
-6.877800 0.000000
-6.862300 0.000000
-6.846900 0.000000
-6.831400 0.000000
-6.815900 0.000000
-6.800500 0.000000
-6.785000 0.000000
-6.769500 0.000000
-6.754100 0.000000
-6.738600 0.000000
-6.723100 0.000000
-6.707700 0.000000
-6.692200 0.000000
-6.676700 0.000000
-6.661300 0.000000
-6.645800 0.000000
-6.630400 0.000000
-6.614900 0.000000
-6.599400 0.000000
-6.584000 0.000000
-6.568500 0.000000
-6.553000 0.000000
-6.537600 0.000000
-6.522100 0.000000
-6.506600 0.000000
-6.491200 0.000000
-6.475700 0.000000
-6.460200 0.000000
-6.444800 0.000000
-6.429300 0.000000
-6.413800 0.000000
-6.398400 0.000000
-6.382900 0.000000
-6.367500 0.000000
-6.352000 0.000000
-6.336500 0.000000
-6.321100 0.000000
-6.305600 0.000000
-6.290100 0.000000
-6.274700 0.000000
-6.259200 0.000000
-6.243700 0.000000
-6.228300 0.000000
-6.212800 0.000000
-6.197300 0.000000
-6.181900 0.000000
-6.166400 0.000000
-6.150900 0.000000
-6.135500 0.000000
-6.120000 0.000000
-6.104600 0.000000
-6.089100 0.000000
-6.073600 0.000000
-6.058200 0.000000
-6.042700 0.000000
-6.027200 0.000000
-6.011800 0.000000
-5.996300 0.000000
-5.980800 0.000000
-5.965400 0.000000
-5.949900 0.000000
-5.934400 0.000000
-5.919000 0.000000
-5.903500 0.000000
-5.888100 0.000000
-5.872600 0.000000
-5.857100 0.000000
-5.841700 0.000000
-5.826200 0.000000
-5.810700 0.000000
-5.795300 0.000000
-5.779800 0.000000
-5.764300 0.000000
-5.748900 0.000000
-5.733400 0.000000
-5.717900 0.000000
-5.702500 0.000000
-5.687000 0.000000
-5.671500 0.000000
-5.656100 0.000000
-5.640600 0.000000
-5.625200 0.000000
-5.609700 0.000000
-5.594200 0.000000
-5.578800 0.000000
-5.563300 0.000000
-5.547800 0.000000
-5.532400 0.000000
-5.516900 0.000000
-5.501400 0.000000
-5.486000 0.000000
-5.470500 0.000000
-5.455000 0.000000
-5.439600 0.000000
-5.424100 0.000000
-5.408700 0.000000
-5.393200 0.000000
-5.377700 0.000000
-5.362300 0.000000
-5.346800 0.000000
-5.331300 0.000000
-5.315900 0.000000
-5.300400 0.000000
-5.284900 0.000000
-5.269500 0.000000
-5.254000 0.000000
-5.238500 0.000000
-5.223100 0.000000
-5.207600 1.593000
-5.192100 3.129900
-5.176700 4.898100
-5.161200 7.526300
-5.145800 11.363600
-5.130300 20.796700
-5.114800 20.692800
-5.099400 19.844800
-5.083900 18.930500
-5.068400 10.674900
-5.053000 6.736700
-5.037500 2.054600
-5.022000 0.000000
-5.006600 0.000000
-4.991100 0.000000
-4.975600 0.000000
-4.960200 0.000000
-4.944700 0.000000
-4.929200 0.000000
-4.913800 0.000000
-4.898300 0.000000
-4.882900 0.000000
-4.867400 0.000000
-4.851900 0.000000
-4.836500 0.000000
-4.821000 0.000000
-4.805500 0.000000
-4.790100 0.000000
-4.774600 0.000000
-4.759100 0.000000
-4.743700 0.000000
-4.728200 0.000000
-4.712700 0.000000
-4.697300 0.000000
-4.681800 0.000000
-4.666400 0.000000
-4.650900 0.000000
-4.635400 0.000000
-4.620000 0.000000
-4.604500 0.000000
-4.589000 0.000000
-4.573600 0.000000
-4.558100 0.000000
-4.542600 0.000000
-4.527200 0.000000
-4.511700 0.000000
-4.496200 0.000000
-4.480800 0.000000
-4.465300 0.000000
-4.449800 0.000000
-4.434400 0.000000
-4.418900 0.000000
-4.403500 0.000000
-4.388000 0.000000
-4.372500 0.000000
-4.357100 0.000000
-4.341600 0.000000
-4.326100 0.000000
-4.310700 0.000000
-4.295200 0.000000
-4.279700 0.000000
-4.264300 0.000000
-4.248800 0.000000
-4.233300 0.000000
-4.217900 0.000000
-4.202400 0.000000
-4.186900 0.000000
-4.171500 0.000000
-4.156000 0.000000
-4.140600 0.000000
-4.125100 0.000000
-4.109600 0.000000
-4.094200 0.000000
-4.078700 0.000000
-4.063200 0.000000
-4.047800 0.000000
-4.032300 0.000000
-4.016800 0.000000
-4.001400 0.000000
-3.985900 0.000000
-3.970400 0.000000
-3.955000 0.000000
-3.939500 0.000000
-3.924100 0.000000
-3.908600 0.000000
-3.893100 0.000000
-3.877700 0.000000
-3.862200 0.000000
-3.846700 0.000000
-3.831300 0.000000
-3.815800 0.000000
-3.800300 0.080900
-3.784900 0.204200
-3.769400 0.360200
-3.753900 0.548800
-3.738500 0.770000
-3.723000 1.030600
-3.707500 3.933900
-3.692100 2.487300
-3.676600 2.573600
-3.661200 2.551600
-3.645700 2.469300
-3.630200 2.363000
-3.614800 2.270600
-3.599300 2.085100
-3.583800 1.926700
-3.568400 1.721600
-3.552900 1.724600
-3.537400 3.521500
-3.522000 4.257100
-3.506500 4.693400
-3.491000 4.620000
-3.475600 4.195200
-3.460100 3.712700
-3.444700 3.681700
-3.429200 3.574700
-3.413700 3.553000
-3.398300 3.605800
-3.382800 3.764700
-3.367300 4.055400
-3.351900 4.004300
-3.336400 4.007700
-3.320900 4.028700
-3.305500 4.481600
-3.290000 4.438700
-3.274500 3.868400
-3.259100 3.881000
-3.243600 4.069800
-3.228100 4.029600
-3.212700 4.238100
-3.197200 4.738400
-3.181800 5.363500
-3.166300 5.143900
-3.150800 4.729800
-3.135400 4.965700
-3.119900 5.333200
-3.104400 5.251400
-3.089000 5.310300
-3.073500 5.950700
-3.058000 6.635000
-3.042600 7.110200
-3.027100 5.851500
-3.011600 4.510800
-2.996200 4.057600
-2.980700 3.585700
-2.965200 3.190800
-2.949800 3.070400
-2.934300 3.344400
-2.918900 3.361200
-2.903400 4.457700
-2.887900 2.951700
-2.872500 2.795000
-2.857000 2.486800
-2.841500 2.383600
-2.826100 2.278600
-2.810600 2.164700
-2.795100 2.091200
-2.779700 2.017500
-2.764200 1.946400
-2.748700 1.878200
-2.733300 1.903800
-2.717800 1.916400
-2.702400 1.775700
-2.686900 1.102800
-2.671400 0.986700
-2.656000 0.878600
-2.640500 0.786400
-2.625000 0.771400
-2.609600 0.953300
-2.594100 0.879300
-2.578600 0.649400
-2.563200 0.356400
-2.547700 0.316800
-2.532200 0.286100
-2.516800 0.256800
-2.501300 0.228800
-2.485800 0.202300
-2.470400 0.177100
-2.454900 0.153300
-2.439500 0.130800
-2.424000 0.109800
-2.408500 0.090100
-2.393100 0.298200
-2.377600 0.407000
-2.362100 0.381500
-2.346700 0.447200
-2.331200 0.517000
-2.315700 0.590700
-2.300300 0.668500
-2.284800 1.186800
-2.269300 1.454400
-2.253900 1.740000
-2.238400 2.093500
-2.222900 2.546400
-2.207500 3.333100
-2.192000 4.015300
-2.176600 4.653300
-2.161100 4.532800
-2.145600 4.398700
-2.130200 4.448600
-2.114700 5.444800
-2.099200 8.383400
-2.083800 8.322800
-2.068300 9.024800
-2.052800 9.656800
-2.037400 11.030400
-2.021900 11.362700
-2.006400 6.611700
-1.991000 3.849500
-1.975500 6.902600
-1.960100 8.760200
-1.944600 11.077300
-1.929100 12.241300
-1.913700 7.962800
-1.898200 6.956700
-1.882700 8.335100
-1.867300 7.234600
-1.851800 18.587700
-1.836300 17.115400
-1.820900 11.628800
-1.805400 8.191000
-1.789900 5.262800
-1.774500 3.729400
-1.759000 5.556000
-1.743500 8.398500
-1.728100 8.773600
-1.712600 8.771100
-1.697200 8.798100
-1.681700 16.151200
-1.666200 19.558400
-1.650800 12.293700
-1.635300 11.139200
-1.619800 10.000300
-1.604400 8.263900
-1.588900 6.280800
-1.573400 3.380400
-1.558000 1.834400
-1.542500 0.997700
-1.527000 0.807800
-1.511600 0.635800
-1.496100 1.043800
-1.480700 0.318900
-1.465200 0.444100
-1.449700 0.395600
-1.434300 0.461700
-1.418800 0.532200
-1.403300 0.607000
-1.387900 0.686000
-1.372400 0.903200
-1.356900 2.469600
-1.341500 2.996600
-1.326000 2.684400
-1.310500 2.777300
-1.295100 2.991700
-1.279600 3.045100
-1.264100 3.053600
-1.248700 2.898800
-1.233200 2.788400
-1.217800 2.698400
-1.202300 2.628400
-1.186800 2.575600
-1.171400 2.514900
-1.155900 2.403800
-1.140400 2.382300
-1.125000 2.376400
-1.109500 2.408200
-1.094000 2.523000
-1.078600 2.590200
-1.063100 2.655500
-1.047600 2.724800
-1.032200 2.935100
-1.016700 3.020500
-1.001200 2.981300
-0.985800 3.177500
-0.970300 3.482400
-0.954900 3.650300
-0.939400 6.432100
-0.923900 4.960200
-0.908500 5.018600
-0.893000 4.888900
-0.877500 5.160500
-0.862100 4.699200
-0.846600 4.391300
-0.831100 3.421400
-0.815700 3.091100
-0.800200 2.817000
-0.784700 2.383500
-0.769300 2.903500
-0.753800 3.485700
-0.738400 5.110300
-0.722900 6.441700
-0.707400 5.315000
-0.692000 3.455200
-0.676500 3.138600
-0.661000 2.949000
-0.645600 2.770600
-0.630100 2.580900
-0.614600 3.291400
-0.599200 3.778200
-0.583700 3.758300
-0.568200 3.805900
-0.552800 3.823000
-0.537300 3.836200
-0.521800 3.872300
-0.506400 4.167600
-0.490900 4.201900
-0.475500 4.288600
-0.460000 6.403800
-0.444500 5.688700
-0.429100 5.052000
-0.413600 3.962100
-0.398100 3.813000
-0.382700 3.838700
-0.367200 4.282600
-0.351700 5.068600
-0.336300 3.503200
-0.320800 2.802600
-0.305300 1.588400
-0.289900 1.161800
-0.274400 0.762600
-0.258900 0.448300
-0.243500 0.233200
-0.228000 0.181200
-0.212600 0.145200
-0.197100 0.000000
-0.181600 0.000000
-0.166200 0.000000
-0.150700 0.000000
-0.135200 0.000000
-0.119800 0.000000
-0.104300 0.000000
-0.088800 0.000000
-0.073400 0.000000
-0.057900 0.000000
-0.042400 0.000000
-0.027000 0.000000
-0.011500 0.000000
0.003900 0.000000
0.019400 0.000000
0.034900 0.000000
0.050300 0.000000
0.065800 0.000000
0.081300 0.000000
0.096700 0.000000
0.112200 0.000000
0.127700 0.000000
0.143100 0.000000
0.158600 0.000000
0.174100 0.000000
0.189500 0.000000
0.205000 0.000000
0.220500 0.000000
0.235900 0.000000
0.251400 0.000000
0.266800 0.000000
0.282300 0.000000
0.297800 0.000000
0.313200 0.000000
0.328700 0.000000
0.344200 0.000000
0.359600 0.000000
0.375100 0.000000
0.390600 0.000000
0.406000 0.000000
0.421500 0.000000
0.437000 0.000000
0.452400 0.000000
0.467900 0.000000
0.483300 0.000000
0.498800 0.000000
0.514300 0.000000
0.529700 0.000000
0.545200 0.000000
0.560700 0.000000
0.576100 0.000000
0.591600 0.000000
0.607100 0.000000
0.622500 0.000000
0.638000 0.000000
0.653500 0.000000
0.668900 0.000000
0.684400 0.000000
0.699900 0.000000
0.715300 0.000000
0.730800 0.000000
0.746200 0.000000
0.761700 0.000000
0.777200 0.000000
0.792600 0.000000
0.808100 0.000000
0.823600 0.000000
0.839000 0.000000
0.854500 0.000000
0.870000 0.000000
0.885400 0.000000
0.900900 0.000000
0.916400 0.000000
0.931800 0.000000
0.947300 0.000000
0.962800 0.000000
0.978200 0.000000
0.993700 0.000000
1.009100 0.000000
1.024600 0.000000
1.040100 0.000000
1.055500 0.000000
1.071000 0.000000
1.086500 0.000000
1.101900 0.000000
1.117400 0.000000
1.132900 0.000000
1.148300 0.000000
1.163800 0.000000
1.179300 0.000000
1.194700 0.000000
1.210200 0.000000
1.225600 0.000000
1.241100 0.000000
1.256600 0.000000
1.272000 0.000000
1.287500 0.000000
1.303000 0.000000
1.318400 0.000000
1.333900 0.000000
1.349400 0.000000
1.364800 0.000000
1.380300 0.000000
1.395800 0.000000
1.411200 0.000000
1.426700 0.000000
1.442200 0.000000
1.457600 0.000000
1.473100 0.000000
1.488500 0.000000
1.504000 0.000000
1.519500 0.000000
1.534900 0.000000
1.550400 0.000000
1.565900 0.000000
1.581300 0.000000
1.596800 0.000000
1.612300 0.000000
1.627700 0.000000
1.643200 0.000000
1.658700 0.000000
1.674100 0.000000
1.689600 0.000000
1.705100 0.000000
1.720500 0.646900
1.736000 0.819300
1.751400 1.006400
1.766900 1.208100
1.782400 1.424300
1.797800 1.547400
1.813300 2.236400
1.828800 2.617600
1.844200 3.263500
1.859700 3.710100
1.875200 4.212100
1.890600 4.785400
1.906100 5.556500
1.921600 6.711700
1.937000 7.243600
1.952500 8.538600
1.967900 8.677700
1.983400 8.007300
1.998900 8.873700
2.014300 8.312300
2.029800 6.263800
2.045300 5.153900
2.060700 4.298100
2.076200 3.516000
2.091700 3.082700
2.107100 2.827000
2.122600 2.550400
2.138100 2.068700
2.153500 1.769500
2.169000 1.442600
2.184500 1.141400
2.199900 0.866100
2.215400 0.406100
2.230800 0.000000
2.246300 0.000000
2.261800 0.000000
2.277200 0.000000
2.292700 0.000000
2.308200 0.000000
2.323600 0.000000
2.339100 0.000000
2.354600 0.000000
2.370000 0.000000
2.385500 0.000000
2.401000 0.000000
2.416400 0.000000
2.431900 0.000000
2.447300 0.000000
2.462800 0.000000
2.478300 0.000000
2.493700 0.000000
2.509200 0.000000
2.524700 0.000000
2.540100 0.000000
2.555600 0.000000
2.571100 0.000000
2.586500 0.000000
2.602000 0.000000
2.617500 0.000000
2.632900 0.000000
2.648400 0.000000
2.663900 0.000000
2.679300 0.000000
2.694800 0.000000
2.710200 0.000000
2.725700 0.000000
2.741200 0.000000
2.756600 0.000000
2.772100 0.000000
2.787600 0.000000
2.803000 0.000000
2.818500 0.000000
2.834000 0.000000
2.849400 0.000000
2.864900 0.000000
2.880400 0.000000
2.895800 0.000000
2.911300 0.000000
2.926800 0.000000
2.942200 0.000000
2.957700 0.000000
2.973100 0.000000
2.988600 0.000000
3.004100 0.000000
3.019500 0.000000
3.035000 0.000000
3.050500 0.000000
3.065900 0.000000
3.081400 0.000000
3.096900 0.000000
3.112300 0.000000
3.127800 0.000000
3.143300 0.000000
3.158700 0.000000
3.174200 0.000000
3.189600 0.000000
3.205100 0.000000
3.220600 0.000000
3.236000 0.000000
3.251500 0.000000
3.267000 0.000000
3.282400 0.000000
3.297900 0.000000
3.313400 0.000000
3.328800 0.000000
3.344300 0.000000
3.359800 0.000000
3.375200 0.000000
3.390700 0.000000
3.406200 0.000000
3.421600 0.000000
3.437100 0.000000
3.452500 0.000000
3.468000 0.000000
3.483500 0.000000
3.498900 0.000000
3.514400 0.000000
3.529900 0.000000
3.545300 0.000000
3.560800 0.000000
3.576300 0.000000
3.591700 0.000000
3.607200 0.000000
3.622700 0.000000
3.638100 0.000000
3.653600 0.000000
3.669100 0.000000
3.684500 0.000000
3.700000 0.000000
3.715400 0.000000
3.730900 0.000000
3.746400 0.000000
3.761800 0.000000
3.777300 0.000000
3.792800 0.000000
3.808200 0.000000
3.823700 0.000000
3.839200 0.000000
3.854600 0.000000
3.870100 0.000000
3.885600 0.000000
3.901000 0.000000
3.916500 0.000000
3.931900 0.000000
3.947400 0.000000
3.962900 0.000000
3.978300 0.000000
3.993800 0.000000
4.009300 0.000000
4.024700 0.000000
4.040200 0.000000
4.055700 0.000000
4.071100 0.000000
4.086600 0.000000
4.102100 0.000000
4.117500 0.000000
4.133000 0.000000
4.148500 0.000000
4.163900 0.000000
4.179400 0.000000
4.194800 0.000000
4.210300 0.000000
4.225800 0.000000
4.241200 0.000000
4.256700 0.000000
4.272200 0.000000
4.287600 0.000000
4.303100 0.000000
4.318600 0.000000
4.334000 0.000000
4.349500 0.000000
4.365000 0.000000
4.380400 0.000000
4.395900 0.000000
4.411300 0.000000
4.426800 0.000000
4.442300 0.000000
4.457700 0.000000
4.473200 0.000000
4.488700 0.000000
4.504100 0.000000
4.519600 0.000000
4.535100 0.000000
4.550500 0.000000
4.566000 0.000000
4.581500 0.000000
4.596900 0.000000
4.612400 0.000000
4.627900 0.000000
4.643300 0.000000
4.658800 0.000000
4.674200 0.000000
4.689700 0.000000
4.705200 0.000000
4.720600 0.000000
4.736100 0.000000
4.751600 0.000000
4.767000 0.000000
4.782500 0.000000
4.798000 0.000000
4.813400 0.065000
4.828900 0.072600
4.844400 0.080600
4.859800 0.088900
4.875300 0.097500
4.890800 0.106400
4.906200 0.115500
4.921700 0.125000
4.937100 0.134800
4.952600 0.144900
4.968100 0.155300
4.983500 0.166000
4.999000 0.177100
5.014500 0.188400
5.029900 0.200000
5.045400 0.211900
5.060900 0.213900
5.076300 0.226100
5.091800 0.229200
5.107300 0.237100
5.122700 0.245000
5.138200 0.252700
5.153600 0.260400
5.169100 0.267900
5.184600 0.275400
5.200000 0.282800
5.215500 0.290100
5.231000 0.297300
5.246400 0.304500
5.261900 0.311500
5.277400 0.318500
5.292800 0.325300
5.308300 0.332100
5.323800 0.341600
5.339200 0.352200
5.354700 0.363200
5.370200 0.374600
5.385600 0.386400
5.401100 0.398600
5.416500 0.411300
5.432000 0.424400
5.447500 0.437900
5.462900 0.451800
5.478400 0.466100
5.493900 0.564800
5.509300 0.591200
5.524800 0.618400
5.540300 0.776400
5.555700 0.804900
5.571200 0.832700
5.586700 0.859900
5.602100 0.886500
5.617600 0.912400
5.633100 0.937700
5.648500 0.932400
5.664000 1.032000
5.679400 1.093100
5.694900 1.134600
5.710400 1.180500
5.725800 1.229300
5.741300 1.258000
5.756800 1.309100
5.772200 1.363300
5.787700 1.411600
5.803200 1.471500
5.818600 1.534700
5.834100 1.696100
5.849600 1.639500
5.865000 1.230600
5.880500 1.221400
5.895900 1.212100
5.911400 1.202700
5.926900 1.193300
5.942300 1.183900
5.957800 1.172100
5.973300 1.162800
5.988700 1.452000
6.004200 1.509200
6.019700 1.568200
6.035100 1.622800
6.050600 1.640800
6.066100 1.655800
6.081500 1.668300
6.097000 1.676000
6.112500 1.667200
6.127900 1.677200
6.143400 1.705300
6.158800 1.732700
6.174300 1.762200
6.189800 1.794800
6.205200 1.832800
6.220700 1.901000
6.236200 1.922500
6.251600 1.915100
6.267100 2.174000
6.282600 2.227400
6.298000 2.285300
6.313500 2.315900
6.329000 2.464500
6.344400 2.711000
6.359900 2.941000
6.375300 3.180800
6.390800 3.430600
6.406300 5.020200
6.421700 3.616400
6.437200 3.606400
6.452700 4.387500
6.468100 4.384400
6.483600 4.552400
6.499100 4.708500
6.514500 4.453600
6.530000 4.174000
6.545500 3.970300
6.560900 4.091700
6.576400 5.210900
6.591900 4.987300
6.607300 4.070600
6.622800 3.928700
6.638200 3.748700
6.653700 3.514100
6.669200 3.010900
6.684600 2.913300
6.700100 2.821800
6.715600 3.214800
6.731000 3.284200
6.746500 3.758500
6.762000 3.288800
6.777400 3.506500
6.792900 3.460200
6.808400 3.475000
6.823800 3.320800
6.839300 3.728400
6.854800 3.739600
6.870200 3.945600
6.885700 3.639000
6.901100 2.851200
6.916600 2.453000
6.932100 2.200600
6.947500 1.974800
6.963000 1.769300
6.978500 1.559900
6.993900 1.347300
7.009400 1.268200
7.024900 1.188500
7.040300 1.174600
7.055800 1.061600
7.071300 2.503100
7.086700 1.457900
7.102200 1.557900
7.117600 1.562900
7.133100 1.570800
7.148600 1.589200
7.164000 1.663400
7.179500 1.667600
7.195000 1.754900
7.210400 1.719100
7.225900 2.317100
7.241400 2.695600
7.256800 3.248000
7.272300 3.649900
7.287800 4.084200
7.303200 5.315100
7.318700 6.259700
7.334200 6.870800
7.349600 6.365000
7.365100 6.316200
7.380500 6.173700
7.396000 6.492400
7.411500 5.201200
7.426900 4.113300
7.442400 3.533400
7.457900 3.882400
7.473300 4.999100
7.488800 5.133900
7.504300 5.109100
7.519700 4.890600
7.535200 4.541200
7.550700 4.226700
7.566100 5.053500
7.581600 5.533200
7.597100 4.144700
7.612500 3.419300
7.628000 2.949100
7.643400 3.038900
7.658900 3.217800
7.674400 3.452300
7.689800 3.869700
7.705300 4.756800
7.720800 4.848200
7.736200 5.918000
7.751700 5.361000
7.767200 5.004400
7.782600 4.955800
7.798100 4.760300
7.813600 4.537500
7.829000 5.216100
7.844500 5.322900
7.859900 5.118800
7.875400 4.527900
7.890900 4.060900
7.906300 3.808500
7.921800 4.662000
7.937300 4.680000
7.952700 4.654200
7.968200 4.558600
7.983700 4.438400
7.999100 4.157300
8.014600 4.063700
8.030100 4.113200
8.045500 4.072200
8.061000 3.965800
8.076500 3.907800
8.091900 3.907900
8.107400 4.690600
8.122800 4.982900
8.138300 4.484700
8.153800 4.794400
8.169200 3.990500
8.184700 3.480800
8.200200 4.757500
8.215600 3.310700
8.231100 3.139200
8.246600 3.054900
8.262000 2.780500
8.277500 2.735300
8.293000 2.693900
8.308400 2.761900
8.323900 2.657300
8.339300 2.731000
8.354800 2.796300
8.370300 2.853200
8.385700 2.817700
8.401200 2.911300
8.416700 3.244500
8.432100 3.408200
8.447600 3.760600
8.463100 3.344300
8.478500 3.131800
8.494000 2.554000
8.509500 2.583600
8.524900 2.825000
8.540400 2.742700
8.555900 3.343300
8.571300 3.510600
8.586800 3.548300
8.602200 3.831000
8.617700 3.962200
8.633200 4.418500
8.648600 4.308300
8.664100 4.040300
8.679600 3.900900
8.695000 3.807400
8.710500 3.091300
8.726000 2.142800
8.741400 1.995900
8.756900 2.004200
8.772400 2.034700
8.787800 2.064400
8.803300 1.936200
8.818800 2.084200
8.834200 2.324700
8.849700 3.047100
8.865100 3.317400
8.880600 3.407700
8.896100 3.165500
8.911500 3.109300
8.927000 2.993600
8.942500 2.871100
8.957900 2.875000
8.973400 3.522900
8.988900 3.130800
9.004300 2.956400
9.019800 2.387100
9.035300 2.263100
9.050700 2.222000
9.066200 2.216700
9.081600 2.280800
9.097100 2.881100
9.112600 3.249100
9.128000 5.215500
9.143500 5.234900
9.159000 5.149600
9.174400 4.347300
9.189900 3.878900
9.205400 3.491800
9.220800 3.431700
9.236300 3.285700
9.251800 3.153200
9.267200 3.069600
9.282700 3.047400
9.298200 2.882900
9.313600 2.515000
9.329100 2.586900
9.344500 2.599700
9.360000 2.447900
9.375500 2.125100
9.390900 1.945500
9.406400 1.810000
9.421900 1.718300
9.437300 1.521400
9.452800 1.532100
9.468300 1.544400
9.483700 1.558100
9.499200 1.573400
9.514700 1.660800
9.530100 1.772400
9.545600 1.898400
9.561000 2.532700
9.576500 2.939500
9.592000 3.060100
9.607400 3.263900
9.622900 3.094100
9.638400 2.689400
9.653800 2.292900
9.669300 2.305900
9.684800 2.356000
9.700200 2.351400
9.715700 2.553900
9.731200 2.855000
9.746600 2.969900
9.762100 5.495800
9.777600 4.827400
9.793000 4.431800
9.808500 4.108000
9.823900 3.610500
9.839400 3.318100
9.854900 3.193100
9.870300 3.094100
9.885800 3.012300
9.901300 2.963500
9.916700 2.951000
9.932200 3.370300
9.947700 2.649800
9.963100 2.746400
9.978600 3.298000
9.994100 3.257700
10.009500 2.980300
10.025000 3.025000
10.040500 3.068000
10.055900 3.213400
10.071400 3.393800
10.086800 5.479400
10.102300 3.421200
10.117800 3.523200
10.133200 3.603000
10.148700 2.650200
10.164200 2.683500
10.179600 2.825500
10.195100 2.879000
10.210600 2.857500
10.226000 2.843300
10.241500 2.909400
10.257000 3.427800
10.272400 3.870800
10.287900 3.938500
10.303300 4.680600
10.318800 3.186400
10.334300 3.209200
10.349700 3.174900
10.365200 3.170200
10.380700 3.158800
10.396100 3.122800
10.411600 3.193600
10.427100 3.218700
10.442500 3.172700
10.458000 3.107500
10.473500 3.060400
10.488900 3.031400
10.504400 1.895500
10.519900 1.851400
10.535300 1.873500
10.550800 1.969200
10.566200 2.017800
10.581700 2.064100
10.597200 2.125400
10.612600 2.214200
10.628100 2.371300
10.643600 2.596600
10.659000 2.780300
10.674500 3.140800
10.690000 3.651700
10.705400 3.863300
10.720900 3.846800
10.736400 3.492500
10.751800 3.330700
10.767300 3.330800
10.782800 3.232500
10.798200 3.686300
10.813700 3.015600
10.829100 3.091300
10.844600 3.114300
10.860100 3.120400
10.875500 2.946800
10.891000 3.159600
10.906500 3.199100
10.921900 3.322500
10.937400 3.470700
10.952900 3.486800
10.968300 3.567600
10.983800 3.637900
10.999300 3.739600
11.014700 3.636400
11.030200 3.752500
11.045600 3.883100
11.061100 4.111700
11.076600 4.210900
11.092000 5.254800
11.107500 3.323700
11.123000 2.825800
11.138400 2.692700
11.153900 2.599000
11.169400 2.812400
11.184800 2.960800
11.200300 3.009400
11.215800 3.066300
11.231200 3.097000
11.246700 3.241000
11.262200 3.410300
11.277600 3.682600
11.293100 4.452900
11.308500 4.232800
11.324000 2.391600
11.339500 2.438300
11.354900 2.935700
11.370400 3.234400
11.385900 3.522700
11.401300 3.818800
11.416800 3.635500
11.432300 3.936300
11.447700 4.051200
11.463200 4.048200
11.478700 3.894100
11.494100 3.824500
11.509600 3.546800
11.525000 3.548800
11.540500 3.573600
11.556000 4.756800
11.571400 5.263400
11.586900 5.451900
11.602400 5.914900
11.617800 5.489000
11.633300 3.716600
11.648800 3.517800
11.664200 3.454600
11.679700 3.377600
11.695200 3.490800
11.710600 2.866200
11.726100 3.378100
11.741600 3.503100
11.757000 3.656500
11.772500 3.395000
11.787900 3.479600
11.803400 3.512200
11.818900 3.517700
11.834300 3.591400
11.849800 3.556000
11.865300 4.617800
11.880700 3.144000
11.896200 3.136900
11.911700 3.820600
11.927100 3.375100
11.942600 3.851600
11.958100 4.563800
11.973500 4.678400
11.989000 4.931200
12.004500 4.297600
12.019900 4.632400
12.035400 4.889800
12.050800 4.466300
12.066300 4.173900
12.081800 4.413400
12.097200 4.044300
12.112700 2.983700
12.128200 2.857000
12.143600 2.797100
12.159100 2.737800
12.174600 3.395100
12.190000 3.369300
12.205500 3.469300
12.221000 3.365300
12.236400 3.491300
12.251900 3.499600
12.267300 3.865000
12.282800 4.257400
12.298300 4.833200
12.313700 4.774500
12.329200 4.876700
12.344700 5.083800
12.360100 5.018800
12.375600 5.051200
12.391100 4.847700
12.406500 4.647700
12.422000 4.324800
12.437500 4.223800
12.452900 4.019000
12.468400 3.777700
12.483900 3.670000
12.499300 3.562400
12.514800 4.384800
12.530200 3.191700
12.545700 3.003800
12.561200 2.757100
12.576600 2.623600
12.592100 2.471500
12.607600 2.293900
12.623000 2.102100
12.638500 1.972800
12.654000 1.818900
12.669400 1.872500
12.684900 1.716300
12.700400 1.561800
12.715800 1.126900
12.731300 1.035900
12.746800 0.948100
12.762200 0.858300
12.777700 0.638000
12.793100 0.577300
12.808600 0.519300
12.824100 0.464000
12.839500 0.411500
12.855000 0.361700
12.870500 0.314700
12.885900 0.270500
12.901400 0.229000
12.916900 0.140800
12.932300 0.119100
12.947800 0.098800
12.963300 0.079700
12.978700 0.062000
12.994200 0.045600
13.009600 0.000000
13.025100 0.000000
13.040600 0.000000
13.056000 0.000000
13.071500 0.000000
13.087000 0.000000
13.102400 0.000000
13.117900 0.000000
13.133400 0.000000
13.148800 0.000000
13.164300 0.000000
13.179800 0.000000
13.195200 0.000000
13.210700 0.000000
13.226200 0.000000
13.241600 0.000000
13.257100 0.000000
13.272500 0.000000
13.288000 0.000000
13.303500 0.000000
13.318900 0.000000
13.334400 0.000000
13.349900 0.000000
13.365300 0.000000
13.380800 0.000000
13.396300 0.000000
13.411700 0.000000
13.427200 0.000000
13.442700 0.000000
13.458100 0.000000
13.473600 0.000000
13.489000 0.000000
13.504500 0.000000
13.520000 0.000000
13.535400 0.000000
13.550900 0.000000
13.566400 0.000000
13.581800 0.000000
13.597300 0.000000
13.612800 0.000000
13.628200 0.000000
13.643700 0.000000
13.659200 0.000000
13.674600 0.000000
13.690100 0.000000
13.705600 0.000000
13.721000 0.000000
13.736500 0.000000
13.751900 0.000000
13.767400 0.000000
13.782900 0.000000
13.798300 0.000000
13.813800 0.000000
13.829300 0.000000
13.844700 0.000000
13.860200 0.000000
13.875700 0.000000
13.891100 0.000000
13.906600 0.000000
13.922100 0.000000
13.937500 0.000000
13.953000 0.000000
13.968500 0.000000
13.983900 0.000000
13.999400 0.000000
14.014800 0.000000
14.030300 0.000000
14.045800 0.000000
14.061200 0.000000
14.076700 0.000000
14.092200 0.000000
14.107600 0.000000
14.123100 0.000000
14.138600 0.000000
14.154000 0.000000
14.169500 0.000000
14.185000 0.000000
14.200400 0.000000
14.215900 0.000000
14.231300 0.000000
14.246800 0.000000
14.262300 0.000000
14.277700 0.000000
14.293200 0.000000
14.308700 0.000000
14.324100 0.000000
14.339600 0.000000
14.355100 0.000000
14.370500 0.000000
14.386000 0.000000
14.401500 0.000000
e
