set title 'mp-1221488 - Density of States'
set xlabel 'Energy (eV)'
set ylabel 'DOS (states/eV)'
set grid
set xrange [-10:10]
set yrange [0:25.816]
set xzeroaxis lt -1
set terminal png size 800,600
set output 'mp-1221488_dos_gnuplot.png'
plot '-' using 1:2 with lines title 'DOS'
-30.191200 0.000000
-30.159500 0.000000
-30.127900 0.000000
-30.096300 0.000000
-30.064600 0.000000
-30.033000 0.000000
-30.001400 0.000000
-29.969700 0.000000
-29.938100 0.000000
-29.906500 0.000000
-29.874800 0.000000
-29.843200 0.000000
-29.811600 0.000000
-29.780000 0.000000
-29.748300 0.000000
-29.716700 0.000000
-29.685100 0.000000
-29.653400 0.000000
-29.621800 0.000000
-29.590200 0.000000
-29.558500 0.000000
-29.526900 0.000000
-29.495300 0.000000
-29.463700 0.000000
-29.432000 0.000000
-29.400400 0.000000
-29.368800 0.000000
-29.337100 0.000000
-29.305500 0.000000
-29.273900 0.000000
-29.242200 0.000000
-29.210600 0.000000
-29.179000 0.000000
-29.147400 0.000000
-29.115700 0.000000
-29.084100 0.000000
-29.052500 0.000000
-29.020800 0.000000
-28.989200 0.000000
-28.957600 0.000000
-28.925900 0.000000
-28.894300 0.000000
-28.862700 0.000000
-28.831100 0.000000
-28.799400 0.000000
-28.767800 0.000000
-28.736200 0.000000
-28.704500 0.000000
-28.672900 0.000000
-28.641300 0.000000
-28.609600 0.000000
-28.578000 0.000000
-28.546400 0.000000
-28.514800 0.000000
-28.483100 0.000000
-28.451500 0.000000
-28.419900 0.000000
-28.388200 0.000000
-28.356600 0.000000
-28.325000 0.000000
-28.293300 0.000000
-28.261700 0.000000
-28.230100 0.000000
-28.198500 0.000000
-28.166800 0.000000
-28.135200 0.000000
-28.103600 0.000000
-28.071900 0.000000
-28.040300 0.000000
-28.008700 0.000000
-27.977000 0.000000
-27.945400 0.000000
-27.913800 0.000000
-27.882200 0.000000
-27.850500 0.000000
-27.818900 0.000000
-27.787300 0.000000
-27.755600 0.000000
-27.724000 0.000000
-27.692400 0.000000
-27.660700 0.000000
-27.629100 0.000000
-27.597500 0.000000
-27.565900 0.000000
-27.534200 0.000000
-27.502600 0.000000
-27.471000 0.000000
-27.439300 0.000000
-27.407700 0.000000
-27.376100 0.000000
-27.344400 0.000000
-27.312800 0.242600
-27.281200 4.687500
-27.249500 13.766200
-27.217900 29.386100
-27.186300 51.805000
-27.154700 15.687500
-27.123000 5.498800
-27.091400 67.089800
-27.059800 13.975800
-27.028100 20.182000
-26.996500 22.869300
-26.964900 18.536500
-26.933200 18.514600
-26.901600 19.601600
-26.870000 23.680400
-26.838400 24.690700
-26.806700 22.404300
-26.775100 18.927300
-26.743500 11.739800
-26.711800 0.000000
-26.680200 0.000000
-26.648600 0.000000
-26.616900 0.000000
-26.585300 0.000000
-26.553700 10.522600
-26.522100 10.500000
-26.490400 22.013700
-26.458800 31.360700
-26.427200 11.860100
-26.395500 9.187900
-26.363900 11.008400
-26.332300 21.525400
-26.300600 7.576200
-26.269000 13.011200
-26.237400 21.935500
-26.205800 19.381200
-26.174100 28.502000
-26.142500 39.088400
-26.110900 16.771700
-26.079200 41.735500
-26.047600 30.838700
-26.016000 0.000000
-25.984300 0.000000
-25.952700 0.000000
-25.921100 0.000000
-25.889500 0.000000
-25.857800 0.000000
-25.826200 0.000000
-25.794600 0.000000
-25.762900 0.000000
-25.731300 0.000000
-25.699700 0.000000
-25.668000 0.000000
-25.636400 0.000000
-25.604800 0.000000
-25.573200 0.000000
-25.541500 0.000000
-25.509900 0.000000
-25.478300 0.000000
-25.446600 0.000000
-25.415000 0.000000
-25.383400 0.000000
-25.351700 0.000000
-25.320100 0.000000
-25.288500 0.000000
-25.256900 0.000000
-25.225200 0.000000
-25.193600 0.000000
-25.162000 0.000000
-25.130300 0.000000
-25.098700 0.000000
-25.067100 0.000000
-25.035400 0.000000
-25.003800 0.000000
-24.972200 0.000000
-24.940600 0.000000
-24.908900 0.000000
-24.877300 0.000000
-24.845700 0.000000
-24.814000 0.000000
-24.782400 0.000000
-24.750800 0.000000
-24.719100 0.000000
-24.687500 0.000000
-24.655900 0.000000
-24.624300 0.000000
-24.592600 0.000000
-24.561000 0.000000
-24.529400 0.000000
-24.497700 0.000000
-24.466100 0.000000
-24.434500 0.000000
-24.402800 0.000000
-24.371200 0.000000
-24.339600 0.000000
-24.307900 0.000000
-24.276300 0.000000
-24.244700 0.000000
-24.213100 0.000000
-24.181400 0.000000
-24.149800 0.000000
-24.118200 0.000000
-24.086500 0.000000
-24.054900 0.000000
-24.023300 0.000000
-23.991600 0.000000
-23.960000 0.000000
-23.928400 0.000000
-23.896800 0.000000
-23.865100 0.000000
-23.833500 0.000000
-23.801900 0.000000
-23.770200 0.000000
-23.738600 0.000000
-23.707000 0.000000
-23.675300 0.000000
-23.643700 0.000000
-23.612100 0.000000
-23.580500 0.000000
-23.548800 0.000000
-23.517200 0.000000
-23.485600 0.000000
-23.453900 0.000000
-23.422300 0.000000
-23.390700 0.000000
-23.359000 0.000000
-23.327400 0.000000
-23.295800 0.000000
-23.264200 0.000000
-23.232500 0.000000
-23.200900 0.000000
-23.169300 0.000000
-23.137600 0.000000
-23.106000 0.000000
-23.074400 0.000000
-23.042700 0.000000
-23.011100 0.000000
-22.979500 0.000000
-22.947900 0.000000
-22.916200 0.000000
-22.884600 0.000000
-22.853000 0.000000
-22.821300 0.000000
-22.789700 0.000000
-22.758100 0.000000
-22.726400 0.000000
-22.694800 0.000000
-22.663200 0.000000
-22.631600 0.000000
-22.599900 0.000000
-22.568300 0.000000
-22.536700 0.000000
-22.505000 0.000000
-22.473400 0.000000
-22.441800 0.000000
-22.410100 0.000000
-22.378500 0.000000
-22.346900 0.000000
-22.315300 0.000000
-22.283600 0.000000
-22.252000 0.000000
-22.220400 0.000000
-22.188700 0.000000
-22.157100 0.000000
-22.125500 0.000000
-22.093800 0.000000
-22.062200 0.000000
-22.030600 0.000000
-21.999000 0.000000
-21.967300 0.000000
-21.935700 0.000000
-21.904100 0.000000
-21.872400 0.000000
-21.840800 0.000000
-21.809200 0.000000
-21.777500 0.000000
-21.745900 0.000000
-21.714300 0.000000
-21.682700 0.000000
-21.651000 0.000000
-21.619400 0.000000
-21.587800 0.000000
-21.556100 0.000000
-21.524500 0.000000
-21.492900 0.000000
-21.461200 0.000000
-21.429600 0.000000
-21.398000 0.000000
-21.366300 0.000000
-21.334700 0.000000
-21.303100 0.000000
-21.271500 0.000000
-21.239800 0.000000
-21.208200 0.000000
-21.176600 0.000000
-21.144900 0.000000
-21.113300 0.000000
-21.081700 0.000000
-21.050000 0.000000
-21.018400 0.000000
-20.986800 0.000000
-20.955200 0.000000
-20.923500 0.000000
-20.891900 0.000000
-20.860300 0.000000
-20.828600 0.000000
-20.797000 0.000000
-20.765400 0.000000
-20.733700 0.000000
-20.702100 0.000000
-20.670500 0.000000
-20.638900 0.000000
-20.607200 0.000000
-20.575600 0.000000
-20.544000 0.000000
-20.512300 0.000000
-20.480700 0.000000
-20.449100 0.000000
-20.417400 0.000000
-20.385800 0.000000
-20.354200 0.000000
-20.322600 0.000000
-20.290900 0.000000
-20.259300 0.000000
-20.227700 0.000000
-20.196000 0.000000
-20.164400 0.000000
-20.132800 0.000000
-20.101100 0.000000
-20.069500 0.000000
-20.037900 0.000000
-20.006300 0.000000
-19.974600 0.000000
-19.943000 0.000000
-19.911400 0.000000
-19.879700 0.000000
-19.848100 0.000000
-19.816500 0.000000
-19.784800 0.000000
-19.753200 0.000000
-19.721600 0.000000
-19.690000 0.000000
-19.658300 0.000000
-19.626700 0.000000
-19.595100 0.000000
-19.563400 0.000000
-19.531800 0.000000
-19.500200 0.000000
-19.468500 0.000000
-19.436900 0.000000
-19.405300 0.000000
-19.373700 0.000000
-19.342000 0.000000
-19.310400 0.000000
-19.278800 0.000000
-19.247100 0.000000
-19.215500 0.000000
-19.183900 0.000000
-19.152200 0.000000
-19.120600 0.000000
-19.089000 0.000000
-19.057400 0.000000
-19.025700 0.000000
-18.994100 0.000000
-18.962500 0.000000
-18.930800 0.000000
-18.899200 0.000000
-18.867600 0.000000
-18.835900 0.000000
-18.804300 0.000000
-18.772700 0.000000
-18.741100 0.000000
-18.709400 0.000000
-18.677800 0.000000
-18.646200 0.000000
-18.614500 0.000000
-18.582900 0.000000
-18.551300 0.000000
-18.519600 0.000000
-18.488000 0.000000
-18.456400 0.000000
-18.424700 0.000000
-18.393100 0.000000
-18.361500 0.000000
-18.329900 0.000000
-18.298200 0.000000
-18.266600 0.000000
-18.235000 0.000000
-18.203300 0.000000
-18.171700 0.000000
-18.140100 0.000000
-18.108400 0.000000
-18.076800 0.000000
-18.045200 0.000000
-18.013600 0.000000
-17.981900 0.000000
-17.950300 0.000000
-17.918700 0.000000
-17.887000 0.000000
-17.855400 0.000000
-17.823800 0.000000
-17.792100 0.000000
-17.760500 0.000000
-17.728900 0.000000
-17.697300 0.000000
-17.665600 0.000000
-17.634000 0.000000
-17.602400 0.000000
-17.570700 0.000000
-17.539100 0.000000
-17.507500 0.000000
-17.475800 0.000000
-17.444200 0.000000
-17.412600 0.000000
-17.381000 0.000000
-17.349300 0.000000
-17.317700 0.000000
-17.286100 0.000000
-17.254400 0.000000
-17.222800 0.000000
-17.191200 0.000000
-17.159500 0.000000
-17.127900 0.000000
-17.096300 0.000000
-17.064700 0.000000
-17.033000 0.000000
-17.001400 0.000000
-16.969800 0.000000
-16.938100 0.000000
-16.906500 0.000000
-16.874900 0.000000
-16.843200 0.000000
-16.811600 0.000000
-16.780000 0.000000
-16.748400 0.000000
-16.716700 0.000000
-16.685100 0.000000
-16.653500 0.000000
-16.621800 0.000000
-16.590200 0.000000
-16.558600 0.000000
-16.526900 0.000000
-16.495300 0.000000
-16.463700 0.000000
-16.432100 0.000000
-16.400400 0.000000
-16.368800 0.000000
-16.337200 0.000000
-16.305500 0.000000
-16.273900 0.000000
-16.242300 0.000000
-16.210600 0.000000
-16.179000 0.000000
-16.147400 0.000000
-16.115800 0.000000
-16.084100 0.000000
-16.052500 0.000000
-16.020900 0.000000
-15.989200 0.000000
-15.957600 0.000000
-15.926000 0.000000
-15.894300 0.000000
-15.862700 0.000000
-15.831100 0.000000
-15.799400 0.000000
-15.767800 0.000000
-15.736200 0.000000
-15.704600 0.000000
-15.672900 0.000000
-15.641300 0.000000
-15.609700 0.000000
-15.578000 0.000000
-15.546400 0.000000
-15.514800 0.000000
-15.483100 0.000000
-15.451500 0.000000
-15.419900 0.000000
-15.388300 0.000000
-15.356600 0.000000
-15.325000 0.000000
-15.293400 0.000000
-15.261700 0.000000
-15.230100 0.000000
-15.198500 0.000000
-15.166800 0.000000
-15.135200 0.000000
-15.103600 0.000000
-15.072000 0.000000
-15.040300 0.000000
-15.008700 0.000000
-14.977100 0.000000
-14.945400 0.000000
-14.913800 0.000000
-14.882200 0.000000
-14.850500 0.000000
-14.818900 0.000000
-14.787300 0.000000
-14.755700 0.000000
-14.724000 0.000000
-14.692400 0.000000
-14.660800 0.000000
-14.629100 0.000000
-14.597500 0.000000
-14.565900 0.000000
-14.534200 0.000000
-14.502600 0.000000
-14.471000 0.000000
-14.439400 0.000000
-14.407700 0.000000
-14.376100 0.000000
-14.344500 0.000000
-14.312800 0.000000
-14.281200 0.000000
-14.249600 0.000000
-14.217900 0.000000
-14.186300 0.000000
-14.154700 0.000000
-14.123100 0.000000
-14.091400 0.000000
-14.059800 0.000000
-14.028200 0.000000
-13.996500 0.000000
-13.964900 0.000000
-13.933300 0.000000
-13.901600 0.000000
-13.870000 0.000000
-13.838400 0.000000
-13.806800 0.000000
-13.775100 0.000000
-13.743500 0.000000
-13.711900 0.000000
-13.680200 0.000000
-13.648600 0.000000
-13.617000 0.000000
-13.585300 0.000000
-13.553700 0.000000
-13.522100 0.000000
-13.490500 0.000000
-13.458800 0.000000
-13.427200 0.000000
-13.395600 0.000000
-13.363900 0.000000
-13.332300 0.000000
-13.300700 0.000000
-13.269000 0.000000
-13.237400 0.000000
-13.205800 0.000000
-13.174200 0.000000
-13.142500 0.000000
-13.110900 0.000000
-13.079300 0.000000
-13.047600 0.000000
-13.016000 0.000000
-12.984400 0.000000
-12.952700 0.000000
-12.921100 0.000000
-12.889500 0.000000
-12.857800 0.000000
-12.826200 0.000000
-12.794600 0.000000
-12.763000 0.000000
-12.731300 0.000000
-12.699700 0.000000
-12.668100 0.000000
-12.636400 0.000000
-12.604800 0.000000
-12.573200 0.000000
-12.541500 0.000000
-12.509900 0.000000
-12.478300 0.000000
-12.446700 0.000000
-12.415000 0.000000
-12.383400 0.000000
-12.351800 0.000000
-12.320100 0.000000
-12.288500 0.000000
-12.256900 0.000000
-12.225200 0.000000
-12.193600 0.000000
-12.162000 0.000000
-12.130400 0.000000
-12.098700 0.000000
-12.067100 0.000000
-12.035500 0.000000
-12.003800 0.000000
-11.972200 0.000000
-11.940600 0.000000
-11.908900 0.000000
-11.877300 0.000000
-11.845700 0.000000
-11.814100 0.000000
-11.782400 0.000000
-11.750800 0.000000
-11.719200 0.000000
-11.687500 0.000000
-11.655900 0.000000
-11.624300 0.000000
-11.592600 0.000000
-11.561000 0.000000
-11.529400 0.000000
-11.497800 0.000000
-11.466100 0.000000
-11.434500 0.000000
-11.402900 0.000000
-11.371200 0.000000
-11.339600 0.000000
-11.308000 0.000000
-11.276300 0.000000
-11.244700 0.000000
-11.213100 0.000000
-11.181500 0.000000
-11.149800 0.000000
-11.118200 0.000000
-11.086600 0.000000
-11.054900 0.000000
-11.023300 0.000000
-10.991700 0.000000
-10.960000 0.000000
-10.928400 0.000000
-10.896800 0.000000
-10.865200 0.000000
-10.833500 0.000000
-10.801900 0.000000
-10.770300 0.000000
-10.738600 0.000000
-10.707000 0.000000
-10.675400 0.000000
-10.643700 0.000000
-10.612100 0.000000
-10.580500 0.000000
-10.548900 0.000000
-10.517200 0.000000
-10.485600 0.000000
-10.454000 0.000000
-10.422300 0.000000
-10.390700 0.000000
-10.359100 0.000000
-10.327400 0.000000
-10.295800 0.000000
-10.264200 0.000000
-10.232600 0.000000
-10.200900 0.000000
-10.169300 0.000000
-10.137700 0.000000
-10.106000 0.000000
-10.074400 0.000000
-10.042800 0.000000
-10.011100 0.000000
-9.979500 0.000000
-9.947900 0.000000
-9.916200 0.000000
-9.884600 0.000000
-9.853000 0.000000
-9.821400 0.000000
-9.789700 0.000000
-9.758100 0.000000
-9.726500 0.000000
-9.694800 0.000000
-9.663200 0.000000
-9.631600 0.000000
-9.599900 0.000000
-9.568300 0.000000
-9.536700 0.000000
-9.505100 0.000000
-9.473400 0.000000
-9.441800 0.000000
-9.410200 0.000000
-9.378500 0.000000
-9.346900 0.000000
-9.315300 0.000000
-9.283600 0.000000
-9.252000 0.000000
-9.220400 0.000000
-9.188800 0.000000
-9.157100 0.000000
-9.125500 0.000000
-9.093900 0.000000
-9.062200 0.000000
-9.030600 0.000000
-8.999000 0.000000
-8.967300 0.000000
-8.935700 0.000000
-8.904100 0.000000
-8.872500 0.000000
-8.840800 0.000000
-8.809200 0.000000
-8.777600 0.000000
-8.745900 0.000000
-8.714300 0.000000
-8.682700 0.000000
-8.651000 0.000000
-8.619400 0.000000
-8.587800 0.000000
-8.556200 0.000000
-8.524500 0.000000
-8.492900 0.000000
-8.461300 0.000000
-8.429600 0.000000
-8.398000 0.000000
-8.366400 0.000000
-8.334700 0.000000
-8.303100 0.000000
-8.271500 0.000000
-8.239900 0.000000
-8.208200 0.000000
-8.176600 0.000000
-8.145000 0.000000
-8.113300 0.000000
-8.081700 0.000000
-8.050100 0.000000
-8.018400 0.000000
-7.986800 0.000000
-7.955200 0.000000
-7.923600 0.000000
-7.891900 0.000000
-7.860300 0.000000
-7.828700 0.000000
-7.797000 0.000000
-7.765400 0.000000
-7.733800 0.000000
-7.702100 0.000000
-7.670500 0.000000
-7.638900 0.000000
-7.607300 0.000000
-7.575600 0.000000
-7.544000 0.000000
-7.512400 0.000000
-7.480700 0.000000
-7.449100 0.000000
-7.417500 0.000000
-7.385800 0.000000
-7.354200 0.000000
-7.322600 0.000000
-7.291000 0.000000
-7.259300 0.000000
-7.227700 0.000000
-7.196100 0.000000
-7.164400 0.000000
-7.132800 0.000000
-7.101200 0.000000
-7.069500 0.000000
-7.037900 0.000000
-7.006300 0.000000
-6.974600 0.000000
-6.943000 0.000000
-6.911400 0.000000
-6.879800 0.000000
-6.848100 0.000000
-6.816500 0.000000
-6.784900 0.000000
-6.753200 0.000000
-6.721600 0.000000
-6.690000 0.000000
-6.658300 0.000000
-6.626700 0.000000
-6.595100 0.000000
-6.563500 0.000000
-6.531800 0.000000
-6.500200 0.000000
-6.468600 0.000000
-6.436900 0.000000
-6.405300 0.000000
-6.373700 0.000000
-6.342000 0.000000
-6.310400 0.000000
-6.278800 0.000000
-6.247200 0.000000
-6.215500 0.000000
-6.183900 0.000000
-6.152300 0.000000
-6.120600 0.000000
-6.089000 0.000000
-6.057400 0.000000
-6.025700 0.000000
-5.994100 0.000000
-5.962500 0.000000
-5.930900 0.000000
-5.899200 0.000000
-5.867600 0.000000
-5.836000 0.000000
-5.804300 0.000000
-5.772700 0.000000
-5.741100 0.000000
-5.709400 0.000000
-5.677800 0.000000
-5.646200 0.000000
-5.614600 0.000000
-5.582900 0.000000
-5.551300 0.000000
-5.519700 0.000000
-5.488000 0.000000
-5.456400 0.000000
-5.424800 0.000000
-5.393100 0.000000
-5.361500 0.000000
-5.329900 0.000000
-5.298300 0.000000
-5.266600 0.000000
-5.235000 0.000000
-5.203400 0.000000
-5.171700 0.000000
-5.140100 0.000000
-5.108500 0.000000
-5.076800 0.000000
-5.045200 0.000000
-5.013600 0.000000
-4.982000 0.000000
-4.950300 0.000000
-4.918700 0.000000
-4.887100 0.000000
-4.855400 0.000000
-4.823800 0.000000
-4.792200 0.000000
-4.760500 0.000000
-4.728900 0.000000
-4.697300 0.000000
-4.665700 0.004200
-4.634000 0.049500
-4.602400 0.128700
-4.570800 0.244900
-4.539100 0.363100
-4.507500 0.465200
-4.475900 0.428400
-4.444200 0.387700
-4.412600 0.348000
-4.381000 0.360400
-4.349300 0.372800
-4.317700 0.385200
-4.286100 0.397600
-4.254500 0.410000
-4.222800 0.422400
-4.191200 0.434400
-4.159600 0.439900
-4.127900 0.438200
-4.096300 0.433400
-4.064700 0.428600
-4.033000 0.426100
-4.001400 0.429600
-3.969800 0.438200
-3.938200 0.446700
-3.906500 0.455300
-3.874900 0.463900
-3.843300 0.472500
-3.811600 0.481000
-3.780000 0.489600
-3.748400 0.499900
-3.716700 0.564900
-3.685100 0.670500
-3.653500 0.808200
-3.621900 0.874900
-3.590200 0.972600
-3.558600 1.113700
-3.527000 1.262500
-3.495300 1.360700
-3.463700 1.354500
-3.432100 1.438500
-3.400400 1.540600
-3.368800 1.642500
-3.337200 1.745500
-3.305600 1.848700
-3.273900 3.193800
-3.242300 4.456700
-3.210700 5.320800
-3.179000 5.677900
-3.147400 3.900600
-3.115800 3.709100
-3.084100 3.940100
-3.052500 3.985800
-3.020900 3.971000
-2.989300 3.955100
-2.957600 3.928200
-2.926000 4.184100
-2.894400 4.348700
-2.862700 4.552000
-2.831100 4.639500
-2.799500 4.726400
-2.767800 7.806600
-2.736200 6.552500
-2.704600 4.508500
-2.673000 4.693300
-2.641300 2.688200
-2.609700 0.534800
-2.578100 1.400300
-2.546400 2.265500
-2.514800 4.598400
-2.483200 4.704500
-2.451500 4.078700
-2.419900 3.898700
-2.388300 3.803200
-2.356700 3.782900
-2.325000 2.933400
-2.293400 2.466400
-2.261800 3.101600
-2.230100 3.993100
-2.198500 2.176000
-2.166900 2.046900
-2.135200 1.917700
-2.103600 1.788500
-2.072000 1.807100
-2.040400 1.613900
-2.008700 1.491000
-1.977100 1.368000
-1.945500 1.245000
-1.913800 1.122000
-1.882200 0.999100
-1.850600 0.876100
-1.818900 0.000000
-1.787300 0.000000
-1.755700 0.000000
-1.724100 0.000000
-1.692400 0.000000
-1.660800 0.000000
-1.629200 0.000000
-1.597500 0.000000
-1.565900 0.000000
-1.534300 0.000000
-1.502600 0.000000
-1.471000 0.000000
-1.439400 0.000000
-1.407700 0.000000
-1.376100 0.000000
-1.344500 0.000000
-1.312900 0.000000
-1.281200 0.000000
-1.249600 0.000000
-1.218000 0.000000
-1.186300 0.000000
-1.154700 0.000000
-1.123100 0.000000
-1.091400 0.000000
-1.059800 0.000000
-1.028200 0.000000
-0.996600 0.000000
-0.964900 0.000000
-0.933300 0.000000
-0.901700 0.000000
-0.870000 0.000000
-0.838400 0.000000
-0.806800 0.000000
-0.775100 0.000000
-0.743500 0.000000
-0.711900 0.000000
-0.680300 0.000000
-0.648600 0.000000
-0.617000 0.000000
-0.585400 0.000000
-0.553700 0.000000
-0.522100 0.000000
-0.490500 0.000000
-0.458800 0.000000
-0.427200 0.000000
-0.395600 0.000000
-0.364000 0.000000
-0.332300 0.000000
-0.300700 0.000000
-0.269100 0.000000
-0.237400 0.000000
-0.205800 0.000000
-0.174200 0.000000
-0.142500 0.000000
-0.110900 0.000000
-0.079300 0.000000
-0.047700 0.000000
-0.016000 0.000000
0.015600 0.000000
0.047200 0.000000
0.078900 0.000000
0.110500 0.000000
0.142100 0.000000
0.173800 0.000000
0.205400 0.000000
0.237000 0.000000
0.268600 0.000000
0.300300 0.000000
0.331900 0.000000
0.363500 0.000000
0.395200 0.000000
0.426800 0.000000
0.458400 0.000000
0.490100 0.000000
0.521700 0.000000
0.553300 0.000000
0.584900 0.000000
0.616600 0.000000
0.648200 0.000000
0.679800 0.000000
0.711500 0.000000
0.743100 0.000000
0.774700 0.000000
0.806400 0.000000
0.838000 0.000000
0.869600 0.000000
0.901200 0.000000
0.932900 0.000000
0.964500 0.000000
0.996100 0.000000
1.027800 0.000000
1.059400 0.000000
1.091000 0.000000
1.122700 0.000000
1.154300 0.000000
1.185900 0.000000
1.217500 0.018900
1.249200 0.077400
1.280800 0.152100
1.312400 0.579600
1.344100 0.775300
1.375700 0.903000
1.407300 1.082100
1.439000 1.211200
1.470600 1.065300
1.502200 1.045100
1.533900 1.096300
1.565500 1.147500
1.597100 1.198700
1.628700 1.249900
1.660400 1.297400
1.692000 1.339300
1.723600 1.377300
1.755300 1.411200
1.786900 1.440600
1.818500 1.471500
1.850200 1.516200
1.881800 1.585000
1.913400 1.663400
1.945000 1.757700
1.976700 1.869700
2.008300 1.989400
2.039900 2.108800
2.071600 2.228100
2.103200 2.347100
2.134800 2.514200
2.166500 2.709900
2.198100 2.781700
2.229700 4.077900
2.261300 4.420500
2.293000 2.540300
2.324600 3.051100
2.356200 2.422700
2.387900 2.326300
2.419500 2.263800
2.451100 2.238900
2.482800 2.249300
2.514400 2.278000
2.546000 2.500500
2.577600 3.079000
2.609300 3.783700
2.640900 4.397900
2.672500 7.097900
2.704200 10.050100
2.735800 5.474000
2.767400 4.296400
2.799100 5.335200
2.830700 3.549700
2.862300 1.026900
2.893900 0.572300
2.925600 0.378600
2.957200 0.239500
2.988800 0.138400
3.020500 0.671700
3.052100 1.340800
3.083700 1.707000
3.115400 2.344900
3.147000 2.518400
3.178600 2.783300
3.210200 3.269500
3.241900 3.530200
3.273500 3.970800
3.305100 5.487300
3.336800 4.106600
3.368400 4.658100
3.400000 6.083300
3.431700 6.691900
3.463300 8.471900
3.494900 15.868200
3.526500 7.634300
3.558200 7.499800
3.589800 7.480600
3.621400 7.711600
3.653100 7.452600
3.684700 7.204300
3.716300 4.164000
3.748000 4.192700
3.779600 5.428100
3.811200 13.540600
3.842800 21.321400
3.874500 10.292800
3.906100 8.176100
3.937700 7.218600
3.969400 9.141800
4.001000 8.542900
4.032600 8.534400
4.064300 23.469100
4.095900 21.110700
4.127500 11.623800
4.159100 9.478400
4.190800 10.777500
4.222400 10.947100
4.254000 10.118200
4.285700 8.418800
4.317300 6.130000
4.348900 5.144700
4.380600 6.372900
4.412200 5.138300
4.443800 4.754500
4.475500 4.839600
4.507100 5.174600
4.538700 5.113300
4.570300 5.436200
4.602000 4.993300
4.633600 4.486800
4.665200 4.208100
4.696900 2.919500
4.728500 2.670600
4.760100 2.383500
4.791800 2.162500
4.823400 1.944800
4.855000 1.832400
4.886600 1.744900
4.918300 1.679600
4.949900 1.640400
4.981500 1.603300
5.013200 1.566300
5.044800 1.534900
5.076400 1.528200
5.108100 1.523100
5.139700 1.509800
5.171300 1.495900
5.202900 1.484800
5.234600 1.482200
5.266200 1.501200
5.297800 1.578200
5.329500 1.657800
5.361100 1.526000
5.392700 1.359700
5.424400 1.303300
5.456000 1.237200
5.487600 0.876200
5.519200 0.797800
5.550900 0.786400
5.582500 0.788400
5.614100 0.835800
5.645800 0.899100
5.677400 0.963300
5.709000 1.027100
5.740700 1.090500
5.772300 1.226200
5.803900 1.509300
5.835500 1.731200
5.867200 1.948200
5.898800 2.189800
5.930400 2.372800
5.962100 2.971100
5.993700 3.052100
6.025300 3.122700
6.057000 3.271300
6.088600 3.361700
6.120200 3.528200
6.151800 3.509600
6.183500 3.488700
6.215100 3.241300
6.246700 3.240800
6.278400 3.189000
6.310000 3.368500
6.341600 2.408900
6.373300 2.230100
6.404900 2.133800
6.436500 2.057300
6.468100 1.964700
6.499800 2.113500
6.531400 2.764200
6.563000 3.916100
6.594700 4.860800
6.626300 4.828000
6.657900 4.858900
6.689600 4.911000
6.721200 5.827900
6.752800 5.543500
6.784400 5.893500
6.816100 4.866200
6.847700 3.411000
6.879300 2.177900
6.911000 2.000500
6.942600 2.020200
6.974200 2.113700
7.005900 2.959300
7.037500 3.616900
7.069100 6.306100
7.100800 4.999900
7.132400 4.480300
7.164000 4.486600
7.195600 4.531800
7.227300 5.008200
7.258900 4.447900
7.290500 3.781600
7.322200 3.210700
7.353800 3.154800
7.385400 3.417100
7.417100 3.936600
7.448700 4.926200
7.480300 5.163200
7.511900 5.441400
7.543600 5.866000
7.575200 5.747700
7.606800 5.614100
7.638500 6.722900
7.670100 4.650700
7.701700 4.461300
7.733400 4.139600
7.765000 3.863400
7.796600 4.158900
7.828200 4.540500
7.859900 3.584400
7.891500 3.156200
7.923100 2.675000
7.954800 2.465400
7.986400 2.407700
8.018000 2.373900
8.049700 2.388300
8.081300 2.462300
8.112900 2.337000
8.144500 2.214700
8.176200 2.096600
8.207800 1.984400
8.239400 1.910400
8.271100 1.854900
8.302700 1.836100
8.334300 1.851900
8.366000 1.927600
8.397600 1.937700
8.429200 1.946400
8.460800 2.054600
8.492500 2.293300
8.524100 2.430500
8.555700 2.381700
8.587400 2.634900
8.619000 3.276700
8.650600 3.185500
8.682300 2.929300
8.713900 2.875500
8.745500 2.853500
8.777100 2.879100
8.808800 3.052100
8.840400 3.300700
8.872000 3.280500
8.903700 3.297800
8.935300 3.313100
8.966900 3.342300
8.998600 3.428700
9.030200 3.879700
9.061800 4.132200
9.093400 3.909500
9.125100 3.673800
9.156700 3.657600
9.188300 3.685400
9.220000 3.768100
9.251600 4.145900
9.283200 4.107000
9.314900 4.181900
9.346500 4.288400
9.378100 4.713700
9.409700 5.392400
9.441400 5.634100
9.473000 5.589500
9.504600 5.747800
9.536300 5.912200
9.567900 6.023700
9.599500 6.205500
9.631200 6.249800
9.662800 6.279200
9.694400 6.357500
9.726000 5.512000
9.757700 5.862600
9.789300 6.292600
9.820900 7.334000
9.852600 8.194100
9.884200 5.774300
9.915800 5.260100
9.947500 5.139600
9.979100 5.625000
10.010700 5.414300
10.042400 5.903300
10.074000 6.085400
10.105600 5.562200
10.137200 5.766900
10.168900 7.267900
10.200500 6.328800
10.232100 6.264100
10.263800 6.616100
10.295400 7.551000
10.327000 6.535500
10.358700 4.961000
10.390300 5.459700
10.421900 6.417000
10.453500 8.104700
10.485200 6.467500
10.516800 4.817100
10.548400 4.535200
10.580100 5.610100
10.611700 5.255200
10.643300 5.255100
10.675000 6.598200
10.706600 5.969600
10.738200 5.883300
10.769800 5.904900
10.801500 6.322600
10.833100 7.442600
10.864700 7.901800
10.896400 7.580900
10.928000 9.657900
10.959600 11.788300
10.991300 8.152800
11.022900 6.831700
11.054500 6.460500
11.086100 5.367600
11.117800 4.080800
11.149400 4.319100
11.181000 5.142700
11.212700 5.780100
11.244300 6.106300
11.275900 5.840400
11.307600 5.835700
11.339200 6.188700
11.370800 6.905800
11.402400 7.267900
11.434100 9.324200
11.465700 8.094600
11.497300 7.428000
11.529000 7.439300
11.560600 7.487700
11.592200 6.818800
11.623900 5.771800
11.655500 2.758600
11.687100 1.891800
11.718700 1.977600
11.750400 1.967800
11.782000 1.953500
11.813600 1.960000
11.845300 2.035500
11.876900 2.303700
11.908500 2.548300
11.940200 2.865500
11.971800 2.807400
12.003400 2.597800
12.035000 2.691700
12.066700 2.641600
12.098300 2.553900
12.129900 2.538200
12.161600 2.630000
12.193200 3.266000
12.224800 3.364400
12.256500 2.838100
12.288100 2.924900
12.319700 2.990000
12.351300 3.073800
12.383000 3.190500
12.414600 3.317200
12.446200 3.453300
12.477900 3.559900
12.509500 3.625100
12.541100 3.690800
12.572800 3.723700
12.604400 3.747100
12.636000 3.763300
12.667600 3.757000
12.699300 4.150400
12.730900 3.868400
12.762500 3.726900
12.794200 3.139800
12.825800 2.772100
12.857400 2.697000
12.889100 2.681300
12.920700 2.768400
12.952300 2.810000
12.984000 2.840900
13.015600 2.857500
13.047200 2.908200
13.078800 3.022000
13.110500 3.118700
13.142100 3.373300
13.173700 3.528800
13.205400 3.850700
13.237000 4.170200
13.268600 4.338400
13.300300 4.791800
13.331900 3.657200
13.363500 3.003800
13.395100 2.477700
13.426800 1.941000
13.458400 1.530800
13.490000 1.568800
13.521700 1.600700
13.553300 1.084300
13.584900 0.795600
13.616600 0.785500
13.648200 0.922400
13.679800 1.126300
13.711400 1.410400
13.743100 1.678800
13.774700 1.930800
13.806300 2.530700
13.838000 2.990000
13.869600 3.105700
13.901200 3.088300
13.932900 2.976400
13.964500 2.929300
13.996100 3.069400
14.027700 3.584300
14.059400 3.751500
14.091000 4.249700
14.122600 3.999200
14.154300 4.199800
14.185900 4.190500
14.217500 4.368700
14.249200 4.527700
14.280800 4.212100
14.312400 3.822100
14.344000 4.417200
14.375700 5.195300
14.407300 4.349800
14.438900 4.913200
14.470600 3.025900
14.502200 2.410400
14.533800 2.448500
14.565500 3.058200
14.597100 3.578500
14.628700 4.136400
14.660300 4.180300
14.692000 4.329200
14.723600 3.139400
14.755200 2.335100
14.786900 2.080600
14.818500 1.989900
14.850100 1.959700
14.881800 2.119500
14.913400 2.872300
14.945000 3.360700
14.976600 4.090700
15.008300 5.428700
15.039900 5.759100
15.071500 4.593200
15.103200 4.010500
15.134800 3.394400
15.166400 2.902000
15.198100 2.386700
15.229700 1.929000
15.261300 1.715000
15.292900 1.612800
15.324600 1.512200
15.356200 1.458000
15.387800 1.506300
15.419500 1.732900
15.451100 2.127700
15.482700 2.851300
15.514400 3.910400
15.546000 4.970700
15.577600 5.475700
15.609200 5.409800
15.640900 5.816300
15.672500 5.047000
15.704100 4.393600
15.735800 3.975700
15.767400 3.604200
15.799000 3.211100
15.830700 3.026400
15.862300 2.985300
15.893900 2.361800
15.925600 2.431600
15.957200 3.043300
15.988800 2.454000
16.020400 2.256400
16.052100 2.072300
16.083700 2.118000
16.115300 2.269900
16.147000 2.627900
16.178600 3.083200
16.210200 3.445100
16.241900 4.351800
16.273500 5.213800
16.305100 4.501800
16.336700 3.404700
16.368400 2.571400
16.400000 2.038400
16.431600 1.658000
16.463300 1.525200
16.494900 1.581800
16.526500 1.830200
16.558200 1.868600
16.589800 1.783300
16.621400 1.560500
16.653000 1.464900
16.684700 1.409800
16.716300 1.336800
16.747900 1.274900
16.779600 1.219800
16.811200 1.203200
16.842800 1.175800
16.874500 1.154400
16.906100 1.140200
16.937700 1.133100
16.969300 1.128400
17.001000 1.124900
17.032600 1.145300
17.064200 1.126400
17.095900 1.108900
17.127500 1.092900
17.159100 1.083800
17.190800 1.085900
17.222400 1.100500
17.254000 1.117800
17.285600 1.137300
17.317300 1.158000
17.348900 1.179500
17.380500 1.200900
17.412200 1.222300
17.443800 1.243900
17.475400 1.265800
17.507100 1.290300
17.538700 1.347900
17.570300 1.387800
17.601900 1.386100
17.633600 1.365300
17.665200 1.339900
17.696800 1.392800
17.728500 1.535800
17.760100 1.604800
17.791700 1.651200
17.823400 1.683400
17.855000 1.681200
17.886600 1.681800
17.918200 1.706600
17.949900 1.698300
17.981500 1.680800
18.013100 1.696600
18.044800 1.738900
18.076400 1.873600
18.108000 2.057900
18.139700 2.110300
18.171300 2.141300
18.202900 2.183100
18.234500 2.060300
18.266200 1.916400
18.297800 1.809400
18.329400 1.692100
18.361100 1.513200
18.392700 1.431200
18.424300 1.381700
18.456000 1.396100
18.487600 1.419900
18.519200 1.396300
18.550900 1.320700
18.582500 1.323200
18.614100 1.389500
18.645700 1.570300
18.677400 1.630200
18.709000 1.659100
18.740600 1.666000
18.772300 1.722400
18.803900 1.789000
18.835500 1.930500
18.867200 2.167600
18.898800 2.540200
18.930400 3.179700
18.962000 3.667600
18.993700 4.074700
19.025300 3.399900
19.056900 2.653600
19.088600 2.381500
19.120200 2.119200
19.151800 1.946200
19.183500 1.834600
19.215100 1.745800
19.246700 1.649800
19.278300 1.570300
19.310000 1.518600
19.341600 1.540700
19.373200 1.680800
19.404900 1.281000
19.436500 1.213300
19.468100 1.238100
19.499800 1.313100
19.531400 1.399300
19.563000 1.500300
19.594600 1.578500
19.626300 1.619600
19.657900 1.783700
19.689500 1.992400
19.721200 2.238200
19.752800 2.565600
19.784400 2.915100
19.816100 3.332600
19.847700 3.839300
19.879300 4.137100
19.910900 4.693800
19.942600 4.733500
19.974200 3.912000
20.005800 2.169600
20.037500 1.397800
20.069100 1.223700
20.100700 1.143300
20.132400 1.192900
20.164000 1.328700
20.195600 1.518400
20.227200 1.674900
20.258900 1.788600
20.290500 1.658300
20.322100 1.420100
20.353800 1.392800
20.385400 1.524400
20.417000 1.681900
20.448700 1.866500
20.480300 2.207000
20.511900 2.542000
20.543500 2.696000
20.575200 2.906400
20.606800 2.904300
20.638400 2.504700
20.670100 2.351900
20.701700 2.376800
20.733300 2.272000
20.765000 2.225200
20.796600 2.384400
20.828200 2.960600
20.859800 2.822200
20.891500 2.622200
20.923100 2.309200
20.954700 1.911100
20.986400 1.664000
21.018000 1.526600
21.049600 1.447600
21.081300 1.407100
21.112900 1.518400
21.144500 1.652600
21.176100 1.802100
21.207800 1.749600
21.239400 1.864000
21.271000 2.260900
21.302700 2.518100
21.334300 2.745400
21.365900 3.246500
21.397600 3.982100
21.429200 4.276800
21.460800 4.572700
21.492500 4.385400
21.524100 3.695400
21.555700 3.126100
21.587300 2.849800
21.619000 2.657800
21.650600 2.620400
21.682200 2.735100
21.713900 2.800500
21.745500 2.803400
21.777100 2.786900
21.808800 2.828000
21.840400 2.375400
21.872000 2.473200
21.903600 2.686700
21.935300 2.768200
21.966900 2.893000
21.998500 2.920400
22.030200 3.301000
22.061800 3.533500
22.093400 3.020400
22.125100 2.990600
22.156700 3.012900
22.188300 2.773600
22.219900 3.776100
22.251600 3.798800
22.283200 4.070200
22.314800 4.324500
22.346500 4.958000
22.378100 3.974600
22.409700 3.982100
22.441400 3.902800
22.473000 3.888600
22.504600 4.382300
22.536200 5.091100
22.567900 5.400900
22.599500 5.213500
22.631100 4.616700
22.662800 3.981100
22.694400 3.497700
22.726000 3.280600
22.757700 3.544000
22.789300 3.786500
22.820900 4.095100
22.852500 4.595500
22.884200 5.284600
22.915800 6.184400
22.947400 6.822000
22.979100 7.422300
23.010700 7.704000
23.042300 6.283000
23.074000 5.642100
23.105600 4.863900
23.137200 3.800400
23.168800 4.063400
23.200500 4.324700
23.232100 4.801200
23.263700 5.569800
23.295400 5.665600
23.327000 5.452200
23.358600 5.215400
23.390300 4.995900
23.421900 4.357500
23.453500 4.246300
23.485100 4.259800
23.516800 4.180600
23.548400 4.055000
23.580000 3.835500
23.611700 3.512400
23.643300 3.161800
23.674900 3.018800
23.706600 3.022600
23.738200 3.168300
23.769800 3.372500
23.801400 3.173300
23.833100 3.112000
23.864700 2.854000
23.896300 2.647200
23.928000 2.463100
23.959600 2.324700
23.991200 2.227500
24.022900 2.164000
24.054500 2.127200
24.086100 2.270700
24.117700 2.538100
24.149400 2.650800
24.181000 2.546200
24.212600 2.303500
24.244300 2.255000
24.275900 2.286100
24.307500 2.414300
24.339200 2.692200
24.370800 3.034300
24.402400 3.392400
24.434100 3.706000
24.465700 4.172300
24.497300 4.434800
24.528900 4.398900
24.560600 3.858600
24.592200 3.381100
24.623800 3.085400
24.655500 2.787900
24.687100 2.789400
24.718700 2.800000
24.750400 2.801900
24.782000 2.609000
24.813600 2.412000
24.845200 2.317600
24.876900 2.302200
24.908500 2.539000
24.940100 3.123200
24.971800 3.787100
25.003400 3.955400
25.035000 3.989900
25.066700 4.042000
25.098300 4.346100
25.129900 5.269700
25.161500 8.011400
25.193200 14.367200
25.224800 8.211600
25.256400 6.179400
25.288100 4.396100
25.319700 3.761900
25.351300 3.386200
25.383000 2.735500
25.414600 2.587800
25.446200 2.535500
25.477800 2.824000
25.509500 4.169000
25.541100 4.154900
25.572700 4.194000
25.604400 4.279700
25.636000 4.074500
25.667600 3.886100
25.699300 3.831000
25.730900 3.962900
25.762500 4.157200
25.794100 4.335800
25.825800 4.670300
25.857400 5.005100
25.889000 5.438400
25.920700 6.250000
25.952300 9.236400
25.983900 7.155100
26.015600 5.783300
26.047200 5.049200
26.078800 4.390000
26.110400 3.863200
26.142100 3.415900
26.173700 3.392400
26.205300 3.106200
26.237000 2.973800
26.268600 2.903400
26.300200 2.780300
26.331900 2.732800
26.363500 2.652200
26.395100 2.652500
26.426700 2.666400
26.458400 2.688300
26.490000 2.707800
26.521600 2.695000
26.553300 2.717800
26.584900 2.717900
26.616500 2.705200
26.648200 2.674000
26.679800 2.649700
26.711400 2.644500
26.743000 2.645400
26.774700 2.681400
26.806300 2.765800
26.837900 2.911800
26.869600 2.932200
26.901200 2.863300
26.932800 2.665400
26.964500 2.514300
26.996100 1.826500
27.027700 1.589400
27.059400 1.423700
27.091000 1.356900
27.122600 1.331400
27.154200 1.322700
27.185900 1.327400
27.217500 1.360500
27.249100 1.404100
27.280800 1.456500
27.312400 1.516200
27.344000 1.607200
27.375700 1.767600
27.407300 1.757800
27.438900 1.713300
27.470500 1.811200
27.502200 1.833600
27.533800 1.906900
27.565400 2.012200
27.597100 2.053400
27.628700 2.066200
27.660300 2.170600
27.692000 2.657500
27.723600 4.394500
27.755200 3.617000
27.786800 2.946600
27.818500 2.568400
27.850100 2.446200
27.881700 2.270700
27.913400 2.122900
27.945000 2.042300
27.976600 1.983300
28.008300 1.860900
28.039900 1.721100
28.071500 1.653200
28.103100 1.524700
28.134800 1.284900
28.166400 1.043700
28.198000 0.837900
28.229700 0.712100
28.261300 0.649000
28.292900 0.627400
28.324600 0.618200
28.356200 0.605500
28.387800 0.585800
28.419400 0.554300
28.451100 0.511300
28.482700 0.493100
28.514300 0.478500
28.546000 0.462400
28.577600 0.448800
28.609200 0.439300
28.640900 0.431300
28.672500 0.423600
28.704100 0.416900
28.735700 0.410200
28.767400 0.403800
28.799000 0.397500
28.830600 0.391400
28.862300 0.385500
28.893900 0.378900
28.925500 0.367400
28.957200 0.355200
28.988800 0.342300
29.020400 0.335400
29.052000 0.336400
29.083700 0.328200
29.115300 0.450600
29.146900 0.386500
29.178600 0.342700
29.210200 0.303000
29.241800 0.267300
29.273500 0.235500
29.305100 0.210100
29.336700 0.193500
29.368300 0.184700
29.400000 0.178300
29.431600 0.173500
29.463200 0.169900
29.494900 0.167400
29.526500 0.165900
29.558100 0.165500
29.589800 0.167400
29.621400 0.181800
29.653000 0.193600
29.684600 0.202900
29.716300 0.209900
29.747900 0.225500
29.779500 0.240600
29.811200 0.243500
29.842800 0.235700
29.874400 0.217600
29.906100 0.189600
29.937700 0.152600
29.969300 0.114200
30.001000 0.087200
30.032600 0.064100
30.064200 0.045000
30.095800 0.029000
30.127500 0.016100
30.159100 0.006000
30.190700 0.000000
30.222400 0.000000
30.254000 0.000000
30.285600 0.000000
30.317300 0.000000
30.348900 0.000000
30.380500 0.000000
30.412100 0.000000
30.443800 0.000000
30.475400 0.000000
30.507000 0.000000
30.538700 0.000000
30.570300 0.000000
30.601900 0.000000
30.633600 0.000000
30.665200 0.000000
30.696800 0.000000
30.728400 0.000000
30.760100 0.000000
30.791700 0.000000
30.823300 0.000000
30.855000 0.000000
30.886600 0.000000
30.918200 0.000000
30.949900 0.000000
30.981500 0.000000
31.013100 0.000000
31.044700 0.000000
31.076400 0.000000
31.108000 0.000000
31.139600 0.000000
31.171300 0.000000
31.202900 0.000000
31.234500 0.000000
31.266200 0.000000
31.297800 0.000000
31.329400 0.000000
31.361000 0.000000
31.392700 0.000000
31.424300 0.000000
31.455900 0.000000
31.487600 0.000000
31.519200 0.000000
31.550800 0.000000
31.582500 0.000000
31.614100 0.000000
31.645700 0.000000
31.677300 0.000000
31.709000 0.000000
31.740600 0.000000
31.772200 0.000000
31.803900 0.000000
31.835500 0.000000
31.867100 0.000000
31.898800 0.000000
31.930400 0.000000
31.962000 0.000000
31.993600 0.000000
32.025300 0.000000
32.056900 0.000000
32.088500 0.000000
32.120200 0.000000
32.151800 0.000000
32.183400 0.000000
32.215100 0.000000
32.246700 0.000000
32.278300 0.000000
32.309900 0.000000
32.341600 0.000000
32.373200 0.000000
32.404800 0.000000
32.436500 0.000000
32.468100 0.000000
32.499700 0.000000
32.531400 0.000000
32.563000 0.000000
32.594600 0.000000
32.626200 0.000000
32.657900 0.000000
32.689500 0.000000
32.721100 0.000000
32.752800 0.000000
32.784400 0.000000
32.816000 0.000000
32.847700 0.000000
32.879300 0.000000
32.910900 0.000000
32.942600 0.000000
32.974200 0.000000
33.005800 0.000000
33.037400 0.000000
33.069100 0.000000
e
