set title 'mp-23195 - Density of States'
set xlabel 'Energy (eV)'
set ylabel 'DOS (states/eV)'
set grid
set xrange [-10:10]
set yrange [0:73.522]
set xzeroaxis lt -1
set terminal png size 800,600
set output 'mp-23195_dos_gnuplot.png'
plot '-' using 1:2 with lines title 'DOS'
-16.476600 0.000000
-16.457000 0.000000
-16.437400 0.000000
-16.417800 0.000000
-16.398200 0.000000
-16.378500 0.000000
-16.358900 0.000000
-16.339300 0.000000
-16.319700 0.000000
-16.300100 0.000000
-16.280500 0.000000
-16.260900 0.000000
-16.241200 0.000000
-16.221600 0.000000
-16.202000 0.000000
-16.182400 0.000000
-16.162800 0.000000
-16.143200 0.000000
-16.123600 0.000000
-16.104000 0.000000
-16.084300 0.000000
-16.064700 0.000000
-16.045100 0.000000
-16.025500 0.000000
-16.005900 0.000000
-15.986300 0.000000
-15.966700 0.000000
-15.947100 0.000000
-15.927400 0.000000
-15.907800 0.000000
-15.888200 0.000000
-15.868600 0.000000
-15.849000 0.000000
-15.829400 0.000000
-15.809800 0.000000
-15.790100 0.000000
-15.770500 0.000000
-15.750900 0.000000
-15.731300 0.000000
-15.711700 0.000000
-15.692100 0.000000
-15.672500 0.000000
-15.652900 0.000000
-15.633200 0.000000
-15.613600 0.000000
-15.594000 0.000000
-15.574400 0.000000
-15.554800 0.000000
-15.535200 0.000000
-15.515600 0.000000
-15.495900 0.000000
-15.476300 0.000000
-15.456700 0.000000
-15.437100 0.000000
-15.417500 0.000000
-15.397900 0.000000
-15.378300 0.000000
-15.358700 0.000000
-15.339000 0.000000
-15.319400 0.000000
-15.299800 0.000000
-15.280200 0.000000
-15.260600 0.000000
-15.241000 0.000000
-15.221400 0.000000
-15.201800 0.000000
-15.182100 0.000000
-15.162500 0.000000
-15.142900 0.000000
-15.123300 0.000000
-15.103700 0.000000
-15.084100 0.000000
-15.064500 0.000000
-15.044800 0.000000
-15.025200 0.000000
-15.005600 0.000000
-14.986000 0.000000
-14.966400 0.000000
-14.946800 0.000000
-14.927200 0.000000
-14.907600 0.000000
-14.887900 0.000000
-14.868300 0.000000
-14.848700 0.000000
-14.829100 0.000000
-14.809500 0.000000
-14.789900 0.000000
-14.770300 0.000000
-14.750700 0.000000
-14.731000 0.000000
-14.711400 0.000000
-14.691800 0.001000
-14.672200 0.149300
-14.652600 0.548600
-14.633000 1.198700
-14.613400 2.099900
-14.593700 4.258000
-14.574100 6.296300
-14.554500 7.719200
-14.534900 8.683400
-14.515300 7.349900
-14.495700 5.848900
-14.476100 4.643300
-14.456500 3.592800
-14.436800 5.474300
-14.417200 8.485300
-14.397600 11.261500
-14.378000 12.232200
-14.358400 12.179100
-14.338800 11.117300
-14.319200 10.120100
-14.299600 13.165800
-14.279900 10.919000
-14.260300 8.837400
-14.240700 4.062600
-14.221100 3.933700
-14.201500 3.895100
-14.181900 3.920000
-14.162300 3.977200
-14.142600 9.859500
-14.123000 11.487500
-14.103400 3.575500
-14.083800 1.308200
-14.064200 0.000000
-14.044600 0.000000
-14.025000 0.000000
-14.005400 0.000000
-13.985700 9.236900
-13.966100 7.990300
-13.946500 3.029400
-13.926900 3.024000
-13.907300 3.019200
-13.887700 3.015200
-13.868100 3.011800
-13.848500 10.381600
-13.828800 14.445200
-13.809200 7.303800
-13.789600 7.142100
-13.770000 6.939000
-13.750400 6.852600
-13.730800 6.915700
-13.711200 7.800300
-13.691500 9.488200
-13.671900 11.156700
-13.652300 11.360900
-13.632700 11.060600
-13.613100 9.772000
-13.593500 3.094000
-13.573900 5.678500
-13.554300 7.539800
-13.534600 8.236200
-13.515000 8.756800
-13.495400 9.101400
-13.475800 11.741700
-13.456200 15.765900
-13.436600 19.723300
-13.417000 24.804000
-13.397400 26.232500
-13.377700 19.467000
-13.358100 13.078500
-13.338500 12.618500
-13.318900 12.029800
-13.299300 11.297700
-13.279700 10.422100
-13.260100 9.402900
-13.240400 10.434000
-13.220800 4.697800
-13.201200 0.000000
-13.181600 0.000000
-13.162000 0.000000
-13.142400 0.000000
-13.122800 0.000000
-13.103200 0.000000
-13.083500 0.000000
-13.063900 34.183500
-13.044300 44.642300
-13.024700 37.882400
-13.005100 26.841800
-12.985500 24.078600
-12.965900 16.937600
-12.946300 8.005700
-12.926600 5.851700
-12.907000 5.345500
-12.887400 5.736900
-12.867800 5.201600
-12.848200 10.213700
-12.828600 14.626000
-12.809000 31.457200
-12.789300 33.341200
-12.769700 38.088800
-12.750100 41.115400
-12.730500 36.804600
-12.710900 23.973200
-12.691300 29.815500
-12.671700 29.369700
-12.652100 14.846500
-12.632400 8.144200
-12.612800 7.843000
-12.593200 11.232100
-12.573600 16.291300
-12.554000 13.146200
-12.534400 6.801900
-12.514800 2.517000
-12.495200 0.552400
-12.475500 0.000000
-12.455900 0.000000
-12.436300 0.000000
-12.416700 0.000000
-12.397100 0.000000
-12.377500 0.000000
-12.357900 0.000000
-12.338200 0.000000
-12.318600 0.000000
-12.299000 0.000000
-12.279400 0.000000
-12.259800 0.000000
-12.240200 0.000000
-12.220600 0.000000
-12.201000 0.000000
-12.181300 0.000000
-12.161700 0.000000
-12.142100 0.000000
-12.122500 0.000000
-12.102900 0.000000
-12.083300 0.000000
-12.063700 0.000000
-12.044000 0.000000
-12.024400 0.000000
-12.004800 0.000000
-11.985200 0.000000
-11.965600 0.000000
-11.946000 0.000000
-11.926400 0.000000
-11.906800 0.000000
-11.887100 0.000000
-11.867500 0.000000
-11.847900 0.000000
-11.828300 0.000000
-11.808700 0.000000
-11.789100 0.000000
-11.769500 0.000000
-11.749900 0.000000
-11.730200 0.000000
-11.710600 0.000000
-11.691000 0.000000
-11.671400 0.000000
-11.651800 0.000000
-11.632200 0.000000
-11.612600 0.000000
-11.592900 0.000000
-11.573300 0.000000
-11.553700 0.000000
-11.534100 0.000000
-11.514500 0.000000
-11.494900 0.000000
-11.475300 0.000000
-11.455700 0.000000
-11.436000 0.000000
-11.416400 0.000000
-11.396800 0.000000
-11.377200 0.000000
-11.357600 0.000000
-11.338000 0.000000
-11.318400 0.000000
-11.298800 0.000000
-11.279100 0.000000
-11.259500 0.000000
-11.239900 0.000000
-11.220300 0.000000
-11.200700 0.000000
-11.181100 0.000000
-11.161500 0.000000
-11.141800 0.000000
-11.122200 0.000000
-11.102600 0.000000
-11.083000 0.000000
-11.063400 0.000000
-11.043800 0.000000
-11.024200 0.000000
-11.004600 0.000000
-10.984900 0.000000
-10.965300 0.000000
-10.945700 0.000000
-10.926100 0.000000
-10.906500 0.000000
-10.886900 0.000000
-10.867300 0.000000
-10.847700 0.000000
-10.828000 0.000000
-10.808400 0.000000
-10.788800 0.000000
-10.769200 0.000000
-10.749600 0.000000
-10.730000 0.000000
-10.710400 0.000000
-10.690700 0.000000
-10.671100 0.000000
-10.651500 0.000000
-10.631900 0.000000
-10.612300 0.000000
-10.592700 0.000000
-10.573100 0.000000
-10.553500 0.000000
-10.533800 0.000000
-10.514200 0.000000
-10.494600 0.000000
-10.475000 0.000000
-10.455400 0.000000
-10.435800 0.000000
-10.416200 0.000000
-10.396600 0.000000
-10.376900 0.000000
-10.357300 0.000000
-10.337700 0.000000
-10.318100 0.000000
-10.298500 0.000000
-10.278900 0.000000
-10.259300 0.000000
-10.239600 0.000000
-10.220000 0.000000
-10.200400 0.000000
-10.180800 0.000000
-10.161200 0.000000
-10.141600 0.000000
-10.122000 0.000000
-10.102400 0.000000
-10.082700 0.000000
-10.063100 0.000000
-10.043500 0.000000
-10.023900 0.000000
-10.004300 0.000000
-9.984700 0.000000
-9.965100 0.000000
-9.945500 0.000000
-9.925800 0.000000
-9.906200 0.000000
-9.886600 0.000000
-9.867000 0.000000
-9.847400 0.000000
-9.827800 0.000000
-9.808200 0.000000
-9.788500 0.000000
-9.768900 0.000000
-9.749300 0.000000
-9.729700 0.000000
-9.710100 0.000000
-9.690500 0.000000
-9.670900 0.000000
-9.651300 0.000000
-9.631600 0.000000
-9.612000 0.000000
-9.592400 0.000000
-9.572800 0.000000
-9.553200 0.000000
-9.533600 0.000000
-9.514000 0.000000
-9.494400 0.000000
-9.474700 0.000000
-9.455100 0.000000
-9.435500 0.000000
-9.415900 0.000000
-9.396300 0.000000
-9.376700 0.000000
-9.357100 0.000000
-9.337400 0.000000
-9.317800 0.000000
-9.298200 0.000000
-9.278600 0.000000
-9.259000 0.000000
-9.239400 0.000000
-9.219800 0.000000
-9.200200 0.000000
-9.180500 0.000000
-9.160900 0.000000
-9.141300 0.000000
-9.121700 0.000000
-9.102100 0.000000
-9.082500 0.000000
-9.062900 0.000000
-9.043200 0.000000
-9.023600 0.000000
-9.004000 0.000000
-8.984400 0.000000
-8.964800 0.000000
-8.945200 0.000000
-8.925600 0.000000
-8.906000 0.000000
-8.886300 0.000000
-8.866700 0.000000
-8.847100 0.000000
-8.827500 0.000000
-8.807900 0.000000
-8.788300 0.000000
-8.768700 0.000000
-8.749100 0.000000
-8.729400 0.000000
-8.709800 0.000000
-8.690200 0.000000
-8.670600 0.000000
-8.651000 0.000000
-8.631400 0.000000
-8.611800 0.000000
-8.592100 0.000000
-8.572500 0.000000
-8.552900 0.000000
-8.533300 0.000000
-8.513700 0.000000
-8.494100 0.000000
-8.474500 0.000000
-8.454900 0.000000
-8.435200 0.000000
-8.415600 0.000000
-8.396000 0.000000
-8.376400 0.000000
-8.356800 0.000000
-8.337200 0.000000
-8.317600 0.000000
-8.298000 0.000000
-8.278300 0.000000
-8.258700 0.000000
-8.239100 0.000000
-8.219500 0.000000
-8.199900 0.000000
-8.180300 0.000000
-8.160700 0.000000
-8.141000 0.000000
-8.121400 0.000000
-8.101800 0.000000
-8.082200 0.000000
-8.062600 0.000000
-8.043000 0.000000
-8.023400 0.000000
-8.003800 0.000000
-7.984100 0.000000
-7.964500 0.000000
-7.944900 0.000000
-7.925300 0.000000
-7.905700 0.000000
-7.886100 0.000000
-7.866500 0.000000
-7.846900 0.000000
-7.827200 0.000000
-7.807600 0.000000
-7.788000 0.000000
-7.768400 0.000000
-7.748800 0.000000
-7.729200 0.000000
-7.709600 0.000000
-7.689900 0.000000
-7.670300 0.000000
-7.650700 0.000000
-7.631100 0.000000
-7.611500 0.000000
-7.591900 0.000000
-7.572300 0.000000
-7.552700 0.000000
-7.533000 0.000000
-7.513400 0.000000
-7.493800 0.000000
-7.474200 0.000000
-7.454600 0.000000
-7.435000 0.000000
-7.415400 0.000000
-7.395800 0.000000
-7.376100 0.000000
-7.356500 0.000000
-7.336900 0.000000
-7.317300 0.000000
-7.297700 0.000000
-7.278100 0.000000
-7.258500 0.000000
-7.238800 0.000000
-7.219200 0.000000
-7.199600 0.000000
-7.180000 0.000000
-7.160400 0.000000
-7.140800 0.000000
-7.121200 0.000000
-7.101600 0.000000
-7.081900 0.000000
-7.062300 0.000000
-7.042700 0.000000
-7.023100 0.000000
-7.003500 0.000000
-6.983900 0.000000
-6.964300 0.000000
-6.944700 0.000000
-6.925000 0.000000
-6.905400 0.000000
-6.885800 0.000000
-6.866200 0.000000
-6.846600 0.000000
-6.827000 0.000000
-6.807400 0.000000
-6.787700 0.000000
-6.768100 0.000000
-6.748500 0.000000
-6.728900 0.000000
-6.709300 0.000000
-6.689700 0.000000
-6.670100 0.000000
-6.650500 0.000000
-6.630800 0.000000
-6.611200 0.000000
-6.591600 0.000000
-6.572000 0.000000
-6.552400 10.838400
-6.532800 6.509700
-6.513200 10.470500
-6.493600 12.122100
-6.473900 16.498500
-6.454300 14.609400
-6.434700 15.950300
-6.415100 17.292100
-6.395500 14.524000
-6.375900 13.825800
-6.356300 12.980100
-6.336600 12.148400
-6.317000 11.341500
-6.297400 11.524400
-6.277800 7.684100
-6.258200 8.142600
-6.238600 0.000000
-6.219000 0.000000
-6.199400 0.000000
-6.179700 0.000000
-6.160100 0.000000
-6.140500 0.004600
-6.120900 0.133700
-6.101300 0.440100
-6.081700 0.923600
-6.062100 3.909200
-6.042400 4.767700
-6.022800 5.107900
-6.003200 5.172400
-5.983600 5.467600
-5.964000 6.498700
-5.944400 7.915900
-5.924800 9.266100
-5.905200 7.827100
-5.885500 9.025800
-5.865900 10.189700
-5.846300 10.724900
-5.826700 9.584600
-5.807100 8.572000
-5.787500 7.423500
-5.767900 8.703000
-5.748300 10.987000
-5.728600 17.130200
-5.709000 15.830200
-5.689400 14.861100
-5.669800 14.653900
-5.650200 14.645000
-5.630600 14.944200
-5.611000 17.981000
-5.591300 10.687900
-5.571700 8.206400
-5.552100 8.112900
-5.532500 8.161900
-5.512900 9.165700
-5.493300 10.205100
-5.473700 11.354700
-5.454100 10.339500
-5.434400 9.249100
-5.414800 8.163400
-5.395200 7.118900
-5.375600 7.038000
-5.356000 4.243500
-5.336400 3.717500
-5.316800 2.481300
-5.297200 2.484800
-5.277500 2.488800
-5.257900 2.493200
-5.238300 2.498200
-5.218700 2.503700
-5.199100 2.509600
-5.179500 2.516100
-5.159900 2.521400
-5.140200 2.524600
-5.120600 2.525800
-5.101000 2.524900
-5.081400 5.258100
-5.061800 4.583900
-5.042200 3.952700
-5.022600 3.364600
-5.003000 0.605300
-4.983300 0.665100
-4.963700 0.727200
-4.944100 2.400900
-4.924500 2.786200
-4.904900 3.180200
-4.885300 3.582800
-4.865700 3.994000
-4.846100 4.413800
-4.826400 4.842200
-4.806800 5.279300
-4.787200 5.456700
-4.767600 4.769300
-4.748000 3.864500
-4.728400 3.575800
-4.708800 3.482100
-4.689100 3.386500
-4.669500 3.289200
-4.649900 3.190000
-4.630300 3.531100
-4.610700 3.948200
-4.591100 4.421100
-4.571500 4.271500
-4.551900 4.131700
-4.532200 5.121700
-4.512600 4.713200
-4.493000 3.819800
-4.473400 3.062300
-4.453800 2.440900
-4.434200 1.977700
-4.414600 2.170200
-4.395000 2.369600
-4.375300 2.576000
-4.355700 2.789400
-4.336100 3.009700
-4.316500 3.237000
-4.296900 2.440200
-4.277300 2.449100
-4.257700 2.451700
-4.238000 2.447800
-4.218400 2.437600
-4.198800 2.420900
-4.179200 2.864000
-4.159600 2.992400
-4.140000 3.126100
-4.120400 3.265000
-4.100800 3.409300
-4.081100 3.558900
-4.061500 3.732300
-4.041900 3.150600
-4.022300 3.145500
-4.002700 3.136200
-3.983100 3.122700
-3.963500 3.104900
-3.943900 3.055200
-3.924200 2.822500
-3.904600 2.559600
-3.885000 2.266500
-3.865400 1.943100
-3.845800 1.589500
-3.826200 1.205600
-3.806600 1.073500
-3.786900 0.955200
-3.767300 0.840900
-3.747700 0.730700
-3.728100 0.624600
-3.708500 0.522600
-3.688900 0.424600
-3.669300 0.330700
-3.649700 0.241100
-3.630000 0.162700
-3.610400 0.099600
-3.590800 0.052000
-3.571200 0.019700
-3.551600 0.002800
-3.532000 0.000000
-3.512400 0.000000
-3.492800 0.000000
-3.473100 0.000000
-3.453500 0.000000
-3.433900 0.000000
-3.414300 0.000000
-3.394700 0.000000
-3.375100 0.000000
-3.355500 0.000000
-3.335800 0.000000
-3.316200 0.000000
-3.296600 0.000000
-3.277000 0.000000
-3.257400 0.000000
-3.237800 0.000000
-3.218200 0.000000
-3.198600 0.000000
-3.178900 0.000000
-3.159300 0.000000
-3.139700 0.000000
-3.120100 0.000000
-3.100500 0.000000
-3.080900 0.000000
-3.061300 0.000000
-3.041600 0.000000
-3.022000 0.000000
-3.002400 0.000000
-2.982800 0.000000
-2.963200 0.000000
-2.943600 0.000000
-2.924000 0.000000
-2.904400 0.000000
-2.884700 0.000000
-2.865100 0.000000
-2.845500 0.000000
-2.825900 0.000000
-2.806300 0.000000
-2.786700 0.000000
-2.767100 0.000000
-2.747500 0.000000
-2.727800 0.000000
-2.708200 0.000000
-2.688600 0.000000
-2.669000 0.000000
-2.649400 0.000000
-2.629800 0.000000
-2.610200 0.000000
-2.590500 0.000000
-2.570900 0.000000
-2.551300 0.000000
-2.531700 0.000000
-2.512100 0.000000
-2.492500 0.000000
-2.472900 0.000000
-2.453300 0.000000
-2.433600 0.000000
-2.414000 0.000000
-2.394400 0.000000
-2.374800 0.000000
-2.355200 0.000000
-2.335600 0.000000
-2.316000 0.000000
-2.296400 0.000000
-2.276700 0.000000
-2.257100 0.000000
-2.237500 0.000000
-2.217900 0.000000
-2.198300 0.000000
-2.178700 0.000000
-2.159100 0.000000
-2.139400 0.000000
-2.119800 0.000000
-2.100200 0.000000
-2.080600 0.000000
-2.061000 0.000000
-2.041400 0.000000
-2.021800 0.000000
-2.002200 0.000000
-1.982500 0.000000
-1.962900 0.000000
-1.943300 0.000000
-1.923700 0.000000
-1.904100 0.000000
-1.884500 0.000000
-1.864900 0.000000
-1.845300 0.000000
-1.825600 0.000000
-1.806000 0.000000
-1.786400 0.000000
-1.766800 0.000000
-1.747200 0.000000
-1.727600 0.000000
-1.708000 0.000000
-1.688300 0.000000
-1.668700 0.000000
-1.649100 0.000000
-1.629500 0.000000
-1.609900 0.000000
-1.590300 0.000000
-1.570700 0.000000
-1.551100 0.000000
-1.531400 0.000000
-1.511800 0.000000
-1.492200 0.000000
-1.472600 0.000000
-1.453000 0.000000
-1.433400 0.000000
-1.413800 0.000000
-1.394200 0.000000
-1.374500 0.000000
-1.354900 0.000000
-1.335300 0.000000
-1.315700 0.000000
-1.296100 0.000000
-1.276500 0.000000
-1.256900 0.000000
-1.237200 0.000000
-1.217600 0.000000
-1.198000 0.000000
-1.178400 0.000000
-1.158800 0.000000
-1.139200 0.000000
-1.119600 0.000000
-1.100000 0.000000
-1.080300 0.000000
-1.060700 0.000000
-1.041100 0.000000
-1.021500 0.000000
-1.001900 3.468600
-0.982300 7.691000
-0.962700 13.333800
-0.943100 18.048900
-0.923400 33.898200
-0.903800 37.136500
-0.884200 13.434900
-0.864600 21.372900
-0.845000 27.221800
-0.825400 66.838500
-0.805800 11.648900
-0.786100 18.983400
-0.766500 11.918700
-0.746900 20.152400
-0.727300 20.381200
-0.707700 17.867400
-0.688100 15.492200
-0.668500 10.025800
-0.648900 9.618500
-0.629200 8.377500
-0.609600 8.229900
-0.590000 7.482500
-0.570400 11.929600
-0.550800 8.499700
-0.531200 9.588800
-0.511600 10.818800
-0.492000 11.309700
-0.472300 7.082000
-0.452700 15.132600
-0.433100 15.186800
-0.413500 13.055000
-0.393900 12.653400
-0.374300 25.715700
-0.354700 11.146500
-0.335000 9.116100
-0.315400 7.217500
-0.295800 5.412400
-0.276200 6.119900
-0.256600 8.996500
-0.237000 11.175500
-0.217400 12.788300
-0.197800 13.798200
-0.178100 9.341200
-0.158500 10.579000
-0.138900 11.639300
-0.119300 29.395300
-0.099700 9.846200
-0.080100 9.149300
-0.060500 10.353300
-0.040800 14.944600
-0.021200 15.079700
-0.001600 10.181900
0.018000 9.096600
0.037600 8.130400
0.057200 8.378700
0.076800 13.984600
0.096400 27.533700
0.116100 13.509100
0.135700 14.755100
0.155300 17.485400
0.174900 14.786600
0.194500 10.643700
0.214100 29.410900
0.233700 27.742800
0.253300 9.675900
0.273000 8.467000
0.292600 8.461800
0.312200 24.552400
0.331800 3.764000
0.351400 2.528600
0.371000 1.474600
0.390600 1.853600
0.410300 3.695500
0.429900 6.210400
0.449500 8.098700
0.469100 10.264500
0.488700 23.980100
0.508300 32.198000
0.527900 18.642100
0.547500 5.381900
0.567200 3.365300
0.586800 4.239000
0.606400 5.177100
0.626000 7.118300
0.645600 8.619000
0.665200 14.054300
0.684800 15.744600
0.704400 23.830000
0.724100 26.890200
0.743700 30.366700
0.763300 20.062400
0.782900 15.690300
0.802500 10.544500
0.822100 6.950500
0.841700 42.077800
0.861400 26.500500
0.881000 9.480900
0.900600 7.120900
0.920200 5.080200
0.939800 3.358800
0.959400 0.000000
0.979000 0.000000
0.998600 6.350500
1.018300 7.358600
1.037900 5.359900
1.057500 5.489600
1.077100 5.561200
1.096700 5.574700
1.116300 5.530200
1.135900 6.359600
1.155500 7.328900
1.175200 17.182200
1.194800 22.289800
1.214400 40.011600
1.234000 25.202200
1.253600 18.586400
1.273200 16.307200
1.292800 14.715100
1.312500 15.523100
1.332100 19.162500
1.351700 16.104100
1.371300 14.606300
1.390900 10.161600
1.410500 9.343800
1.430100 9.464200
1.449700 9.472100
1.469400 8.994100
1.489000 8.453900
1.508600 11.472700
1.528200 12.199900
1.547800 13.059200
1.567400 11.895200
1.587000 14.926100
1.606600 18.050800
1.626300 16.077000
1.645900 13.776200
1.665500 11.856300
1.685100 10.317300
1.704700 9.669800
1.724300 6.960300
1.743900 7.908200
1.763600 8.885300
1.783200 9.891700
1.802800 10.926500
1.822400 10.752800
1.842000 13.877000
1.861600 17.110100
1.881200 23.101400
1.900800 25.636000
1.920500 20.261400
1.940100 32.197300
1.959700 19.065800
1.979300 23.849700
1.998900 24.249900
2.018500 32.100900
2.038100 25.891400
2.057700 12.590000
2.077400 8.476400
2.097000 15.187100
2.116600 17.822400
2.136200 14.514200
2.155800 13.454800
2.175400 19.264800
2.195000 40.723900
2.214700 34.955000
2.234300 21.256600
2.253900 19.735200
2.273500 22.244100
2.293100 25.032800
2.312700 37.138200
2.332300 49.723400
2.351900 57.771800
2.371600 6.428900
2.391200 20.498100
2.410800 18.164600
2.430400 16.050600
2.450000 14.391200
2.469600 14.549700
2.489200 20.583800
2.508800 27.102700
2.528500 50.771300
2.548100 23.283600
2.567700 22.391500
2.587300 26.283800
2.606900 16.512800
2.626500 8.592700
2.646100 9.165200
2.665800 22.386700
2.685400 26.730300
2.705000 20.968900
2.724600 17.281200
2.744200 35.220900
2.763800 24.051000
2.783400 13.645900
2.803000 15.355100
2.822700 3.104100
2.842300 1.870800
2.861900 1.020200
2.881500 0.966900
2.901100 5.766200
2.920700 9.528100
2.940300 10.089500
2.960000 10.384500
2.979600 9.545300
2.999200 9.488300
3.018800 12.657100
3.038400 29.011700
3.058000 15.219200
3.077600 13.644700
3.097200 11.647700
3.116900 9.811200
3.136500 9.953700
3.156100 46.690700
3.175700 20.085300
3.195300 18.861400
3.214900 16.701200
3.234500 21.152100
3.254100 26.526500
3.273800 27.694900
3.293400 22.364200
3.313000 19.231500
3.332600 19.084200
3.352200 21.885600
3.371800 29.181600
3.391400 20.595600
3.411100 17.790900
3.430700 15.566200
3.450300 14.445200
3.469900 5.904900
3.489500 2.359700
3.509100 0.522400
3.528700 0.000000
3.548300 0.000000
3.568000 0.000000
3.587600 0.000000
3.607200 0.000000
3.626800 0.000000
3.646400 0.000000
3.666000 0.000000
3.685600 0.000000
3.705200 0.000000
3.724900 0.000000
3.744500 0.000000
3.764100 0.000000
3.783700 0.000000
3.803300 0.000000
3.822900 0.000000
3.842500 0.000000
3.862200 0.000000
3.881800 0.000000
3.901400 0.000000
3.921000 0.000000
3.940600 0.000000
3.960200 0.000000
3.979800 0.000000
3.999400 0.000000
4.019100 0.000000
4.038700 0.000000
4.058300 0.000000
4.077900 0.000000
4.097500 0.000000
4.117100 0.000000
4.136700 0.000000
4.156300 0.000000
4.176000 0.000000
4.195600 0.000000
4.215200 0.000000
4.234800 0.000000
4.254400 0.000000
4.274000 0.000000
4.293600 0.000000
4.313300 0.000000
4.332900 0.000000
4.352500 0.000000
4.372100 0.000000
4.391700 0.000000
4.411300 0.000000
4.430900 0.000000
4.450500 0.000000
4.470200 0.000000
4.489800 0.000000
4.509400 0.000000
4.529000 0.000000
4.548600 0.000000
4.568200 0.000000
4.587800 0.000000
4.607400 0.000000
4.627100 0.000000
4.646700 0.000000
4.666300 0.000000
4.685900 0.000000
4.705500 0.000000
4.725100 0.000000
4.744700 0.000000
4.764400 0.000000
4.784000 0.000000
4.803600 0.000000
4.823200 0.000000
4.842800 0.000000
4.862400 0.000000
4.882000 0.000000
4.901600 0.000000
4.921300 0.000000
4.940900 0.000000
4.960500 0.000000
4.980100 0.000000
4.999700 0.000000
5.019300 0.000000
5.038900 0.000000
5.058500 0.000000
5.078200 0.000000
5.097800 0.000000
5.117400 0.000000
5.137000 0.000000
5.156600 0.000000
5.176200 0.000000
5.195800 0.000000
5.215500 0.001000
5.235100 0.004000
5.254700 0.009000
5.274300 0.016000
5.293900 0.025100
5.313500 0.036100
5.333100 0.049100
5.352700 0.064100
5.372400 0.081200
5.392000 0.100200
5.411600 0.121200
5.431200 0.144300
5.450800 0.169300
5.470400 0.196300
5.490000 0.225400
5.509600 0.256400
5.529300 0.289500
5.548900 0.325100
5.568500 0.363800
5.588100 0.405700
5.607700 0.450700
5.627300 0.498800
5.646900 0.550100
5.666600 0.604500
5.686200 0.662000
5.705800 0.722700
5.725400 0.895400
5.745000 1.061900
5.764600 1.221500
5.784200 1.374200
5.803800 1.520000
5.823500 1.660300
5.843100 1.799100
5.862700 1.936700
5.882300 2.073000
5.901900 2.208100
5.921500 2.342000
5.941100 2.471400
5.960800 2.602900
5.980400 2.737600
6.000000 2.875700
6.019600 3.017000
6.039200 3.161500
6.058800 3.820500
6.078400 3.807400
6.098000 3.854200
6.117700 4.052500
6.137300 4.407400
6.156900 4.753800
6.176500 5.091700
6.196100 5.421100
6.215700 5.615600
6.235300 6.024800
6.254900 7.226600
6.274600 7.167100
6.294200 7.763400
6.313800 7.712800
6.333400 7.451100
6.353000 6.988300
6.372600 6.558700
6.392200 6.162400
6.411900 5.799400
6.431500 5.183500
6.451100 3.697100
6.470700 3.660400
6.490300 3.655700
6.509900 18.618800
6.529500 5.646600
6.549100 5.547700
6.568800 5.722700
6.588400 5.819800
6.608000 5.838800
6.627600 5.788300
6.647200 5.759000
6.666800 6.059700
6.686400 4.532300
6.706000 4.562800
6.725700 4.569800
6.745300 4.553200
6.764900 4.549700
6.784500 4.963600
6.804100 4.803800
6.823700 4.743900
6.843300 4.693700
6.863000 6.444800
6.882600 8.425500
6.902200 12.789500
6.921800 13.634600
6.941400 14.039300
6.961000 13.410700
6.980600 12.567400
7.000200 9.647100
7.019900 8.813700
7.039500 49.415800
7.059100 17.087600
7.078700 13.073400
7.098300 8.950900
7.117900 8.645200
7.137500 9.962200
7.157100 9.698200
7.176800 9.303600
7.196400 9.079600
7.216000 6.864500
7.235600 6.539200
7.255200 6.187300
7.274800 7.901600
7.294400 9.635700
7.314100 20.509000
7.333700 21.193400
7.353300 9.975700
7.372900 6.770700
7.392500 6.021700
7.412100 6.295900
7.431700 6.740400
7.451300 7.355100
7.471000 7.934800
7.490600 8.481800
7.510200 14.464800
7.529800 19.115200
7.549400 18.200100
7.569000 5.237500
7.588600 4.650500
7.608200 4.142800
7.627900 3.714500
7.647500 5.541700
7.667100 4.203900
7.686700 4.751800
7.706300 5.304900
7.725900 5.863100
7.745500 8.077200
7.765200 6.034400
7.784800 6.309700
7.804400 4.643300
7.824000 4.631000
7.843600 4.591300
7.863200 4.524500
7.882800 5.476400
7.902400 5.590300
7.922100 5.693400
7.941700 5.816600
7.961300 5.991000
7.980900 7.665300
8.000500 13.108900
8.020100 11.994800
8.039700 10.882400
8.059300 4.686700
8.079000 4.661100
8.098600 4.624600
8.118200 4.577200
8.137800 5.828400
8.157400 6.405200
8.177000 7.063600
8.196600 7.803600
8.216300 8.611600
8.235900 9.449500
8.255500 10.316500
8.275100 17.343400
8.294700 18.438300
8.314300 18.884300
8.333900 15.369500
8.353500 16.058300
8.373200 5.862000
8.392800 6.694100
8.412400 7.579200
8.432000 4.470300
8.451600 4.537500
8.471200 4.669900
8.490800 5.045000
8.510400 5.683100
8.530100 8.988300
8.549700 12.195700
8.569300 14.309800
8.588900 10.262000
8.608500 4.307900
8.628100 3.732700
8.647700 3.682400
8.667400 14.470900
8.687000 24.710100
8.706600 18.043600
8.726200 11.505000
8.745800 5.433600
8.765400 4.252600
8.785000 4.801600
8.804600 5.552100
8.824300 6.504100
8.843900 7.657600
8.863500 14.767700
8.883100 51.981900
8.902700 10.731700
8.922300 2.808200
8.941900 1.672300
8.961600 10.376800
8.981200 13.202200
9.000800 16.193600
9.020400 9.663900
9.040000 9.823100
9.059600 11.039900
9.079200 9.381900
9.098800 7.758800
9.118500 4.360100
9.138100 3.075700
9.157700 3.916600
9.177300 8.601900
9.196900 13.825900
9.216500 15.763000
9.236100 16.190100
9.255700 16.743100
9.275400 8.532300
9.295000 6.745400
9.314600 9.299800
9.334200 17.867500
9.353800 65.358300
9.373400 9.105800
9.393000 6.786200
9.412700 5.790300
9.432300 5.697100
9.451900 5.834900
9.471500 15.586900
9.491100 14.361700
9.510700 3.347300
9.530300 5.731500
9.549900 6.383400
9.569600 6.944600
9.589200 7.472600
9.608800 8.376300
9.628400 9.191600
9.648000 9.918600
9.667600 10.357600
9.687200 10.681200
9.706800 11.703400
9.726500 11.969000
9.746100 14.319600
9.765700 13.279000
9.785300 11.706100
9.804900 21.475900
9.824500 11.865200
9.844100 5.200500
9.863800 4.460900
9.883400 4.629400
9.903000 5.145400
9.922600 5.998100
9.942200 7.063700
9.961800 7.526100
9.981400 9.227600
10.001000 8.545700
10.020700 7.887500
10.040300 7.195600
10.059900 5.606000
10.079500 8.674400
10.099100 16.492400
10.118700 18.292800
10.138300 16.621000
10.157900 19.169000
10.177600 14.228700
10.197200 13.481600
10.216800 18.488800
10.236400 17.495300
10.256000 16.038400
10.275600 9.784000
10.295200 14.677100
10.314900 18.113300
10.334500 15.098600
10.354100 12.951000
10.373700 10.745500
10.393300 7.949500
10.412900 16.111100
10.432500 10.076800
10.452100 8.857200
10.471800 7.720900
10.491400 6.667900
10.511000 5.713400
10.530600 4.975000
10.550200 4.258900
10.569800 3.565100
10.589400 2.893600
10.609000 2.244400
10.628700 0.000000
10.648300 14.645500
10.667900 13.154700
10.687500 17.394300
10.707100 17.031800
10.726700 17.537500
10.746300 19.995600
10.766000 23.720600
10.785600 23.815800
10.805200 16.448500
10.824800 11.332800
10.844400 5.732100
10.864000 4.444400
10.883600 3.301500
10.903200 2.303500
10.922900 1.450400
10.942500 0.000000
10.962100 0.000000
10.981700 0.000000
11.001300 0.000000
11.020900 0.000000
11.040500 0.000000
11.060100 0.000000
11.079800 0.000000
11.099400 0.000000
11.119000 0.000000
11.138600 0.000000
11.158200 0.000000
11.177800 0.000000
11.197400 0.000000
11.217100 0.000000
11.236700 0.000000
11.256300 0.000000
11.275900 0.000000
11.295500 0.000000
11.315100 0.000000
11.334700 0.000000
11.354300 0.000000
11.374000 0.000000
11.393600 0.000000
11.413200 0.000000
11.432800 0.000000
11.452400 0.000000
11.472000 0.000000
11.491600 0.000000
11.511200 0.000000
11.530900 0.000000
11.550500 0.000000
11.570100 0.000000
11.589700 0.000000
11.609300 0.000000
11.628900 0.000000
11.648500 0.000000
11.668200 0.000000
11.687800 0.000000
11.707400 0.000000
11.727000 0.000000
11.746600 0.000000
11.766200 0.000000
11.785800 0.000000
11.805400 0.000000
11.825100 0.000000
11.844700 0.000000
11.864300 0.000500
11.883900 0.007700
11.903500 0.023800
11.923100 0.048700
11.942700 0.082300
11.962400 0.124800
11.982000 0.176100
12.001600 0.239200
12.021200 0.317400
12.040800 0.410500
12.060400 0.518700
12.080000 0.643600
12.099600 0.799000
12.119300 0.988400
12.138900 1.211800
12.158500 1.469100
12.178100 1.813600
12.197700 2.499400
12.217300 3.073400
12.236900 3.535400
12.256500 3.758000
12.276200 4.009900
12.295800 4.406000
12.315400 4.847700
12.335000 5.336300
12.354600 5.871600
12.374200 6.453700
12.393800 7.082600
12.413500 7.859800
12.433100 9.081500
12.452700 9.675000
12.472300 10.600000
12.491900 11.917400
12.511500 12.274400
12.531100 12.788200
12.550700 12.530200
12.570400 12.224600
12.590000 11.931800
12.609600 11.652000
12.629200 11.525800
12.648800 12.143500
12.668400 11.846600
12.688000 16.417100
12.707600 13.082900
12.727300 12.924300
12.746900 10.820800
12.766500 9.928400
12.786100 9.354400
12.805700 8.816100
12.825300 8.555600
12.844900 7.976700
12.864600 6.168400
12.884200 6.026600
12.903800 5.904800
12.923400 5.798500
12.943000 5.707700
12.962600 5.632400
12.982200 6.540600
13.001800 8.834300
13.021500 8.744600
13.041100 7.751700
13.060700 8.558500
13.080300 9.534600
13.099900 10.247600
13.119500 10.793400
13.139100 11.172000
13.158700 13.597600
13.178400 12.275400
13.198000 11.295500
13.217600 10.919800
13.237200 10.828800
13.256800 10.179300
13.276400 7.907000
13.296000 7.653700
13.315700 7.369800
13.335300 9.996300
13.354900 5.214400
13.374500 5.049600
13.394100 4.882900
13.413700 4.714300
13.433300 4.571100
13.452900 4.786100
13.472600 6.956500
13.492200 8.243800
13.511800 9.573700
13.531400 11.447600
13.551000 11.888800
13.570600 17.548600
13.590200 16.998100
13.609800 14.415400
13.629500 8.609300
13.649100 9.286600
13.668700 9.710300
13.688300 9.949900
13.707900 10.225700
13.727500 17.587800
13.747100 12.857800
13.766800 8.912200
13.786400 3.417000
13.806000 3.376800
13.825600 3.367600
13.845200 4.600400
13.864800 6.419800
13.884400 7.595400
13.904000 7.980200
13.923700 9.121600
13.943300 13.061700
13.962900 12.629600
13.982500 12.151500
14.002100 11.605000
14.021700 8.573600
14.041300 5.329400
14.060900 5.626500
14.080600 5.945900
14.100200 6.287600
14.119800 6.651600
14.139400 7.038000
14.159000 7.446700
14.178600 7.877700
14.198200 8.331100
14.217900 8.806800
14.237500 17.460300
14.257100 15.494000
14.276700 14.649000
14.296300 6.372200
14.315900 3.768100
14.335500 2.397900
14.355100 2.317000
14.374800 3.110400
14.394400 4.047200
14.414000 5.105500
14.433600 11.364700
14.453200 13.732000
14.472800 18.822200
14.492400 23.021900
14.512000 12.512300
14.531700 9.705200
14.551300 6.380000
14.570900 3.562400
14.590500 7.380700
14.610100 15.415700
14.629700 16.498000
14.649300 16.389100
14.669000 15.235200
14.688600 9.845100
14.708200 3.162900
14.727800 6.092600
14.747400 8.063300
14.767000 10.519100
14.786600 11.992300
14.806200 7.889200
14.825900 8.151800
14.845500 8.460200
14.865100 8.814300
14.884700 8.313400
14.904300 7.306400
14.923900 6.873800
14.943500 12.038600
14.963200 11.989100
14.982800 9.633300
15.002400 11.773800
15.022000 14.252800
15.041600 17.056700
15.061200 11.941900
15.080800 10.743800
15.100400 11.528200
15.120100 12.139100
15.139700 12.576600
15.159300 12.840700
15.178900 12.452000
15.198500 12.373300
15.218100 12.411600
15.237700 12.597900
15.257300 12.932300
15.277000 12.214200
15.296600 10.668200
15.316200 9.142500
15.335800 9.433100
15.355400 7.089200
15.375000 3.826500
15.394600 3.716300
15.414300 3.672000
15.433900 3.740600
15.453500 3.877400
15.473100 20.544200
15.492700 10.635700
15.512300 10.255600
15.531900 8.483300
15.551500 5.734100
15.571200 3.808500
15.590800 4.016300
15.610400 4.980600
15.630000 5.988500
15.649600 7.084300
15.669200 15.239100
15.688800 14.291200
15.708400 7.617800
15.728100 7.479200
15.747700 7.432600
15.767300 7.478000
15.786900 7.615400
15.806500 7.844900
15.826100 8.166400
15.845700 47.254500
15.865400 15.445700
15.885000 11.435100
15.904600 7.935100
15.924200 6.475100
15.943800 12.113500
15.963400 21.272600
15.983000 15.492000
16.002600 14.577400
16.022300 13.446000
16.041900 11.646000
16.061500 9.946300
16.081100 9.291300
16.100700 8.663400
16.120300 7.033700
16.139900 5.862200
16.159500 4.599600
16.179200 4.557000
16.198800 4.896700
16.218400 3.470100
16.238000 3.789200
16.257600 4.479600
16.277200 5.542800
16.296800 10.078800
16.316500 12.047700
16.336100 12.962900
16.355700 13.950100
16.375300 11.090000
16.394900 11.179000
16.414500 11.167800
16.434100 11.268700
16.453700 11.536800
16.473400 9.278500
16.493000 8.940700
16.512600 9.317900
16.532200 9.661200
16.551800 10.527700
16.571400 11.333900
16.591000 21.763200
16.610600 10.346900
16.630300 10.582800
16.649900 12.752600
16.669500 11.405800
16.689100 12.368700
16.708700 15.878500
16.728300 20.597300
16.747900 14.852000
16.767600 10.967600
16.787200 6.384100
16.806800 7.019100
16.826400 7.873800
16.846000 13.626700
16.865600 12.463900
16.885200 11.266700
16.904800 10.075900
16.924500 9.083000
16.944100 17.637900
16.963700 12.275700
16.983300 15.222000
17.002900 13.886500
17.022500 13.768600
17.042100 12.497900
17.061700 11.293800
17.081400 10.156500
17.101000 9.717400
17.120600 10.600800
17.140200 13.098900
17.159800 12.771600
17.179400 14.666000
17.199000 11.224300
17.218700 24.719800
17.238300 16.203500
17.257900 18.490500
17.277500 13.719600
17.297100 14.833500
17.316700 16.138800
17.336300 17.398000
17.355900 16.714300
17.375600 16.679600
17.395200 16.434700
17.414800 12.185900
17.434400 11.025600
17.454000 12.270400
17.473600 12.830500
17.493200 12.720100
17.512800 12.190300
17.532500 12.415800
17.552100 12.792100
17.571700 13.154000
17.591300 13.501400
17.610900 13.826100
17.630500 14.092000
17.650100 13.813500
17.669800 11.672300
17.689400 10.719400
17.709000 14.722300
17.728600 18.727200
17.748200 12.526000
17.767800 12.329500
17.787400 12.504300
17.807000 12.920200
17.826700 13.862100
17.846300 14.084000
17.865900 14.289700
17.885500 14.479200
17.905100 14.652500
17.924700 11.688600
17.944300 10.774400
17.964000 9.945900
17.983600 9.375900
18.003200 9.424100
18.022800 10.100500
18.042400 11.622600
18.062000 9.758200
18.081600 8.431500
18.101200 10.469200
18.120900 9.390300
18.140500 8.390700
18.160100 7.470400
18.179700 7.861200
18.199300 7.894300
18.218900 7.973000
18.238500 8.097500
18.258100 8.258100
18.277800 8.441200
18.297400 8.498200
18.317000 8.727300
18.336600 8.986400
18.356200 11.554700
18.375800 7.772700
18.395400 7.795500
18.415100 7.853100
18.434700 7.956700
18.454300 8.071500
18.473900 8.197500
18.493500 7.974000
18.513100 7.551300
18.532700 7.408500
18.552300 7.167300
18.572000 5.942500
18.591600 21.297000
18.611200 12.036800
18.630800 12.157500
18.650400 12.189600
18.670000 12.133300
18.689600 11.830100
18.709200 11.952200
18.728900 11.557800
18.748500 10.788400
18.768100 10.148300
18.787700 10.217700
18.807300 10.932400
18.826900 14.427700
18.846500 16.597500
18.866200 15.940600
18.885800 13.600300
18.905400 13.354400
18.925000 13.696100
18.944600 13.929600
18.964200 14.055100
18.983800 14.114700
19.003400 14.214300
19.023100 14.269400
19.042700 12.553700
19.062300 11.657900
19.081900 10.358900
19.101500 9.494700
19.121100 9.021400
19.140700 8.412600
19.160300 7.930700
19.180000 7.512800
19.199600 7.145100
19.219200 12.581500
19.238800 12.419900
19.258400 12.357400
19.278000 12.459800
19.297600 12.608800
19.317300 19.290800
19.336900 15.128200
19.356500 15.751000
19.376100 16.390400
19.395700 11.930400
19.415300 11.622800
19.434900 12.021200
19.454500 13.160900
19.474200 12.671700
19.493800 11.663300
19.513400 10.156400
19.533000 18.413100
19.552600 13.217000
19.572200 10.883600
19.591800 14.191300
19.611400 19.701800
19.631100 18.156400
19.650700 13.406500
19.670300 12.688400
19.689900 11.915700
19.709500 11.048100
19.729100 13.497700
19.748700 13.536000
19.768400 13.611200
19.788000 13.042500
19.807600 9.751600
19.827200 11.173900
19.846800 18.222100
19.866400 27.806500
19.886000 16.259400
19.905600 15.115300
19.925300 14.821900
19.944900 20.126700
19.964500 13.874600
19.984100 12.089000
20.003700 10.492100
20.023300 8.510400
20.042900 7.601700
20.062500 6.663400
20.082200 7.757900
20.101800 7.350900
20.121400 7.869300
20.141000 8.437500
20.160600 9.119400
20.180200 9.446000
20.199800 9.523800
20.219500 9.885500
20.239100 10.071400
20.258700 10.085200
20.278300 10.683400
20.297900 10.808400
20.317500 10.182100
20.337100 10.074600
20.356700 12.995400
20.376400 12.363300
20.396000 11.484000
20.415600 9.172300
20.435200 8.100600
20.454800 7.464900
20.474400 7.003200
20.494000 6.678200
20.513600 6.489900
20.533300 6.438300
20.552900 7.773000
20.572500 11.079000
20.592100 11.352600
20.611700 11.862800
20.631300 11.674700
20.650900 10.980300
20.670600 12.390300
20.690200 25.212200
20.709800 14.854600
20.729400 15.383300
20.749000 23.731100
20.768600 23.121700
20.788200 18.164000
20.807800 12.280500
20.827500 7.191200
20.847100 2.734600
20.866700 1.141300
20.886300 0.822000
20.905900 0.555400
20.925500 0.331300
20.945100 0.149600
20.964800 0.010500
20.984400 0.000000
21.004000 0.000000
21.023600 0.000000
21.043200 0.000000
21.062800 0.000000
21.082400 0.000000
21.102000 0.000000
21.121700 0.000000
21.141300 0.000000
21.160900 0.000000
21.180500 0.000000
21.200100 0.000000
21.219700 0.000000
21.239300 0.000000
21.258900 0.000000
21.278600 0.000000
21.298200 0.000000
21.317800 0.000000
21.337400 0.000000
21.357000 0.000000
21.376600 0.000000
21.396200 0.000000
21.415900 0.000000
21.435500 0.000000
21.455100 0.000000
21.474700 0.000000
21.494300 0.000000
21.513900 0.000000
21.533500 0.000000
21.553100 0.000000
21.572800 0.000000
21.592400 0.000000
21.612000 0.000000
21.631600 0.000000
21.651200 0.000000
21.670800 0.000000
21.690400 0.000000
21.710000 0.000000
21.729700 0.000000
21.749300 0.000000
21.768900 0.000000
21.788500 0.000000
21.808100 0.000000
21.827700 0.000000
21.847300 0.000000
21.867000 0.000000
21.886600 0.000000
21.906200 0.000000
21.925800 0.000000
21.945400 0.000000
21.965000 0.000000
21.984600 0.000000
22.004200 0.000000
22.023900 0.000000
22.043500 0.000000
22.063100 0.000000
22.082700 0.000000
22.102300 0.000000
22.121900 0.000000
22.141500 0.000000
22.161100 0.000000
22.180800 0.000000
22.200400 0.000000
22.220000 0.000000
22.239600 0.000000
22.259200 0.000000
22.278800 0.000000
22.298400 0.000000
22.318100 0.000000
22.337700 0.000000
22.357300 0.000000
22.376900 0.000000
22.396500 0.000000
22.416100 0.000000
22.435700 0.000000
22.455300 0.000000
22.475000 0.000000
22.494600 0.000000
22.514200 0.000000
22.533800 0.000000
22.553400 0.000000
22.573000 0.000000
22.592600 0.000000
22.612200 0.000000
22.631900 0.000000
22.651500 0.000000
22.671100 0.000000
22.690700 0.000000
22.710300 0.000000
22.729900 0.000000
22.749500 0.000000
e
