set title 'mp-22323 - Density of States'
set xlabel 'Energy (eV)'
set ylabel 'DOS (states/eV)'
set grid
set xrange [-10:10]
set yrange [0:123.917]
set xzeroaxis lt -1
set terminal png size 800,600
set output 'mp-22323_dos_gnuplot.png'
plot '-' using 1:2 with lines title 'DOS'
-13.997300 0.000000
-13.978400 0.000000
-13.959500 0.000000
-13.940600 0.000000
-13.921700 0.000000
-13.902800 0.000000
-13.883900 0.000000
-13.865000 0.000000
-13.846100 0.000000
-13.827300 0.000000
-13.808400 0.000000
-13.789500 0.000000
-13.770600 0.000000
-13.751700 0.000000
-13.732800 0.000000
-13.713900 0.000000
-13.695000 0.000000
-13.676200 0.000000
-13.657300 0.000000
-13.638400 0.000000
-13.619500 0.000000
-13.600600 0.000000
-13.581700 0.000000
-13.562800 0.000000
-13.543900 0.000000
-13.525000 0.000000
-13.506200 0.000000
-13.487300 0.000000
-13.468400 0.000000
-13.449500 0.000000
-13.430600 0.000000
-13.411700 0.000000
-13.392800 0.000000
-13.373900 0.000000
-13.355100 0.000000
-13.336200 0.000000
-13.317300 0.000000
-13.298400 0.000000
-13.279500 0.000000
-13.260600 0.000000
-13.241700 0.000000
-13.222800 0.000000
-13.203900 0.000000
-13.185100 0.000000
-13.166200 0.000000
-13.147300 0.000000
-13.128400 0.000000
-13.109500 0.000000
-13.090600 0.000000
-13.071700 0.000000
-13.052800 0.000000
-13.033900 0.000000
-13.015100 0.000000
-12.996200 0.000000
-12.977300 0.000000
-12.958400 0.000000
-12.939500 0.000000
-12.920600 0.000000
-12.901700 0.000000
-12.882800 0.000000
-12.864000 0.000000
-12.845100 0.000000
-12.826200 0.000000
-12.807300 0.000000
-12.788400 0.000000
-12.769500 0.000000
-12.750600 0.000000
-12.731700 0.000000
-12.712800 0.000000
-12.694000 0.000000
-12.675100 0.000000
-12.656200 0.000000
-12.637300 0.000000
-12.618400 0.000000
-12.599500 0.000000
-12.580600 0.000000
-12.561700 0.000000
-12.542800 0.000000
-12.524000 0.000000
-12.505100 0.000000
-12.486200 0.000000
-12.467300 0.000000
-12.448400 0.000000
-12.429500 0.000000
-12.410600 0.000000
-12.391700 0.000000
-12.372900 0.000000
-12.354000 0.000000
-12.335100 0.000000
-12.316200 0.000000
-12.297300 0.000000
-12.278400 0.005500
-12.259500 0.560300
-12.240600 0.775700
-12.221700 1.047900
-12.202900 1.200700
-12.184000 1.406500
-12.165100 1.601100
-12.146200 1.774100
-12.127300 1.954900
-12.108400 2.151300
-12.089500 2.352900
-12.070600 2.564100
-12.051800 2.787100
-12.032900 3.021500
-12.014000 3.269800
-11.995100 3.577500
-11.976200 3.923800
-11.957300 4.313600
-11.938400 4.755100
-11.919500 5.327700
-11.900600 6.363800
-11.881800 7.474100
-11.862900 7.462100
-11.844000 7.521100
-11.825100 8.644100
-11.806200 10.867400
-11.787300 7.482400
-11.768400 0.670100
-11.749500 2.000200
-11.730600 13.684400
-11.711800 9.918500
-11.692900 9.198600
-11.674000 9.800700
-11.655100 9.663500
-11.636200 7.263100
-11.617300 6.154500
-11.598400 5.489800
-11.579500 5.028600
-11.560700 4.763100
-11.541800 4.674400
-11.522900 4.865700
-11.504000 31.134000
-11.485100 31.807500
-11.466200 29.443700
-11.447300 24.723300
-11.428400 24.081800
-11.409500 45.522900
-11.390700 24.343600
-11.371800 33.990300
-11.352900 33.726300
-11.334000 32.886100
-11.315100 28.917500
-11.296200 29.401800
-11.277300 26.083300
-11.258400 18.335000
-11.239500 11.383500
-11.220700 6.318400
-11.201800 0.000000
-11.182900 0.000000
-11.164000 0.000000
-11.145100 0.000000
-11.126200 0.000000
-11.107300 0.000000
-11.088400 0.000000
-11.069600 0.000000
-11.050700 0.000000
-11.031800 0.000000
-11.012900 0.000000
-10.994000 0.000000
-10.975100 0.000000
-10.956200 0.000000
-10.937300 0.000000
-10.918400 0.000000
-10.899600 0.000000
-10.880700 0.000000
-10.861800 0.000000
-10.842900 0.000000
-10.824000 0.000000
-10.805100 0.000000
-10.786200 0.000000
-10.767300 0.000000
-10.748500 0.000000
-10.729600 0.000000
-10.710700 0.000000
-10.691800 0.000000
-10.672900 0.000000
-10.654000 0.000000
-10.635100 0.000000
-10.616200 0.000000
-10.597300 0.000000
-10.578500 0.000000
-10.559600 0.000000
-10.540700 0.000000
-10.521800 0.000000
-10.502900 0.000000
-10.484000 0.000000
-10.465100 0.000000
-10.446200 0.000000
-10.427300 0.000000
-10.408500 0.000000
-10.389600 0.000000
-10.370700 0.000000
-10.351800 0.000000
-10.332900 0.000000
-10.314000 0.000000
-10.295100 0.000000
-10.276200 0.000000
-10.257400 0.000000
-10.238500 0.000000
-10.219600 0.000000
-10.200700 0.000000
-10.181800 0.000000
-10.162900 0.000000
-10.144000 0.000000
-10.125100 0.000000
-10.106200 0.000000
-10.087400 0.000000
-10.068500 0.000000
-10.049600 0.000000
-10.030700 0.000000
-10.011800 0.000000
-9.992900 0.000000
-9.974000 0.000000
-9.955100 0.000000
-9.936200 0.000000
-9.917400 0.000000
-9.898500 0.000000
-9.879600 0.000000
-9.860700 0.000000
-9.841800 0.000000
-9.822900 0.000000
-9.804000 0.000000
-9.785100 0.000000
-9.766300 0.000000
-9.747400 0.000000
-9.728500 0.000000
-9.709600 0.000000
-9.690700 0.000000
-9.671800 0.000000
-9.652900 0.000000
-9.634000 0.000000
-9.615100 0.000000
-9.596300 0.000000
-9.577400 0.000000
-9.558500 0.000000
-9.539600 0.000000
-9.520700 0.000000
-9.501800 0.000000
-9.482900 0.000000
-9.464000 0.000000
-9.445200 0.000000
-9.426300 0.000000
-9.407400 0.000000
-9.388500 0.000000
-9.369600 0.000000
-9.350700 0.000000
-9.331800 0.000000
-9.312900 0.000000
-9.294000 0.000000
-9.275200 0.000000
-9.256300 0.000000
-9.237400 0.000000
-9.218500 0.000000
-9.199600 0.000000
-9.180700 0.000000
-9.161800 0.000000
-9.142900 0.000000
-9.124000 0.000000
-9.105200 0.000000
-9.086300 0.000000
-9.067400 0.000000
-9.048500 0.000000
-9.029600 0.000000
-9.010700 0.000000
-8.991800 0.000000
-8.972900 0.000000
-8.954100 0.000000
-8.935200 0.000000
-8.916300 0.000000
-8.897400 0.000000
-8.878500 0.000000
-8.859600 0.000000
-8.840700 0.000000
-8.821800 0.000000
-8.802900 0.000000
-8.784100 0.000000
-8.765200 0.000000
-8.746300 0.000000
-8.727400 0.000000
-8.708500 0.000000
-8.689600 0.000000
-8.670700 0.000000
-8.651800 0.000000
-8.632900 0.000000
-8.614100 0.000000
-8.595200 0.000000
-8.576300 0.000000
-8.557400 0.000000
-8.538500 0.000000
-8.519600 0.000000
-8.500700 0.000000
-8.481800 0.000000
-8.463000 0.000000
-8.444100 0.000000
-8.425200 0.000000
-8.406300 0.000000
-8.387400 0.000000
-8.368500 0.000000
-8.349600 0.000000
-8.330700 0.000000
-8.311800 0.000000
-8.293000 0.000000
-8.274100 0.000000
-8.255200 0.000000
-8.236300 0.000000
-8.217400 0.000000
-8.198500 0.000000
-8.179600 0.000000
-8.160700 0.000000
-8.141900 0.000000
-8.123000 0.000000
-8.104100 0.000000
-8.085200 0.000000
-8.066300 0.000000
-8.047400 0.000000
-8.028500 0.000000
-8.009600 0.000000
-7.990700 0.000000
-7.971900 0.000000
-7.953000 0.000000
-7.934100 0.000000
-7.915200 0.000000
-7.896300 0.000000
-7.877400 0.000000
-7.858500 0.000000
-7.839600 0.000000
-7.820700 0.000000
-7.801900 0.000000
-7.783000 0.000000
-7.764100 0.000000
-7.745200 0.000000
-7.726300 0.000000
-7.707400 0.000000
-7.688500 0.000000
-7.669600 0.000000
-7.650800 0.000000
-7.631900 0.000000
-7.613000 0.000000
-7.594100 0.000000
-7.575200 0.000000
-7.556300 0.000000
-7.537400 0.000000
-7.518500 0.000000
-7.499600 0.000000
-7.480800 0.000000
-7.461900 0.000000
-7.443000 0.000000
-7.424100 0.000000
-7.405200 0.000000
-7.386300 0.000000
-7.367400 0.000000
-7.348500 0.000000
-7.329600 9.195000
-7.310800 29.449700
-7.291900 65.464700
-7.273000 53.131800
-7.254100 64.226000
-7.235200 78.771900
-7.216300 43.515800
-7.197400 63.146300
-7.178500 112.651800
-7.159700 51.463800
-7.140800 60.985900
-7.121900 79.735300
-7.103000 70.563500
-7.084100 46.919500
-7.065200 40.709400
-7.046300 60.002900
-7.027400 75.723900
-7.008500 51.969700
-6.989700 64.371700
-6.970800 78.377900
-6.951900 33.428500
-6.933000 52.392600
-6.914100 37.382700
-6.895200 64.262700
-6.876300 102.612700
-6.857400 56.939600
-6.838600 21.730900
-6.819700 36.747300
-6.800800 21.565200
-6.781900 25.716700
-6.763000 22.165200
-6.744100 22.296400
-6.725200 20.183200
-6.706300 17.513500
-6.687400 17.943400
-6.668600 15.865800
-6.649700 12.502100
-6.630800 10.031200
-6.611900 9.376900
-6.593000 9.835000
-6.574100 8.631900
-6.555200 8.097600
-6.536300 7.694200
-6.517400 8.222900
-6.498600 9.499200
-6.479700 8.519800
-6.460800 6.403700
-6.441900 5.029100
-6.423000 3.592000
-6.404100 4.714300
-6.385200 6.274700
-6.366300 8.248800
-6.347500 9.604500
-6.328600 11.380500
-6.309700 9.678100
-6.290800 8.841800
-6.271900 7.779000
-6.253000 7.552000
-6.234100 7.817300
-6.215200 7.784700
-6.196300 7.712500
-6.177500 7.693000
-6.158600 7.695800
-6.139700 7.021100
-6.120800 6.161500
-6.101900 6.078300
-6.083000 6.759300
-6.064100 7.928400
-6.045200 10.249300
-6.026300 9.851700
-6.007500 9.600800
-5.988600 10.986000
-5.969700 7.253500
-5.950800 5.285600
-5.931900 4.056300
-5.913000 2.950200
-5.894100 2.035300
-5.875200 0.441800
-5.856400 0.000000
-5.837500 0.000000
-5.818600 0.000000
-5.799700 0.000000
-5.780800 0.000000
-5.761900 0.000000
-5.743000 0.000000
-5.724100 0.000000
-5.705200 0.000000
-5.686400 0.000000
-5.667500 0.000000
-5.648600 0.000000
-5.629700 0.000000
-5.610800 0.000000
-5.591900 0.000000
-5.573000 0.000000
-5.554100 0.000000
-5.535300 0.000000
-5.516400 0.000000
-5.497500 0.000000
-5.478600 0.000000
-5.459700 0.000000
-5.440800 0.000000
-5.421900 0.000000
-5.403000 0.000000
-5.384100 0.000000
-5.365300 0.000000
-5.346400 0.000000
-5.327500 0.000000
-5.308600 0.000000
-5.289700 0.000000
-5.270800 0.000000
-5.251900 0.000000
-5.233000 0.000000
-5.214100 0.000000
-5.195300 0.000000
-5.176400 0.000000
-5.157500 0.000000
-5.138600 0.000000
-5.119700 0.000000
-5.100800 0.000000
-5.081900 0.000000
-5.063000 0.000000
-5.044200 0.000000
-5.025300 0.000000
-5.006400 0.000000
-4.987500 0.000000
-4.968600 0.000000
-4.949700 0.000000
-4.930800 0.000000
-4.911900 0.000000
-4.893000 0.000000
-4.874200 0.000000
-4.855300 0.000000
-4.836400 0.000000
-4.817500 0.000000
-4.798600 0.000000
-4.779700 0.000000
-4.760800 0.000000
-4.741900 0.000000
-4.723000 0.000000
-4.704200 0.000000
-4.685300 0.000000
-4.666400 0.000000
-4.647500 0.000000
-4.628600 0.000000
-4.609700 0.000000
-4.590800 0.000000
-4.571900 0.000000
-4.553100 0.000000
-4.534200 0.000000
-4.515300 0.000000
-4.496400 0.000000
-4.477500 0.000000
-4.458600 0.000000
-4.439700 0.000000
-4.420800 0.000000
-4.401900 0.000000
-4.383100 0.000000
-4.364200 0.000000
-4.345300 0.000000
-4.326400 0.000000
-4.307500 0.000000
-4.288600 0.000000
-4.269700 0.000000
-4.250800 0.000000
-4.232000 0.000000
-4.213100 0.000000
-4.194200 0.000000
-4.175300 0.000000
-4.156400 0.000000
-4.137500 0.000000
-4.118600 0.000000
-4.099700 0.000000
-4.080800 0.000000
-4.062000 0.000000
-4.043100 0.000000
-4.024200 0.000000
-4.005300 0.000000
-3.986400 0.000000
-3.967500 0.000000
-3.948600 0.000000
-3.929700 0.000000
-3.910800 0.000000
-3.892000 0.000000
-3.873100 0.000000
-3.854200 0.000000
-3.835300 0.000000
-3.816400 0.000000
-3.797500 0.000000
-3.778600 0.000000
-3.759700 0.000000
-3.740900 0.000000
-3.722000 0.000000
-3.703100 0.000000
-3.684200 0.000000
-3.665300 0.000000
-3.646400 0.000000
-3.627500 0.000000
-3.608600 0.000000
-3.589700 0.000000
-3.570900 0.000000
-3.552000 0.000000
-3.533100 0.000000
-3.514200 0.000000
-3.495300 0.000000
-3.476400 0.000000
-3.457500 0.000000
-3.438600 0.000000
-3.419700 0.000000
-3.400900 0.000000
-3.382000 0.000000
-3.363100 0.000000
-3.344200 0.000000
-3.325300 0.000000
-3.306400 0.000000
-3.287500 0.000000
-3.268600 0.000000
-3.249800 0.000000
-3.230900 0.000000
-3.212000 0.000000
-3.193100 0.000000
-3.174200 0.000000
-3.155300 0.000000
-3.136400 0.000000
-3.117500 0.000000
-3.098600 0.000000
-3.079800 0.000000
-3.060900 0.000000
-3.042000 0.000000
-3.023100 0.000000
-3.004200 0.000000
-2.985300 0.000000
-2.966400 0.000000
-2.947500 0.000000
-2.928700 0.000000
-2.909800 0.000000
-2.890900 0.000000
-2.872000 0.000000
-2.853100 0.000000
-2.834200 0.000000
-2.815300 0.000000
-2.796400 0.000000
-2.777500 0.000000
-2.758700 0.000000
-2.739800 0.000000
-2.720900 0.000000
-2.702000 0.000000
-2.683100 0.000000
-2.664200 0.000000
-2.645300 0.000000
-2.626400 0.000000
-2.607500 0.000000
-2.588700 0.000000
-2.569800 0.000000
-2.550900 0.000000
-2.532000 0.000000
-2.513100 0.000000
-2.494200 0.000000
-2.475300 0.000000
-2.456400 0.000000
-2.437600 0.000000
-2.418700 0.000000
-2.399800 0.000000
-2.380900 0.000000
-2.362000 0.000000
-2.343100 0.000000
-2.324200 0.000000
-2.305300 0.000000
-2.286400 0.000000
-2.267600 0.000000
-2.248700 0.000000
-2.229800 0.000000
-2.210900 0.000000
-2.192000 0.000000
-2.173100 0.000000
-2.154200 0.000000
-2.135300 0.000000
-2.116400 0.000000
-2.097600 0.000000
-2.078700 0.000000
-2.059800 0.000000
-2.040900 0.000000
-2.022000 0.000000
-2.003100 0.000000
-1.984200 0.000000
-1.965300 0.000000
-1.946500 0.000000
-1.927600 0.000000
-1.908700 0.000000
-1.889800 0.000000
-1.870900 0.000000
-1.852000 0.000000
-1.833100 0.000000
-1.814200 0.000000
-1.795300 0.000000
-1.776500 0.000000
-1.757600 0.000000
-1.738700 0.000000
-1.719800 0.000000
-1.700900 0.000000
-1.682000 0.000000
-1.663100 0.000000
-1.644200 0.000000
-1.625400 0.000000
-1.606500 0.000000
-1.587600 0.000000
-1.568700 0.000000
-1.549800 0.000000
-1.530900 0.000000
-1.512000 0.000000
-1.493100 0.000000
-1.474200 0.000000
-1.455400 0.000000
-1.436500 0.000000
-1.417600 0.000000
-1.398700 0.000000
-1.379800 0.000000
-1.360900 0.000000
-1.342000 0.000000
-1.323100 0.000000
-1.304200 0.000000
-1.285400 0.000000
-1.266500 0.000000
-1.247600 0.000000
-1.228700 0.000000
-1.209800 0.000000
-1.190900 0.000000
-1.172000 0.000000
-1.153100 0.000000
-1.134300 0.000000
-1.115400 0.000000
-1.096500 0.000000
-1.077600 0.000000
-1.058700 0.000000
-1.039800 0.000000
-1.020900 0.000000
-1.002000 0.000000
-0.983100 0.000000
-0.964300 0.000000
-0.945400 0.000000
-0.926500 0.000000
-0.907600 0.000000
-0.888700 0.000000
-0.869800 0.000000
-0.850900 0.000000
-0.832000 0.000000
-0.813100 0.000000
-0.794300 0.000000
-0.775400 0.000000
-0.756500 0.000000
-0.737600 0.000000
-0.718700 0.000000
-0.699800 0.000000
-0.680900 0.000000
-0.662000 0.000000
-0.643200 0.000000
-0.624300 0.000000
-0.605400 0.000000
-0.586500 0.000000
-0.567600 0.000000
-0.548700 0.000000
-0.529800 0.000000
-0.510900 0.000000
-0.492000 0.000000
-0.473200 0.000000
-0.454300 0.000000
-0.435400 0.000000
-0.416500 0.000000
-0.397600 0.000000
-0.378700 0.210000
-0.359800 0.401000
-0.340900 0.539700
-0.322100 0.676000
-0.303200 0.745000
-0.284300 0.819300
-0.265400 0.917100
-0.246500 1.015100
-0.227600 1.090200
-0.208700 1.170100
-0.189800 1.268300
-0.170900 1.373100
-0.152100 1.482800
-0.133200 1.596300
-0.114300 1.716100
-0.095400 1.833600
-0.076500 1.958100
-0.057600 2.088600
-0.038700 3.835100
-0.019800 3.794400
-0.000900 3.753500
0.017900 3.852400
0.036800 3.982100
0.055700 4.114100
0.074600 4.267500
0.093500 4.449800
0.112400 4.750900
0.131300 4.997200
0.150200 5.300500
0.169000 5.744800
0.187900 6.128700
0.206800 6.307100
0.225700 6.239900
0.244600 6.117600
0.263500 6.338400
0.282400 6.531100
0.301300 6.230300
0.320200 5.863300
0.339000 5.493800
0.357900 5.175300
0.376800 5.045200
0.395700 5.290300
0.414600 5.136700
0.433500 5.253200
0.452400 5.432300
0.471300 5.762200
0.490200 5.588300
0.509000 4.955600
0.527900 5.022700
0.546800 5.393200
0.565700 6.259800
0.584600 6.213400
0.603500 5.976400
0.622400 5.629300
0.641300 5.548300
0.660100 5.540100
0.679000 5.523700
0.697900 5.319200
0.716800 5.326100
0.735700 5.514800
0.754600 5.718500
0.773500 6.056300
0.792400 5.697400
0.811300 5.113900
0.830100 4.646500
0.849000 4.298900
0.867900 4.157000
0.886800 3.814100
0.905700 3.710700
0.924600 3.618100
0.943500 3.531500
0.962400 3.539300
0.981200 3.636200
1.000100 3.893800
1.019000 3.801700
1.037900 3.752200
1.056800 3.652400
1.075700 3.608700
1.094600 3.561400
1.113500 3.383900
1.132400 3.135200
1.151200 2.884600
1.170100 2.712000
1.189000 2.613100
1.207900 2.470900
1.226800 2.293600
1.245700 2.221700
1.264600 2.071800
1.283500 2.027300
1.302400 2.026900
1.321200 2.070800
1.340100 2.079100
1.359000 2.043800
1.377900 2.063300
1.396800 2.051700
1.415700 2.107800
1.434600 2.129100
1.453500 2.195900
1.472300 2.206900
1.491200 2.232000
1.510100 2.277800
1.529000 2.365500
1.547900 2.484300
1.566800 2.614900
1.585700 2.784100
1.604600 3.117900
1.623500 3.423900
1.642300 3.785300
1.661200 4.300900
1.680100 4.266100
1.699000 3.651400
1.717900 3.529000
1.736800 3.667900
1.755700 5.249600
1.774600 4.305000
1.793500 3.872100
1.812300 3.190600
1.831200 2.436900
1.850100 1.765900
1.869000 2.222500
1.887900 2.095000
1.906800 2.288600
1.925700 2.700800
1.944600 3.454500
1.963400 4.192500
1.982300 5.300000
2.001200 5.821100
2.020100 5.955800
2.039000 5.956000
2.057900 6.904400
2.076800 7.836800
2.095700 9.211400
2.114600 8.318500
2.133400 7.376100
2.152300 9.363300
2.171200 8.715500
2.190100 9.134500
2.209000 7.481700
2.227900 7.185900
2.246800 7.654600
2.265700 7.891300
2.284500 8.015100
2.303400 7.781800
2.322300 7.688200
2.341200 8.799300
2.360100 8.345000
2.379000 6.574000
2.397900 5.260900
2.416800 5.055600
2.435700 4.426400
2.454500 5.209800
2.473400 5.079700
2.492300 5.477800
2.511200 6.502900
2.530100 6.675100
2.549000 6.747000
2.567900 7.028800
2.586800 7.464800
2.605700 7.245700
2.624500 7.200500
2.643400 7.437900
2.662300 7.276500
2.681200 6.524200
2.700100 6.123700
2.719000 5.851600
2.737900 4.682300
2.756800 4.873200
2.775600 5.345800
2.794500 5.638100
2.813400 5.239000
2.832300 5.316700
2.851200 5.703900
2.870100 5.826500
2.889000 6.022100
2.907900 5.855400
2.926800 5.769500
2.945600 6.007200
2.964500 6.188300
2.983400 6.521000
3.002300 5.600000
3.021200 5.744000
3.040100 6.123300
3.059000 6.508900
3.077900 6.694200
3.096800 6.747100
3.115600 6.228100
3.134500 6.863700
3.153400 7.387500
3.172300 8.115100
3.191200 8.490900
3.210100 7.353400
3.229000 6.852100
3.247900 7.096100
3.266700 7.555100
3.285600 7.762000
3.304500 7.687200
3.323400 7.681400
3.342300 7.941400
3.361200 8.453400
3.380100 9.687200
3.399000 8.933000
3.417900 8.117500
3.436700 8.089000
3.455600 7.792600
3.474500 7.349500
3.493400 6.526500
3.512300 6.120300
3.531200 5.593600
3.550100 5.488600
3.569000 5.671000
3.587800 5.196800
3.606700 5.129200
3.625600 5.024700
3.644500 4.691700
3.663400 5.339100
3.682300 7.152600
3.701200 8.648400
3.720100 8.552500
3.739000 7.977600
3.757800 7.399500
3.776700 6.389200
3.795600 6.612500
3.814500 9.075100
3.833400 10.100500
3.852300 9.410500
3.871200 10.055900
3.890100 9.815900
3.909000 9.318100
3.927800 8.896600
3.946700 9.667500
3.965600 10.895400
3.984500 12.142300
4.003400 15.015300
4.022300 11.354500
4.041200 7.251100
4.060100 5.814400
4.078900 6.154100
4.097800 6.613100
4.116700 8.287100
4.135600 10.713600
4.154500 12.002100
4.173400 12.027300
4.192300 10.843000
4.211200 11.151200
4.230100 9.404100
4.248900 9.520200
4.267800 9.944400
4.286700 9.683400
4.305600 12.374900
4.324500 9.045100
4.343400 9.083400
4.362300 9.851500
4.381200 10.586900
4.400100 11.351200
4.418900 11.500300
4.437800 11.190000
4.456700 10.220300
4.475600 9.998100
4.494500 10.125000
4.513400 10.386500
4.532300 11.372300
4.551200 10.873700
4.570000 11.247900
4.588900 12.167600
4.607800 13.422400
4.626700 15.782700
4.645600 16.238800
4.664500 13.607400
4.683400 12.445000
4.702300 12.343100
4.721200 11.852400
4.740000 13.050000
4.758900 14.643900
4.777800 16.650200
4.796700 14.970800
4.815600 16.693500
4.834500 21.000200
4.853400 24.442100
4.872300 20.804800
4.891100 24.347600
4.910000 29.972000
4.928900 20.044300
4.947800 19.482800
4.966700 12.146200
4.985600 9.499400
5.004500 7.015700
5.023400 5.736400
5.042300 0.305400
5.061100 0.000000
5.080000 0.000000
5.098900 0.000000
5.117800 0.000000
5.136700 0.000000
5.155600 0.000000
5.174500 0.000000
5.193400 0.000000
5.212300 0.000000
5.231100 0.000000
5.250000 0.000000
5.268900 0.000000
5.287800 0.000000
5.306700 0.000000
5.325600 0.000000
5.344500 0.000000
5.363400 0.000000
5.382200 0.000000
5.401100 0.000000
5.420000 0.000000
5.438900 0.000000
5.457800 0.000000
5.476700 0.000000
5.495600 0.000000
5.514500 0.000000
5.533400 0.000000
5.552200 0.000000
5.571100 0.000000
5.590000 0.000000
5.608900 0.000000
5.627800 0.000000
5.646700 0.000000
5.665600 0.000000
5.684500 0.000000
5.703400 0.000000
5.722200 0.000000
5.741100 0.000000
5.760000 0.000000
5.778900 0.000000
5.797800 0.000000
5.816700 0.000000
5.835600 0.000000
5.854500 0.000000
5.873300 0.000000
5.892200 0.000000
5.911100 0.000000
5.930000 0.000000
5.948900 0.000000
5.967800 0.000000
5.986700 0.000000
6.005600 0.000000
6.024500 0.000200
6.043300 0.000600
6.062200 0.001300
6.081100 0.002400
6.100000 0.003700
6.118900 0.005300
6.137800 0.007300
6.156700 0.009500
6.175600 0.012000
6.194400 0.014800
6.213300 0.017900
6.232200 0.021300
6.251100 0.025000
6.270000 0.028900
6.288900 0.033200
6.307800 0.037600
6.326700 0.039300
6.345600 0.040400
6.364400 0.041800
6.383300 0.043600
6.402200 0.045600
6.421100 0.047700
6.440000 0.049800
6.458900 0.052000
6.477800 0.054200
6.496700 0.056400
6.515600 0.058700
6.534400 0.061000
6.553300 0.063300
6.572200 0.065600
6.591100 0.068000
6.610000 0.070400
6.628900 0.072800
6.647800 0.075200
6.666700 0.077700
6.685500 0.080200
6.704400 0.082800
6.723300 0.085400
6.742200 0.088200
6.761100 0.091100
6.780000 0.094100
6.798900 0.097200
6.817800 0.100400
6.836700 0.103700
6.855500 0.107100
6.874400 0.110500
6.893300 0.113900
6.912200 0.117100
6.931100 0.120200
6.950000 0.123300
6.968900 0.126400
6.987800 0.129400
7.006700 0.132500
7.025500 0.135600
7.044400 0.138700
7.063300 0.141800
7.082200 0.144900
7.101100 0.148000
7.120000 0.151100
7.138900 0.154200
7.157800 0.157400
7.176600 0.160600
7.195500 0.163700
7.214400 0.166900
7.233300 0.170200
7.252200 0.173400
7.271100 0.176900
7.290000 0.181300
7.308900 0.186000
7.327800 0.190300
7.346600 0.194700
7.365500 0.199000
7.384400 0.203400
7.403300 0.207700
7.422200 0.212100
7.441100 0.216500
7.460000 0.221000
7.478900 0.225500
7.497700 0.230000
7.516600 0.234500
7.535500 0.239000
7.554400 0.243500
7.573300 0.247900
7.592200 0.252200
7.611100 0.256600
7.630000 0.260900
7.648900 0.265200
7.667700 0.269500
7.686600 0.273800
7.705500 0.278100
7.724400 0.282500
7.743300 0.286800
7.762200 0.291200
7.781100 0.295600
7.800000 0.300000
7.818900 0.304700
7.837700 0.309700
7.856600 0.315200
7.875500 0.321100
7.894400 0.327300
7.913300 0.333600
7.932200 0.339900
7.951100 0.346100
7.970000 0.352200
7.988800 0.358200
8.007700 0.364200
8.026600 0.370200
8.045500 0.376200
8.064400 0.382300
8.083300 0.388400
8.102200 0.394500
8.121100 0.400600
8.140000 0.406800
8.158800 0.413000
8.177700 0.419200
8.196600 0.425300
8.215500 0.431500
8.234400 0.437600
8.253300 0.443700
8.272200 0.449800
8.291100 0.455900
8.309900 0.462000
8.328800 0.468100
8.347700 0.474300
8.366600 0.480500
8.385500 0.487000
8.404400 0.494100
8.423300 0.502200
8.442200 0.510500
8.461100 0.518600
8.479900 0.526800
8.498800 0.535200
8.517700 0.543900
8.536600 0.552600
8.555500 0.561400
8.574400 0.570200
8.593300 0.578900
8.612200 0.587600
8.631100 0.596300
8.649900 0.604900
8.668800 0.613600
8.687700 0.622300
8.706600 0.631100
8.725500 0.639800
8.744400 0.648700
8.763300 0.657600
8.782200 0.666700
8.801000 0.675900
8.819900 0.685400
8.838800 0.695100
8.857700 0.705100
8.876600 0.716900
8.895500 0.728200
8.914400 0.739100
8.933300 0.750000
8.952200 0.761300
8.971000 0.773000
8.989900 0.785200
9.008800 0.797400
9.027700 0.809500
9.046600 0.821000
9.065500 0.834400
9.084400 0.851600
9.103300 0.915500
9.122200 0.894500
9.141000 0.895200
9.159900 0.893000
9.178800 0.898300
9.197700 0.904600
9.216600 0.911900
9.235500 0.920200
9.254400 0.929600
9.273300 0.940200
9.292100 0.954700
9.311000 0.977100
9.329900 1.013200
9.348800 1.046100
9.367700 1.072000
9.386600 1.089300
9.405500 1.115200
9.424400 1.149400
9.443300 1.187100
9.462100 1.222600
9.481000 1.242700
9.499900 1.263000
9.518800 1.283000
9.537700 1.308700
9.556600 1.335600
9.575500 1.359000
9.594400 1.415100
9.613200 1.458800
9.632100 1.499500
9.651000 1.516100
9.669900 1.472100
9.688800 1.426400
9.707700 1.395900
9.726600 1.399500
9.745500 1.422600
9.764400 1.457100
9.783200 1.501300
9.802100 1.549600
9.821000 1.683700
9.839900 1.642500
9.858800 1.675700
9.877700 1.745600
9.896600 1.850200
9.915500 1.838800
9.934400 1.759000
9.953200 1.734400
9.972100 1.711800
9.991000 1.664800
10.009900 1.638100
10.028800 1.695500
10.047700 1.723300
10.066600 1.660200
10.085500 1.658500
10.104300 1.669700
10.123200 1.671400
10.142100 1.718700
10.161000 1.798500
10.179900 1.919300
10.198800 2.119200
10.217700 2.357100
10.236600 2.616400
10.255500 4.087900
10.274300 4.309400
10.293200 4.816900
10.312100 4.775000
10.331000 4.398400
10.349900 4.265400
10.368800 4.351400
10.387700 4.824800
10.406600 5.047700
10.425500 5.145400
10.444300 5.066600
10.463200 5.020000
10.482100 4.966300
10.501000 4.998100
10.519900 5.091500
10.538800 5.192100
10.557700 5.124300
10.576600 5.206300
10.595400 5.160400
10.614300 4.885700
10.633200 5.171300
10.652100 5.359500
10.671000 4.759700
10.689900 4.154500
10.708800 3.889000
10.727700 3.643200
10.746600 3.803900
10.765400 5.292900
10.784300 6.765300
10.803200 7.012800
10.822100 7.239600
10.841000 7.747500
10.859900 7.298500
10.878800 6.980100
10.897700 5.939700
10.916500 5.256900
10.935400 4.758700
10.954300 4.343800
10.973200 3.969700
10.992100 3.738400
11.011000 3.592600
11.029900 3.387300
11.048800 3.100400
11.067700 2.944700
11.086500 2.867000
11.105400 2.777300
11.124300 2.715800
11.143200 2.679800
11.162100 2.669200
11.181000 2.591900
11.199900 2.511300
11.218800 2.423100
11.237700 2.330000
11.256500 2.222600
11.275400 2.112600
11.294300 2.000900
11.313200 1.891200
11.332100 1.799800
11.351000 1.729100
11.369900 1.669600
11.388800 1.616100
11.407600 1.567000
11.426500 1.522300
11.445400 1.481100
11.464300 1.440900
11.483200 1.400300
11.502100 1.364100
11.521000 1.321000
11.539900 1.274100
11.558800 1.229300
11.577600 1.186900
11.596500 1.146500
11.615400 1.107600
11.634300 1.071000
11.653200 1.062100
11.672100 1.052100
11.691000 0.988900
11.709900 0.986200
11.728800 0.973600
11.747600 0.924100
11.766500 0.904900
11.785400 0.894900
11.804300 0.877100
11.823200 0.856400
11.842100 0.839300
11.861000 0.784300
11.879900 0.730800
11.898700 0.686900
11.917600 0.725600
11.936500 0.680600
11.955400 0.654100
11.974300 0.629400
11.993200 0.571900
12.012100 0.584500
12.031000 0.634300
12.049900 0.738400
12.068700 0.857900
12.087600 0.986800
12.106500 1.109800
12.125400 1.243400
12.144300 1.397000
12.163200 1.572800
12.182100 1.757400
12.201000 1.942500
12.219800 2.089700
12.238700 2.237500
12.257600 2.416500
12.276500 2.677200
12.295400 3.141400
12.314300 3.928400
12.333200 5.691400
12.352100 5.309400
12.371000 4.441000
12.389800 4.058000
12.408700 3.757100
12.427600 3.343800
12.446500 2.934600
12.465400 2.736100
12.484300 2.565700
12.503200 2.431100
12.522100 2.322400
12.541000 2.263000
12.559800 2.809200
12.578700 3.091000
12.597600 3.214600
12.616500 3.138600
12.635400 3.073600
12.654300 3.113900
12.673200 3.082000
12.692100 3.003400
12.710900 2.951300
12.729800 2.810000
12.748700 2.677700
12.767600 2.588800
12.786500 2.549700
12.805400 2.530100
12.824300 2.517900
12.843200 2.520700
12.862100 2.544200
12.880900 2.509600
12.899800 2.467300
12.918700 2.410000
12.937600 2.376000
12.956500 2.374600
12.975400 2.385600
12.994300 2.376300
13.013200 2.383600
13.032100 2.373000
13.050900 2.291300
13.069800 2.209800
13.088700 2.254800
13.107600 2.306000
13.126500 2.390500
13.145400 2.386300
13.164300 2.565800
13.183200 3.027000
13.202000 3.048200
13.220900 3.168900
13.239800 3.329600
13.258700 3.450200
13.277600 3.539700
13.296500 3.555200
13.315400 3.497200
13.334300 3.144400
13.353200 2.871300
13.372000 2.771200
13.390900 2.676700
13.409800 2.631200
13.428700 2.632900
13.447600 2.636100
13.466500 2.632000
13.485400 2.616700
13.504300 2.625600
13.523100 2.692100
13.542000 2.767800
13.560900 2.873800
13.579800 2.891000
13.598700 2.869700
13.617600 2.871500
13.636500 2.897500
13.655400 2.952700
13.674300 3.028000
13.693100 3.178700
13.712000 3.374100
13.730900 3.532300
13.749800 3.552200
13.768700 3.407300
13.787600 3.381600
13.806500 3.542400
13.825400 3.561400
13.844300 3.533600
13.863100 3.490000
13.882000 3.506200
13.900900 3.728400
13.919800 4.344700
13.938700 4.187400
13.957600 4.411000
13.976500 4.474300
13.995400 4.601700
14.014200 4.257400
14.033100 3.801000
14.052000 3.278100
14.070900 3.149400
14.089800 2.824700
14.108700 2.599200
14.127600 2.571300
14.146500 2.503200
14.165400 2.410600
14.184200 2.375100
14.203100 2.357100
14.222000 2.371600
14.240900 2.543200
14.259800 2.727200
14.278700 2.902700
14.297600 2.954200
14.316500 2.970600
14.335400 3.168100
14.354200 3.261100
14.373100 3.149400
14.392000 2.987300
14.410900 2.834700
14.429800 2.709200
14.448700 2.601700
14.467600 2.540300
14.486500 2.515200
14.505300 2.481900
14.524200 2.460000
14.543100 2.455800
14.562000 2.476800
14.580900 2.530800
14.599800 2.651100
14.618700 2.921100
14.637600 2.969800
14.656500 3.089500
14.675300 3.319400
14.694200 3.528700
14.713100 3.626700
14.732000 3.829300
14.750900 4.311700
14.769800 4.611400
14.788700 4.686600
14.807600 4.681500
14.826400 4.422700
14.845300 3.992200
14.864200 3.840200
14.883100 3.740400
14.902000 3.843500
14.920900 4.028300
14.939800 4.467700
14.958700 5.034500
14.977600 5.719300
14.996400 6.050200
15.015300 6.830800
15.034200 9.359500
15.053100 9.803900
15.072000 9.371000
15.090900 8.307700
15.109800 7.934600
15.128700 7.986900
15.147600 8.271200
15.166400 8.745600
15.185300 8.779600
15.204200 8.440500
15.223100 7.022100
15.242000 6.535000
15.260900 6.237300
15.279800 6.189100
15.298700 6.166600
15.317500 6.131300
15.336400 5.871700
15.355300 5.763900
15.374200 5.887800
15.393100 5.652300
15.412000 5.271000
15.430900 5.455800
15.449800 5.514300
15.468700 5.213600
15.487500 5.231000
15.506400 5.518800
15.525300 5.694400
15.544200 5.960400
15.563100 5.377500
15.582000 5.446200
15.600900 5.742800
15.619800 5.702100
15.638700 5.863900
15.657500 5.778700
15.676400 5.786200
15.695300 5.889300
15.714200 6.371900
15.733100 6.823600
15.752000 6.647800
15.770900 6.453700
15.789800 6.464400
15.808600 6.026500
15.827500 5.658700
15.846400 5.369400
15.865300 5.243900
15.884200 5.237700
15.903100 5.438000
15.922000 5.626800
15.940900 5.313400
15.959800 4.957400
15.978600 4.761000
15.997500 4.664600
16.016400 4.466000
16.035300 4.132700
16.054200 3.854600
16.073100 3.687900
16.092000 3.579100
16.110900 3.495600
16.129700 3.415000
16.148600 3.327200
16.167500 3.233200
16.186400 3.234500
16.205300 3.222500
16.224200 3.292900
16.243100 2.836000
16.262000 2.439600
16.280900 2.890200
16.299700 3.376800
16.318600 4.818600
16.337500 4.495900
16.356400 4.025400
16.375300 3.900900
16.394200 4.011800
16.413100 3.732700
16.432000 3.740900
16.450900 3.982100
16.469700 4.538900
16.488600 4.803900
16.507500 4.670900
16.526400 4.584000
16.545300 4.672100
16.564200 4.986800
16.583100 5.468200
16.602000 5.586000
16.620800 5.425000
16.639700 5.231000
16.658600 5.177300
16.677500 5.311600
16.696400 5.354800
16.715300 5.318800
16.734200 5.256800
16.753100 5.209200
16.772000 5.110900
16.790800 5.068600
16.809700 5.050400
16.828600 5.111700
16.847500 5.160800
16.866400 5.231800
16.885300 5.371900
16.904200 5.596700
16.923100 5.762900
16.942000 5.980300
16.960800 6.103400
16.979700 6.308600
16.998600 6.699000
17.017500 5.685700
17.036400 4.881300
17.055300 4.724700
17.074200 4.718500
17.093100 4.816400
17.111900 4.896900
17.130800 4.879800
17.149700 5.214200
17.168600 5.200200
17.187500 5.020100
17.206400 4.822900
17.225300 4.476900
17.244200 4.242900
17.263100 4.256900
17.281900 4.384500
17.300800 4.444200
17.319700 4.275100
17.338600 4.144800
17.357500 4.018300
17.376400 3.905400
17.395300 3.806600
17.414200 3.718500
17.433000 3.675200
17.451900 3.626700
17.470800 3.638500
17.489700 3.609900
17.508600 3.536000
17.527500 3.459200
17.546400 3.429900
17.565300 3.412300
17.584200 3.399300
17.603000 3.427000
17.621900 3.490200
17.640800 3.492600
17.659700 3.485500
17.678600 3.481400
17.697500 3.444500
17.716400 3.451100
17.735300 3.546200
17.754200 3.394200
17.773000 3.331600
17.791900 3.185900
17.810800 2.945000
17.829700 2.773400
17.848600 2.657700
17.867500 2.592600
17.886400 2.543000
17.905300 2.548600
17.924100 2.673600
17.943000 2.468400
17.961900 2.266900
17.980800 2.086500
17.999700 1.978400
18.018600 1.889500
18.037500 1.805900
18.056400 1.707300
18.075300 1.537800
18.094100 1.339100
18.113000 1.164400
18.131900 1.040100
18.150800 0.967900
18.169700 0.922000
18.188600 0.929800
18.207500 0.940800
18.226400 0.969400
18.245300 1.151100
18.264100 1.362600
18.283000 1.581000
18.301900 1.801800
18.320800 1.956500
18.339700 2.150800
18.358600 2.255200
18.377500 2.542600
18.396400 3.005000
18.415200 3.516900
18.434100 3.600400
18.453000 3.443500
18.471900 3.279400
18.490800 3.164900
18.509700 3.136400
18.528600 3.153000
18.547500 4.336300
18.566400 4.364900
18.585200 4.170000
18.604100 4.116800
18.623000 4.374800
18.641900 4.470700
18.660800 4.583200
18.679700 4.576900
18.698600 4.425700
18.717500 4.510100
18.736300 4.457200
18.755200 4.486900
18.774100 4.710300
18.793000 4.868900
18.811900 4.874400
18.830800 4.914000
18.849700 4.931200
18.868600 4.911500
18.887500 4.877200
18.906300 4.756600
18.925200 4.541300
18.944100 4.605400
18.963000 4.401600
18.981900 4.354900
19.000800 4.366000
19.019700 4.442500
19.038600 4.599700
19.057500 4.855400
19.076300 5.001900
19.095200 5.032600
19.114100 4.932200
19.133000 4.737000
19.151900 4.496900
19.170800 4.505900
19.189700 4.552900
19.208600 4.465800
19.227400 4.517400
19.246300 4.711600
19.265200 4.889400
19.284100 5.054700
19.303000 5.163300
19.321900 5.102800
19.340800 5.265800
19.359700 5.164700
19.378600 4.982300
19.397400 4.942500
19.416300 5.518100
19.435200 4.762300
19.454100 4.668300
19.473000 4.793000
19.491900 5.547500
19.510800 6.152600
19.529700 3.821100
19.548600 3.888800
19.567400 4.224000
19.586300 4.401100
19.605200 4.428400
19.624100 4.237500
19.643000 4.073600
19.661900 3.972300
19.680800 3.920300
19.699700 3.903500
19.718500 3.923100
19.737400 4.002100
19.756300 4.183000
19.775200 4.156000
19.794100 4.064400
19.813000 3.749900
19.831900 3.508400
19.850800 3.170300
19.869700 3.000600
19.888500 2.842300
19.907400 2.635000
19.926300 2.533500
19.945200 2.434000
19.964100 2.296400
19.983000 2.159100
20.001900 2.057000
20.020800 1.992700
20.039600 1.968900
20.058500 1.935000
20.077400 1.884500
20.096300 1.800600
20.115200 1.733900
20.134100 1.692900
20.153000 1.653100
20.171900 1.568500
20.190800 1.471900
20.209600 1.397800
20.228500 1.338000
20.247400 1.303100
20.266300 1.289800
20.285200 1.164600
20.304100 1.049000
20.323000 0.954600
20.341900 0.885700
20.360800 0.842300
20.379600 0.804100
20.398500 0.771000
20.417400 0.741900
20.436300 0.716800
20.455200 0.696300
20.474100 0.678100
20.493000 0.656600
20.511900 0.630300
20.530700 0.604800
20.549600 0.580200
20.568500 0.554400
20.587400 0.529600
20.606300 0.501100
20.625200 0.474000
20.644100 0.450300
20.663000 0.424800
20.681900 0.397300
20.700700 0.367200
20.719600 0.336200
20.738500 0.304900
20.757400 0.276200
20.776300 0.255300
20.795200 0.237900
20.814100 0.223100
20.833000 0.212800
20.851900 0.207600
20.870700 0.204200
20.889600 0.202200
20.908500 0.200700
20.927400 0.199700
20.946300 0.198600
20.965200 0.197400
20.984100 0.196000
21.003000 0.193900
21.021800 0.190900
21.040700 0.186300
21.059600 0.180200
21.078500 0.172900
21.097400 0.163900
21.116300 0.153500
21.135200 0.143300
21.154100 0.133000
21.173000 0.122800
21.191800 0.116200
21.210700 0.110300
21.229600 0.105200
21.248500 0.101000
21.267400 0.097500
21.286300 0.094600
21.305200 0.092200
21.324100 0.090100
21.342900 0.088100
21.361800 0.086100
21.380700 0.084100
21.399600 0.082000
21.418500 0.079900
21.437400 0.077800
21.456300 0.075600
21.475200 0.073300
21.494100 0.070900
21.512900 0.068400
21.531800 0.065800
21.550700 0.063200
21.569600 0.060600
21.588500 0.058000
21.607400 0.055400
21.626300 0.052800
21.645200 0.049900
21.664100 0.046900
21.682900 0.043400
21.701800 0.039400
21.720700 0.034900
21.739600 0.029900
21.758500 0.025300
21.777400 0.022200
21.796300 0.019300
21.815200 0.016700
21.834000 0.014200
21.852900 0.012000
21.871800 0.009900
21.890700 0.008000
21.909600 0.006400
21.928500 0.004900
21.947400 0.003600
21.966300 0.002500
21.985200 0.001600
22.004000 0.000900
22.022900 0.000400
22.041800 0.000100
22.060700 0.000000
22.079600 0.000000
22.098500 0.000000
22.117400 0.000000
22.136300 0.000000
22.155200 0.000000
22.174000 0.000000
22.192900 0.000000
22.211800 0.000000
22.230700 0.000000
22.249600 0.000000
22.268500 0.000000
22.287400 0.000000
22.306300 0.000000
22.325100 0.000000
22.344000 0.000000
22.362900 0.000000
22.381800 0.000000
22.400700 0.000000
22.419600 0.000000
22.438500 0.000000
22.457400 0.000000
22.476300 0.000000
22.495100 0.000000
22.514000 0.000000
22.532900 0.000000
22.551800 0.000000
22.570700 0.000000
22.589600 0.000000
22.608500 0.000000
22.627400 0.000000
22.646200 0.000000
22.665100 0.000000
22.684000 0.000000
22.702900 0.000000
22.721800 0.000000
22.740700 0.000000
22.759600 0.000000
22.778500 0.000000
22.797400 0.000000
22.816200 0.000000
22.835100 0.000000
22.854000 0.000000
22.872900 0.000000
22.891800 0.000000
22.910700 0.000000
22.929600 0.000000
22.948500 0.000000
22.967400 0.000000
22.986200 0.000000
23.005100 0.000000
23.024000 0.000000
23.042900 0.000000
23.061800 0.000000
23.080700 0.000000
23.099600 0.000000
23.118500 0.000000
23.137300 0.000000
23.156200 0.000000
23.175100 0.000000
23.194000 0.000000
23.212900 0.000000
23.231800 0.000000
23.250700 0.000000
23.269600 0.000000
23.288500 0.000000
23.307300 0.000000
23.326200 0.000000
23.345100 0.000000
23.364000 0.000000
23.382900 0.000000
23.401800 0.000000
23.420700 0.000000
23.439600 0.000000
23.458500 0.000000
23.477300 0.000000
23.496200 0.000000
23.515100 0.000000
23.534000 0.000000
23.552900 0.000000
23.571800 0.000000
23.590700 0.000000
23.609600 0.000000
23.628400 0.000000
23.647300 0.000000
23.666200 0.000000
23.685100 0.000000
23.704000 0.000000
23.722900 0.000000
23.741800 0.000000
23.760700 0.000000
23.779600 0.000000
e
