set title 'mp-1063755 - Density of States'
set xlabel 'Energy (eV)'
set ylabel 'DOS (states/eV)'
set grid
set xrange [-10:10]
set yrange [0:14.459]
set xzeroaxis lt -1
set terminal png size 800,600
set output 'mp-1063755_dos_gnuplot.png'
plot '-' using 1:2 with lines title 'DOS'
-16.469900 0.000000
-16.458000 0.000000
-16.446200 0.000000
-16.434400 0.000000
-16.422600 0.000000
-16.410800 0.000000
-16.398900 0.000000
-16.387100 0.000000
-16.375300 0.000000
-16.363500 0.000000
-16.351700 0.000000
-16.339900 0.000000
-16.328000 0.000000
-16.316200 0.000000
-16.304400 0.000000
-16.292600 0.000000
-16.280800 0.000000
-16.268900 0.000000
-16.257100 0.000000
-16.245300 0.000000
-16.233500 0.000000
-16.221700 0.000000
-16.209800 0.000000
-16.198000 0.000000
-16.186200 0.000000
-16.174400 0.000000
-16.162600 0.000000
-16.150700 0.000000
-16.138900 0.000000
-16.127100 0.000000
-16.115300 0.000000
-16.103500 0.000000
-16.091600 0.000000
-16.079800 0.000000
-16.068000 0.000000
-16.056200 0.000000
-16.044400 0.000000
-16.032600 0.000000
-16.020700 0.000000
-16.008900 0.000000
-15.997100 0.000000
-15.985300 0.000000
-15.973500 0.000000
-15.961600 0.000000
-15.949800 0.000000
-15.938000 0.000000
-15.926200 0.000000
-15.914400 0.000000
-15.902500 0.000000
-15.890700 0.000000
-15.878900 0.000000
-15.867100 0.000000
-15.855300 0.000000
-15.843400 0.000000
-15.831600 0.000000
-15.819800 0.000000
-15.808000 0.000000
-15.796200 0.000000
-15.784300 0.000000
-15.772500 0.000000
-15.760700 0.000000
-15.748900 0.000000
-15.737100 0.000000
-15.725200 0.000000
-15.713400 0.000000
-15.701600 0.000000
-15.689800 0.000000
-15.678000 0.000000
-15.666200 0.000000
-15.654300 0.000000
-15.642500 0.000000
-15.630700 0.000000
-15.618900 0.000000
-15.607100 0.000000
-15.595200 0.000000
-15.583400 0.000000
-15.571600 0.000000
-15.559800 0.000000
-15.548000 0.000000
-15.536100 0.000000
-15.524300 0.000000
-15.512500 0.000000
-15.500700 0.000000
-15.488900 0.000000
-15.477000 0.000000
-15.465200 0.000000
-15.453400 0.000000
-15.441600 0.000000
-15.429800 0.000000
-15.417900 0.000000
-15.406100 0.000000
-15.394300 0.044600
-15.382500 0.535600
-15.370700 1.026600
-15.358900 1.116800
-15.347000 0.956000
-15.335200 0.826700
-15.323400 0.882800
-15.311600 0.938900
-15.299800 0.995000
-15.287900 1.051100
-15.276100 1.076800
-15.264300 1.001900
-15.252500 0.927100
-15.240700 0.926700
-15.228800 0.939200
-15.217000 0.951600
-15.205200 0.964100
-15.193400 0.976500
-15.181600 0.989000
-15.169700 1.001400
-15.157900 1.020200
-15.146100 1.042900
-15.134300 1.056500
-15.122500 1.023400
-15.110600 0.990300
-15.098800 0.987000
-15.087000 0.989700
-15.075200 0.992300
-15.063400 0.995000
-15.051600 0.997600
-15.039700 1.000300
-15.027900 1.003100
-15.016100 1.017800
-15.004300 1.028800
-14.992500 1.039900
-14.980600 1.050900
-14.968800 1.061900
-14.957000 1.072900
-14.945200 1.083900
-14.933400 1.070800
-14.921500 1.052200
-14.909700 1.045200
-14.897900 1.045700
-14.886100 1.048100
-14.874300 1.052700
-14.862400 1.057300
-14.850600 1.061800
-14.838800 1.067000
-14.827000 1.073700
-14.815200 1.080400
-14.803300 1.087200
-14.791500 1.093900
-14.779700 1.100600
-14.767900 1.107300
-14.756100 1.114100
-14.744200 1.120800
-14.732400 1.127500
-14.720600 1.134300
-14.708800 1.149700
-14.697000 1.146600
-14.685200 1.142400
-14.673300 1.146400
-14.661500 1.151300
-14.649700 1.156200
-14.637900 1.161100
-14.626100 1.166000
-14.614200 1.171100
-14.602400 1.177100
-14.590600 1.183100
-14.578800 1.189100
-14.567000 1.195100
-14.555100 1.201100
-14.543300 1.207800
-14.531500 1.219100
-14.519700 1.230400
-14.507900 1.241700
-14.496000 1.253200
-14.484200 1.262300
-14.472400 1.271300
-14.460600 1.280400
-14.448800 1.289400
-14.436900 1.307200
-14.425100 1.325100
-14.413300 1.337400
-14.401500 1.349700
-14.389700 1.362000
-14.377900 1.493900
-14.366000 2.178300
-14.354200 2.812500
-14.342400 2.625200
-14.330600 2.426600
-14.318800 2.511800
-14.306900 2.608700
-14.295100 2.705600
-14.283300 2.802600
-14.271500 2.748100
-14.259700 2.671400
-14.247800 2.701400
-14.236000 2.738600
-14.224200 2.775800
-14.212400 2.813000
-14.200600 4.743200
-14.188700 4.771600
-14.176900 3.293400
-14.165100 3.281100
-14.153300 3.227700
-14.141500 3.187900
-14.129600 2.897700
-14.117800 2.885800
-14.106000 2.873900
-14.094200 2.862000
-14.082400 2.850300
-14.070600 2.866100
-14.058700 2.859800
-14.046900 2.773500
-14.035100 2.775300
-14.023300 2.797900
-14.011500 2.830100
-13.999600 2.874600
-13.987800 2.902600
-13.976000 2.943600
-13.964200 2.992100
-13.952400 3.009000
-13.940500 3.029200
-13.928700 3.049400
-13.916900 6.524100
-13.905100 5.371100
-13.893300 6.323300
-13.881400 6.997200
-13.869600 7.274100
-13.857800 7.861900
-13.846000 6.600500
-13.834200 5.990200
-13.822300 5.507000
-13.810500 5.049600
-13.798700 4.836700
-13.786900 4.736100
-13.775100 4.725400
-13.763200 4.568600
-13.751400 4.687000
-13.739600 4.563400
-13.727800 4.439800
-13.716000 4.316200
-13.704200 4.542900
-13.692300 5.094500
-13.680500 4.597700
-13.668700 7.862200
-13.656900 8.134100
-13.645100 2.963000
-13.633200 0.000000
-13.621400 0.000000
-13.609600 0.000000
-13.597800 0.000000
-13.586000 0.000000
-13.574100 0.000000
-13.562300 0.000000
-13.550500 0.000000
-13.538700 0.000000
-13.526900 0.000000
-13.515000 0.000000
-13.503200 0.000000
-13.491400 0.000000
-13.479600 0.000000
-13.467800 0.000000
-13.455900 0.000000
-13.444100 0.000000
-13.432300 0.000000
-13.420500 0.000000
-13.408700 0.000000
-13.396900 0.000000
-13.385000 0.000000
-13.373200 0.000000
-13.361400 0.000000
-13.349600 0.000000
-13.337800 0.000000
-13.325900 0.000000
-13.314100 0.000000
-13.302300 0.000000
-13.290500 0.000000
-13.278700 0.000000
-13.266800 0.000000
-13.255000 0.000000
-13.243200 0.000000
-13.231400 0.000000
-13.219600 0.000000
-13.207700 0.000000
-13.195900 0.000000
-13.184100 0.000000
-13.172300 0.000000
-13.160500 0.000000
-13.148600 0.000000
-13.136800 0.000000
-13.125000 0.000000
-13.113200 0.000000
-13.101400 0.000000
-13.089500 0.000000
-13.077700 0.000000
-13.065900 0.000000
-13.054100 0.000000
-13.042300 0.000000
-13.030500 0.000000
-13.018600 0.000000
-13.006800 0.000000
-12.995000 0.000000
-12.983200 0.000000
-12.971400 0.000000
-12.959500 0.000000
-12.947700 0.000000
-12.935900 0.000000
-12.924100 0.000000
-12.912300 0.000000
-12.900400 0.000000
-12.888600 0.000000
-12.876800 0.000000
-12.865000 0.000000
-12.853200 0.000000
-12.841300 0.000000
-12.829500 0.000000
-12.817700 0.000000
-12.805900 0.000000
-12.794100 0.000000
-12.782200 0.000000
-12.770400 0.000000
-12.758600 0.000000
-12.746800 0.000000
-12.735000 0.000000
-12.723200 0.000000
-12.711300 0.000000
-12.699500 0.000000
-12.687700 0.000000
-12.675900 0.000000
-12.664100 0.000000
-12.652200 0.000000
-12.640400 0.000000
-12.628600 0.000000
-12.616800 0.000000
-12.605000 0.000000
-12.593100 0.000000
-12.581300 0.000000
-12.569500 0.000000
-12.557700 0.000000
-12.545900 0.000000
-12.534000 0.000000
-12.522200 0.000000
-12.510400 0.000000
-12.498600 0.000000
-12.486800 0.000000
-12.474900 0.000000
-12.463100 0.000000
-12.451300 0.000000
-12.439500 0.000000
-12.427700 0.000000
-12.415900 0.000000
-12.404000 0.000000
-12.392200 0.000000
-12.380400 0.000000
-12.368600 0.000000
-12.356800 0.000000
-12.344900 0.000000
-12.333100 0.000000
-12.321300 0.000000
-12.309500 0.000000
-12.297700 0.000000
-12.285800 0.000000
-12.274000 0.000000
-12.262200 0.000000
-12.250400 0.000000
-12.238600 0.000000
-12.226700 0.000000
-12.214900 0.000000
-12.203100 0.000000
-12.191300 0.000000
-12.179500 0.000000
-12.167600 0.000000
-12.155800 0.000000
-12.144000 0.000000
-12.132200 0.000000
-12.120400 0.000000
-12.108500 0.000000
-12.096700 0.000000
-12.084900 0.000000
-12.073100 0.000000
-12.061300 0.000000
-12.049500 0.000000
-12.037600 0.000000
-12.025800 0.000000
-12.014000 0.652000
-12.002200 5.038000
-11.990400 4.243500
-11.978500 2.222500
-11.966700 2.305900
-11.954900 2.389200
-11.943100 2.472500
-11.931300 2.471700
-11.919400 2.378400
-11.907600 2.194300
-11.895800 2.276300
-11.884000 2.358200
-11.872200 2.440100
-11.860300 2.522100
-11.848500 2.605800
-11.836700 2.610200
-11.824900 2.639500
-11.813100 2.683600
-11.801200 2.638600
-11.789400 2.629800
-11.777600 2.630300
-11.765800 2.777400
-11.754000 3.085300
-11.742200 3.393100
-11.730300 4.207400
-11.718500 5.831700
-11.706700 5.681400
-11.694900 4.604700
-11.683100 4.731500
-11.671200 4.113900
-11.659400 4.031300
-11.647600 3.913800
-11.635800 3.494400
-11.624000 3.419700
-11.612100 3.369700
-11.600300 3.250600
-11.588500 3.233700
-11.576700 3.205100
-11.564900 3.174500
-11.553000 3.072900
-11.541200 3.058500
-11.529400 3.044200
-11.517600 3.040400
-11.505800 3.026100
-11.493900 2.998300
-11.482100 2.972900
-11.470300 2.972100
-11.458500 2.986000
-11.446700 3.010000
-11.434900 3.032800
-11.423000 3.055600
-11.411200 3.078300
-11.399400 3.069600
-11.387600 3.070900
-11.375800 3.194800
-11.363900 3.178500
-11.352100 3.294700
-11.340300 3.334500
-11.328500 3.412000
-11.316700 3.494100
-11.304800 3.576100
-11.293000 5.291400
-11.281200 4.478700
-11.269400 4.625800
-11.257600 4.771400
-11.245700 5.157600
-11.233900 3.190100
-11.222100 2.433400
-11.210300 2.358000
-11.198500 2.282600
-11.186600 2.207200
-11.174800 2.131900
-11.163000 2.056500
-11.151200 1.981100
-11.139400 1.947800
-11.127500 1.928600
-11.115700 1.914100
-11.103900 1.900200
-11.092100 1.886300
-11.080300 1.872500
-11.068500 1.713400
-11.056600 1.706300
-11.044800 1.699300
-11.033000 1.686800
-11.021200 1.669200
-11.009400 1.608200
-10.997500 1.557600
-10.985700 1.553400
-10.973900 1.550200
-10.962100 1.547100
-10.950300 1.540100
-10.938400 1.505300
-10.926600 1.470400
-10.914800 1.435500
-10.903000 1.400600
-10.891200 1.378600
-10.879300 1.356800
-10.867500 1.335400
-10.855700 1.314000
-10.843900 1.292600
-10.832100 1.271200
-10.820200 1.253700
-10.808400 1.276500
-10.796600 1.301400
-10.784800 1.326300
-10.773000 1.351200
-10.761200 1.323400
-10.749300 1.247400
-10.737500 1.154800
-10.725700 1.062200
-10.713900 0.969600
-10.702100 0.877000
-10.690200 0.784300
-10.678400 0.767700
-10.666600 0.761300
-10.654800 0.755500
-10.643000 0.749700
-10.631100 0.744000
-10.619300 0.741200
-10.607500 0.733000
-10.595700 0.721300
-10.583900 0.709700
-10.572000 0.698000
-10.560200 0.686400
-10.548400 0.674800
-10.536600 0.665800
-10.524800 0.661000
-10.512900 0.656300
-10.501100 0.651700
-10.489300 0.647100
-10.477500 0.642400
-10.465700 0.637800
-10.453800 0.633200
-10.442000 0.628600
-10.430200 0.623900
-10.418400 0.619300
-10.406600 0.614700
-10.394800 0.610100
-10.382900 0.605400
-10.371100 0.569300
-10.359300 0.568300
-10.347500 0.568200
-10.335700 0.568000
-10.323800 0.567900
-10.312000 0.567700
-10.300200 0.567600
-10.288400 0.567400
-10.276600 0.567200
-10.264700 0.568900
-10.252900 0.575600
-10.241100 0.582300
-10.229300 0.577300
-10.217500 0.567800
-10.205600 0.558300
-10.193800 0.548800
-10.182000 0.539300
-10.170200 0.529900
-10.158400 0.520400
-10.146500 0.510900
-10.134700 0.501400
-10.122900 0.497000
-10.111100 0.493800
-10.099300 0.490700
-10.087500 0.487600
-10.075600 0.484500
-10.063800 0.481400
-10.052000 0.478200
-10.040200 0.475100
-10.028400 0.472000
-10.016500 0.468900
-10.004700 0.465800
-9.992900 0.462700
-9.981100 0.436200
-9.969300 0.449000
-9.957400 0.466000
-9.945600 0.483100
-9.933800 0.500100
-9.922000 0.502600
-9.910200 0.489800
-9.898300 0.477000
-9.886500 0.464200
-9.874700 0.451400
-9.862900 0.438600
-9.851100 0.425900
-9.839200 0.413100
-9.827400 0.400300
-9.815600 0.387500
-9.803800 0.374700
-9.792000 0.361900
-9.780200 0.381500
-9.768300 0.411500
-9.756500 0.441600
-9.744700 0.471600
-9.732900 0.501700
-9.721100 0.495300
-9.709200 0.410800
-9.697400 0.326300
-9.685600 0.241800
-9.673800 0.157400
-9.662000 0.072900
-9.650100 0.000000
-9.638300 0.000000
-9.626500 0.000000
-9.614700 0.000000
-9.602900 0.000000
-9.591000 0.000000
-9.579200 0.000000
-9.567400 0.000000
-9.555600 0.000000
-9.543800 0.000000
-9.531900 0.000000
-9.520100 0.000000
-9.508300 0.000000
-9.496500 0.000000
-9.484700 0.000000
-9.472800 0.000000
-9.461000 0.000000
-9.449200 0.000000
-9.437400 0.000000
-9.425600 0.000000
-9.413800 0.000000
-9.401900 0.000000
-9.390100 0.000000
-9.378300 0.000000
-9.366500 0.000000
-9.354700 0.000000
-9.342800 0.000000
-9.331000 0.000000
-9.319200 0.000000
-9.307400 0.000000
-9.295600 0.000000
-9.283700 0.000000
-9.271900 0.000000
-9.260100 0.000000
-9.248300 0.000000
-9.236500 0.000000
-9.224600 0.000000
-9.212800 0.000000
-9.201000 0.000000
-9.189200 0.000000
-9.177400 0.000000
-9.165500 0.000000
-9.153700 0.000000
-9.141900 0.000000
-9.130100 0.000000
-9.118300 0.000000
-9.106500 0.000000
-9.094600 0.000000
-9.082800 0.000000
-9.071000 0.000000
-9.059200 0.000000
-9.047400 0.000000
-9.035500 0.000000
-9.023700 0.000000
-9.011900 0.000000
-9.000100 0.000000
-8.988300 0.000000
-8.976400 0.000000
-8.964600 0.000000
-8.952800 0.000000
-8.941000 0.000000
-8.929200 0.000000
-8.917300 0.000000
-8.905500 0.000000
-8.893700 0.000000
-8.881900 0.000000
-8.870100 0.000000
-8.858200 0.000000
-8.846400 0.000000
-8.834600 0.000000
-8.822800 0.000000
-8.811000 0.000000
-8.799200 0.000000
-8.787300 0.000000
-8.775500 0.000000
-8.763700 0.000000
-8.751900 0.000000
-8.740100 0.000000
-8.728200 0.000000
-8.716400 0.000000
-8.704600 0.000000
-8.692800 0.000000
-8.681000 0.000000
-8.669100 0.000000
-8.657300 0.000000
-8.645500 0.000000
-8.633700 0.000000
-8.621900 0.000000
-8.610000 0.000000
-8.598200 0.000000
-8.586400 0.000000
-8.574600 0.000000
-8.562800 0.000000
-8.550900 0.000000
-8.539100 0.000000
-8.527300 0.000000
-8.515500 0.000000
-8.503700 0.000000
-8.491800 0.000000
-8.480000 0.000000
-8.468200 0.000000
-8.456400 0.000000
-8.444600 0.000000
-8.432800 0.000000
-8.420900 0.000000
-8.409100 0.000000
-8.397300 0.000000
-8.385500 0.000000
-8.373700 0.000000
-8.361800 0.000000
-8.350000 0.000000
-8.338200 0.000000
-8.326400 0.000000
-8.314600 0.000000
-8.302700 0.000000
-8.290900 0.000000
-8.279100 0.000000
-8.267300 0.000000
-8.255500 0.000000
-8.243600 0.000000
-8.231800 0.000000
-8.220000 0.000000
-8.208200 0.000000
-8.196400 0.000000
-8.184500 0.000000
-8.172700 0.000000
-8.160900 0.000000
-8.149100 0.000000
-8.137300 0.000000
-8.125500 0.000000
-8.113600 0.000000
-8.101800 0.000000
-8.090000 0.000000
-8.078200 0.000000
-8.066400 0.000000
-8.054500 0.000000
-8.042700 0.000000
-8.030900 0.000000
-8.019100 0.000000
-8.007300 0.000000
-7.995400 0.000000
-7.983600 0.000000
-7.971800 0.000000
-7.960000 0.000000
-7.948200 0.000000
-7.936300 0.000000
-7.924500 0.000000
-7.912700 0.000000
-7.900900 0.000000
-7.889100 0.000000
-7.877200 0.000000
-7.865400 0.000000
-7.853600 0.000000
-7.841800 0.000000
-7.830000 0.000000
-7.818200 0.000000
-7.806300 0.000000
-7.794500 0.000000
-7.782700 0.000000
-7.770900 0.000000
-7.759100 0.000000
-7.747200 0.000000
-7.735400 0.000000
-7.723600 0.000000
-7.711800 0.000000
-7.700000 0.000000
-7.688100 0.000000
-7.676300 0.000000
-7.664500 0.000000
-7.652700 0.000000
-7.640900 0.000000
-7.629000 0.000000
-7.617200 0.000000
-7.605400 0.000000
-7.593600 0.000000
-7.581800 0.000000
-7.569900 0.000000
-7.558100 0.000000
-7.546300 0.000000
-7.534500 0.000000
-7.522700 0.000000
-7.510800 0.000000
-7.499000 0.000000
-7.487200 0.000000
-7.475400 0.000000
-7.463600 0.000000
-7.451800 0.000000
-7.439900 0.000000
-7.428100 0.000000
-7.416300 0.000000
-7.404500 0.000000
-7.392700 0.000000
-7.380800 0.000000
-7.369000 0.000000
-7.357200 0.000000
-7.345400 0.000000
-7.333600 0.000000
-7.321700 0.000000
-7.309900 0.000000
-7.298100 0.000000
-7.286300 0.000000
-7.274500 0.000000
-7.262600 0.000000
-7.250800 0.000000
-7.239000 0.000000
-7.227200 0.000000
-7.215400 0.000000
-7.203500 0.000000
-7.191700 0.000000
-7.179900 0.000000
-7.168100 0.000000
-7.156300 0.000000
-7.144500 0.000000
-7.132600 0.000000
-7.120800 0.000000
-7.109000 0.000000
-7.097200 0.000000
-7.085400 0.000000
-7.073500 0.000000
-7.061700 0.000000
-7.049900 0.000000
-7.038100 0.000000
-7.026300 0.000000
-7.014400 0.000000
-7.002600 0.000000
-6.990800 0.000000
-6.979000 0.000000
-6.967200 0.000000
-6.955300 0.000000
-6.943500 0.000000
-6.931700 0.000000
-6.919900 0.000000
-6.908100 0.000000
-6.896200 0.000000
-6.884400 0.000000
-6.872600 0.000000
-6.860800 0.000000
-6.849000 0.000000
-6.837100 0.000000
-6.825300 0.000000
-6.813500 0.000000
-6.801700 0.000000
-6.789900 0.000000
-6.778100 0.000000
-6.766200 0.000000
-6.754400 0.000000
-6.742600 0.000000
-6.730800 0.000000
-6.719000 0.000000
-6.707100 0.000000
-6.695300 0.000000
-6.683500 0.000000
-6.671700 0.000000
-6.659900 0.000000
-6.648000 0.000000
-6.636200 0.000000
-6.624400 0.000000
-6.612600 0.328500
-6.600800 0.372500
-6.588900 0.416600
-6.577100 0.460600
-6.565300 0.504600
-6.553500 0.548600
-6.541700 0.592700
-6.529800 3.242400
-6.518000 0.827100
-6.506200 0.877100
-6.494400 0.595000
-6.482600 0.615200
-6.470800 0.635400
-6.458900 0.655600
-6.447100 0.675900
-6.435300 0.696100
-6.423500 0.716300
-6.411700 0.736600
-6.399800 0.756800
-6.388000 0.777000
-6.376200 0.797200
-6.364400 0.817500
-6.352600 0.837700
-6.340700 0.857900
-6.328900 0.878100
-6.317100 0.898400
-6.305300 1.065500
-6.293500 1.018400
-6.281600 0.971400
-6.269800 0.852500
-6.258000 0.801300
-6.246200 0.793300
-6.234400 0.792500
-6.222500 0.791700
-6.210700 0.786000
-6.198900 0.759100
-6.187100 0.769600
-6.175300 0.780000
-6.163500 0.790500
-6.151600 0.800900
-6.139800 0.811400
-6.128000 0.821900
-6.116200 0.832300
-6.104400 0.842800
-6.092500 0.853200
-6.080700 0.863700
-6.068900 0.874200
-6.057100 0.884600
-6.045300 0.895100
-6.033400 0.905600
-6.021600 1.008500
-6.009800 0.987300
-5.998000 0.965900
-5.986200 0.944600
-5.974300 0.923200
-5.962500 0.901800
-5.950700 0.892600
-5.938900 0.884800
-5.927100 0.877700
-5.915200 0.871800
-5.903400 0.877000
-5.891600 0.882100
-5.879800 0.887200
-5.868000 0.887300
-5.856100 0.878900
-5.844300 0.885500
-5.832500 0.892100
-5.820700 0.898700
-5.808900 0.905300
-5.797100 0.911900
-5.785200 0.918600
-5.773400 0.925200
-5.761600 0.930000
-5.749800 0.922600
-5.738000 0.931200
-5.726100 0.939700
-5.714300 0.948300
-5.702500 0.956800
-5.690700 0.965400
-5.678900 0.973900
-5.667000 0.982500
-5.655200 0.991000
-5.643400 1.049900
-5.631600 1.014600
-5.619800 0.997700
-5.607900 6.332800
-5.596100 1.340800
-5.584300 1.382600
-5.572500 1.424300
-5.560700 1.466100
-5.548800 1.507800
-5.537000 1.549600
-5.525200 1.591300
-5.513400 1.783700
-5.501600 1.844100
-5.489800 2.329500
-5.477900 1.597900
-5.466100 1.622300
-5.454300 1.649500
-5.442500 1.730000
-5.430700 1.758600
-5.418800 1.787200
-5.407000 1.815700
-5.395200 13.144500
-5.383400 4.991200
-5.371600 4.258000
-5.359700 3.709300
-5.347900 3.795200
-5.336100 3.876600
-5.324300 3.933700
-5.312500 3.832500
-5.300600 3.761900
-5.288800 3.712200
-5.277000 3.717500
-5.265200 3.704400
-5.253400 3.655200
-5.241500 3.062400
-5.229700 2.893600
-5.217900 2.812700
-5.206100 2.735300
-5.194300 3.078300
-5.182500 3.058900
-5.170600 3.013900
-5.158800 2.974400
-5.147000 3.035500
-5.135200 3.123200
-5.123400 3.150800
-5.111500 3.143200
-5.099700 3.144800
-5.087900 3.144900
-5.076100 3.154800
-5.064300 3.174600
-5.052400 3.222800
-5.040600 3.271000
-5.028800 3.442100
-5.017000 3.520800
-5.005200 3.599500
-4.993300 3.678200
-4.981500 3.756900
-4.969700 3.831500
-4.957900 3.871500
-4.946100 3.914800
-4.934200 4.000500
-4.922400 3.687300
-4.910600 3.654300
-4.898800 3.623600
-4.887000 3.593900
-4.875100 3.763100
-4.863300 3.599800
-4.851500 3.421500
-4.839700 3.258800
-4.827900 3.114700
-4.816100 3.074500
-4.804200 3.066900
-4.792400 3.085000
-4.780600 3.102700
-4.768800 3.121700
-4.757000 3.147300
-4.745100 3.190000
-4.733300 3.294300
-4.721500 3.382000
-4.709700 3.478900
-4.697900 3.679900
-4.686000 3.899100
-4.674200 4.142800
-4.662400 3.788200
-4.650600 3.533700
-4.638800 3.521100
-4.626900 3.566800
-4.615100 3.561500
-4.603300 3.519000
-4.591500 3.476400
-4.579700 3.433900
-4.567800 3.391400
-4.556000 3.348900
-4.544200 3.328100
-4.532400 3.331900
-4.520600 3.351200
-4.508800 3.449200
-4.496900 3.488700
-4.485100 3.469000
-4.473300 3.354800
-4.461500 3.043100
-4.449700 3.047400
-4.437800 3.027400
-4.426000 3.017500
-4.414200 3.015300
-4.402400 3.013500
-4.390600 3.011700
-4.378700 3.009800
-4.366900 3.010000
-4.355100 3.789400
-4.343300 2.611300
-4.331500 2.643500
-4.319600 2.671400
-4.307800 2.694200
-4.296000 2.716900
-4.284200 2.629400
-4.272400 2.809200
-4.260500 3.201000
-4.248700 3.448200
-4.236900 3.069600
-4.225100 3.002100
-4.213300 2.934600
-4.201400 2.868500
-4.189600 2.829600
-4.177800 2.748600
-4.166000 3.002900
-4.154200 3.411800
-4.142400 2.430700
-4.130500 2.413900
-4.118700 2.396800
-4.106900 2.380400
-4.095100 2.365300
-4.083300 2.350300
-4.071400 2.335200
-4.059600 2.368900
-4.047800 2.786700
-4.036000 2.915800
-4.024200 3.041500
-4.012300 3.192500
-4.000500 3.350700
-3.988700 3.494200
-3.976900 3.855100
-3.965100 3.799300
-3.953200 3.734400
-3.941400 4.740000
-3.929600 5.857500
-3.917800 5.836800
-3.906000 5.189000
-3.894100 5.178100
-3.882300 5.000800
-3.870500 4.856900
-3.858700 4.867900
-3.846900 4.877900
-3.835100 4.887900
-3.823200 4.819700
-3.811400 4.771200
-3.799600 4.696800
-3.787800 4.478300
-3.776000 4.507900
-3.764100 4.539600
-3.752300 3.953800
-3.740500 3.872300
-3.728700 3.787300
-3.716900 3.752200
-3.705000 3.649300
-3.693200 3.560200
-3.681400 3.471100
-3.669600 3.383200
-3.657800 3.296400
-3.645900 3.222700
-3.634100 4.013800
-3.622300 2.997500
-3.610500 2.705500
-3.598700 2.694500
-3.586800 2.684400
-3.575000 2.677900
-3.563200 3.713500
-3.551400 5.942900
-3.539600 8.078200
-3.527800 5.405400
-3.515900 4.009800
-3.504100 4.054600
-3.492300 4.072200
-3.480500 4.089800
-3.468700 4.047900
-3.456800 4.028700
-3.445000 3.504800
-3.433200 3.298100
-3.421400 3.298000
-3.409600 3.308800
-3.397700 3.320900
-3.385900 3.333000
-3.374100 3.345200
-3.362300 3.357300
-3.350500 3.369400
-3.338600 3.486400
-3.326800 3.737600
-3.315000 3.719300
-3.303200 3.755900
-3.291400 3.795600
-3.279500 3.812200
-3.267700 3.822800
-3.255900 3.842200
-3.244100 3.889800
-3.232300 3.938800
-3.220400 3.984700
-3.208600 4.121800
-3.196800 4.335000
-3.185000 4.346800
-3.173200 4.229100
-3.161400 3.665100
-3.149500 3.354900
-3.137700 3.208200
-3.125900 3.074300
-3.114100 2.935700
-3.102300 2.807800
-3.090400 2.719300
-3.078600 2.704700
-3.066800 2.690100
-3.055000 2.753300
-3.043200 2.936900
-3.031300 3.082600
-3.019500 3.125900
-3.007700 3.041000
-2.995900 2.891000
-2.984100 2.886900
-2.972200 2.882800
-2.960400 2.900000
-2.948600 3.469800
-2.936800 3.292600
-2.925000 3.155200
-2.913100 3.021900
-2.901300 2.893200
-2.889500 2.811100
-2.877700 2.871000
-2.865900 2.930900
-2.854100 3.007400
-2.842200 3.141600
-2.830400 3.194200
-2.818600 3.270300
-2.806800 3.346400
-2.795000 3.500300
-2.783100 4.124100
-2.771300 3.876800
-2.759500 3.507700
-2.747700 3.079700
-2.735900 2.651600
-2.724000 2.482800
-2.712200 2.440600
-2.700400 2.429700
-2.688600 2.428700
-2.676800 2.427000
-2.664900 2.116700
-2.653100 2.086900
-2.641300 2.088000
-2.629500 2.286900
-2.617700 3.074500
-2.605800 3.903600
-2.594000 5.495900
-2.582200 4.765200
-2.570400 4.193600
-2.558600 3.276100
-2.546800 3.422600
-2.534900 3.410300
-2.523100 3.397900
-2.511300 3.216300
-2.499500 3.260400
-2.487700 3.315300
-2.475800 2.962400
-2.464000 3.503700
-2.452200 4.377600
-2.440400 4.532300
-2.428600 4.082400
-2.416700 3.446400
-2.404900 2.342800
-2.393100 1.884300
-2.381300 1.660000
-2.369500 1.544200
-2.357600 1.428300
-2.345800 1.312500
-2.334000 1.196700
-2.322200 1.080900
-2.310400 0.977300
-2.298500 0.917100
-2.286700 0.858900
-2.274900 0.800600
-2.263100 0.742400
-2.251300 0.690200
-2.239400 0.681600
-2.227600 0.673000
-2.215800 0.664500
-2.204000 0.655900
-2.192200 0.720900
-2.180400 0.815700
-2.168500 0.910400
-2.156700 0.883200
-2.144900 0.848900
-2.133100 0.814500
-2.121300 0.780200
-2.109400 0.745900
-2.097600 0.711600
-2.085800 0.960100
-2.074000 1.358200
-2.062200 1.147200
-2.050300 0.004600
-2.038500 0.000000
-2.026700 0.000000
-2.014900 0.000000
-2.003100 0.000000
-1.991200 0.000000
-1.979400 0.000000
-1.967600 0.000000
-1.955800 0.000000
-1.944000 0.000000
-1.932100 0.000000
-1.920300 0.000000
-1.908500 0.000000
-1.896700 0.000000
-1.884900 0.000000
-1.873100 0.000000
-1.861200 0.000000
-1.849400 0.000000
-1.837600 0.000000
-1.825800 0.000000
-1.814000 0.000000
-1.802100 0.000000
-1.790300 0.000000
-1.778500 0.000000
-1.766700 0.000000
-1.754900 0.000000
-1.743000 0.000000
-1.731200 0.000000
-1.719400 0.000000
-1.707600 0.000000
-1.695800 0.000000
-1.683900 0.000000
-1.672100 0.000000
-1.660300 0.000000
-1.648500 0.000000
-1.636700 0.000000
-1.624800 0.000000
-1.613000 0.000000
-1.601200 0.000000
-1.589400 0.000000
-1.577600 0.000000
-1.565800 0.000000
-1.553900 0.000000
-1.542100 3.435900
-1.530300 1.468000
-1.518500 0.982000
-1.506700 1.014700
-1.494800 1.047400
-1.483000 1.080100
-1.471200 1.066100
-1.459400 0.972400
-1.447600 0.878600
-1.435700 0.789000
-1.423900 0.733200
-1.412100 0.739400
-1.400300 0.745500
-1.388500 0.751700
-1.376600 0.757800
-1.364800 0.764000
-1.353000 0.770100
-1.341200 0.776300
-1.329400 0.782400
-1.317500 0.788600
-1.305700 0.790400
-1.293900 0.769800
-1.282100 0.749300
-1.270300 0.728800
-1.258400 0.708300
-1.246600 0.710500
-1.234800 0.717200
-1.223000 0.723900
-1.211200 0.730600
-1.199400 0.836900
-1.187500 1.120400
-1.175700 1.466300
-1.163900 1.698800
-1.152100 1.926500
-1.140300 2.154100
-1.128400 2.381800
-1.116600 2.700800
-1.104800 3.243600
-1.093000 3.316000
-1.081200 3.391900
-1.069300 3.476300
-1.057500 3.561500
-1.045700 4.165200
-1.033900 4.283400
-1.022100 4.401600
-1.010200 4.464400
-0.998400 5.042800
-0.986600 4.728300
-0.974800 4.456000
-0.963000 4.170900
-0.951100 3.893100
-0.939300 3.615200
-0.927500 3.390200
-0.915700 3.262600
-0.903900 2.689700
-0.892100 2.448100
-0.880200 2.485900
-0.868400 2.452500
-0.856600 2.398700
-0.844800 2.309600
-0.833000 1.948700
-0.821100 1.514100
-0.809300 1.048200
-0.797500 1.063900
-0.785700 1.079600
-0.773900 1.095300
-0.762000 1.111000
-0.750200 1.126700
-0.738400 1.142400
-0.726600 1.331800
-0.714800 1.555000
-0.702900 1.796300
-0.691100 2.117100
-0.679300 2.155400
-0.667500 2.099600
-0.655700 2.044500
-0.643800 1.989400
-0.632000 1.836300
-0.620200 1.817300
-0.608400 1.798300
-0.596600 1.779300
-0.584700 1.771700
-0.572900 1.753200
-0.561100 1.734500
-0.549300 1.715800
-0.537500 1.697200
-0.525700 1.678500
-0.513800 1.664300
-0.502000 1.748700
-0.490200 1.838000
-0.478400 1.927300
-0.466600 1.998800
-0.454700 1.968500
-0.442900 1.956700
-0.431100 1.929000
-0.419300 1.907700
-0.407500 2.046000
-0.395600 2.118100
-0.383800 2.187600
-0.372000 2.257300
-0.360200 2.335100
-0.348400 2.123400
-0.336500 2.174800
-0.324700 2.181200
-0.312900 2.174200
-0.301100 2.188700
-0.289300 2.194100
-0.277400 2.196700
-0.265600 2.199200
-0.253800 2.201700
-0.242000 2.204300
-0.230200 2.206800
-0.218400 2.237000
-0.206500 2.351700
-0.194700 2.459600
-0.182900 2.506200
-0.171100 2.521300
-0.159300 2.690500
-0.147400 2.786200
-0.135600 2.896700
-0.123800 3.041000
-0.112000 3.185300
-0.100200 3.314600
-0.088300 3.515600
-0.076500 3.595100
-0.064700 3.779500
-0.052900 4.857200
-0.041100 3.535600
-0.029200 3.581500
-0.017400 3.579600
-0.005600 3.496000
0.006200 3.412500
0.018000 3.454200
0.029900 3.429600
0.041700 3.380900
0.053500 3.296200
0.065300 3.209300
0.077100 3.105600
0.088900 3.083200
0.100800 3.077700
0.112600 3.073200
0.124400 3.066900
0.136200 3.090200
0.148000 3.121500
0.159900 3.123800
0.171700 3.126400
0.183500 3.155300
0.195300 3.213100
0.207100 3.212900
0.219000 3.217400
0.230800 3.223500
0.242600 3.228600
0.254400 3.233700
0.266200 3.237600
0.278100 3.238500
0.289900 3.244200
0.301700 3.290500
0.313500 3.393600
0.325300 3.420400
0.337200 3.448900
0.349000 3.461600
0.360800 3.637800
0.372600 3.279300
0.384400 3.290300
0.396300 3.292900
0.408100 3.310500
0.419900 4.399500
0.431700 4.516200
0.443500 4.430200
0.455300 4.417600
0.467200 3.305100
0.479000 3.238600
0.490800 3.417900
0.502600 3.353500
0.514400 3.463900
0.526300 4.227000
0.538100 3.176900
0.549900 3.118800
0.561700 3.093000
0.573500 3.067600
0.585400 3.043300
0.597200 3.025300
0.609000 3.019100
0.620800 3.012900
0.632600 3.003800
0.644500 2.925400
0.656300 2.803900
0.668100 2.783300
0.679900 2.848800
0.691700 2.890500
0.703600 2.875800
0.715400 2.278300
0.727200 2.296500
0.739000 2.314700
0.750800 2.327700
0.762600 2.342300
0.774500 2.345900
0.786300 2.350700
0.798100 2.355500
0.809900 2.327400
0.821700 2.335100
0.833600 2.345300
0.845400 2.360400
0.857200 2.375400
0.869000 2.388000
0.880800 2.409800
0.892700 2.431700
0.904500 2.453600
0.916300 2.475500
0.928100 2.497400
0.939900 2.519200
0.951800 2.537700
0.963600 2.556200
0.975400 2.578900
0.987200 2.601300
0.999000 2.639200
1.010900 2.697600
1.022700 3.023800
1.034500 3.935100
1.046300 3.160200
1.058100 3.132300
1.069900 3.104500
1.081800 3.076600
1.093600 3.048800
1.105400 3.019600
1.117200 2.991300
1.129000 2.964400
1.140900 2.937400
1.152700 2.910500
1.164500 2.883500
1.176300 2.860800
1.188100 2.956300
1.200000 3.075300
1.211800 3.217400
1.223600 3.356200
1.235400 3.463900
1.247200 3.460100
1.259100 3.204900
1.270900 2.950400
1.282700 2.738100
1.294500 2.653900
1.306300 2.569500
1.318200 2.493900
1.330000 2.426000
1.341800 2.358200
1.353600 2.321800
1.365400 2.336900
1.377300 2.351700
1.389100 2.366700
1.400900 2.378000
1.412700 2.382700
1.424500 2.387000
1.436300 2.382100
1.448200 2.387600
1.460000 2.384100
1.471800 2.366500
1.483600 2.350000
1.495400 2.346200
1.507300 2.349400
1.519100 2.352500
1.530900 2.356800
1.542700 2.359000
1.554500 2.363100
1.566400 2.371000
1.578200 2.378800
1.590000 2.386700
1.601800 2.399100
1.613600 2.421000
1.625500 2.431800
1.637300 2.442600
1.649100 2.453400
1.660900 2.459700
1.672700 2.448500
1.684600 2.454100
1.696400 2.462200
1.708200 2.470600
1.720000 2.480100
1.731800 2.491900
1.743600 2.525200
1.755500 2.533500
1.767300 2.490900
1.779100 2.449900
1.790900 2.454600
1.802700 2.460400
1.814600 2.466200
1.826400 2.472000
1.838200 2.477800
1.850000 2.484600
1.861800 2.491900
1.873700 2.512800
1.885500 2.549200
1.897300 2.564400
1.909100 2.579700
1.920900 2.625200
1.932800 2.649700
1.944600 2.675400
1.956400 2.701100
1.968200 2.846900
1.980000 2.836100
1.991900 2.829300
2.003700 2.826000
2.015500 2.822100
2.027300 2.817700
2.039100 2.813200
2.051000 2.828600
2.062800 2.894100
2.074600 2.963300
2.086400 3.030700
2.098200 3.098100
2.110000 3.165500
2.121900 4.933000
2.133700 4.744900
2.145500 5.251900
2.157300 5.807700
2.169100 7.091700
2.181000 5.540300
2.192800 4.901200
2.204600 4.683100
2.216400 4.465000
2.228200 4.372900
2.240100 4.324400
2.251900 4.275900
2.263700 3.942000
2.275500 3.863300
2.287300 3.441200
2.299200 3.014200
2.311000 2.729400
2.322800 2.627500
2.334600 2.570200
2.346400 4.434800
2.358300 4.829200
2.370100 4.927900
2.381900 5.080000
2.393700 4.566700
2.405500 4.819300
2.417300 5.466500
2.429200 5.282700
2.441000 5.458100
2.452800 3.360500
2.464600 4.097000
2.476400 3.612900
2.488300 3.851100
2.500100 3.812800
2.511900 3.774500
2.523700 3.736300
2.535500 3.698000
2.547400 3.662700
2.559200 3.637500
2.571000 3.633000
2.582800 3.495400
2.594600 3.498400
2.606500 3.297400
2.618300 3.683400
2.630100 4.311800
2.641900 7.123600
2.653700 5.621500
2.665600 5.030600
2.677400 4.490400
2.689200 2.849300
2.701000 2.850800
2.712800 2.245600
2.724600 2.070300
2.736500 1.572700
2.748300 1.369300
2.760100 1.165900
2.771900 0.356800
2.783700 0.339400
2.795600 0.322000
2.807400 0.304600
2.819200 0.287200
2.831000 0.269800
2.842800 0.252400
2.854700 0.243000
2.866500 0.239000
2.878300 0.235000
2.890100 0.231000
2.901900 0.227000
2.913800 0.355600
2.925600 0.280200
2.937400 0.206400
2.949200 0.355400
2.961000 0.440600
2.972900 0.829100
2.984700 1.329600
2.996500 1.132000
3.008300 0.964700
3.020100 0.932600
3.032000 0.935500
3.043800 0.960800
3.055600 0.999800
3.067400 1.041000
3.079200 1.084100
3.091000 1.188300
3.102900 1.371800
3.114700 1.478900
3.126500 1.465200
3.138300 1.414600
3.150100 1.435400
3.162000 1.467000
3.173800 1.509200
3.185600 1.555400
3.197400 1.607500
3.209200 1.679200
3.221100 1.778100
3.232900 1.905000
3.244700 2.031400
3.256500 2.190800
3.268300 2.384900
3.280200 2.498800
3.292000 2.578100
3.303800 2.634000
3.315600 2.632000
3.327400 2.714000
3.339300 2.803000
3.351100 2.828700
3.362900 2.807900
3.374700 2.791400
3.386500 2.811400
3.398300 2.829400
3.410200 2.843800
3.422000 2.875600
3.433800 2.894900
3.445600 2.884100
3.457400 2.866100
3.469300 2.845300
3.481100 2.817900
3.492900 2.775600
3.504700 2.726600
3.516500 2.680800
3.528400 2.643900
3.540200 2.609600
3.552000 2.579100
3.563800 2.549200
3.575600 2.520300
3.587500 2.496400
3.599300 2.477000
3.611100 2.459800
3.622900 2.444900
3.634700 2.432700
3.646600 2.424800
3.658400 2.419000
3.670200 2.415200
3.682000 2.413500
3.693800 2.413300
3.705600 2.413500
3.717500 2.413800
3.729300 2.414500
3.741100 2.415400
3.752900 2.413500
3.764700 2.408900
3.776600 2.400400
3.788400 2.392300
3.800200 2.385800
3.812000 2.382100
3.823800 2.379900
3.835700 2.377900
3.847500 2.376300
3.859300 2.374900
3.871100 2.373200
3.882900 2.371800
3.894800 2.371800
3.906600 2.373200
3.918400 2.376000
3.930200 2.380200
3.942000 2.385700
3.953900 2.392300
3.965700 2.398900
3.977500 2.405700
3.989300 2.412900
4.001100 2.421100
4.013000 2.430300
4.024800 2.440000
4.036600 2.449900
4.048400 2.477000
4.060200 2.756400
4.072000 3.365600
4.083900 3.685900
4.095700 3.542700
4.107500 3.139800
4.119300 3.032800
4.131100 3.052600
4.143000 3.084500
4.154800 3.141600
4.166600 3.207600
4.178400 3.271200
4.190200 3.286400
4.202100 3.261500
4.213900 3.318000
4.225700 3.382700
4.237500 3.452900
4.249300 3.529400
4.261200 3.614500
4.273000 3.711400
4.284800 3.823400
4.296600 3.962500
4.308400 4.103500
4.320300 4.571100
4.332100 5.897100
4.343900 5.344600
4.355700 4.605800
4.367500 4.538500
4.379300 4.418700
4.391200 4.247800
4.403000 4.214600
4.414800 4.246900
4.426600 4.285100
4.438400 4.301500
4.450300 3.579300
4.462100 3.399600
4.473900 3.354200
4.485700 3.352900
4.497500 3.398700
4.509400 3.562700
4.521200 3.777400
4.533000 3.786600
4.544800 3.795000
4.556600 3.802400
4.568500 3.809000
4.580300 3.815900
4.592100 3.773900
4.603900 3.694000
4.615700 3.706100
4.627600 3.773500
4.639400 3.921900
4.651200 4.017400
4.663000 4.076700
4.674800 4.101800
4.686700 4.112100
4.698500 4.148100
4.710300 4.141700
4.722100 4.141600
4.733900 4.132000
4.745700 4.114700
4.757600 4.097900
4.769400 4.080800
4.781200 4.035500
4.793000 4.062000
4.804800 4.072800
4.816700 4.052900
4.828500 4.136300
4.840300 4.374800
4.852100 4.666100
4.863900 4.601100
4.875800 4.413100
4.887600 4.396500
4.899400 4.536400
4.911200 4.491000
4.923000 4.224800
4.934900 4.000800
4.946700 3.788300
4.958500 3.544000
4.970300 3.374400
4.982100 3.336900
4.994000 3.503500
5.005800 3.832700
5.017600 4.407800
5.029400 4.805100
5.041200 5.171200
5.053000 5.154200
5.064900 4.746200
5.076700 4.210300
5.088500 3.984800
5.100300 4.025600
5.112100 4.185400
5.124000 4.345300
5.135800 4.593900
5.147600 5.029300
5.159400 5.649200
5.171200 6.364600
5.183100 7.066500
5.194900 6.057900
5.206700 5.898400
5.218500 5.535100
5.230300 5.078900
5.242200 4.526200
5.254000 3.854000
5.265800 3.464500
5.277600 3.197700
5.289400 2.843900
5.301300 2.687500
5.313100 2.490400
5.324900 2.299100
5.336700 2.130300
5.348500 1.984600
5.360300 1.849000
5.372200 2.071800
5.384000 1.469800
5.395800 1.354700
5.407600 1.255400
5.419400 1.161000
5.431300 1.068900
5.443100 0.979100
5.454900 0.891500
5.466700 0.931400
5.478500 1.220500
5.490400 0.545000
5.502200 0.525800
5.514000 0.510600
5.525800 0.499500
5.537600 0.491300
5.549500 0.483200
5.561300 0.475000
5.573100 0.466900
5.584900 0.458800
5.596700 0.450600
5.608600 0.439900
5.620400 0.425800
5.632200 0.412800
5.644000 0.401300
5.655800 0.394000
5.667700 0.387200
5.679500 0.380000
5.691300 0.372500
5.703100 0.361700
5.714900 0.347800
5.726700 0.339900
5.738600 0.333700
5.750400 0.328100
5.762200 0.322500
5.774000 0.316800
5.785800 0.311200
5.797700 0.305500
5.809500 0.299900
5.821300 0.294300
5.833100 0.288600
5.844900 0.283000
5.856800 0.277400
5.868600 0.271700
5.880400 0.266100
5.892200 0.260500
5.904000 0.254800
5.915900 0.249200
5.927700 0.243500
5.939500 0.237900
5.951300 0.232300
5.963100 0.226600
5.975000 0.221000
5.986800 0.215400
5.998600 0.209700
6.010400 0.234700
6.022200 0.591200
6.034000 0.435900
6.045900 0.103600
6.057700 0.103900
6.069500 0.453300
6.081300 0.480800
6.093100 0.001300
6.105000 0.000000
6.116800 0.000000
6.128600 0.000000
6.140400 0.000000
6.152200 0.000000
6.164100 0.000000
6.175900 0.000000
6.187700 0.000000
6.199500 0.000000
6.211300 0.000000
6.223200 0.000000
6.235000 0.000000
6.246800 0.000000
6.258600 0.000000
6.270400 0.000000
6.282300 0.000000
6.294100 0.000000
6.305900 0.000000
6.317700 0.000000
6.329500 0.000000
6.341300 0.000000
6.353200 0.000000
6.365000 0.000000
6.376800 0.000000
6.388600 0.000000
6.400400 0.000000
6.412300 0.000000
6.424100 0.000000
6.435900 0.000000
6.447700 0.000000
6.459500 0.000000
6.471400 0.000000
6.483200 0.000000
6.495000 0.000000
6.506800 0.000000
6.518600 0.000000
6.530500 0.000000
6.542300 0.000000
6.554100 0.000000
6.565900 0.000000
6.577700 0.000000
6.589600 0.000000
6.601400 0.000000
6.613200 0.000000
6.625000 0.000000
6.636800 0.000000
6.648700 0.000000
6.660500 0.000000
6.672300 0.000000
6.684100 0.000000
6.695900 0.000000
6.707700 0.000000
6.719600 0.000000
6.731400 0.000000
6.743200 0.000000
6.755000 0.000000
6.766800 0.000000
6.778700 0.000000
6.790500 0.000000
6.802300 0.000000
6.814100 0.000000
6.825900 0.000000
6.837800 0.000000
6.849600 0.000000
6.861400 0.000000
6.873200 0.000000
6.885000 0.000000
6.896900 0.000000
6.908700 0.000000
6.920500 0.000000
6.932300 0.000000
6.944100 0.000000
6.956000 0.000000
6.967800 0.000000
6.979600 0.000000
6.991400 0.000000
7.003200 0.000000
7.015000 0.000000
7.026900 0.000000
7.038700 0.000000
7.050500 0.000000
7.062300 0.000000
7.074100 0.000000
7.086000 0.000000
7.097800 0.000000
7.109600 0.000000
7.121400 0.000000
7.133200 0.000000
7.145100 0.000000
7.156900 0.000000
7.168700 0.000000
e
