set title 'mp-1186034 - Density of States'
set xlabel 'Energy (eV)'
set ylabel 'DOS (states/eV)'
set grid
set xrange [-10:10]
set yrange [0:77.882]
set xzeroaxis lt -1
set terminal png size 800,600
set output 'mp-1186034_dos_gnuplot.png'
plot '-' using 1:2 with lines title 'DOS'
-26.181800 0.000000
-26.155200 0.000000
-26.128600 0.000000
-26.102000 0.000000
-26.075500 0.000000
-26.048900 0.000000
-26.022300 0.000000
-25.995700 0.000000
-25.969100 0.000000
-25.942500 0.000000
-25.916000 0.000000
-25.889400 0.000000
-25.862800 0.000000
-25.836200 0.000000
-25.809600 0.000000
-25.783000 0.000000
-25.756400 0.000000
-25.729900 0.000000
-25.703300 0.000000
-25.676700 0.000000
-25.650100 0.000000
-25.623500 0.000000
-25.596900 0.000000
-25.570400 0.000000
-25.543800 0.000000
-25.517200 0.000000
-25.490600 0.000000
-25.464000 0.000000
-25.437400 0.000000
-25.410900 0.000000
-25.384300 0.000000
-25.357700 0.000000
-25.331100 0.000000
-25.304500 0.000000
-25.277900 0.000000
-25.251300 0.000000
-25.224800 0.000000
-25.198200 0.000000
-25.171600 0.000000
-25.145000 0.000000
-25.118400 0.000000
-25.091800 0.000000
-25.065300 0.000000
-25.038700 0.000000
-25.012100 0.000000
-24.985500 0.000000
-24.958900 0.000000
-24.932300 0.000000
-24.905700 0.000000
-24.879200 0.000000
-24.852600 0.000000
-24.826000 0.000000
-24.799400 0.000000
-24.772800 0.000000
-24.746200 0.000000
-24.719700 0.000000
-24.693100 0.000000
-24.666500 0.000000
-24.639900 0.000000
-24.613300 0.000000
-24.586700 0.000000
-24.560200 0.000000
-24.533600 0.000000
-24.507000 0.000000
-24.480400 0.000000
-24.453800 0.000000
-24.427200 0.000000
-24.400600 0.000000
-24.374100 0.000000
-24.347500 0.000000
-24.320900 0.000000
-24.294300 0.000000
-24.267700 0.000000
-24.241100 0.000000
-24.214600 0.000000
-24.188000 0.000000
-24.161400 0.000000
-24.134800 0.000000
-24.108200 0.000000
-24.081600 0.000000
-24.055000 0.000000
-24.028500 0.000000
-24.001900 0.000000
-23.975300 0.000000
-23.948700 0.000000
-23.922100 0.000300
-23.895500 0.007200
-23.869000 0.107900
-23.842400 0.956300
-23.815800 5.140500
-23.789200 17.351800
-23.762600 38.272800
-23.736000 56.529900
-23.709500 55.409000
-23.682900 34.809900
-23.656300 13.499100
-23.629700 3.144000
-23.603100 0.447300
-23.576500 0.269400
-23.549900 2.190000
-23.523400 12.437500
-23.496800 43.488800
-23.470200 94.035000
-23.443600 125.659200
-23.417000 103.161600
-23.390400 51.551200
-23.363900 15.518900
-23.337300 2.786900
-23.310700 0.296000
-23.284100 0.018500
-23.257500 0.000700
-23.230900 0.000000
-23.204300 0.000000
-23.177800 0.000000
-23.151200 0.000000
-23.124600 0.000000
-23.098000 0.000000
-23.071400 0.000000
-23.044800 0.000000
-23.018300 0.000000
-22.991700 0.000000
-22.965100 0.000000
-22.938500 0.000000
-22.911900 0.000000
-22.885300 0.000000
-22.858800 0.000000
-22.832200 0.000000
-22.805600 0.000000
-22.779000 0.000000
-22.752400 0.000000
-22.725800 0.000000
-22.699200 0.000000
-22.672700 0.000000
-22.646100 0.000000
-22.619500 0.000000
-22.592900 0.000000
-22.566300 0.000000
-22.539700 0.000000
-22.513200 0.000000
-22.486600 0.000000
-22.460000 0.000000
-22.433400 0.000000
-22.406800 0.000000
-22.380200 0.000000
-22.353600 0.000000
-22.327100 0.000000
-22.300500 0.000000
-22.273900 0.000000
-22.247300 0.000000
-22.220700 0.000000
-22.194100 0.000000
-22.167600 0.000000
-22.141000 0.000000
-22.114400 0.000000
-22.087800 0.000000
-22.061200 0.000000
-22.034600 0.000000
-22.008100 0.000000
-21.981500 0.000000
-21.954900 0.000000
-21.928300 0.000000
-21.901700 0.000000
-21.875100 0.000000
-21.848500 0.000000
-21.822000 0.000000
-21.795400 0.000000
-21.768800 0.000000
-21.742200 0.000000
-21.715600 0.000000
-21.689000 0.000000
-21.662500 0.000000
-21.635900 0.000000
-21.609300 0.000000
-21.582700 0.000000
-21.556100 0.000000
-21.529500 0.000000
-21.502900 0.000000
-21.476400 0.000000
-21.449800 0.000000
-21.423200 0.000000
-21.396600 0.000000
-21.370000 0.000000
-21.343400 0.000000
-21.316900 0.000000
-21.290300 0.000000
-21.263700 0.000000
-21.237100 0.000000
-21.210500 0.000000
-21.183900 0.000000
-21.157400 0.000000
-21.130800 0.000000
-21.104200 0.000000
-21.077600 0.000000
-21.051000 0.000000
-21.024400 0.000000
-20.997800 0.000000
-20.971300 0.000000
-20.944700 0.000000
-20.918100 0.000000
-20.891500 0.000000
-20.864900 0.000000
-20.838300 0.000000
-20.811800 0.000000
-20.785200 0.000000
-20.758600 0.000000
-20.732000 0.000000
-20.705400 0.000000
-20.678800 0.000000
-20.652200 0.000000
-20.625700 0.000000
-20.599100 0.000000
-20.572500 0.000000
-20.545900 0.000000
-20.519300 0.000000
-20.492700 0.000000
-20.466200 0.000000
-20.439600 0.000000
-20.413000 0.000000
-20.386400 0.000000
-20.359800 0.000000
-20.333200 0.000000
-20.306700 0.000000
-20.280100 0.000000
-20.253500 0.000000
-20.226900 0.000000
-20.200300 0.000000
-20.173700 0.000000
-20.147100 0.000000
-20.120600 0.000000
-20.094000 0.000000
-20.067400 0.000000
-20.040800 0.000000
-20.014200 0.000000
-19.987600 0.000000
-19.961100 0.000000
-19.934500 0.000000
-19.907900 0.000000
-19.881300 0.000000
-19.854700 0.000000
-19.828100 0.000000
-19.801500 0.000000
-19.775000 0.000000
-19.748400 0.000000
-19.721800 0.000000
-19.695200 0.000000
-19.668600 0.000000
-19.642000 0.000000
-19.615500 0.000000
-19.588900 0.000000
-19.562300 0.000000
-19.535700 0.000000
-19.509100 0.000000
-19.482500 0.000000
-19.455900 0.000000
-19.429400 0.000000
-19.402800 0.000000
-19.376200 0.000000
-19.349600 0.000000
-19.323000 0.000000
-19.296400 0.000000
-19.269900 0.000000
-19.243300 0.000000
-19.216700 0.000000
-19.190100 0.000000
-19.163500 0.000000
-19.136900 0.000000
-19.110400 0.000000
-19.083800 0.000000
-19.057200 0.000000
-19.030600 0.000000
-19.004000 0.000000
-18.977400 0.000000
-18.950800 0.000000
-18.924300 0.000000
-18.897700 0.000000
-18.871100 0.000000
-18.844500 0.000000
-18.817900 0.000000
-18.791300 0.000000
-18.764800 0.000000
-18.738200 0.000000
-18.711600 0.000000
-18.685000 0.000000
-18.658400 0.000000
-18.631800 0.000000
-18.605200 0.000000
-18.578700 0.000000
-18.552100 0.000000
-18.525500 0.000000
-18.498900 0.000000
-18.472300 0.000000
-18.445700 0.000000
-18.419200 0.000000
-18.392600 0.000000
-18.366000 0.000000
-18.339400 0.000000
-18.312800 0.000000
-18.286200 0.000000
-18.259700 0.000000
-18.233100 0.000000
-18.206500 0.000000
-18.179900 0.000000
-18.153300 0.000000
-18.126700 0.000000
-18.100100 0.000000
-18.073600 0.000000
-18.047000 0.000000
-18.020400 0.000000
-17.993800 0.000000
-17.967200 0.000000
-17.940600 0.000000
-17.914100 0.000000
-17.887500 0.000000
-17.860900 0.000000
-17.834300 0.000000
-17.807700 0.000000
-17.781100 0.000000
-17.754500 0.000000
-17.728000 0.000000
-17.701400 0.000000
-17.674800 0.000000
-17.648200 0.000000
-17.621600 0.000000
-17.595000 0.000000
-17.568500 0.000000
-17.541900 0.000000
-17.515300 0.000000
-17.488700 0.000000
-17.462100 0.000000
-17.435500 0.000000
-17.409000 0.000000
-17.382400 0.000000
-17.355800 0.000000
-17.329200 0.000000
-17.302600 0.000000
-17.276000 0.000000
-17.249400 0.000000
-17.222900 0.000000
-17.196300 0.000000
-17.169700 0.000000
-17.143100 0.000000
-17.116500 0.000000
-17.089900 0.000000
-17.063400 0.000000
-17.036800 0.000000
-17.010200 0.000000
-16.983600 0.000000
-16.957000 0.000000
-16.930400 0.000000
-16.903800 0.000000
-16.877300 0.000000
-16.850700 0.000000
-16.824100 0.000000
-16.797500 0.000000
-16.770900 0.000000
-16.744300 0.000000
-16.717800 0.000000
-16.691200 0.000000
-16.664600 0.000000
-16.638000 0.000000
-16.611400 0.000000
-16.584800 0.000000
-16.558300 0.000000
-16.531700 0.000000
-16.505100 0.000000
-16.478500 0.000000
-16.451900 0.000000
-16.425300 0.000000
-16.398700 0.000000
-16.372200 0.000000
-16.345600 0.000000
-16.319000 0.000000
-16.292400 0.000000
-16.265800 0.000000
-16.239200 0.000000
-16.212700 0.000000
-16.186100 0.000000
-16.159500 0.000000
-16.132900 0.000000
-16.106300 0.000000
-16.079700 0.000000
-16.053100 0.000000
-16.026600 0.000000
-16.000000 0.000000
-15.973400 0.000000
-15.946800 0.000000
-15.920200 0.000000
-15.893600 0.000000
-15.867100 0.000000
-15.840500 0.000000
-15.813900 0.000000
-15.787300 0.000000
-15.760700 0.000000
-15.734100 0.000000
-15.707600 0.000000
-15.681000 0.000000
-15.654400 0.000000
-15.627800 0.000000
-15.601200 0.000000
-15.574600 0.000000
-15.548000 0.000000
-15.521500 0.000000
-15.494900 0.000000
-15.468300 0.000000
-15.441700 0.000000
-15.415100 0.000000
-15.388500 0.000000
-15.362000 0.000000
-15.335400 0.000000
-15.308800 0.000000
-15.282200 0.000000
-15.255600 0.000000
-15.229000 0.000000
-15.202400 0.000000
-15.175900 0.000000
-15.149300 0.000000
-15.122700 0.000000
-15.096100 0.000000
-15.069500 0.000000
-15.042900 0.000000
-15.016400 0.000000
-14.989800 0.000000
-14.963200 0.000000
-14.936600 0.000000
-14.910000 0.000000
-14.883400 0.000000
-14.856900 0.000000
-14.830300 0.000000
-14.803700 0.000000
-14.777100 0.000000
-14.750500 0.000000
-14.723900 0.000000
-14.697300 0.000000
-14.670800 0.000000
-14.644200 0.000000
-14.617600 0.000000
-14.591000 0.000000
-14.564400 0.000000
-14.537800 0.000000
-14.511300 0.000000
-14.484700 0.000000
-14.458100 0.000000
-14.431500 0.000000
-14.404900 0.000000
-14.378300 0.000000
-14.351700 0.000000
-14.325200 0.000000
-14.298600 0.000000
-14.272000 0.000000
-14.245400 0.000000
-14.218800 0.000000
-14.192200 0.000000
-14.165700 0.000000
-14.139100 0.000000
-14.112500 0.000000
-14.085900 0.000000
-14.059300 0.000000
-14.032700 0.000000
-14.006200 0.000000
-13.979600 0.000000
-13.953000 0.000000
-13.926400 0.000000
-13.899800 0.000000
-13.873200 0.000000
-13.846600 0.000000
-13.820100 0.000000
-13.793500 0.000000
-13.766900 0.000000
-13.740300 0.000000
-13.713700 0.000000
-13.687100 0.000000
-13.660600 0.000000
-13.634000 0.000000
-13.607400 0.000000
-13.580800 0.000000
-13.554200 0.000000
-13.527600 0.000000
-13.501000 0.000000
-13.474500 0.000000
-13.447900 0.000000
-13.421300 0.000000
-13.394700 0.000000
-13.368100 0.000000
-13.341500 0.000000
-13.315000 0.000000
-13.288400 0.000000
-13.261800 0.000000
-13.235200 0.000000
-13.208600 0.000000
-13.182000 0.000000
-13.155500 0.000000
-13.128900 0.000000
-13.102300 0.000000
-13.075700 0.000000
-13.049100 0.000000
-13.022500 0.000000
-12.995900 0.000000
-12.969400 0.000000
-12.942800 0.000000
-12.916200 0.000000
-12.889600 0.000000
-12.863000 0.000000
-12.836400 0.000000
-12.809900 0.000000
-12.783300 0.000000
-12.756700 0.000000
-12.730100 0.000000
-12.703500 0.000000
-12.676900 0.000000
-12.650300 0.000000
-12.623800 0.000000
-12.597200 0.000000
-12.570600 0.000000
-12.544000 0.000000
-12.517400 0.000000
-12.490800 0.000000
-12.464300 0.000000
-12.437700 0.000000
-12.411100 0.000000
-12.384500 0.000000
-12.357900 0.000000
-12.331300 0.000000
-12.304800 0.000000
-12.278200 0.000000
-12.251600 0.000000
-12.225000 0.000000
-12.198400 0.000000
-12.171800 0.000000
-12.145200 0.000000
-12.118700 0.000000
-12.092100 0.000000
-12.065500 0.000000
-12.038900 0.000000
-12.012300 0.000000
-11.985700 0.000000
-11.959200 0.000000
-11.932600 0.000000
-11.906000 0.000000
-11.879400 0.000000
-11.852800 0.000000
-11.826200 0.000000
-11.799600 0.000000
-11.773100 0.000000
-11.746500 0.000000
-11.719900 0.000000
-11.693300 0.000000
-11.666700 0.000000
-11.640100 0.000000
-11.613600 0.000000
-11.587000 0.000000
-11.560400 0.000000
-11.533800 0.000000
-11.507200 0.000000
-11.480600 0.000000
-11.454100 0.000000
-11.427500 0.000000
-11.400900 0.000000
-11.374300 0.000000
-11.347700 0.000000
-11.321100 0.000000
-11.294500 0.000000
-11.268000 0.000000
-11.241400 0.000000
-11.214800 0.000000
-11.188200 0.000000
-11.161600 0.000000
-11.135000 0.000000
-11.108500 0.000000
-11.081900 0.000000
-11.055300 0.000000
-11.028700 0.000000
-11.002100 0.000000
-10.975500 0.000000
-10.948900 0.000000
-10.922400 0.000000
-10.895800 0.000000
-10.869200 0.000000
-10.842600 0.000000
-10.816000 0.000000
-10.789400 0.000000
-10.762900 0.000000
-10.736300 0.000000
-10.709700 0.000000
-10.683100 0.000000
-10.656500 0.000000
-10.629900 0.000000
-10.603400 0.000000
-10.576800 0.000000
-10.550200 0.000000
-10.523600 0.000000
-10.497000 0.000000
-10.470400 0.000000
-10.443800 0.000000
-10.417300 0.000000
-10.390700 0.000000
-10.364100 0.000000
-10.337500 0.000000
-10.310900 0.000000
-10.284300 0.000000
-10.257800 0.000000
-10.231200 0.000000
-10.204600 0.000000
-10.178000 0.000000
-10.151400 0.000000
-10.124800 0.000000
-10.098200 0.000000
-10.071700 0.000000
-10.045100 0.000000
-10.018500 0.000000
-9.991900 0.000000
-9.965300 0.000000
-9.938700 0.000000
-9.912200 0.000000
-9.885600 0.000000
-9.859000 0.000000
-9.832400 0.000000
-9.805800 0.000000
-9.779200 0.000000
-9.752700 0.000000
-9.726100 0.000000
-9.699500 0.000000
-9.672900 0.000000
-9.646300 0.000000
-9.619700 0.000000
-9.593100 0.000000
-9.566600 0.000000
-9.540000 0.000000
-9.513400 0.000000
-9.486800 0.000000
-9.460200 0.000000
-9.433600 0.000000
-9.407100 0.000000
-9.380500 0.000000
-9.353900 0.000000
-9.327300 0.000000
-9.300700 0.000000
-9.274100 0.000000
-9.247500 0.000000
-9.221000 0.000000
-9.194400 0.000000
-9.167800 0.000000
-9.141200 0.000000
-9.114600 0.000000
-9.088000 0.000000
-9.061500 0.000000
-9.034900 0.000000
-9.008300 0.000000
-8.981700 0.000000
-8.955100 0.000000
-8.928500 0.000000
-8.902000 0.000000
-8.875400 0.000000
-8.848800 0.000000
-8.822200 0.000000
-8.795600 0.000000
-8.769000 0.000000
-8.742400 0.000000
-8.715900 0.000000
-8.689300 0.000000
-8.662700 0.000000
-8.636100 0.000000
-8.609500 0.000000
-8.582900 0.000000
-8.556400 0.000000
-8.529800 0.000000
-8.503200 0.000000
-8.476600 0.000000
-8.450000 0.000000
-8.423400 0.000000
-8.396800 0.000000
-8.370300 0.000000
-8.343700 0.000000
-8.317100 0.000000
-8.290500 0.000000
-8.263900 0.000000
-8.237300 0.000000
-8.210800 0.000000
-8.184200 0.000000
-8.157600 0.000000
-8.131000 0.000000
-8.104400 0.000000
-8.077800 0.000000
-8.051300 0.000000
-8.024700 0.000000
-7.998100 0.000000
-7.971500 0.000000
-7.944900 0.000000
-7.918300 0.000000
-7.891700 0.000000
-7.865200 0.000000
-7.838600 0.000000
-7.812000 0.000000
-7.785400 0.000000
-7.758800 0.000000
-7.732200 0.000000
-7.705700 0.000000
-7.679100 0.000000
-7.652500 0.000000
-7.625900 0.000000
-7.599300 0.000000
-7.572700 0.000000
-7.546100 0.000000
-7.519600 0.000000
-7.493000 0.000000
-7.466400 0.000000
-7.439800 0.000000
-7.413200 0.000000
-7.386600 0.000000
-7.360100 0.000000
-7.333500 0.000000
-7.306900 0.000000
-7.280300 0.000000
-7.253700 0.000000
-7.227100 0.000000
-7.200600 0.000000
-7.174000 0.000000
-7.147400 0.000000
-7.120800 0.000000
-7.094200 0.000000
-7.067600 0.000000
-7.041000 0.000000
-7.014500 0.000000
-6.987900 0.000000
-6.961300 0.000000
-6.934700 0.000000
-6.908100 0.000000
-6.881500 0.000000
-6.855000 0.000000
-6.828400 0.000000
-6.801800 0.000000
-6.775200 0.000000
-6.748600 0.000000
-6.722000 0.000000
-6.695400 0.000000
-6.668900 0.000000
-6.642300 0.000000
-6.615700 0.000000
-6.589100 0.000000
-6.562500 0.000000
-6.535900 0.000000
-6.509400 0.000000
-6.482800 0.000000
-6.456200 0.000000
-6.429600 0.000000
-6.403000 0.000000
-6.376400 0.000000
-6.349900 0.000000
-6.323300 0.000000
-6.296700 0.000000
-6.270100 0.000000
-6.243500 0.000000
-6.216900 0.000000
-6.190300 0.000000
-6.163800 0.000000
-6.137200 0.000000
-6.110600 0.000000
-6.084000 0.000000
-6.057400 0.000000
-6.030800 0.000000
-6.004300 0.000000
-5.977700 0.000000
-5.951100 0.000000
-5.924500 0.000000
-5.897900 0.000000
-5.871300 0.000000
-5.844700 0.000000
-5.818200 0.000000
-5.791600 0.000000
-5.765000 0.000000
-5.738400 0.000000
-5.711800 0.000000
-5.685200 0.000000
-5.658700 0.000000
-5.632100 0.000000
-5.605500 0.000000
-5.578900 0.000000
-5.552300 0.000000
-5.525700 0.000000
-5.499200 0.000000
-5.472600 0.000000
-5.446000 0.000000
-5.419400 0.000000
-5.392800 0.000000
-5.366200 0.000000
-5.339600 0.000000
-5.313100 0.000000
-5.286500 0.000000
-5.259900 0.000000
-5.233300 0.000000
-5.206700 0.000000
-5.180100 0.000000
-5.153600 0.000000
-5.127000 0.000000
-5.100400 0.000000
-5.073800 0.000000
-5.047200 0.000000
-5.020600 0.000000
-4.994000 0.000000
-4.967500 0.000000
-4.940900 0.000000
-4.914300 0.000000
-4.887700 0.000000
-4.861100 0.000000
-4.834500 0.000000
-4.808000 0.000000
-4.781400 0.000000
-4.754800 0.000000
-4.728200 0.000000
-4.701600 0.000000
-4.675000 0.000000
-4.648400 0.000000
-4.621900 0.000000
-4.595300 0.000000
-4.568700 0.000000
-4.542100 0.000000
-4.515500 0.000000
-4.488900 0.000000
-4.462400 0.000000
-4.435800 0.000000
-4.409200 0.000000
-4.382600 0.000000
-4.356000 0.000000
-4.329400 0.000000
-4.302900 0.000000
-4.276300 0.000000
-4.249700 0.000000
-4.223100 0.000000
-4.196500 0.000000
-4.169900 0.000000
-4.143300 0.000000
-4.116800 0.000000
-4.090200 0.000000
-4.063600 0.000000
-4.037000 0.000000
-4.010400 0.000000
-3.983800 0.000000
-3.957300 0.000000
-3.930700 0.000000
-3.904100 0.000000
-3.877500 0.000000
-3.850900 0.000000
-3.824300 0.000000
-3.797700 0.000000
-3.771200 0.000000
-3.744600 0.000000
-3.718000 0.000000
-3.691400 0.000000
-3.664800 0.000000
-3.638200 0.000000
-3.611700 0.000000
-3.585100 0.000000
-3.558500 0.000000
-3.531900 0.000000
-3.505300 0.000000
-3.478700 0.000000
-3.452200 0.000000
-3.425600 0.000000
-3.399000 0.000000
-3.372400 0.000000
-3.345800 0.000000
-3.319200 0.000000
-3.292600 0.000100
-3.266100 0.001000
-3.239500 0.006800
-3.212900 0.040300
-3.186300 0.262000
-3.159700 1.576300
-3.133100 6.842300
-3.106600 19.975100
-3.080000 40.200200
-3.053400 59.719000
-3.026800 70.801700
-3.000200 69.457900
-2.973600 54.999300
-2.947000 33.471600
-2.920500 15.076700
-2.893900 5.051000
-2.867300 1.484900
-2.840700 0.621400
-2.814100 0.508100
-2.787500 0.609600
-2.761000 0.643400
-2.734400 0.491000
-2.707800 0.307000
-2.681200 0.244900
-2.654600 0.268900
-2.628000 0.269800
-2.601500 0.284100
-2.574900 0.487200
-2.548300 0.905300
-2.521700 1.167900
-2.495100 0.959900
-2.468500 0.543100
-2.441900 0.332200
-2.415400 0.432500
-2.388800 0.690400
-2.362200 0.829600
-2.335600 0.738500
-2.309000 0.633900
-2.282400 0.597700
-2.255900 0.459100
-2.229300 0.278300
-2.202700 0.289700
-2.176100 0.525100
-2.149500 0.780800
-2.122900 0.873600
-2.096300 0.940800
-2.069800 1.243400
-2.043200 1.526600
-2.016600 1.318400
-1.990000 0.826500
-1.963400 0.584900
-1.936800 0.679800
-1.910300 0.803300
-1.883700 0.745200
-1.857100 0.641100
-1.830500 0.669000
-1.803900 0.740600
-1.777300 0.718700
-1.750800 0.651800
-1.724200 0.664500
-1.697600 0.789500
-1.671000 0.988000
-1.644400 1.293000
-1.617800 1.681100
-1.591200 1.813200
-1.564700 1.459500
-1.538100 1.064100
-1.511500 1.137400
-1.484900 1.453000
-1.458300 1.525600
-1.431700 1.417100
-1.405200 1.423200
-1.378600 1.429000
-1.352000 1.119200
-1.325400 0.630100
-1.298800 0.446200
-1.272200 0.803700
-1.245600 1.505200
-1.219100 2.071500
-1.192500 2.187900
-1.165900 1.942500
-1.139300 1.536500
-1.112700 1.185300
-1.086100 1.042600
-1.059600 0.998600
-1.033000 0.901500
-1.006400 0.758600
-0.979800 0.601600
-0.953200 0.449200
-0.926600 0.358100
-0.900100 0.397100
-0.873500 0.564400
-0.846900 0.747700
-0.820300 0.832600
-0.793700 0.834600
-0.767100 0.772100
-0.740500 0.674200
-0.714000 0.634500
-0.687400 0.570900
-0.660800 0.402800
-0.634200 0.307300
-0.607600 0.417400
-0.581000 0.619300
-0.554500 0.688000
-0.527900 0.529800
-0.501300 0.297500
-0.474700 0.172700
-0.448100 0.177200
-0.421500 0.214300
-0.394900 0.218800
-0.368400 0.310100
-0.341800 0.707500
-0.315200 1.337900
-0.288600 1.682800
-0.262000 1.419600
-0.235400 0.913500
-0.208900 0.619600
-0.182300 0.601900
-0.155700 0.702500
-0.129100 0.685400
-0.102500 0.473000
-0.075900 0.279400
-0.049400 0.340700
-0.022800 0.701100
0.003800 1.218700
0.030400 1.631400
0.057000 1.703800
0.083600 1.465200
0.110200 1.153900
0.136700 0.996400
0.163300 1.235300
0.189900 1.841300
0.216500 2.221300
0.243100 1.962400
0.269700 1.434900
0.296200 1.070100
0.322800 0.786800
0.349400 0.468800
0.376000 0.278900
0.402600 0.409500
0.429200 0.903800
0.455800 1.634700
0.482300 2.410000
0.508900 3.021700
0.535500 3.164000
0.562100 2.735300
0.588700 2.088500
0.615300 1.555800
0.641800 1.145900
0.668400 0.800000
0.695000 0.534200
0.721600 0.402400
0.748200 0.444400
0.774800 0.598100
0.801300 0.700400
0.827900 0.721000
0.854500 0.843000
0.881100 1.185400
0.907700 1.628400
0.934300 2.006700
0.960900 2.246300
0.987400 2.227000
1.014000 1.844800
1.040600 1.294700
1.067200 0.966400
1.093800 1.085500
1.120400 1.428600
1.146900 1.513300
1.173500 1.395600
1.200100 1.560600
1.226700 1.961100
1.253300 2.136000
1.279900 1.910100
1.306500 1.437000
1.333000 1.023800
1.359600 0.889400
1.386200 0.923200
1.412800 0.945900
1.439400 0.931800
1.466000 0.933800
1.492500 1.053300
1.519100 1.236700
1.545700 1.312000
1.572300 1.325100
1.598900 1.342800
1.625500 1.400100
1.652000 1.794000
1.678600 2.616200
1.705200 3.321400
1.731800 3.318400
1.758400 2.721000
1.785000 2.077500
1.811600 1.675100
1.838100 1.464900
1.864700 1.309200
1.891300 1.171200
1.917900 1.139300
1.944500 1.251400
1.971100 1.384100
1.997600 1.369500
2.024200 1.327900
2.050800 1.582100
2.077400 1.959000
2.104000 1.950200
2.130600 1.601100
2.157200 1.391900
2.183700 1.579800
2.210300 2.059100
2.236900 2.508100
2.263500 2.546400
2.290100 2.069200
2.316700 1.415800
2.343200 1.089300
2.369800 1.344800
2.396400 1.837600
2.423000 1.925700
2.449600 1.528200
2.476200 1.230400
2.502700 1.343100
2.529300 1.664100
2.555900 2.091700
2.582500 2.557400
2.609100 2.717900
2.635700 2.297000
2.662300 1.541700
2.688800 1.046200
2.715400 1.027200
2.742000 1.189100
2.768600 1.306300
2.795200 1.493300
2.821800 1.835900
2.848300 2.032900
2.874900 1.811800
2.901500 1.438600
2.928100 1.317500
2.954700 1.406800
2.981300 1.414400
3.007900 1.397600
3.034400 1.680300
3.061000 2.196100
3.087600 2.427000
3.114200 2.082400
3.140800 1.465000
3.167400 1.023200
3.193900 0.928800
3.220500 1.132300
3.247100 1.494500
3.273700 1.766900
3.300300 1.736100
3.326900 1.398000
3.353400 0.917800
3.380000 0.632600
3.406600 0.812600
3.433200 1.274300
3.459800 1.522800
3.486400 1.358600
3.513000 1.152300
3.539500 1.276400
3.566100 1.597800
3.592700 1.881900
3.619300 2.031900
3.645900 1.887300
3.672500 1.475100
3.699000 1.172700
3.725600 1.370300
3.752200 2.110600
3.778800 2.956200
3.805400 3.310500
3.832000 2.964500
3.858600 2.330100
3.885100 1.978500
3.911700 1.972400
3.938300 1.969000
3.964900 1.792000
3.991500 1.591300
4.018100 1.480500
4.044600 1.442900
4.071200 1.489600
4.097800 1.662400
4.124400 1.896400
4.151000 1.970200
4.177600 1.840300
4.204100 1.676800
4.230700 1.538900
4.257300 1.490700
4.283900 1.650600
4.310500 1.871100
4.337100 1.997700
4.363700 2.195400
4.390200 2.424500
4.416800 2.391000
4.443400 2.263900
4.470000 2.395500
4.496600 2.546600
4.523200 2.221800
4.549700 1.516100
4.576300 0.958500
4.602900 0.752500
4.629500 0.809100
4.656100 1.122200
4.682700 1.590900
4.709300 1.929200
4.735800 2.011200
4.762400 1.955300
4.789000 2.004600
4.815600 2.172500
4.842200 2.081900
4.868800 1.716300
4.895300 1.489400
4.921900 1.499400
4.948500 1.549700
4.975100 1.549500
5.001700 1.594100
5.028300 1.873700
5.054800 2.262800
5.081400 2.380400
5.108000 2.284200
5.134600 2.231200
5.161200 2.129000
5.187800 1.899900
5.214400 1.792700
5.240900 1.858200
5.267500 1.761400
5.294100 1.506500
5.320700 1.610300
5.347300 2.224900
5.373900 2.951400
5.400400 3.354500
5.427000 3.086600
5.453600 2.309300
5.480200 1.752200
5.506800 1.714400
5.533400 1.878800
5.560000 1.922900
5.586500 1.730200
5.613100 1.456500
5.639700 1.365100
5.666300 1.560600
5.692900 1.999300
5.719500 2.553800
5.746000 2.936000
5.772600 2.936300
5.799200 2.779600
5.825800 2.636300
5.852400 2.215400
5.879000 1.548600
5.905500 1.154200
5.932100 1.144800
5.958700 1.231500
5.985300 1.342900
6.011900 1.543100
6.038500 1.695800
6.065100 1.691900
6.091600 1.818700
6.118200 2.376900
6.144800 3.088400
6.171400 3.418200
6.198000 3.375600
6.224600 3.503600
6.251100 3.940600
6.277700 4.022800
6.304300 3.301800
6.330900 2.366600
6.357500 1.997300
6.384100 2.211900
6.410700 2.580000
6.437200 2.811500
6.463800 2.852600
6.490400 2.967800
6.517000 3.405900
6.543600 3.774400
6.570200 3.484000
6.596700 2.591900
6.623300 1.762400
6.649900 1.403400
6.676500 1.359800
6.703100 1.440500
6.729700 1.592300
6.756200 1.729300
6.782800 1.826800
6.809400 1.963100
6.836000 2.185100
6.862600 2.425100
6.889200 2.566900
6.915800 2.652700
6.942300 2.693900
6.968900 2.603200
6.995500 2.358000
7.022100 1.986300
7.048700 1.695000
7.075300 1.827300
7.101800 2.520200
7.128400 3.376200
7.155000 3.688400
7.181600 3.246800
7.208200 2.516300
7.234800 1.922000
7.261400 1.521000
7.287900 1.294000
7.314500 1.265800
7.341100 1.532100
7.367700 2.173400
7.394300 2.858200
7.420900 3.056400
7.447400 2.944700
7.474000 3.171500
7.500600 3.735600
7.527200 4.022000
7.553800 3.672400
7.580400 3.020500
7.606900 2.459600
7.633500 1.987000
7.660100 1.678300
7.686700 1.752000
7.713300 2.031100
7.739900 2.048200
7.766500 1.823600
7.793000 1.889600
7.819600 2.471500
7.846200 3.114800
7.872800 3.250800
7.899400 2.911300
7.926000 2.567300
7.952500 2.541100
7.979100 2.839500
8.005700 3.118000
8.032300 3.055000
8.058900 2.722400
8.085500 2.334800
8.112100 2.160200
8.138600 2.109000
8.165200 1.771700
8.191800 1.392400
8.218400 1.589100
8.245000 2.211000
8.271600 2.590800
8.298100 2.647300
8.324700 2.787800
8.351300 2.997000
8.377900 2.912000
8.404500 2.474100
8.431100 1.932000
8.457600 1.558500
8.484200 1.463100
8.510800 1.576200
8.537400 1.815400
8.564000 2.171800
8.590600 2.579600
8.617200 2.953000
8.643700 3.307000
8.670300 3.703900
8.696900 4.099100
8.723500 4.208100
8.750100 3.702900
8.776700 2.804200
8.803200 2.147600
8.829800 2.014700
8.856400 2.233900
8.883000 2.456700
8.909600 2.576600
8.936200 2.805500
8.962800 3.038600
8.989300 2.838900
9.015900 2.136500
9.042500 1.499200
9.069100 1.469200
9.095700 1.809100
9.122300 1.986400
9.148800 1.969800
9.175400 1.951200
9.202000 2.007200
9.228600 2.167100
9.255200 2.313000
9.281800 2.432800
9.308300 2.807500
9.334900 3.561000
9.361500 4.293500
9.388100 4.392500
9.414700 3.884700
9.441300 3.328000
9.467900 2.962600
9.494400 2.642100
9.521000 2.252700
9.547600 2.001900
9.574200 2.129700
9.600800 2.322100
9.627400 2.168200
9.653900 1.897800
9.680500 1.889200
9.707100 2.107800
9.733700 2.319200
9.760300 2.370300
9.786900 2.370900
9.813500 2.437500
9.840000 2.410900
9.866600 2.297400
9.893200 2.350400
9.919800 2.613500
9.946400 2.878600
9.973000 2.962000
9.999500 2.713800
10.026100 2.296700
10.052700 2.265600
10.079300 2.562200
10.105900 2.526600
10.132500 2.112700
10.159000 1.792500
10.185600 1.856100
10.212200 2.445300
10.238800 3.356800
10.265400 3.890500
10.292000 3.654300
10.318600 3.053300
10.345100 2.844900
10.371700 3.302600
10.398300 3.760400
10.424900 3.550300
10.451500 2.993400
10.478100 2.748600
10.504600 2.837000
10.531200 2.970600
10.557800 3.132300
10.584400 3.515700
10.611000 4.014900
10.637600 4.105500
10.664200 3.729500
10.690700 3.492800
10.717300 3.553900
10.743900 3.539100
10.770500 3.468600
10.797100 3.470000
10.823700 3.340200
10.850200 3.002500
10.876800 2.527600
10.903400 2.052400
10.930000 1.964300
10.956600 2.432500
10.983200 3.061100
11.009800 3.362200
11.036300 3.104600
11.062900 2.426200
11.089500 1.812900
11.116100 1.701000
11.142700 2.077400
11.169300 2.622800
11.195800 2.980800
11.222400 2.833900
11.249000 2.313100
11.275600 1.943900
11.302200 1.925700
11.328800 2.091500
11.355300 2.231200
11.381900 2.289600
11.408500 2.456700
11.435100 2.834400
11.461700 3.198900
11.488300 3.351400
11.514900 3.276500
11.541400 3.041800
11.568000 2.752500
11.594600 2.534500
11.621200 2.550600
11.647800 2.820900
11.674400 3.162900
11.700900 3.310200
11.727500 3.204100
11.754100 3.057900
11.780700 2.998700
11.807300 2.914100
11.833900 2.659000
11.860500 2.468100
11.887000 2.670300
11.913600 2.934100
11.940200 2.826500
11.966800 2.585000
11.993400 2.496800
12.020000 2.412000
12.046500 2.222500
12.073100 2.141500
12.099700 2.308800
12.126300 2.675100
12.152900 3.118700
12.179500 3.459500
12.206000 3.720700
12.232600 3.818100
12.259200 3.397600
12.285800 2.571100
12.312400 2.059800
12.339000 2.266200
12.365600 2.708800
12.392100 2.811900
12.418700 2.719000
12.445300 2.900300
12.471900 3.265200
12.498500 3.268600
12.525100 2.837900
12.551600 2.435200
12.578200 2.262300
12.604800 2.110800
12.631400 1.980900
12.658000 2.039700
12.684600 2.126600
12.711200 2.041800
12.737700 1.873100
12.764300 1.799100
12.790900 1.932800
12.817500 2.353100
12.844100 3.078200
12.870700 3.896000
12.897200 4.467000
12.923800 4.832200
12.950400 5.075400
12.977000 4.974900
13.003600 4.565000
13.030200 3.975400
13.056700 3.216800
13.083300 2.412500
13.109900 1.798600
13.136500 1.582600
13.163100 1.753600
13.189700 2.157500
13.216300 2.715300
13.242800 3.294500
13.269400 3.607700
13.296000 3.573700
13.322600 3.432000
13.349200 3.377100
13.375800 3.426900
13.402300 3.536900
13.428900 3.583500
13.455500 3.414000
13.482100 3.068000
13.508700 2.973800
13.535300 3.526700
13.561900 4.228800
13.588400 4.186200
13.615000 3.407700
13.641600 2.632600
13.668200 2.455400
13.694800 2.898900
13.721400 3.369900
13.747900 3.414600
13.774500 3.330700
13.801100 3.395600
13.827700 3.488800
13.854300 3.585200
13.880900 3.649600
13.907400 3.472100
13.934000 3.041400
13.960600 2.623500
13.987200 2.363800
14.013800 2.359300
14.040400 2.731700
14.067000 3.259600
14.093500 3.513600
14.120100 3.378200
14.146700 3.082700
14.173300 2.959100
14.199900 3.215700
14.226500 3.669100
14.253000 3.970800
14.279600 4.045200
14.306200 4.018600
14.332800 3.843000
14.359400 3.499300
14.386000 3.290600
14.412600 3.363300
14.439100 3.457500
14.465700 3.559400
14.492300 3.926500
14.518900 4.399800
14.545500 4.658900
14.572100 4.525300
14.598600 4.032300
14.625200 3.642700
14.651800 3.586700
14.678400 3.566600
14.705000 3.465400
14.731600 3.402300
14.758100 3.288400
14.784700 2.926500
14.811300 2.374700
14.837900 1.952300
14.864500 1.904700
14.891100 2.176600
14.917700 2.539300
14.944200 2.849000
14.970800 3.122400
14.997400 3.388500
15.024000 3.535200
15.050600 3.535600
15.077200 3.471800
15.103700 3.347900
15.130300 3.327300
15.156900 3.589400
15.183500 3.885400
15.210100 3.785000
15.236700 3.437900
15.263300 3.269500
15.289800 3.216600
15.316400 3.169700
15.343000 3.280800
15.369600 3.621300
15.396200 3.969500
15.422800 4.045400
15.449300 3.975100
15.475900 3.967400
15.502500 3.966700
15.529100 4.043900
15.555700 4.178800
15.582300 4.074100
15.608800 3.734000
15.635400 3.286900
15.662000 2.790200
15.688600 2.399400
15.715200 2.216600
15.741800 2.304200
15.768400 2.714100
15.794900 3.337600
15.821500 3.923600
15.848100 4.076200
15.874700 3.414200
15.901300 2.387300
15.927900 1.888800
15.954400 2.040500
15.981000 2.500500
16.007600 3.084900
16.034200 3.678400
16.060800 4.002800
16.087400 3.808100
16.114000 3.331200
16.140500 3.232400
16.167100 3.699800
16.193700 3.947600
16.220300 3.728600
16.246900 3.892500
16.273500 4.557100
16.300000 4.900500
16.326600 4.507800
16.353200 3.726600
16.379800 3.139600
16.406400 2.976200
16.433000 3.070900
16.459500 3.136600
16.486100 3.018700
16.512700 2.814000
16.539300 2.751700
16.565900 2.892200
16.592500 3.236600
16.619100 3.736200
16.645600 3.984000
16.672200 3.793300
16.698800 3.404100
16.725400 2.965200
16.752000 2.828300
16.778600 3.392800
16.805100 4.338900
16.831700 4.955900
16.858300 4.869000
16.884900 4.221400
16.911500 3.502100
16.938100 3.093700
16.964700 2.865500
16.991200 2.527300
17.017800 2.181100
17.044400 2.044400
17.071000 2.129500
17.097600 2.363700
17.124200 2.652600
17.150700 2.946900
17.177300 3.211200
17.203900 3.225000
17.230500 2.891800
17.257100 2.663100
17.283700 2.978400
17.310200 3.649700
17.336800 4.286900
17.363400 4.685000
17.390000 4.829900
17.416600 4.930500
17.443200 4.841800
17.469800 4.164800
17.496300 3.217400
17.522900 2.674500
17.549500 2.621000
17.576100 2.686900
17.602700 2.667200
17.629300 2.721200
17.655800 2.968800
17.682400 3.233500
17.709000 3.550200
17.735600 4.122400
17.762200 4.602500
17.788800 4.541300
17.815400 4.082500
17.841900 3.645700
17.868500 3.522400
17.895100 3.653700
17.921700 3.793900
17.948300 3.975400
17.974900 4.224500
18.001400 4.109700
18.028000 3.573000
18.054600 3.318500
18.081200 3.565100
18.107800 3.653700
18.134400 3.245600
18.160900 2.904500
18.187500 3.235500
18.214100 4.071700
18.240700 4.636200
18.267300 4.526400
18.293900 4.077700
18.320500 3.627000
18.347000 3.282600
18.373600 3.221000
18.400200 3.411000
18.426800 3.537800
18.453400 3.590100
18.480000 3.766300
18.506500 3.957800
18.533100 4.030600
18.559700 4.119200
18.586300 4.367900
18.612900 4.560800
18.639500 4.318800
18.666100 3.774500
18.692600 3.438400
18.719200 3.488300
18.745800 3.767000
18.772400 4.008600
18.799000 3.891200
18.825600 3.388700
18.852100 3.030100
18.878700 3.326500
18.905300 4.091100
18.931900 4.634600
18.958500 4.382800
18.985100 3.661600
19.011600 3.317500
19.038200 3.280500
19.064800 2.985600
19.091400 2.666300
19.118000 2.885100
19.144600 3.493900
19.171200 3.956500
19.197700 4.295600
19.224300 4.893400
19.250900 5.605200
19.277500 5.816700
19.304100 5.268700
19.330700 4.417600
19.357200 3.900400
19.383800 3.742200
19.410400 3.587700
19.437000 3.497800
19.463600 3.577800
19.490200 3.420800
19.516800 2.790000
19.543300 2.237600
19.569900 2.453800
19.596500 3.260200
19.623100 3.772500
19.649700 3.617500
19.676300 3.323000
19.702800 3.368800
19.729400 3.836300
19.756000 4.457500
19.782600 4.588600
19.809200 4.140800
19.835800 3.786500
19.862300 3.750800
19.888900 3.509100
19.915500 2.994500
19.942100 2.746200
19.968700 2.834800
19.995300 3.148200
20.021900 3.728600
20.048400 4.107100
20.075000 3.678600
20.101600 2.841100
20.128200 2.565000
20.154800 3.104200
20.181400 3.762400
20.207900 4.035900
20.234500 4.312500
20.261100 4.693100
20.287700 4.747300
20.314300 4.588000
20.340900 4.429600
20.367500 4.092600
20.394000 3.743800
20.420600 3.779600
20.447200 3.960000
20.473800 3.727400
20.500400 3.186900
20.527000 2.947800
20.553500 3.290500
20.580100 3.969600
20.606700 4.473100
20.633300 4.414100
20.659900 3.806400
20.686500 3.176800
20.713000 3.152800
20.739600 3.547600
20.766200 3.772500
20.792800 3.858400
20.819400 3.888200
20.846000 3.552600
20.872600 3.031900
20.899100 2.897000
20.925700 3.073400
20.952300 3.151800
20.978900 3.196600
21.005500 3.474000
21.032100 3.929000
21.058600 4.199200
21.085200 4.329100
21.111800 4.781200
21.138400 5.340600
21.165000 5.299700
21.191600 4.454200
21.218200 3.332500
21.244700 2.762900
21.271300 3.102300
21.297900 3.986200
21.324500 4.783600
21.351100 5.080900
21.377700 4.891400
21.404200 4.628800
21.430800 4.591300
21.457400 4.479400
21.484000 4.124800
21.510600 3.892600
21.537200 3.845600
21.563700 3.773600
21.590300 3.697200
21.616900 3.432000
21.643500 2.801500
21.670100 2.373900
21.696700 2.680600
21.723300 3.302900
21.749800 3.786700
21.776400 4.338600
21.803000 4.932000
21.829600 5.200500
21.856200 5.148400
21.882800 5.124200
21.909300 5.248600
21.935900 5.257200
21.962500 5.012300
21.989100 4.568200
22.015700 3.966200
22.042300 3.484400
22.068900 3.369000
22.095400 3.498400
22.122000 3.914400
22.148600 4.554000
22.175200 4.958300
22.201800 5.238800
22.228400 5.670000
22.254900 5.790500
22.281500 5.243500
22.308100 4.400000
22.334700 3.696000
22.361300 3.131800
22.387900 2.720300
22.414400 2.681000
22.441000 2.945600
22.467600 3.301800
22.494200 3.764100
22.520800 4.152100
22.547400 4.002400
22.574000 3.267500
22.600500 2.506400
22.627100 2.182300
22.653700 2.190500
22.680300 2.337300
22.706900 2.744700
22.733500 3.384600
22.760000 3.795500
22.786600 3.621300
22.813200 3.158600
22.839800 2.813400
22.866400 2.465900
22.893000 2.093600
22.919600 1.870300
22.946100 1.709700
22.972700 1.662300
22.999300 1.882000
23.025900 2.068100
23.052500 1.943500
23.079100 1.703300
23.105600 1.512100
23.132200 1.415100
23.158800 1.461900
23.185400 1.510100
23.212000 1.370700
23.238600 1.169600
23.265100 1.246000
23.291700 1.700700
23.318300 2.193600
23.344900 2.387400
23.371500 2.269900
23.398100 1.940400
23.424700 1.571000
23.451200 1.386200
23.477800 1.317400
23.504400 1.105100
23.531000 0.865300
23.557600 0.900300
23.584200 1.088000
23.610700 1.018200
23.637300 0.637600
23.663900 0.294100
23.690500 0.205800
23.717100 0.304300
23.743700 0.465800
23.770300 0.583800
23.796800 0.572900
23.823400 0.540800
23.850000 0.644400
23.876600 0.804000
23.903200 0.907600
23.929800 0.940900
23.956300 0.891400
23.982900 0.809300
24.009500 0.732200
24.036100 0.575600
24.062700 0.347800
24.089300 0.187600
24.115800 0.123900
24.142400 0.085100
24.169000 0.046000
24.195600 0.036300
24.222200 0.080300
24.248800 0.152300
24.275400 0.173400
24.301900 0.116700
24.328500 0.054100
24.355100 0.044800
24.381700 0.078900
24.408300 0.123600
24.434900 0.203500
24.461400 0.396200
24.488000 0.670200
24.514600 0.825100
24.541200 0.743100
24.567800 0.544700
24.594400 0.345800
24.621000 0.169700
24.647500 0.055300
24.674100 0.011000
24.700700 0.001300
24.727300 0.000100
24.753900 0.000000
24.780500 0.000000
24.807000 0.000000
24.833600 0.000000
24.860200 0.000000
24.886800 0.000000
24.913400 0.000000
24.940000 0.000000
24.966500 0.000000
24.993100 0.000000
25.019700 0.000000
25.046300 0.000000
25.072900 0.000000
25.099500 0.000000
25.126100 0.000000
25.152600 0.000000
25.179200 0.000000
25.205800 0.000000
25.232400 0.000000
25.259000 0.000000
25.285600 0.000000
25.312100 0.000000
25.338700 0.000000
25.365300 0.000000
25.391900 0.000000
25.418500 0.000000
25.445100 0.000000
25.471700 0.000000
25.498200 0.000000
25.524800 0.000000
25.551400 0.000000
25.578000 0.000000
25.604600 0.000000
25.631200 0.000000
25.657700 0.000000
25.684300 0.000000
25.710900 0.000000
25.737500 0.000000
25.764100 0.000000
25.790700 0.000000
25.817200 0.000000
25.843800 0.000000
25.870400 0.000000
25.897000 0.000000
25.923600 0.000000
25.950200 0.000000
25.976800 0.000000
26.003300 0.000000
26.029900 0.000000
26.056500 0.000000
26.083100 0.000000
26.109700 0.000000
26.136300 0.000000
26.162800 0.000000
26.189400 0.000000
26.216000 0.000000
26.242600 0.000000
26.269200 0.000000
26.295800 0.000000
26.322400 0.000000
26.348900 0.000000
26.375500 0.000000
26.402100 0.000000
26.428700 0.000000
26.455300 0.000000
26.481900 0.000000
26.508400 0.000000
26.535000 0.000000
26.561600 0.000000
26.588200 0.000000
26.614800 0.000000
26.641400 0.000000
26.668000 0.000000
26.694500 0.000000
26.721100 0.000000
26.747700 0.000000
26.774300 0.000000
26.800900 0.000000
26.827500 0.000000
26.854000 0.000000
26.880600 0.000000
26.907200 0.000000
26.933800 0.000000
26.960400 0.000000
26.987000 0.000000
e
