set title 'mp-1078721 - Density of States'
set xlabel 'Energy (eV)'
set ylabel 'DOS (states/eV)'
set grid
set xrange [-10:10]
set yrange [0:456.380]
set xzeroaxis lt -1
set terminal png size 800,600
set output 'mp-1078721_dos_gnuplot.png'
plot '-' using 1:2 with lines title 'DOS'
-9.438100 0.000000
-9.421700 0.000000
-9.405200 0.000000
-9.388800 0.000000
-9.372400 0.000000
-9.356000 0.000000
-9.339600 0.000000
-9.323200 0.000000
-9.306700 0.000000
-9.290300 0.000000
-9.273900 0.000000
-9.257500 0.000000
-9.241100 0.000000
-9.224700 0.000000
-9.208200 0.000000
-9.191800 0.000000
-9.175400 0.000000
-9.159000 0.000000
-9.142600 0.000000
-9.126200 0.000000
-9.109700 0.000000
-9.093300 0.000000
-9.076900 0.000000
-9.060500 0.000000
-9.044100 0.000000
-9.027700 0.000000
-9.011200 0.000000
-8.994800 0.000000
-8.978400 0.000000
-8.962000 0.000000
-8.945600 0.000000
-8.929200 0.000000
-8.912800 0.000000
-8.896300 0.000000
-8.879900 0.000000
-8.863500 0.000000
-8.847100 0.000000
-8.830700 0.000000
-8.814300 0.000000
-8.797800 0.000000
-8.781400 0.000000
-8.765000 0.000000
-8.748600 0.000000
-8.732200 0.000000
-8.715800 0.000000
-8.699300 0.000000
-8.682900 0.000000
-8.666500 0.000000
-8.650100 0.000000
-8.633700 0.000000
-8.617300 0.000000
-8.600800 0.000000
-8.584400 0.000000
-8.568000 0.000000
-8.551600 0.000000
-8.535200 0.000000
-8.518800 0.000000
-8.502300 0.000000
-8.485900 0.000000
-8.469500 0.000000
-8.453100 0.000000
-8.436700 0.000000
-8.420300 0.000000
-8.403800 0.000000
-8.387400 0.000000
-8.371000 0.000000
-8.354600 0.000000
-8.338200 0.000000
-8.321800 0.000000
-8.305400 0.000000
-8.288900 0.000000
-8.272500 0.000000
-8.256100 0.000000
-8.239700 0.000000
-8.223300 0.000000
-8.206900 0.000000
-8.190400 0.000000
-8.174000 0.000000
-8.157600 0.000000
-8.141200 0.000000
-8.124800 0.000000
-8.108400 0.000000
-8.091900 0.000000
-8.075500 0.000000
-8.059100 0.000000
-8.042700 0.000000
-8.026300 0.000000
-8.009900 0.000000
-7.993400 0.000000
-7.977000 0.000000
-7.960600 0.000000
-7.944200 1.389200
-7.927800 144.913700
-7.911400 117.225800
-7.894900 414.891300
-7.878500 253.432600
-7.862100 50.893100
-7.845700 66.956900
-7.829300 62.268500
-7.812900 91.745200
-7.796400 0.000000
-7.780000 0.000000
-7.763600 0.000000
-7.747200 0.000000
-7.730800 0.000000
-7.714400 0.000000
-7.698000 0.000000
-7.681500 0.000000
-7.665100 0.000000
-7.648700 0.000000
-7.632300 0.000000
-7.615900 0.000000
-7.599500 0.000000
-7.583000 0.000000
-7.566600 0.000000
-7.550200 0.000000
-7.533800 0.000000
-7.517400 0.000000
-7.501000 0.000000
-7.484500 0.000000
-7.468100 0.000000
-7.451700 0.000000
-7.435300 0.000000
-7.418900 0.000000
-7.402500 0.000000
-7.386000 0.000000
-7.369600 0.000000
-7.353200 0.000000
-7.336800 0.000000
-7.320400 0.000000
-7.304000 0.000000
-7.287500 0.000000
-7.271100 0.000000
-7.254700 0.000000
-7.238300 0.000000
-7.221900 0.000000
-7.205500 0.000000
-7.189000 0.000000
-7.172600 0.000000
-7.156200 0.000000
-7.139800 0.000000
-7.123400 0.000000
-7.107000 0.000000
-7.090500 0.000000
-7.074100 0.000000
-7.057700 0.000000
-7.041300 0.000000
-7.024900 0.000000
-7.008500 0.000000
-6.992100 0.000000
-6.975600 0.000000
-6.959200 0.000000
-6.942800 0.000000
-6.926400 0.000000
-6.910000 0.000000
-6.893600 0.000000
-6.877100 0.000000
-6.860700 0.000000
-6.844300 0.000000
-6.827900 0.000000
-6.811500 0.000000
-6.795100 0.000000
-6.778600 0.000000
-6.762200 0.000000
-6.745800 0.000000
-6.729400 0.000000
-6.713000 0.000000
-6.696600 0.000000
-6.680100 0.000000
-6.663700 0.000000
-6.647300 0.000000
-6.630900 0.000000
-6.614500 0.000000
-6.598100 0.000000
-6.581600 0.000000
-6.565200 0.000000
-6.548800 0.000000
-6.532400 0.000000
-6.516000 0.000000
-6.499600 0.000000
-6.483100 0.000000
-6.466700 0.000000
-6.450300 0.000000
-6.433900 0.000000
-6.417500 0.000000
-6.401100 0.000000
-6.384700 0.000000
-6.368200 0.000000
-6.351800 0.000000
-6.335400 0.000000
-6.319000 0.000000
-6.302600 0.000000
-6.286200 0.000000
-6.269700 0.000000
-6.253300 0.000000
-6.236900 0.000000
-6.220500 0.000000
-6.204100 0.000000
-6.187700 0.000000
-6.171200 0.000000
-6.154800 0.000000
-6.138400 0.000000
-6.122000 0.000000
-6.105600 0.000000
-6.089200 0.000000
-6.072700 0.000000
-6.056300 0.000000
-6.039900 0.000000
-6.023500 0.000000
-6.007100 0.000000
-5.990700 0.000000
-5.974200 0.000000
-5.957800 0.000000
-5.941400 0.000000
-5.925000 0.000000
-5.908600 0.000000
-5.892200 0.000000
-5.875700 0.000000
-5.859300 0.000000
-5.842900 0.000000
-5.826500 0.000000
-5.810100 0.000000
-5.793700 0.000000
-5.777300 0.000000
-5.760800 0.000000
-5.744400 0.000000
-5.728000 0.000000
-5.711600 0.000000
-5.695200 0.000000
-5.678800 0.000000
-5.662300 0.000000
-5.645900 0.000000
-5.629500 0.000000
-5.613100 0.000000
-5.596700 0.000000
-5.580300 0.000000
-5.563800 0.000000
-5.547400 0.000000
-5.531000 0.000000
-5.514600 0.000000
-5.498200 0.000000
-5.481800 0.000000
-5.465300 0.000000
-5.448900 0.000000
-5.432500 0.000000
-5.416100 0.000000
-5.399700 0.000000
-5.383300 0.000000
-5.366800 0.000000
-5.350400 0.000000
-5.334000 0.000000
-5.317600 0.000000
-5.301200 0.000000
-5.284800 0.000000
-5.268300 0.000000
-5.251900 0.000000
-5.235500 0.000000
-5.219100 0.000000
-5.202700 0.000000
-5.186300 0.000000
-5.169800 0.000000
-5.153400 0.000000
-5.137000 0.000000
-5.120600 0.000000
-5.104200 0.000000
-5.087800 0.000000
-5.071400 0.000000
-5.054900 0.000000
-5.038500 0.000000
-5.022100 0.000000
-5.005700 0.000000
-4.989300 0.000000
-4.972900 0.000000
-4.956400 0.000000
-4.940000 0.000000
-4.923600 0.000000
-4.907200 0.000000
-4.890800 0.000000
-4.874400 0.000000
-4.857900 0.000000
-4.841500 0.000000
-4.825100 0.000000
-4.808700 0.000000
-4.792300 0.000000
-4.775900 0.000000
-4.759400 0.000000
-4.743000 0.000000
-4.726600 0.000000
-4.710200 0.000000
-4.693800 0.000000
-4.677400 0.000000
-4.660900 0.000000
-4.644500 0.000000
-4.628100 0.000000
-4.611700 0.000000
-4.595300 0.000000
-4.578900 0.000000
-4.562400 0.000000
-4.546000 0.000000
-4.529600 0.000000
-4.513200 0.000000
-4.496800 0.000000
-4.480400 0.000000
-4.464000 0.000000
-4.447500 0.000000
-4.431100 0.000000
-4.414700 0.000000
-4.398300 0.000000
-4.381900 0.000000
-4.365500 0.000000
-4.349000 0.000000
-4.332600 0.000000
-4.316200 0.000000
-4.299800 0.000000
-4.283400 0.000000
-4.267000 0.000000
-4.250500 0.000000
-4.234100 0.000000
-4.217700 0.000000
-4.201300 0.000000
-4.184900 0.000000
-4.168500 0.000000
-4.152000 0.000000
-4.135600 0.000000
-4.119200 0.000000
-4.102800 0.000000
-4.086400 0.000000
-4.070000 0.000000
-4.053500 0.000000
-4.037100 0.000000
-4.020700 0.000000
-4.004300 0.000000
-3.987900 0.000000
-3.971500 0.000000
-3.955000 0.000000
-3.938600 0.000000
-3.922200 0.000000
-3.905800 0.000000
-3.889400 0.000000
-3.873000 0.000000
-3.856600 0.000000
-3.840100 0.000000
-3.823700 0.000000
-3.807300 0.000000
-3.790900 0.000000
-3.774500 0.000000
-3.758100 0.000000
-3.741600 0.000000
-3.725200 0.000000
-3.708800 0.000000
-3.692400 0.000000
-3.676000 0.000000
-3.659600 0.000000
-3.643100 0.000000
-3.626700 0.000000
-3.610300 0.000000
-3.593900 0.000000
-3.577500 0.000000
-3.561100 0.000000
-3.544600 0.000000
-3.528200 0.000000
-3.511800 0.000000
-3.495400 0.000000
-3.479000 0.000000
-3.462600 0.000000
-3.446100 0.000000
-3.429700 0.000000
-3.413300 0.000000
-3.396900 0.000000
-3.380500 0.000000
-3.364100 0.000000
-3.347600 0.000000
-3.331200 0.000000
-3.314800 0.000000
-3.298400 0.000000
-3.282000 0.000000
-3.265600 0.000000
-3.249100 0.000000
-3.232700 0.000000
-3.216300 0.000000
-3.199900 0.000000
-3.183500 0.000000
-3.167100 0.000000
-3.150700 0.000000
-3.134200 0.000000
-3.117800 0.000000
-3.101400 0.000000
-3.085000 0.000000
-3.068600 0.000000
-3.052200 0.000000
-3.035700 0.000000
-3.019300 0.000000
-3.002900 0.000000
-2.986500 0.000000
-2.970100 0.000000
-2.953700 0.000000
-2.937200 0.000000
-2.920800 0.000000
-2.904400 0.000000
-2.888000 0.000000
-2.871600 0.000000
-2.855200 0.000000
-2.838700 0.000000
-2.822300 0.000000
-2.805900 0.000000
-2.789500 0.000000
-2.773100 0.000000
-2.756700 0.000000
-2.740200 0.000000
-2.723800 0.000000
-2.707400 0.000000
-2.691000 0.000000
-2.674600 0.000000
-2.658200 0.000000
-2.641700 0.000000
-2.625300 0.000000
-2.608900 0.000000
-2.592500 0.000000
-2.576100 0.000000
-2.559700 0.000000
-2.543300 0.000000
-2.526800 0.000000
-2.510400 0.000000
-2.494000 0.000000
-2.477600 0.000000
-2.461200 0.000000
-2.444800 0.000000
-2.428300 0.000000
-2.411900 0.000000
-2.395500 0.000000
-2.379100 0.000000
-2.362700 0.000000
-2.346300 0.000000
-2.329800 0.000000
-2.313400 0.000000
-2.297000 0.000000
-2.280600 0.000000
-2.264200 0.004200
-2.247800 0.035400
-2.231300 0.096900
-2.214900 0.169400
-2.198500 0.194800
-2.182100 0.202700
-2.165700 0.220100
-2.149300 0.242900
-2.132800 0.267000
-2.116400 0.291200
-2.100000 0.315400
-2.083600 0.337600
-2.067200 0.349600
-2.050800 0.358600
-2.034300 0.372200
-2.017900 0.386700
-2.001500 0.401200
-1.985100 0.415500
-1.968700 0.427200
-1.952300 0.440300
-1.935900 0.454600
-1.919400 0.469100
-1.903000 0.484400
-1.886600 0.500300
-1.870200 0.515600
-1.853800 0.527400
-1.837400 0.539000
-1.820900 0.551000
-1.804500 0.563600
-1.788100 0.578500
-1.771700 0.599700
-1.755300 0.619400
-1.738900 0.636100
-1.722400 0.650200
-1.706000 0.662300
-1.689600 0.698700
-1.673200 0.669300
-1.656800 0.678500
-1.640400 0.687400
-1.623900 0.695300
-1.607500 0.702100
-1.591100 0.707500
-1.574700 0.710500
-1.558300 0.711700
-1.541900 0.712200
-1.525400 0.713200
-1.509000 0.724000
-1.492600 0.733400
-1.476200 0.729100
-1.459800 0.735400
-1.443400 0.788300
-1.426900 0.824000
-1.410500 0.822600
-1.394100 0.832900
-1.377700 0.850500
-1.361300 0.864400
-1.344900 0.878200
-1.328400 0.892900
-1.312000 0.898400
-1.295600 0.891900
-1.279200 0.903800
-1.262800 0.918600
-1.246400 0.935900
-1.230000 0.955000
-1.213500 0.975100
-1.197100 0.994500
-1.180700 1.013200
-1.164300 1.026900
-1.147900 1.033400
-1.131500 1.040300
-1.115000 1.051700
-1.098600 1.064500
-1.082200 1.078800
-1.065800 1.093400
-1.049400 1.108700
-1.033000 1.124400
-1.016500 1.140700
-1.000100 1.158500
-0.983700 1.176500
-0.967300 1.195400
-0.950900 1.215200
-0.934500 1.235600
-0.918000 1.256200
-0.901600 1.277200
-0.885200 1.298400
-0.868800 1.317200
-0.852400 1.336400
-0.836000 1.359800
-0.819500 1.381300
-0.803100 1.404500
-0.786700 1.429900
-0.770300 1.454100
-0.753900 1.478800
-0.737500 1.504000
-0.721000 1.529800
-0.704600 1.557900
-0.688200 1.588900
-0.671800 1.620300
-0.655400 1.653200
-0.639000 1.688500
-0.622600 1.725700
-0.606100 1.765100
-0.589700 1.807400
-0.573300 1.852500
-0.556900 1.902200
-0.540500 1.955100
-0.524100 2.011200
-0.507600 2.068500
-0.491200 2.146300
-0.474800 2.265200
-0.458400 2.408200
-0.442000 2.639800
-0.425600 2.871300
-0.409100 2.961000
-0.392700 2.986200
-0.376300 3.054300
-0.359900 2.949300
-0.343500 2.876200
-0.327100 2.807300
-0.310600 2.744900
-0.294200 2.718700
-0.277800 2.726100
-0.261400 2.757900
-0.245000 2.798800
-0.228600 2.856500
-0.212100 2.961600
-0.195700 3.131000
-0.179300 3.397500
-0.162900 4.217400
-0.146500 7.539600
-0.130100 6.073600
-0.113600 5.009600
-0.097200 3.357400
-0.080800 2.824600
-0.064400 3.413900
-0.048000 4.736300
-0.031600 7.876500
-0.015200 6.943800
0.001300 5.815400
0.017700 5.220900
0.034100 4.585800
0.050500 4.190700
0.066900 3.905900
0.083300 3.569400
0.099800 2.924600
0.116200 2.290000
0.132600 1.172200
0.149000 0.940300
0.165400 0.777400
0.181800 0.269000
0.198300 0.000000
0.214700 0.000000
0.231100 0.000000
0.247500 0.000000
0.263900 0.000000
0.280300 0.000000
0.296800 0.000000
0.313200 0.000000
0.329600 0.000000
0.346000 0.000000
0.362400 0.000000
0.378800 0.000000
0.395300 0.000000
0.411700 0.000000
0.428100 0.000000
0.444500 0.000000
0.460900 0.000000
0.477300 0.000000
0.493800 0.000000
0.510200 0.000000
0.526600 0.000000
0.543000 0.000000
0.559400 0.000000
0.575800 0.000000
0.592300 0.000000
0.608700 0.000000
0.625100 0.000000
0.641500 0.000000
0.657900 0.000000
0.674300 0.000000
0.690700 0.000000
0.707200 0.000000
0.723600 0.000000
0.740000 0.000000
0.756400 0.000000
0.772800 0.000000
0.789200 0.000000
0.805700 0.000000
0.822100 0.000000
0.838500 0.000000
0.854900 0.000000
0.871300 0.000000
0.887700 0.000000
0.904200 0.000000
0.920600 0.000000
0.937000 0.001600
0.953400 0.013800
0.969800 0.038000
0.986200 0.079000
1.002700 0.109700
1.019100 0.133500
1.035500 0.157300
1.051900 0.182100
1.068300 0.203200
1.084700 0.236300
1.101200 0.328500
1.117600 0.469500
1.134000 0.630400
1.150400 0.827200
1.166800 1.072700
1.183200 1.394800
1.199700 1.527900
1.216100 1.388200
1.232500 1.485600
1.248900 1.493300
1.265300 1.458800
1.281700 1.540600
1.298100 1.665000
1.314600 1.876900
1.331000 2.163900
1.347400 2.308500
1.363800 2.236200
1.380200 2.311300
1.396600 2.427100
1.413100 2.535400
1.429500 2.613900
1.445900 2.670500
1.462300 2.776600
1.478700 2.891100
1.495100 3.308300
1.511600 4.341400
1.528000 5.393100
1.544400 6.601400
1.560800 6.657200
1.577200 6.173000
1.593600 5.787900
1.610100 5.600200
1.626500 5.479900
1.642900 5.616100
1.659300 5.859900
1.675700 6.563400
1.692100 6.218100
1.708600 5.968400
1.725000 5.501700
1.741400 5.845100
1.757800 7.147500
1.774200 8.065100
1.790600 8.927400
1.807100 9.203100
1.823500 8.819100
1.839900 8.803400
1.856300 8.755600
1.872700 7.787100
1.889100 6.416000
1.905500 5.833300
1.922000 5.186100
1.938400 4.389400
1.954800 3.813800
1.971200 3.497300
1.987600 2.975500
2.004000 2.586700
2.020500 2.339300
2.036900 2.138300
2.053300 2.175900
2.069700 2.516000
2.086100 3.358100
2.102500 4.914500
2.119000 8.979300
2.135400 12.179600
2.151800 11.347900
2.168200 10.693400
2.184600 11.790900
2.201000 10.951300
2.217500 10.251200
2.233900 11.024300
2.250300 11.283800
2.266700 10.520400
2.283100 10.119600
2.299500 10.380700
2.316000 10.200600
2.332400 10.084600
2.348800 10.114500
2.365200 10.434000
2.381600 12.656900
2.398000 13.956000
2.414500 16.405200
2.430900 17.423700
2.447300 21.265700
2.463700 16.593000
2.480100 15.572300
2.496500 21.312200
2.513000 16.392600
2.529400 16.629700
2.545800 16.530800
2.562200 16.679600
2.578600 17.950600
2.595000 18.803300
2.611400 20.225800
2.627900 19.447500
2.644300 19.751400
2.660700 19.308100
2.677100 19.987100
2.693500 22.283900
2.709900 21.483400
2.726400 20.700900
2.742800 20.858900
2.759200 23.479600
2.775600 19.129500
2.792000 17.947100
2.808400 19.314400
2.824900 18.732800
2.841300 18.358300
2.857700 16.715100
2.874100 15.700400
2.890500 15.096300
2.906900 16.260300
2.923400 16.922200
2.939800 17.045100
2.956200 17.929900
2.972600 16.346300
2.989000 14.672100
3.005400 14.003100
3.021900 14.063100
3.038300 12.417800
3.054700 11.711600
3.071100 11.706900
3.087500 13.158800
3.103900 15.557100
3.120400 14.604000
3.136800 14.093700
3.153200 11.854000
3.169600 13.608100
3.186000 12.455200
3.202400 13.430600
3.218800 14.342700
3.235300 13.205200
3.251700 10.120800
3.268100 9.434400
3.284500 8.773200
3.300900 8.979300
3.317300 8.328600
3.333800 9.137200
3.350200 10.405200
3.366600 12.028300
3.383000 13.077800
3.399400 16.068900
3.415800 15.302100
3.432300 15.806600
3.448700 16.899500
3.465100 18.044900
3.481500 19.362200
3.497900 18.387000
3.514300 17.562600
3.530800 19.006300
3.547200 25.742600
3.563600 20.135100
3.580000 16.102800
3.596400 17.499800
3.612800 18.842700
3.629300 18.272700
3.645700 16.832600
3.662100 15.810700
3.678500 15.665600
3.694900 13.926600
3.711300 11.874800
3.727800 11.406400
3.744200 11.577200
3.760600 14.216200
3.777000 15.932800
3.793400 16.646700
3.809800 16.188600
3.826200 13.806600
3.842700 14.211300
3.859100 13.821500
3.875500 14.965300
3.891900 15.885500
3.908300 14.321800
3.924700 11.771400
3.941200 10.247000
3.957600 11.302700
3.974000 12.451600
3.990400 12.195200
4.006800 11.274500
4.023200 10.937900
4.039700 11.751000
4.056100 12.748500
4.072500 12.655000
4.088900 10.730600
4.105300 9.799800
4.121700 11.832400
4.138200 12.298900
4.154600 11.764900
4.171000 12.111400
4.187400 11.648900
4.203800 12.232500
4.220200 11.994000
4.236700 12.114000
4.253100 12.150400
4.269500 12.370100
4.285900 12.317100
4.302300 12.278200
4.318700 12.423100
4.335200 13.769500
4.351600 14.216600
4.368000 12.367700
4.384400 11.338300
4.400800 10.978100
4.417200 11.229400
4.433700 11.959900
4.450100 12.164200
4.466500 13.678000
4.482900 15.793600
4.499300 15.874200
4.515700 15.375500
4.532100 17.244100
4.548600 16.762200
4.565000 15.117000
4.581400 13.679900
4.597800 15.217700
4.614200 17.870000
4.630600 18.010500
4.647100 19.829600
4.663500 20.462600
4.679900 21.911600
4.696300 23.000200
4.712700 21.405400
4.729100 16.814600
4.745600 18.299000
4.762000 21.786100
4.778400 24.149400
4.794800 23.606600
4.811200 23.606300
4.827600 21.372800
4.844100 21.659400
4.860500 21.792700
4.876900 22.941800
4.893300 25.547600
4.909700 25.302900
4.926100 23.419700
4.942600 21.348100
4.959000 21.199400
4.975400 17.814000
4.991800 14.951800
5.008200 13.961300
5.024600 12.460700
5.041100 12.748900
5.057500 12.838100
5.073900 13.686500
5.090300 14.867000
5.106700 14.001000
5.123100 13.406400
5.139500 15.342400
5.156000 16.608000
5.172400 17.116100
5.188800 15.326300
5.205200 14.501800
5.221600 16.333800
5.238000 17.613600
5.254500 16.090100
5.270900 14.677500
5.287300 14.912900
5.303700 15.150400
5.320100 16.593000
5.336500 16.174400
5.353000 13.262800
5.369400 12.082100
5.385800 12.485500
5.402200 12.655400
5.418600 12.484300
5.435000 14.512700
5.451500 13.398500
5.467900 14.161600
5.484300 12.088600
5.500700 10.590900
5.517100 9.741400
5.533500 10.650800
5.550000 11.766700
5.566400 11.859300
5.582800 11.504300
5.599200 10.176500
5.615600 10.413300
5.632000 9.511200
5.648500 8.911600
5.664900 8.780000
5.681300 9.522700
5.697700 9.632800
5.714100 9.237900
5.730500 8.678200
5.746900 8.381200
5.763400 8.890200
5.779800 8.871100
5.796200 8.987500
5.812600 9.314600
5.829000 9.319700
5.845400 10.080000
5.861900 11.440700
5.878300 11.407000
5.894700 9.975300
5.911100 9.883100
5.927500 9.373700
5.943900 7.840400
5.960400 6.894000
5.976800 6.468900
5.993200 6.578300
6.009600 7.721700
6.026000 8.589400
6.042400 11.487100
6.058900 15.562100
6.075300 13.791400
6.091700 10.731600
6.108100 6.917000
6.124500 3.732300
6.140900 1.875000
6.157400 1.757300
6.173800 1.723800
6.190200 1.656900
6.206600 1.567800
6.223000 1.470600
6.239400 1.389900
6.255900 1.271200
6.272300 1.168900
6.288700 1.079100
6.305100 1.015000
6.321500 0.984900
6.337900 0.993400
6.354400 1.068500
6.370800 1.106100
6.387200 1.149600
6.403600 1.185100
6.420000 1.276500
6.436400 1.357900
6.452800 1.404300
6.469300 1.544900
6.485700 1.648600
6.502100 1.691800
6.518500 1.776500
6.534900 1.881600
6.551300 2.023200
6.567800 2.207400
6.584200 2.481700
6.600600 2.875900
6.617000 3.337500
6.633400 3.825600
6.649800 3.727000
6.666300 3.560100
6.682700 3.552800
6.699100 3.598100
6.715500 3.510400
6.731900 3.458500
6.748300 3.387500
6.764800 3.307900
6.781200 3.257400
6.797600 3.217900
6.814000 3.182000
6.830400 3.147900
6.846800 3.131900
6.863300 3.115400
6.879700 3.090300
6.896100 3.062000
6.912500 3.031100
6.928900 2.995600
6.945300 2.963100
6.961800 2.956900
6.978200 2.916500
6.994600 2.892300
7.011000 2.873000
7.027400 2.838600
7.043800 2.804900
7.060200 2.786100
7.076700 2.772500
7.093100 2.760700
7.109500 2.755000
7.125900 2.759000
7.142300 2.770400
7.158700 2.800400
7.175200 2.842900
7.191600 2.892200
7.208000 2.940700
7.224400 2.952900
7.240800 2.959000
7.257200 2.982500
7.273700 3.036900
7.290100 3.103300
7.306500 3.190000
7.322900 3.317800
7.339300 3.415000
7.355700 3.453700
7.372200 3.451300
7.388600 3.499700
7.405000 3.572300
7.421400 3.673700
7.437800 3.787800
7.454200 3.516500
7.470700 3.303200
7.487100 3.209700
7.503500 3.129500
7.519900 3.066600
7.536300 2.975900
7.552700 2.930700
7.569200 2.898100
7.585600 2.858900
7.602000 2.827600
7.618400 2.815900
7.634800 2.799600
7.651200 2.786700
7.667600 2.776700
7.684100 2.782700
7.700500 2.810400
7.716900 2.831000
7.733300 2.767300
7.749700 2.757600
7.766100 2.742400
7.782600 2.717100
7.799000 2.666400
7.815400 2.617300
7.831800 2.568300
7.848200 2.510300
7.864600 2.445200
7.881100 2.361900
7.897500 2.356500
7.913900 2.326300
7.930300 2.296300
7.946700 2.301800
7.963100 2.242400
7.979600 2.185800
7.996000 2.154000
8.012400 2.131800
8.028800 2.120000
8.045200 2.114400
8.061600 2.109500
8.078100 2.107100
8.094500 2.119300
8.110900 2.133100
8.127300 2.133600
8.143700 2.128900
8.160100 2.142800
8.176600 2.162400
8.193000 2.180100
8.209400 2.192700
8.225800 2.195700
8.242200 2.192500
8.258600 2.171000
8.275100 2.128100
8.291500 2.097000
8.307900 2.083600
8.324300 2.082600
8.340700 2.080900
8.357100 2.048800
8.373500 2.005600
8.390000 1.994000
8.406400 1.998200
8.422800 2.011900
8.439200 2.041800
8.455600 2.095200
8.472000 2.166700
8.488500 2.227100
8.504900 2.278900
8.521300 2.341100
8.537700 2.429900
8.554100 2.482400
8.570500 2.455100
8.587000 2.410500
8.603400 2.360100
8.619800 2.313700
8.636200 2.287600
8.652600 2.254400
8.669000 2.214100
8.685500 2.189700
8.701900 2.189700
8.718300 2.199100
8.734700 2.203000
8.751100 2.191600
8.767500 2.180500
8.784000 2.175900
8.800400 2.144600
8.816800 2.147400
8.833200 2.171500
8.849600 2.211100
8.866000 2.175800
8.882500 2.060500
8.898900 2.064000
8.915300 2.069100
8.931700 2.067300
8.948100 2.063300
8.964500 2.063100
8.980900 2.066500
8.997400 2.070200
9.013800 2.078800
9.030200 2.093800
9.046600 2.118200
9.063000 2.146600
9.079400 2.169000
9.095900 2.186200
9.112300 2.205100
9.128700 2.230200
9.145100 2.245800
9.161500 2.249800
9.177900 2.247700
9.194400 2.225100
9.210800 2.202600
9.227200 2.181700
9.243600 2.169000
9.260000 2.125300
9.276400 2.073900
9.292900 2.042500
9.309300 2.094200
9.325700 2.031900
9.342100 2.017700
9.358500 1.999000
9.374900 1.991900
9.391400 1.996200
9.407800 2.019400
9.424200 2.052200
9.440600 2.071700
9.457000 2.097500
9.473400 2.117500
9.489900 2.126600
9.506300 2.145200
9.522700 2.164500
9.539100 2.272500
9.555500 2.297700
9.571900 2.346300
9.588300 2.390600
9.604800 2.437900
9.621200 2.498500
9.637600 2.573400
9.654000 2.655600
9.670400 2.744600
9.686800 2.799300
9.703300 2.731100
9.719700 2.533400
9.736100 2.457300
9.752500 2.396300
9.768900 2.355500
9.785300 2.337800
9.801800 2.323500
9.818200 2.301800
9.834600 2.279300
9.851000 2.250700
9.867400 2.219100
9.883800 2.193900
9.900300 2.172300
9.916700 2.153800
9.933100 2.138300
9.949500 2.125600
9.965900 2.127400
9.982300 2.126100
9.998800 2.117800
10.015200 2.112300
10.031600 2.103500
10.048000 2.085600
10.064400 2.063700
10.080800 2.048300
10.097300 2.034900
10.113700 2.024800
10.130100 2.019000
10.146500 2.016600
10.162900 2.010100
10.179300 1.990600
10.195800 1.954700
10.212200 1.946500
10.228600 1.940000
10.245000 1.935900
10.261400 1.944800
10.277800 1.962900
10.294200 2.154900
10.310700 1.908500
10.327100 1.902500
10.343500 1.895800
10.359900 1.888900
10.376300 1.886200
10.392700 1.887600
10.409200 1.892600
10.425600 1.897100
10.442000 1.900700
10.458400 1.902100
10.474800 1.898900
10.491200 1.894500
10.507700 1.890800
10.524100 1.885900
10.540500 1.879300
10.556900 1.870000
10.573300 1.857300
10.589700 1.844200
10.606200 1.826200
10.622600 1.806900
10.639000 1.790800
10.655400 1.794800
10.671800 1.795700
10.688200 1.777500
10.704700 1.766400
10.721100 1.810100
10.737500 1.829500
10.753900 1.795300
10.770300 1.802700
10.786700 1.801500
10.803200 1.790500
10.819600 1.771400
10.836000 1.768300
10.852400 1.772700
10.868800 1.782400
10.885200 1.792800
10.901600 1.808800
10.918100 1.835600
10.934500 1.881900
10.950900 1.940900
10.967300 2.015100
10.983700 2.130600
11.000100 2.204400
11.016600 2.203900
11.033000 2.218600
11.049400 2.231900
11.065800 2.234700
11.082200 2.224500
11.098600 2.203000
11.115100 2.183500
11.131500 2.167600
11.147900 2.152200
11.164300 2.129600
11.180700 2.106300
11.197100 2.150700
11.213600 2.116600
11.230000 2.098300
11.246400 2.112900
11.262800 2.129700
11.279200 2.139800
11.295600 2.137600
11.312100 2.166300
11.328500 2.199200
11.344900 2.200100
11.361300 2.147500
11.377700 2.145700
11.394100 2.158500
11.410600 2.183900
11.427000 2.221200
11.443400 2.266700
11.459800 2.320000
11.476200 2.378100
11.492600 2.458800
11.509000 2.552700
11.525500 2.616800
11.541900 2.668200
11.558300 2.724600
11.574700 2.784700
11.591100 2.840400
11.607500 2.813300
11.624000 2.819700
11.640400 2.824900
11.656800 2.814000
11.673200 2.785000
11.689600 2.744600
11.706000 2.675600
11.722500 2.637300
11.738900 2.605500
11.755300 2.584600
11.771700 2.581500
11.788100 2.589500
11.804500 2.599800
11.821000 2.602300
11.837400 2.620100
11.853800 2.623100
11.870200 2.621400
11.886600 2.636800
11.903000 2.628200
11.919500 2.608900
11.935900 2.607200
11.952300 2.626300
11.968700 2.667700
11.985100 2.727100
12.001500 2.791200
12.018000 2.840700
12.034400 2.826100
12.050800 2.806700
12.067200 2.790100
12.083600 2.769400
12.100000 2.732300
12.116500 2.668200
12.132900 2.634000
12.149300 2.604800
12.165700 2.581900
12.182100 2.597300
12.198500 2.616700
12.214900 2.615300
12.231400 2.597900
12.247800 2.584900
12.264200 2.600700
12.280600 2.651500
12.297000 2.692900
12.313400 2.782400
12.329900 2.800100
12.346300 2.811900
12.362700 2.786000
12.379100 2.779200
12.395500 2.780200
12.411900 2.812300
12.428400 2.737200
12.444800 2.674100
12.461200 2.631300
12.477600 2.618300
12.494000 2.629100
12.510400 2.654400
12.526900 2.692500
12.543300 2.741500
12.559700 2.795500
12.576100 2.853800
12.592500 2.959100
12.608900 2.989500
12.625400 2.938200
12.641800 2.966400
12.658200 2.963300
12.674600 2.920900
12.691000 2.881700
12.707400 2.852200
12.723900 2.837000
12.740300 2.816400
12.756700 2.809800
12.773100 2.806300
12.789500 2.791300
12.805900 2.763800
12.822300 2.739100
12.838800 2.707800
12.855200 2.678700
12.871600 2.649200
12.888000 2.641600
12.904400 2.657400
12.920800 2.640800
12.937300 2.613000
12.953700 2.557500
12.970100 2.488300
12.986500 2.433200
13.002900 2.427700
13.019300 2.419000
13.035800 2.412100
13.052200 2.439300
13.068600 2.504400
13.085000 2.619000
13.101400 2.714000
13.117800 2.795900
13.134300 2.859900
13.150700 2.930900
13.167100 2.973700
13.183500 3.019900
13.199900 3.057800
13.216300 3.101200
13.232800 3.142200
13.249200 3.189300
13.265600 3.226400
13.282000 3.211400
13.298400 3.178200
13.314800 3.128300
13.331300 3.068600
13.347700 3.004200
13.364100 2.909700
13.380500 2.825600
13.396900 2.737400
13.413300 2.636400
13.429700 2.547700
13.446200 2.485800
13.462600 2.442500
13.479000 2.411700
13.495400 2.394500
13.511800 2.392000
13.528200 2.407500
13.544700 2.430300
13.561100 2.461200
13.577500 2.493800
13.593900 2.508500
13.610300 2.530600
13.626700 2.558300
13.643200 2.595300
13.659600 2.656000
13.676000 2.718500
13.692400 2.828000
13.708800 3.157200
13.725200 3.205200
13.741700 3.141900
13.758100 3.126900
13.774500 3.116700
13.790900 3.108100
13.807300 3.095500
13.823700 3.094000
13.840200 3.108600
13.856600 3.126300
13.873000 3.149000
13.889400 3.170700
13.905800 3.189300
13.922200 3.190000
13.938700 3.182500
13.955100 3.185900
13.971500 3.192200
13.987900 3.175700
14.004300 3.154800
14.020700 3.150800
14.037200 3.117000
14.053600 3.017700
14.070000 2.882200
14.086400 2.747800
14.102800 2.643400
14.119200 2.589400
14.135600 2.541700
14.152100 2.510100
14.168500 2.487400
14.184900 2.472600
14.201300 2.466800
14.217700 2.468900
14.234100 2.538100
14.250600 2.699700
14.267000 2.694800
14.283400 2.707100
14.299800 2.734600
14.316200 2.693100
14.332600 2.715000
14.349100 2.733100
14.365500 2.777400
14.381900 2.859500
14.398300 2.945800
14.414700 3.021900
14.431100 3.103800
14.447600 3.090800
14.464000 3.050600
14.480400 3.058800
14.496800 3.032700
14.513200 3.016800
14.529600 3.012300
14.546100 2.999300
14.562500 2.989800
14.578900 2.999600
14.595300 3.024600
14.611700 3.069000
14.628100 3.082000
14.644600 3.112400
14.661000 3.176300
14.677400 3.225800
14.693800 3.405700
14.710200 3.379800
14.726600 3.450200
14.743000 3.480300
14.759500 3.481400
14.775900 3.462400
14.792300 3.439900
14.808700 3.447400
14.825100 3.484600
14.841500 3.532900
14.858000 3.556900
14.874400 3.574000
14.890800 3.591100
14.907200 3.613400
14.923600 3.634100
14.940000 3.623200
14.956500 3.569400
14.972900 3.499300
14.989300 3.473400
15.005700 3.432500
15.022100 3.412700
15.038500 3.413200
15.055000 3.393400
15.071400 3.325600
15.087800 3.290300
15.104200 3.257900
15.120600 3.255000
15.137000 3.251500
15.153500 3.218400
15.169900 3.200800
15.186300 3.245200
15.202700 3.270300
15.219100 3.285300
15.235500 3.299700
15.252000 3.319500
15.268400 3.354200
15.284800 3.407400
15.301200 3.464900
15.317600 3.532100
15.334000 3.657400
15.350400 3.810700
15.366900 3.928800
15.383300 3.961100
15.399700 3.980800
15.416100 3.975800
15.432500 3.939900
15.448900 3.889700
15.465400 3.838400
15.481800 3.820500
15.498200 3.749500
15.514600 3.730600
15.531000 3.669900
15.547400 3.668300
15.563900 3.703400
15.580300 3.775100
15.596700 3.851800
15.613100 4.029600
15.629500 4.265400
15.645900 4.346300
15.662400 4.350200
15.678800 4.344500
15.695200 4.305400
15.711600 4.262400
15.728000 4.235100
15.744400 4.210900
15.760900 4.169600
15.777300 4.067600
15.793700 3.994200
15.810100 3.945200
15.826500 3.896500
15.842900 3.806500
15.859400 3.728900
15.875800 3.699100
15.892200 3.677400
15.908600 3.659100
15.925000 3.682200
15.941400 3.733400
15.957900 3.806500
15.974300 3.853200
15.990700 3.907700
16.007100 3.904500
16.023500 3.923000
16.039900 3.965500
16.056300 4.000700
16.072800 4.015900
16.089200 4.017200
16.105600 3.975100
16.122000 3.798800
16.138400 3.756400
16.154800 3.687000
16.171300 3.523100
16.187700 3.487500
16.204100 3.478400
16.220500 3.478500
16.236900 3.492500
16.253300 3.511300
16.269800 3.538300
16.286200 3.530900
16.302600 3.572900
16.319000 3.646800
16.335400 3.679400
16.351800 3.704900
16.368300 3.735700
16.384700 3.778400
16.401100 3.825800
16.417500 3.894300
16.433900 3.997900
16.450300 4.090300
16.466800 4.223300
16.483200 4.264400
16.499600 4.338800
16.516000 4.337600
16.532400 4.244600
16.548800 4.146800
16.565300 4.105100
16.581700 4.109900
16.598100 4.199000
16.614500 4.186600
16.630900 4.183300
16.647300 4.193200
16.663700 4.233700
16.680200 4.294400
16.696600 4.292200
16.713000 4.271500
16.729400 4.108700
16.745800 4.061500
16.762200 3.958900
16.778700 3.910200
16.795100 3.840700
16.811500 3.772800
16.827900 3.681900
16.844300 3.609900
16.860700 3.555400
16.877200 3.533300
16.893600 3.517100
16.910000 3.531400
16.926400 3.574300
16.942800 3.654300
16.959200 3.773100
16.975700 3.881500
16.992100 3.947400
17.008500 4.081600
17.024900 4.175700
17.041300 4.196900
17.057700 4.222800
17.074200 4.246000
17.090600 4.200400
17.107000 4.123900
17.123400 3.992700
17.139800 3.884800
17.156200 3.824500
17.172700 3.798100
17.189100 3.808000
17.205500 3.836300
17.221900 3.847500
17.238300 3.833600
17.254700 3.817100
17.271100 3.806400
17.287600 3.797700
17.304000 3.796700
17.320400 3.790300
17.336800 3.811000
17.353200 3.867800
17.369600 3.833400
17.386100 3.793700
17.402500 3.775900
17.418900 3.819900
17.435300 3.807300
17.451700 3.836800
17.468100 3.870600
17.484600 3.899100
17.501000 3.928400
17.517400 3.947100
17.533800 3.935100
17.550200 3.926000
17.566600 3.951000
17.583100 3.954700
17.599500 3.917200
17.615900 3.865600
17.632300 3.814100
17.648700 3.783200
17.665100 3.780700
17.681600 3.797000
17.698000 3.818900
17.714400 3.840300
17.730800 3.830100
17.747200 3.845600
17.763600 3.893600
17.780100 3.920700
17.796500 3.940100
17.812900 3.963500
17.829300 3.995700
17.845700 4.032700
17.862100 4.097400
17.878600 4.193700
17.895000 4.297600
17.911400 4.444600
17.927800 4.541200
17.944200 4.609800
17.960600 4.628000
17.977000 4.639800
17.993500 4.639700
18.009900 4.655000
18.026300 4.593600
18.042700 4.573300
18.059100 4.553000
18.075500 4.491000
18.092000 4.425400
18.108400 4.308200
18.124800 4.228200
18.141200 4.102800
18.157600 4.055400
18.174000 4.069800
18.190500 4.055700
18.206900 4.012300
18.223300 4.002900
18.239700 4.013300
18.256100 4.014000
18.272500 3.995700
18.289000 3.941800
18.305400 3.922700
18.321800 3.938900
18.338200 3.945200
18.354600 3.924200
18.371000 3.856900
18.387500 3.823100
18.403900 3.882900
18.420300 3.782600
18.436700 3.763300
18.453100 3.763400
18.469500 3.796100
18.486000 3.770700
18.502400 3.947300
18.518800 3.869300
18.535200 3.865300
18.551600 3.860200
18.568000 3.848200
18.584400 3.845800
18.600900 3.870400
18.617300 3.891000
18.633700 3.891000
18.650100 3.851000
18.666500 3.820500
18.682900 3.797300
18.699400 3.806900
18.715800 3.826300
18.732200 3.856500
18.748600 3.873200
18.765000 3.900500
18.781400 3.933800
18.797900 3.959800
18.814300 3.947000
18.830700 3.908100
18.847100 3.860200
18.863500 3.800100
18.879900 3.757100
18.896400 3.712500
18.912800 3.616500
18.929200 3.559900
18.945600 3.513600
18.962000 3.427700
18.978400 3.360100
18.994900 3.308600
19.011300 3.268500
19.027700 3.202000
19.044100 3.146200
19.060500 3.104100
19.076900 3.068700
19.093400 3.026600
19.109800 2.982400
19.126200 2.952600
19.142600 2.937800
19.159000 2.926200
19.175400 2.917600
19.191800 2.897300
19.208300 2.872900
19.224700 2.849900
19.241100 2.832600
19.257500 2.753900
19.273900 2.691000
19.290300 2.664800
19.306800 2.654100
19.323200 2.648500
19.339600 2.641300
19.356000 2.632700
19.372400 2.685700
19.388800 2.626400
19.405300 2.598500
19.421700 2.570700
19.438100 2.548500
19.454500 2.531700
19.470900 2.516300
19.487300 2.493000
19.503800 2.459500
19.520200 2.416100
19.536600 2.416300
19.553000 2.341000
19.569400 2.320000
19.585800 2.301400
19.602300 2.284000
19.618700 2.267400
19.635100 2.256300
19.651500 2.262500
19.667900 2.254100
19.684300 2.243900
19.700800 2.242600
19.717200 2.248900
19.733600 2.271700
19.750000 2.312700
19.766400 2.333100
19.782800 2.332000
19.799300 2.314800
19.815700 2.302300
19.832100 2.300500
19.848500 2.304200
19.864900 2.307800
19.881300 2.312400
19.897700 2.317700
19.914200 2.329200
19.930600 2.348900
19.947000 2.378100
19.963400 2.392600
19.979800 2.382700
19.996200 2.367200
20.012700 2.336900
20.029100 2.297100
20.045500 2.247500
20.061900 2.191100
20.078300 2.118400
20.094700 2.020900
20.111200 1.947200
20.127600 1.889400
20.144000 1.839400
20.160400 1.790000
20.176800 1.752100
20.193200 1.723600
20.209700 1.704100
20.226100 1.681000
20.242500 1.655000
20.258900 1.619000
20.275300 1.579100
20.291700 1.565900
20.308200 1.550300
20.324600 1.509000
20.341000 1.451400
20.357400 1.402000
20.373800 1.375600
20.390200 1.356100
20.406700 1.337000
20.423100 1.311000
20.439500 1.283300
20.455900 1.262200
20.472300 1.243300
20.488700 1.226300
20.505100 1.212200
20.521600 1.201000
20.538000 1.192400
20.554400 1.187300
20.570800 1.185500
20.587200 1.182100
20.603600 1.158700
20.620100 1.197600
20.636500 1.242700
20.652900 1.110800
20.669300 1.089000
20.685700 1.072500
20.702100 1.058900
20.718600 1.046200
20.735000 1.035800
20.751400 1.027900
20.767800 1.021600
20.784200 1.016100
20.800600 1.012600
20.817100 1.012200
20.833500 1.012500
20.849900 1.012200
20.866300 1.035700
20.882700 1.025300
20.899100 1.012300
20.915600 0.988300
20.932000 0.977400
20.948400 0.980200
20.964800 1.010100
20.981200 1.015000
20.997600 0.965400
21.014100 0.936600
21.030500 0.931300
21.046900 0.919000
21.063300 0.900600
21.079700 0.901700
21.096100 0.890000
21.112500 0.876500
21.129000 0.847000
21.145400 0.793800
21.161800 0.751800
21.178200 0.706600
21.194600 0.690600
21.211000 0.676100
21.227500 0.649700
21.243900 0.632400
21.260300 0.619400
21.276700 0.608200
21.293100 0.609900
21.309500 0.627200
21.326000 0.599800
21.342400 0.557400
21.358800 0.517800
21.375200 0.501200
21.391600 0.485600
21.408000 0.460100
21.424500 0.445100
21.440900 0.444500
21.457300 0.443400
21.473700 0.436100
21.490100 0.432300
21.506500 0.435600
21.523000 0.435200
21.539400 0.420100
21.555800 0.354400
21.572200 0.312000
21.588600 0.287600
21.605000 0.258500
21.621500 0.224700
21.637900 0.192800
21.654300 0.161100
21.670700 0.141000
21.687100 0.126700
21.703500 0.274200
21.720000 0.119200
21.736400 0.057800
21.752800 0.046500
21.769200 0.036800
21.785600 0.028300
21.802000 0.020900
21.818400 0.014600
21.834900 0.009400
21.851300 0.005400
21.867700 0.002500
21.884100 0.000700
21.900500 0.000000
21.916900 0.000000
21.933400 0.000000
21.949800 0.000000
21.966200 0.000000
21.982600 0.000000
21.999000 0.000000
22.015400 0.000000
22.031900 0.000000
22.048300 0.000000
22.064700 0.000000
22.081100 0.000000
22.097500 0.000000
22.113900 0.000000
22.130400 0.000000
22.146800 0.000000
22.163200 0.000000
22.179600 0.000000
22.196000 0.000000
22.212400 0.000000
22.228900 0.000000
22.245300 0.000000
22.261700 0.000000
22.278100 0.000000
22.294500 0.000000
22.310900 0.000000
22.327400 0.000000
22.343800 0.000000
22.360200 0.000000
22.376600 0.000000
22.393000 0.000000
22.409400 0.000000
22.425800 0.000000
22.442300 0.000000
22.458700 0.000000
22.475100 0.000000
22.491500 0.000000
22.507900 0.000000
22.524300 0.000000
22.540800 0.000000
22.557200 0.000000
22.573600 0.000000
22.590000 0.000000
22.606400 0.000000
22.622800 0.000000
22.639300 0.000000
22.655700 0.000000
22.672100 0.000000
22.688500 0.000000
22.704900 0.000000
22.721300 0.000000
22.737800 0.000000
22.754200 0.000000
22.770600 0.000000
22.787000 0.000000
22.803400 0.000000
22.819800 0.000000
22.836300 0.000000
22.852700 0.000000
22.869100 0.000000
22.885500 0.000000
22.901900 0.000000
22.918300 0.000000
22.934800 0.000000
22.951200 0.000000
22.967600 0.000000
22.984000 0.000000
23.000400 0.000000
23.016800 0.000000
23.033200 0.000000
23.049700 0.000000
23.066100 0.000000
23.082500 0.000000
23.098900 0.000000
23.115300 0.000000
23.131700 0.000000
23.148200 0.000000
23.164600 0.000000
23.181000 0.000000
23.197400 0.000000
23.213800 0.000000
23.230200 0.000000
23.246700 0.000000
23.263100 0.000000
23.279500 0.000000
23.295900 0.000000
23.312300 0.000000
23.328700 0.000000
23.345200 0.000000
23.361600 0.000000
23.378000 0.000000
23.394400 0.000000
e
