set title 'mp-567279 - Density of States'
set xlabel 'Energy (eV)'
set ylabel 'DOS (states/eV)'
set grid
set xrange [-10:10]
set yrange [0:88.013]
set xzeroaxis lt -1
set terminal png size 800,600
set output 'mp-567279_dos_gnuplot.png'
plot '-' using 1:2 with lines title 'DOS'
-17.081600 0.000000
-17.062000 0.000000
-17.042400 0.000000
-17.022800 0.000000
-17.003200 0.000000
-16.983600 0.000000
-16.964000 0.000000
-16.944400 0.000000
-16.924900 0.000000
-16.905300 0.000000
-16.885700 0.000000
-16.866100 0.000000
-16.846500 0.000000
-16.826900 0.000000
-16.807300 0.000000
-16.787700 0.000000
-16.768200 0.000000
-16.748600 0.000000
-16.729000 0.000000
-16.709400 0.000000
-16.689800 0.000000
-16.670200 0.000000
-16.650600 0.000000
-16.631100 0.000000
-16.611500 0.000000
-16.591900 0.000000
-16.572300 0.000000
-16.552700 0.000000
-16.533100 0.000000
-16.513500 0.000000
-16.493900 0.000000
-16.474400 0.000000
-16.454800 0.000000
-16.435200 0.000000
-16.415600 0.000000
-16.396000 0.000000
-16.376400 0.000000
-16.356800 0.000000
-16.337200 0.000000
-16.317700 0.000000
-16.298100 0.000000
-16.278500 0.000000
-16.258900 0.000000
-16.239300 0.000000
-16.219700 0.000000
-16.200100 0.000000
-16.180500 0.000000
-16.161000 0.000000
-16.141400 0.000000
-16.121800 0.000000
-16.102200 0.000000
-16.082600 0.000000
-16.063000 0.000000
-16.043400 0.000000
-16.023900 0.000000
-16.004300 0.000000
-15.984700 0.000000
-15.965100 0.000000
-15.945500 0.000000
-15.925900 0.000000
-15.906300 0.000000
-15.886700 0.000000
-15.867200 0.000000
-15.847600 0.000000
-15.828000 0.000000
-15.808400 0.000000
-15.788800 0.000000
-15.769200 0.000000
-15.749600 0.000000
-15.730000 0.000000
-15.710500 0.000000
-15.690900 0.000000
-15.671300 0.000000
-15.651700 0.000000
-15.632100 0.000000
-15.612500 0.000000
-15.592900 0.000000
-15.573300 0.000000
-15.553800 0.000000
-15.534200 0.000000
-15.514600 0.000000
-15.495000 0.000000
-15.475400 0.000000
-15.455800 0.000000
-15.436200 0.000000
-15.416600 0.000000
-15.397100 0.000000
-15.377500 0.000000
-15.357900 0.000000
-15.338300 0.000000
-15.318700 0.000000
-15.299100 0.002600
-15.279500 0.379600
-15.260000 1.390700
-15.240400 3.001200
-15.220800 4.521100
-15.201200 5.366700
-15.181600 5.437000
-15.162000 5.210400
-15.142400 5.269500
-15.122800 5.610000
-15.103300 6.015100
-15.083700 6.387400
-15.064100 6.700200
-15.044500 7.003100
-15.024900 7.378600
-15.005300 7.825800
-14.985700 8.217400
-14.966100 8.610400
-14.946600 9.004900
-14.927000 14.692900
-14.907400 14.694400
-14.887800 11.040800
-14.868200 8.426600
-14.848600 9.020900
-14.829000 13.206600
-14.809400 19.004400
-14.789900 48.414200
-14.770300 56.646400
-14.750700 34.859300
-14.731100 27.748400
-14.711500 21.941900
-14.691900 11.948600
-14.672300 0.000000
-14.652800 0.000000
-14.633200 0.000000
-14.613600 0.000000
-14.594000 0.000000
-14.574400 0.000000
-14.554800 0.000000
-14.535200 0.000000
-14.515600 0.000000
-14.496100 0.000000
-14.476500 0.000000
-14.456900 0.000000
-14.437300 0.000000
-14.417700 0.000000
-14.398100 0.000000
-14.378500 0.000000
-14.358900 0.000000
-14.339400 0.000000
-14.319800 0.000000
-14.300200 0.000000
-14.280600 0.000000
-14.261000 0.000000
-14.241400 0.000000
-14.221800 0.000000
-14.202200 0.000000
-14.182700 0.000000
-14.163100 0.000000
-14.143500 0.000000
-14.123900 0.000000
-14.104300 0.000000
-14.084700 0.000000
-14.065100 0.000000
-14.045600 0.000000
-14.026000 0.000000
-14.006400 0.000000
-13.986800 0.000000
-13.967200 0.000000
-13.947600 0.000000
-13.928000 0.000000
-13.908400 0.000000
-13.888900 0.000000
-13.869300 0.000000
-13.849700 0.000000
-13.830100 0.000000
-13.810500 0.000000
-13.790900 0.000000
-13.771300 0.000000
-13.751700 0.000000
-13.732200 0.000000
-13.712600 0.000000
-13.693000 0.000000
-13.673400 0.000000
-13.653800 0.000000
-13.634200 0.000000
-13.614600 0.000000
-13.595000 0.000000
-13.575500 0.000000
-13.555900 0.000000
-13.536300 0.000000
-13.516700 0.000000
-13.497100 0.000000
-13.477500 0.000000
-13.457900 0.000000
-13.438400 0.000000
-13.418800 0.000000
-13.399200 0.000000
-13.379600 0.000000
-13.360000 0.000000
-13.340400 0.000000
-13.320800 0.000000
-13.301200 0.000000
-13.281700 0.000000
-13.262100 0.000000
-13.242500 0.000000
-13.222900 0.000000
-13.203300 0.000000
-13.183700 0.000000
-13.164100 0.000000
-13.144500 0.000000
-13.125000 0.000000
-13.105400 0.000000
-13.085800 0.000000
-13.066200 0.000000
-13.046600 0.000000
-13.027000 0.000000
-13.007400 0.000000
-12.987800 0.000000
-12.968300 0.000000
-12.948700 0.000000
-12.929100 0.000000
-12.909500 0.000000
-12.889900 0.000000
-12.870300 0.000000
-12.850700 0.000000
-12.831100 0.000000
-12.811600 0.000000
-12.792000 0.000000
-12.772400 0.000000
-12.752800 0.000000
-12.733200 0.000000
-12.713600 0.000000
-12.694000 0.000000
-12.674500 0.000000
-12.654900 0.000000
-12.635300 0.000000
-12.615700 0.000000
-12.596100 0.000000
-12.576500 0.000000
-12.556900 0.000000
-12.537300 0.000000
-12.517800 0.000000
-12.498200 0.000000
-12.478600 0.000000
-12.459000 0.000000
-12.439400 0.000000
-12.419800 0.000000
-12.400200 0.000000
-12.380600 0.000000
-12.361100 0.000000
-12.341500 0.000000
-12.321900 0.000000
-12.302300 0.000000
-12.282700 0.000000
-12.263100 0.000000
-12.243500 0.000000
-12.223900 0.000000
-12.204400 0.000000
-12.184800 0.000000
-12.165200 0.000000
-12.145600 0.000000
-12.126000 0.000000
-12.106400 0.000000
-12.086800 0.000000
-12.067300 0.000000
-12.047700 0.000000
-12.028100 0.000000
-12.008500 0.000000
-11.988900 0.000000
-11.969300 0.000000
-11.949700 0.000000
-11.930100 0.000000
-11.910600 0.000000
-11.891000 0.000000
-11.871400 0.000000
-11.851800 0.000000
-11.832200 0.000000
-11.812600 0.000000
-11.793000 0.000000
-11.773400 0.000000
-11.753900 0.000000
-11.734300 0.000000
-11.714700 0.000000
-11.695100 0.000000
-11.675500 0.000000
-11.655900 0.000000
-11.636300 0.000000
-11.616700 0.000000
-11.597200 0.000000
-11.577600 0.000000
-11.558000 0.000000
-11.538400 0.000000
-11.518800 0.000000
-11.499200 0.000000
-11.479600 0.000000
-11.460100 0.000000
-11.440500 0.000000
-11.420900 0.000000
-11.401300 0.000000
-11.381700 0.000000
-11.362100 0.000000
-11.342500 0.000000
-11.322900 0.000000
-11.303400 0.000000
-11.283800 0.000000
-11.264200 0.000000
-11.244600 0.000000
-11.225000 0.000000
-11.205400 0.000000
-11.185800 0.000000
-11.166200 0.000000
-11.146700 0.000000
-11.127100 0.000000
-11.107500 0.000000
-11.087900 0.000000
-11.068300 0.000000
-11.048700 0.000000
-11.029100 0.000000
-11.009500 0.000000
-10.990000 0.000000
-10.970400 0.000000
-10.950800 0.000000
-10.931200 0.000000
-10.911600 0.000000
-10.892000 0.000000
-10.872400 0.000000
-10.852900 0.000000
-10.833300 0.000000
-10.813700 0.000000
-10.794100 0.000000
-10.774500 0.000000
-10.754900 0.000000
-10.735300 0.000000
-10.715700 0.000000
-10.696200 0.000000
-10.676600 0.000000
-10.657000 0.000000
-10.637400 0.000000
-10.617800 0.000000
-10.598200 0.000000
-10.578600 0.000000
-10.559000 0.000000
-10.539500 0.000000
-10.519900 0.000000
-10.500300 0.000000
-10.480700 0.000000
-10.461100 0.000000
-10.441500 0.000000
-10.421900 0.000000
-10.402300 0.000000
-10.382800 0.000000
-10.363200 0.000000
-10.343600 0.000000
-10.324000 0.000000
-10.304400 0.000000
-10.284800 0.000000
-10.265200 0.000000
-10.245600 0.000000
-10.226100 0.000000
-10.206500 0.000000
-10.186900 0.000000
-10.167300 0.000000
-10.147700 0.000000
-10.128100 0.000000
-10.108500 0.000000
-10.089000 0.000000
-10.069400 0.000000
-10.049800 0.000000
-10.030200 0.000000
-10.010600 0.000000
-9.991000 0.000000
-9.971400 0.000000
-9.951800 0.000000
-9.932300 0.000000
-9.912700 0.000000
-9.893100 0.000000
-9.873500 0.000000
-9.853900 0.000000
-9.834300 0.000000
-9.814700 0.000000
-9.795100 0.000000
-9.775600 0.000000
-9.756000 0.000000
-9.736400 0.000000
-9.716800 0.000000
-9.697200 0.000000
-9.677600 0.000000
-9.658000 0.000000
-9.638400 0.000000
-9.618900 0.000000
-9.599300 0.000000
-9.579700 0.000000
-9.560100 0.000000
-9.540500 0.000000
-9.520900 0.000000
-9.501300 0.000000
-9.481800 0.000000
-9.462200 0.000000
-9.442600 0.000000
-9.423000 0.000000
-9.403400 0.000000
-9.383800 0.000000
-9.364200 0.000000
-9.344600 0.000000
-9.325100 0.000000
-9.305500 0.000000
-9.285900 0.000000
-9.266300 0.000000
-9.246700 0.000000
-9.227100 0.000000
-9.207500 0.000000
-9.187900 0.000000
-9.168400 0.000000
-9.148800 0.000000
-9.129200 0.000000
-9.109600 0.000000
-9.090000 0.000000
-9.070400 0.000000
-9.050800 0.000000
-9.031200 0.000000
-9.011700 0.000000
-8.992100 0.000000
-8.972500 0.000000
-8.952900 0.000000
-8.933300 0.000000
-8.913700 0.000000
-8.894100 0.000000
-8.874600 0.000000
-8.855000 0.000000
-8.835400 0.000000
-8.815800 0.000000
-8.796200 0.000000
-8.776600 0.000000
-8.757000 0.000000
-8.737400 0.000000
-8.717900 0.000000
-8.698300 0.000000
-8.678700 0.000000
-8.659100 0.000000
-8.639500 0.000000
-8.619900 0.000000
-8.600300 0.000000
-8.580700 0.000000
-8.561200 0.000000
-8.541600 0.000000
-8.522000 0.000000
-8.502400 0.000000
-8.482800 0.000000
-8.463200 0.000000
-8.443600 0.000000
-8.424000 0.000000
-8.404500 0.000000
-8.384900 0.000000
-8.365300 0.000000
-8.345700 0.000000
-8.326100 0.000000
-8.306500 0.000000
-8.286900 0.000000
-8.267400 0.000000
-8.247800 0.000000
-8.228200 0.000000
-8.208600 0.000000
-8.189000 0.000000
-8.169400 0.000000
-8.149800 0.000000
-8.130200 0.000000
-8.110700 0.000000
-8.091100 0.000000
-8.071500 0.000000
-8.051900 0.000000
-8.032300 0.000000
-8.012700 0.000000
-7.993100 0.000000
-7.973500 0.000000
-7.954000 0.000000
-7.934400 0.000000
-7.914800 0.000000
-7.895200 0.000000
-7.875600 0.000000
-7.856000 0.000000
-7.836400 0.000000
-7.816800 0.000000
-7.797300 0.000000
-7.777700 0.000000
-7.758100 0.000000
-7.738500 0.000000
-7.718900 0.000000
-7.699300 0.000000
-7.679700 0.000000
-7.660100 0.000000
-7.640600 0.000000
-7.621000 0.000000
-7.601400 0.000000
-7.581800 0.000000
-7.562200 0.000000
-7.542600 0.000000
-7.523000 0.000000
-7.503500 0.000000
-7.483900 0.000000
-7.464300 0.000000
-7.444700 0.000000
-7.425100 0.000000
-7.405500 0.000000
-7.385900 0.000000
-7.366300 0.000000
-7.346800 0.000000
-7.327200 0.000000
-7.307600 0.000000
-7.288000 0.000000
-7.268400 0.000000
-7.248800 0.000000
-7.229200 0.000000
-7.209600 0.000000
-7.190100 0.000000
-7.170500 0.000000
-7.150900 0.000000
-7.131300 0.000000
-7.111700 0.000000
-7.092100 0.000000
-7.072500 0.000000
-7.052900 0.000000
-7.033400 0.000000
-7.013800 0.000000
-6.994200 0.000000
-6.974600 0.000000
-6.955000 0.000000
-6.935400 0.000000
-6.915800 0.000000
-6.896300 0.000000
-6.876700 0.000000
-6.857100 0.000000
-6.837500 0.000000
-6.817900 0.000000
-6.798300 0.000000
-6.778700 0.000000
-6.759100 0.000000
-6.739600 0.000000
-6.720000 0.000000
-6.700400 0.000000
-6.680800 0.000000
-6.661200 0.000000
-6.641600 80.012200
-6.622000 59.390700
-6.602400 39.426600
-6.582900 34.913700
-6.563300 33.839400
-6.543700 33.509500
-6.524100 21.736400
-6.504500 18.642100
-6.484900 16.912400
-6.465300 12.812800
-6.445700 12.707900
-6.426200 6.327000
-6.406600 9.753400
-6.387000 22.483700
-6.367400 28.950500
-6.347800 33.183800
-6.328200 40.288600
-6.308600 42.873900
-6.289100 30.628300
-6.269500 27.713200
-6.249900 23.945400
-6.230300 34.543600
-6.210700 37.397800
-6.191100 64.445600
-6.171500 66.332400
-6.151900 44.536100
-6.132400 5.447200
-6.112800 0.000000
-6.093200 0.000000
-6.073600 0.000000
-6.054000 0.000000
-6.034400 0.000000
-6.014800 0.000000
-5.995200 0.000000
-5.975700 0.000000
-5.956100 0.000000
-5.936500 0.000000
-5.916900 0.000000
-5.897300 0.000000
-5.877700 0.000000
-5.858100 0.000000
-5.838500 0.000000
-5.819000 0.000000
-5.799400 0.000000
-5.779800 0.000000
-5.760200 0.000000
-5.740600 0.000000
-5.721000 0.000000
-5.701400 0.000000
-5.681900 0.000000
-5.662300 0.000000
-5.642700 0.000000
-5.623100 0.000000
-5.603500 0.000000
-5.583900 0.000000
-5.564300 0.000000
-5.544700 0.000000
-5.525200 0.000000
-5.505600 0.000000
-5.486000 0.000000
-5.466400 0.000000
-5.446800 0.000000
-5.427200 0.659700
-5.407600 2.418600
-5.388000 2.764900
-5.368500 4.139600
-5.348900 10.173000
-5.329300 9.168900
-5.309700 9.778000
-5.290100 10.101100
-5.270500 10.959500
-5.250900 7.367900
-5.231300 7.742200
-5.211800 3.725200
-5.192200 3.657400
-5.172600 3.589700
-5.153000 3.522000
-5.133400 3.454500
-5.113800 3.387000
-5.094200 3.319500
-5.074600 3.252200
-5.055100 3.184900
-5.035500 3.117700
-5.015900 3.050600
-4.996300 2.983600
-4.976700 2.916600
-4.957100 2.849800
-4.937500 2.783000
-4.918000 2.717000
-4.898400 2.727000
-4.878800 2.869800
-4.859200 3.180500
-4.839600 3.126300
-4.820000 2.945700
-4.800400 2.837800
-4.780800 2.909700
-4.761300 2.770500
-4.741700 2.644100
-4.722100 2.565200
-4.702500 2.500200
-4.682900 2.435400
-4.663300 2.370900
-4.643700 2.306600
-4.624100 2.242700
-4.604600 2.179000
-4.585000 2.115600
-4.565400 2.052500
-4.545800 1.989700
-4.526200 1.927100
-4.506600 1.864900
-4.487000 1.802900
-4.467400 2.197200
-4.447900 3.147000
-4.428300 3.352600
-4.408700 2.429000
-4.389100 1.784100
-4.369500 1.632100
-4.349900 1.593700
-4.330300 1.621600
-4.310800 1.647600
-4.291200 1.416300
-4.271600 0.949200
-4.252000 0.655000
-4.232400 0.495700
-4.212800 0.358500
-4.193200 0.243500
-4.173600 0.150700
-4.154100 0.080000
-4.134500 0.031500
-4.114900 0.005200
-4.095300 0.000000
-4.075700 0.000000
-4.056100 0.000000
-4.036500 0.000000
-4.016900 0.000000
-3.997400 0.000000
-3.977800 0.000000
-3.958200 0.000000
-3.938600 0.000000
-3.919000 0.000000
-3.899400 0.250100
-3.879800 0.923200
-3.860200 1.765800
-3.840700 2.560900
-3.821100 3.119600
-3.801500 3.934400
-3.781900 8.523700
-3.762300 11.556400
-3.742700 12.196500
-3.723100 13.499100
-3.703600 14.612500
-3.684000 14.229800
-3.664400 10.959600
-3.644800 8.424000
-3.625200 7.576800
-3.605600 7.974200
-3.586000 7.705100
-3.566400 6.756700
-3.546900 5.523600
-3.527300 4.216800
-3.507700 3.838100
-3.488100 3.397300
-3.468500 2.713400
-3.448900 2.323200
-3.429300 2.229600
-3.409700 2.175400
-3.390200 2.177600
-3.370600 3.788400
-3.351000 3.825700
-3.331400 3.849400
-3.311800 3.873400
-3.292200 3.897700
-3.272600 5.306400
-3.253000 6.706500
-3.233500 6.791800
-3.213900 7.292300
-3.194300 8.043900
-3.174700 6.806700
-3.155100 6.264200
-3.135500 6.976300
-3.115900 6.732700
-3.096400 7.298700
-3.076800 5.871600
-3.057200 5.222800
-3.037600 4.967700
-3.018000 4.238200
-2.998400 4.289800
-2.978800 4.343500
-2.959200 4.971300
-2.939700 7.810200
-2.920100 9.019500
-2.900500 8.640800
-2.880900 7.531000
-2.861300 7.526600
-2.841700 7.858800
-2.822100 8.455400
-2.802500 9.002800
-2.783000 9.271100
-2.763400 9.583000
-2.743800 11.263100
-2.724200 11.896000
-2.704600 13.473100
-2.685000 13.139900
-2.665400 13.517300
-2.645800 12.512500
-2.626300 12.099000
-2.606700 11.864800
-2.587100 11.043200
-2.567500 10.082800
-2.547900 9.343600
-2.528300 9.142100
-2.508700 9.316400
-2.489200 9.510300
-2.469600 10.328200
-2.450000 10.131000
-2.430400 12.263400
-2.410800 13.141400
-2.391200 12.131100
-2.371600 12.675600
-2.352000 12.940800
-2.332500 12.247400
-2.312900 13.845100
-2.293300 14.670300
-2.273700 14.992900
-2.254100 15.290600
-2.234500 14.788300
-2.214900 12.530900
-2.195300 12.780100
-2.175800 12.564500
-2.156200 11.937700
-2.136600 10.411000
-2.117000 9.454300
-2.097400 9.108200
-2.077800 8.825000
-2.058200 8.680800
-2.038600 8.815200
-2.019100 8.590500
-1.999500 8.345400
-1.979900 8.165100
-1.960300 8.048600
-1.940700 7.863400
-1.921100 7.706600
-1.901500 7.624300
-1.881900 7.635300
-1.862400 7.701900
-1.842800 7.966700
-1.823200 7.503500
-1.803600 8.882100
-1.784000 8.952100
-1.764400 9.369600
-1.744800 10.687300
-1.725300 10.439100
-1.705700 10.238700
-1.686100 10.302900
-1.666500 10.420700
-1.646900 10.549800
-1.627300 10.724300
-1.607700 8.884800
-1.588100 6.474700
-1.568600 4.702400
-1.549000 4.865500
-1.529400 1.990700
-1.509800 0.000000
-1.490200 0.000000
-1.470600 0.000000
-1.451000 0.000000
-1.431400 0.000000
-1.411900 0.000000
-1.392300 0.000000
-1.372700 0.000000
-1.353100 0.000000
-1.333500 0.000000
-1.313900 0.000000
-1.294300 0.000000
-1.274700 0.000000
-1.255200 0.000000
-1.235600 0.000000
-1.216000 0.000000
-1.196400 0.000000
-1.176800 0.000000
-1.157200 0.000000
-1.137600 0.000000
-1.118100 0.000000
-1.098500 0.000000
-1.078900 0.000000
-1.059300 0.000000
-1.039700 0.000000
-1.020100 0.000000
-1.000500 0.000000
-0.980900 0.000000
-0.961400 0.000000
-0.941800 0.000000
-0.922200 0.000000
-0.902600 0.000000
-0.883000 0.000000
-0.863400 0.000000
-0.843800 0.000000
-0.824200 0.000000
-0.804700 0.000000
-0.785100 0.000000
-0.765500 0.000000
-0.745900 0.000000
-0.726300 0.000000
-0.706700 0.000000
-0.687100 0.000000
-0.667500 0.000000
-0.648000 0.000000
-0.628400 0.000000
-0.608800 0.000000
-0.589200 0.000000
-0.569600 0.000000
-0.550000 0.000000
-0.530400 0.000000
-0.510900 0.000000
-0.491300 0.000000
-0.471700 0.000000
-0.452100 0.000000
-0.432500 0.000000
-0.412900 0.000000
-0.393300 0.000000
-0.373700 0.000000
-0.354200 0.000000
-0.334600 0.000000
-0.315000 0.000000
-0.295400 0.000000
-0.275800 0.000000
-0.256200 0.000000
-0.236600 0.000000
-0.217000 0.000000
-0.197500 0.000000
-0.177900 0.000000
-0.158300 0.000000
-0.138700 0.000000
-0.119100 0.000000
-0.099500 0.000000
-0.079900 0.000000
-0.060300 0.000000
-0.040800 0.000000
-0.021200 0.000000
-0.001600 0.000000
0.018000 0.000000
0.037600 0.000000
0.057200 0.000000
0.076800 0.000000
0.096300 0.000000
0.115900 0.000000
0.135500 0.000000
0.155100 0.000000
0.174700 0.000000
0.194300 0.000000
0.213900 0.000000
0.233500 0.000000
0.253000 0.000000
0.272600 0.000000
0.292200 0.000000
0.311800 0.000000
0.331400 0.000000
0.351000 0.000000
0.370600 0.000000
0.390200 0.000000
0.409700 0.000000
0.429300 0.000000
0.448900 0.000000
0.468500 0.000000
0.488100 0.000000
0.507700 0.000000
0.527300 0.000000
0.546900 0.000000
0.566400 0.000000
0.586000 0.000000
0.605600 0.000000
0.625200 0.000000
0.644800 0.000000
0.664400 0.000000
0.684000 0.000000
0.703600 0.000000
0.723100 0.000000
0.742700 0.000000
0.762300 0.000000
0.781900 0.000000
0.801500 0.000000
0.821100 0.000000
0.840700 0.000000
0.860200 0.000000
0.879800 0.000000
0.899400 0.000000
0.919000 0.000000
0.938600 0.000000
0.958200 0.000000
0.977800 0.000000
0.997400 0.000000
1.016900 0.000000
1.036500 0.000000
1.056100 0.000000
1.075700 0.000000
1.095300 0.000000
1.114900 0.000000
1.134500 0.000000
1.154100 0.000000
1.173600 0.000000
1.193200 0.000000
1.212800 0.000000
1.232400 0.000000
1.252000 0.000000
1.271600 0.000000
1.291200 0.000000
1.310800 0.000000
1.330300 0.000000
1.349900 0.000000
1.369500 0.000000
1.389100 0.000000
1.408700 0.000000
1.428300 0.000000
1.447900 0.000000
1.467400 0.000000
1.487000 0.000000
1.506600 0.000000
1.526200 0.000000
1.545800 0.000000
1.565400 0.000000
1.585000 0.000000
1.604600 0.000000
1.624100 0.000000
1.643700 0.000000
1.663300 0.000000
1.682900 0.000000
1.702500 0.000000
1.722100 0.000000
1.741700 0.000000
1.761300 0.000000
1.780800 0.000000
1.800400 0.000000
1.820000 0.000000
1.839600 0.000000
1.859200 0.000000
1.878800 0.000000
1.898400 0.000000
1.918000 0.000000
1.937500 0.000000
1.957100 0.000000
1.976700 0.000000
1.996300 0.000000
2.015900 0.000000
2.035500 0.000000
2.055100 0.000000
2.074600 0.000000
2.094200 0.000000
2.113800 0.000000
2.133400 0.000000
2.153000 0.000000
2.172600 0.000000
2.192200 0.000000
2.211800 0.000000
2.231300 0.000000
2.250900 0.000000
2.270500 0.000000
2.290100 0.000000
2.309700 0.000000
2.329300 0.000000
2.348900 0.000000
2.368500 0.000100
2.388000 0.001000
2.407600 0.002900
2.427200 0.005700
2.446800 0.009400
2.466400 0.014100
2.486000 0.019700
2.505600 0.026300
2.525200 0.033700
2.544700 0.042200
2.564300 0.051500
2.583900 0.061800
2.603500 0.073100
2.623100 0.085300
2.642700 0.098400
2.662300 0.112500
2.681800 0.127500
2.701400 0.143400
2.721000 0.160300
2.740600 0.178100
2.760200 0.196900
2.779800 0.216600
2.799400 0.244800
2.819000 0.281100
2.838500 0.315200
2.858100 0.347200
2.877700 0.377000
2.897300 0.404800
2.916900 0.430400
2.936500 0.453800
2.956100 0.475100
2.975700 0.494300
2.995200 0.511400
3.014800 0.526300
3.034400 0.539700
3.054000 0.564300
3.073600 0.590100
3.093200 0.617100
3.112800 0.645200
3.132400 0.674500
3.151900 0.705000
3.171500 0.736600
3.191100 0.769700
3.210700 0.812400
3.230300 0.862900
3.249900 0.919800
3.269500 0.974400
3.289100 1.025500
3.308600 1.073100
3.328200 1.117100
3.347800 1.157500
3.367400 1.194400
3.387000 1.227800
3.406600 1.263100
3.426200 1.302800
3.445700 1.347100
3.465300 1.394600
3.484900 1.448400
3.504500 1.504800
3.524100 1.561800
3.543700 1.619100
3.563300 1.676800
3.582900 1.735000
3.602400 1.793500
3.622000 1.861400
3.641600 2.009900
3.661200 2.144100
3.680800 2.264100
3.700400 2.367500
3.720000 2.539300
3.739600 2.772600
3.759100 2.956800
3.778700 3.109900
3.798300 3.225000
3.817900 3.297900
3.837500 3.293400
3.857100 3.260100
3.876700 3.216300
3.896300 3.154500
3.915800 3.104700
3.935400 3.059400
3.955000 3.013400
3.974600 2.967700
3.994200 2.922100
4.013800 2.876700
4.033400 2.831500
4.052900 2.786500
4.072500 2.733000
4.092100 2.657500
4.111700 2.582000
4.131300 2.524800
4.150900 2.469900
4.170500 2.410400
4.190100 2.356600
4.209600 2.308400
4.229200 2.265900
4.248800 2.240600
4.268400 2.217600
4.288000 2.194700
4.307600 2.171800
4.327200 2.148900
4.346800 2.126100
4.366300 2.103200
4.385900 2.080400
4.405500 2.057600
4.425100 2.034800
4.444700 2.012100
4.464300 1.989300
4.483900 1.966600
4.503500 1.943900
4.523000 1.921200
4.542600 1.959900
4.562200 2.230800
4.581800 2.685700
4.601400 3.169200
4.621000 3.683000
4.640600 4.988100
4.660100 4.686200
4.679700 4.396200
4.699300 7.279100
4.718900 6.832500
4.738500 3.607100
4.758100 0.218000
4.777700 0.244200
4.797300 0.270400
4.816800 0.296700
4.836400 0.323000
4.856000 0.349300
4.875600 0.375600
4.895200 0.402000
4.914800 0.428400
4.934400 0.454800
4.954000 0.481200
4.973500 0.507700
4.993100 0.534200
5.012700 0.560700
5.032300 0.587200
5.051900 0.602300
5.071500 0.624600
5.091100 0.639900
5.110700 0.655100
5.130200 0.671200
5.149800 0.688700
5.169400 0.707700
5.189000 0.853000
5.208600 0.879400
5.228200 0.907000
5.247800 0.935800
5.267300 1.154100
5.286900 1.213500
5.306500 1.275200
5.326100 1.339300
5.345700 1.405800
5.365300 1.474500
5.384900 1.545600
5.404500 1.619100
5.424000 1.694900
5.443600 1.773000
5.463200 1.853400
5.482800 1.936200
5.502400 1.675500
5.522000 1.718800
5.541600 1.766900
5.561200 1.819800
5.580700 2.157600
5.600300 2.265400
5.619900 2.377000
5.639500 2.491200
5.659100 2.608100
5.678700 2.720300
5.698300 2.831200
5.717900 2.943900
5.737400 3.058400
5.757000 3.174800
5.776600 3.293100
5.796200 3.413200
5.815800 3.537100
5.835400 3.669500
5.855000 3.804200
5.874600 3.905900
5.894100 3.905700
5.913700 3.883700
5.933300 4.022000
5.952900 4.212700
5.972500 4.405400
5.992100 4.600200
6.011700 4.797000
6.031200 5.004700
6.050800 5.244500
6.070400 5.517400
6.090000 5.823400
6.109600 6.169700
6.129200 6.579800
6.148800 7.044600
6.168400 6.944800
6.187900 7.299100
6.207500 6.898800
6.227100 6.033400
6.246700 4.615400
6.266300 3.141200
6.285900 2.927700
6.305500 2.970400
6.325100 3.022300
6.344600 3.080200
6.364200 3.142600
6.383800 3.221700
6.403400 3.320800
6.423000 3.440300
6.442600 3.596400
6.462200 3.675400
6.481800 3.704800
6.501300 3.744800
6.520900 3.795900
6.540500 3.865000
6.560100 3.963600
6.579700 4.132500
6.599300 4.334000
6.618900 4.518200
6.638400 4.799800
6.658000 5.081000
6.677600 5.316100
6.697200 5.388200
6.716800 5.314400
6.736400 5.203000
6.756000 5.050300
6.775600 4.889500
6.795100 4.710800
6.814700 4.328300
6.834300 3.975200
6.853900 3.651700
6.873500 3.591700
6.893100 3.911100
6.912700 4.205600
6.932300 3.750500
6.951800 3.279900
6.971400 3.297800
6.991000 3.806500
7.010600 4.098900
7.030200 4.662500
7.049800 5.533200
7.069400 5.239300
7.089000 5.018000
7.108500 4.725000
7.128100 4.446800
7.147700 4.183700
7.167300 3.937300
7.186900 3.805900
7.206500 3.779100
7.226100 2.852000
7.245600 2.129900
7.265200 1.613900
7.284800 1.468300
7.304400 1.568100
7.324000 1.652500
7.343600 1.721500
7.363200 1.770500
7.382800 1.764800
7.402300 1.769600
7.421900 1.721900
7.441500 1.722200
7.461100 1.620600
7.480700 1.358300
7.500300 1.288600
7.519900 1.360300
7.539500 1.428900
7.559000 1.494200
7.578600 1.556300
7.598200 1.615200
7.617800 1.671200
7.637400 1.824800
7.657000 2.012800
7.676600 2.189600
7.696200 2.355100
7.715700 2.509300
7.735300 2.614900
7.754900 2.615700
7.774500 2.761100
7.794100 3.207200
7.813700 3.638600
7.833300 4.055200
7.852800 4.457100
7.872400 4.848300
7.892000 5.241700
7.911600 5.638100
7.931200 5.957300
7.950800 6.234600
7.970400 6.445600
7.990000 6.581800
8.009500 6.627000
8.029100 6.632500
8.048700 6.636300
8.068300 6.638700
8.087900 6.654600
8.107500 6.646500
8.127100 6.372600
8.146700 6.070200
8.166200 6.152000
8.185800 7.048100
8.205400 7.512200
8.225000 6.432200
8.244600 4.664500
8.264200 4.377700
8.283800 4.025500
8.303400 3.609100
8.322900 3.171900
8.342500 2.772300
8.362100 2.209500
8.381700 1.650000
8.401300 1.133100
8.420900 1.672400
8.440500 9.869700
8.460100 5.456700
8.479600 2.471100
8.499200 2.718400
8.518800 3.321100
8.538400 3.977100
8.558000 4.664000
8.577600 5.375500
8.597200 5.204500
8.616700 5.177500
8.636300 5.108800
8.655900 4.998200
8.675500 4.797600
8.695100 5.061600
8.714700 6.481000
8.734300 5.839800
8.753900 5.890600
8.773400 5.930100
8.793000 6.018500
8.812600 6.641100
8.832200 6.933200
8.851800 7.141000
8.871400 7.570400
8.891000 8.633400
8.910600 8.907000
8.930100 9.092700
8.949700 9.093800
8.969300 8.957000
8.988900 8.712100
9.008500 8.385900
9.028100 8.109500
9.047700 8.045900
9.067300 7.947800
9.086800 7.680400
9.106400 8.021300
9.126000 9.307200
9.145600 8.539900
9.165200 7.864700
9.184800 7.757400
9.204400 8.741500
9.223900 10.814200
9.243500 9.321200
9.263100 8.821300
9.282700 8.282100
9.302300 7.708700
9.321900 7.154200
9.341500 6.599200
9.361100 6.071400
9.380600 5.532200
9.400200 4.922600
9.419800 4.109900
9.439400 3.852900
9.459000 3.979600
9.478600 4.174800
9.498200 4.411400
9.517800 4.660500
9.537300 4.920100
9.556900 5.190300
9.576500 5.502100
9.596100 5.864400
9.615700 6.277000
9.635300 6.867200
9.654900 7.299800
9.674500 7.531100
9.694000 7.869000
9.713600 7.361000
9.733200 6.611200
9.752800 6.117000
9.772400 5.767500
9.792000 5.255100
9.811600 5.177800
9.831100 5.143300
9.850700 5.165900
9.870300 5.226500
9.889900 5.255600
9.909500 5.370900
9.929100 5.185000
9.948700 5.175400
9.968300 4.933400
9.987800 4.507800
10.007400 4.256000
10.027000 3.999900
10.046600 3.760800
10.066200 3.551600
10.085800 3.367100
10.105400 3.207200
10.125000 3.064300
10.144500 2.931500
10.164100 2.808900
10.183700 2.696400
10.203300 2.591200
10.222900 2.764600
10.242500 2.642200
10.262100 2.528500
10.281700 2.424300
10.301200 2.329600
10.320800 2.244400
10.340400 1.955800
10.360000 1.910500
10.379600 1.867200
10.399200 1.825900
10.418800 1.786600
10.438300 1.767900
10.457900 1.786900
10.477500 1.838600
10.497100 1.917600
10.516700 2.012800
10.536300 2.124100
10.555900 2.251600
10.575500 2.395600
10.595000 2.556400
10.614600 2.732000
10.634200 2.924600
10.653800 3.072400
10.673400 3.140900
10.693000 3.312600
10.712600 3.484100
10.732200 3.645200
10.751700 3.796100
10.771300 3.936700
10.790900 4.067000
10.810500 4.186800
10.830100 4.295000
10.849700 4.313000
10.869300 4.370900
10.888900 4.537000
10.908400 4.551400
10.928000 4.614400
10.947600 4.721100
10.967200 4.828900
10.986800 4.830200
11.006400 4.361900
11.026000 3.983400
11.045600 5.174600
11.065100 5.769700
11.084700 5.850100
11.104300 5.911500
11.123900 6.002700
11.143500 6.152800
11.163100 5.820500
11.182700 7.578300
11.202200 10.163200
11.221800 8.912800
11.241400 10.477500
11.261000 6.633700
11.280600 6.044700
11.300200 5.455600
11.319800 4.892300
11.339400 4.412500
11.358900 3.974500
11.378500 3.701900
11.398100 3.615300
11.417700 3.606400
11.437300 3.675700
11.456900 3.823200
11.476500 3.777400
11.496100 2.254700
11.515600 2.583400
11.535200 2.515000
11.554800 2.482300
11.574400 2.485200
11.594000 2.650900
11.613600 2.658200
11.633200 2.646100
11.652800 2.656700
11.672300 2.722800
11.691900 2.801700
11.711500 2.901800
11.731100 3.030100
11.750700 3.148000
11.770300 3.248100
11.789900 3.330400
11.809400 3.400900
11.829000 3.468700
11.848600 3.533900
11.868200 3.620900
11.887800 3.709500
11.907400 3.791800
11.927000 3.867600
11.946600 3.936500
11.966100 3.998100
11.985700 4.052300
12.005300 4.099200
12.024900 4.138700
12.044500 4.170800
12.064100 4.064900
12.083700 3.990600
12.103300 3.847600
12.122800 3.674000
12.142400 3.468500
12.162000 3.218000
12.181600 3.184300
12.201200 3.215900
12.220800 3.244700
12.240400 3.235600
12.260000 3.205500
12.279500 3.177100
12.299100 3.150600
12.318700 3.125800
12.338300 3.102900
12.357900 3.081700
12.377500 3.062400
12.397100 3.044900
12.416600 3.001200
12.436200 2.910400
12.455800 2.823700
12.475400 2.741300
12.495000 2.664700
12.514600 2.612200
12.534200 2.588600
12.553800 2.594800
12.573300 2.632300
12.592900 2.662000
12.612500 2.656000
12.632100 2.669000
12.651700 2.739200
12.671300 3.084400
12.690900 3.368000
12.710500 3.605800
12.730000 3.890000
12.749600 4.197300
12.769200 4.522700
12.788800 4.908400
12.808400 5.208100
12.828000 5.406700
12.847600 5.508100
12.867200 5.518900
12.886700 5.446000
12.906300 5.306400
12.925900 5.123000
12.945500 5.026600
12.965100 4.939200
12.984700 4.831100
13.004300 4.814700
13.023800 4.819900
13.043400 4.841600
13.063000 5.517500
13.082600 5.604600
13.102200 5.532700
13.121800 5.451400
13.141400 5.384800
13.161000 5.328400
13.180500 5.194300
13.200100 5.052900
13.219700 4.915100
13.239300 4.780500
13.258900 5.232600
13.278500 5.908800
13.298100 5.942300
13.317700 5.703300
13.337200 5.490300
13.356800 5.303300
13.376400 5.047300
13.396000 4.641700
13.415600 4.492100
13.435200 4.505200
13.454800 5.166900
13.474400 4.797600
13.493900 4.714700
13.513500 4.733100
13.533100 4.767500
13.552700 4.837600
13.572300 4.944200
13.591900 5.087200
13.611500 5.268700
13.631100 5.563600
13.650600 5.996400
13.670200 6.414200
13.689800 6.647400
13.709400 6.392900
13.729000 6.539000
13.748600 6.510700
13.768200 6.409400
13.787700 6.276600
13.807300 6.177100
13.826900 6.852900
13.846500 6.840100
13.866100 6.813000
13.885700 6.542400
13.905300 6.681900
13.924900 6.759100
13.944400 6.799000
13.964000 6.660100
13.983600 6.504300
14.003200 6.347100
14.022800 6.188400
14.042400 6.028200
14.062000 5.703300
14.081600 5.515500
14.101100 5.466000
14.120700 5.216500
14.140300 4.852000
14.159900 4.451500
14.179500 4.088700
14.199100 3.753000
14.218700 3.452200
14.238300 3.290700
14.257800 3.235900
14.277400 2.714200
14.297000 2.672000
14.316600 2.648100
14.336200 1.898300
14.355800 2.082200
14.375400 2.273300
14.394900 2.480400
14.414500 2.930800
14.434100 3.572900
14.453700 5.938900
14.473300 5.043300
14.492900 4.385700
14.512500 4.526000
14.532100 4.676700
14.551600 4.837300
14.571200 5.006000
14.590800 5.182400
14.610400 5.366500
14.630000 5.558400
14.649600 5.735200
14.669200 5.897900
14.688800 6.099100
14.708300 6.385400
14.727900 6.386400
14.747500 6.330000
14.767100 6.473700
14.786700 6.636300
14.806300 6.846200
14.825900 7.233600
14.845500 8.065800
14.865000 7.931000
14.884600 7.782500
14.904200 7.405800
14.923800 7.262500
14.943400 7.128000
14.963000 7.006600
14.982600 7.015800
15.002100 7.115500
15.021700 7.265100
15.041300 7.350900
15.060900 7.221600
15.080500 7.017400
15.100100 6.775100
15.119700 6.554600
15.139300 6.356400
15.158800 6.180600
15.178400 6.054800
15.198000 6.007900
15.217600 6.006100
15.237200 5.937800
15.256800 5.890400
15.276400 5.951100
15.296000 6.068200
15.315500 6.202100
15.335100 6.324200
15.354700 6.472100
15.374300 6.534500
15.393900 6.681500
15.413500 9.545600
15.433100 6.752100
15.452700 6.558600
15.472200 6.519600
15.491800 6.809400
15.511400 6.709900
15.531000 6.587100
15.550600 6.441400
15.570200 6.273200
15.589800 6.104200
15.609300 5.547100
15.628900 5.377100
15.648500 5.222600
15.668100 5.090700
15.687700 4.959800
15.707300 4.829400
15.726900 4.699800
15.746500 4.622800
15.766000 5.127400
15.785600 5.347100
15.805200 5.595000
15.824800 5.701500
15.844400 5.778500
15.864000 5.763500
15.883600 5.816400
15.903200 5.941400
15.922700 6.138000
15.942300 6.377200
15.961900 5.847100
15.981500 5.653100
16.001100 5.287400
16.020700 4.929800
16.040300 4.799400
16.059900 4.723100
16.079400 4.655800
16.099000 4.598200
16.118600 4.561500
16.138200 4.548900
16.157800 4.560600
16.177400 4.674500
16.197000 4.824800
16.216600 4.969800
16.236100 5.108900
16.255700 5.179600
16.275300 4.963700
16.294900 4.738500
16.314500 4.519700
16.334100 4.578500
16.353700 4.631100
16.373200 4.680700
16.392800 4.727500
16.412400 4.771400
16.432000 4.812400
16.451600 4.841300
16.471200 4.837700
16.490800 4.831900
16.510400 4.830400
16.529900 5.242900
16.549500 5.368100
16.569100 5.488100
16.588700 5.578900
16.608300 5.756300
16.627900 5.944700
16.647500 6.117200
16.667100 6.267500
16.686600 6.441700
16.706200 6.645600
16.725800 6.871300
16.745400 7.097300
16.765000 7.471700
16.784600 7.018600
16.804200 6.712600
16.823800 6.470500
16.843300 6.278100
16.862900 6.086800
16.882500 5.997800
16.902100 5.941200
16.921700 5.898600
16.941300 5.979000
16.960900 5.929700
16.980400 5.845600
17.000000 5.711000
17.019600 5.598300
17.039200 5.528700
17.058800 5.462200
17.078400 5.409500
17.098000 5.489400
17.117600 5.271500
17.137100 5.111000
17.156700 5.006100
17.176300 4.977700
17.195900 5.129400
17.215500 5.282400
17.235100 5.384200
17.254700 5.604400
17.274300 5.815700
17.293800 6.017400
17.313400 6.204800
17.333000 6.373900
17.352600 6.390700
17.372200 6.400300
17.391800 6.426100
17.411400 6.476100
17.431000 6.690900
17.450500 6.966400
17.470100 7.374000
17.489700 7.893600
17.509300 7.976000
17.528900 8.307000
17.548500 6.367200
17.568100 5.850400
17.587600 5.413800
17.607200 5.063200
17.626800 5.004700
17.646400 5.045000
17.666000 5.137900
17.685600 5.242700
17.705200 5.177400
17.724800 4.948500
17.744300 4.717600
17.763900 4.603600
17.783500 4.510900
17.803100 4.430100
17.822700 4.360700
17.842300 4.302500
17.861900 4.222400
17.881500 4.211800
17.901000 4.226600
17.920600 4.240600
17.940200 4.253600
17.959800 4.265800
17.979400 4.278800
17.999000 4.303700
18.018600 4.361400
18.038200 4.408700
18.057700 4.476100
18.077300 4.580900
18.096900 4.675800
18.116500 4.765000
18.136100 4.871500
18.155700 4.995200
18.175300 5.129400
18.194800 5.266100
18.214400 5.413400
18.234000 5.550500
18.253600 5.661700
18.273200 5.782300
18.292800 5.906000
18.312400 6.039900
18.332000 6.122500
18.351500 6.352500
18.371100 7.055500
18.390700 6.474600
18.410300 5.829100
18.429900 5.873800
18.449500 5.979800
18.469100 7.063600
18.488700 7.217100
18.508200 7.419400
18.527800 7.179000
18.547400 7.061500
18.567000 7.033400
18.586600 7.040700
18.606200 7.081500
18.625800 7.124000
18.645400 7.154900
18.664900 7.166900
18.684500 7.172500
18.704100 7.171900
18.723700 6.609200
18.743300 6.124900
18.762900 6.159600
18.782500 6.220000
18.802100 6.311900
18.821600 6.422500
18.841200 6.839500
18.860800 7.385800
18.880400 7.911500
18.900000 8.414000
18.919600 8.879900
18.939200 9.725100
18.958700 12.864100
18.978300 10.383200
18.997900 9.467500
19.017500 8.999600
19.037100 8.565400
19.056700 8.062500
19.076300 7.520800
19.095900 6.956900
19.115400 6.392900
19.135000 5.849900
19.154600 5.327900
19.174200 4.827600
19.193800 4.394100
19.213400 4.116500
19.233000 3.927800
19.252600 3.814100
19.272100 3.741600
19.291700 3.698300
19.311300 3.691100
19.330900 3.787700
19.350500 3.925500
19.370100 4.027100
19.389700 4.047200
19.409300 4.051200
19.428800 4.045800
19.448400 4.031000
19.468000 4.006900
19.487600 3.973300
19.507200 3.931000
19.526800 3.890300
19.546400 4.067000
19.565900 4.181100
19.585500 4.212500
19.605100 4.197500
19.624700 4.145100
19.644300 4.042400
19.663900 3.873200
19.683500 3.616400
19.703100 3.249200
19.722600 3.082400
19.742200 2.920900
19.761800 2.781900
19.781400 2.706700
19.801000 2.627700
19.820600 2.544800
19.840200 2.458100
19.859800 2.367500
19.879300 2.273100
19.898900 2.174800
19.918500 2.072600
19.938100 1.966600
19.957700 1.856900
19.977300 1.743700
19.996900 1.627300
20.016500 1.508200
20.036000 1.391500
20.055600 1.277200
20.075200 1.165200
20.094800 1.055600
20.114400 1.877700
20.134000 1.985700
20.153600 1.724400
20.173100 0.656800
20.192700 0.564100
20.212300 0.486900
20.231900 0.033000
20.251500 0.017800
20.271100 0.007400
20.290700 0.001600
20.310300 0.000000
20.329800 0.000000
20.349400 0.000000
20.369000 0.000000
20.388600 0.000000
20.408200 0.000000
20.427800 0.000000
20.447400 0.000000
20.467000 0.000000
20.486500 0.000000
20.506100 0.000000
20.525700 0.000000
20.545300 0.000000
20.564900 0.000000
20.584500 0.000000
20.604100 0.000000
20.623700 0.000000
20.643200 0.000000
20.662800 0.000000
20.682400 0.000000
20.702000 0.000000
20.721600 0.000000
20.741200 0.000000
20.760800 0.000000
20.780300 0.000000
20.799900 0.000000
20.819500 0.000000
20.839100 0.000000
20.858700 0.000000
20.878300 0.000000
20.897900 0.000000
20.917500 0.000000
20.937000 0.000000
20.956600 0.000000
20.976200 0.000000
20.995800 0.000000
21.015400 0.000000
21.035000 0.000000
21.054600 0.000000
21.074200 0.000000
21.093700 0.000000
21.113300 0.000000
21.132900 0.000000
21.152500 0.000000
21.172100 0.000000
21.191700 0.000000
21.211300 0.000000
21.230900 0.000000
21.250400 0.000000
21.270000 0.000000
21.289600 0.000000
21.309200 0.000000
21.328800 0.000000
21.348400 0.000000
21.368000 0.000000
21.387600 0.000000
21.407100 0.000000
21.426700 0.000000
21.446300 0.000000
21.465900 0.000000
21.485500 0.000000
21.505100 0.000000
21.524700 0.000000
21.544200 0.000000
21.563800 0.000000
21.583400 0.000000
21.603000 0.000000
21.622600 0.000000
21.642200 0.000000
21.661800 0.000000
21.681400 0.000000
21.700900 0.000000
21.720500 0.000000
21.740100 0.000000
21.759700 0.000000
21.779300 0.000000
21.798900 0.000000
21.818500 0.000000
21.838100 0.000000
21.857600 0.000000
21.877200 0.000000
21.896800 0.000000
21.916400 0.000000
21.936000 0.000000
21.955600 0.000000
21.975200 0.000000
21.994800 0.000000
22.014300 0.000000
22.033900 0.000000
22.053500 0.000000
22.073100 0.000000
22.092700 0.000000
e
