set title 'mp-1221812 - Density of States'
set xlabel 'Energy (eV)'
set ylabel 'DOS (states/eV)'
set grid
set xrange [-10:10]
set yrange [0:15.706]
set xzeroaxis lt -1
set terminal png size 800,600
set output 'mp-1221812_dos_gnuplot.png'
plot '-' using 1:2 with lines title 'DOS'
-46.592800 0.000000
-46.542800 0.000000
-46.492900 0.000000
-46.443000 0.000000
-46.393100 0.000000
-46.343200 0.000000
-46.293300 0.000000
-46.243400 0.000000
-46.193500 0.000000
-46.143600 0.000000
-46.093700 0.000000
-46.043800 0.000000
-45.993900 0.000000
-45.944000 0.000000
-45.894100 0.000000
-45.844100 0.000000
-45.794200 0.000000
-45.744300 0.000000
-45.694400 0.000000
-45.644500 0.000000
-45.594600 0.000000
-45.544700 0.000000
-45.494800 0.000000
-45.444900 0.000000
-45.395000 0.000000
-45.345100 0.000000
-45.295200 0.000000
-45.245300 0.000000
-45.195400 0.000000
-45.145500 0.000000
-45.095500 0.000000
-45.045600 0.000000
-44.995700 0.000000
-44.945800 0.000000
-44.895900 0.000000
-44.846000 0.000000
-44.796100 0.000000
-44.746200 0.000000
-44.696300 0.000000
-44.646400 0.000000
-44.596500 0.000000
-44.546600 0.000000
-44.496700 0.000000
-44.446800 0.000000
-44.396800 0.000000
-44.346900 0.000000
-44.297000 0.000000
-44.247100 0.000000
-44.197200 0.000000
-44.147300 0.000000
-44.097400 0.000000
-44.047500 0.000000
-43.997600 0.000000
-43.947700 0.000000
-43.897800 0.000000
-43.847900 0.000000
-43.798000 0.000000
-43.748100 0.000000
-43.698100 0.000000
-43.648200 0.000000
-43.598300 0.000000
-43.548400 0.000000
-43.498500 0.000000
-43.448600 0.000000
-43.398700 0.000000
-43.348800 0.000000
-43.298900 0.000000
-43.249000 0.000000
-43.199100 0.000000
-43.149200 0.000000
-43.099300 0.000000
-43.049400 0.000000
-42.999400 0.000000
-42.949500 0.000000
-42.899600 0.000000
-42.849700 0.000000
-42.799800 0.000000
-42.749900 0.000000
-42.700000 0.000000
-42.650100 0.000000
-42.600200 0.000000
-42.550300 0.000000
-42.500400 0.000000
-42.450500 0.000000
-42.400600 0.000000
-42.350700 0.000000
-42.300800 0.000000
-42.250800 0.000000
-42.200900 0.000000
-42.151000 0.000000
-42.101100 0.000000
-42.051200 1.607200
-42.001300 10.893900
-41.951400 20.832600
-41.901500 3.668400
-41.851600 8.149000
-41.801700 16.245100
-41.751800 12.821300
-41.701900 14.710800
-41.652000 13.122800
-41.602100 8.680300
-41.552100 13.769300
-41.502200 5.528600
-41.452300 11.677100
-41.402400 23.529500
-41.352500 10.217700
-41.302600 12.210000
-41.252700 0.000000
-41.202800 0.000000
-41.152900 0.000000
-41.103000 0.000000
-41.053100 0.000000
-41.003200 0.000000
-40.953300 0.000000
-40.903400 0.000000
-40.853400 0.000000
-40.803500 0.000000
-40.753600 0.000000
-40.703700 0.000000
-40.653800 0.000000
-40.603900 0.000000
-40.554000 0.000000
-40.504100 0.000000
-40.454200 0.000000
-40.404300 0.000000
-40.354400 0.000000
-40.304500 0.000000
-40.254600 0.000000
-40.204700 0.000000
-40.154700 0.000000
-40.104800 0.000000
-40.054900 0.000000
-40.005000 0.000000
-39.955100 0.000000
-39.905200 0.000000
-39.855300 0.000000
-39.805400 0.000000
-39.755500 0.000000
-39.705600 0.000000
-39.655700 0.000000
-39.605800 0.000000
-39.555900 0.000000
-39.506000 0.000000
-39.456100 0.000000
-39.406100 0.000000
-39.356200 0.000000
-39.306300 0.000000
-39.256400 0.000000
-39.206500 0.000000
-39.156600 0.000000
-39.106700 0.000000
-39.056800 0.000000
-39.006900 0.000000
-38.957000 0.000000
-38.907100 0.000000
-38.857200 0.000000
-38.807300 0.000000
-38.757400 0.000000
-38.707400 0.000000
-38.657500 0.000000
-38.607600 0.000000
-38.557700 0.000000
-38.507800 0.000000
-38.457900 0.000000
-38.408000 0.000000
-38.358100 0.000000
-38.308200 0.000000
-38.258300 0.000000
-38.208400 0.000000
-38.158500 0.000000
-38.108600 0.000000
-38.058700 0.000000
-38.008700 0.000000
-37.958800 0.000000
-37.908900 0.000000
-37.859000 0.000000
-37.809100 0.000000
-37.759200 0.000000
-37.709300 0.000000
-37.659400 0.000000
-37.609500 0.000000
-37.559600 0.000000
-37.509700 0.000000
-37.459800 0.000000
-37.409900 0.000000
-37.360000 0.000000
-37.310000 0.000000
-37.260100 0.000000
-37.210200 0.000000
-37.160300 0.000000
-37.110400 0.000000
-37.060500 0.000000
-37.010600 0.000000
-36.960700 0.000000
-36.910800 0.000000
-36.860900 0.000000
-36.811000 0.000000
-36.761100 0.000000
-36.711200 0.000000
-36.661300 0.000000
-36.611300 0.000000
-36.561400 0.000000
-36.511500 0.000000
-36.461600 0.000000
-36.411700 0.000000
-36.361800 0.000000
-36.311900 0.000000
-36.262000 0.000000
-36.212100 0.000000
-36.162200 0.000000
-36.112300 0.000000
-36.062400 0.000000
-36.012500 0.000000
-35.962600 0.000000
-35.912700 0.000000
-35.862700 0.000000
-35.812800 0.000000
-35.762900 0.000000
-35.713000 0.000000
-35.663100 0.000000
-35.613200 0.000000
-35.563300 0.000000
-35.513400 0.000000
-35.463500 0.000000
-35.413600 0.000000
-35.363700 0.000000
-35.313800 0.000000
-35.263900 0.000000
-35.214000 0.000000
-35.164000 0.000000
-35.114100 0.000000
-35.064200 0.000000
-35.014300 0.000000
-34.964400 0.000000
-34.914500 0.000000
-34.864600 0.000000
-34.814700 0.000000
-34.764800 0.000000
-34.714900 0.000000
-34.665000 0.000000
-34.615100 0.000000
-34.565200 0.000000
-34.515300 0.000000
-34.465300 0.000000
-34.415400 0.000000
-34.365500 0.000000
-34.315600 0.000000
-34.265700 0.000000
-34.215800 0.000000
-34.165900 0.000000
-34.116000 0.000000
-34.066100 0.000000
-34.016200 0.000000
-33.966300 0.000000
-33.916400 0.000000
-33.866500 0.000000
-33.816600 0.000000
-33.766600 0.000000
-33.716700 0.000000
-33.666800 0.000000
-33.616900 0.000000
-33.567000 0.000000
-33.517100 0.000000
-33.467200 0.000000
-33.417300 0.000000
-33.367400 0.000000
-33.317500 0.000000
-33.267600 0.000000
-33.217700 0.000000
-33.167800 0.000000
-33.117900 0.000000
-33.068000 0.000000
-33.018000 0.000000
-32.968100 0.000000
-32.918200 0.000000
-32.868300 0.000000
-32.818400 0.000000
-32.768500 0.000000
-32.718600 0.000000
-32.668700 0.000000
-32.618800 0.000000
-32.568900 0.000000
-32.519000 0.000000
-32.469100 0.000000
-32.419200 0.000000
-32.369300 0.000000
-32.319300 0.000000
-32.269400 0.000000
-32.219500 0.000000
-32.169600 0.000000
-32.119700 0.000000
-32.069800 0.000000
-32.019900 0.000000
-31.970000 0.000000
-31.920100 0.000000
-31.870200 0.000000
-31.820300 0.000000
-31.770400 0.000000
-31.720500 0.000000
-31.670600 0.000000
-31.620600 0.000000
-31.570700 0.000000
-31.520800 0.000000
-31.470900 0.000000
-31.421000 0.000000
-31.371100 0.000000
-31.321200 0.000000
-31.271300 0.000000
-31.221400 0.000000
-31.171500 0.000000
-31.121600 0.000000
-31.071700 0.000000
-31.021800 0.000000
-30.971900 0.000000
-30.921900 0.000000
-30.872000 0.000000
-30.822100 0.000000
-30.772200 0.000000
-30.722300 0.000000
-30.672400 0.000000
-30.622500 0.000000
-30.572600 0.000000
-30.522700 0.000000
-30.472800 0.000000
-30.422900 0.000000
-30.373000 0.000000
-30.323100 0.000000
-30.273200 0.000000
-30.223300 0.000000
-30.173300 0.000000
-30.123400 0.000000
-30.073500 0.000000
-30.023600 0.000000
-29.973700 0.000000
-29.923800 0.000000
-29.873900 0.000000
-29.824000 0.000000
-29.774100 0.000000
-29.724200 0.000000
-29.674300 0.000000
-29.624400 0.000000
-29.574500 0.000000
-29.524600 0.000000
-29.474600 0.000000
-29.424700 0.000000
-29.374800 0.000000
-29.324900 0.000000
-29.275000 0.000000
-29.225100 0.000000
-29.175200 0.000000
-29.125300 0.000000
-29.075400 0.000000
-29.025500 0.000000
-28.975600 0.000000
-28.925700 0.000000
-28.875800 0.000000
-28.825900 0.000000
-28.775900 0.000000
-28.726000 0.000000
-28.676100 0.000000
-28.626200 0.000000
-28.576300 0.000000
-28.526400 0.000000
-28.476500 0.000000
-28.426600 0.000000
-28.376700 0.000000
-28.326800 0.000000
-28.276900 0.000000
-28.227000 0.000000
-28.177100 0.000000
-28.127200 0.000000
-28.077200 0.000000
-28.027300 0.000000
-27.977400 0.000000
-27.927500 0.000000
-27.877600 0.000000
-27.827700 0.000000
-27.777800 0.000000
-27.727900 0.000000
-27.678000 0.000000
-27.628100 0.000000
-27.578200 0.000000
-27.528300 0.000000
-27.478400 0.000000
-27.428500 0.000000
-27.378500 0.000000
-27.328600 0.000000
-27.278700 0.000000
-27.228800 0.000000
-27.178900 0.000000
-27.129000 0.000000
-27.079100 0.000000
-27.029200 0.000000
-26.979300 0.000000
-26.929400 0.000000
-26.879500 0.000000
-26.829600 0.000000
-26.779700 0.000000
-26.729800 0.000000
-26.679900 0.000000
-26.629900 0.000000
-26.580000 0.000000
-26.530100 0.000000
-26.480200 0.000000
-26.430300 0.000000
-26.380400 0.000000
-26.330500 0.000000
-26.280600 0.000000
-26.230700 0.000000
-26.180800 0.000000
-26.130900 0.000000
-26.081000 0.000000
-26.031100 0.000000
-25.981200 0.000000
-25.931200 0.000000
-25.881300 0.000000
-25.831400 0.000000
-25.781500 0.000000
-25.731600 0.000000
-25.681700 0.000000
-25.631800 0.000000
-25.581900 0.000000
-25.532000 0.000000
-25.482100 0.000000
-25.432200 0.000000
-25.382300 0.000000
-25.332400 0.000000
-25.282500 0.000000
-25.232500 0.000000
-25.182600 0.000000
-25.132700 0.000000
-25.082800 0.000000
-25.032900 0.000000
-24.983000 0.000000
-24.933100 0.000000
-24.883200 0.000000
-24.833300 0.000000
-24.783400 0.000000
-24.733500 0.000000
-24.683600 0.000000
-24.633700 0.000000
-24.583800 0.000000
-24.533800 0.000000
-24.483900 0.000000
-24.434000 0.000000
-24.384100 0.000000
-24.334200 0.000000
-24.284300 0.000000
-24.234400 0.000000
-24.184500 0.000000
-24.134600 0.000000
-24.084700 0.000000
-24.034800 0.000000
-23.984900 0.000000
-23.935000 0.000000
-23.885100 0.000000
-23.835200 0.000000
-23.785200 0.000000
-23.735300 0.000000
-23.685400 0.000000
-23.635500 0.000000
-23.585600 0.000000
-23.535700 0.000000
-23.485800 0.000000
-23.435900 0.000000
-23.386000 0.000000
-23.336100 0.000000
-23.286200 0.000000
-23.236300 0.000000
-23.186400 0.000000
-23.136500 0.000000
-23.086500 0.000000
-23.036600 0.000000
-22.986700 0.000000
-22.936800 0.000000
-22.886900 0.000000
-22.837000 0.000000
-22.787100 0.000000
-22.737200 0.000000
-22.687300 0.000000
-22.637400 0.000000
-22.587500 0.000000
-22.537600 0.000000
-22.487700 0.000000
-22.437800 0.000000
-22.387800 0.000000
-22.337900 0.000000
-22.288000 0.000000
-22.238100 0.000000
-22.188200 0.000000
-22.138300 0.000000
-22.088400 0.000000
-22.038500 0.000000
-21.988600 0.000000
-21.938700 0.000000
-21.888800 0.000000
-21.838900 0.000000
-21.789000 0.000000
-21.739100 0.000000
-21.689100 0.000000
-21.639200 0.000000
-21.589300 0.000000
-21.539400 0.000000
-21.489500 0.000000
-21.439600 0.000000
-21.389700 0.000000
-21.339800 0.000000
-21.289900 0.000000
-21.240000 0.000000
-21.190100 0.000000
-21.140200 0.000000
-21.090300 0.000000
-21.040400 0.000000
-20.990500 0.000000
-20.940500 0.000000
-20.890600 0.000000
-20.840700 0.000000
-20.790800 0.000000
-20.740900 0.000000
-20.691000 0.000000
-20.641100 0.000000
-20.591200 0.000000
-20.541300 0.000000
-20.491400 0.000000
-20.441500 0.000000
-20.391600 0.000000
-20.341700 0.000000
-20.291800 0.000000
-20.241800 0.000000
-20.191900 0.000000
-20.142000 0.000000
-20.092100 0.000000
-20.042200 0.000000
-19.992300 0.000000
-19.942400 0.000000
-19.892500 0.000000
-19.842600 0.000000
-19.792700 0.000000
-19.742800 0.000000
-19.692900 0.000000
-19.643000 0.000000
-19.593100 0.000000
-19.543100 0.000000
-19.493200 0.000000
-19.443300 0.000000
-19.393400 0.000000
-19.343500 0.000000
-19.293600 0.000000
-19.243700 0.000000
-19.193800 0.000000
-19.143900 0.000000
-19.094000 0.000000
-19.044100 0.000000
-18.994200 0.000000
-18.944300 0.000000
-18.894400 0.000000
-18.844400 0.000000
-18.794500 0.000000
-18.744600 0.000000
-18.694700 0.000000
-18.644800 0.000000
-18.594900 0.000000
-18.545000 0.000000
-18.495100 0.000000
-18.445200 0.000000
-18.395300 0.000000
-18.345400 0.000000
-18.295500 0.000000
-18.245600 0.000000
-18.195700 0.000000
-18.145700 0.000000
-18.095800 0.000000
-18.045900 0.000000
-17.996000 0.000000
-17.946100 0.000000
-17.896200 0.000000
-17.846300 0.000000
-17.796400 0.000000
-17.746500 0.000000
-17.696600 0.000000
-17.646700 0.000000
-17.596800 0.000000
-17.546900 0.000000
-17.497000 0.000000
-17.447100 0.000000
-17.397100 0.000000
-17.347200 0.000000
-17.297300 0.000000
-17.247400 0.000000
-17.197500 0.000000
-17.147600 0.000000
-17.097700 0.000000
-17.047800 0.000000
-16.997900 0.000000
-16.948000 0.000000
-16.898100 0.000000
-16.848200 0.000000
-16.798300 0.000000
-16.748400 0.000000
-16.698400 0.000000
-16.648500 0.000000
-16.598600 0.000000
-16.548700 0.000000
-16.498800 0.000000
-16.448900 0.000000
-16.399000 0.000000
-16.349100 0.000000
-16.299200 0.000000
-16.249300 0.000000
-16.199400 0.000000
-16.149500 0.000000
-16.099600 0.000000
-16.049700 0.000000
-15.999700 0.000000
-15.949800 0.000000
-15.899900 0.000000
-15.850000 0.000000
-15.800100 0.000000
-15.750200 0.000000
-15.700300 0.000000
-15.650400 0.000000
-15.600500 0.000000
-15.550600 0.000000
-15.500700 0.000000
-15.450800 0.000000
-15.400900 0.000000
-15.351000 0.000000
-15.301000 0.000000
-15.251100 0.000000
-15.201200 0.000000
-15.151300 0.000000
-15.101400 0.000000
-15.051500 0.000000
-15.001600 0.000000
-14.951700 0.000000
-14.901800 0.000000
-14.851900 0.000000
-14.802000 0.000000
-14.752100 0.000000
-14.702200 0.000000
-14.652300 0.000000
-14.602400 0.000000
-14.552400 0.000000
-14.502500 0.000000
-14.452600 0.000000
-14.402700 0.000000
-14.352800 0.000000
-14.302900 0.000000
-14.253000 0.000000
-14.203100 0.000000
-14.153200 0.000000
-14.103300 0.000000
-14.053400 0.000000
-14.003500 0.000000
-13.953600 0.000000
-13.903700 0.000000
-13.853700 0.000000
-13.803800 0.000000
-13.753900 0.000000
-13.704000 0.000000
-13.654100 0.000000
-13.604200 0.000000
-13.554300 0.000000
-13.504400 0.000000
-13.454500 0.000000
-13.404600 0.000000
-13.354700 0.000000
-13.304800 0.000000
-13.254900 0.000000
-13.205000 0.000000
-13.155000 0.000000
-13.105100 0.000000
-13.055200 0.000000
-13.005300 0.000000
-12.955400 0.000000
-12.905500 0.000000
-12.855600 0.000000
-12.805700 0.000000
-12.755800 0.000000
-12.705900 0.000000
-12.656000 0.000000
-12.606100 0.000000
-12.556200 0.000000
-12.506300 0.000000
-12.456300 0.000000
-12.406400 0.000000
-12.356500 0.000000
-12.306600 0.000000
-12.256700 0.000000
-12.206800 0.000000
-12.156900 0.000000
-12.107000 0.000000
-12.057100 0.000000
-12.007200 0.000000
-11.957300 0.000000
-11.907400 0.000000
-11.857500 0.000000
-11.807600 0.000000
-11.757700 0.000000
-11.707700 0.000000
-11.657800 0.000000
-11.607900 0.000000
-11.558000 0.000000
-11.508100 0.000000
-11.458200 0.000000
-11.408300 0.000000
-11.358400 0.000000
-11.308500 0.000000
-11.258600 0.000000
-11.208700 0.000000
-11.158800 0.000000
-11.108900 0.000000
-11.059000 0.000000
-11.009000 0.000000
-10.959100 0.000000
-10.909200 0.000000
-10.859300 0.000000
-10.809400 0.000000
-10.759500 0.000000
-10.709600 0.000000
-10.659700 0.000000
-10.609800 0.000000
-10.559900 0.000000
-10.510000 0.000000
-10.460100 0.000000
-10.410200 0.000000
-10.360300 0.000000
-10.310300 0.000000
-10.260400 0.000000
-10.210500 0.000000
-10.160600 0.000000
-10.110700 0.000000
-10.060800 0.000000
-10.010900 0.000000
-9.961000 0.000000
-9.911100 0.000000
-9.861200 0.000000
-9.811300 0.000000
-9.761400 0.000000
-9.711500 0.000000
-9.661600 0.000000
-9.611600 0.000000
-9.561700 0.000000
-9.511800 2.326400
-9.461900 2.104000
-9.412000 2.499400
-9.362100 2.984800
-9.312200 5.324000
-9.262300 2.979100
-9.212400 0.561500
-9.162500 6.182200
-9.112600 8.855100
-9.062700 5.272800
-9.012800 2.226200
-8.962900 8.385300
-8.912900 3.673400
-8.863000 7.998400
-8.813100 11.890900
-8.763200 14.278300
-8.713300 4.862200
-8.663400 2.648900
-8.613500 1.562800
-8.563600 0.000000
-8.513700 0.000000
-8.463800 0.000000
-8.413900 0.000000
-8.364000 0.000000
-8.314100 0.000000
-8.264200 0.000000
-8.214300 0.000000
-8.164300 0.000000
-8.114400 0.000000
-8.064500 0.000000
-8.014600 0.000000
-7.964700 0.000000
-7.914800 0.000000
-7.864900 0.000000
-7.815000 0.000000
-7.765100 0.000000
-7.715200 0.000000
-7.665300 0.000000
-7.615400 0.000000
-7.565500 0.000000
-7.515600 0.000000
-7.465600 0.000000
-7.415700 0.000000
-7.365800 0.000000
-7.315900 0.000000
-7.266000 0.000000
-7.216100 0.000000
-7.166200 0.000000
-7.116300 0.000000
-7.066400 0.000000
-7.016500 0.000000
-6.966600 0.000000
-6.916700 0.000000
-6.866800 0.000000
-6.816900 0.000000
-6.766900 0.000000
-6.717000 0.000000
-6.667100 0.000000
-6.617200 0.000000
-6.567300 0.000000
-6.517400 0.000000
-6.467500 0.000000
-6.417600 0.000000
-6.367700 0.000000
-6.317800 0.000000
-6.267900 0.000000
-6.218000 0.000000
-6.168100 0.000000
-6.118200 0.000000
-6.068200 0.000000
-6.018300 0.000000
-5.968400 0.000000
-5.918500 0.000000
-5.868600 0.000000
-5.818700 0.000000
-5.768800 0.000000
-5.718900 0.029600
-5.669000 0.086400
-5.619100 0.143200
-5.569200 0.200000
-5.519300 0.109400
-5.469400 0.113800
-5.419500 0.118200
-5.369600 0.122700
-5.319600 0.127100
-5.269700 0.131500
-5.219800 0.135900
-5.169900 0.140300
-5.120000 0.135700
-5.070100 0.129400
-5.020200 0.123000
-4.970300 0.116600
-4.920400 0.116900
-4.870500 0.118300
-4.820600 0.119800
-4.770700 0.121200
-4.720800 0.122700
-4.670900 0.124100
-4.620900 0.125500
-4.571000 0.127000
-4.521100 0.128400
-4.471200 0.129900
-4.421300 0.131300
-4.371400 0.132800
-4.321500 0.121600
-4.271600 0.121100
-4.221700 0.120600
-4.171800 0.120100
-4.121900 0.119600
-4.072000 0.119100
-4.022100 0.118600
-3.972200 0.118100
-3.922200 0.118200
-3.872300 0.118900
-3.822400 0.119600
-3.772500 0.120300
-3.722600 0.121100
-3.672700 0.121800
-3.622800 0.122500
-3.572900 0.123300
-3.523000 0.124000
-3.473100 0.124700
-3.423200 0.125400
-3.373300 0.126200
-3.323400 0.126900
-3.273500 0.125400
-3.223500 0.123400
-3.173600 0.121300
-3.123700 0.119300
-3.073800 0.118900
-3.023900 0.119100
-2.974000 0.119200
-2.924100 0.119400
-2.874200 0.119500
-2.824300 0.119700
-2.774400 0.119900
-2.724500 0.120000
-2.674600 0.120200
-2.624700 0.120300
-2.574800 0.120500
-2.524900 0.120600
-2.474900 0.121000
-2.425000 0.121500
-2.375100 0.122000
-2.325200 0.122400
-2.275300 0.122900
-2.225400 0.123400
-2.175500 0.123900
-2.125600 0.124400
-2.075700 0.124900
-2.025800 0.125400
-1.975900 0.125900
-1.926000 0.126400
-1.876100 0.126900
-1.826200 0.124000
-1.776200 0.123900
-1.726300 0.123700
-1.676400 0.123500
-1.626500 0.124000
-1.576600 0.131900
-1.526700 0.144600
-1.476800 0.160700
-1.426900 0.179900
-1.377000 0.188500
-1.327100 0.191000
-1.277200 0.196900
-1.227300 0.203000
-1.177400 0.209700
-1.127500 0.217100
-1.077500 0.225400
-1.027600 0.232300
-0.977700 0.237700
-0.927800 0.241800
-0.877900 0.245900
-0.828000 0.252400
-0.778100 0.260400
-0.728200 0.265900
-0.678300 0.269400
-0.628400 0.274200
-0.578500 0.279600
-0.528600 0.285200
-0.478700 0.291000
-0.428800 0.296500
-0.378800 0.302100
-0.328900 0.308200
-0.279000 0.314600
-0.229100 0.321400
-0.179200 0.327900
-0.129300 0.334300
-0.079400 0.340600
-0.029500 0.347100
0.020400 0.353000
0.070300 0.359700
0.120200 0.366600
0.170100 0.373600
0.220000 0.380700
0.269900 0.388100
0.319900 0.397700
0.369800 0.406300
0.419700 0.414000
0.469600 0.517100
0.519500 0.506200
0.569400 0.495800
0.619300 0.495900
0.669200 0.494600
0.719100 0.491000
0.769000 0.486100
0.818900 0.481600
0.868800 0.477800
0.918700 0.473900
0.968600 0.470400
1.018500 0.468200
1.068500 0.474200
1.118400 0.484800
1.168300 0.496600
1.218200 0.509200
1.268100 0.522700
1.318000 0.537000
1.367900 0.552700
1.417800 0.569100
1.467700 0.587500
1.517600 0.622500
1.567500 0.669100
1.617400 1.131100
1.667300 0.966500
1.717200 0.819800
1.767200 0.869500
1.817100 0.914000
1.867000 0.977700
1.916900 1.052600
1.966800 1.633400
2.016700 1.927500
2.066600 1.877400
2.116500 2.186100
2.166400 2.214300
2.216300 1.868700
2.266200 1.709300
2.316100 1.870100
2.366000 2.054600
2.415900 2.043000
2.465900 2.044800
2.515800 2.098200
2.565700 2.104300
2.615600 2.191500
2.665500 2.323600
2.715400 2.494100
2.765300 3.418200
2.815200 2.977700
2.865100 3.239300
2.915000 3.212700
2.964900 3.019600
3.014800 3.213300
3.064700 3.378300
3.114600 3.466600
3.164600 3.487600
3.214500 3.253000
3.264400 2.874000
3.314300 2.594200
3.364200 2.665800
3.414100 4.009700
3.464000 4.320500
3.513900 5.660400
3.563800 2.258600
3.613700 3.114900
3.663600 2.746300
3.713500 2.475200
3.763400 2.986700
3.813300 2.408200
3.863200 2.272000
3.913200 2.275700
3.963100 2.312900
4.013000 1.821800
4.062900 1.994500
4.112800 2.233800
4.162700 2.439900
4.212600 2.567500
4.262500 2.569100
4.312400 2.792200
4.362300 2.814600
4.412200 2.863500
4.462100 3.020100
4.512000 3.378900
4.561900 3.230500
4.611900 2.421700
4.661800 2.352500
4.711700 4.344900
4.761600 3.526600
4.811500 3.965300
4.861400 4.391300
4.911300 4.594300
4.961200 4.352100
5.011100 4.757400
5.061000 4.244600
5.110900 5.107900
5.160800 4.652400
5.210700 5.311100
5.260600 5.192800
5.310600 3.620100
5.360500 7.643500
5.410400 5.589700
5.460300 2.580100
5.510200 2.107900
5.560100 3.476100
5.610000 4.026500
5.659900 4.866400
5.709800 6.089100
5.759700 3.756100
5.809600 3.604900
5.859500 2.723300
5.909400 2.065900
5.959300 3.183100
6.009300 3.359200
6.059200 3.132700
6.109100 1.908500
6.159000 1.766800
6.208900 1.685200
6.258800 2.438800
6.308700 3.683100
6.358600 2.752200
6.408500 3.682600
6.458400 3.915400
6.508300 3.342200
6.558200 3.040800
6.608100 3.222800
6.658000 4.444700
6.707900 5.238700
6.757900 4.632100
6.807800 5.032900
6.857700 4.099900
6.907600 4.295400
6.957500 3.450600
7.007400 2.928400
7.057300 2.408400
7.107200 2.306200
7.157100 2.285300
7.207000 2.347900
7.256900 2.459700
7.306800 4.661400
7.356700 4.593000
7.406600 4.976300
7.456600 4.964900
7.506500 3.570800
7.556400 3.309500
7.606300 5.200700
7.656200 4.688000
7.706100 6.712900
7.756000 4.421600
7.805900 2.991300
7.855800 3.952400
7.905700 4.691100
7.955600 3.453800
8.005500 2.386500
8.055400 1.714200
8.105300 1.623800
8.155300 1.798300
8.205200 1.749500
8.255100 1.422400
8.305000 1.118900
8.354900 1.037700
8.404800 0.996500
8.454700 0.982800
8.504600 0.970100
8.554500 0.960800
8.604400 0.953400
8.654300 0.949800
8.704200 0.914200
8.754100 0.842500
8.804000 0.842400
8.854000 0.840000
8.903900 0.835200
8.953800 0.831300
9.003700 0.838400
9.053600 0.858600
9.103500 0.904500
9.153400 0.951600
9.203300 1.009400
9.253200 1.019000
9.303100 1.042400
9.353000 1.128400
9.402900 0.884200
9.452800 0.854900
9.502700 0.828900
9.552700 0.774200
9.602600 0.778000
9.652500 0.681700
9.702400 0.641100
9.752300 0.622500
9.802200 0.609200
9.852100 0.599800
9.902000 0.593700
9.951900 0.591200
10.001800 0.600000
10.051700 0.621500
10.101600 0.676000
10.151500 0.741100
10.201400 0.759800
10.251300 0.808400
10.301300 0.861400
10.351200 0.855100
10.401100 0.923400
10.451000 0.801000
10.500900 0.727900
10.550800 0.675400
10.600700 0.632800
10.650600 0.592900
10.700500 0.551400
10.750400 0.533000
10.800300 0.529700
10.850200 0.529700
10.900100 0.531900
10.950000 0.538800
11.000000 0.540000
11.049900 0.559700
11.099800 0.581600
11.149700 0.577200
11.199600 0.561700
11.249500 0.551400
11.299400 0.537800
11.349300 0.527600
11.399200 0.522800
11.449100 0.509700
11.499000 0.517500
11.548900 0.548900
11.598800 0.580200
11.648700 0.636000
11.698700 0.744100
11.748600 0.728600
11.798500 0.730200
11.848400 0.733600
11.898300 0.736100
11.948200 0.687400
11.998100 0.630200
12.048000 0.608400
12.097900 0.607800
12.147800 0.610300
12.197700 0.621800
12.247600 0.645700
12.297500 0.683800
12.347400 0.720500
12.397400 0.722700
12.447300 0.716500
12.497200 0.708500
12.547100 0.657600
12.597000 0.629200
12.646900 0.666800
12.696800 0.588800
12.746700 0.563100
12.796600 0.541400
12.846500 0.520400
12.896400 0.498800
12.946300 0.482200
12.996200 0.511700
13.046100 0.686600
13.096000 0.857200
13.146000 0.619900
13.195900 0.494100
13.245800 0.534500
13.295700 0.498200
13.345600 0.467000
13.395500 0.440600
13.445400 0.421500
13.495300 0.413600
13.545200 0.391800
13.595100 0.374700
13.645000 0.361700
13.694900 0.352200
13.744800 0.367000
13.794700 0.376700
13.844700 0.498400
13.894600 0.681100
13.944500 0.883100
13.994400 0.826000
14.044300 0.741600
14.094200 0.805300
14.144100 0.980000
14.194000 1.071400
14.243900 1.042800
14.293800 0.924700
14.343700 0.819100
14.393600 0.760400
14.443500 0.789000
14.493400 0.920100
14.543400 1.480100
14.593300 0.990700
14.643200 1.004500
14.693100 1.007200
14.743000 0.997600
14.792900 0.970300
14.842800 0.920300
14.892700 0.862000
14.942600 0.798300
14.992500 0.749500
15.042400 0.714500
15.092300 0.702800
15.142200 0.724800
15.192100 0.767900
15.242100 0.793800
15.292000 0.810400
15.341900 0.821600
15.391800 0.835700
15.441700 0.869400
15.491600 0.968700
15.541500 1.017200
15.591400 0.990700
15.641300 0.856800
15.691200 0.799800
15.741100 0.744700
15.791000 0.750300
15.840900 0.756100
15.890800 0.752300
15.940700 0.747700
15.990700 0.766300
16.040600 0.875700
16.090500 0.981800
16.140400 0.974600
16.190300 0.870600
16.240200 0.788700
16.290100 0.727300
16.340000 0.688100
16.389900 0.660200
16.439800 0.639700
16.489700 0.670500
16.539600 0.725200
16.589500 0.728600
16.639400 0.768000
16.689400 0.760700
16.739300 0.736100
16.789200 0.694700
16.839100 0.680300
16.889000 0.673800
16.938900 0.670500
16.988800 0.654500
17.038700 0.646300
17.088600 0.638200
17.138500 0.657600
17.188400 0.659100
17.238300 0.619100
17.288200 0.609800
17.338100 0.614700
17.388100 0.625400
17.438000 0.640500
17.487900 0.665500
17.537800 0.725800
17.587700 0.768800
17.637600 0.807300
17.687500 0.839300
17.737400 0.862000
17.787300 0.854800
17.837200 0.851600
17.887100 0.857500
17.937000 0.865800
17.986900 0.877700
18.036800 0.896300
18.086800 0.946000
18.136700 1.053700
18.186600 0.999500
18.236500 0.986200
18.286400 1.053000
18.336300 1.078600
18.386200 1.036000
18.436100 1.008600
18.486000 0.965400
18.535900 0.939000
18.585800 0.931300
18.635700 0.936600
18.685600 0.947000
18.735500 0.960300
18.785500 0.977600
18.835400 1.047600
18.885300 1.073600
18.935200 1.047200
18.985100 1.028200
19.035000 1.014100
19.084900 0.995200
19.134800 0.965000
19.184700 0.932300
19.234600 0.897400
19.284500 0.871000
19.334400 0.860800
19.384300 0.813000
19.434200 0.799700
19.484100 0.779700
19.534100 0.785100
19.584000 0.799800
19.633900 0.812500
19.683800 0.837300
19.733700 0.881500
19.783600 0.940100
19.833500 1.044300
19.883400 1.075100
19.933300 1.071300
19.983200 1.071900
20.033100 1.089400
20.083000 1.113100
20.132900 1.039700
20.182800 1.041600
20.232800 1.014800
20.282700 1.005800
20.332600 1.041800
20.382500 1.058100
20.432400 1.084800
20.482300 1.122800
20.532200 1.171600
20.582100 1.136300
20.632000 1.127000
20.681900 1.201500
20.731800 1.240600
20.781700 1.238000
20.831600 1.239500
20.881500 1.340600
20.931500 1.338800
20.981400 1.325800
21.031300 1.293100
21.081200 1.243600
21.131100 1.184900
21.181000 1.146600
21.230900 1.127500
21.280800 1.121100
21.330700 1.138200
21.380600 1.156700
21.430500 1.168800
21.480400 1.173400
21.530300 1.157700
21.580200 1.175600
21.630200 1.191300
21.680100 1.204200
21.730000 1.214200
21.779900 1.236500
21.829800 1.258300
21.879700 1.249600
21.929600 1.272100
21.979500 1.266100
22.029400 1.184900
22.079300 1.151600
22.129200 1.133100
22.179100 1.093800
22.229000 1.102300
22.278900 1.095400
22.328800 1.088500
22.378800 1.082500
22.428700 1.091200
22.478600 1.181300
22.528500 1.145900
22.578400 1.156600
22.628300 1.084900
22.678200 1.055500
22.728100 1.094600
22.778000 1.098900
22.827900 1.074800
22.877800 1.076100
22.927700 1.061000
22.977600 1.045300
23.027500 1.028300
23.077500 1.015100
23.127400 1.021100
23.177300 1.061300
23.227200 1.018500
23.277100 1.061400
23.327000 1.112000
23.376900 1.119900
23.426800 1.110600
23.476700 1.104000
23.526600 1.102700
23.576500 1.095100
23.626400 1.095300
23.676300 1.106800
23.726200 1.105400
23.776200 1.110400
23.826100 1.108600
23.876000 1.270100
23.925900 1.085800
23.975800 0.975800
24.025700 0.966300
24.075600 0.975100
24.125500 0.978500
24.175400 0.982700
24.225300 0.986200
24.275200 0.994500
24.325100 1.013500
24.375000 0.986300
24.424900 0.978700
24.474900 0.973600
24.524800 0.976100
24.574700 0.997200
24.624600 1.034400
24.674500 1.077400
24.724400 1.090700
24.774300 1.087000
24.824200 1.090400
24.874100 1.086500
24.924000 1.084700
24.973900 1.086500
25.023800 1.096600
25.073700 1.081600
25.123600 1.075400
25.173500 1.069600
25.223500 1.051800
25.273400 1.037500
25.323300 1.048000
25.373200 1.101500
25.423100 1.196200
25.473000 1.280500
25.522900 1.366000
25.572800 1.293400
25.622700 1.165800
25.672600 1.127800
25.722500 1.086400
25.772400 1.066700
25.822300 1.044100
25.872200 1.019800
25.922200 0.999000
25.972100 0.996600
26.022000 1.001800
26.071900 0.998800
26.121800 0.975900
26.171700 0.935300
26.221600 0.939700
26.271500 0.964200
26.321400 1.000700
26.371300 1.053500
26.421200 1.108600
26.471100 1.150100
26.521000 1.235300
26.570900 1.213600
26.620900 1.188700
26.670800 1.156700
26.720700 1.173500
26.770600 1.172900
26.820500 1.168400
26.870400 1.156300
26.920300 1.141400
26.970200 1.128600
27.020100 1.096100
27.070000 1.083200
27.119900 1.082500
27.169800 1.057000
27.219700 1.065900
27.269600 1.095200
27.319600 1.085300
27.369500 1.117000
27.419400 1.177200
27.469300 1.178600
27.519200 1.161200
27.569100 1.136900
27.619000 1.097700
27.668900 1.035800
27.718800 1.025100
27.768700 1.018100
27.818600 1.036000
27.868500 1.096800
27.918400 1.147300
27.968300 1.227000
28.018300 1.260800
28.068200 1.291400
28.118100 1.312000
28.168000 1.330400
28.217900 1.323100
28.267800 1.257600
28.317700 1.335100
28.367600 1.306600
28.417500 1.332200
28.467400 1.322000
28.517300 1.314500
28.567200 1.313600
28.617100 1.296800
28.667000 1.267600
28.716900 1.213000
28.766900 1.155000
28.816800 1.128800
28.866700 1.111000
28.916600 1.108400
28.966500 1.154700
29.016400 1.213200
29.066300 1.234300
29.116200 1.244900
29.166100 1.252900
29.216000 1.267700
29.265900 1.346900
29.315800 1.379600
29.365700 1.296800
29.415600 1.237400
29.465600 1.218700
29.515500 1.220200
29.565400 1.218000
29.615300 1.221900
29.665200 1.228000
29.715100 1.194900
29.765000 1.189400
29.814900 1.186600
29.864800 1.202000
29.914700 1.232100
29.964600 1.228800
30.014500 1.242800
30.064400 1.300300
30.114300 1.319200
30.164300 1.217400
30.214200 1.161200
30.264100 1.158800
30.314000 1.221600
30.363900 1.314500
30.413800 1.339600
30.463700 1.357200
30.513600 1.471600
30.563500 1.442500
30.613400 1.385200
30.663300 1.350300
30.713200 1.343400
30.763100 1.319000
30.813000 1.253200
30.863000 1.145500
30.912900 1.149500
30.962800 1.091900
31.012700 1.009500
31.062600 0.978900
31.112500 0.977500
31.162400 1.022500
31.212300 1.033500
31.262200 1.030000
31.312100 1.079000
31.362000 1.070300
31.411900 1.041200
31.461800 0.988200
31.511700 0.940600
31.561600 0.903200
31.611600 0.866200
31.661500 0.834600
31.711400 0.815800
31.761300 0.806800
31.811200 0.810300
31.861100 0.823500
31.911000 0.874100
31.960900 0.913300
32.010800 0.991600
32.060700 1.016900
32.110600 1.059900
32.160500 0.972900
32.210400 0.938500
32.260300 0.917400
32.310300 0.881000
32.360200 0.857300
32.410100 0.845000
32.460000 0.849600
32.509900 0.863400
32.559800 0.927800
32.609700 1.080900
32.659600 1.218400
32.709500 1.318800
32.759400 1.319800
32.809300 1.278700
32.859200 1.192800
32.909100 1.110600
32.959000 1.064600
33.009000 1.092000
33.058900 1.215100
33.108800 1.240000
33.158700 1.320600
33.208600 1.288500
33.258500 1.208100
33.308400 1.112800
33.358300 1.020500
33.408200 0.999600
33.458100 1.039300
33.508000 1.102100
33.557900 1.204700
33.607800 1.318900
33.657700 1.455200
33.707700 1.504500
33.757600 1.504300
33.807500 1.479100
33.857400 1.451300
33.907300 1.412800
33.957200 1.353800
34.007100 1.291200
34.057000 1.288800
34.106900 1.287300
34.156800 1.300400
34.206700 1.357900
34.256600 1.403600
34.306500 1.436900
34.356400 1.357400
34.406300 1.313900
34.456300 1.312100
34.506200 1.295900
34.556100 1.242900
34.606000 1.231500
34.655900 1.287600
34.705800 1.369300
34.755700 1.429900
34.805600 1.406900
34.855500 1.351800
34.905400 1.334100
34.955300 1.355000
35.005200 1.330700
35.055100 1.351200
35.105000 1.380400
35.155000 1.364500
35.204900 1.529900
35.254800 1.358900
35.304700 1.322500
35.354600 1.323100
35.404500 1.327900
35.454400 1.278900
35.504300 1.252100
35.554200 1.229100
35.604100 1.240100
35.654000 1.296700
35.703900 1.296400
35.753800 1.226600
35.803700 1.209200
35.853700 1.215400
35.903600 1.211300
35.953500 1.222200
36.003400 1.217100
36.053300 1.234100
36.103200 1.266600
36.153100 1.320900
36.203000 1.318800
36.252900 1.264500
36.302800 1.204300
36.352700 1.185000
36.402600 1.168800
36.452500 1.151600
36.502400 1.167100
36.552400 1.107800
36.602300 1.105600
36.652200 1.102900
36.702100 1.087500
36.752000 1.077700
36.801900 1.101800
36.851800 1.140500
36.901700 1.182300
36.951600 1.221300
37.001500 1.232500
37.051400 1.228700
37.101300 1.230000
37.151200 1.259900
37.201100 1.433500
37.251100 1.401900
37.301000 1.452700
37.350900 1.452800
37.400800 1.442500
37.450700 1.451000
37.500600 1.406600
37.550500 1.402400
37.600400 1.405700
37.650300 1.387300
37.700200 1.395100
37.750100 1.446800
37.800000 1.444400
37.849900 1.437300
37.899800 1.409000
37.949700 1.390600
37.999700 1.401200
38.049600 1.379000
38.099500 1.349400
38.149400 1.355300
38.199300 1.366000
38.249200 1.394000
38.299100 1.363100
38.349000 1.354500
38.398900 1.357000
38.448800 1.372200
38.498700 1.446700
38.548600 1.471600
38.598500 1.459100
38.648400 1.432400
38.698400 1.433600
38.748300 1.426600
38.798200 1.445600
38.848100 1.440100
38.898000 1.456300
38.947900 1.368300
38.997800 1.367900
39.047700 1.338600
39.097600 1.318000
39.147500 1.308500
39.197400 1.327800
39.247300 1.352600
39.297200 1.384900
39.347100 1.409800
39.397100 1.410600
39.447000 1.405800
39.496900 1.453000
39.546800 1.535900
39.596700 1.510200
39.646600 1.453300
39.696500 1.404300
39.746400 1.374000
39.796300 1.288000
39.846200 1.257700
39.896100 1.239000
39.946000 1.221500
39.995900 1.208500
40.045800 1.200700
40.095800 1.195500
40.145700 1.195600
40.195600 1.196600
40.245500 1.202400
40.295400 1.221500
40.345300 1.229800
40.395200 1.213600
40.445100 1.226300
40.495000 1.217900
40.544900 1.211500
40.594800 1.210400
40.644700 1.219300
40.694600 1.238200
40.744500 1.311700
40.794400 1.335600
40.844400 1.302500
40.894300 1.259900
40.944200 1.277000
40.994100 1.294300
41.044000 1.241200
41.093900 1.234800
41.143800 1.249100
41.193700 1.272900
41.243600 1.269500
41.293500 1.261100
41.343400 1.260700
41.393300 1.249800
41.443200 1.248400
41.493100 1.249000
41.543100 1.243400
41.593000 1.295000
41.642900 1.346600
41.692800 1.297000
41.742700 1.248700
41.792600 1.248300
41.842500 1.237400
41.892400 1.240700
41.942300 1.246100
41.992200 1.256200
42.042100 1.263500
42.092000 1.261800
42.141900 1.272700
42.191800 1.283200
42.241800 1.183900
42.291700 1.167200
42.341600 1.149700
42.391500 1.135300
42.441400 1.129900
42.491300 1.132800
42.541200 1.156100
42.591100 1.153300
42.641000 1.130100
42.690900 1.139800
42.740800 1.151900
42.790700 1.191000
42.840600 1.256200
42.890500 1.361400
42.940500 1.135400
42.990400 1.095200
43.040300 1.054100
43.090200 1.020800
43.140100 0.998800
43.190000 1.034700
43.239900 1.054500
43.289800 1.070000
43.339700 1.056700
43.389600 1.041500
43.439500 1.061700
43.489400 1.143800
43.539300 1.142300
43.589200 1.087100
43.639100 1.106300
43.689100 1.101700
43.739000 1.100300
43.788900 1.117900
43.838800 1.070200
43.888700 1.048700
43.938600 1.017900
43.988500 0.998900
44.038400 1.002300
44.088300 1.006600
44.138200 1.000000
44.188100 0.979300
44.238000 0.961900
44.287900 0.949300
44.337800 0.938600
44.387800 0.926200
44.437700 0.913100
44.487600 0.904400
44.537500 0.893900
44.587400 0.886700
44.637300 0.886500
44.687200 0.883800
44.737100 0.874700
44.787000 0.860800
44.836900 0.858700
44.886800 0.865800
44.936700 0.874900
44.986600 0.866300
45.036500 0.857600
45.086500 0.851300
45.136400 0.841600
45.186300 0.824200
45.236200 0.806300
45.286100 0.796900
45.336000 0.797700
45.385900 0.798500
45.435800 0.789300
45.485700 0.789600
45.535600 0.794200
45.585500 0.805800
45.635400 0.829000
45.685300 0.832500
45.735200 0.825900
45.785200 0.828300
45.835100 0.842400
45.885000 0.857600
45.934900 0.860200
45.984800 0.847700
46.034700 0.849000
46.084600 0.841400
46.134500 0.801200
46.184400 0.756300
46.234300 0.728300
46.284200 0.730600
46.334100 0.745500
46.384000 0.764900
46.433900 0.786900
46.483900 0.809200
46.533800 0.796400
46.583700 0.745300
46.633600 0.724900
46.683500 0.869600
46.733400 0.621400
46.783300 0.469000
46.833200 0.415900
46.883100 0.387800
46.933000 0.369100
46.982900 0.350300
47.032800 0.330800
47.082700 0.307000
47.132600 0.286500
47.182500 0.272500
47.232500 0.259600
47.282400 0.246300
47.332300 0.232600
47.382200 0.218900
47.432100 0.204900
47.482000 0.189700
47.531900 0.173000
47.581800 0.155700
47.631700 0.144200
47.681600 0.138800
47.731500 0.137300
47.781400 0.138400
47.831300 0.147500
47.881200 0.172400
47.931200 0.154700
47.981100 0.154300
48.031000 0.159700
48.080900 0.152200
48.130800 0.090000
48.180700 0.068600
48.230600 0.057300
48.280500 0.048000
48.330400 0.040100
48.380300 0.033300
48.430200 0.027900
48.480100 0.023700
48.530000 0.019700
48.579900 0.013000
48.629900 0.006100
48.679800 0.000100
48.729700 0.000000
48.779600 0.000000
48.829500 0.000000
48.879400 0.000000
48.929300 0.000000
48.979200 0.000000
49.029100 0.000000
49.079000 0.000000
49.128900 0.000000
49.178800 0.000000
49.228700 0.000000
49.278600 0.000000
49.328600 0.000000
49.378500 0.000000
49.428400 0.000000
49.478300 0.000000
49.528200 0.000000
49.578100 0.000000
49.628000 0.000000
49.677900 0.000000
49.727800 0.000000
49.777700 0.000000
49.827600 0.000000
49.877500 0.000000
49.927400 0.000000
49.977300 0.000000
50.027200 0.000000
50.077200 0.000000
50.127100 0.000000
50.177000 0.000000
50.226900 0.000000
50.276800 0.000000
50.326700 0.000000
50.376600 0.000000
50.426500 0.000000
50.476400 0.000000
50.526300 0.000000
50.576200 0.000000
50.626100 0.000000
50.676000 0.000000
50.725900 0.000000
50.775900 0.000000
50.825800 0.000000
50.875700 0.000000
50.925600 0.000000
50.975500 0.000000
51.025400 0.000000
51.075300 0.000000
51.125200 0.000000
51.175100 0.000000
51.225000 0.000000
51.274900 0.000000
51.324800 0.000000
51.374700 0.000000
51.424600 0.000000
51.474600 0.000000
51.524500 0.000000
51.574400 0.000000
51.624300 0.000000
51.674200 0.000000
51.724100 0.000000
51.774000 0.000000
51.823900 0.000000
51.873800 0.000000
51.923700 0.000000
51.973600 0.000000
52.023500 0.000000
52.073400 0.000000
52.123300 0.000000
52.173300 0.000000
52.223200 0.000000
52.273100 0.000000
52.323000 0.000000
52.372900 0.000000
52.422800 0.000000
52.472700 0.000000
52.522600 0.000000
52.572500 0.000000
52.622400 0.000000
52.672300 0.000000
52.722200 0.000000
52.772100 0.000000
52.822000 0.000000
52.871900 0.000000
52.921900 0.000000
52.971800 0.000000
53.021700 0.000000
53.071600 0.000000
53.121500 0.000000
53.171400 0.000000
53.221300 0.000000
e
