set title 'mp-50 - Density of States'
set xlabel 'Energy (eV)'
set ylabel 'DOS (states/eV)'
set grid
set xrange [-10:10]
set yrange [0:3.047]
set xzeroaxis lt -1
set terminal png size 800,600
set output 'mp-50_dos_gnuplot.png'
plot '-' using 1:2 with lines title 'DOS'
-31.966900 0.000000
-31.931800 0.000000
-31.896700 0.000000
-31.861600 0.000000
-31.826500 0.000000
-31.791400 0.000000
-31.756300 0.000000
-31.721200 0.000000
-31.686100 0.000000
-31.651000 0.000000
-31.616000 0.000000
-31.580900 0.000000
-31.545800 0.000000
-31.510700 0.000000
-31.475600 0.000000
-31.440500 0.000000
-31.405400 0.000000
-31.370300 0.000000
-31.335200 0.000000
-31.300100 0.000000
-31.265000 0.000000
-31.229900 0.000000
-31.194900 0.000000
-31.159800 0.000000
-31.124700 0.000000
-31.089600 0.000000
-31.054500 0.000000
-31.019400 0.000000
-30.984300 0.000000
-30.949200 0.000000
-30.914100 0.000000
-30.879000 0.000000
-30.843900 0.000000
-30.808800 0.000000
-30.773800 0.000000
-30.738700 0.000000
-30.703600 0.000000
-30.668500 0.000000
-30.633400 0.000000
-30.598300 0.000000
-30.563200 0.000000
-30.528100 0.000000
-30.493000 0.000000
-30.457900 0.000000
-30.422800 0.000000
-30.387700 0.000000
-30.352700 0.000000
-30.317600 0.000000
-30.282500 0.000000
-30.247400 0.000000
-30.212300 0.000000
-30.177200 0.000000
-30.142100 0.000000
-30.107000 0.000000
-30.071900 0.000000
-30.036800 0.000000
-30.001700 0.000000
-29.966600 0.000000
-29.931600 0.000000
-29.896500 0.000000
-29.861400 0.000000
-29.826300 0.000000
-29.791200 0.000000
-29.756100 0.000000
-29.721000 0.000000
-29.685900 0.000000
-29.650800 0.000000
-29.615700 0.000000
-29.580600 0.000000
-29.545500 0.000000
-29.510500 0.000000
-29.475400 0.000000
-29.440300 0.000000
-29.405200 0.000000
-29.370100 0.000000
-29.335000 0.000000
-29.299900 0.000000
-29.264800 0.000000
-29.229700 0.000000
-29.194600 0.000000
-29.159500 0.000000
-29.124400 0.000000
-29.089400 0.000000
-29.054300 0.000000
-29.019200 0.000000
-28.984100 0.000000
-28.949000 0.000000
-28.913900 0.000000
-28.878800 0.000000
-28.843700 0.000000
-28.808600 0.000000
-28.773500 0.498900
-28.738400 1.694600
-28.703300 2.545600
-28.668300 3.455700
-28.633200 4.548600
-28.598100 6.580500
-28.563000 8.611500
-28.527900 6.412600
-28.492800 4.834500
-28.457700 3.620600
-28.422600 3.526800
-28.387500 3.406600
-28.352400 3.532700
-28.317300 3.655500
-28.282300 3.908500
-28.247200 4.269600
-28.212100 4.712500
-28.177000 5.076100
-28.141900 5.461400
-28.106800 5.975700
-28.071700 6.510900
-28.036600 7.162500
-28.001500 5.841500
-27.966400 5.378400
-27.931300 5.361100
-27.896200 5.442600
-27.861200 6.096000
-27.826100 7.451600
-27.791000 9.988400
-27.755900 8.855000
-27.720800 8.339000
-27.685700 7.702800
-27.650600 0.000000
-27.615500 0.000000
-27.580400 0.000000
-27.545300 0.000000
-27.510200 0.000000
-27.475100 0.000000
-27.440100 0.000000
-27.405000 0.000000
-27.369900 0.000000
-27.334800 0.000000
-27.299700 0.000000
-27.264600 0.000000
-27.229500 0.000000
-27.194400 0.000000
-27.159300 0.000000
-27.124200 0.000000
-27.089100 0.000000
-27.054000 0.000000
-27.019000 0.000000
-26.983900 0.000000
-26.948800 0.000000
-26.913700 0.000000
-26.878600 0.000000
-26.843500 0.000000
-26.808400 0.000000
-26.773300 0.000000
-26.738200 0.000000
-26.703100 0.000000
-26.668000 0.000000
-26.632900 0.000000
-26.597900 0.000000
-26.562800 0.000000
-26.527700 0.000000
-26.492600 0.000000
-26.457500 0.000000
-26.422400 0.000000
-26.387300 0.000000
-26.352200 0.000000
-26.317100 0.000000
-26.282000 0.000000
-26.246900 0.000000
-26.211800 0.000000
-26.176800 0.000000
-26.141700 0.000000
-26.106600 0.000000
-26.071500 0.000000
-26.036400 0.000000
-26.001300 0.000000
-25.966200 0.000000
-25.931100 0.000000
-25.896000 0.000000
-25.860900 0.000000
-25.825800 0.000000
-25.790700 0.000000
-25.755700 0.000000
-25.720600 0.000000
-25.685500 0.000000
-25.650400 0.000000
-25.615300 0.000000
-25.580200 0.000000
-25.545100 0.000000
-25.510000 0.000000
-25.474900 0.000000
-25.439800 0.000000
-25.404700 0.000000
-25.369600 0.000000
-25.334600 0.000000
-25.299500 0.000000
-25.264400 0.000000
-25.229300 0.000000
-25.194200 0.000000
-25.159100 0.000000
-25.124000 0.000000
-25.088900 0.000000
-25.053800 0.000000
-25.018700 0.000000
-24.983600 0.000000
-24.948500 0.000000
-24.913500 0.000000
-24.878400 0.000000
-24.843300 0.000000
-24.808200 0.000000
-24.773100 0.000000
-24.738000 0.000000
-24.702900 0.000000
-24.667800 0.000000
-24.632700 0.000000
-24.597600 0.000000
-24.562500 0.000000
-24.527400 0.000000
-24.492400 0.000000
-24.457300 0.000000
-24.422200 0.000000
-24.387100 0.000000
-24.352000 0.000000
-24.316900 0.000000
-24.281800 0.000000
-24.246700 0.000000
-24.211600 0.000000
-24.176500 0.000000
-24.141400 0.000000
-24.106300 0.000000
-24.071300 0.000000
-24.036200 0.000000
-24.001100 0.000000
-23.966000 0.000000
-23.930900 0.000000
-23.895800 0.000000
-23.860700 0.000000
-23.825600 0.000000
-23.790500 0.000000
-23.755400 0.000000
-23.720300 0.000000
-23.685200 0.000000
-23.650200 0.000000
-23.615100 0.000000
-23.580000 0.000000
-23.544900 0.000000
-23.509800 0.000000
-23.474700 0.000000
-23.439600 0.000000
-23.404500 0.000000
-23.369400 0.000000
-23.334300 0.000000
-23.299200 0.000000
-23.264100 0.000000
-23.229100 0.000000
-23.194000 0.000000
-23.158900 0.000000
-23.123800 0.000000
-23.088700 0.000000
-23.053600 0.000000
-23.018500 0.000000
-22.983400 0.000000
-22.948300 0.000000
-22.913200 0.000000
-22.878100 0.000000
-22.843100 0.000000
-22.808000 0.000000
-22.772900 0.000000
-22.737800 0.000000
-22.702700 0.000000
-22.667600 0.000000
-22.632500 0.000000
-22.597400 0.000000
-22.562300 0.000000
-22.527200 0.000000
-22.492100 0.000000
-22.457000 0.000000
-22.422000 0.000000
-22.386900 0.000000
-22.351800 0.000000
-22.316700 0.000000
-22.281600 0.000000
-22.246500 0.000000
-22.211400 0.000000
-22.176300 0.000000
-22.141200 0.000000
-22.106100 0.000000
-22.071000 0.000000
-22.035900 0.000000
-22.000900 0.000000
-21.965800 0.000000
-21.930700 0.000000
-21.895600 0.000000
-21.860500 0.000000
-21.825400 0.000000
-21.790300 0.000000
-21.755200 0.000000
-21.720100 0.000000
-21.685000 0.000000
-21.649900 0.000000
-21.614800 0.000000
-21.579800 0.000000
-21.544700 0.000000
-21.509600 0.000000
-21.474500 0.000000
-21.439400 0.000000
-21.404300 0.000000
-21.369200 0.000000
-21.334100 0.000000
-21.299000 0.000000
-21.263900 0.000000
-21.228800 0.000000
-21.193700 0.000000
-21.158700 0.000000
-21.123600 0.000000
-21.088500 0.000000
-21.053400 0.000000
-21.018300 0.000000
-20.983200 0.000000
-20.948100 0.000000
-20.913000 0.000000
-20.877900 0.000000
-20.842800 0.000000
-20.807700 0.000000
-20.772600 0.000000
-20.737600 0.000000
-20.702500 0.000000
-20.667400 0.000000
-20.632300 0.000000
-20.597200 0.000000
-20.562100 0.000000
-20.527000 0.000000
-20.491900 0.000000
-20.456800 0.000000
-20.421700 0.000000
-20.386600 0.000000
-20.351500 0.000000
-20.316500 0.000000
-20.281400 0.000000
-20.246300 0.000000
-20.211200 0.000000
-20.176100 0.000000
-20.141000 0.000000
-20.105900 0.000000
-20.070800 0.000000
-20.035700 0.000000
-20.000600 0.000000
-19.965500 0.000000
-19.930400 0.000000
-19.895400 0.000000
-19.860300 0.000000
-19.825200 0.000000
-19.790100 0.000000
-19.755000 0.000000
-19.719900 0.000000
-19.684800 0.000000
-19.649700 0.000000
-19.614600 0.000000
-19.579500 0.000000
-19.544400 0.000000
-19.509300 0.000000
-19.474300 0.000000
-19.439200 0.000000
-19.404100 0.000000
-19.369000 0.000000
-19.333900 0.000000
-19.298800 0.000000
-19.263700 0.000000
-19.228600 0.000000
-19.193500 0.000000
-19.158400 0.000000
-19.123300 0.000000
-19.088200 0.000000
-19.053200 0.000000
-19.018100 0.000000
-18.983000 0.000000
-18.947900 0.000000
-18.912800 0.000000
-18.877700 0.000000
-18.842600 0.000000
-18.807500 0.000000
-18.772400 0.000000
-18.737300 0.000000
-18.702200 0.000000
-18.667100 0.000000
-18.632100 0.000000
-18.597000 0.000000
-18.561900 0.000000
-18.526800 0.000000
-18.491700 0.000000
-18.456600 0.000000
-18.421500 0.000000
-18.386400 0.000000
-18.351300 0.000000
-18.316200 0.000000
-18.281100 0.000000
-18.246000 0.000000
-18.211000 0.000000
-18.175900 0.000000
-18.140800 0.000000
-18.105700 0.000000
-18.070600 0.000000
-18.035500 0.000000
-18.000400 0.000000
-17.965300 0.000000
-17.930200 0.000000
-17.895100 0.000000
-17.860000 0.000000
-17.824900 0.000000
-17.789900 0.000000
-17.754800 0.000000
-17.719700 0.000000
-17.684600 0.000000
-17.649500 0.000000
-17.614400 0.000000
-17.579300 0.000000
-17.544200 0.000000
-17.509100 0.000000
-17.474000 0.000000
-17.438900 0.000000
-17.403900 0.000000
-17.368800 0.000000
-17.333700 0.000000
-17.298600 0.000000
-17.263500 0.000000
-17.228400 0.000000
-17.193300 0.000000
-17.158200 0.000000
-17.123100 0.000000
-17.088000 0.000000
-17.052900 0.000000
-17.017800 0.000000
-16.982800 0.000000
-16.947700 0.000000
-16.912600 0.000000
-16.877500 0.000000
-16.842400 0.000000
-16.807300 0.000000
-16.772200 0.000000
-16.737100 0.000000
-16.702000 0.000000
-16.666900 0.000000
-16.631800 0.000000
-16.596700 0.000000
-16.561700 0.000000
-16.526600 0.000000
-16.491500 0.000000
-16.456400 0.000000
-16.421300 0.000000
-16.386200 0.000000
-16.351100 0.000000
-16.316000 0.000000
-16.280900 0.000000
-16.245800 0.000000
-16.210700 0.000000
-16.175600 0.000000
-16.140600 0.000000
-16.105500 0.000000
-16.070400 0.000000
-16.035300 0.000000
-16.000200 0.000000
-15.965100 0.000000
-15.930000 0.000000
-15.894900 0.000000
-15.859800 0.000000
-15.824700 0.000000
-15.789600 0.000000
-15.754500 0.000000
-15.719500 0.000000
-15.684400 0.000000
-15.649300 0.000000
-15.614200 0.000000
-15.579100 0.000000
-15.544000 0.000000
-15.508900 0.000000
-15.473800 0.000000
-15.438700 0.000000
-15.403600 0.000000
-15.368500 0.000000
-15.333400 0.000000
-15.298400 0.000000
-15.263300 0.000000
-15.228200 0.000000
-15.193100 0.000000
-15.158000 0.000000
-15.122900 0.000000
-15.087800 0.000000
-15.052700 0.000000
-15.017600 0.000000
-14.982500 0.000000
-14.947400 0.000000
-14.912300 0.000000
-14.877300 0.000000
-14.842200 0.000000
-14.807100 0.000000
-14.772000 0.000000
-14.736900 0.000000
-14.701800 0.000000
-14.666700 0.000000
-14.631600 0.000000
-14.596500 0.000000
-14.561400 0.000000
-14.526300 0.000000
-14.491200 0.000000
-14.456200 0.000000
-14.421100 0.000000
-14.386000 0.000000
-14.350900 0.000000
-14.315800 0.000000
-14.280700 0.000000
-14.245600 0.000000
-14.210500 0.000000
-14.175400 0.000000
-14.140300 0.000000
-14.105200 0.000000
-14.070100 0.000000
-14.035100 0.000000
-14.000000 0.000000
-13.964900 0.000000
-13.929800 0.000000
-13.894700 0.000000
-13.859600 0.000000
-13.824500 0.000000
-13.789400 0.000000
-13.754300 0.000000
-13.719200 0.000000
-13.684100 0.000000
-13.649000 0.000000
-13.614000 0.000000
-13.578900 0.000000
-13.543800 0.000000
-13.508700 0.000000
-13.473600 0.000000
-13.438500 0.000000
-13.403400 0.000000
-13.368300 0.000000
-13.333200 0.000000
-13.298100 0.000000
-13.263000 0.000000
-13.227900 0.000000
-13.192900 0.000000
-13.157800 0.000000
-13.122700 0.000000
-13.087600 0.000000
-13.052500 0.000000
-13.017400 0.000000
-12.982300 0.000000
-12.947200 0.000000
-12.912100 0.000000
-12.877000 0.000000
-12.841900 0.000000
-12.806800 0.000000
-12.771800 0.000000
-12.736700 0.000000
-12.701600 0.000000
-12.666500 0.000000
-12.631400 0.000000
-12.596300 0.000000
-12.561200 0.000000
-12.526100 0.000000
-12.491000 0.000000
-12.455900 0.000000
-12.420800 0.000000
-12.385700 0.000000
-12.350700 0.000000
-12.315600 0.000000
-12.280500 0.000000
-12.245400 0.000000
-12.210300 0.000000
-12.175200 0.000000
-12.140100 0.000000
-12.105000 0.000000
-12.069900 0.000000
-12.034800 0.000000
-11.999700 0.000000
-11.964700 0.000000
-11.929600 0.000000
-11.894500 0.000000
-11.859400 0.000000
-11.824300 0.000000
-11.789200 0.000000
-11.754100 0.000000
-11.719000 0.000000
-11.683900 0.000000
-11.648800 0.000000
-11.613700 0.000000
-11.578600 0.000000
-11.543600 0.000000
-11.508500 0.000000
-11.473400 0.000000
-11.438300 0.000000
-11.403200 0.000000
-11.368100 0.000000
-11.333000 0.000000
-11.297900 0.000000
-11.262800 0.000000
-11.227700 0.000000
-11.192600 0.000000
-11.157500 0.000000
-11.122500 0.000000
-11.087400 0.000000
-11.052300 0.000000
-11.017200 0.000000
-10.982100 0.000000
-10.947000 0.000000
-10.911900 0.000000
-10.876800 0.000000
-10.841700 0.000000
-10.806600 0.000000
-10.771500 0.000000
-10.736400 0.000000
-10.701400 0.000000
-10.666300 0.000000
-10.631200 0.000000
-10.596100 0.000000
-10.561000 0.000000
-10.525900 0.000000
-10.490800 0.000000
-10.455700 0.000000
-10.420600 0.000000
-10.385500 0.000000
-10.350400 0.000000
-10.315300 0.000000
-10.280300 0.000000
-10.245200 0.000000
-10.210100 0.000000
-10.175000 0.000000
-10.139900 0.000000
-10.104800 0.000000
-10.069700 0.000000
-10.034600 0.000000
-9.999500 0.000000
-9.964400 0.000000
-9.929300 0.000000
-9.894200 0.000000
-9.859200 0.000000
-9.824100 0.000000
-9.789000 0.000000
-9.753900 0.000000
-9.718800 0.000000
-9.683700 0.000000
-9.648600 0.000000
-9.613500 0.000000
-9.578400 0.000000
-9.543300 0.000000
-9.508200 0.000000
-9.473100 0.000000
-9.438100 0.000000
-9.403000 0.000000
-9.367900 0.000000
-9.332800 0.000000
-9.297700 0.000000
-9.262600 0.000000
-9.227500 0.000000
-9.192400 0.000000
-9.157300 0.000000
-9.122200 0.000000
-9.087100 0.000000
-9.052000 0.000000
-9.017000 0.000000
-8.981900 0.000000
-8.946800 0.000000
-8.911700 0.000000
-8.876600 0.000000
-8.841500 0.000000
-8.806400 0.000000
-8.771300 0.000000
-8.736200 0.000000
-8.701100 0.000000
-8.666000 0.000000
-8.630900 0.000000
-8.595900 0.000000
-8.560800 0.000000
-8.525700 0.000000
-8.490600 0.000000
-8.455500 0.000000
-8.420400 0.000000
-8.385300 0.000000
-8.350200 0.000000
-8.315100 0.000000
-8.280000 0.000000
-8.244900 0.000000
-8.209800 0.000000
-8.174800 0.000000
-8.139700 0.000000
-8.104600 0.000000
-8.069500 0.000000
-8.034400 0.000000
-7.999300 0.000000
-7.964200 0.000000
-7.929100 0.000000
-7.894000 0.000000
-7.858900 0.000000
-7.823800 0.000000
-7.788700 0.000000
-7.753700 0.000000
-7.718600 0.000000
-7.683500 0.000000
-7.648400 0.000000
-7.613300 0.000000
-7.578200 0.000000
-7.543100 0.000000
-7.508000 0.000000
-7.472900 0.000000
-7.437800 0.000000
-7.402700 0.000000
-7.367600 0.000000
-7.332600 0.000000
-7.297500 0.000000
-7.262400 0.000000
-7.227300 0.000000
-7.192200 0.000000
-7.157100 0.000000
-7.122000 0.000000
-7.086900 0.000000
-7.051800 0.000000
-7.016700 0.000000
-6.981600 0.000000
-6.946500 0.000000
-6.911500 0.000000
-6.876400 0.000000
-6.841300 0.000000
-6.806200 0.000000
-6.771100 0.000000
-6.736000 0.000000
-6.700900 0.000000
-6.665800 0.000000
-6.630700 0.000000
-6.595600 0.000000
-6.560500 0.000000
-6.525400 0.000000
-6.490400 0.000000
-6.455300 0.000000
-6.420200 0.000000
-6.385100 0.000000
-6.350000 0.000000
-6.314900 0.000000
-6.279800 0.000000
-6.244700 0.000000
-6.209600 0.000000
-6.174500 0.000000
-6.139400 0.000000
-6.104400 0.000000
-6.069300 0.000000
-6.034200 0.000000
-5.999100 0.000000
-5.964000 0.000000
-5.928900 0.000000
-5.893800 0.000000
-5.858700 0.000000
-5.823600 0.000000
-5.788500 0.000000
-5.753400 0.000000
-5.718300 0.000000
-5.683300 0.000000
-5.648200 0.000000
-5.613100 0.000000
-5.578000 0.000000
-5.542900 0.000000
-5.507800 0.000000
-5.472700 0.000000
-5.437600 0.000000
-5.402500 0.000000
-5.367400 0.000000
-5.332300 0.000000
-5.297200 0.000000
-5.262200 0.000000
-5.227100 0.000000
-5.192000 0.000000
-5.156900 0.000000
-5.121800 0.000000
-5.086700 0.000000
-5.051600 0.000000
-5.016500 0.000000
-4.981400 0.000000
-4.946300 0.000000
-4.911200 0.000000
-4.876100 0.000000
-4.841100 0.000000
-4.806000 0.000000
-4.770900 0.000000
-4.735800 0.000000
-4.700700 0.000000
-4.665600 0.000000
-4.630500 0.000000
-4.595400 0.000000
-4.560300 0.000000
-4.525200 0.000000
-4.490100 0.000000
-4.455000 0.000000
-4.420000 0.000000
-4.384900 0.000000
-4.349800 0.000000
-4.314700 0.000000
-4.279600 0.000000
-4.244500 0.000000
-4.209400 0.000000
-4.174300 0.000000
-4.139200 0.000000
-4.104100 0.000000
-4.069000 0.000000
-4.033900 0.000000
-3.998900 0.000000
-3.963800 0.000000
-3.928700 0.000000
-3.893600 0.000000
-3.858500 0.000000
-3.823400 0.000000
-3.788300 0.000000
-3.753200 0.000000
-3.718100 0.000000
-3.683000 0.000000
-3.647900 0.000000
-3.612800 0.000000
-3.577800 0.000000
-3.542700 0.000000
-3.507600 0.000000
-3.472500 0.000000
-3.437400 0.000000
-3.402300 0.000000
-3.367200 0.000000
-3.332100 0.000000
-3.297000 0.000000
-3.261900 0.000000
-3.226800 0.000000
-3.191700 0.000000
-3.156700 0.000000
-3.121600 0.000000
-3.086500 0.000000
-3.051400 0.000000
-3.016300 0.000000
-2.981200 0.000000
-2.946100 0.000000
-2.911000 0.000000
-2.875900 0.000000
-2.840800 0.000000
-2.805700 0.000000
-2.770600 0.000000
-2.735600 0.000000
-2.700500 0.000000
-2.665400 0.000000
-2.630300 0.000000
-2.595200 0.000000
-2.560100 0.000000
-2.525000 0.000000
-2.489900 0.000000
-2.454800 0.000000
-2.419700 0.001200
-2.384600 0.007000
-2.349500 0.014700
-2.314500 0.017600
-2.279400 0.021500
-2.244300 0.025600
-2.209200 0.028800
-2.174100 0.031300
-2.139000 0.032500
-2.103900 0.034500
-2.068800 0.036900
-2.033700 0.038900
-1.998600 0.041400
-1.963500 0.044000
-1.928400 0.046200
-1.893400 0.047100
-1.858300 0.048900
-1.823200 0.050900
-1.788100 0.052900
-1.753000 0.054600
-1.717900 0.056100
-1.682800 0.057500
-1.647700 0.059500
-1.612600 0.061800
-1.577500 0.064100
-1.542400 0.065600
-1.507300 0.067000
-1.472300 0.068300
-1.437200 0.069800
-1.402100 0.071800
-1.367000 0.073500
-1.331900 0.075200
-1.296800 0.076900
-1.261700 0.078500
-1.226600 0.080300
-1.191500 0.082100
-1.156400 0.084200
-1.121300 0.086100
-1.086200 0.088000
-1.051200 0.089900
-1.016100 0.091600
-0.981000 0.093100
-0.945900 0.094600
-0.910800 0.096200
-0.875700 0.098300
-0.840600 0.100200
-0.805500 0.102200
-0.770400 0.104200
-0.735300 0.106300
-0.700200 0.108500
-0.665200 0.110600
-0.630100 0.112700
-0.595000 0.114700
-0.559900 0.116900
-0.524800 0.119000
-0.489700 0.121200
-0.454600 0.123300
-0.419500 0.125400
-0.384400 0.127500
-0.349300 0.129800
-0.314200 0.132100
-0.279100 0.134900
-0.244100 0.137500
-0.209000 0.140200
-0.173900 0.143000
-0.138800 0.145900
-0.103700 0.148900
-0.068600 0.151600
-0.033500 0.154300
0.001600 0.157200
0.036700 0.160300
0.071800 0.163600
0.106900 0.167000
0.142000 0.170400
0.177000 0.173800
0.212100 0.177300
0.247200 0.181000
0.282300 0.185500
0.317400 0.189800
0.352500 0.194100
0.387600 0.198700
0.422700 0.203500
0.457800 0.208400
0.492900 0.213600
0.528000 0.219200
0.563100 0.225200
0.598100 0.231800
0.633200 0.238700
0.668300 0.245500
0.703400 0.252400
0.738500 0.263000
0.773600 0.272400
0.808700 0.282300
0.843800 0.293300
0.878900 0.305900
0.914000 0.320100
0.949100 0.336200
0.984200 0.386900
1.019200 0.394400
1.054300 0.436700
1.089400 0.580700
1.124500 0.692400
1.159600 0.625400
1.194700 0.640800
1.229800 0.652300
1.264900 0.653600
1.300000 0.636400
1.335100 0.632500
1.370200 0.635200
1.405300 0.640800
1.440300 0.645700
1.475400 0.644100
1.510500 0.647300
1.545600 0.640000
1.580700 0.639000
1.615800 0.639900
1.650900 0.642300
1.686000 0.673000
1.721100 0.699200
1.756200 0.725000
1.791300 0.731700
1.826400 0.744900
1.861400 0.754900
1.896500 0.766300
1.931600 0.778900
1.966700 0.793200
2.001800 0.807200
2.036900 0.821000
2.072000 0.834500
2.107100 0.847100
2.142200 0.860500
2.177300 0.874300
2.212400 0.889700
2.247500 0.905200
2.282500 0.926100
2.317600 0.959300
2.352700 0.986300
2.387800 1.014700
2.422900 1.057700
2.458000 1.114200
2.493100 1.184500
2.528200 1.269400
2.563300 1.285800
2.598400 1.288400
2.633500 1.299600
2.668600 1.126700
2.703600 0.970000
2.738700 0.891700
2.773800 0.825200
2.808900 0.788500
2.844000 0.757000
2.879100 0.739000
2.914200 0.691200
2.949300 0.620100
2.984400 0.572100
3.019500 0.532500
3.054600 0.492700
3.089700 0.466200
3.124700 0.447100
3.159800 0.427800
3.194900 0.412000
3.230000 0.398800
3.265100 0.387200
3.300200 0.377300
3.335300 0.370700
3.370400 0.367800
3.405500 0.364600
3.440600 0.329800
3.475700 0.334500
3.510800 0.339400
3.545800 0.344700
3.580900 0.357100
3.616000 0.352000
3.651100 0.357200
3.686200 0.368400
3.721300 0.380500
3.756400 0.708500
3.791500 1.163000
3.826600 1.595100
3.861700 2.026300
3.896800 2.306800
3.931900 2.728000
3.966900 2.770200
4.002000 2.482100
4.037100 2.356800
4.072200 2.128700
4.107300 1.941900
4.142400 1.786000
4.177500 1.682300
4.212600 1.570900
4.247700 1.485700
4.282800 1.433300
4.317900 1.384500
4.353000 1.368600
4.388000 1.367400
4.423100 1.374100
4.458200 1.366100
4.493300 1.368000
4.528400 1.392300
4.563500 1.409200
4.598600 1.414200
4.633700 1.410300
4.668800 1.384200
4.703900 1.368800
4.739000 1.367700
4.774000 1.374100
4.809100 1.397400
4.844200 1.423000
4.879300 1.440700
4.914400 1.489100
4.949500 1.552300
4.984600 1.693000
5.019700 1.962600
5.054800 2.240900
5.089900 2.208800
5.125000 2.131500
5.160100 2.013300
5.195100 1.877500
5.230200 1.718100
5.265300 1.544300
5.300400 1.448500
5.335500 1.373300
5.370600 1.304500
5.405700 1.245100
5.440800 1.197600
5.475900 1.162200
5.511000 1.123900
5.546100 1.089700
5.581200 1.054500
5.616200 1.015600
5.651300 0.973800
5.686400 0.946100
5.721500 0.930000
5.756600 0.903700
5.791700 0.880400
5.826800 0.854800
5.861900 0.834300
5.897000 0.812300
5.932100 0.773600
5.967200 0.655900
6.002300 0.630700
6.037300 0.491100
6.072400 0.377100
6.107500 0.361300
6.142600 0.357100
6.177700 0.347000
6.212800 0.338400
6.247900 0.330100
6.283000 0.321700
6.318100 0.317900
6.353200 0.321300
6.388300 0.309200
6.423400 0.307500
6.458400 0.303500
6.493500 0.299400
6.528600 0.300900
6.563700 0.302200
6.598800 0.299500
6.633900 0.299900
6.669000 0.306300
6.704100 0.294700
6.739200 0.289500
6.774300 0.288200
6.809400 0.283200
6.844500 0.283000
6.879500 0.290000
6.914600 0.297700
6.949700 0.302000
6.984800 0.307100
7.019900 0.316400
7.055000 0.332200
7.090100 0.352100
7.125200 0.374800
7.160300 0.402900
7.195400 0.455900
7.230500 0.495600
7.265600 0.557000
7.300600 0.618300
7.335700 0.638300
7.370800 0.662500
7.405900 0.676300
7.441000 0.657500
7.476100 0.661800
7.511200 0.670800
7.546300 0.689200
7.581400 0.708400
7.616500 0.718600
7.651600 0.726900
7.686700 0.729900
7.721700 0.738500
7.756800 0.745100
7.791900 0.744600
7.827000 0.755300
7.862100 0.764500
7.897200 0.759600
7.932300 0.766800
7.967400 0.775500
8.002500 0.785600
8.037600 0.796300
8.072700 0.809700
8.107800 0.823500
8.142800 0.836700
8.177900 0.846400
8.213000 0.856700
8.248100 0.869900
8.283200 0.884700
8.318300 0.922300
8.353400 0.931600
8.388500 0.947500
8.423600 0.965700
8.458700 0.987700
8.493800 1.011000
8.528900 1.050700
8.563900 1.092000
8.599000 1.156200
8.634100 1.098200
8.669200 1.093900
8.704300 1.095900
8.739400 1.140700
8.774500 1.122500
8.809600 1.120000
8.844700 1.106500
8.879800 1.087700
8.914900 1.093600
8.950000 1.099900
8.985000 1.105600
9.020100 1.128100
9.055200 1.136300
9.090300 1.156800
9.125400 1.198100
9.160500 1.259000
9.195600 1.283000
9.230700 1.146700
9.265800 1.111700
9.300900 1.230300
9.336000 1.207700
9.371100 1.197000
9.406100 1.151100
9.441200 1.122900
9.476300 1.104000
9.511400 1.122300
9.546500 1.082400
9.581600 1.070400
9.616700 1.067000
9.651800 1.075300
9.686900 1.126100
9.722000 1.136600
9.757100 1.181200
9.792200 1.216900
9.827200 1.271400
9.862300 1.382300
9.897400 1.512500
9.932500 1.640600
9.967600 1.852900
10.002700 2.193300
10.037800 2.575300
10.072900 3.064000
10.108000 3.494700
10.143100 3.189900
10.178200 3.266800
10.213200 3.375600
10.248300 3.267400
10.283400 2.247800
10.318500 1.856800
10.353600 1.558500
10.388700 1.878500
10.423800 1.224100
10.458900 1.091400
10.494000 0.975900
10.529100 0.826300
10.564200 0.794900
10.599300 0.768900
10.634300 0.745300
10.669400 0.723900
10.704500 0.707000
10.739600 0.690900
10.774700 0.674200
10.809800 0.657600
10.844900 0.650200
10.880000 0.634300
10.915100 0.628600
10.950200 0.601900
10.985300 0.584800
11.020400 0.568100
11.055400 0.556100
11.090500 0.539700
11.125600 0.527800
11.160700 0.505400
11.195800 0.497400
11.230900 0.491100
11.266000 0.490100
11.301100 0.484100
11.336200 0.476000
11.371300 0.471700
11.406400 0.467700
11.441500 0.464200
11.476500 0.461700
11.511600 0.459600
11.546700 0.457800
11.581800 0.476100
11.616900 0.464800
11.652000 0.460200
11.687100 0.455600
11.722200 0.453000
11.757300 0.462100
11.792400 0.462000
11.827500 0.455600
11.862600 0.449100
11.897600 0.441400
11.932700 0.432600
11.967800 0.422300
12.002900 0.388600
12.038000 0.386600
12.073100 0.399500
12.108200 0.361800
12.143300 0.349500
12.178400 0.340800
12.213500 0.333900
12.248600 0.328600
12.283700 0.324900
12.318700 0.322100
12.353800 0.320000
12.388900 0.319000
12.424000 0.322800
12.459100 0.326100
12.494200 0.330300
12.529300 0.337500
12.564400 0.345100
12.599500 0.353200
12.634600 0.363800
12.669700 0.376900
12.704800 0.390900
12.739800 0.431300
12.774900 0.438500
12.810000 0.456400
12.845100 0.470500
12.880200 0.481600
12.915300 0.480200
12.950400 0.469500
12.985500 0.457000
13.020600 0.439200
13.055700 0.427100
13.090800 0.425300
13.125900 0.423500
13.160900 0.421300
13.196000 0.416500
13.231100 0.411200
13.266200 0.408300
13.301300 0.407000
13.336400 0.406300
13.371500 0.406000
13.406600 0.405800
13.441700 0.405500
13.476800 0.403600
13.511900 0.401500
13.547000 0.398500
13.582000 0.400800
13.617100 0.398900
13.652200 0.397200
13.687300 0.395700
13.722400 0.394700
13.757500 0.391100
13.792600 0.389600
13.827700 0.388400
13.862800 0.387300
13.897900 0.386900
13.933000 0.386700
13.968100 0.386400
14.003100 0.386200
14.038200 0.387000
14.073300 0.389600
14.108400 0.392700
14.143500 0.395900
14.178600 0.399700
14.213700 0.405200
14.248800 0.418200
14.283900 0.429100
14.319000 0.440500
14.354100 0.451600
14.389200 0.462600
14.424200 0.497900
14.459300 0.477900
14.494400 0.505500
14.529500 0.526300
14.564600 0.446700
14.599700 0.406400
14.634800 0.380000
14.669900 0.356700
14.705000 0.336800
14.740100 0.318900
14.775200 0.300200
14.810300 0.281400
14.845300 0.262700
14.880400 0.228000
14.915500 0.179000
14.950600 0.151100
14.985700 0.137100
15.020800 0.160100
15.055900 0.220500
15.091000 0.245200
15.126100 0.285700
15.161200 0.317400
15.196300 0.336900
15.231400 0.352000
15.266400 0.353500
15.301500 0.358800
15.336600 0.369800
15.371700 0.381200
15.406800 0.405100
15.441900 0.414700
15.477000 0.423900
15.512100 0.437200
15.547200 0.457900
15.582300 0.480800
15.617400 0.500100
15.652400 0.517700
15.687500 0.517000
15.722600 0.515200
15.757700 0.519900
15.792800 0.530600
15.827900 0.541600
15.863000 0.544300
15.898100 0.546100
15.933200 0.549600
15.968300 0.550600
16.003400 0.545100
16.038500 0.535700
16.073500 0.524000
16.108600 0.506800
16.143700 0.497500
16.178800 0.495300
16.213900 0.494900
16.249000 0.495500
16.284100 0.495800
16.319200 0.495800
16.354300 0.497300
16.389400 0.496800
16.424500 0.498900
16.459600 0.505400
16.494600 0.504200
16.529700 0.498600
16.564800 0.502000
16.599900 0.518000
16.635000 0.496200
16.670100 0.495400
16.705200 0.496800
16.740300 0.500100
16.775400 0.498600
16.810500 0.492300
16.845600 0.518800
16.880700 0.465200
16.915700 0.446400
16.950800 0.431800
16.985900 0.419100
17.021000 0.412000
17.056100 0.404900
17.091200 0.398200
17.126300 0.391700
17.161400 0.382600
17.196500 0.378300
17.231600 0.375200
17.266700 0.375400
17.301800 0.381100
17.336800 0.390600
17.371900 0.398700
17.407000 0.408900
17.442100 0.418500
17.477200 0.425300
17.512300 0.432800
17.547400 0.434100
17.582500 0.438300
17.617600 0.445900
17.652700 0.454300
17.687800 0.470900
17.722900 0.480900
17.757900 0.506000
17.793000 0.524200
17.828100 0.536500
17.863200 0.551700
17.898300 0.568200
17.933400 0.583000
17.968500 0.600500
18.003600 0.616200
18.038700 0.635500
18.073800 0.654800
18.108900 0.678100
18.144000 0.704600
18.179000 0.734200
18.214100 0.769000
18.249200 0.810600
18.284300 0.857600
18.319400 0.916200
18.354500 0.982300
18.389600 1.063400
18.424700 1.178300
18.459800 1.361300
18.494900 1.670600
18.530000 2.223200
18.565100 3.417300
18.600100 76.246500
18.635200 2.864000
18.670300 2.085500
18.705400 1.785300
18.740500 1.554600
18.775600 1.372900
18.810700 1.231200
18.845800 1.118500
18.880900 1.051100
18.916000 1.007900
18.951100 0.970800
18.986200 0.940000
19.021200 0.947800
19.056300 0.906300
19.091400 0.871300
19.126500 0.853600
19.161600 0.837500
19.196700 0.817000
19.231800 0.808000
19.266900 0.799100
19.302000 0.790200
19.337100 0.781200
19.372200 0.775400
19.407300 0.771100
19.442300 0.767000
19.477400 0.762100
19.512500 0.758700
19.547600 0.756600
19.582700 0.754600
19.617800 0.752500
19.652900 0.751400
19.688000 0.742100
19.723100 0.734700
19.758200 0.726600
19.793300 0.725800
19.828400 0.712900
19.863400 0.701700
19.898500 0.691200
19.933600 0.681300
19.968700 0.672300
20.003800 0.664700
20.038900 0.660500
20.074000 0.658700
20.109100 0.650400
20.144200 0.644400
20.179300 0.637300
20.214400 0.628300
20.249500 0.622600
20.284500 0.618400
20.319600 0.617100
20.354700 0.620000
20.389800 0.619900
20.424900 0.624000
20.460000 0.625100
20.495100 0.627400
20.530200 0.622900
20.565300 0.619100
20.600400 0.623000
20.635500 0.629800
20.670600 0.635900
20.705600 0.643300
20.740700 0.652900
20.775800 0.659100
20.810900 0.661600
20.846000 0.671000
20.881100 0.681700
20.916200 0.695500
20.951300 0.712400
20.986400 0.764900
21.021500 0.791900
21.056600 0.777200
21.091700 0.770500
21.126700 0.768400
21.161800 0.769300
21.196900 0.775700
21.232000 0.777200
21.267100 0.779100
21.302200 0.784100
21.337300 0.798400
21.372400 0.810800
21.407500 0.826300
21.442600 0.843200
21.477700 0.849900
21.512700 0.852300
21.547800 0.850000
21.582900 0.839400
21.618000 0.827300
21.653100 0.818600
21.688200 0.815300
21.723300 0.812800
21.758400 0.813400
21.793500 0.819000
21.828600 0.828800
21.863700 0.837000
21.898800 0.854000
21.933800 0.861800
21.968900 0.860600
22.004000 0.864400
22.039100 0.866500
22.074200 0.872100
22.109300 0.881900
22.144400 0.888100
22.179500 0.893200
22.214600 0.935200
22.249700 0.891400
22.284800 0.863000
22.319900 0.842600
22.354900 0.828300
22.390000 0.823300
22.425100 0.829700
22.460200 0.864500
22.495300 0.855600
22.530400 0.835700
22.565500 0.793300
22.600600 0.793500
22.635700 0.803300
22.670800 0.795000
22.705900 0.764300
22.741000 0.752800
22.776000 0.744000
22.811100 0.736500
22.846200 0.729400
22.881300 0.720600
22.916400 0.709500
22.951500 0.695700
22.986600 0.680200
23.021700 0.657500
23.056800 0.643200
23.091900 0.626600
23.127000 0.611500
23.162100 0.597300
23.197100 0.587100
23.232200 0.577000
23.267300 0.567000
23.302400 0.556800
23.337500 0.547600
23.372600 0.539100
23.407700 0.531500
23.442800 0.524000
23.477900 0.516900
23.513000 0.511000
23.548100 0.505200
23.583200 0.499500
23.618200 0.494300
23.653300 0.489700
23.688400 0.485600
23.723500 0.482000
23.758600 0.478700
23.793700 0.475700
23.828800 0.474900
23.863900 0.472500
23.899000 0.469600
23.934100 0.466400
23.969200 0.463400
24.004300 0.459700
24.039300 0.456500
24.074400 0.451500
24.109500 0.446800
24.144600 0.437500
24.179700 0.431300
24.214800 0.425300
24.249900 0.420400
24.285000 0.416000
24.320100 0.411900
24.355200 0.408900
24.390300 0.407200
24.425400 0.407700
24.460400 0.407100
24.495500 0.406300
24.530600 0.406200
24.565700 0.400800
24.600800 0.402500
24.635900 0.408300
24.671000 0.414500
24.706100 0.419900
24.741200 0.425000
24.776300 0.438400
24.811400 0.442700
24.846500 0.446500
24.881500 0.458500
24.916600 0.454300
24.951700 0.449100
24.986800 0.446100
25.021900 0.445200
25.057000 0.443000
25.092100 0.432100
25.127200 0.426500
25.162300 0.434100
25.197400 0.427600
25.232500 0.426000
25.267600 0.469900
25.302600 0.523500
25.337700 0.524600
25.372800 0.532500
25.407900 0.536500
25.443000 0.544500
25.478100 0.558400
25.513200 0.590500
25.548300 0.611100
25.583400 0.635800
25.618500 0.666400
25.653600 0.705300
25.688700 0.735200
25.723700 0.811800
25.758800 0.864800
25.793900 0.950100
25.829000 1.046200
25.864100 1.262000
25.899200 1.301700
25.934300 1.845900
25.969400 1.437300
26.004500 1.207300
26.039600 1.109800
26.074700 1.033700
26.109800 0.978200
26.144800 0.943000
26.179900 0.915900
26.215000 0.889100
26.250100 0.860700
26.285200 0.832500
26.320300 0.811600
26.355400 0.788600
26.390500 0.767400
26.425600 0.750500
26.460700 0.735900
26.495800 0.722000
26.530900 0.707800
26.565900 0.694900
26.601000 0.683400
26.636100 0.672700
26.671200 0.662800
26.706300 0.653800
26.741400 0.638100
26.776500 0.628900
26.811600 0.629700
26.846700 0.655000
26.881800 0.613900
26.916900 0.601800
26.951900 0.589900
26.987000 0.571200
27.022100 0.559700
27.057200 0.552100
27.092300 0.551400
27.127400 0.556500
27.162500 0.563000
27.197600 0.568900
27.232700 0.573400
27.267800 0.583400
27.302900 0.582400
27.338000 0.586600
27.373000 0.602200
27.408100 0.652000
27.443200 0.686000
27.478300 0.712400
27.513400 0.726900
27.548500 0.736200
27.583600 0.772200
27.618700 0.781500
27.653800 0.790600
27.688900 0.795500
27.724000 0.782000
27.759100 0.769900
27.794100 0.757500
27.829200 0.742400
27.864300 0.729200
27.899400 0.717900
27.934500 0.708600
27.969600 0.699600
28.004700 0.682400
28.039800 0.664000
28.074900 0.637600
28.110000 0.609600
28.145100 0.579200
28.180200 0.562300
28.215200 0.544400
28.250300 0.528500
28.285400 0.513400
28.320500 0.505600
28.355600 0.500200
28.390700 0.496400
28.425800 0.489000
28.460900 0.486200
28.496000 0.484300
28.531100 0.483700
28.566200 0.484800
28.601300 0.488500
28.636300 0.492000
28.671400 0.499500
28.706500 0.510400
28.741600 0.525200
28.776700 0.542600
28.811800 0.562300
28.846900 0.578400
28.882000 0.598800
28.917100 0.625800
28.952200 0.655800
28.987300 0.671200
29.022400 0.681600
29.057400 0.697100
29.092500 0.724300
29.127600 0.753800
29.162700 0.787400
29.197800 0.822900
29.232900 0.850300
29.268000 0.885600
29.303100 0.916500
29.338200 0.947100
29.373300 0.974400
29.408400 0.994100
29.443500 1.003000
29.478500 0.958400
29.513600 0.917300
29.548700 0.885200
29.583800 0.859300
29.618900 0.835200
29.654000 0.820700
29.689100 0.811200
29.724200 0.804000
29.759300 0.797500
29.794400 0.799300
29.829500 0.799200
29.864600 0.797200
29.899600 0.798900
29.934700 0.800800
29.969800 0.799500
30.004900 0.796600
30.040000 0.793500
30.075100 0.789900
30.110200 0.786700
30.145300 0.782300
30.180400 0.778400
30.215500 0.779200
30.250600 0.773100
30.285700 0.766400
30.320700 0.757500
30.355800 0.752200
30.390900 0.744000
30.426000 0.736500
30.461100 0.730200
30.496200 0.724100
30.531300 0.723900
30.566400 0.735900
30.601500 0.741600
30.636600 0.705400
30.671700 0.682900
30.706800 0.668600
30.741800 0.653900
30.776900 0.642900
30.812000 0.628400
30.847100 0.615900
30.882200 0.601500
30.917300 0.588900
30.952400 0.576800
30.987500 0.576500
31.022600 0.563900
31.057700 0.561700
31.092800 0.555700
31.127900 0.547100
31.162900 0.540100
31.198000 0.525600
31.233100 0.517700
31.268200 0.515400
31.303300 0.550700
31.338400 0.530200
31.373500 0.535400
31.408600 0.541500
31.443700 0.554300
31.478800 0.565100
31.513900 0.564800
31.549000 0.571700
31.584000 0.584000
31.619100 0.606900
31.654200 0.634100
31.689300 0.668400
31.724400 0.723700
31.759500 0.725600
31.794600 0.687200
31.829700 0.666900
31.864800 0.649200
31.899900 0.648300
31.935000 0.645600
31.970100 0.645900
32.005100 0.648000
32.040200 0.651000
32.075300 0.655100
32.110400 0.660100
32.145500 0.669200
32.180600 0.663700
32.215700 0.665100
32.250800 0.669900
32.285900 0.676800
32.321000 0.686700
32.356100 0.701700
32.391100 0.720500
32.426200 0.741600
32.461300 0.765800
32.496400 0.789000
32.531500 0.821400
32.566600 0.859400
32.601700 0.899200
32.636800 0.943500
32.671900 0.939600
32.707000 0.879900
32.742100 0.850300
32.777200 0.846200
32.812200 0.840000
32.847300 0.821100
32.882400 0.804300
32.917500 0.757500
32.952600 0.702000
32.987700 0.641000
33.022800 0.574600
33.057900 0.535700
33.093000 0.499000
33.128100 0.466400
33.163200 0.434900
33.198300 0.411600
33.233300 0.392700
33.268400 0.373300
33.303500 0.353400
33.338600 0.332000
33.373700 0.310000
33.408800 0.290900
33.443900 0.273400
33.479000 0.257400
33.514100 0.243900
33.549200 0.229100
33.584300 0.209800
33.619400 0.196000
33.654400 0.184000
33.689500 0.168800
33.724600 0.153500
33.759700 0.143500
33.794800 0.134600
33.829900 0.126400
33.865000 0.119300
33.900100 0.113900
33.935200 0.109000
33.970300 0.103600
34.005400 0.098000
34.040500 0.092600
34.075500 0.087800
34.110600 0.083700
34.145700 0.079300
34.180800 0.074500
34.215900 0.070300
34.251000 0.066500
34.286100 0.063500
34.321200 0.060100
34.356300 0.056900
34.391400 0.053800
34.426500 0.050700
34.461600 0.047800
34.496600 0.045500
34.531700 0.043000
34.566800 0.040600
34.601900 0.038400
34.637000 0.036200
34.672100 0.033800
34.707200 0.028500
34.742300 0.025000
34.777400 0.021900
34.812500 0.018800
34.847600 0.015900
34.882700 0.013100
34.917700 0.010400
34.952800 0.004000
34.987900 0.001100
35.023000 0.000000
35.058100 0.000000
35.093200 0.000000
35.128300 0.000000
35.163400 0.000000
35.198500 0.000000
35.233600 0.000000
35.268700 0.000000
35.303800 0.000000
35.338800 0.000000
35.373900 0.000000
35.409000 0.000000
35.444100 0.000000
35.479200 0.000000
35.514300 0.000000
35.549400 0.000000
35.584500 0.000000
35.619600 0.000000
35.654700 0.000000
35.689800 0.000000
35.724900 0.000000
35.759900 0.000000
35.795000 0.000000
35.830100 0.000000
35.865200 0.000000
35.900300 0.000000
35.935400 0.000000
35.970500 0.000000
36.005600 0.000000
36.040700 0.000000
36.075800 0.000000
36.110900 0.000000
36.146000 0.000000
36.181000 0.000000
36.216100 0.000000
36.251200 0.000000
36.286300 0.000000
36.321400 0.000000
36.356500 0.000000
36.391600 0.000000
36.426700 0.000000
36.461800 0.000000
36.496900 0.000000
36.532000 0.000000
36.567100 0.000000
36.602100 0.000000
36.637200 0.000000
36.672300 0.000000
36.707400 0.000000
36.742500 0.000000
36.777600 0.000000
36.812700 0.000000
36.847800 0.000000
36.882900 0.000000
36.918000 0.000000
36.953100 0.000000
36.988200 0.000000
37.023200 0.000000
37.058300 0.000000
37.093400 0.000000
37.128500 0.000000
37.163600 0.000000
37.198700 0.000000
37.233800 0.000000
37.268900 0.000000
37.304000 0.000000
37.339100 0.000000
37.374200 0.000000
37.409300 0.000000
37.444300 0.000000
37.479400 0.000000
37.514500 0.000000
37.549600 0.000000
37.584700 0.000000
37.619800 0.000000
37.654900 0.000000
37.690000 0.000000
37.725100 0.000000
37.760200 0.000000
37.795300 0.000000
37.830300 0.000000
37.865400 0.000000
37.900500 0.000000
37.935600 0.000000
37.970700 0.000000
38.005800 0.000000
38.040900 0.000000
38.076000 0.000000
38.111100 0.000000
38.146200 0.000000
38.181300 0.000000
38.216400 0.000000
e
