set title 'mp-1221542 - Density of States'
set xlabel 'Energy (eV)'
set ylabel 'DOS (states/eV)'
set grid
set xrange [-10:10]
set yrange [0:6.337]
set xzeroaxis lt -1
set terminal png size 800,600
set output 'mp-1221542_dos_gnuplot.png'
plot '-' using 1:2 with lines title 'DOS'
-53.750200 0.000000
-53.689900 0.000000
-53.629600 0.000000
-53.569300 0.000000
-53.509000 0.000000
-53.448800 0.000000
-53.388500 0.000000
-53.328200 0.000000
-53.267900 0.000000
-53.207600 0.000000
-53.147300 0.000000
-53.087100 0.000000
-53.026800 0.000000
-52.966500 0.000000
-52.906200 0.000000
-52.845900 0.000000
-52.785600 0.000000
-52.725300 0.000000
-52.665100 0.000000
-52.604800 0.000000
-52.544500 0.000000
-52.484200 0.000000
-52.423900 0.000000
-52.363600 0.000000
-52.303400 0.000000
-52.243100 0.000000
-52.182800 0.000000
-52.122500 0.000000
-52.062200 0.000000
-52.001900 0.000000
-51.941700 0.000000
-51.881400 0.000000
-51.821100 0.000000
-51.760800 0.000000
-51.700500 0.000000
-51.640200 0.000000
-51.580000 0.000000
-51.519700 0.000000
-51.459400 0.000000
-51.399100 0.000000
-51.338800 0.000000
-51.278500 0.000000
-51.218200 0.000000
-51.158000 0.000000
-51.097700 0.000000
-51.037400 0.000000
-50.977100 0.000000
-50.916800 0.000000
-50.856500 0.000000
-50.796300 0.000000
-50.736000 0.000000
-50.675700 0.000000
-50.615400 0.000000
-50.555100 0.000000
-50.494800 0.000000
-50.434600 0.000000
-50.374300 0.000000
-50.314000 0.000000
-50.253700 0.000000
-50.193400 0.000000
-50.133100 0.000000
-50.072900 0.000000
-50.012600 0.000000
-49.952300 0.000000
-49.892000 0.000000
-49.831700 0.000000
-49.771400 0.000000
-49.711100 0.000000
-49.650900 0.000000
-49.590600 0.000000
-49.530300 0.000000
-49.470000 0.000000
-49.409700 0.000000
-49.349400 0.000000
-49.289200 0.000000
-49.228900 0.000000
-49.168600 0.000000
-49.108300 0.000000
-49.048000 0.000000
-48.987700 0.000000
-48.927500 0.000000
-48.867200 0.000000
-48.806900 0.000000
-48.746600 0.000000
-48.686300 0.000000
-48.626000 0.000000
-48.565800 0.000000
-48.505500 0.000000
-48.445200 0.000000
-48.384900 0.000000
-48.324600 0.000000
-48.264300 57.813500
-48.204000 17.571000
-48.143800 0.000000
-48.083500 0.000000
-48.023200 0.000000
-47.962900 0.000000
-47.902600 0.000000
-47.842300 0.000000
-47.782100 0.000000
-47.721800 0.000000
-47.661500 0.000000
-47.601200 0.000000
-47.540900 0.000000
-47.480600 0.000000
-47.420400 0.000000
-47.360100 0.000000
-47.299800 0.000000
-47.239500 0.000000
-47.179200 0.000000
-47.118900 0.000000
-47.058600 0.000000
-46.998400 0.000000
-46.938100 0.000000
-46.877800 0.000000
-46.817500 0.000000
-46.757200 0.000000
-46.696900 0.000000
-46.636700 0.000000
-46.576400 0.000000
-46.516100 0.000000
-46.455800 0.000000
-46.395500 0.000000
-46.335200 0.000000
-46.275000 0.000000
-46.214700 0.000000
-46.154400 0.000000
-46.094100 0.000000
-46.033800 0.000000
-45.973500 0.000000
-45.913300 0.000000
-45.853000 0.000000
-45.792700 0.000000
-45.732400 0.000000
-45.672100 0.000000
-45.611800 0.000000
-45.551500 0.000000
-45.491300 0.000000
-45.431000 0.000000
-45.370700 0.000000
-45.310400 0.000000
-45.250100 0.000000
-45.189800 0.000000
-45.129600 0.000000
-45.069300 0.000000
-45.009000 0.000000
-44.948700 0.000000
-44.888400 0.000000
-44.828100 0.000000
-44.767900 0.000000
-44.707600 0.000000
-44.647300 0.000000
-44.587000 0.000000
-44.526700 0.000000
-44.466400 0.000000
-44.406200 0.000000
-44.345900 0.000000
-44.285600 0.000000
-44.225300 0.000000
-44.165000 0.000000
-44.104700 0.000000
-44.044400 0.000000
-43.984200 0.000000
-43.923900 0.000000
-43.863600 0.000000
-43.803300 0.000000
-43.743000 0.000000
-43.682700 0.000000
-43.622500 0.000000
-43.562200 0.000000
-43.501900 0.000000
-43.441600 0.000000
-43.381300 0.000000
-43.321000 0.000000
-43.260800 0.000000
-43.200500 0.000000
-43.140200 0.000000
-43.079900 0.000000
-43.019600 0.000000
-42.959300 0.000000
-42.899100 0.000000
-42.838800 0.000000
-42.778500 0.000000
-42.718200 0.000000
-42.657900 0.000000
-42.597600 0.000000
-42.537300 0.000000
-42.477100 0.000000
-42.416800 0.000000
-42.356500 0.000000
-42.296200 0.000000
-42.235900 0.000000
-42.175600 0.000000
-42.115400 0.000000
-42.055100 0.000000
-41.994800 0.000000
-41.934500 0.000000
-41.874200 0.000000
-41.813900 0.000000
-41.753700 0.000000
-41.693400 0.000000
-41.633100 0.000000
-41.572800 0.000000
-41.512500 0.000000
-41.452200 0.000000
-41.391900 0.000000
-41.331700 0.000000
-41.271400 0.000000
-41.211100 0.000000
-41.150800 0.000000
-41.090500 0.000000
-41.030200 0.000000
-40.970000 0.000000
-40.909700 0.000000
-40.849400 0.000000
-40.789100 0.000000
-40.728800 0.000000
-40.668500 0.000000
-40.608300 0.000000
-40.548000 0.000000
-40.487700 0.000000
-40.427400 0.000000
-40.367100 0.000000
-40.306800 0.000000
-40.246600 0.000000
-40.186300 0.000000
-40.126000 0.000000
-40.065700 0.000000
-40.005400 0.000000
-39.945100 0.000000
-39.884800 0.000000
-39.824600 0.000000
-39.764300 0.000000
-39.704000 0.000000
-39.643700 0.000000
-39.583400 0.000000
-39.523100 0.000000
-39.462900 0.000000
-39.402600 0.000000
-39.342300 0.000000
-39.282000 0.000000
-39.221700 0.000000
-39.161400 0.000000
-39.101200 0.000000
-39.040900 0.000000
-38.980600 0.000000
-38.920300 0.000000
-38.860000 0.000000
-38.799700 0.000000
-38.739500 0.000000
-38.679200 0.000000
-38.618900 0.000000
-38.558600 0.000000
-38.498300 0.000000
-38.438000 0.000000
-38.377700 0.000000
-38.317500 0.000000
-38.257200 0.000000
-38.196900 0.000000
-38.136600 0.000000
-38.076300 0.000000
-38.016000 0.000000
-37.955800 0.000000
-37.895500 0.000000
-37.835200 0.000000
-37.774900 0.000000
-37.714600 0.000000
-37.654300 0.000000
-37.594100 0.000000
-37.533800 0.000000
-37.473500 0.000000
-37.413200 0.000000
-37.352900 0.000000
-37.292600 0.000000
-37.232400 0.000000
-37.172100 0.000000
-37.111800 0.000000
-37.051500 0.000000
-36.991200 0.000000
-36.930900 0.000000
-36.870600 0.000000
-36.810400 0.000000
-36.750100 0.000000
-36.689800 0.000000
-36.629500 0.000000
-36.569200 0.000000
-36.508900 0.000000
-36.448700 0.000000
-36.388400 0.000000
-36.328100 0.000000
-36.267800 0.000000
-36.207500 0.000000
-36.147200 0.000000
-36.087000 0.000000
-36.026700 0.000000
-35.966400 0.000000
-35.906100 0.000000
-35.845800 0.000000
-35.785500 0.000000
-35.725300 0.000000
-35.665000 0.000000
-35.604700 0.000000
-35.544400 0.000000
-35.484100 0.000000
-35.423800 0.000000
-35.363500 0.000000
-35.303300 0.000000
-35.243000 0.000000
-35.182700 0.000000
-35.122400 0.000000
-35.062100 0.000000
-35.001800 0.000000
-34.941600 0.000000
-34.881300 0.000000
-34.821000 0.000000
-34.760700 0.000000
-34.700400 0.000000
-34.640100 0.000000
-34.579900 0.000000
-34.519600 0.000000
-34.459300 0.000000
-34.399000 0.000000
-34.338700 0.000000
-34.278400 0.000000
-34.218100 0.000000
-34.157900 0.000000
-34.097600 0.000000
-34.037300 0.000000
-33.977000 0.000000
-33.916700 0.000000
-33.856400 0.000000
-33.796200 0.000000
-33.735900 0.000000
-33.675600 0.000000
-33.615300 0.000000
-33.555000 0.000000
-33.494700 0.000000
-33.434500 0.000000
-33.374200 0.000000
-33.313900 0.000000
-33.253600 0.000000
-33.193300 0.000000
-33.133000 0.000000
-33.072800 0.000000
-33.012500 0.000000
-32.952200 0.000000
-32.891900 0.000000
-32.831600 0.000000
-32.771300 0.000000
-32.711000 0.000000
-32.650800 0.000000
-32.590500 0.000000
-32.530200 0.000000
-32.469900 0.000000
-32.409600 0.000000
-32.349300 0.000000
-32.289100 0.000000
-32.228800 0.000000
-32.168500 0.000000
-32.108200 0.000000
-32.047900 0.000000
-31.987600 0.000000
-31.927400 0.000000
-31.867100 0.000000
-31.806800 0.000000
-31.746500 0.000000
-31.686200 0.000000
-31.625900 0.000000
-31.565700 0.000000
-31.505400 0.000000
-31.445100 0.000000
-31.384800 0.000000
-31.324500 0.000000
-31.264200 0.000000
-31.203900 0.000000
-31.143700 0.000000
-31.083400 0.000000
-31.023100 0.000000
-30.962800 0.000000
-30.902500 0.000000
-30.842200 0.000000
-30.782000 0.000000
-30.721700 0.000000
-30.661400 0.000000
-30.601100 0.000000
-30.540800 0.000000
-30.480500 0.000000
-30.420300 0.000000
-30.360000 0.000000
-30.299700 0.000000
-30.239400 0.000000
-30.179100 0.000000
-30.118800 0.000000
-30.058600 0.000000
-29.998300 0.000000
-29.938000 0.000000
-29.877700 0.000000
-29.817400 0.000000
-29.757100 0.000000
-29.696800 0.000000
-29.636600 0.000000
-29.576300 0.000000
-29.516000 0.000000
-29.455700 0.000000
-29.395400 0.000000
-29.335100 0.000000
-29.274900 0.000000
-29.214600 0.000000
-29.154300 0.000000
-29.094000 0.000000
-29.033700 0.000000
-28.973400 0.000000
-28.913200 0.000000
-28.852900 0.000000
-28.792600 0.000000
-28.732300 0.000000
-28.672000 0.000000
-28.611700 0.000000
-28.551500 0.000000
-28.491200 0.000000
-28.430900 0.000000
-28.370600 0.000000
-28.310300 0.000000
-28.250000 0.000000
-28.189700 0.000000
-28.129500 0.000000
-28.069200 0.000000
-28.008900 0.000000
-27.948600 0.000000
-27.888300 0.000000
-27.828000 0.000000
-27.767800 0.000000
-27.707500 0.000000
-27.647200 0.000000
-27.586900 0.000000
-27.526600 0.000000
-27.466300 0.000000
-27.406100 0.000000
-27.345800 0.000000
-27.285500 0.000000
-27.225200 0.000000
-27.164900 0.000000
-27.104600 0.000000
-27.044300 0.000000
-26.984100 0.000000
-26.923800 0.000000
-26.863500 0.000000
-26.803200 0.000000
-26.742900 0.000000
-26.682600 0.000000
-26.622400 0.000000
-26.562100 0.000000
-26.501800 0.000000
-26.441500 0.000000
-26.381200 0.000000
-26.320900 0.000000
-26.260700 0.000000
-26.200400 0.000000
-26.140100 0.000000
-26.079800 0.000000
-26.019500 0.000000
-25.959200 0.000000
-25.899000 0.000000
-25.838700 0.000000
-25.778400 0.000000
-25.718100 0.000000
-25.657800 0.000000
-25.597500 0.000000
-25.537200 0.000000
-25.477000 0.000000
-25.416700 0.000000
-25.356400 0.000000
-25.296100 0.000000
-25.235800 0.000000
-25.175500 0.000000
-25.115300 0.000000
-25.055000 0.000000
-24.994700 0.000000
-24.934400 0.000000
-24.874100 0.000000
-24.813800 0.000000
-24.753600 0.000000
-24.693300 0.000000
-24.633000 0.000000
-24.572700 0.000000
-24.512400 0.000000
-24.452100 0.000000
-24.391900 0.000000
-24.331600 0.000000
-24.271300 0.000000
-24.211000 0.000000
-24.150700 0.000000
-24.090400 0.000000
-24.030100 0.000000
-23.969900 0.000000
-23.909600 0.000000
-23.849300 0.000000
-23.789000 0.000000
-23.728700 0.000000
-23.668400 0.000000
-23.608200 0.000000
-23.547900 0.000000
-23.487600 0.000000
-23.427300 0.000000
-23.367000 0.000000
-23.306700 0.000000
-23.246500 0.000000
-23.186200 0.000000
-23.125900 0.000000
-23.065600 0.000000
-23.005300 0.000000
-22.945000 0.000000
-22.884800 0.000000
-22.824500 0.000000
-22.764200 0.000000
-22.703900 0.000000
-22.643600 0.000000
-22.583300 0.000000
-22.523000 0.000000
-22.462800 0.000000
-22.402500 0.000000
-22.342200 0.000000
-22.281900 0.000000
-22.221600 0.000000
-22.161300 0.000000
-22.101100 0.000000
-22.040800 0.000000
-21.980500 0.000000
-21.920200 0.000000
-21.859900 0.000000
-21.799600 0.000000
-21.739400 0.000000
-21.679100 0.000000
-21.618800 0.000000
-21.558500 0.000000
-21.498200 0.000000
-21.437900 0.000000
-21.377600 0.000000
-21.317400 0.000000
-21.257100 0.000000
-21.196800 0.000000
-21.136500 0.000000
-21.076200 0.000000
-21.015900 0.000000
-20.955700 0.000000
-20.895400 0.000000
-20.835100 0.000000
-20.774800 0.000000
-20.714500 0.000000
-20.654200 0.000000
-20.594000 0.000000
-20.533700 0.000000
-20.473400 0.000000
-20.413100 0.000000
-20.352800 0.000000
-20.292500 0.000000
-20.232300 0.000000
-20.172000 0.000000
-20.111700 0.000000
-20.051400 0.000000
-19.991100 0.000000
-19.930800 0.000000
-19.870500 0.000000
-19.810300 0.000000
-19.750000 0.000000
-19.689700 0.000000
-19.629400 0.000000
-19.569100 0.000000
-19.508800 0.000000
-19.448600 0.000000
-19.388300 0.000000
-19.328000 0.000000
-19.267700 0.000000
-19.207400 0.000000
-19.147100 0.000000
-19.086900 0.000000
-19.026600 0.000000
-18.966300 0.000000
-18.906000 0.000000
-18.845700 0.000000
-18.785400 0.000000
-18.725200 0.000000
-18.664900 0.000000
-18.604600 0.000000
-18.544300 0.000000
-18.484000 0.000000
-18.423700 0.000000
-18.363400 0.000000
-18.303200 0.000000
-18.242900 0.000000
-18.182600 0.000000
-18.122300 0.000000
-18.062000 0.000000
-18.001700 0.000000
-17.941500 0.000000
-17.881200 0.000000
-17.820900 0.000000
-17.760600 0.000000
-17.700300 0.000000
-17.640000 0.000000
-17.579800 0.000000
-17.519500 0.000000
-17.459200 0.000000
-17.398900 0.000000
-17.338600 0.000000
-17.278300 0.000000
-17.218100 0.000000
-17.157800 0.000000
-17.097500 0.000000
-17.037200 0.000000
-16.976900 0.000000
-16.916600 0.000000
-16.856300 0.000000
-16.796100 0.000000
-16.735800 0.000000
-16.675500 0.000000
-16.615200 0.000000
-16.554900 0.000000
-16.494600 0.000000
-16.434400 0.000000
-16.374100 0.000000
-16.313800 0.000000
-16.253500 0.000000
-16.193200 0.000000
-16.132900 0.011900
-16.072700 0.086200
-16.012400 0.137900
-15.952100 0.171100
-15.891800 0.211900
-15.831500 0.246000
-15.771200 0.287600
-15.711000 0.336600
-15.650700 0.399600
-15.590400 0.495300
-15.530100 0.522500
-15.469800 0.548400
-15.409500 0.584300
-15.349200 0.626200
-15.289000 0.681800
-15.228700 0.753400
-15.168400 0.852400
-15.108100 0.995700
-15.047800 1.288600
-14.987500 3.611800
-14.927300 2.257400
-14.867000 1.143900
-14.806700 0.000000
-14.746400 0.000000
-14.686100 0.196200
-14.625800 0.345300
-14.565600 0.663300
-14.505300 1.521500
-14.445000 6.785100
-14.384700 2.343200
-14.324400 1.682300
-14.264100 1.369400
-14.203800 1.178900
-14.143600 1.070200
-14.083300 0.823100
-14.023000 0.566000
-13.962700 0.408100
-13.902400 0.291500
-13.842100 0.163000
-13.781900 0.000000
-13.721600 0.000000
-13.661300 0.000000
-13.601000 0.000000
-13.540700 0.000000
-13.480400 0.000000
-13.420200 0.000000
-13.359900 0.000000
-13.299600 0.000000
-13.239300 0.000000
-13.179000 0.000000
-13.118700 0.000000
-13.058500 0.000000
-12.998200 0.000000
-12.937900 0.000000
-12.877600 0.000000
-12.817300 0.000000
-12.757000 0.000000
-12.696700 0.000000
-12.636500 0.000000
-12.576200 0.000000
-12.515900 0.000000
-12.455600 0.000000
-12.395300 0.000000
-12.335000 0.000000
-12.274800 0.000000
-12.214500 0.000000
-12.154200 0.000000
-12.093900 0.000000
-12.033600 0.000000
-11.973300 0.000000
-11.913100 0.000000
-11.852800 0.000000
-11.792500 0.000000
-11.732200 0.000000
-11.671900 0.000000
-11.611600 0.000000
-11.551400 0.000000
-11.491100 0.000000
-11.430800 0.000000
-11.370500 0.000000
-11.310200 0.000000
-11.249900 0.000000
-11.189600 0.000000
-11.129400 0.000000
-11.069100 0.000000
-11.008800 0.000000
-10.948500 0.000000
-10.888200 0.000000
-10.827900 0.000000
-10.767700 0.000000
-10.707400 0.000000
-10.647100 0.000000
-10.586800 0.000000
-10.526500 0.000000
-10.466200 0.000000
-10.406000 0.000000
-10.345700 0.000000
-10.285400 0.000000
-10.225100 0.000000
-10.164800 0.000000
-10.104500 0.000000
-10.044300 0.000000
-9.984000 0.000000
-9.923700 0.000000
-9.863400 0.000000
-9.803100 0.000000
-9.742800 0.000000
-9.682500 0.000000
-9.622300 0.000000
-9.562000 0.000000
-9.501700 0.000000
-9.441400 0.000000
-9.381100 0.000000
-9.320800 0.000000
-9.260600 0.000000
-9.200300 0.000000
-9.140000 0.000000
-9.079700 0.000000
-9.019400 0.000000
-8.959100 0.000000
-8.898900 0.000000
-8.838600 0.000000
-8.778300 0.000000
-8.718000 0.000000
-8.657700 0.000000
-8.597400 0.000000
-8.537100 0.000000
-8.476900 0.000000
-8.416600 0.000000
-8.356300 0.000000
-8.296000 0.000000
-8.235700 0.000000
-8.175400 0.000000
-8.115200 0.000000
-8.054900 0.000000
-7.994600 0.000000
-7.934300 0.000000
-7.874000 0.000000
-7.813700 0.000000
-7.753500 0.000000
-7.693200 0.000000
-7.632900 0.000000
-7.572600 0.000000
-7.512300 0.000000
-7.452000 0.000000
-7.391800 0.000000
-7.331500 0.000000
-7.271200 0.000000
-7.210900 0.000000
-7.150600 0.000000
-7.090300 0.000000
-7.030000 0.000000
-6.969800 0.000000
-6.909500 0.000000
-6.849200 0.000000
-6.788900 0.000000
-6.728600 0.000000
-6.668300 0.000000
-6.608100 0.000000
-6.547800 0.000000
-6.487500 0.000000
-6.427200 0.000000
-6.366900 0.000000
-6.306600 0.000000
-6.246400 0.000000
-6.186100 0.000000
-6.125800 0.000000
-6.065500 0.000000
-6.005200 0.000000
-5.944900 0.000000
-5.884700 0.000000
-5.824400 0.000000
-5.764100 0.000000
-5.703800 0.000000
-5.643500 0.000000
-5.583200 0.000000
-5.522900 0.000000
-5.462700 0.000000
-5.402400 0.000000
-5.342100 0.000000
-5.281800 0.000000
-5.221500 0.000000
-5.161200 0.000000
-5.101000 0.000000
-5.040700 0.000000
-4.980400 0.000000
-4.920100 0.000000
-4.859800 0.000000
-4.799500 0.000000
-4.739300 0.000000
-4.679000 0.000000
-4.618700 0.083500
-4.558400 0.370700
-4.498100 0.359600
-4.437800 0.405300
-4.377600 0.404000
-4.317300 0.411600
-4.257000 0.459300
-4.196700 0.755600
-4.136400 1.053700
-4.076100 1.018700
-4.015800 1.565100
-3.955600 1.476700
-3.895300 1.365300
-3.835000 1.454100
-3.774700 1.683300
-3.714400 1.845500
-3.654100 1.759600
-3.593900 1.984700
-3.533600 2.097600
-3.473300 2.061900
-3.413000 2.102100
-3.352700 2.106200
-3.292400 2.186300
-3.232200 2.234500
-3.171900 2.522000
-3.111600 3.734300
-3.051300 3.247200
-2.991000 3.156900
-2.930700 2.047000
-2.870500 1.752300
-2.810200 1.583200
-2.749900 1.774100
-2.689600 1.743200
-2.629300 1.728200
-2.569000 1.777900
-2.508700 1.815700
-2.448500 1.798500
-2.388200 2.115800
-2.327900 2.075500
-2.267600 2.022600
-2.207300 1.706700
-2.147000 1.677600
-2.086800 1.456500
-2.026500 1.352600
-1.966200 1.233200
-1.905900 1.220400
-1.845600 1.271000
-1.785300 1.206400
-1.725100 0.999900
-1.664800 0.351900
-1.604500 0.320700
-1.544200 0.296000
-1.483900 0.310400
-1.423600 0.327300
-1.363300 0.333800
-1.303100 0.329500
-1.242800 0.307500
-1.182500 0.301800
-1.122200 0.374300
-1.061900 0.425900
-1.001600 0.487400
-0.941400 0.537100
-0.881100 0.700700
-0.820800 1.253600
-0.760500 1.350100
-0.700200 1.792900
-0.639900 5.761100
-0.579700 1.529100
-0.519400 1.159400
-0.459100 0.961500
-0.398800 0.832900
-0.338500 0.702900
-0.278200 0.633000
-0.218000 0.570900
-0.157700 0.514900
-0.097400 0.472900
-0.037100 0.427300
0.023200 0.398700
0.083500 0.450300
0.143800 0.522700
0.204000 0.597700
0.264300 0.616700
0.324600 0.629000
0.384900 0.691600
0.445200 0.742000
0.505500 0.764900
0.565700 0.796600
0.626000 0.806800
0.686300 0.823300
0.746600 0.873000
0.806900 1.005700
0.867200 1.159900
0.927400 1.410900
0.987700 1.635200
1.048000 1.872100
1.108300 2.636000
1.168600 2.977500
1.228900 1.906900
1.289100 1.083600
1.349400 1.153600
1.409700 1.070100
1.470000 0.987100
1.530300 1.043300
1.590600 1.184500
1.650900 1.406000
1.711100 1.782200
1.771400 2.085300
1.831700 2.152000
1.892000 1.762900
1.952300 1.680300
2.012600 1.831900
2.072800 1.739000
2.133100 1.698100
2.193400 1.736400
2.253700 1.787500
2.314000 1.804800
2.374300 1.808800
2.434500 1.728200
2.494800 1.488000
2.555100 1.482200
2.615400 1.415300
2.675700 1.367200
2.736000 1.327900
2.796200 1.307400
2.856500 1.278300
2.916800 1.265100
2.977100 0.911600
3.037400 0.717200
3.097700 0.577200
3.158000 0.545700
3.218200 0.538500
3.278500 0.531100
3.338800 0.532000
3.399100 0.531400
3.459400 0.534500
3.519700 0.548700
3.579900 0.539300
3.640200 0.538900
3.700500 0.530100
3.760800 0.518200
3.821100 0.534000
3.881400 0.463800
3.941600 0.309600
4.001900 0.306200
4.062200 0.305400
4.122500 0.305200
4.182800 0.305200
4.243100 0.305900
4.303400 0.306700
4.363600 0.309100
4.423900 0.306000
4.484200 0.302400
4.544500 0.299800
4.604800 0.297500
4.665100 0.295900
4.725300 0.294700
4.785600 0.295700
4.845900 0.299000
4.906200 0.305200
4.966500 0.304900
5.026800 0.303300
5.087000 0.301300
5.147300 0.302100
5.207600 0.301000
5.267900 0.308700
5.328200 0.306300
5.388500 0.302100
5.448700 0.361400
5.509000 0.201300
5.569300 0.157700
5.629600 0.126700
5.689900 0.102800
5.750200 0.071800
5.810500 0.053200
5.870700 0.036100
5.931000 0.000000
5.991300 0.000000
6.051600 0.000000
6.111900 0.000000
6.172200 0.000000
6.232400 0.000000
6.292700 0.000000
6.353000 0.000000
6.413300 0.000000
6.473600 0.000000
6.533900 0.000000
6.594100 0.000000
6.654400 0.000000
6.714700 0.000000
6.775000 0.000000
6.835300 0.000000
6.895600 0.000000
6.955800 0.000000
7.016100 0.000000
7.076400 0.000000
7.136700 0.000000
7.197000 0.000000
7.257300 0.000000
7.317600 0.000000
7.377800 0.000000
7.438100 0.000000
7.498400 0.000000
7.558700 0.000000
7.619000 0.000000
7.679300 0.000000
7.739500 0.000000
7.799800 0.000000
7.860100 0.000000
7.920400 0.000000
7.980700 0.000000
8.041000 0.000000
8.101200 0.000000
8.161500 0.000000
8.221800 0.000000
8.282100 0.000000
8.342400 0.000000
8.402700 0.000000
8.462900 0.000000
8.523200 0.000000
8.583500 0.000000
8.643800 0.000000
8.704100 0.000000
8.764400 0.000000
8.824700 0.000000
8.884900 0.000000
8.945200 0.000100
9.005500 0.002600
9.065800 0.008300
9.126100 0.014300
9.186400 0.017100
9.246600 0.018100
9.306900 0.020300
9.367200 0.023500
9.427500 0.026800
9.487800 0.029300
9.548100 0.031200
9.608300 0.033300
9.668600 0.035500
9.728900 0.037800
9.789200 0.040100
9.849500 0.042400
9.909800 0.044800
9.970000 0.047200
10.030300 0.049800
10.090600 0.052300
10.150900 0.055000
10.211200 0.057700
10.271500 0.060200
10.331800 0.062600
10.392000 0.065300
10.452300 0.068500
10.512600 0.071800
10.572900 0.075000
10.633200 0.078000
10.693500 0.081000
10.753700 0.084000
10.814000 0.087200
10.874300 0.091400
10.934600 0.095500
10.994900 0.099500
11.055200 0.103600
11.115400 0.107800
11.175700 0.112000
11.236000 0.117000
11.296300 0.122700
11.356600 0.128500
11.416900 0.134400
11.477200 0.140200
11.537400 0.159400
11.597700 0.181700
11.658000 0.209800
11.718300 0.229300
11.778600 0.249000
11.838900 0.279400
11.899100 0.332300
11.959400 0.372200
12.019700 0.375000
12.080000 0.365800
12.140300 0.366800
12.200600 0.367900
12.260800 0.368400
12.321100 0.366200
12.381400 0.362900
12.441700 0.364700
12.502000 0.407000
12.562300 0.356700
12.622500 0.324100
12.682800 0.308700
12.743100 0.292100
12.803400 0.287200
12.863700 0.269200
12.924000 0.247700
12.984300 0.238400
13.044500 0.230200
13.104800 0.221100
13.165100 0.215100
13.225400 0.208500
13.285700 0.202700
13.346000 0.199400
13.406200 0.197600
13.466500 0.196400
13.526800 0.195500
13.587100 0.194200
13.647400 0.217600
13.707700 0.284800
13.767900 0.377100
13.828200 0.428400
13.888500 0.445400
13.948800 0.505800
14.009100 0.532500
14.069400 0.504000
14.129600 0.485600
14.189900 0.493400
14.250200 0.505600
14.310500 0.538100
14.370800 0.590100
14.431100 0.588600
14.491400 0.566800
14.551600 0.599800
14.611900 0.622100
14.672200 0.601400
14.732500 0.587200
14.792800 0.579900
14.853100 0.577700
14.913300 0.575500
14.973600 0.572800
15.033900 0.577800
15.094200 0.659000
15.154500 0.666700
15.214800 0.627100
15.275000 0.614900
15.335300 0.600700
15.395600 0.590800
15.455900 0.544600
15.516200 0.487200
15.576500 0.456100
15.636700 0.438300
15.697000 0.421100
15.757300 0.498500
15.817600 0.623900
15.877900 0.428100
15.938200 0.392300
15.998500 0.893800
16.058700 0.742000
16.119000 0.825300
16.179300 0.947200
16.239600 0.942000
16.299900 1.061800
16.360200 1.206800
16.420400 1.329300
16.480700 1.434200
16.541000 1.318200
16.601300 1.306900
16.661600 1.313000
16.721900 0.990900
16.782100 0.945400
16.842400 0.734300
16.902700 0.649800
16.963000 0.591100
17.023300 0.583400
17.083600 0.591900
17.143800 0.460900
17.204100 0.444500
17.264400 0.443800
17.324700 0.457400
17.385000 0.516100
17.445300 0.566900
17.505600 0.687700
17.565800 0.923500
17.626100 1.263400
17.686400 1.302600
17.746700 1.238700
17.807000 1.198800
17.867300 1.109100
17.927500 1.049800
17.987800 0.897800
18.048100 0.854300
18.108400 0.842600
18.168700 0.828600
18.229000 0.918400
18.289200 0.907300
18.349500 0.838000
18.409800 0.790700
18.470100 0.750100
18.530400 0.726400
18.590700 0.717900
18.651000 0.698200
18.711200 0.695400
18.771500 0.676600
18.831800 0.638800
18.892100 0.581000
18.952400 0.557800
19.012700 0.532900
19.072900 0.515200
19.133200 0.503900
19.193500 0.497500
19.253800 0.493100
19.314100 0.491400
19.374400 0.490100
19.434600 0.497400
19.494900 0.510000
19.555200 0.511100
19.615500 0.510900
19.675800 0.531700
19.736100 0.558400
19.796300 0.571500
19.856600 0.591200
19.916900 0.602000
19.977200 0.591200
20.037500 0.563900
20.097800 0.532700
20.158100 0.503200
20.218300 0.485700
20.278600 0.465200
20.338900 0.436800
20.399200 0.417500
20.459500 0.399500
20.519800 0.383100
20.580000 0.367800
20.640300 0.353000
20.700600 0.340900
20.760900 0.331500
20.821200 0.326300
20.881500 0.321900
20.941700 0.333800
21.002000 0.337700
21.062300 0.334500
21.122600 0.328900
21.182900 0.324600
21.243200 0.316600
21.303400 0.302100
21.363700 0.295400
21.424000 0.290400
21.484300 0.293300
21.544600 0.282100
21.604900 0.276000
21.665200 0.275300
21.725400 0.281200
21.785700 0.276000
21.846000 0.268000
21.906300 0.255900
21.966600 0.243700
22.026900 0.232300
22.087100 0.222700
22.147400 0.215800
22.207700 0.212400
22.268000 0.209700
22.328300 0.209000
22.388600 0.208400
22.448800 0.199500
22.509100 0.192300
22.569400 0.192300
22.629700 0.190000
22.690000 0.190900
22.750300 0.192300
22.810500 0.190100
22.870800 0.185000
22.931100 0.186200
22.991400 0.192500
23.051700 0.205000
23.112000 0.223300
23.172300 0.265100
23.232500 0.305700
23.292800 0.341000
23.353100 0.359100
23.413400 0.381200
23.473700 0.412900
23.534000 0.429100
23.594200 0.449600
23.654500 0.467900
23.714800 0.472700
23.775100 0.497300
23.835400 0.532000
23.895700 0.553900
23.955900 0.572900
24.016200 0.603100
24.076500 0.625800
24.136800 0.643900
24.197100 0.653500
24.257400 0.663800
24.317700 0.670100
24.377900 0.635300
24.438200 0.643800
24.498500 0.679400
24.558800 0.720300
24.619100 0.807600
24.679400 0.891800
24.739600 1.053500
24.799900 1.135000
24.860200 1.234800
24.920500 1.255300
24.980800 1.350200
25.041100 1.378400
25.101300 1.311300
25.161600 1.299000
25.221900 1.144900
25.282200 1.032700
25.342500 0.968400
25.402800 0.906700
25.463000 0.850200
25.523300 0.828200
25.583600 0.821000
25.643900 0.813500
25.704200 0.741800
25.764500 0.652400
25.824800 0.559000
25.885000 0.488300
25.945300 0.443200
26.005600 0.448100
26.065900 0.551700
26.126200 0.583600
26.186500 0.561700
26.246700 0.536500
26.307000 0.518400
26.367300 0.487900
26.427600 0.475100
26.487900 0.486400
26.548200 0.493800
26.608400 0.483600
26.668700 0.482100
26.729000 0.485000
26.789300 0.459100
26.849600 0.432800
26.909900 0.414400
26.970100 0.409000
27.030400 0.407800
27.090700 0.410200
27.151000 0.414100
27.211300 0.420900
27.271600 0.434600
27.331900 0.447000
27.392100 0.461500
27.452400 0.477700
27.512700 0.494900
27.573000 0.517300
27.633300 0.536800
27.693600 0.545400
27.753800 0.575000
27.814100 0.634600
27.874400 0.658700
27.934700 0.573000
27.995000 0.550600
28.055300 0.537000
28.115500 0.537400
28.175800 0.540100
28.236100 0.546600
28.296400 0.555200
28.356700 0.581800
28.417000 0.608400
28.477200 0.594000
28.537500 0.617600
28.597800 0.635000
28.658100 0.628100
28.718400 0.628400
28.778700 0.623100
28.839000 0.613100
28.899200 0.594700
28.959500 0.553400
29.019800 0.520400
29.080100 0.499100
29.140400 0.476700
29.200700 0.457500
29.260900 0.444600
29.321200 0.421300
29.381500 0.412800
29.441800 0.409600
29.502100 0.410500
29.562400 0.404700
29.622600 0.400600
29.682900 0.412400
29.743200 0.432300
29.803500 0.488600
29.863800 0.494500
29.924100 0.471500
29.984300 0.477200
30.044600 0.492600
30.104900 0.526900
30.165200 0.604600
30.225500 0.538800
30.285800 0.528800
30.346100 0.492000
30.406300 0.466600
30.466600 0.442400
30.526900 0.440100
30.587200 0.435700
30.647500 0.439000
30.707800 0.458500
30.768000 0.486000
30.828300 0.506600
30.888600 0.574700
30.948900 0.645300
31.009200 0.662700
31.069500 0.635800
31.129700 0.633000
31.190000 0.626300
31.250300 0.628400
31.310600 0.644500
31.370900 0.651000
31.431200 0.655500
31.491500 0.675000
31.551700 0.746400
31.612000 0.786600
31.672300 0.781800
31.732600 0.668200
31.792900 0.587500
31.853200 0.546500
31.913400 0.510200
31.973700 0.511300
32.034000 0.523600
32.094300 0.521700
32.154600 0.535300
32.214900 0.545400
32.275100 0.549200
32.335400 0.567400
32.395700 0.587100
32.456000 0.601900
32.516300 0.606600
32.576600 0.615800
32.636800 0.625000
32.697100 0.626000
32.757400 0.633100
32.817700 0.652700
32.878000 0.646200
32.938300 0.676500
32.998600 0.626500
33.058800 0.612100
33.119100 0.584300
33.179400 0.577300
33.239700 0.575500
33.300000 0.640400
33.360300 0.587300
33.420500 0.590300
33.480800 0.591800
33.541100 0.600300
33.601400 0.612700
33.661700 0.648100
33.722000 0.649000
33.782200 0.634000
33.842500 0.603800
33.902800 0.581100
33.963100 0.562900
34.023400 0.545500
34.083700 0.517900
34.143900 0.487200
34.204200 0.479300
34.264500 0.502300
34.324800 0.542300
34.385100 0.562600
34.445400 0.623500
34.505700 0.671600
34.565900 0.703200
34.626200 0.707700
34.686500 0.582800
34.746800 0.528200
34.807100 0.525700
34.867400 0.550800
34.927600 0.576900
34.987900 0.646500
35.048200 0.681000
35.108500 0.729200
35.168800 0.747500
35.229100 0.727600
35.289300 0.726400
35.349600 0.740400
35.409900 0.743100
35.470200 0.732600
35.530500 0.650900
35.590800 0.623600
35.651000 0.608300
35.711300 0.606100
35.771600 0.618100
35.831900 0.630400
35.892200 0.579900
35.952500 0.573000
36.012800 0.572600
36.073000 0.567000
36.133300 0.544700
36.193600 0.554700
36.253900 0.554800
36.314200 0.545600
36.374500 0.545600
36.434700 0.592200
36.495000 0.586200
36.555300 0.600700
36.615600 0.593700
36.675900 0.567900
36.736200 0.558900
36.796400 0.563300
36.856700 0.577700
36.917000 0.569800
36.977300 0.581200
37.037600 0.583200
37.097900 0.912400
37.158200 0.588700
37.218400 0.609200
37.278700 0.644300
37.339000 0.705200
37.399300 0.755100
37.459600 0.783000
37.519900 0.806300
37.580100 0.842600
37.640400 0.830400
37.700700 0.841800
37.761000 0.794800
37.821300 0.785300
37.881600 0.840400
37.941800 0.898800
38.002100 0.952600
38.062400 1.002500
38.122700 1.059400
38.183000 1.094900
38.243300 1.123900
38.303500 1.069300
38.363800 1.044300
38.424100 1.001300
38.484400 0.963800
38.544700 0.972000
38.605000 1.007800
38.665300 1.159200
38.725500 1.086600
38.785800 1.170100
38.846100 1.274100
38.906400 1.298400
38.966700 1.344300
39.027000 1.250600
39.087200 1.104700
39.147500 1.124700
39.207800 1.192000
39.268100 1.271300
39.328400 1.320400
39.388700 1.448600
39.448900 1.592600
39.509200 1.582800
39.569500 1.534700
39.629800 1.536600
39.690100 1.515900
39.750400 1.535100
39.810600 1.375400
39.870900 1.492400
39.931200 1.369500
39.991500 1.285000
40.051800 1.245500
40.112100 1.244900
40.172400 1.224400
40.232600 1.219900
40.292900 1.267600
40.353200 1.385300
40.413500 1.551600
40.473800 1.301900
40.534100 1.236600
40.594300 1.165900
40.654600 1.079200
40.714900 1.008600
40.775200 0.897500
40.835500 0.793200
40.895800 0.775100
40.956000 0.773700
41.016300 0.767100
41.076600 0.788800
41.136900 0.792600
41.197200 0.810900
41.257500 0.839200
41.317700 0.861800
41.378000 0.855000
41.438300 0.849100
41.498600 0.843400
41.558900 0.859600
41.619200 0.826000
41.679500 0.824900
41.739700 0.802400
41.800000 0.807300
41.860300 0.836300
41.920600 0.866100
41.980900 0.878900
42.041200 0.890500
42.101400 0.841500
42.161700 0.850300
42.222000 0.825800
42.282300 0.798300
42.342600 0.736000
42.402900 0.695500
42.463100 0.718900
42.523400 0.737200
42.583700 0.797900
42.644000 0.728000
42.704300 0.773200
42.764600 0.916200
42.824800 0.953200
42.885100 0.957900
42.945400 0.955600
43.005700 0.947600
43.066000 1.018000
43.126300 0.950200
43.186600 0.904400
43.246800 0.854900
43.307100 0.837700
43.367400 0.809600
43.427700 0.768900
43.488000 0.732700
43.548300 0.698200
43.608500 0.672000
43.668800 0.658900
43.729100 0.637200
43.789400 0.624200
43.849700 0.620100
43.910000 0.628800
43.970200 0.640600
44.030500 0.640200
44.090800 0.601100
44.151100 0.585200
44.211400 0.574600
44.271700 0.562300
44.332000 0.556400
44.392200 0.556200
44.452500 0.564000
44.512800 0.569500
44.573100 0.578700
44.633400 0.591700
44.693700 0.636600
44.753900 0.616900
44.814200 0.615600
44.874500 0.655000
44.934800 0.621800
44.995100 0.620600
45.055400 0.640900
45.115600 0.680600
45.175900 0.627400
45.236200 0.597200
45.296500 0.552100
45.356800 0.534700
45.417100 0.513700
45.477300 0.503600
45.537600 0.495700
45.597900 0.487600
45.658200 0.486400
45.718500 0.494700
45.778800 0.509000
45.839100 0.520500
45.899300 0.534500
45.959600 0.539900
46.019900 0.533500
46.080200 0.537500
46.140500 0.544700
46.200800 0.556600
46.261000 0.561700
46.321300 0.558800
46.381600 0.554700
46.441900 0.560000
46.502200 0.568000
46.562500 0.588400
46.622700 0.606400
46.683000 0.624700
46.743300 0.623900
46.803600 0.630400
46.863900 0.601700
46.924200 0.568100
46.984400 0.572100
47.044700 0.582600
47.105000 0.621800
47.165300 0.678600
47.225600 0.694300
47.285900 0.698300
47.346200 0.712200
47.406400 0.747800
47.466700 0.781000
47.527000 0.851200
47.587300 0.902600
47.647600 0.885100
47.707900 0.887800
47.768100 0.855800
47.828400 0.878900
47.888700 0.950100
47.949000 0.995600
48.009300 1.054300
48.069600 1.149100
48.129800 1.175800
48.190100 1.117600
48.250400 1.081300
48.310700 1.041500
48.371000 1.016900
48.431300 1.012300
48.491500 1.011300
48.551800 1.015200
48.612100 1.053000
48.672400 1.050000
48.732700 1.130300
48.793000 1.045000
48.853300 0.943800
48.913500 0.959900
48.973800 0.887000
49.034100 0.798200
49.094400 0.757300
49.154700 0.780200
49.215000 0.799400
49.275200 0.844100
49.335500 0.889100
49.395800 0.888600
49.456100 0.925700
49.516400 0.987000
49.576700 1.055900
49.636900 1.099300
49.697200 1.033500
49.757500 1.083800
49.817800 1.079300
49.878100 1.061800
49.938400 1.064500
49.998700 1.062400
50.058900 1.099500
50.119200 1.153800
50.179500 1.164300
50.239800 1.159300
50.300100 1.125200
50.360400 1.055600
50.420600 0.990200
50.480900 0.921500
50.541200 0.913300
50.601500 0.944600
50.661800 0.923800
50.722100 0.958900
50.782300 0.983300
50.842600 1.083400
50.902900 1.135500
50.963200 1.131100
51.023500 1.132400
51.083800 1.094200
51.144000 1.039000
51.204300 1.037600
51.264600 1.015700
51.324900 0.981800
51.385200 0.975300
51.445500 1.047100
51.505800 1.091600
51.566000 1.117700
51.626300 1.131700
51.686600 1.118500
51.746900 1.109200
51.807200 1.090500
51.867500 1.102300
51.927700 1.093500
51.988000 1.086300
52.048300 1.049100
52.108600 0.956100
52.168900 1.055600
52.229200 0.973800
52.289400 1.001500
52.349700 1.052000
52.410000 1.059700
52.470300 0.987200
52.530600 0.986800
52.590900 1.046900
52.651100 1.052100
52.711400 1.072800
52.771700 1.004100
52.832000 1.063800
52.892300 1.135700
52.952600 1.088700
53.012900 1.099100
53.073100 1.097100
53.133400 1.010000
53.193700 0.954500
53.254000 0.927200
53.314300 0.902500
53.374600 0.879500
53.434800 0.866700
53.495100 0.837900
53.555400 0.824400
53.615700 0.816800
53.676000 0.838600
53.736300 0.879800
53.796500 0.889600
53.856800 0.904100
53.917100 0.896500
53.977400 0.838300
54.037700 0.839600
54.098000 0.873800
54.158200 0.958300
54.218500 0.962500
54.278800 0.835000
54.339100 0.806200
54.399400 0.780600
54.459700 0.864400
54.520000 0.771000
54.580200 0.768700
54.640500 0.721300
54.700800 0.769200
54.761100 0.855600
54.821400 0.879400
54.881700 0.852200
54.941900 0.928300
55.002200 1.006200
55.062500 0.962200
55.122800 0.941900
55.183100 0.889300
55.243400 0.811400
55.303600 0.758600
55.363900 0.739000
55.424200 0.810700
55.484500 0.702100
55.544800 0.648200
55.605100 0.630200
55.665300 0.627500
55.725600 0.630700
55.785900 0.643800
55.846200 0.616500
55.906500 0.610300
55.966800 0.569200
56.027100 0.546300
56.087300 0.546200
56.147600 0.538100
56.207900 0.545300
56.268200 0.560400
56.328500 0.612900
56.388800 0.546200
56.449000 0.531100
56.509300 0.510200
56.569600 0.502100
56.629900 0.490000
56.690200 0.475200
56.750500 0.457200
56.810700 0.428700
56.871000 0.402300
56.931300 0.379300
56.991600 0.364600
57.051900 0.342700
57.112200 0.310700
57.172500 0.277000
57.232700 0.254100
57.293000 0.235700
57.353300 0.215500
57.413600 0.199500
57.473900 0.166400
57.534200 0.130000
57.594400 0.108800
57.654700 0.095000
57.715000 0.085800
57.775300 0.080700
57.835600 0.076200
57.895900 0.071200
57.956100 0.068300
58.016400 0.066200
58.076700 0.064200
58.137000 0.057500
58.197300 0.055400
58.257600 0.045800
58.317800 0.038200
58.378100 0.034400
58.438400 0.031100
58.498700 0.030300
58.559000 0.028600
58.619300 0.023000
58.679600 0.019100
58.739800 0.016800
58.800100 0.014600
58.860400 0.012500
58.920700 0.010500
58.981000 0.008800
59.041300 0.008400
59.101500 0.008600
59.161800 0.008100
59.222100 0.007300
59.282400 0.006500
59.342700 0.005700
59.403000 0.004900
59.463200 0.004000
59.523500 0.003200
59.583800 0.002700
59.644100 0.002200
59.704400 0.001900
59.764700 0.001500
59.824900 0.001300
59.885200 0.001000
59.945500 0.000800
60.005800 0.000600
60.066100 0.000400
60.126400 0.000300
60.186700 0.000200
60.246900 0.000100
60.307200 0.000000
60.367500 0.000000
60.427800 0.000000
60.488100 0.000000
60.548400 0.000000
60.608600 0.000000
60.668900 0.000000
60.729200 0.000000
60.789500 0.000000
60.849800 0.000000
60.910100 0.000000
60.970300 0.000000
61.030600 0.000000
61.090900 0.000000
61.151200 0.000000
61.211500 0.000000
61.271800 0.000000
61.332000 0.000000
61.392300 0.000000
61.452600 0.000000
61.512900 0.000000
61.573200 0.000000
61.633500 0.000000
61.693800 0.000000
61.754000 0.000000
61.814300 0.000000
61.874600 0.000000
61.934900 0.000000
61.995200 0.000000
62.055500 0.000000
62.115700 0.000000
62.176000 0.000000
62.236300 0.000000
62.296600 0.000000
62.356900 0.000000
62.417200 0.000000
62.477400 0.000000
62.537700 0.000000
62.598000 0.000000
62.658300 0.000000
62.718600 0.000000
62.778900 0.000000
62.839100 0.000000
62.899400 0.000000
62.959700 0.000000
63.020000 0.000000
63.080300 0.000000
63.140600 0.000000
63.200900 0.000000
63.261100 0.000000
63.321400 0.000000
63.381700 0.000000
63.442000 0.000000
63.502300 0.000000
63.562600 0.000000
63.622800 0.000000
63.683100 0.000000
63.743400 0.000000
63.803700 0.000000
63.864000 0.000000
63.924300 0.000000
63.984500 0.000000
64.044800 0.000000
64.105100 0.000000
64.165400 0.000000
64.225700 0.000000
64.286000 0.000000
64.346300 0.000000
64.406500 0.000000
64.466800 0.000000
64.527100 0.000000
64.587400 0.000000
64.647700 0.000000
64.708000 0.000000
64.768200 0.000000
64.828500 0.000000
64.888800 0.000000
64.949100 0.000000
65.009400 0.000000
65.069700 0.000000
65.129900 0.000000
65.190200 0.000000
65.250500 0.000000
65.310800 0.000000
65.371100 0.000000
65.431400 0.000000
65.491600 0.000000
65.551900 0.000000
65.612200 0.000000
65.672500 0.000000
65.732800 0.000000
65.793100 0.000000
65.853400 0.000000
65.913600 0.000000
65.973900 0.000000
66.034200 0.000000
66.094500 0.000000
66.154800 0.000000
66.215100 0.000000
66.275300 0.000000
66.335600 0.000000
66.395900 0.000000
66.456200 0.000000
66.516500 0.000000
66.576800 0.000000
66.637000 0.000000
66.697300 0.000000
66.757600 0.000000
66.817900 0.000000
e
