set title 'mp-1018059 - Density of States'
set xlabel 'Energy (eV)'
set ylabel 'DOS (states/eV)'
set grid
set xrange [-10:10]
set yrange [0:7.153]
set xzeroaxis lt -1
set terminal png size 800,600
set output 'mp-1018059_dos_gnuplot.png'
plot '-' using 1:2 with lines title 'DOS'
-12.998800 0.000000
-12.979400 0.000000
-12.960100 0.000000
-12.940700 0.000000
-12.921300 0.000000
-12.901900 0.000000
-12.882500 0.000000
-12.863100 0.000000
-12.843700 0.000000
-12.824300 0.000000
-12.805000 0.000000
-12.785600 0.000000
-12.766200 0.000000
-12.746800 0.000000
-12.727400 0.000000
-12.708000 0.000000
-12.688600 0.000000
-12.669200 0.000000
-12.649800 0.000000
-12.630500 0.000000
-12.611100 0.000000
-12.591700 0.000000
-12.572300 0.000000
-12.552900 0.000000
-12.533500 0.000000
-12.514100 0.000000
-12.494700 0.000000
-12.475400 0.000000
-12.456000 0.000000
-12.436600 0.000000
-12.417200 0.000000
-12.397800 0.000000
-12.378400 0.000000
-12.359000 0.000000
-12.339600 0.000000
-12.320200 0.000000
-12.300900 0.000000
-12.281500 0.000000
-12.262100 0.000000
-12.242700 0.000000
-12.223300 0.000000
-12.203900 0.000000
-12.184500 0.000000
-12.165100 0.000000
-12.145800 0.000000
-12.126400 0.000000
-12.107000 0.000000
-12.087600 0.000000
-12.068200 0.000000
-12.048800 0.000000
-12.029400 0.000000
-12.010000 0.000000
-11.990700 0.000000
-11.971300 0.000000
-11.951900 0.000000
-11.932500 0.000000
-11.913100 0.000000
-11.893700 0.000000
-11.874300 0.000000
-11.854900 0.000000
-11.835500 0.000000
-11.816200 0.000000
-11.796800 0.000000
-11.777400 0.000000
-11.758000 0.000000
-11.738600 0.000000
-11.719200 0.000000
-11.699800 0.000000
-11.680400 0.000000
-11.661100 0.000000
-11.641700 0.000000
-11.622300 0.000000
-11.602900 0.000000
-11.583500 0.000000
-11.564100 0.000000
-11.544700 0.000000
-11.525300 0.000000
-11.506000 0.000000
-11.486600 0.000000
-11.467200 0.000000
-11.447800 0.000000
-11.428400 0.000000
-11.409000 0.000000
-11.389600 0.000000
-11.370200 0.000000
-11.350800 0.000000
-11.331500 0.000000
-11.312100 0.000000
-11.292700 0.000000
-11.273300 0.000000
-11.253900 0.000000
-11.234500 119.615600
-11.215100 59.447100
-11.195700 206.223700
-11.176400 0.000000
-11.157000 1109.587400
-11.137600 0.000000
-11.118200 0.000000
-11.098800 0.000000
-11.079400 0.000000
-11.060000 0.000000
-11.040600 0.000000
-11.021300 0.000000
-11.001900 0.000000
-10.982500 0.000000
-10.963100 0.000000
-10.943700 0.000000
-10.924300 0.000000
-10.904900 0.000000
-10.885500 0.000000
-10.866100 0.000000
-10.846800 0.000000
-10.827400 0.000000
-10.808000 0.000000
-10.788600 0.000000
-10.769200 0.000000
-10.749800 0.000000
-10.730400 0.000000
-10.711000 0.000000
-10.691700 0.000000
-10.672300 0.000000
-10.652900 0.000000
-10.633500 0.000000
-10.614100 0.000000
-10.594700 0.000000
-10.575300 0.000000
-10.555900 0.000000
-10.536600 0.000000
-10.517200 0.000000
-10.497800 0.000000
-10.478400 0.000000
-10.459000 0.000000
-10.439600 0.000000
-10.420200 0.000000
-10.400800 0.000000
-10.381400 0.000000
-10.362100 0.000000
-10.342700 0.000000
-10.323300 0.000000
-10.303900 0.000000
-10.284500 0.000000
-10.265100 0.000000
-10.245700 0.000000
-10.226300 0.000000
-10.207000 0.000000
-10.187600 0.000000
-10.168200 0.000000
-10.148800 0.000000
-10.129400 0.000000
-10.110000 0.000000
-10.090600 0.000000
-10.071200 0.000000
-10.051900 0.000000
-10.032500 0.000000
-10.013100 0.000000
-9.993700 0.000000
-9.974300 0.000000
-9.954900 0.000000
-9.935500 0.000000
-9.916100 0.000000
-9.896700 0.000000
-9.877400 0.000000
-9.858000 0.000000
-9.838600 0.000000
-9.819200 0.000000
-9.799800 0.000000
-9.780400 0.000000
-9.761000 0.000000
-9.741600 0.000000
-9.722300 0.000000
-9.702900 0.000000
-9.683500 0.000000
-9.664100 0.000000
-9.644700 0.000000
-9.625300 0.000000
-9.605900 0.000000
-9.586500 0.000000
-9.567200 0.000000
-9.547800 0.000000
-9.528400 0.000000
-9.509000 0.000000
-9.489600 0.000000
-9.470200 0.000000
-9.450800 0.000000
-9.431400 0.000000
-9.412000 0.000000
-9.392700 0.000000
-9.373300 0.000000
-9.353900 0.000000
-9.334500 0.000000
-9.315100 0.000000
-9.295700 0.000000
-9.276300 0.000000
-9.256900 0.000000
-9.237600 0.000000
-9.218200 0.000000
-9.198800 0.000000
-9.179400 0.000000
-9.160000 0.000000
-9.140600 0.000000
-9.121200 0.000000
-9.101800 0.000000
-9.082500 0.000000
-9.063100 0.000000
-9.043700 0.000000
-9.024300 0.000000
-9.004900 0.000000
-8.985500 0.000000
-8.966100 0.000000
-8.946700 0.000000
-8.927300 0.000000
-8.908000 0.000000
-8.888600 0.000000
-8.869200 0.000000
-8.849800 0.000000
-8.830400 0.000000
-8.811000 0.000000
-8.791600 0.000000
-8.772200 0.000000
-8.752900 0.000000
-8.733500 0.000000
-8.714100 0.000000
-8.694700 0.000000
-8.675300 0.000000
-8.655900 0.000000
-8.636500 0.000000
-8.617100 0.000000
-8.597800 0.000000
-8.578400 0.000000
-8.559000 0.000000
-8.539600 0.000000
-8.520200 0.000000
-8.500800 0.000000
-8.481400 0.000000
-8.462000 0.000000
-8.442600 0.000000
-8.423300 0.000000
-8.403900 0.000000
-8.384500 0.000000
-8.365100 0.000000
-8.345700 0.000000
-8.326300 0.000000
-8.306900 0.000000
-8.287500 0.000000
-8.268200 0.000000
-8.248800 0.000000
-8.229400 0.000000
-8.210000 0.000000
-8.190600 0.000000
-8.171200 0.000000
-8.151800 0.000000
-8.132400 0.000000
-8.113100 0.000000
-8.093700 0.000000
-8.074300 0.000000
-8.054900 0.000000
-8.035500 0.000000
-8.016100 0.000000
-7.996700 0.000000
-7.977300 0.000000
-7.957900 0.000000
-7.938600 0.000000
-7.919200 0.000000
-7.899800 0.000000
-7.880400 0.000000
-7.861000 0.000000
-7.841600 0.000000
-7.822200 0.000000
-7.802800 0.000000
-7.783500 0.000000
-7.764100 0.000000
-7.744700 0.000000
-7.725300 0.000000
-7.705900 0.000000
-7.686500 0.000000
-7.667100 0.000000
-7.647700 0.000000
-7.628400 0.000000
-7.609000 0.000000
-7.589600 0.000000
-7.570200 0.000000
-7.550800 0.000000
-7.531400 0.000000
-7.512000 0.000000
-7.492600 0.000000
-7.473200 0.000000
-7.453900 0.000000
-7.434500 0.000000
-7.415100 0.000000
-7.395700 0.000000
-7.376300 0.000000
-7.356900 0.005300
-7.337500 0.047300
-7.318100 0.131100
-7.298800 0.244700
-7.279400 0.298600
-7.260000 0.313900
-7.240600 0.319200
-7.221200 0.356400
-7.201800 0.395000
-7.182400 0.434700
-7.163000 0.475400
-7.143700 0.511700
-7.124300 0.537200
-7.104900 0.550700
-7.085500 0.564300
-7.066100 0.580400
-7.046700 0.600100
-7.027300 0.623200
-7.007900 0.646800
-6.988500 0.670500
-6.969200 0.694200
-6.949800 0.718100
-6.930400 0.757400
-6.911000 0.833300
-6.891600 0.901000
-6.872200 0.957400
-6.852800 0.878400
-6.833400 0.885100
-6.814100 0.894400
-6.794700 0.902900
-6.775300 0.910500
-6.755900 0.917100
-6.736500 0.923000
-6.717100 0.923000
-6.697700 0.921200
-6.678300 0.921200
-6.659000 0.923600
-6.639600 0.932300
-6.620200 0.965600
-6.600800 1.039800
-6.581400 1.120800
-6.562000 1.208600
-6.542600 1.139500
-6.523200 1.164800
-6.503800 1.189300
-6.484500 1.214300
-6.465100 1.233500
-6.445700 1.261700
-6.426300 1.290700
-6.406900 1.310100
-6.387500 1.329300
-6.368100 1.348300
-6.348700 1.372500
-6.329400 1.400400
-6.310000 1.429500
-6.290600 1.459600
-6.271200 1.490800
-6.251800 1.523700
-6.232400 1.558100
-6.213000 1.593500
-6.193600 1.628700
-6.174300 1.658100
-6.154900 1.692800
-6.135500 1.730300
-6.116100 1.771400
-6.096700 1.815800
-6.077300 1.862100
-6.057900 1.914800
-6.038500 1.977200
-6.019100 2.045200
-5.999800 2.117600
-5.980400 2.195000
-5.961000 2.302500
-5.941600 2.506000
-5.922200 2.656800
-5.902800 2.706500
-5.883400 2.742200
-5.864000 2.765900
-5.844700 2.770300
-5.825300 2.786800
-5.805900 2.830600
-5.786500 2.905500
-5.767100 2.884300
-5.747700 2.790400
-5.728300 2.798400
-5.708900 2.802800
-5.689600 2.796100
-5.670200 2.773600
-5.650800 2.879700
-5.631400 2.751000
-5.612000 2.636100
-5.592600 2.534200
-5.573200 2.452300
-5.553800 2.478900
-5.534400 2.528900
-5.515100 2.575100
-5.495700 2.500500
-5.476300 2.689100
-5.456900 2.555700
-5.437500 2.695800
-5.418100 2.586900
-5.398700 2.440500
-5.379300 2.421000
-5.360000 2.508700
-5.340600 2.524900
-5.321200 2.546200
-5.301800 2.630900
-5.282400 2.691300
-5.263000 2.749300
-5.243600 2.742200
-5.224200 2.829000
-5.204900 3.749500
-5.185500 3.206300
-5.166100 3.200800
-5.146700 3.173300
-5.127300 3.188500
-5.107900 4.550300
-5.088500 4.080000
-5.069100 1.905900
-5.049700 0.000000
-5.030400 0.000000
-5.011000 0.000000
-4.991600 0.000000
-4.972200 0.000000
-4.952800 0.000000
-4.933400 0.000000
-4.914000 0.000000
-4.894600 0.000000
-4.875300 0.000000
-4.855900 0.000000
-4.836500 0.000000
-4.817100 0.000000
-4.797700 0.000000
-4.778300 0.000000
-4.758900 0.000000
-4.739500 0.000000
-4.720200 0.000000
-4.700800 0.000000
-4.681400 0.000000
-4.662000 0.000000
-4.642600 0.000000
-4.623200 0.000000
-4.603800 0.000000
-4.584400 0.000000
-4.565000 0.000000
-4.545700 0.000000
-4.526300 0.000000
-4.506900 0.000000
-4.487500 0.000000
-4.468100 0.000000
-4.448700 0.000000
-4.429300 0.000000
-4.409900 0.000000
-4.390600 0.000000
-4.371200 0.000000
-4.351800 0.000000
-4.332400 0.000000
-4.313000 0.000000
-4.293600 0.000000
-4.274200 0.000000
-4.254800 0.000000
-4.235500 0.000000
-4.216100 0.000000
-4.196700 0.000000
-4.177300 0.000000
-4.157900 0.000000
-4.138500 0.000000
-4.119100 0.000000
-4.099700 0.000000
-4.080300 0.000000
-4.061000 0.000000
-4.041600 0.000000
-4.022200 0.000000
-4.002800 0.000000
-3.983400 0.000000
-3.964000 0.000000
-3.944600 0.000000
-3.925200 0.000000
-3.905900 0.000000
-3.886500 0.000000
-3.867100 0.000000
-3.847700 0.000000
-3.828300 0.000000
-3.808900 0.000000
-3.789500 0.000000
-3.770100 0.000000
-3.750800 0.000000
-3.731400 0.000000
-3.712000 0.000000
-3.692600 0.000000
-3.673200 0.000000
-3.653800 0.000000
-3.634400 0.000000
-3.615000 0.000000
-3.595600 0.000000
-3.576300 0.000000
-3.556900 0.000000
-3.537500 0.000000
-3.518100 0.000000
-3.498700 0.000000
-3.479300 0.000000
-3.459900 0.000000
-3.440500 0.000000
-3.421200 0.000000
-3.401800 0.000000
-3.382400 0.000000
-3.363000 0.000000
-3.343600 0.000000
-3.324200 0.000000
-3.304800 0.000000
-3.285400 0.000000
-3.266100 0.000000
-3.246700 0.000000
-3.227300 0.000000
-3.207900 0.000000
-3.188500 0.000000
-3.169100 0.000000
-3.149700 0.000000
-3.130300 0.000000
-3.110900 0.000000
-3.091600 0.000000
-3.072200 0.000000
-3.052800 0.000000
-3.033400 0.000000
-3.014000 0.000000
-2.994600 0.000000
-2.975200 0.000000
-2.955800 0.000000
-2.936500 0.000000
-2.917100 0.000000
-2.897700 0.000000
-2.878300 0.000000
-2.858900 0.000000
-2.839500 0.000000
-2.820100 0.000000
-2.800700 0.000000
-2.781400 0.289500
-2.762000 1.590200
-2.742600 1.975300
-2.723200 2.603200
-2.703800 2.826600
-2.684400 3.320600
-2.665000 4.108100
-2.645600 4.775600
-2.626200 4.548300
-2.606900 4.688800
-2.587500 4.454100
-2.568100 3.456300
-2.548700 2.721300
-2.529300 2.473800
-2.509900 2.339500
-2.490500 2.181000
-2.471100 2.052300
-2.451800 1.895000
-2.432400 1.877300
-2.413000 1.877300
-2.393600 2.067800
-2.374200 2.668200
-2.354800 2.145300
-2.335400 2.235700
-2.316000 2.543300
-2.296700 2.372500
-2.277300 2.322400
-2.257900 2.272500
-2.238500 2.223000
-2.219100 2.157600
-2.199700 2.112500
-2.180300 2.061000
-2.160900 2.041100
-2.141500 2.000400
-2.122200 1.956200
-2.102800 1.792200
-2.083400 1.801500
-2.064000 1.752800
-2.044600 1.748800
-2.025200 1.744500
-2.005800 1.740000
-1.986400 1.732800
-1.967100 1.724500
-1.947700 1.715000
-1.928300 1.704400
-1.908900 1.681500
-1.889500 1.670700
-1.870100 1.658700
-1.850700 1.724000
-1.831300 1.717600
-1.812000 1.710500
-1.792600 1.705800
-1.773200 1.704600
-1.753800 1.705600
-1.734400 1.566600
-1.715000 1.541000
-1.695600 1.512300
-1.676200 1.476900
-1.656800 1.433000
-1.637500 1.380500
-1.618100 1.319500
-1.598700 1.284500
-1.579300 1.252400
-1.559900 1.219500
-1.540500 1.187200
-1.521100 1.155700
-1.501700 1.122400
-1.482400 1.097500
-1.463000 1.073600
-1.443600 1.050800
-1.424200 1.029400
-1.404800 1.008500
-1.385400 0.988500
-1.366000 0.969500
-1.346600 0.951400
-1.327300 0.933600
-1.307900 0.916200
-1.288500 0.899100
-1.269100 0.882200
-1.249700 0.866400
-1.230300 0.850400
-1.210900 0.842600
-1.191500 0.827300
-1.172100 0.812600
-1.152800 0.798400
-1.133400 0.784800
-1.114000 0.772900
-1.094600 0.762000
-1.075200 0.751100
-1.055800 0.740400
-1.036400 0.729800
-1.017000 0.719400
-0.997700 0.709100
-0.978300 0.698800
-0.958900 0.688700
-0.939500 0.678700
-0.920100 0.671000
-0.900700 0.671400
-0.881300 0.671400
-0.861900 0.671000
-0.842500 0.670300
-0.823200 0.660800
-0.803800 0.646900
-0.784400 0.633200
-0.765000 0.619800
-0.745600 0.606600
-0.726200 0.593700
-0.706800 0.581100
-0.687400 0.658200
-0.668100 0.507900
-0.648700 0.442900
-0.629300 0.439900
-0.609900 0.436100
-0.590500 0.432300
-0.571100 0.428400
-0.551700 0.424400
-0.532300 0.420400
-0.513000 0.416300
-0.493600 0.412200
-0.474200 0.408200
-0.454800 0.404400
-0.435400 0.400700
-0.416000 0.397300
-0.396600 0.394000
-0.377200 0.391000
-0.357800 0.388200
-0.338500 0.385600
-0.319100 0.383200
-0.299700 0.380900
-0.280300 0.378700
-0.260900 0.376400
-0.241500 0.374200
-0.222100 0.371900
-0.202700 0.369600
-0.183400 0.368400
-0.164000 0.368100
-0.144600 0.367700
-0.125200 0.367200
-0.105800 0.366700
-0.086400 0.365600
-0.067000 0.364500
-0.047600 0.487800
-0.028300 0.553500
-0.008900 0.623500
0.010500 0.608700
0.029900 0.644700
0.049300 0.681600
0.068700 0.719200
0.088100 0.757700
0.107500 0.825100
0.126900 0.948400
0.146200 1.134100
0.165600 1.376900
0.185000 1.896600
0.204400 2.279900
0.223800 2.433300
0.243200 2.611900
0.262600 2.665400
0.282000 2.663900
0.301300 2.671200
0.320700 2.490800
0.340100 2.297500
0.359500 2.104000
0.378900 1.969100
0.398300 1.959500
0.417700 1.885000
0.437100 1.773300
0.456400 1.754400
0.475800 1.737500
0.495200 1.723300
0.514600 1.714200
0.534000 1.705000
0.553400 1.695900
0.572800 1.659800
0.592200 1.621600
0.611600 1.584800
0.630900 1.568200
0.650300 1.587400
0.669700 1.763600
0.689100 1.943600
0.708500 2.023400
0.727900 2.074600
0.747300 2.110400
0.766700 2.116100
0.786000 2.129900
0.805400 2.161700
0.824800 2.190900
0.844200 2.220900
0.863600 2.253800
0.883000 2.288600
0.902400 2.319200
0.921800 2.370200
0.941100 2.398400
0.960500 2.427500
0.979900 2.457500
0.999300 2.488700
1.018700 2.568600
1.038100 2.603700
1.057500 2.628900
1.076900 2.645400
1.096300 2.557900
1.115600 2.542100
1.135000 2.524800
1.154400 2.516000
1.173800 2.506000
1.193200 2.498400
1.212600 2.497300
1.232000 2.498400
1.251400 2.516500
1.270700 2.554300
1.290100 2.938300
1.309500 4.103700
1.328900 3.484700
1.348300 3.069700
1.367700 3.057100
1.387100 3.050600
1.406500 3.721400
1.425800 2.863100
1.445200 2.874000
1.464600 2.878100
1.484000 2.874000
1.503400 2.787500
1.522800 2.777500
1.542200 2.756200
1.561600 2.724600
1.581000 2.713500
1.600300 2.711300
1.619700 2.719100
1.639100 2.941300
1.658500 3.296600
1.677900 3.350800
1.697300 3.419200
1.716700 3.492800
1.736100 3.577800
1.755400 3.651600
1.774800 3.746500
1.794200 3.894200
1.813600 3.959000
1.833000 3.976200
1.852400 3.979600
1.871800 3.970600
1.891200 3.784200
1.910500 3.749100
1.929900 3.718900
1.949300 3.696100
1.968700 3.574400
1.988100 3.503000
2.007500 3.517300
2.026900 3.490700
2.046300 3.388400
2.065700 3.283400
2.085000 3.068500
2.104400 3.171600
2.123800 3.204100
2.143200 3.372000
2.162600 3.691800
2.182000 4.204300
2.201400 5.312100
2.220800 6.502300
2.240100 6.036300
2.259500 6.461000
2.278900 4.520700
2.298300 3.825300
2.317700 3.675100
2.337100 3.542700
2.356500 3.418400
2.375900 3.308000
2.395200 3.220800
2.414600 3.145300
2.434000 3.052900
2.453400 2.975100
2.472800 2.898300
2.492200 2.821800
2.511600 2.751600
2.531000 2.684000
2.550400 2.619000
2.569700 2.561800
2.589100 2.543000
2.608500 2.534600
2.627900 2.511000
2.647300 2.451400
2.666700 2.367700
2.686100 2.265800
2.705500 2.172700
2.724800 2.077900
2.744200 1.977300
2.763600 1.865800
2.783000 1.770700
2.802400 1.689100
2.821800 1.616200
2.841200 1.554400
2.860600 1.519300
2.879900 1.466900
2.899300 1.406300
2.918700 1.356300
2.938100 1.313800
2.957500 1.277200
2.976900 1.241500
2.996300 1.200800
3.015700 1.163500
3.035100 1.132000
3.054400 1.103000
3.073800 1.074700
3.093200 1.045600
3.112600 1.015800
3.132000 0.987100
3.151400 0.960200
3.170800 0.986000
3.190200 0.953400
3.209500 0.919100
3.228900 0.883400
3.248300 0.846000
3.267700 0.806500
3.287100 0.764600
3.306500 0.726600
3.325900 0.698200
3.345300 0.669900
3.364600 0.642200
3.384000 0.620300
3.403400 0.599100
3.422800 0.578100
3.442200 0.558000
3.461600 0.536900
3.481000 0.508600
3.500400 0.479900
3.519800 0.450900
3.539100 0.421600
3.558500 0.391900
3.577900 0.362100
3.597300 0.332900
3.616700 0.304900
3.636100 0.277900
3.655500 0.251200
3.674900 0.236900
3.694200 0.222400
3.713600 0.204700
3.733000 0.183700
3.752400 0.154700
3.771800 0.107000
3.791200 0.069000
3.810600 0.039600
3.830000 0.018300
3.849300 0.005100
3.868700 0.000100
3.888100 0.000100
3.907500 0.000300
3.926900 0.000800
3.946300 0.001500
3.965700 0.002400
3.985100 0.003600
4.004500 0.004900
4.023800 0.006400
4.043200 0.008100
4.062600 0.010000
4.082000 0.012100
4.101400 0.014300
4.120800 0.016700
4.140200 0.019300
4.159600 0.022100
4.178900 0.025000
4.198300 0.028000
4.217700 0.031100
4.237100 0.034400
4.256500 0.037800
4.275900 0.041400
4.295300 0.045000
4.314700 0.048800
4.334000 0.052800
4.353400 0.056800
4.372800 0.061000
4.392200 0.065400
4.411600 0.070000
4.431000 0.075200
4.450400 0.080500
4.469800 0.085800
4.489200 0.217600
4.508500 0.321200
4.527900 0.420200
4.547300 0.496100
4.566700 0.569800
4.586100 0.641800
4.605500 0.714400
4.624900 0.786100
4.644300 0.854300
4.663600 0.915700
4.683000 0.977600
4.702400 1.045300
4.721800 1.117900
4.741200 1.278400
4.760600 1.396100
4.780000 1.484900
4.799400 1.610900
4.818700 1.705900
4.838100 1.801300
4.857500 1.904100
4.876900 2.014700
4.896300 2.116400
4.915700 2.209900
4.935100 2.297800
4.954500 2.365800
4.973900 2.419800
4.993200 2.470100
5.012600 2.518500
5.032000 2.566700
5.051400 2.617400
5.070800 2.710300
5.090200 2.791600
5.109600 2.877200
5.129000 2.967300
5.148300 3.062000
5.167700 3.856300
5.187100 3.512800
5.206500 3.429700
5.225900 3.608600
5.245300 3.853400
5.264700 3.108900
5.284100 3.017900
5.303400 2.956300
5.322800 2.899100
5.342200 2.849600
5.361600 2.813300
5.381000 2.786000
5.400400 2.759600
5.419800 2.746100
5.439200 2.743900
5.458600 2.917700
5.477900 3.077300
5.497300 3.280700
5.516700 3.113100
5.536100 3.551200
5.555500 3.003700
5.574900 2.890400
5.594300 2.786800
5.613700 2.764700
5.633000 2.744400
5.652400 2.727100
5.671800 2.697500
5.691200 2.655300
5.710600 2.593300
5.730000 2.496200
5.749400 2.352000
5.768800 2.248100
5.788100 2.152300
5.807500 2.087400
5.826900 2.043300
5.846300 1.966700
5.865700 1.927100
5.885100 1.826000
5.904500 1.824100
5.923900 1.828200
5.943300 1.836300
5.962600 1.847900
5.982000 1.859100
6.001400 1.868300
6.020800 1.819400
6.040200 1.774200
6.059600 1.647600
6.079000 1.503400
6.098400 1.350600
6.117700 1.189200
6.137100 1.019200
6.156500 0.847500
6.175900 0.742400
6.195300 0.736900
6.214700 0.734800
6.234100 0.825000
6.253500 0.862700
6.272800 0.909400
6.292200 0.960400
6.311600 1.015900
6.331000 1.075700
6.350400 1.141700
6.369800 1.296600
6.389200 1.591100
6.408600 2.472600
6.428000 1.953600
6.447300 1.244400
6.466700 1.267900
6.486100 1.304000
6.505500 1.360200
6.524900 1.434000
6.544300 1.510500
6.563700 1.612200
6.583100 1.724500
6.602400 1.846300
6.621800 1.971600
6.641200 2.134800
6.660600 2.311300
6.680000 2.507700
6.699400 2.777800
6.718800 3.126700
6.738200 3.515300
6.757500 3.891400
6.776900 4.150800
6.796300 4.344900
6.815700 4.488500
6.835100 4.605200
6.854500 4.784500
6.873900 4.774900
6.893300 4.654600
6.912700 4.500000
6.932000 4.385000
6.951400 4.318200
6.970800 4.266600
6.990200 4.258300
7.009600 4.125600
7.029000 3.923200
7.048400 3.714700
7.067800 3.468300
7.087100 3.239100
7.106500 3.043000
7.125900 2.927900
7.145300 2.876600
7.164700 2.842900
7.184100 2.659900
7.203500 2.673100
7.222900 2.765600
7.242200 2.908000
7.261600 3.129200
7.281000 3.417300
7.300400 3.742500
7.319800 3.727400
7.339200 3.658000
7.358600 3.789900
7.378000 3.838300
7.397400 3.797000
7.416700 3.809700
7.436100 3.843500
7.455500 3.835700
7.474900 3.885300
7.494300 3.710100
7.513700 3.398500
7.533100 3.012200
7.552500 2.797900
7.571800 2.717900
7.591200 2.663600
7.610600 2.606200
7.630000 2.568200
7.649400 2.554700
7.668800 2.565700
7.688200 2.540200
7.707600 2.403800
7.726900 2.153800
7.746300 2.032200
7.765700 2.014400
7.785100 2.027600
7.804500 2.059300
7.823900 2.120900
7.843300 2.242300
7.862700 2.347700
7.882100 2.525000
7.901400 2.693000
7.920800 2.767300
7.940200 2.857800
7.959600 2.972200
7.979000 3.166200
7.998400 4.176800
8.017800 3.538800
8.037200 3.890100
8.056500 4.271300
8.075900 4.257900
8.095300 4.267100
8.114700 4.265200
8.134100 4.236000
8.153500 4.176200
8.172900 4.100800
8.192300 4.299800
8.211600 4.167800
8.231000 4.724200
8.250400 3.641700
8.269800 3.452000
8.289200 3.093500
8.308600 2.964600
8.328000 2.839700
8.347400 2.538500
8.366800 2.441100
8.386100 2.372300
8.405500 2.312100
8.424900 2.253400
8.444300 2.205500
8.463700 2.157800
8.483100 2.123800
8.502500 2.088900
8.521900 1.939800
8.541200 1.924200
8.560600 1.925400
8.580000 1.929700
8.599400 1.927100
8.618800 1.888800
8.638200 1.957000
8.657600 2.365100
8.677000 2.180600
8.696300 2.240300
8.715700 2.291200
8.735100 2.080300
8.754500 2.111000
8.773900 2.119200
8.793300 2.140500
8.812700 2.166700
8.832100 2.243500
8.851500 2.340200
8.870800 2.379700
8.890200 2.408800
8.909600 2.426200
8.929000 2.400700
8.948400 2.410900
8.967800 2.499500
8.987200 2.553800
9.006600 2.602500
9.025900 2.594400
9.045300 2.570000
9.064700 2.581900
9.084100 2.557600
9.103500 2.612600
9.122900 2.674700
9.142300 2.820200
9.161700 2.865300
9.181000 2.823200
9.200400 2.719400
9.219800 2.627800
9.239200 2.540300
9.258600 2.460800
9.278000 2.418900
9.297400 2.392500
9.316800 2.376800
9.336200 2.451000
9.355500 2.432100
9.374900 2.419600
9.394300 2.408600
9.413700 2.390400
9.433100 2.391400
9.452500 2.411800
9.471900 2.516800
9.491300 2.533900
9.510600 2.549700
9.530000 2.548100
9.549400 2.548400
9.568800 2.527400
9.588200 2.506900
9.607600 2.459500
9.627000 2.466300
9.646400 2.359300
9.665700 2.312200
9.685100 2.279500
9.704500 2.256200
9.723900 2.233600
9.743300 2.216700
9.762700 2.206300
9.782100 2.206000
9.801500 2.258400
9.820900 2.295300
9.840200 2.302400
9.859600 2.288500
9.879000 2.221500
9.898400 2.173200
9.917800 2.141000
9.937200 2.115400
9.956600 2.173400
9.976000 2.256700
9.995300 2.328400
10.014700 2.391100
10.034100 2.460900
10.053500 2.546700
10.072900 2.637500
10.092300 2.760700
10.111700 3.024000
10.131100 2.964000
10.150400 2.847700
10.169800 2.859800
10.189200 2.931900
10.208600 3.048600
10.228000 3.211600
10.247400 3.293100
10.266800 3.433600
10.286200 3.516400
10.305600 3.550100
10.324900 3.564200
10.344300 3.522100
10.363700 3.391600
10.383100 3.227700
10.402500 3.071200
10.421900 2.786000
10.441300 2.684000
10.460700 2.674400
10.480000 2.693500
10.499400 2.702100
10.518800 2.726100
10.538200 2.741700
10.557600 2.742700
10.577000 2.706500
10.596400 2.680600
10.615800 2.648100
10.635200 2.577200
10.654500 2.549500
10.673900 2.604300
10.693300 2.731200
10.712700 2.823700
10.732100 2.828900
10.751500 2.902800
10.770900 2.915700
10.790300 2.899100
10.809600 2.859200
10.829000 2.801200
10.848400 2.757100
10.867800 2.713300
10.887200 2.749400
10.906600 2.792500
10.926000 2.833500
10.945400 2.882500
10.964700 2.883400
10.984100 2.940000
11.003500 2.986900
11.022900 3.038000
11.042300 3.122500
11.061700 3.386100
11.081100 2.914900
11.100500 2.960800
11.119900 3.018100
11.139200 3.132300
11.158600 3.264100
11.178000 3.389000
11.197400 3.500300
11.216800 3.674700
11.236200 3.755300
11.255600 3.827000
11.275000 3.883000
11.294300 3.906000
11.313700 4.065200
11.333100 3.900700
11.352500 3.693000
11.371900 3.550400
11.391300 3.387400
11.410700 3.221600
11.430100 3.115000
11.449400 3.033200
11.468800 2.876200
11.488200 2.892500
11.507600 2.857100
11.527000 2.839900
11.546400 2.839300
11.565800 2.844500
11.585200 2.863100
11.604600 2.895000
11.623900 2.899000
11.643300 2.915500
11.662700 3.070500
11.682100 3.218200
11.701500 3.577700
11.720900 3.516200
11.740300 3.462400
11.759700 3.421400
11.779000 3.411000
11.798400 3.473800
11.817800 3.571500
11.837200 3.644500
11.856600 3.782300
11.876000 3.899000
11.895400 4.011400
11.914800 3.928900
11.934100 3.939600
11.953500 3.831100
11.972900 3.735500
11.992300 3.671600
12.011700 3.601700
12.031100 3.525400
12.050500 3.425200
12.069900 3.335500
12.089300 3.087900
12.108600 3.103700
12.128000 3.171000
12.147400 3.221100
12.166800 3.268000
12.186200 3.276800
12.205600 3.247200
12.225000 3.402400
12.244400 3.248500
12.263700 3.130800
12.283100 3.109900
12.302500 3.402700
12.321900 3.700800
12.341300 3.745400
12.360700 3.777800
12.380100 3.823400
12.399500 3.789200
12.418800 3.674400
12.438200 3.473700
12.457600 3.301800
12.477000 3.179000
12.496400 3.092900
12.515800 3.125900
12.535200 2.881300
12.554600 2.767900
12.574000 2.750700
12.593300 2.761500
12.612700 2.724400
12.632100 2.682200
12.651500 2.647900
12.670900 2.629600
12.690300 2.615800
12.709700 2.611300
12.729100 2.617000
12.748400 2.628700
12.767800 2.586400
12.787200 2.611200
12.806600 2.690000
12.826000 2.764800
12.845400 2.852900
12.864800 2.832000
12.884200 2.928400
12.903500 3.012400
12.922900 3.130100
12.942300 3.249000
12.961700 3.413300
12.981100 3.553300
13.000500 3.627000
13.019900 3.680800
13.039300 3.756600
13.058700 3.815100
13.078000 3.641600
13.097400 3.466300
13.116800 3.377500
13.136200 3.144900
13.155600 3.071200
13.175000 2.884000
13.194400 2.823700
13.213800 2.772100
13.233100 2.729400
13.252500 2.704200
13.271900 2.745700
13.291300 2.818500
13.310700 2.899100
13.330100 2.972100
13.349500 2.974200
13.368900 3.009500
13.388200 3.233300
13.407600 3.275100
13.427000 3.547200
13.446400 3.627000
13.465800 3.821900
13.485200 4.114800
13.504600 4.326800
13.524000 4.581300
13.543400 4.947900
13.562700 4.902800
13.582100 4.751700
13.601500 4.531200
13.620900 4.330000
13.640300 4.134200
13.659700 3.932900
13.679100 3.769000
13.698500 3.565400
13.717800 3.344600
13.737200 3.117300
13.756600 2.849900
13.776000 2.718500
13.795400 2.632700
13.814800 2.589900
13.834200 2.556500
13.853600 2.538000
13.872900 2.539300
13.892300 2.555800
13.911700 2.596000
13.931100 2.636600
13.950500 4.245700
13.969900 2.857100
13.989300 2.887900
14.008700 3.356900
14.028100 2.651700
14.047400 2.704000
14.066800 2.757300
14.086200 2.812000
14.105600 2.856200
14.125000 2.911200
14.144400 2.958700
14.163800 2.999500
14.183200 3.027700
14.202500 3.031300
14.221900 3.111600
14.241300 3.193600
14.260700 3.319600
14.280100 3.451000
14.299500 3.555600
14.318900 3.700100
14.338300 4.624200
14.357600 3.621400
14.377000 3.672300
14.396400 3.704200
14.415800 3.731200
14.435200 3.761100
14.454600 4.207700
14.474000 4.233400
14.493400 3.832500
14.512800 3.814300
14.532100 3.757500
14.551500 3.663600
14.570900 3.545200
14.590300 3.516100
14.609700 3.697100
14.629100 3.938300
14.648500 4.280500
14.667900 4.968200
14.687200 4.507500
14.706600 4.504800
14.726000 4.442500
14.745400 4.349200
14.764800 4.354100
14.784200 4.793700
14.803600 4.259200
14.823000 4.291400
14.842300 4.170500
14.861700 4.045600
14.881100 3.930600
14.900500 3.909100
14.919900 3.838900
14.939300 4.306000
14.958700 4.489800
14.978100 4.218300
14.997500 4.104500
15.016800 4.186900
15.036200 4.298000
15.055600 4.357200
15.075000 4.327500
15.094400 4.335000
15.113800 4.362300
15.133200 4.221400
15.152600 4.168800
15.171900 4.094000
15.191300 4.043300
15.210700 3.921600
15.230100 3.997500
15.249500 3.954700
15.268900 3.949900
15.288300 3.891500
15.307700 3.796900
15.327000 3.659900
15.346400 3.523900
15.365800 3.437400
15.385200 3.379100
15.404600 3.316100
15.424000 3.268100
15.443400 3.200400
15.462800 3.142100
15.482200 3.136100
15.501500 3.082600
15.520900 3.039600
15.540300 3.005700
15.559700 2.994500
15.579100 3.111600
15.598500 3.081800
15.617900 3.020400
15.637300 2.975000
15.656600 3.002700
15.676000 2.867800
15.695400 2.641700
15.714800 2.596600
15.734200 2.552900
15.753600 2.521200
15.773000 2.508400
15.792400 2.503400
15.811700 2.495100
15.831100 2.537300
15.850500 2.599200
15.869900 2.614800
15.889300 2.679300
15.908700 2.720000
15.928100 2.795000
15.947500 2.884200
15.966900 2.962100
15.986200 2.999200
16.005600 3.043800
16.025000 3.012200
16.044400 2.965000
16.063800 2.939900
16.083200 2.943200
16.102600 3.033100
16.122000 3.031300
16.141300 3.024700
16.160700 3.013200
16.180100 2.998200
16.199500 2.995800
16.218900 3.437700
16.238300 3.094900
16.257700 3.074300
16.277100 3.067000
16.296400 3.105200
16.315800 3.155500
16.335200 3.218100
16.354600 3.289200
16.374000 3.379200
16.393400 3.463100
16.412800 3.577600
16.432200 4.208400
16.451600 5.235300
16.470900 4.141600
16.490300 3.847400
16.509700 3.780800
16.529100 3.722700
16.548500 3.644300
16.567900 3.613700
16.587300 3.737300
16.606700 3.808600
16.626000 3.891400
16.645400 3.975800
16.664800 4.054300
16.684200 4.076000
16.703600 4.110700
16.723000 3.993800
16.742400 3.757100
16.761800 3.587400
16.781100 3.472500
16.800500 3.410800
16.819900 3.435200
16.839300 3.466100
16.858700 3.523300
16.878100 3.627400
16.897500 3.826900
16.916900 4.086000
16.936300 4.471300
16.955600 4.675700
16.975000 4.708100
16.994400 4.815600
17.013800 4.535300
17.033200 4.489900
17.052600 4.383900
17.072000 4.530400
17.091400 4.814400
17.110700 4.847500
17.130100 4.716100
17.149500 4.611300
17.168900 4.486300
17.188300 4.351500
17.207700 4.198900
17.227100 4.076400
17.246500 3.963900
17.265800 3.836400
17.285200 3.691000
17.304600 3.558100
17.324000 3.389900
17.343400 3.337200
17.362800 3.278400
17.382200 3.182100
17.401600 3.163200
17.421000 3.206900
17.440300 3.380800
17.459700 3.574800
17.479100 3.796800
17.498500 3.989600
17.517900 4.235000
17.537300 5.074200
17.556700 4.357800
17.576100 4.585800
17.595400 4.676400
17.614800 4.605500
17.634200 5.549700
17.653600 5.713200
17.673000 4.726100
17.692400 4.201400
17.711800 4.107200
17.731200 3.821000
17.750500 3.802000
17.769900 3.816800
17.789300 3.817600
17.808700 3.822800
17.828100 3.819100
17.847500 3.878500
17.866900 4.075200
17.886300 4.371200
17.905700 4.469900
17.925000 4.495500
17.944400 4.522500
17.963800 4.536200
17.983200 4.558400
18.002600 4.392900
18.022000 3.963200
18.041400 3.838500
18.060800 3.797200
18.080100 3.706300
18.099500 3.668500
18.118900 3.573400
18.138300 3.501200
18.157700 3.439300
18.177100 3.384100
18.196500 3.339100
18.215900 3.303500
18.235200 3.318200
18.254600 3.339000
18.274000 3.452100
18.293400 3.578200
18.312800 3.756800
18.332200 3.942500
18.351600 4.197600
18.371000 4.487400
18.390400 4.788300
18.409700 5.173100
18.429100 5.554000
18.448500 5.764400
18.467900 5.343100
18.487300 4.770800
18.506700 4.212300
18.526100 4.232500
18.545500 4.186500
18.564800 4.050100
18.584200 4.003600
18.603600 4.352700
18.623000 4.447500
18.642400 4.391200
18.661800 4.387800
18.681200 4.629300
18.700600 4.871100
18.719900 4.993600
18.739300 5.059100
18.758700 5.111000
18.778100 5.112800
18.797500 5.076600
18.816900 5.118700
18.836300 5.030100
18.855700 5.177700
18.875100 5.053300
18.894400 4.779600
18.913800 4.525100
18.933200 4.449600
18.952600 4.148600
18.972000 4.031700
18.991400 3.924700
19.010800 3.796200
19.030200 3.670200
19.049500 3.640300
19.068900 3.646500
19.088300 3.609700
19.107700 3.573400
19.127100 3.548100
19.146500 3.526700
19.165900 3.540700
19.185300 3.608100
19.204600 3.688500
19.224000 3.774900
19.243400 3.848000
19.262800 3.959900
19.282200 4.086800
19.301600 4.338200
19.321000 4.730100
19.340400 4.593500
19.359800 4.427900
19.379100 4.273100
19.398500 4.171700
19.417900 4.318500
19.437300 4.510000
19.456700 4.678600
19.476100 4.736500
19.495500 4.804400
19.514900 5.006900
19.534200 4.677700
19.553600 4.767000
19.573000 4.435600
19.592400 4.513300
19.611800 4.588600
19.631200 4.790600
19.650600 4.735800
19.670000 4.690300
19.689300 4.698900
19.708700 4.732800
19.728100 4.891100
19.747500 4.787100
19.766900 4.788800
19.786300 4.500600
19.805700 4.430100
19.825100 4.617400
19.844500 4.644800
19.863800 4.473800
19.883200 4.481900
19.902600 4.507600
19.922000 4.497200
19.941400 4.498200
19.960800 4.540900
19.980200 4.565100
19.999600 4.769000
20.018900 4.888400
20.038300 4.852100
20.057700 4.771600
20.077100 4.705400
20.096500 4.536400
20.115900 4.621800
20.135300 4.638000
20.154700 4.656900
20.174000 4.652100
20.193400 4.644300
20.212800 4.713500
20.232200 4.753000
20.251600 4.894500
20.271000 4.974800
20.290400 4.907400
20.309800 4.944400
20.329200 4.992800
20.348500 4.847800
20.367900 4.201000
20.387300 3.905200
20.406700 3.894300
20.426100 3.726000
20.445500 3.657300
20.464900 3.627900
20.484300 3.636600
20.503600 3.762500
20.523000 4.076300
20.542400 4.276600
20.561800 4.439300
20.581200 4.990400
20.600600 4.201600
20.620000 4.171200
20.639400 4.185300
20.658700 4.159800
20.678100 4.094000
20.697500 3.995600
20.716900 3.900200
20.736300 3.828100
20.755700 3.814500
20.775100 3.774200
20.794500 3.766400
20.813900 3.712900
20.833200 3.788000
20.852600 3.963100
20.872000 4.131900
20.891400 4.149400
20.910800 4.335400
20.930200 4.594400
20.949600 4.658900
20.969000 4.663100
20.988300 4.638500
21.007700 4.696900
21.027100 4.837300
21.046500 4.791200
21.065900 4.729800
21.085300 4.661600
21.104700 4.610400
21.124100 4.926600
21.143400 4.686100
21.162800 4.726900
21.182200 4.763000
21.201600 4.812100
21.221000 4.868000
21.240400 4.906900
21.259800 4.944200
21.279200 5.052200
21.298600 5.087100
21.317900 5.051300
21.337300 5.039100
21.356700 5.054800
21.376100 5.368900
21.395500 5.978300
21.414900 6.077700
21.434300 6.434300
21.453700 5.984300
21.473000 4.143700
21.492400 3.908400
21.511800 3.672500
21.531200 3.538400
21.550600 3.571900
21.570000 3.502500
21.589400 3.627800
21.608800 3.993800
21.628100 4.241400
21.647500 4.379000
21.666900 4.445800
21.686300 4.366900
21.705700 5.163600
21.725100 4.047800
21.744500 3.940700
21.763900 3.907300
21.783300 3.946700
21.802600 3.967900
21.822000 3.940500
21.841400 3.896400
21.860800 3.830200
21.880200 3.670100
21.899600 3.489200
21.919000 3.317000
21.938400 3.145000
21.957700 2.975500
21.977100 2.770400
21.996500 2.531200
22.015900 2.337100
22.035300 2.191700
22.054700 2.038000
22.074100 1.938600
22.093500 1.884000
22.112900 1.850900
22.132200 1.828600
22.151600 1.810800
22.171000 1.787100
22.190400 1.748200
22.209800 1.693700
22.229200 1.690200
22.248600 1.666300
22.268000 1.666100
22.287300 1.652800
22.306700 1.608100
22.326100 1.532200
22.345500 1.424900
22.364900 1.289500
22.384300 1.049200
22.403700 0.894000
22.423100 0.809700
22.442400 0.730600
22.461800 0.681700
22.481200 0.651900
22.500600 0.628700
22.520000 0.608200
22.539400 0.590700
22.558800 0.576000
22.578200 0.563000
22.597600 0.543200
22.616900 0.525900
22.636300 0.399300
22.655700 0.383900
22.675100 0.369200
22.694500 0.356400
22.713900 0.345300
22.733300 0.334400
22.752700 0.335100
22.772000 0.358900
22.791400 0.384200
22.810800 0.411200
22.830200 0.301100
22.849600 0.289600
22.869000 0.278200
22.888400 0.266900
22.907800 0.255600
22.927100 0.244400
22.946500 0.233300
22.965900 0.222300
22.985300 0.211400
23.004700 0.200500
23.024100 0.189600
23.043500 0.178800
23.062900 0.168000
23.082300 0.157200
23.101600 0.146400
23.121000 0.135600
23.140400 0.126900
23.159800 0.118900
23.179200 0.109800
23.198600 0.104000
23.218000 0.101200
23.237400 0.098500
23.256700 0.095800
23.276100 0.093200
23.295500 0.089700
23.314900 0.086000
23.334300 0.082300
23.353700 0.078700
23.373100 0.075200
23.392500 0.071700
23.411800 0.068300
23.431200 0.065000
23.450600 0.061700
23.470000 0.058400
23.489400 0.055200
23.508800 0.052100
23.528200 0.049000
23.547600 0.046000
23.567000 0.043000
23.586300 0.040000
23.605700 0.037100
23.625100 0.034300
23.644500 0.031500
23.663900 0.028800
23.683300 0.026100
23.702700 0.023500
23.722100 0.020900
23.741400 0.018400
23.760800 0.015900
23.780200 0.013500
23.799600 0.011200
23.819000 0.009100
23.838400 0.007200
23.857800 0.005600
23.877200 0.004200
23.896500 0.003000
23.915900 0.002000
23.935300 0.001200
23.954700 0.000700
23.974100 0.000300
23.993500 0.000100
24.012900 0.000000
24.032300 0.000000
24.051700 0.000000
24.071000 0.000000
24.090400 0.000000
24.109800 0.000000
24.129200 0.000000
24.148600 0.000000
24.168000 0.000000
24.187400 0.000000
24.206800 0.000000
24.226100 0.000000
24.245500 0.000000
24.264900 0.000000
24.284300 0.000000
24.303700 0.000000
24.323100 0.000000
24.342500 0.000000
24.361900 0.000000
24.381200 0.000000
24.400600 0.000000
24.420000 0.000000
24.439400 0.000000
24.458800 0.000000
24.478200 0.000000
24.497600 0.000000
24.517000 0.000000
24.536400 0.000000
24.555700 0.000000
24.575100 0.000000
24.594500 0.000000
24.613900 0.000000
24.633300 0.000000
24.652700 0.000000
24.672100 0.000000
24.691500 0.000000
24.710800 0.000000
24.730200 0.000000
24.749600 0.000000
24.769000 0.000000
24.788400 0.000000
24.807800 0.000000
24.827200 0.000000
24.846600 0.000000
24.865900 0.000000
24.885300 0.000000
24.904700 0.000000
24.924100 0.000000
24.943500 0.000000
24.962900 0.000000
24.982300 0.000000
25.001700 0.000000
25.021100 0.000000
25.040400 0.000000
25.059800 0.000000
25.079200 0.000000
25.098600 0.000000
25.118000 0.000000
25.137400 0.000000
25.156800 0.000000
25.176200 0.000000
25.195500 0.000000
25.214900 0.000000
25.234300 0.000000
25.253700 0.000000
25.273100 0.000000
25.292500 0.000000
25.311900 0.000000
25.331300 0.000000
25.350600 0.000000
25.370000 0.000000
25.389400 0.000000
25.408800 0.000000
25.428200 0.000000
25.447600 0.000000
25.467000 0.000000
25.486400 0.000000
25.505800 0.000000
25.525100 0.000000
25.544500 0.000000
25.563900 0.000000
25.583300 0.000000
25.602700 0.000000
25.622100 0.000000
25.641500 0.000000
25.660900 0.000000
25.680200 0.000000
25.699600 0.000000
25.719000 0.000000
25.738400 0.000000
25.757800 0.000000
25.777200 0.000000
e
