set title 'mp-1013526 - Density of States'
set xlabel 'Energy (eV)'
set ylabel 'DOS (states/eV)'
set grid
set xrange [-10:10]
set yrange [0:6.706]
set xzeroaxis lt -1
set terminal png size 800,600
set output 'mp-1013526_dos_gnuplot.png'
plot '-' using 1:2 with lines title 'DOS'
-38.356700 0.000000
-38.315400 0.000000
-38.274100 0.000000
-38.232800 0.000000
-38.191500 0.000000
-38.150300 0.000000
-38.109000 0.000000
-38.067700 0.000000
-38.026400 0.000000
-37.985100 0.000000
-37.943900 0.000000
-37.902600 0.000000
-37.861300 0.000000
-37.820000 0.000000
-37.778700 0.000000
-37.737400 0.000000
-37.696200 0.000000
-37.654900 0.000000
-37.613600 0.000000
-37.572300 0.000000
-37.531000 0.000000
-37.489800 0.000000
-37.448500 0.000000
-37.407200 0.000000
-37.365900 0.000000
-37.324600 0.000000
-37.283400 0.000000
-37.242100 0.000000
-37.200800 0.000000
-37.159500 0.000000
-37.118200 0.000000
-37.076900 0.000000
-37.035700 0.000000
-36.994400 0.000000
-36.953100 0.000000
-36.911800 0.000000
-36.870500 0.000000
-36.829300 0.000000
-36.788000 0.000000
-36.746700 0.000000
-36.705400 0.000000
-36.664100 0.000000
-36.622800 0.000000
-36.581600 0.000000
-36.540300 0.000000
-36.499000 0.000000
-36.457700 0.000000
-36.416400 0.000000
-36.375200 0.000000
-36.333900 0.000000
-36.292600 0.000000
-36.251300 0.000000
-36.210000 0.000000
-36.168800 0.000000
-36.127500 0.000000
-36.086200 0.000000
-36.044900 0.000000
-36.003600 0.000000
-35.962300 0.000000
-35.921100 0.000000
-35.879800 0.000000
-35.838500 0.000000
-35.797200 0.000000
-35.755900 0.000000
-35.714700 0.000000
-35.673400 0.000000
-35.632100 0.000000
-35.590800 0.000000
-35.549500 0.000000
-35.508300 0.000000
-35.467000 0.000000
-35.425700 0.000000
-35.384400 0.000000
-35.343100 0.000000
-35.301800 0.000000
-35.260600 0.000000
-35.219300 0.000000
-35.178000 0.000000
-35.136700 0.000000
-35.095400 0.000000
-35.054200 0.000000
-35.012900 0.000000
-34.971600 0.000000
-34.930300 0.000000
-34.889000 0.000000
-34.847700 0.000000
-34.806500 0.000000
-34.765200 0.000000
-34.723900 0.000000
-34.682600 0.000000
-34.641300 0.000000
-34.600100 12.810600
-34.558800 7.557200
-34.517500 15.000400
-34.476200 15.538200
-34.434900 0.000000
-34.393700 0.000000
-34.352400 0.000000
-34.311100 0.000000
-34.269800 0.000000
-34.228500 0.000000
-34.187200 0.000000
-34.146000 0.000000
-34.104700 0.000000
-34.063400 0.000000
-34.022100 0.000000
-33.980800 0.000000
-33.939600 0.000000
-33.898300 0.000000
-33.857000 0.000000
-33.815700 0.000000
-33.774400 0.000000
-33.733100 0.000000
-33.691900 0.000000
-33.650600 0.000000
-33.609300 0.000000
-33.568000 0.000000
-33.526700 0.000000
-33.485500 0.000000
-33.444200 0.000000
-33.402900 0.000000
-33.361600 0.000000
-33.320300 0.000000
-33.279100 0.000000
-33.237800 0.000000
-33.196500 0.000000
-33.155200 0.000000
-33.113900 0.000000
-33.072600 0.000000
-33.031400 0.000000
-32.990100 0.000000
-32.948800 0.000000
-32.907500 0.000000
-32.866200 0.000000
-32.825000 0.000000
-32.783700 0.000000
-32.742400 0.000000
-32.701100 0.000000
-32.659800 0.000000
-32.618600 0.000000
-32.577300 0.000000
-32.536000 0.000000
-32.494700 0.000000
-32.453400 0.000000
-32.412100 0.000000
-32.370900 0.000000
-32.329600 0.000000
-32.288300 0.000000
-32.247000 0.000000
-32.205700 0.000000
-32.164500 0.000000
-32.123200 0.000000
-32.081900 0.000000
-32.040600 0.000000
-31.999300 0.000000
-31.958000 0.000000
-31.916800 0.000000
-31.875500 0.000000
-31.834200 0.000000
-31.792900 0.000000
-31.751600 0.000000
-31.710400 0.000000
-31.669100 0.000000
-31.627800 0.000000
-31.586500 0.000000
-31.545200 0.000000
-31.504000 0.000000
-31.462700 0.000000
-31.421400 0.000000
-31.380100 0.000000
-31.338800 0.000000
-31.297500 0.000000
-31.256300 0.000000
-31.215000 0.000000
-31.173700 0.000000
-31.132400 0.000000
-31.091100 0.000000
-31.049900 0.000000
-31.008600 0.000000
-30.967300 0.000000
-30.926000 0.000000
-30.884700 0.000000
-30.843400 0.000000
-30.802200 0.000000
-30.760900 0.000000
-30.719600 0.000000
-30.678300 0.000000
-30.637000 0.000000
-30.595800 0.000000
-30.554500 0.000000
-30.513200 0.000000
-30.471900 0.000000
-30.430600 0.000000
-30.389400 0.000000
-30.348100 0.000000
-30.306800 0.000000
-30.265500 0.000000
-30.224200 0.000000
-30.182900 0.000000
-30.141700 0.000000
-30.100400 0.000000
-30.059100 0.000000
-30.017800 0.000000
-29.976500 0.000000
-29.935300 0.000000
-29.894000 0.000000
-29.852700 0.000000
-29.811400 0.000000
-29.770100 0.000000
-29.728800 0.000000
-29.687600 0.000000
-29.646300 0.000000
-29.605000 0.000000
-29.563700 0.000000
-29.522400 0.000000
-29.481200 0.000000
-29.439900 0.000000
-29.398600 0.000000
-29.357300 0.000000
-29.316000 0.000000
-29.274800 0.000000
-29.233500 0.000000
-29.192200 0.000000
-29.150900 0.000000
-29.109600 0.000000
-29.068300 0.000000
-29.027100 0.000000
-28.985800 0.000000
-28.944500 0.000000
-28.903200 0.000000
-28.861900 0.000000
-28.820700 0.000000
-28.779400 0.000000
-28.738100 0.000000
-28.696800 0.000000
-28.655500 0.000000
-28.614300 0.000000
-28.573000 0.000000
-28.531700 0.000000
-28.490400 0.000000
-28.449100 0.000000
-28.407800 0.000000
-28.366600 0.000000
-28.325300 0.000000
-28.284000 0.000000
-28.242700 0.000000
-28.201400 0.000000
-28.160200 0.000000
-28.118900 0.000000
-28.077600 0.000000
-28.036300 0.000000
-27.995000 0.000000
-27.953700 0.000000
-27.912500 0.000000
-27.871200 0.000000
-27.829900 0.000000
-27.788600 0.000000
-27.747300 0.000000
-27.706100 0.000000
-27.664800 0.000000
-27.623500 0.000000
-27.582200 0.000000
-27.540900 0.000000
-27.499700 0.000000
-27.458400 0.000000
-27.417100 0.000000
-27.375800 0.000000
-27.334500 0.000000
-27.293200 0.000000
-27.252000 0.000000
-27.210700 0.000000
-27.169400 0.000000
-27.128100 0.000000
-27.086800 0.000000
-27.045600 0.000000
-27.004300 0.000000
-26.963000 0.000000
-26.921700 0.000000
-26.880400 0.000000
-26.839100 0.000000
-26.797900 0.000000
-26.756600 0.000000
-26.715300 0.000000
-26.674000 0.000000
-26.632700 0.000000
-26.591500 0.000000
-26.550200 0.000000
-26.508900 0.000000
-26.467600 0.000000
-26.426300 0.000000
-26.385100 0.000000
-26.343800 0.000000
-26.302500 0.000000
-26.261200 0.000000
-26.219900 0.000000
-26.178600 0.000000
-26.137400 0.000000
-26.096100 0.000000
-26.054800 0.000000
-26.013500 0.000000
-25.972200 0.000000
-25.931000 0.000000
-25.889700 0.000000
-25.848400 0.000000
-25.807100 0.000000
-25.765800 0.000000
-25.724600 0.000000
-25.683300 0.000000
-25.642000 0.000000
-25.600700 0.000000
-25.559400 0.000000
-25.518100 0.000000
-25.476900 0.000000
-25.435600 0.000000
-25.394300 0.000000
-25.353000 0.000000
-25.311700 0.000000
-25.270500 0.000000
-25.229200 0.000000
-25.187900 0.000000
-25.146600 0.000000
-25.105300 0.000000
-25.064000 0.000000
-25.022800 0.000000
-24.981500 0.000000
-24.940200 0.000000
-24.898900 0.000000
-24.857600 0.000000
-24.816400 0.000000
-24.775100 0.000000
-24.733800 0.000000
-24.692500 0.000000
-24.651200 0.000000
-24.610000 0.000000
-24.568700 0.000000
-24.527400 0.000000
-24.486100 0.000000
-24.444800 0.000000
-24.403500 0.000000
-24.362300 0.000000
-24.321000 0.000000
-24.279700 0.000000
-24.238400 0.000000
-24.197100 0.000000
-24.155900 0.000000
-24.114600 0.000000
-24.073300 0.000000
-24.032000 0.000000
-23.990700 0.000000
-23.949400 0.000000
-23.908200 0.000000
-23.866900 0.000000
-23.825600 0.000000
-23.784300 0.000000
-23.743000 0.000000
-23.701800 0.000000
-23.660500 0.000000
-23.619200 0.000000
-23.577900 0.000000
-23.536600 0.000000
-23.495400 0.000000
-23.454100 0.000000
-23.412800 0.000000
-23.371500 0.000000
-23.330200 0.000000
-23.288900 0.000000
-23.247700 0.000000
-23.206400 0.000000
-23.165100 0.000000
-23.123800 0.000000
-23.082500 0.000000
-23.041300 0.000000
-23.000000 0.000000
-22.958700 0.000000
-22.917400 0.000000
-22.876100 0.000000
-22.834800 0.000000
-22.793600 0.000000
-22.752300 0.000000
-22.711000 0.000000
-22.669700 0.000000
-22.628400 0.000000
-22.587200 0.000000
-22.545900 0.000000
-22.504600 0.000000
-22.463300 0.000000
-22.422000 0.000000
-22.380800 0.000000
-22.339500 0.000000
-22.298200 0.000000
-22.256900 0.000000
-22.215600 0.000000
-22.174300 0.000000
-22.133100 0.000000
-22.091800 0.000000
-22.050500 0.000000
-22.009200 0.000000
-21.967900 0.000000
-21.926700 0.000000
-21.885400 0.000000
-21.844100 0.000000
-21.802800 0.000000
-21.761500 0.000000
-21.720300 0.000000
-21.679000 0.000000
-21.637700 0.000000
-21.596400 0.000000
-21.555100 0.000000
-21.513800 0.000000
-21.472600 0.000000
-21.431300 0.000000
-21.390000 0.000000
-21.348700 0.000000
-21.307400 0.000000
-21.266200 0.000000
-21.224900 0.000000
-21.183600 0.000000
-21.142300 0.000000
-21.101000 0.000000
-21.059700 0.000000
-21.018500 0.000000
-20.977200 0.000000
-20.935900 0.000000
-20.894600 0.000000
-20.853300 0.000000
-20.812100 0.000000
-20.770800 0.000000
-20.729500 0.000000
-20.688200 0.000000
-20.646900 0.000000
-20.605700 0.000000
-20.564400 0.000000
-20.523100 0.000000
-20.481800 0.000000
-20.440500 0.000000
-20.399200 0.000000
-20.358000 0.000000
-20.316700 0.000000
-20.275400 0.000000
-20.234100 0.000000
-20.192800 0.000000
-20.151600 0.000000
-20.110300 0.000000
-20.069000 0.000000
-20.027700 0.000000
-19.986400 0.000000
-19.945100 0.000000
-19.903900 0.000000
-19.862600 0.000000
-19.821300 0.000000
-19.780000 0.000000
-19.738700 0.000000
-19.697500 0.000000
-19.656200 0.000000
-19.614900 0.000000
-19.573600 0.000000
-19.532300 0.000000
-19.491100 0.000000
-19.449800 0.000000
-19.408500 0.000000
-19.367200 0.000000
-19.325900 0.000000
-19.284600 0.000000
-19.243400 0.000000
-19.202100 0.000000
-19.160800 0.000000
-19.119500 0.000000
-19.078200 0.000000
-19.037000 0.000000
-18.995700 0.000000
-18.954400 0.000000
-18.913100 0.000000
-18.871800 0.000000
-18.830600 0.000000
-18.789300 0.000000
-18.748000 0.000000
-18.706700 0.000000
-18.665400 0.000000
-18.624100 0.000000
-18.582900 0.000000
-18.541600 0.000000
-18.500300 0.000000
-18.459000 0.000000
-18.417700 0.000000
-18.376500 0.000000
-18.335200 0.000000
-18.293900 0.000000
-18.252600 0.000000
-18.211300 0.000000
-18.170000 0.000000
-18.128800 0.000000
-18.087500 0.000000
-18.046200 0.000000
-18.004900 0.000000
-17.963600 0.000000
-17.922400 0.000000
-17.881100 0.000000
-17.839800 0.000000
-17.798500 0.000000
-17.757200 0.000000
-17.716000 0.000000
-17.674700 0.000000
-17.633400 0.000000
-17.592100 0.000000
-17.550800 0.000000
-17.509500 0.000000
-17.468300 0.000000
-17.427000 0.000000
-17.385700 0.000000
-17.344400 0.000000
-17.303100 0.000000
-17.261900 0.000000
-17.220600 0.000000
-17.179300 0.000000
-17.138000 0.000000
-17.096700 0.000000
-17.055400 0.000000
-17.014200 0.000000
-16.972900 0.000000
-16.931600 0.000000
-16.890300 0.000000
-16.849000 0.000000
-16.807800 0.000000
-16.766500 0.000000
-16.725200 0.000000
-16.683900 0.000000
-16.642600 0.000000
-16.601400 0.000000
-16.560100 0.000000
-16.518800 0.000000
-16.477500 0.000000
-16.436200 0.000000
-16.394900 0.000000
-16.353700 0.000000
-16.312400 0.000000
-16.271100 0.000000
-16.229800 0.000000
-16.188500 0.000000
-16.147300 0.000000
-16.106000 0.000000
-16.064700 0.000000
-16.023400 0.000000
-15.982100 0.000000
-15.940800 0.000000
-15.899600 0.000000
-15.858300 0.000000
-15.817000 0.000000
-15.775700 0.000000
-15.734400 0.000000
-15.693200 0.000000
-15.651900 0.000000
-15.610600 0.000000
-15.569300 0.000000
-15.528000 0.000000
-15.486800 0.000000
-15.445500 0.000000
-15.404200 0.000000
-15.362900 0.000000
-15.321600 0.000000
-15.280300 0.000000
-15.239100 0.000000
-15.197800 0.000000
-15.156500 0.000000
-15.115200 0.000000
-15.073900 0.000000
-15.032700 0.000000
-14.991400 0.000000
-14.950100 0.000000
-14.908800 0.000000
-14.867500 0.000000
-14.826300 0.000000
-14.785000 0.000000
-14.743700 0.000000
-14.702400 0.000000
-14.661100 0.000000
-14.619800 0.000000
-14.578600 0.000000
-14.537300 0.000000
-14.496000 0.000000
-14.454700 0.000000
-14.413400 0.000000
-14.372200 0.000000
-14.330900 0.000000
-14.289600 0.000000
-14.248300 0.000000
-14.207000 0.000000
-14.165700 0.000000
-14.124500 0.000000
-14.083200 0.000000
-14.041900 0.000000
-14.000600 0.000000
-13.959300 0.000000
-13.918100 0.000000
-13.876800 0.000000
-13.835500 0.000000
-13.794200 0.000000
-13.752900 0.000000
-13.711700 0.000000
-13.670400 0.000000
-13.629100 0.000000
-13.587800 0.000000
-13.546500 0.000000
-13.505200 0.000000
-13.464000 0.000000
-13.422700 0.000000
-13.381400 0.000000
-13.340100 0.000000
-13.298800 0.000000
-13.257600 0.000000
-13.216300 0.000000
-13.175000 0.000000
-13.133700 0.000000
-13.092400 0.000000
-13.051100 0.000000
-13.009900 0.000000
-12.968600 0.000000
-12.927300 0.000000
-12.886000 0.000000
-12.844700 0.000000
-12.803500 0.000000
-12.762200 0.000000
-12.720900 0.000000
-12.679600 0.000000
-12.638300 0.000000
-12.597100 0.000000
-12.555800 0.000000
-12.514500 0.000000
-12.473200 0.000000
-12.431900 0.000000
-12.390600 0.000000
-12.349400 0.000000
-12.308100 0.000000
-12.266800 0.000000
-12.225500 0.000000
-12.184200 0.000000
-12.143000 0.000000
-12.101700 0.000000
-12.060400 0.000000
-12.019100 0.000000
-11.977800 0.000000
-11.936600 0.000000
-11.895300 0.000000
-11.854000 0.000000
-11.812700 0.000000
-11.771400 0.000000
-11.730100 0.000000
-11.688900 0.000000
-11.647600 0.000000
-11.606300 0.000000
-11.565000 0.000000
-11.523700 0.000000
-11.482500 0.000000
-11.441200 0.000000
-11.399900 0.000000
-11.358600 0.000000
-11.317300 0.000000
-11.276000 0.000000
-11.234800 0.000000
-11.193500 0.000000
-11.152200 0.000000
-11.110900 0.000000
-11.069600 0.000000
-11.028400 0.000000
-10.987100 0.000000
-10.945800 0.000000
-10.904500 0.000000
-10.863200 0.000000
-10.822000 0.000000
-10.780700 0.000000
-10.739400 0.000000
-10.698100 0.000000
-10.656800 0.000000
-10.615500 0.000000
-10.574300 0.000000
-10.533000 0.000000
-10.491700 0.000000
-10.450400 0.000000
-10.409100 0.000000
-10.367900 0.000000
-10.326600 0.000000
-10.285300 0.000000
-10.244000 0.000000
-10.202700 0.000000
-10.161400 0.000000
-10.120200 0.000000
-10.078900 0.000000
-10.037600 0.000000
-9.996300 0.038300
-9.955000 0.128700
-9.913800 0.205600
-9.872500 0.254600
-9.831200 0.258400
-9.789900 0.245900
-9.748600 0.261400
-9.707400 0.272800
-9.666100 0.274300
-9.624800 0.268300
-9.583500 0.263000
-9.542200 0.263100
-9.500900 0.269700
-9.459700 0.276600
-9.418400 0.283500
-9.377100 0.290300
-9.335800 0.292100
-9.294500 0.293700
-9.253300 0.293000
-9.212000 0.296100
-9.170700 0.299500
-9.129400 0.303900
-9.088100 0.309000
-9.046900 0.314800
-9.005600 0.320500
-8.964300 0.326200
-8.923000 0.332100
-8.881700 0.338700
-8.840400 0.363800
-8.799200 0.524400
-8.757900 0.578000
-8.716600 0.670000
-8.675300 0.795900
-8.634000 0.924800
-8.592800 0.915600
-8.551500 0.952500
-8.510200 0.972600
-8.468900 0.996700
-8.427600 1.042400
-8.386300 1.095400
-8.345100 1.150800
-8.303800 1.212400
-8.262500 1.282400
-8.221200 1.359700
-8.179900 1.454400
-8.138700 1.577500
-8.097400 1.700000
-8.056100 1.822000
-8.014800 2.352100
-7.973500 2.070000
-7.932300 2.026800
-7.891000 1.985000
-7.849700 2.163100
-7.808400 3.236100
-7.767100 3.186400
-7.725800 2.088500
-7.684600 0.146300
-7.643300 0.000000
-7.602000 0.000000
-7.560700 0.000000
-7.519400 0.000000
-7.478200 0.000000
-7.436900 0.000000
-7.395600 0.000000
-7.354300 0.000000
-7.313000 0.000000
-7.271700 0.000000
-7.230500 0.000000
-7.189200 0.000000
-7.147900 0.000000
-7.106600 0.000000
-7.065300 0.000000
-7.024100 0.000000
-6.982800 0.000000
-6.941500 0.000000
-6.900200 0.000000
-6.858900 0.000000
-6.817700 0.000000
-6.776400 0.000000
-6.735100 0.000000
-6.693800 0.000000
-6.652500 0.000000
-6.611200 0.000000
-6.570000 0.000000
-6.528700 0.000000
-6.487400 0.000000
-6.446100 0.000000
-6.404800 0.000000
-6.363600 0.000000
-6.322300 0.000000
-6.281000 0.000000
-6.239700 0.000000
-6.198400 0.000000
-6.157100 0.000000
-6.115900 0.000000
-6.074600 0.000000
-6.033300 0.000000
-5.992000 0.000000
-5.950700 0.000000
-5.909500 0.000000
-5.868200 0.000000
-5.826900 0.000000
-5.785600 0.000000
-5.744300 0.000000
-5.703100 0.000000
-5.661800 0.000000
-5.620500 0.000000
-5.579200 0.000000
-5.537900 0.000000
-5.496600 0.000000
-5.455400 0.000000
-5.414100 0.000000
-5.372800 0.000000
-5.331500 0.000000
-5.290200 0.000000
-5.249000 0.000000
-5.207700 0.000000
-5.166400 0.000000
-5.125100 0.000000
-5.083800 0.000000
-5.042600 0.000000
-5.001300 0.000000
-4.960000 0.000000
-4.918700 0.000000
-4.877400 0.000000
-4.836100 0.000000
-4.794900 0.000000
-4.753600 0.000000
-4.712300 0.000000
-4.671000 0.000000
-4.629700 0.000000
-4.588500 0.000000
-4.547200 0.000000
-4.505900 0.000000
-4.464600 0.000000
-4.423300 0.000000
-4.382000 0.000000
-4.340800 0.000000
-4.299500 0.000000
-4.258200 0.000000
-4.216900 0.000000
-4.175600 0.000000
-4.134400 0.000000
-4.093100 0.000000
-4.051800 0.000000
-4.010500 0.000000
-3.969200 0.000000
-3.928000 0.000000
-3.886700 0.000000
-3.845400 0.000000
-3.804100 0.000000
-3.762800 0.000000
-3.721500 0.000000
-3.680300 0.000000
-3.639000 0.000000
-3.597700 0.000000
-3.556400 0.000000
-3.515100 0.000000
-3.473900 0.000000
-3.432600 0.000000
-3.391300 0.000000
-3.350000 0.000000
-3.308700 0.000000
-3.267400 0.000000
-3.226200 0.000000
-3.184900 0.000000
-3.143600 0.000000
-3.102300 0.000000
-3.061000 0.000000
-3.019800 0.000000
-2.978500 0.000000
-2.937200 0.000000
-2.895900 0.000000
-2.854600 0.000000
-2.813400 0.000000
-2.772100 0.000000
-2.730800 0.000000
-2.689500 0.000000
-2.648200 0.000000
-2.606900 0.000000
-2.565700 0.000000
-2.524400 0.000000
-2.483100 0.000000
-2.441800 0.000000
-2.400500 0.000000
-2.359300 0.000000
-2.318000 0.000000
-2.276700 0.000000
-2.235400 0.000000
-2.194100 0.000000
-2.152900 0.000000
-2.111600 0.000000
-2.070300 0.000000
-2.029000 0.000000
-1.987700 0.000000
-1.946400 0.000000
-1.905200 0.000000
-1.863900 0.000000
-1.822600 0.000000
-1.781300 0.000000
-1.740000 0.005900
-1.698800 0.052300
-1.657500 0.130300
-1.616200 0.246400
-1.574900 0.363300
-1.533600 0.431400
-1.492300 0.458100
-1.451100 0.436100
-1.409800 0.410400
-1.368500 0.412200
-1.327200 0.441100
-1.285900 0.482100
-1.244700 0.505000
-1.203400 0.536300
-1.162100 0.566600
-1.120800 0.597600
-1.079500 0.629100
-1.038300 0.660300
-0.997000 0.691600
-0.955700 0.724400
-0.914400 0.858100
-0.873100 0.996300
-0.831800 0.954700
-0.790600 0.900500
-0.749300 0.847500
-0.708000 0.805400
-0.666700 0.763900
-0.625400 0.759900
-0.584200 0.785200
-0.542900 0.938800
-0.501600 2.293500
-0.460300 5.289900
-0.419000 3.750300
-0.377700 2.168900
-0.336500 1.860500
-0.295200 1.715500
-0.253900 1.464200
-0.212600 1.052800
-0.171300 0.808800
-0.130100 0.755400
-0.088800 0.670500
-0.047500 0.636400
-0.006200 0.626800
0.035100 0.610100
0.076300 0.612300
0.117600 0.739700
0.158900 0.781800
0.200200 0.835700
0.241500 0.950800
0.282800 0.737700
0.324000 0.530800
0.365300 0.597200
0.406600 0.957500
0.447900 1.056900
0.489200 1.083400
0.530400 1.180800
0.571700 1.284000
0.613000 1.414300
0.654300 1.672500
0.695600 2.137800
0.736900 1.615400
0.778100 1.443800
0.819400 1.356000
0.860700 1.298800
0.902000 1.408000
0.943300 1.694200
0.984500 1.775400
1.025800 1.227200
1.067100 1.319400
1.108400 1.225300
1.149700 1.239100
1.190900 1.266000
1.232200 1.437600
1.273500 1.702600
1.314800 2.170900
1.356100 2.512100
1.397400 2.511200
1.438600 1.953600
1.479900 1.887100
1.521200 1.962700
1.562500 3.661100
1.603800 2.200500
1.645000 1.268600
1.686300 1.277200
1.727600 1.294900
1.768900 1.302000
1.810200 1.317500
1.851400 1.203600
1.892700 1.055200
1.934000 1.050600
1.975300 1.793500
2.016600 1.678900
2.057900 1.505300
2.099100 1.232300
2.140400 1.186700
2.181700 1.176700
2.223000 1.215900
2.264300 1.261200
2.305500 1.320400
2.346800 1.278700
2.388100 1.195700
2.429400 1.128600
2.470700 1.143200
2.512000 1.140300
2.553200 1.156300
2.594500 1.177300
2.635800 1.110700
2.677100 1.087300
2.718400 1.061500
2.759600 1.051900
2.800900 1.050500
2.842200 1.088000
2.883500 1.082200
2.924800 1.096900
2.966000 1.126000
3.007300 1.094500
3.048600 0.872600
3.089900 0.746900
3.131200 0.668300
3.172500 0.608700
3.213700 0.575000
3.255000 0.554800
3.296300 0.488300
3.337600 0.411000
3.378900 0.360700
3.420100 0.368200
3.461400 0.408300
3.502700 0.481400
3.544000 0.526700
3.585300 0.561200
3.626600 0.593800
3.667800 0.627700
3.709100 0.707000
3.750400 0.730000
3.791700 0.753900
3.833000 0.782700
3.874200 0.820900
3.915500 0.881200
3.956800 0.945900
3.998100 1.092500
4.039400 1.455100
4.080600 1.596500
4.121900 1.582400
4.163200 1.656900
4.204500 1.255400
4.245800 1.012700
4.287100 0.946300
4.328300 0.736300
4.369600 0.674900
4.410900 0.655300
4.452200 0.604400
4.493500 0.555200
4.534700 0.508500
4.576000 0.464200
4.617300 0.422900
4.658600 0.409300
4.699900 0.533000
4.741100 0.386500
4.782400 0.301800
4.823700 0.230700
4.865000 0.236400
4.906300 0.606800
4.947600 0.925700
4.988800 1.381100
5.030100 3.147900
5.071400 5.497500
5.112700 6.096200
5.154000 3.436500
5.195200 2.134100
5.236500 1.759500
5.277800 1.793900
5.319100 2.348700
5.360400 2.490000
5.401700 3.446000
5.442900 3.648600
5.484200 3.319600
5.525500 3.061900
5.566800 1.234000
5.608100 0.000000
5.649300 0.000000
5.690600 0.000000
5.731900 0.000000
5.773200 0.000000
5.814500 0.000000
5.855700 0.000000
5.897000 0.000000
5.938300 0.000000
5.979600 0.000000
6.020900 0.000000
6.062200 0.000000
6.103400 0.000000
6.144700 0.000000
6.186000 0.000000
6.227300 0.000000
6.268600 0.000000
6.309800 0.045600
6.351100 0.155900
6.392400 0.276700
6.433700 0.371800
6.475000 0.463200
6.516300 0.562900
6.557500 0.722600
6.598800 0.927800
6.640100 1.274800
6.681400 1.498600
6.722700 1.820600
6.763900 1.754500
6.805200 1.658000
6.846500 1.397200
6.887800 1.295100
6.929100 1.393800
6.970300 1.164400
7.011600 0.860900
7.052900 0.729300
7.094200 0.697200
7.135500 0.696900
7.176800 0.848000
7.218000 1.371200
7.259300 1.691300
7.300600 1.887400
7.341900 2.120200
7.383200 2.291200
7.424400 2.333000
7.465700 2.172000
7.507000 2.022900
7.548300 1.732200
7.589600 1.847600
7.630900 1.594700
7.672100 1.162100
7.713400 1.014200
7.754700 0.944800
7.796000 0.900900
7.837300 1.064600
7.878500 0.608800
7.919800 0.390800
7.961100 0.268700
8.002400 0.200000
8.043700 0.063900
8.084900 0.005400
8.126200 0.000000
8.167500 0.000000
8.208800 0.000000
8.250100 0.000000
8.291400 0.000000
8.332600 0.000000
8.373900 0.000000
8.415200 0.000000
8.456500 0.000000
8.497800 0.000000
8.539000 0.000000
8.580300 0.000000
8.621600 0.000000
8.662900 0.000000
8.704200 0.000000
8.745400 0.000000
8.786700 0.000000
8.828000 0.000000
8.869300 0.000000
8.910600 0.000000
8.951900 0.000000
8.993100 0.000000
9.034400 0.000000
9.075700 0.000000
9.117000 0.000000
9.158300 0.000000
9.199500 0.000000
9.240800 0.000000
9.282100 0.000000
9.323400 0.000000
9.364700 0.000000
9.406000 0.000000
9.447200 0.000000
9.488500 0.000000
9.529800 0.000000
9.571100 0.000000
9.612400 0.000000
9.653600 0.000000
9.694900 0.000000
9.736200 0.000000
9.777500 0.000000
9.818800 0.000000
9.860000 0.000000
9.901300 0.000000
9.942600 0.000000
9.983900 0.000000
10.025200 0.000000
10.066500 0.000000
10.107700 0.015300
10.149000 0.055200
10.190300 0.099600
10.231600 0.118800
10.272900 0.128800
10.314100 0.140900
10.355400 0.157700
10.396700 0.177500
10.438000 0.199600
10.479300 0.224500
10.520600 0.251000
10.561800 0.275700
10.603100 0.291900
10.644400 0.310100
10.685700 0.330100
10.727000 0.351400
10.768200 0.375600
10.809500 0.402400
10.850800 0.428900
10.892100 0.454200
10.933400 0.484000
10.974600 0.521500
11.015900 0.560700
11.057200 0.598600
11.098500 0.635400
11.139800 0.680900
11.181100 0.732600
11.222300 0.783800
11.263600 0.809600
11.304900 0.845900
11.346200 0.887100
11.387500 0.932200
11.428700 0.975200
11.470000 1.005100
11.511300 1.059700
11.552600 1.134300
11.593900 1.169700
11.635100 1.195700
11.676400 1.217900
11.717700 1.221200
11.759000 1.217200
11.800300 1.227000
11.841600 1.245900
11.882800 1.198300
11.924100 1.186200
11.965400 1.176500
12.006700 1.146400
12.048000 1.141200
12.089200 1.145600
12.130500 1.194000
12.171800 1.231300
12.213100 1.245100
12.254400 1.196900
12.295700 1.149900
12.336900 0.980200
12.378200 0.864500
12.419500 0.789400
12.460800 0.798900
12.502100 0.827300
12.543300 0.854000
12.584600 0.882300
12.625900 0.910700
12.667200 0.946000
12.708500 0.987100
12.749700 1.082100
12.791000 1.142000
12.832300 1.236500
12.873600 1.320600
12.914900 1.397100
12.956200 1.446200
12.997400 1.482000
13.038700 1.520300
13.080000 1.588600
13.121300 1.538700
13.162600 1.454700
13.203800 1.448100
13.245100 1.448000
13.286400 1.593100
13.327700 1.215500
13.369000 1.127600
13.410300 1.025900
13.451500 0.971000
13.492800 0.905700
13.534100 0.865800
13.575400 0.867000
13.616700 0.870300
13.657900 0.876000
13.699200 0.884800
13.740500 0.906100
13.781800 0.977600
13.823100 1.079800
13.864300 1.220100
13.905600 1.328000
13.946900 1.251500
13.988200 1.181600
14.029500 1.276000
14.070800 1.346000
14.112000 1.308900
14.153300 1.331100
14.194600 1.353200
14.235900 1.315800
14.277200 1.338800
14.318400 1.404100
14.359700 1.507500
14.401000 1.619500
14.442300 1.593600
14.483600 1.603000
14.524900 1.627100
14.566100 1.537800
14.607400 1.421900
14.648700 1.315500
14.690000 1.222000
14.731300 1.141100
14.772500 1.133400
14.813800 1.141700
14.855100 1.143300
14.896400 1.157300
14.937700 1.189800
14.978900 1.275300
15.020200 1.242600
15.061500 1.156400
15.102800 1.036900
15.144100 0.990700
15.185400 0.959400
15.226600 0.949200
15.267900 0.979300
15.309200 1.045900
15.350500 1.152900
15.391800 1.069800
15.433000 1.075700
15.474300 1.153800
15.515600 1.238200
15.556900 1.239100
15.598200 1.220100
15.639400 1.215400
15.680700 1.205100
15.722000 1.169400
15.763300 1.149400
15.804600 1.186600
15.845900 1.159700
15.887100 1.141500
15.928400 1.166000
15.969700 1.230800
16.011000 1.249000
16.052300 1.261900
16.093500 1.362400
16.134800 1.563800
16.176100 1.563700
16.217400 1.401000
16.258700 1.313400
16.300000 1.199300
16.341200 1.131100
16.382500 1.066800
16.423800 0.998800
16.465100 0.966700
16.506400 0.917800
16.547600 0.916100
16.588900 0.781200
16.630200 0.782500
16.671500 0.842500
16.712800 0.900400
16.754000 1.052200
16.795300 1.120900
16.836600 1.102300
16.877900 1.020900
16.919200 1.021500
16.960500 1.034500
17.001700 1.006200
17.043000 0.981300
17.084300 1.009800
17.125600 1.026300
17.166900 1.019400
17.208100 0.882000
17.249400 0.810400
17.290700 0.782900
17.332000 0.942900
17.373300 0.968200
17.414600 1.019800
17.455800 1.134700
17.497100 1.047300
17.538400 1.020400
17.579700 0.977200
17.621000 0.959900
17.662200 0.967200
17.703500 0.982900
17.744800 0.986400
17.786100 1.020100
17.827400 0.924600
17.868600 0.901400
17.909900 0.864500
17.951200 0.853100
17.992500 0.883100
18.033800 0.977500
18.075100 0.951500
18.116300 1.018900
18.157600 1.036600
18.198900 0.943700
18.240200 0.941200
18.281500 0.915600
18.322700 0.905900
18.364000 0.895000
18.405300 0.892000
18.446600 0.894300
18.487900 0.898100
18.529100 0.892800
18.570400 0.877900
18.611700 0.885700
18.653000 0.913400
18.694300 0.949600
18.735600 0.980800
18.776800 1.005400
18.818100 1.038900
18.859400 1.107600
18.900700 1.096600
18.942000 1.119600
18.983200 0.994800
19.024500 0.923300
19.065800 0.918800
19.107100 0.955200
19.148400 0.979800
19.189700 0.985400
19.230900 0.951000
19.272200 0.945300
19.313500 0.929800
19.354800 0.931900
19.396100 0.921700
19.437300 0.917300
19.478600 0.928000
19.519900 0.963000
19.561200 0.960600
19.602500 0.921800
19.643700 0.925500
19.685000 0.923300
19.726300 0.905100
19.767600 0.882500
19.808900 0.887800
19.850200 0.948000
19.891400 0.876400
19.932700 0.839600
19.974000 0.819600
20.015300 0.811900
20.056600 0.804400
20.097800 0.806600
20.139100 0.803200
20.180400 0.888500
20.221700 0.927300
20.263000 0.919500
20.304300 0.956500
20.345500 1.012700
20.386800 1.009600
20.428100 0.989400
20.469400 0.989400
20.510700 1.008300
20.551900 1.035600
20.593200 1.012200
20.634500 0.995100
20.675800 1.010200
20.717100 1.010600
20.758300 0.996100
20.799600 0.981100
20.840900 0.963900
20.882200 0.968700
20.923500 0.961700
20.964800 0.941000
21.006000 0.916300
21.047300 0.894800
21.088600 0.882900
21.129900 0.880400
21.171200 0.888900
21.212400 0.915700
21.253700 0.939200
21.295000 0.956600
21.336300 0.968200
21.377600 1.036900
21.418800 1.024800
21.460100 0.986700
21.501400 0.986500
21.542700 1.048000
21.584000 1.049100
21.625300 1.031000
21.666500 1.008600
21.707800 0.975100
21.749100 0.926500
21.790400 0.918400
21.831700 0.907800
21.872900 0.904100
21.914200 0.897700
21.955500 0.883900
21.996800 0.863200
22.038100 0.842900
22.079400 0.825600
22.120600 0.819100
22.161900 0.817100
22.203200 0.809400
22.244500 0.795600
22.285800 0.786600
22.327000 0.783000
22.368300 0.780900
22.409600 0.781600
22.450900 0.784600
22.492200 0.787500
22.533400 0.787000
22.574700 0.780700
22.616000 0.770800
22.657300 0.759900
22.698600 0.748200
22.739900 0.738200
22.781100 0.733800
22.822400 0.732200
22.863700 0.728600
22.905000 0.727400
22.946300 0.736400
22.987500 0.747800
23.028800 0.762900
23.070100 0.834700
23.111400 0.736100
23.152700 0.748600
23.194000 0.728700
23.235200 0.722900
23.276500 0.730100
23.317800 0.756400
23.359100 0.838200
23.400400 0.877600
23.441600 0.857200
23.482900 0.839100
23.524200 0.824500
23.565500 0.802900
23.606800 0.817400
23.648000 0.849700
23.689300 0.880000
23.730600 0.906300
23.771900 0.934700
23.813200 0.965300
23.854500 0.985500
23.895700 1.020900
23.937000 1.110700
23.978300 1.166000
24.019600 1.203200
24.060900 1.154900
24.102100 1.165700
24.143400 1.195600
24.184700 1.216600
24.226000 1.284300
24.267300 1.198900
24.308600 1.180800
24.349800 1.204700
24.391100 1.261700
24.432400 1.282600
24.473700 1.197100
24.515000 1.162700
24.556200 1.155000
24.597500 1.150500
24.638800 1.128600
24.680100 1.082100
24.721400 1.049200
24.762600 1.034800
24.803900 1.022200
24.845200 1.016100
24.886500 1.010400
24.927800 1.166500
24.969100 1.064900
25.010300 1.080500
25.051600 1.084100
25.092900 1.032700
25.134200 0.999700
25.175500 1.050200
25.216700 1.133700
25.258000 1.169300
25.299300 1.218100
25.340600 1.250700
25.381900 1.296000
25.423100 1.307200
25.464400 1.321000
25.505700 1.246600
25.547000 1.141100
25.588300 1.105600
25.629600 1.131100
25.670800 1.114700
25.712100 1.123100
25.753400 1.139200
25.794700 1.141800
25.836000 1.094800
25.877200 1.040000
25.918500 1.001400
25.959800 0.989000
26.001100 1.015000
26.042400 1.021400
26.083700 1.060900
26.124900 1.051600
26.166200 1.041500
26.207500 1.031000
26.248800 1.053500
26.290100 0.972700
26.331300 0.916400
26.372600 0.891100
26.413900 0.880900
26.455200 0.857700
26.496500 0.818000
26.537700 0.857100
26.579000 0.919000
26.620300 1.047000
26.661600 1.115300
26.702900 1.196100
26.744200 1.315500
26.785400 1.443500
26.826700 1.485100
26.868000 1.481600
26.909300 1.512800
26.950600 1.480700
26.991800 1.366200
27.033100 1.367100
27.074400 1.508500
27.115700 1.460400
27.157000 1.451800
27.198300 1.457700
27.239500 1.462800
27.280800 1.421100
27.322100 1.378400
27.363400 1.339800
27.404700 1.330800
27.445900 1.307400
27.487200 1.245700
27.528500 1.194300
27.569800 1.156000
27.611100 1.157900
27.652300 1.206400
27.693600 1.216400
27.734900 1.222400
27.776200 1.226000
27.817500 1.160200
27.858800 1.181100
27.900000 1.238500
27.941300 1.299900
27.982600 1.287100
28.023900 1.243300
28.065200 1.197500
28.106400 1.085000
28.147700 1.000400
28.189000 0.977600
28.230300 0.958200
28.271600 0.946400
28.312800 0.934600
28.354100 0.927800
28.395400 0.932600
28.436700 0.945300
28.478000 0.960400
28.519300 0.974200
28.560500 0.989700
28.601800 1.035800
28.643100 0.974500
28.684400 0.992600
28.725700 1.063900
28.766900 1.117000
28.808200 1.131500
28.849500 1.155000
28.890800 1.167500
28.932100 1.194700
28.973400 1.219200
29.014600 1.283300
29.055900 1.475300
29.097200 1.605900
29.138500 1.461500
29.179800 1.434200
29.221000 1.445900
29.262300 1.453600
29.303600 1.392000
29.344900 1.360100
29.386200 1.325500
29.427400 1.291200
29.468700 1.218500
29.510000 1.135900
29.551300 1.127200
29.592600 1.178000
29.633900 1.306900
29.675100 1.522200
29.716400 1.209100
29.757700 1.030800
29.799000 1.002900
29.840300 0.976700
29.881500 0.914600
29.922800 0.883700
29.964100 0.854400
30.005400 0.836800
30.046700 0.836100
30.088000 0.844600
30.129200 0.889600
30.170500 0.988700
30.211800 1.160300
30.253100 1.242000
30.294400 1.303000
30.335600 1.266400
30.376900 1.186400
30.418200 1.231800
30.459500 1.159200
30.500800 1.134200
30.542000 1.151400
30.583300 1.211200
30.624600 1.267300
30.665900 1.322000
30.707200 1.325400
30.748500 1.327300
30.789700 1.311400
30.831000 1.332500
30.872300 1.320200
30.913600 1.257800
30.954900 1.235600
30.996100 1.273500
31.037400 1.260800
31.078700 1.286600
31.120000 1.269200
31.161300 1.213600
31.202600 1.165800
31.243800 1.165100
31.285100 1.165400
31.326400 1.171100
31.367700 1.236600
31.409000 1.228300
31.450200 1.216100
31.491500 1.221300
31.532800 1.193300
31.574100 1.219000
31.615400 1.230800
31.656600 1.235900
31.697900 1.300900
31.739200 1.452500
31.780500 1.493700
31.821800 1.483200
31.863100 1.465100
31.904300 1.456500
31.945600 1.436600
31.986900 1.441700
32.028200 1.511600
32.069500 1.636700
32.110700 1.618500
32.152000 1.590400
32.193300 1.608800
32.234600 1.546100
32.275900 1.502200
32.317100 1.522900
32.358400 1.555800
32.399700 1.629200
32.441000 1.772500
32.482300 1.967800
32.523600 2.209500
32.564800 2.778900
32.606100 4.743700
32.647400 3.892400
32.688700 2.902400
32.730000 2.315900
32.771200 1.929700
32.812500 1.726800
32.853800 1.583600
32.895100 1.446500
32.936400 1.341600
32.977700 1.471700
33.018900 1.443300
33.060200 1.298500
33.101500 1.177100
33.142800 1.130500
33.184100 1.125100
33.225300 1.157400
33.266600 1.244300
33.307900 1.263100
33.349200 1.265700
33.390500 1.293400
33.431700 1.225900
33.473000 1.137500
33.514300 1.140400
33.555600 1.183500
33.596900 1.206800
33.638200 1.215300
33.679400 1.237700
33.720700 1.142900
33.762000 1.085500
33.803300 1.108900
33.844600 1.222300
33.885800 1.201100
33.927100 1.111200
33.968400 1.037300
34.009700 0.981500
34.051000 0.953000
34.092300 0.958300
34.133500 1.045500
34.174800 1.058200
34.216100 1.126200
34.257400 1.172300
34.298700 1.174000
34.339900 1.156600
34.381200 1.136600
34.422500 1.104400
34.463800 1.068100
34.505100 1.073200
34.546300 1.082300
34.587600 1.091100
34.628900 1.152600
34.670200 1.174300
34.711500 1.204200
34.752800 1.256200
34.794000 1.248400
34.835300 1.238700
34.876600 1.223500
34.917900 1.213100
34.959200 1.199000
35.000400 1.202400
35.041700 1.214400
35.083000 1.228300
35.124300 1.235100
35.165600 1.237100
35.206800 1.246500
35.248100 1.233000
35.289400 1.214700
35.330700 1.259700
35.372000 1.228700
35.413300 1.193000
35.454500 1.145300
35.495800 1.115200
35.537100 1.083300
35.578400 1.051700
35.619700 1.047200
35.660900 1.067000
35.702200 1.111000
35.743500 1.043900
35.784800 1.031800
35.826100 1.044600
35.867400 1.049900
35.908600 1.105400
35.949900 1.235900
35.991200 1.295100
36.032500 1.314800
36.073800 1.270300
36.115000 1.370700
36.156300 1.383700
36.197600 1.420300
36.238900 1.464500
36.280200 1.463000
36.321400 1.387500
36.362700 1.438000
36.404000 1.625900
36.445300 1.663600
36.486600 1.530400
36.527900 1.399200
36.569100 1.337200
36.610400 1.277500
36.651700 1.196100
36.693000 1.211800
36.734300 1.203100
36.775500 1.175600
36.816800 1.097200
36.858100 1.027400
36.899400 0.994900
36.940700 0.980000
36.982000 0.990300
37.023200 1.059300
37.064500 1.070300
37.105800 1.133400
37.147100 1.124100
37.188400 1.132700
37.229600 1.133000
37.270900 1.137200
37.312200 1.156800
37.353500 1.165900
37.394800 1.171000
37.436000 1.186500
37.477300 1.184100
37.518600 1.192000
37.559900 1.188900
37.601200 1.240600
37.642500 1.226400
37.683700 1.254300
37.725000 1.267000
37.766300 1.283500
37.807600 1.276000
37.848900 1.268500
37.890100 1.270000
37.931400 1.264200
37.972700 1.237400
38.014000 1.139900
38.055300 1.105700
38.096600 1.121900
38.137800 1.132600
38.179100 1.091400
38.220400 1.052500
38.261700 1.032300
38.303000 1.032400
38.344200 1.044800
38.385500 1.095700
38.426800 1.082700
38.468100 1.075000
38.509400 1.076400
38.550600 0.978300
38.591900 0.855100
38.633200 0.752200
38.674500 0.639400
38.715800 0.453200
38.757100 0.337100
38.798300 0.277300
38.839600 0.239100
38.880900 0.207600
38.922200 0.183100
38.963500 0.165900
39.004700 0.150900
39.046000 0.139200
39.087300 0.128100
39.128600 0.099400
39.169900 0.087500
39.211100 0.076900
39.252400 0.067600
39.293700 0.059200
39.335000 0.051200
39.376300 0.044300
39.417600 0.039400
39.458800 0.036300
39.500100 0.036500
39.541400 0.041200
39.582700 0.050900
39.624000 0.018800
39.665200 0.018200
39.706500 0.018500
39.747800 0.018500
39.789100 0.018100
39.830400 0.018200
39.871700 0.018700
39.912900 0.018900
39.954200 0.018900
39.995500 0.018500
40.036800 0.017900
40.078100 0.017100
40.119300 0.015900
40.160600 0.013800
40.201900 0.009400
40.243200 0.005900
40.284500 0.003200
40.325700 0.001300
40.367000 0.000200
40.408300 0.000000
40.449600 0.000000
40.490900 0.000000
40.532200 0.000000
40.573400 0.000000
40.614700 0.000000
40.656000 0.000000
40.697300 0.000000
40.738600 0.000000
40.779800 0.000000
40.821100 0.000000
40.862400 0.000000
40.903700 0.000000
40.945000 0.000000
40.986300 0.000000
41.027500 0.000000
41.068800 0.000000
41.110100 0.000000
41.151400 0.000000
41.192700 0.000000
41.233900 0.000000
41.275200 0.000000
41.316500 0.000000
41.357800 0.000000
41.399100 0.000000
41.440300 0.000000
41.481600 0.000000
41.522900 0.000000
41.564200 0.000000
41.605500 0.000000
41.646800 0.000000
41.688000 0.000000
41.729300 0.000000
41.770600 0.000000
41.811900 0.000000
41.853200 0.000000
41.894400 0.000000
41.935700 0.000000
41.977000 0.000000
42.018300 0.000000
42.059600 0.000000
42.100800 0.000000
42.142100 0.000000
42.183400 0.000000
42.224700 0.000000
42.266000 0.000000
42.307300 0.000000
42.348500 0.000000
42.389800 0.000000
42.431100 0.000000
42.472400 0.000000
42.513700 0.000000
42.554900 0.000000
42.596200 0.000000
42.637500 0.000000
42.678800 0.000000
42.720100 0.000000
42.761400 0.000000
42.802600 0.000000
42.843900 0.000000
42.885200 0.000000
42.926500 0.000000
42.967800 0.000000
43.009000 0.000000
43.050300 0.000000
43.091600 0.000000
43.132900 0.000000
43.174200 0.000000
43.215400 0.000000
43.256700 0.000000
43.298000 0.000000
43.339300 0.000000
43.380600 0.000000
43.421900 0.000000
43.463100 0.000000
43.504400 0.000000
43.545700 0.000000
43.587000 0.000000
43.628300 0.000000
43.669500 0.000000
43.710800 0.000000
43.752100 0.000000
43.793400 0.000000
43.834700 0.000000
43.876000 0.000000
43.917200 0.000000
43.958500 0.000000
43.999800 0.000000
44.041100 0.000000
44.082400 0.000000
44.123600 0.000000
44.164900 0.000000
44.206200 0.000000
e
