set title 'mp-1187719 - Density of States'
set xlabel 'Energy (eV)'
set ylabel 'DOS (states/eV)'
set grid
set xrange [-10:10]
set yrange [0:10.379]
set xzeroaxis lt -1
set terminal png size 800,600
set output 'mp-1187719_dos_gnuplot.png'
plot '-' using 1:2 with lines title 'DOS'
-36.624800 0.000000
-36.584100 0.000000
-36.543300 0.000000
-36.502500 0.000000
-36.461700 0.000000
-36.421000 0.000000
-36.380200 0.000000
-36.339400 0.000000
-36.298600 0.000000
-36.257900 0.000000
-36.217100 0.000000
-36.176300 0.000000
-36.135500 0.000000
-36.094800 0.000000
-36.054000 0.000000
-36.013200 0.000000
-35.972400 0.000000
-35.931700 0.000000
-35.890900 0.000000
-35.850100 0.000000
-35.809300 0.000000
-35.768500 0.000000
-35.727800 0.000000
-35.687000 0.000000
-35.646200 0.000000
-35.605400 0.000000
-35.564700 0.000000
-35.523900 0.000000
-35.483100 0.000000
-35.442300 0.000000
-35.401600 0.000000
-35.360800 0.000000
-35.320000 0.000000
-35.279200 0.000000
-35.238500 0.000000
-35.197700 0.000000
-35.156900 0.000000
-35.116100 0.000000
-35.075400 0.000000
-35.034600 0.000000
-34.993800 0.000000
-34.953000 0.000000
-34.912300 0.000000
-34.871500 0.000000
-34.830700 0.000000
-34.789900 0.000000
-34.749200 0.000000
-34.708400 0.000000
-34.667600 0.000000
-34.626800 0.000000
-34.586100 0.000000
-34.545300 0.000000
-34.504500 0.000000
-34.463700 0.000000
-34.423000 0.000000
-34.382200 0.000000
-34.341400 0.000000
-34.300600 0.000000
-34.259800 0.000000
-34.219100 0.000000
-34.178300 0.000000
-34.137500 0.000000
-34.096700 0.000000
-34.056000 0.000000
-34.015200 0.000000
-33.974400 0.000000
-33.933600 0.000000
-33.892900 0.000000
-33.852100 0.000000
-33.811300 0.000000
-33.770500 0.000000
-33.729800 0.000000
-33.689000 0.000000
-33.648200 0.000000
-33.607400 0.000000
-33.566700 0.000000
-33.525900 0.000000
-33.485100 0.000000
-33.444300 0.000000
-33.403600 0.000000
-33.362800 0.000000
-33.322000 0.000000
-33.281200 0.000000
-33.240500 0.000000
-33.199700 0.000000
-33.158900 0.000000
-33.118100 0.000000
-33.077400 0.000000
-33.036600 0.000000
-32.995800 0.000000
-32.955000 0.001000
-32.914200 0.053900
-32.873500 0.954000
-32.832700 6.031400
-32.791900 15.255300
-32.751100 20.309700
-32.710400 20.576900
-32.669600 17.598400
-32.628800 13.558600
-32.588000 11.650000
-32.547300 13.835700
-32.506500 17.619300
-32.465700 17.851400
-32.424900 14.049700
-32.384200 12.485500
-32.343400 10.108500
-32.302600 5.844600
-32.261800 7.933900
-32.221100 9.897100
-32.180300 4.433800
-32.139500 0.641500
-32.098700 0.028900
-32.058000 0.000400
-32.017200 0.000000
-31.976400 0.000000
-31.935600 0.000000
-31.894900 0.000000
-31.854100 0.000000
-31.813300 0.000000
-31.772500 0.000000
-31.731800 0.000000
-31.691000 0.000000
-31.650200 0.000000
-31.609400 0.000000
-31.568700 0.000000
-31.527900 0.000000
-31.487100 0.000000
-31.446300 0.000000
-31.405500 0.000000
-31.364800 0.000000
-31.324000 0.000000
-31.283200 0.000000
-31.242400 0.000000
-31.201700 0.000000
-31.160900 0.000000
-31.120100 0.000000
-31.079300 0.000000
-31.038600 0.000000
-30.997800 0.000000
-30.957000 0.000000
-30.916200 0.000000
-30.875500 0.000000
-30.834700 0.000000
-30.793900 0.000000
-30.753100 0.000000
-30.712400 0.000000
-30.671600 0.000000
-30.630800 0.000000
-30.590000 0.000000
-30.549300 0.000000
-30.508500 0.000000
-30.467700 0.000000
-30.426900 0.000000
-30.386200 0.000000
-30.345400 0.000000
-30.304600 0.000000
-30.263800 0.000000
-30.223100 0.000000
-30.182300 0.000000
-30.141500 0.000000
-30.100700 0.000000
-30.060000 0.000000
-30.019200 0.000000
-29.978400 0.000000
-29.937600 0.000000
-29.896800 0.000000
-29.856100 0.000000
-29.815300 0.000000
-29.774500 0.000000
-29.733700 0.000000
-29.693000 0.000000
-29.652200 0.000000
-29.611400 0.000000
-29.570600 0.000000
-29.529900 0.000000
-29.489100 0.000000
-29.448300 0.000000
-29.407500 0.000000
-29.366800 0.000000
-29.326000 0.000000
-29.285200 0.000000
-29.244400 0.000000
-29.203700 0.000000
-29.162900 0.000000
-29.122100 0.000000
-29.081300 0.000000
-29.040600 0.000000
-28.999800 0.000000
-28.959000 0.000000
-28.918200 0.000000
-28.877500 0.000000
-28.836700 0.000000
-28.795900 0.000000
-28.755100 0.000000
-28.714400 0.000000
-28.673600 0.000000
-28.632800 0.000000
-28.592000 0.000000
-28.551200 0.000000
-28.510500 0.000000
-28.469700 0.000000
-28.428900 0.000000
-28.388100 0.000000
-28.347400 0.000000
-28.306600 0.000000
-28.265800 0.000000
-28.225000 0.000000
-28.184300 0.000000
-28.143500 0.000000
-28.102700 0.000000
-28.061900 0.000000
-28.021200 0.000000
-27.980400 0.000000
-27.939600 0.000000
-27.898800 0.000000
-27.858100 0.000000
-27.817300 0.000000
-27.776500 0.000000
-27.735700 0.000000
-27.695000 0.000000
-27.654200 0.000000
-27.613400 0.000000
-27.572600 0.000000
-27.531900 0.000000
-27.491100 0.000000
-27.450300 0.000000
-27.409500 0.000000
-27.368800 0.000000
-27.328000 0.000000
-27.287200 0.000000
-27.246400 0.000000
-27.205700 0.000000
-27.164900 0.000000
-27.124100 0.000000
-27.083300 0.000000
-27.042500 0.000000
-27.001800 0.000000
-26.961000 0.000000
-26.920200 0.000000
-26.879400 0.000000
-26.838700 0.000000
-26.797900 0.000000
-26.757100 0.000000
-26.716300 0.000000
-26.675600 0.000000
-26.634800 0.000000
-26.594000 0.000000
-26.553200 0.000000
-26.512500 0.000000
-26.471700 0.000000
-26.430900 0.000000
-26.390100 0.000000
-26.349400 0.000000
-26.308600 0.000000
-26.267800 0.000000
-26.227000 0.000000
-26.186300 0.000000
-26.145500 0.000000
-26.104700 0.000000
-26.063900 0.000000
-26.023200 0.000000
-25.982400 0.000000
-25.941600 0.000000
-25.900800 0.000000
-25.860100 0.000000
-25.819300 0.000000
-25.778500 0.000000
-25.737700 0.000000
-25.697000 0.000000
-25.656200 0.000000
-25.615400 0.000000
-25.574600 0.000000
-25.533800 0.000000
-25.493100 0.000000
-25.452300 0.000000
-25.411500 0.000000
-25.370700 0.000000
-25.330000 0.000000
-25.289200 0.000000
-25.248400 0.000000
-25.207600 0.000000
-25.166900 0.000000
-25.126100 0.000000
-25.085300 0.000000
-25.044500 0.000000
-25.003800 0.000000
-24.963000 0.000000
-24.922200 0.000000
-24.881400 0.000000
-24.840700 0.000000
-24.799900 0.000000
-24.759100 0.000000
-24.718300 0.000000
-24.677600 0.000000
-24.636800 0.000000
-24.596000 0.000000
-24.555200 0.000000
-24.514500 0.000000
-24.473700 0.000000
-24.432900 0.000000
-24.392100 0.000000
-24.351400 0.000000
-24.310600 0.000000
-24.269800 0.000000
-24.229000 0.000000
-24.188200 0.000000
-24.147500 0.000000
-24.106700 0.000000
-24.065900 0.000000
-24.025100 0.000000
-23.984400 0.000000
-23.943600 0.000000
-23.902800 0.000000
-23.862000 0.000000
-23.821300 0.000000
-23.780500 0.000000
-23.739700 0.000000
-23.698900 0.000000
-23.658200 0.000000
-23.617400 0.000000
-23.576600 0.000000
-23.535800 0.000000
-23.495100 0.000000
-23.454300 0.000000
-23.413500 0.000000
-23.372700 0.000000
-23.332000 0.000000
-23.291200 0.000000
-23.250400 0.000000
-23.209600 0.000000
-23.168900 0.000000
-23.128100 0.000000
-23.087300 0.000000
-23.046500 0.000000
-23.005800 0.000000
-22.965000 0.000000
-22.924200 0.000000
-22.883400 0.000000
-22.842700 0.000000
-22.801900 0.000000
-22.761100 0.000000
-22.720300 0.000000
-22.679500 0.000000
-22.638800 0.000000
-22.598000 0.000000
-22.557200 0.000000
-22.516400 0.000000
-22.475700 0.000000
-22.434900 0.000000
-22.394100 0.000000
-22.353300 0.000000
-22.312600 0.000000
-22.271800 0.000000
-22.231000 0.000000
-22.190200 0.000000
-22.149500 0.000000
-22.108700 0.000000
-22.067900 0.000000
-22.027100 0.000000
-21.986400 0.000000
-21.945600 0.000000
-21.904800 0.000000
-21.864000 0.000000
-21.823300 0.000000
-21.782500 0.000000
-21.741700 0.000000
-21.700900 0.000000
-21.660200 0.000000
-21.619400 0.000000
-21.578600 0.000000
-21.537800 0.000000
-21.497100 0.000000
-21.456300 0.000000
-21.415500 0.000000
-21.374700 0.000000
-21.334000 0.000000
-21.293200 0.000000
-21.252400 0.000000
-21.211600 0.000000
-21.170800 0.000000
-21.130100 0.000000
-21.089300 0.000000
-21.048500 0.000000
-21.007700 0.000000
-20.967000 0.000000
-20.926200 0.000000
-20.885400 0.000000
-20.844600 0.000000
-20.803900 0.000000
-20.763100 0.000000
-20.722300 0.000000
-20.681500 0.000000
-20.640800 0.000000
-20.600000 0.000000
-20.559200 0.000000
-20.518400 0.000000
-20.477700 0.000000
-20.436900 0.000000
-20.396100 0.000000
-20.355300 0.000000
-20.314600 0.000000
-20.273800 0.000000
-20.233000 0.000000
-20.192200 0.000000
-20.151500 0.000000
-20.110700 0.000000
-20.069900 0.000000
-20.029100 0.000000
-19.988400 0.000000
-19.947600 0.000000
-19.906800 0.000000
-19.866000 0.000000
-19.825200 0.000000
-19.784500 0.000000
-19.743700 0.000000
-19.702900 0.000000
-19.662100 0.000000
-19.621400 0.000000
-19.580600 0.000000
-19.539800 0.000000
-19.499000 0.000000
-19.458300 0.000000
-19.417500 0.000000
-19.376700 0.000000
-19.335900 0.000000
-19.295200 0.000000
-19.254400 0.000000
-19.213600 0.000000
-19.172800 0.000000
-19.132100 0.000000
-19.091300 0.000000
-19.050500 0.000000
-19.009700 0.000000
-18.969000 0.000000
-18.928200 0.000000
-18.887400 0.000000
-18.846600 0.000000
-18.805900 0.000000
-18.765100 0.000000
-18.724300 0.000000
-18.683500 0.000000
-18.642800 0.000000
-18.602000 0.000000
-18.561200 0.000000
-18.520400 0.000000
-18.479700 0.000000
-18.438900 0.000000
-18.398100 0.000000
-18.357300 0.000000
-18.316500 0.000000
-18.275800 0.000000
-18.235000 0.000000
-18.194200 0.000000
-18.153400 0.000000
-18.112700 0.000000
-18.071900 0.000000
-18.031100 0.000000
-17.990300 0.000000
-17.949600 0.000000
-17.908800 0.000000
-17.868000 0.000000
-17.827200 0.000000
-17.786500 0.000000
-17.745700 0.000000
-17.704900 0.000000
-17.664100 0.000000
-17.623400 0.000000
-17.582600 0.000000
-17.541800 0.000000
-17.501000 0.000000
-17.460300 0.000000
-17.419500 0.000000
-17.378700 0.000000
-17.337900 0.000000
-17.297200 0.000000
-17.256400 0.000000
-17.215600 0.000000
-17.174800 0.000000
-17.134100 0.000000
-17.093300 0.000000
-17.052500 0.000000
-17.011700 0.000000
-16.971000 0.000000
-16.930200 0.000000
-16.889400 0.000000
-16.848600 0.000000
-16.807800 0.000000
-16.767100 0.000000
-16.726300 0.000000
-16.685500 0.000000
-16.644700 0.000000
-16.604000 0.000000
-16.563200 0.000000
-16.522400 0.000000
-16.481600 0.000000
-16.440900 0.000000
-16.400100 0.000000
-16.359300 0.000000
-16.318500 0.000000
-16.277800 0.000000
-16.237000 0.000000
-16.196200 0.000000
-16.155400 0.000000
-16.114700 0.000000
-16.073900 0.000000
-16.033100 0.000000
-15.992300 0.000000
-15.951600 0.000000
-15.910800 0.000000
-15.870000 0.000000
-15.829200 0.000000
-15.788500 0.000000
-15.747700 0.000000
-15.706900 0.000000
-15.666100 0.000000
-15.625400 0.000000
-15.584600 0.000000
-15.543800 0.000000
-15.503000 0.000000
-15.462200 0.000000
-15.421500 0.000000
-15.380700 0.000000
-15.339900 0.000000
-15.299100 0.000000
-15.258400 0.000000
-15.217600 0.000000
-15.176800 0.000000
-15.136000 0.000000
-15.095300 0.000000
-15.054500 0.000000
-15.013700 0.000000
-14.972900 0.000000
-14.932200 0.000000
-14.891400 0.000000
-14.850600 0.000000
-14.809800 0.000000
-14.769100 0.000000
-14.728300 0.000000
-14.687500 0.000000
-14.646700 0.000000
-14.606000 0.000000
-14.565200 0.000000
-14.524400 0.000000
-14.483600 0.000000
-14.442900 0.000000
-14.402100 0.000000
-14.361300 0.000000
-14.320500 0.000000
-14.279800 0.000000
-14.239000 0.000000
-14.198200 0.000000
-14.157400 0.000000
-14.116700 0.000000
-14.075900 0.000000
-14.035100 0.000000
-13.994300 0.000000
-13.953500 0.000000
-13.912800 0.000000
-13.872000 0.000000
-13.831200 0.000000
-13.790400 0.000000
-13.749700 0.000000
-13.708900 0.000000
-13.668100 0.000000
-13.627300 0.000000
-13.586600 0.000000
-13.545800 0.000000
-13.505000 0.000000
-13.464200 0.000000
-13.423500 0.000000
-13.382700 0.000000
-13.341900 0.000000
-13.301100 0.000000
-13.260400 0.000000
-13.219600 0.000000
-13.178800 0.000000
-13.138000 0.000000
-13.097300 0.000000
-13.056500 0.000000
-13.015700 0.000000
-12.974900 0.000000
-12.934200 0.000000
-12.893400 0.000000
-12.852600 0.000000
-12.811800 0.000000
-12.771100 0.000000
-12.730300 0.000000
-12.689500 0.000000
-12.648700 0.000000
-12.608000 0.000000
-12.567200 0.000000
-12.526400 0.000000
-12.485600 0.000000
-12.444800 0.000000
-12.404100 0.000000
-12.363300 0.000000
-12.322500 0.000000
-12.281700 0.000000
-12.241000 0.000000
-12.200200 0.000000
-12.159400 0.000000
-12.118600 0.000000
-12.077900 0.000000
-12.037100 0.000000
-11.996300 0.000000
-11.955500 0.000000
-11.914800 0.000000
-11.874000 0.000000
-11.833200 0.000000
-11.792400 0.000000
-11.751700 0.000000
-11.710900 0.000000
-11.670100 0.000000
-11.629300 0.000000
-11.588600 0.000000
-11.547800 0.000000
-11.507000 0.000000
-11.466200 0.000000
-11.425500 0.000000
-11.384700 0.000000
-11.343900 0.000000
-11.303100 0.000000
-11.262400 0.000000
-11.221600 0.000000
-11.180800 0.000000
-11.140000 0.000000
-11.099200 0.000000
-11.058500 0.000000
-11.017700 0.000000
-10.976900 0.000000
-10.936100 0.000000
-10.895400 0.000000
-10.854600 0.000000
-10.813800 0.000000
-10.773000 0.000000
-10.732300 0.000000
-10.691500 0.000000
-10.650700 0.000000
-10.609900 0.000000
-10.569200 0.000000
-10.528400 0.000000
-10.487600 0.000000
-10.446800 0.000000
-10.406100 0.000000
-10.365300 0.000000
-10.324500 0.000000
-10.283700 0.000000
-10.243000 0.000000
-10.202200 0.000000
-10.161400 0.000000
-10.120600 0.000000
-10.079900 0.000000
-10.039100 0.000000
-9.998300 0.000000
-9.957500 0.000000
-9.916800 0.000000
-9.876000 0.000000
-9.835200 0.000000
-9.794400 0.000000
-9.753700 0.000000
-9.712900 0.000000
-9.672100 0.000000
-9.631300 0.000000
-9.590500 0.000000
-9.549800 0.000000
-9.509000 0.000000
-9.468200 0.000000
-9.427400 0.000000
-9.386700 0.000000
-9.345900 0.000000
-9.305100 0.000000
-9.264300 0.000000
-9.223600 0.000000
-9.182800 0.000000
-9.142000 0.000000
-9.101200 0.000000
-9.060500 0.000000
-9.019700 0.000000
-8.978900 0.000000
-8.938100 0.000000
-8.897400 0.000000
-8.856600 0.000000
-8.815800 0.000000
-8.775000 0.000000
-8.734300 0.000000
-8.693500 0.000000
-8.652700 0.000000
-8.611900 0.000000
-8.571200 0.000000
-8.530400 0.000000
-8.489600 0.000000
-8.448800 0.000000
-8.408100 0.000000
-8.367300 0.000000
-8.326500 0.000000
-8.285700 0.000000
-8.245000 0.000000
-8.204200 0.000000
-8.163400 0.000000
-8.122600 0.000000
-8.081800 0.000000
-8.041100 0.000000
-8.000300 0.000000
-7.959500 0.000000
-7.918700 0.000000
-7.878000 0.000000
-7.837200 0.000000
-7.796400 0.000000
-7.755600 0.000000
-7.714900 0.000000
-7.674100 0.000000
-7.633300 0.000000
-7.592500 0.000000
-7.551800 0.000000
-7.511000 0.000000
-7.470200 0.000000
-7.429400 0.000000
-7.388700 0.000000
-7.347900 0.000000
-7.307100 0.000000
-7.266300 0.000000
-7.225600 0.000000
-7.184800 0.000000
-7.144000 0.000000
-7.103200 0.000000
-7.062500 0.000000
-7.021700 0.000000
-6.980900 0.000000
-6.940100 0.000000
-6.899400 0.000000
-6.858600 0.000000
-6.817800 0.000000
-6.777000 0.000000
-6.736200 0.000000
-6.695500 0.000000
-6.654700 0.000000
-6.613900 0.000000
-6.573100 0.000000
-6.532400 0.000000
-6.491600 0.000000
-6.450800 0.000000
-6.410000 0.000000
-6.369300 0.000000
-6.328500 0.000000
-6.287700 0.000000
-6.246900 0.000000
-6.206200 0.000000
-6.165400 0.000000
-6.124600 0.000000
-6.083800 0.000000
-6.043100 0.000000
-6.002300 0.000000
-5.961500 0.000000
-5.920700 0.000000
-5.880000 0.000000
-5.839200 0.000000
-5.798400 0.000000
-5.757600 0.000000
-5.716900 0.000000
-5.676100 0.000000
-5.635300 0.000000
-5.594500 0.000000
-5.553800 0.000000
-5.513000 0.000000
-5.472200 0.000000
-5.431400 0.000000
-5.390700 0.000000
-5.349900 0.000000
-5.309100 0.000000
-5.268300 0.000000
-5.227500 0.000000
-5.186800 0.000000
-5.146000 0.000000
-5.105200 0.000000
-5.064400 0.000000
-5.023700 0.000000
-4.982900 0.000000
-4.942100 0.000000
-4.901300 0.000000
-4.860600 0.000000
-4.819800 0.000000
-4.779000 0.000000
-4.738200 0.000000
-4.697500 0.000000
-4.656700 0.000000
-4.615900 0.000000
-4.575100 0.000000
-4.534400 0.000000
-4.493600 0.000000
-4.452800 0.000000
-4.412000 0.000000
-4.371300 0.000000
-4.330500 0.000000
-4.289700 0.000000
-4.248900 0.000000
-4.208200 0.000000
-4.167400 0.000000
-4.126600 0.000000
-4.085800 0.000000
-4.045100 0.000000
-4.004300 0.000000
-3.963500 0.000000
-3.922700 0.000000
-3.882000 0.000000
-3.841200 0.000000
-3.800400 0.000000
-3.759600 0.000000
-3.718800 0.000000
-3.678100 0.000000
-3.637300 0.000000
-3.596500 0.000000
-3.555700 0.000000
-3.515000 0.000000
-3.474200 0.000000
-3.433400 0.000000
-3.392600 0.000000
-3.351900 0.000000
-3.311100 0.000000
-3.270300 0.000000
-3.229500 0.000000
-3.188800 0.000000
-3.148000 0.000000
-3.107200 0.000000
-3.066400 0.000000
-3.025700 0.000000
-2.984900 0.000000
-2.944100 0.000000
-2.903300 0.000000
-2.862600 0.000000
-2.821800 0.000000
-2.781000 0.000000
-2.740200 0.000000
-2.699500 0.000000
-2.658700 0.000000
-2.617900 0.000000
-2.577100 0.000000
-2.536400 0.000000
-2.495600 0.000000
-2.454800 0.000000
-2.414000 0.000000
-2.373200 0.000000
-2.332500 0.000000
-2.291700 0.000000
-2.250900 0.000000
-2.210100 0.000000
-2.169400 0.000000
-2.128600 0.000000
-2.087800 0.000200
-2.047000 0.002200
-2.006300 0.010400
-1.965500 0.021400
-1.924700 0.032500
-1.883900 0.053800
-1.843200 0.100200
-1.802400 0.089200
-1.761600 0.030300
-1.720800 0.029900
-1.680100 0.099100
-1.639300 0.150400
-1.598500 0.136900
-1.557700 0.141900
-1.517000 0.165300
-1.476200 0.087800
-1.435400 0.038400
-1.394600 0.082600
-1.353900 0.156100
-1.313100 0.205900
-1.272300 0.216300
-1.231500 0.253500
-1.190800 0.201000
-1.150000 0.086900
-1.109200 0.101300
-1.068400 0.209600
-1.027700 0.312100
-0.986900 0.309600
-0.946100 0.238500
-0.905300 0.213800
-0.864500 0.261600
-0.823800 0.364500
-0.783000 0.516500
-0.742200 0.757500
-0.701400 0.896900
-0.660700 0.993700
-0.619900 1.193600
-0.579100 1.945900
-0.538300 3.094100
-0.497600 4.325100
-0.456800 5.295300
-0.416000 5.418000
-0.375200 5.803000
-0.334500 6.340600
-0.293700 6.806200
-0.252900 7.545600
-0.212100 7.888100
-0.171400 8.140500
-0.130600 8.945600
-0.089800 9.435500
-0.049000 9.036300
-0.008300 8.181100
0.032500 6.425400
0.073300 4.964700
0.114100 3.763300
0.154800 2.385100
0.195600 1.428000
0.236400 1.158200
0.277200 1.149400
0.317900 0.947100
0.358700 0.951100
0.399500 0.917300
0.440300 0.555700
0.481000 0.317200
0.521800 0.368700
0.562600 0.538100
0.603400 0.556400
0.644200 0.429900
0.684900 0.492400
0.725700 0.560200
0.766500 0.523600
0.807300 0.451500
0.848000 0.292700
0.888800 0.273700
0.929600 0.395000
0.970400 0.550600
1.011100 0.568900
1.051900 0.462200
1.092700 0.230900
1.133500 0.221800
1.174200 0.367900
1.215000 0.605100
1.255800 0.914300
1.296600 0.992800
1.337300 0.906400
1.378100 0.809000
1.418900 0.975800
1.459700 1.023000
1.500400 0.944200
1.541200 0.881700
1.582000 0.578400
1.622800 0.322400
1.663500 0.191800
1.704300 0.153900
1.745100 0.227400
1.785900 0.228100
1.826600 0.223700
1.867400 0.281200
1.908200 0.186400
1.949000 0.076000
1.989800 0.172600
2.030500 0.473000
2.071300 0.764300
2.112100 0.727400
2.152900 0.478100
2.193600 0.520900
2.234400 0.697800
2.275200 0.740700
2.316000 0.647100
2.356700 0.618400
2.397500 0.837600
2.438300 0.982300
2.479100 1.127500
2.519800 1.213000
2.560600 1.065400
2.601400 1.103500
2.642200 1.173400
2.682900 1.076700
2.723700 1.056200
2.764500 0.999700
2.805300 0.942000
2.846000 0.890600
2.886800 0.842900
2.927600 0.749900
2.968400 0.684300
3.009100 0.783400
3.049900 0.789300
3.090700 0.612000
3.131500 0.527800
3.172200 0.484400
3.213000 0.750500
3.253800 1.193900
3.294600 1.294900
3.335300 1.103600
3.376100 1.128400
3.416900 1.351300
3.457700 1.250900
3.498500 1.321500
3.539200 1.629100
3.580000 1.744500
3.620800 1.779300
3.661600 1.594500
3.702300 1.374800
3.743100 1.447400
3.783900 1.718700
3.824700 2.492500
3.865400 3.375000
3.906200 3.509700
3.947000 3.478300
3.987800 3.646100
4.028500 3.932900
4.069300 4.436400
4.110100 4.841000
4.150900 4.829200
4.191600 4.268200
4.232400 3.573600
4.273200 3.262300
4.314000 3.596900
4.354700 4.368600
4.395500 4.779900
4.436300 4.006000
4.477100 3.201100
4.517800 3.587600
4.558600 4.227500
4.599400 4.070500
4.640200 3.660300
4.680900 3.155000
4.721700 2.761500
4.762500 2.961900
4.803300 2.989000
4.844000 2.656500
4.884800 2.431400
4.925600 2.392400
4.966400 2.411500
5.007200 2.276500
5.047900 2.112200
5.088700 2.323000
5.129500 2.710300
5.170300 2.902200
5.211000 2.836900
5.251800 2.588900
5.292600 2.566300
5.333400 2.683700
5.374100 2.849200
5.414900 3.373100
5.455700 3.641700
5.496500 3.384900
5.537200 3.211800
5.578000 3.198000
5.618800 3.101700
5.659600 3.319300
5.700300 3.477900
5.741100 3.272200
5.781900 2.816700
5.822700 2.517400
5.863400 2.677600
5.904200 2.517500
5.945000 2.172800
5.985800 2.202900
6.026500 2.219500
6.067300 2.238800
6.108100 2.036800
6.148900 1.752000
6.189600 1.513900
6.230400 1.327800
6.271200 1.266100
6.312000 1.616700
6.352800 2.325900
6.393500 2.956400
6.434300 3.220800
6.475100 3.422400
6.515900 3.424400
6.556600 3.186300
6.597400 3.600500
6.638200 4.217400
6.679000 4.428600
6.719700 4.194200
6.760500 3.859600
6.801300 3.897600
6.842100 4.056000
6.882800 3.975800
6.923600 4.123000
6.964400 4.492500
7.005200 4.443700
7.045900 3.794200
7.086700 3.276000
7.127500 3.384400
7.168300 3.589100
7.209000 3.565200
7.249800 3.472200
7.290600 3.589300
7.331400 3.446200
7.372100 2.790000
7.412900 2.150700
7.453700 1.894900
7.494500 2.145300
7.535200 2.282500
7.576000 2.290100
7.616800 2.475500
7.657600 2.734600
7.698300 3.283700
7.739100 3.631000
7.779900 3.848400
7.820700 3.740200
7.861500 3.641600
7.902200 3.624600
7.943000 3.392300
7.983800 3.114200
8.024600 2.612700
8.065300 2.126900
8.106100 1.656900
8.146900 1.370400
8.187700 1.477000
8.228400 1.523400
8.269200 1.363400
8.310000 1.197200
8.350800 1.047700
8.391500 0.882100
8.432300 0.750300
8.473100 0.733600
8.513900 0.748900
8.554600 0.757400
8.595400 0.738800
8.636200 0.627200
8.677000 0.621200
8.717700 0.785200
8.758500 0.970600
8.799300 0.865800
8.840100 0.555600
8.880800 0.565000
8.921600 0.818200
8.962400 0.893200
9.003200 0.838200
9.043900 0.601100
9.084700 0.417200
9.125500 0.468500
9.166300 0.685700
9.207000 0.832400
9.247800 0.801600
9.288600 0.800800
9.329400 0.819200
9.370200 0.873700
9.410900 0.830300
9.451700 0.800100
9.492500 0.792500
9.533300 0.766300
9.574000 0.596700
9.614800 0.600900
9.655600 0.844300
9.696400 0.983300
9.737100 0.708300
9.777900 0.501200
9.818700 0.610700
9.859500 0.721400
9.900200 0.811000
9.941000 0.895400
9.981800 0.680600
10.022600 0.496700
10.063300 0.550700
10.104100 0.535600
10.144900 0.539900
10.185700 0.729300
10.226400 0.816100
10.267200 0.622600
10.308000 0.488100
10.348800 0.388300
10.389500 0.433300
10.430300 0.492300
10.471100 0.360300
10.511900 0.271500
10.552600 0.381800
10.593400 0.373000
10.634200 0.329700
10.675000 0.339500
10.715800 0.285400
10.756500 0.337700
10.797300 0.542700
10.838100 0.582700
10.878900 0.480200
10.919600 0.371900
10.960400 0.416400
11.001200 0.557600
11.042000 0.548800
11.082700 0.486000
11.123500 0.513000
11.164300 0.745000
11.205100 0.669200
11.245800 0.291100
11.286600 0.185200
11.327400 0.278200
11.368200 0.270700
11.408900 0.171700
11.449700 0.207700
11.490500 0.294800
11.531300 0.246400
11.572000 0.257600
11.612800 0.441700
11.653600 0.687500
11.694400 0.771400
11.735100 0.529000
11.775900 0.267200
11.816700 0.231100
11.857500 0.208900
11.898200 0.122900
11.939000 0.102500
11.979800 0.150100
12.020600 0.204000
12.061300 0.250600
12.102100 0.355100
12.142900 0.352400
12.183700 0.172500
12.224500 0.137100
12.265200 0.223200
12.306000 0.330400
12.346800 0.404100
12.387600 0.424400
12.428300 0.441100
12.469100 0.619300
12.509900 0.826300
12.550700 0.839900
12.591400 0.862000
12.632200 0.918200
12.673000 0.840000
12.713800 0.591100
12.754500 0.552800
12.795300 0.885000
12.836100 1.097800
12.876900 0.876300
12.917600 0.462100
12.958400 0.370100
12.999200 0.507300
13.040000 0.578400
13.080700 0.727300
13.121500 0.910200
13.162300 0.814500
13.203100 0.685500
13.243800 0.786400
13.284600 0.683500
13.325400 0.502700
13.366200 0.711500
13.406900 1.052500
13.447700 1.128600
13.488500 0.977900
13.529300 0.667600
13.570000 0.502800
13.610800 0.578100
13.651600 0.681000
13.692400 0.851800
13.733200 0.865000
13.773900 0.921200
13.814700 0.772900
13.855500 0.639600
13.896300 0.626300
13.937000 0.497200
13.977800 0.466200
14.018600 0.548400
14.059400 0.566800
14.100100 0.646300
14.140900 0.811400
14.181700 0.783300
14.222500 0.617800
14.263200 0.514300
14.304000 0.510000
14.344800 0.593100
14.385600 0.572100
14.426300 0.576700
14.467100 0.619700
14.507900 0.649400
14.548700 0.550800
14.589400 0.441400
14.630200 0.509200
14.671000 0.550500
14.711800 0.481900
14.752500 0.493100
14.793300 0.536700
14.834100 0.601100
14.874900 0.780300
14.915600 0.785400
14.956400 0.584500
14.997200 0.573200
15.038000 0.783800
15.078800 0.843500
15.119500 0.684000
15.160300 0.622700
15.201100 0.572700
15.241900 0.543400
15.282600 0.577700
15.323400 0.615000
15.364200 0.637700
15.405000 0.688000
15.445700 0.588900
15.486500 0.611400
15.527300 0.854400
15.568100 1.193100
15.608800 1.412100
15.649600 1.357000
15.690400 1.165600
15.731200 0.991700
15.771900 1.044700
15.812700 1.105600
15.853500 0.993900
15.894300 0.999400
15.935000 1.133100
15.975800 1.028800
16.016600 0.791500
16.057400 0.786700
16.098100 0.913500
16.138900 1.055200
16.179700 1.178400
16.220500 1.277600
16.261200 1.116300
16.302000 0.763200
16.342800 0.659100
16.383600 0.797000
16.424300 0.817800
16.465100 0.864200
16.505900 1.022400
16.546700 1.054900
16.587500 0.814000
16.628200 0.897400
16.669000 1.276700
16.709800 1.346900
16.750600 1.216700
16.791300 1.153600
16.832100 1.041300
16.872900 0.879600
16.913700 0.778100
16.954400 0.963100
16.995200 1.170200
17.036000 1.067400
17.076800 0.860500
17.117500 1.021700
17.158300 1.050200
17.199100 0.885400
17.239900 1.061300
17.280600 1.154300
17.321400 0.932700
17.362200 0.893000
17.403000 1.068400
17.443700 1.086500
17.484500 0.927000
17.525300 1.044900
17.566100 1.175000
17.606800 1.026300
17.647600 0.956200
17.688400 1.079400
17.729200 1.125800
17.769900 1.066800
17.810700 1.177000
17.851500 1.116000
17.892300 1.108200
17.933000 1.192600
17.973800 1.002300
18.014600 1.242500
18.055400 1.657400
18.096200 1.481900
18.136900 1.105700
18.177700 1.040500
18.218500 1.136800
18.259300 1.129000
18.300000 1.074200
18.340800 1.154700
18.381600 1.254000
18.422400 1.102900
18.463100 1.000300
18.503900 1.274000
18.544700 1.332500
18.585500 1.120300
18.626200 0.965400
18.667000 1.085900
18.707800 1.232500
18.748600 1.157200
18.789300 0.876100
18.830100 0.799700
18.870900 0.771000
18.911700 0.841800
18.952400 1.123400
18.993200 1.243200
19.034000 1.123900
19.074800 1.059000
19.115500 1.000200
19.156300 1.011000
19.197100 1.269000
19.237900 1.262600
19.278600 1.068300
19.319400 1.376300
19.360200 1.608800
19.401000 1.339000
19.441800 1.294600
19.482500 1.425700
19.523300 1.232700
19.564100 1.054600
19.604900 1.191300
19.645600 1.078900
19.686400 0.965800
19.727200 1.096500
19.768000 1.048400
19.808700 0.895700
19.849500 1.157900
19.890300 1.220300
19.931100 0.885400
19.971800 0.897500
20.012600 1.071200
20.053400 0.949700
20.094200 0.724900
20.134900 0.765000
20.175700 0.976100
20.216500 1.053200
20.257300 0.896300
20.298000 0.866700
20.338800 1.048200
20.379600 1.154900
20.420400 1.200300
20.461100 1.299000
20.501900 1.399900
20.542700 1.357200
20.583500 1.011100
20.624200 0.911500
20.665000 1.039300
20.705800 1.178700
20.746600 1.344700
20.787300 1.242700
20.828100 1.098700
20.868900 1.011600
20.909700 1.007200
20.950500 1.056800
20.991200 0.902000
21.032000 0.934000
21.072800 1.144300
21.113600 1.257600
21.154300 1.230000
21.195100 0.973900
21.235900 0.897600
21.276700 1.052000
21.317400 1.256200
21.358200 1.352900
21.399000 1.325100
21.439800 1.109500
21.480500 0.850300
21.521300 0.923400
21.562100 0.990900
21.602900 0.864200
21.643600 0.670600
21.684400 0.791000
21.725200 1.262500
21.766000 1.476000
21.806700 1.379700
21.847500 1.288500
21.888300 1.175300
21.929100 1.229200
21.969800 1.359900
22.010600 1.292800
22.051400 1.088300
22.092200 1.108100
22.132900 0.988200
22.173700 0.845400
22.214500 0.812600
22.255300 0.826000
22.296000 0.913600
22.336800 0.985600
22.377600 1.064600
22.418400 1.165600
22.459200 1.192300
22.499900 1.043400
22.540700 0.870100
22.581500 0.879300
22.622300 1.032200
22.663000 1.167000
22.703800 1.193100
22.744600 1.007600
22.785400 0.793300
22.826100 0.703200
22.866900 0.648100
22.907700 0.764900
22.948500 0.833200
22.989200 0.914600
23.030000 0.916100
23.070800 0.844800
23.111600 1.029600
23.152300 1.029300
23.193100 0.687200
23.233900 0.704700
23.274700 0.876300
23.315400 0.953000
23.356200 0.891100
23.397000 0.550600
23.437800 0.405700
23.478500 0.555000
23.519300 0.757900
23.560100 0.829500
23.600900 0.724900
23.641600 0.519800
23.682400 0.489000
23.723200 0.700200
23.764000 0.685400
23.804800 0.537700
23.845500 0.575200
23.886300 0.759900
23.927100 0.760500
23.967900 0.767000
24.008600 1.170800
24.049400 1.520000
24.090200 1.582900
24.131000 1.564300
24.171700 1.660400
24.212500 1.574600
24.253300 1.333900
24.294100 1.183800
24.334800 1.032400
24.375600 1.101800
24.416400 1.408100
24.457200 1.643900
24.497900 1.853300
24.538700 1.790700
24.579500 1.627200
24.620300 1.597500
24.661000 1.415800
24.701800 1.196900
24.742600 1.094100
24.783400 1.032800
24.824100 0.915900
24.864900 0.898500
24.905700 1.207500
24.946500 1.690900
24.987200 1.878700
25.028000 1.478800
25.068800 1.036000
25.109600 1.138900
25.150300 1.538200
25.191100 1.545900
25.231900 1.207100
25.272700 0.988900
25.313500 1.024200
25.354200 1.364300
25.395000 1.476700
25.435800 1.303700
25.476600 1.181200
25.517300 1.129200
25.558100 1.097300
25.598900 1.173200
25.639700 1.175700
25.680400 1.403700
25.721200 1.801200
25.762000 1.776200
25.802800 1.560100
25.843500 1.267500
25.884300 1.060000
25.925100 1.250900
25.965900 1.522200
26.006600 1.415500
26.047400 1.412200
26.088200 1.353600
26.129000 1.382500
26.169700 1.467200
26.210500 1.335800
26.251300 1.263700
26.292100 1.309000
26.332800 1.432100
26.373600 1.431700
26.414400 1.320800
26.455200 1.291300
26.495900 1.151100
26.536700 1.083400
26.577500 1.102500
26.618300 1.161800
26.659000 1.330300
26.699800 1.259900
26.740600 1.125900
26.781400 1.040000
26.822200 1.168500
26.862900 1.419000
26.903700 1.315300
26.944500 0.898300
26.985300 0.680000
27.026000 0.923100
27.066800 1.186900
27.107600 1.322200
27.148400 1.178100
27.189100 0.942300
27.229900 1.015900
27.270700 1.180800
27.311500 1.163700
27.352200 1.239600
27.393000 1.345200
27.433800 1.053900
27.474600 0.657200
27.515300 0.507200
27.556100 0.639500
27.596900 0.780200
27.637700 0.702500
27.678400 0.902900
27.719200 1.138500
27.760000 0.937700
27.800800 0.722700
27.841500 0.814500
27.882300 1.028600
27.923100 1.030600
27.963900 0.780100
28.004600 0.861200
28.045400 1.105300
28.086200 1.037900
28.127000 0.676300
28.167800 0.465500
28.208500 0.499200
28.249300 0.486500
28.290100 0.547800
28.330900 0.693600
28.371600 0.680100
28.412400 0.645000
28.453200 0.917000
28.494000 1.176100
28.534700 1.060600
28.575500 0.802500
28.616300 0.656200
28.657100 0.467400
28.697800 0.338500
28.738600 0.325000
28.779400 0.310200
28.820200 0.426200
28.860900 0.563000
28.901700 0.468900
28.942500 0.415000
28.983300 0.351400
29.024000 0.304800
29.064800 0.419200
29.105600 0.500600
29.146400 0.543000
29.187100 0.536900
29.227900 0.588900
29.268700 0.919900
29.309500 1.100000
29.350200 1.018000
29.391000 0.850100
29.431800 0.733300
29.472600 0.725800
29.513300 0.921800
29.554100 1.387400
29.594900 1.481600
29.635700 1.193900
29.676500 1.030800
29.717200 0.956100
29.758000 0.968500
29.798800 0.887300
29.839600 0.985700
29.880300 1.258000
29.921100 1.305200
29.961900 1.320800
30.002700 1.349900
30.043400 1.342300
30.084200 1.504400
30.125000 1.646800
30.165800 1.428600
30.206500 1.273000
30.247300 1.328900
30.288100 1.515400
30.328900 1.557000
30.369600 1.559400
30.410400 1.531400
30.451200 1.338300
30.492000 1.480400
30.532700 1.610800
30.573500 1.634800
30.614300 1.893100
30.655100 1.742000
30.695800 1.575900
30.736600 1.916500
30.777400 2.216900
30.818200 2.010000
30.858900 1.485200
30.899700 1.390500
30.940500 1.638500
30.981300 1.377200
31.022000 1.176600
31.062800 1.483900
31.103600 1.350600
31.144400 0.989200
31.185200 1.035300
31.225900 1.248100
31.266700 1.466800
31.307500 1.467800
31.348300 1.320300
31.389000 1.361900
31.429800 1.389400
31.470600 1.216400
31.511400 1.061400
31.552100 1.079400
31.592900 1.214900
31.633700 1.158900
31.674500 1.024200
31.715200 1.153300
31.756000 1.478200
31.796800 1.471000
31.837600 1.195800
31.878300 1.146000
31.919100 1.263700
31.959900 1.404800
32.000700 1.444200
32.041400 1.357700
32.082200 1.349500
32.123000 1.158000
32.163800 0.940800
32.204500 0.978200
32.245300 1.182200
32.286100 1.363900
32.326900 1.193800
32.367600 1.013400
32.408400 0.989400
32.449200 1.169000
32.490000 1.436500
32.530800 1.492700
32.571500 1.259200
32.612300 1.065200
32.653100 1.193100
32.693900 1.191300
32.734600 0.921100
32.775400 1.018500
32.816200 1.257300
32.857000 1.313500
32.897700 1.269400
32.938500 1.146200
32.979300 1.140100
33.020100 1.367900
33.060800 1.459000
33.101600 1.173200
33.142400 1.042000
33.183200 1.070700
33.223900 1.052300
33.264700 1.137500
33.305500 1.227600
33.346300 1.127300
33.387000 1.061200
33.427800 1.138000
33.468600 1.355800
33.509400 1.499400
33.550100 1.608900
33.590900 1.500500
33.631700 1.214900
33.672500 0.944800
33.713200 0.822500
33.754000 0.913300
33.794800 1.127700
33.835600 1.327700
33.876300 1.743100
33.917100 1.848300
33.957900 1.484300
33.998700 1.436900
34.039500 1.652300
34.080200 1.554800
34.121000 1.390000
34.161800 1.379000
34.202600 1.557000
34.243300 1.744000
34.284100 1.812800
34.324900 1.688000
34.365700 1.481400
34.406400 1.412500
34.447200 1.534600
34.488000 1.672400
34.528800 1.574800
34.569500 1.353300
34.610300 1.845300
34.651100 7.759400
34.691900 20.379500
34.732600 18.164500
34.773400 6.337800
34.814200 5.497400
34.855000 11.440600
34.895700 9.902100
34.936500 3.653600
34.977300 1.632400
35.018100 1.657100
35.058800 1.691500
35.099600 1.633800
35.140400 1.509200
35.181200 1.256700
35.221900 1.419900
35.262700 1.794600
35.303500 1.626400
35.344300 1.158300
35.385000 0.963300
35.425800 1.144600
35.466600 1.415000
35.507400 1.312700
35.548200 1.008800
35.588900 0.785200
35.629700 0.884300
35.670500 1.241100
35.711300 1.564600
35.752000 1.470400
35.792800 1.340000
35.833600 1.218100
35.874400 0.956500
35.915100 0.901600
35.955900 1.033300
35.996700 1.190100
36.037500 1.473100
36.078200 1.549900
36.119000 1.423300
36.159800 1.344300
36.200600 1.505100
36.241300 1.623100
36.282100 1.415200
36.322900 1.223100
36.363700 1.286500
36.404400 1.375400
36.445200 1.374600
36.486000 1.281000
36.526800 1.416600
36.567500 1.325200
36.608300 0.871000
36.649100 0.640900
36.689900 0.675500
36.730600 0.770100
36.771400 0.668300
36.812200 0.781500
36.853000 1.051700
36.893800 1.151600
36.934500 1.107600
36.975300 1.084700
37.016100 1.106700
37.056900 1.187600
37.097600 1.062700
37.138400 0.817000
37.179200 0.957000
37.220000 1.191600
37.260700 1.105400
37.301500 1.084700
37.342300 1.399400
37.383100 1.362200
37.423800 1.092700
37.464600 0.978600
37.505400 0.911100
37.546200 0.731500
37.586900 0.518400
37.627700 0.491300
37.668500 0.868800
37.709300 1.159600
37.750000 1.046500
37.790800 0.870500
37.831600 0.639800
37.872400 0.588300
37.913100 0.750100
37.953900 0.834200
37.994700 0.896900
38.035500 0.921500
38.076200 0.808700
38.117000 0.555600
38.157800 0.421700
38.198600 0.435400
38.239300 0.458700
38.280100 0.494100
38.320900 0.489900
38.361700 0.344700
38.402500 0.265700
38.443200 0.366000
38.484000 0.444800
38.524800 0.389300
38.565600 0.319500
38.606300 0.255100
38.647100 0.276900
38.687900 0.397300
38.728700 0.485900
38.769400 0.334700
38.810200 0.207600
38.851000 0.290000
38.891800 0.320000
38.932500 0.271800
38.973300 0.238800
39.014100 0.248500
39.054900 0.180300
39.095600 0.195100
39.136400 0.316600
39.177200 0.323100
39.218000 0.273100
39.258700 0.259200
39.299500 0.276500
39.340300 0.260300
39.381100 0.239400
39.421800 0.193900
39.462600 0.089300
39.503400 0.047800
39.544200 0.096200
39.584900 0.138000
39.625700 0.112600
39.666500 0.068700
39.707300 0.030000
39.748000 0.005700
39.788800 0.002900
39.829600 0.024300
39.870400 0.068300
39.911200 0.058600
39.951900 0.015300
39.992700 0.001200
40.033500 0.000000
40.074300 0.000700
40.115000 0.009600
40.155800 0.038200
40.196600 0.046200
40.237400 0.017100
40.278100 0.005300
40.318900 0.023700
40.359700 0.049300
40.400500 0.033700
40.441200 0.015900
40.482000 0.011600
40.522800 0.003800
40.563600 0.000400
40.604300 0.000000
40.645100 0.000000
40.685900 0.000000
40.726700 0.000000
40.767400 0.000000
40.808200 0.000000
40.849000 0.000000
40.889800 0.000000
40.930500 0.000000
40.971300 0.000000
41.012100 0.000000
41.052900 0.000000
41.093600 0.000000
41.134400 0.000200
41.175200 0.002700
41.216000 0.010100
41.256800 0.011200
41.297500 0.003800
41.338300 0.000400
41.379100 0.000000
41.419900 0.000000
41.460600 0.000000
41.501400 0.000000
41.542200 0.000000
41.583000 0.000000
41.623700 0.000000
41.664500 0.000000
41.705300 0.000000
41.746100 0.000000
41.786800 0.000000
41.827600 0.000000
41.868400 0.000000
41.909200 0.000000
41.949900 0.000000
41.990700 0.000000
42.031500 0.000000
42.072300 0.000000
42.113000 0.000000
42.153800 0.000000
42.194600 0.000000
42.235400 0.000000
42.276100 0.000000
42.316900 0.000000
42.357700 0.000000
42.398500 0.000000
42.439200 0.000000
42.480000 0.000000
42.520800 0.000000
42.561600 0.000000
42.602300 0.000000
42.643100 0.000000
42.683900 0.000000
42.724700 0.000000
42.765500 0.000000
42.806200 0.000000
42.847000 0.000000
42.887800 0.000000
42.928600 0.000000
42.969300 0.000000
43.010100 0.000000
43.050900 0.000000
43.091700 0.000000
43.132400 0.000000
43.173200 0.000000
43.214000 0.000000
43.254800 0.000000
43.295500 0.000000
43.336300 0.000000
43.377100 0.000000
43.417900 0.000000
43.458600 0.000000
43.499400 0.000000
43.540200 0.000000
43.581000 0.000000
43.621700 0.000000
43.662500 0.000000
43.703300 0.000000
43.744100 0.000000
43.784800 0.000000
43.825600 0.000000
43.866400 0.000000
43.907200 0.000000
43.947900 0.000000
43.988700 0.000000
44.029500 0.000000
44.070300 0.000000
44.111000 0.000000
44.151800 0.000000
44.192600 0.000000
44.233400 0.000000
44.274200 0.000000
44.314900 0.000000
44.355700 0.000000
44.396500 0.000000
44.437300 0.000000
44.478000 0.000000
44.518800 0.000000
44.559600 0.000000
44.600400 0.000000
44.641100 0.000000
44.681900 0.000000
44.722700 0.000000
44.763500 0.000000
44.804200 0.000000
44.845000 0.000000
44.885800 0.000000
44.926600 0.000000
e
