set title 'mp-985278 - Density of States'
set xlabel 'Energy (eV)'
set ylabel 'DOS (states/eV)'
set grid
set xrange [-10:10]
set yrange [0:23.903]
set xzeroaxis lt -1
set terminal png size 800,600
set output 'mp-985278_dos_gnuplot.png'
plot '-' using 1:2 with lines title 'DOS'
-31.826500 0.000000
-31.790000 0.000000
-31.753500 0.000000
-31.716900 0.000000
-31.680400 0.000000
-31.643900 0.000000
-31.607300 0.000000
-31.570800 0.000000
-31.534300 0.000000
-31.497700 0.000000
-31.461200 0.000000
-31.424700 0.000000
-31.388100 0.000000
-31.351600 0.000000
-31.315100 0.000000
-31.278500 0.000000
-31.242000 0.000000
-31.205500 0.000000
-31.168900 0.000000
-31.132400 0.000000
-31.095900 0.000000
-31.059300 0.000000
-31.022800 0.000000
-30.986300 0.000000
-30.949700 0.000000
-30.913200 0.000000
-30.876700 0.000000
-30.840100 0.000000
-30.803600 0.000000
-30.767000 0.000000
-30.730500 0.000000
-30.694000 0.000000
-30.657400 0.000000
-30.620900 0.000000
-30.584400 0.000000
-30.547800 0.000000
-30.511300 0.000000
-30.474800 0.000000
-30.438200 0.000000
-30.401700 0.000000
-30.365200 0.000000
-30.328600 0.000000
-30.292100 0.000000
-30.255600 0.000000
-30.219000 0.000000
-30.182500 0.000000
-30.146000 0.000000
-30.109400 0.000000
-30.072900 0.000000
-30.036400 0.000000
-29.999800 0.000000
-29.963300 0.000000
-29.926800 0.000000
-29.890200 0.000000
-29.853700 0.000000
-29.817200 0.000000
-29.780600 0.000000
-29.744100 0.000000
-29.707500 0.000000
-29.671000 0.000000
-29.634500 0.000000
-29.597900 0.000000
-29.561400 0.000000
-29.524900 0.000000
-29.488300 0.000000
-29.451800 0.000000
-29.415300 0.000000
-29.378700 0.000000
-29.342200 0.000000
-29.305700 0.000000
-29.269100 0.000000
-29.232600 0.000000
-29.196100 0.000000
-29.159500 0.000000
-29.123000 0.000000
-29.086500 0.000000
-29.049900 0.000000
-29.013400 0.000000
-28.976900 0.000000
-28.940300 0.000000
-28.903800 0.000000
-28.867300 0.000000
-28.830700 0.000000
-28.794200 0.000000
-28.757700 0.000000
-28.721100 0.000000
-28.684600 0.000000
-28.648000 0.000000
-28.611500 0.000000
-28.575000 0.000000
-28.538400 0.000000
-28.501900 0.144700
-28.465400 7.184200
-28.428800 27.024400
-28.392300 19.392800
-28.355800 0.000000
-28.319200 0.000000
-28.282700 0.000000
-28.246200 0.000000
-28.209600 0.000000
-28.173100 0.000000
-28.136600 0.000000
-28.100000 0.000000
-28.063500 0.000000
-28.027000 0.000000
-27.990400 0.000000
-27.953900 0.000000
-27.917400 0.000000
-27.880800 0.000000
-27.844300 0.000000
-27.807800 0.000000
-27.771200 0.000000
-27.734700 0.000000
-27.698100 0.000000
-27.661600 0.000000
-27.625100 0.000000
-27.588500 0.000000
-27.552000 0.000000
-27.515500 0.000000
-27.478900 0.000000
-27.442400 0.000000
-27.405900 0.000000
-27.369300 0.000000
-27.332800 0.000000
-27.296300 0.000000
-27.259700 0.000000
-27.223200 0.000000
-27.186700 0.000000
-27.150100 0.000000
-27.113600 0.000000
-27.077100 0.000000
-27.040500 0.000000
-27.004000 0.000000
-26.967500 0.000000
-26.930900 0.000000
-26.894400 0.000000
-26.857900 0.000000
-26.821300 0.000000
-26.784800 0.000000
-26.748300 0.000000
-26.711700 0.000000
-26.675200 0.000000
-26.638600 0.000000
-26.602100 0.000000
-26.565600 0.000000
-26.529000 0.000000
-26.492500 0.000000
-26.456000 0.000000
-26.419400 0.000000
-26.382900 0.000000
-26.346400 0.000000
-26.309800 0.000000
-26.273300 0.000000
-26.236800 0.000000
-26.200200 0.000000
-26.163700 0.000000
-26.127200 0.000000
-26.090600 0.000000
-26.054100 0.000000
-26.017600 0.000000
-25.981000 0.000000
-25.944500 0.000000
-25.908000 0.000000
-25.871400 0.000000
-25.834900 0.000000
-25.798400 0.000000
-25.761800 0.000000
-25.725300 0.000000
-25.688800 0.000000
-25.652200 0.000000
-25.615700 0.000000
-25.579100 0.000000
-25.542600 0.000000
-25.506100 0.000000
-25.469500 0.000000
-25.433000 0.000000
-25.396500 0.000000
-25.359900 0.000000
-25.323400 0.000000
-25.286900 0.000000
-25.250300 0.000000
-25.213800 0.000000
-25.177300 0.000000
-25.140700 0.000000
-25.104200 0.000000
-25.067700 0.000000
-25.031100 0.000000
-24.994600 0.000000
-24.958100 0.000000
-24.921500 0.000000
-24.885000 0.000000
-24.848500 0.000000
-24.811900 0.000000
-24.775400 0.000000
-24.738900 0.000000
-24.702300 0.000000
-24.665800 0.000000
-24.629300 0.000000
-24.592700 0.000000
-24.556200 0.000000
-24.519600 0.000000
-24.483100 0.000000
-24.446600 0.000000
-24.410000 0.000000
-24.373500 0.000000
-24.337000 0.000000
-24.300400 0.000000
-24.263900 0.000000
-24.227400 0.000000
-24.190800 0.000000
-24.154300 0.000000
-24.117800 0.000000
-24.081200 0.000000
-24.044700 0.000000
-24.008200 0.000000
-23.971600 0.000000
-23.935100 0.000000
-23.898600 0.000000
-23.862000 0.000000
-23.825500 0.000000
-23.789000 0.000000
-23.752400 0.000000
-23.715900 0.000000
-23.679400 0.000000
-23.642800 0.000000
-23.606300 0.000000
-23.569800 0.000000
-23.533200 0.000000
-23.496700 0.000000
-23.460100 0.000000
-23.423600 0.000000
-23.387100 0.000000
-23.350500 0.000000
-23.314000 0.000000
-23.277500 0.000000
-23.240900 0.000000
-23.204400 0.000000
-23.167900 0.000000
-23.131300 0.000000
-23.094800 0.000000
-23.058300 0.000000
-23.021700 0.000000
-22.985200 0.000000
-22.948700 0.000000
-22.912100 0.000000
-22.875600 0.000000
-22.839100 0.000000
-22.802500 0.000000
-22.766000 0.000000
-22.729500 0.000000
-22.692900 0.000000
-22.656400 0.000000
-22.619900 0.000000
-22.583300 0.000000
-22.546800 0.000000
-22.510300 0.000000
-22.473700 0.000000
-22.437200 0.000000
-22.400600 0.000000
-22.364100 0.000000
-22.327600 0.000000
-22.291000 0.000000
-22.254500 0.000000
-22.218000 0.000000
-22.181400 0.000000
-22.144900 0.000000
-22.108400 0.000000
-22.071800 0.000000
-22.035300 0.000000
-21.998800 0.000000
-21.962200 0.000000
-21.925700 0.000000
-21.889200 0.000000
-21.852600 0.000000
-21.816100 0.000000
-21.779600 0.000000
-21.743000 0.000000
-21.706500 0.000000
-21.670000 0.000000
-21.633400 0.000000
-21.596900 0.000000
-21.560400 0.000000
-21.523800 0.000000
-21.487300 0.000000
-21.450800 0.000000
-21.414200 0.000000
-21.377700 0.000000
-21.341100 0.000000
-21.304600 0.000000
-21.268100 0.000000
-21.231500 0.000000
-21.195000 0.000000
-21.158500 0.000000
-21.121900 0.000000
-21.085400 0.000000
-21.048900 0.000000
-21.012300 0.000000
-20.975800 0.000000
-20.939300 0.000000
-20.902700 0.000000
-20.866200 0.000000
-20.829700 0.000000
-20.793100 0.000000
-20.756600 0.000000
-20.720100 0.000000
-20.683500 0.000000
-20.647000 0.000000
-20.610500 0.000000
-20.573900 0.000000
-20.537400 0.000000
-20.500900 0.000000
-20.464300 0.000000
-20.427800 0.000000
-20.391300 0.000000
-20.354700 0.000000
-20.318200 0.000000
-20.281600 0.000000
-20.245100 0.000000
-20.208600 0.000000
-20.172000 0.000000
-20.135500 0.000000
-20.099000 0.000000
-20.062400 0.000000
-20.025900 0.000000
-19.989400 0.000000
-19.952800 0.000000
-19.916300 0.000000
-19.879800 0.000000
-19.843200 0.000000
-19.806700 0.000000
-19.770200 0.000000
-19.733600 0.000000
-19.697100 0.000000
-19.660600 0.000000
-19.624000 0.000000
-19.587500 0.000000
-19.551000 0.000000
-19.514400 0.000000
-19.477900 0.000000
-19.441400 0.000000
-19.404800 0.000000
-19.368300 0.000000
-19.331800 0.000000
-19.295200 0.000000
-19.258700 0.000000
-19.222100 0.000000
-19.185600 0.000000
-19.149100 0.000000
-19.112500 0.000000
-19.076000 0.000000
-19.039500 0.000000
-19.002900 0.000000
-18.966400 0.000000
-18.929900 0.000000
-18.893300 0.000000
-18.856800 0.000000
-18.820300 0.000000
-18.783700 0.000000
-18.747200 0.000000
-18.710700 0.000000
-18.674100 0.000000
-18.637600 0.000000
-18.601100 0.000000
-18.564500 0.000000
-18.528000 0.000000
-18.491500 0.000000
-18.454900 0.000000
-18.418400 0.000000
-18.381900 0.000000
-18.345300 0.000000
-18.308800 0.000000
-18.272300 0.000000
-18.235700 0.000000
-18.199200 0.000000
-18.162600 0.000000
-18.126100 0.692300
-18.089600 1.531900
-18.053000 2.452300
-18.016500 4.365600
-17.980000 9.592300
-17.943400 16.151100
-17.906900 12.150100
-17.870400 5.526600
-17.833800 0.429100
-17.797300 7.200800
-17.760800 10.499200
-17.724200 11.340700
-17.687700 7.469600
-17.651200 6.007400
-17.614600 5.213500
-17.578100 4.985100
-17.541600 3.145900
-17.505000 0.479300
-17.468500 0.000000
-17.432000 0.000000
-17.395400 0.000000
-17.358900 0.000000
-17.322400 0.000000
-17.285800 0.000000
-17.249300 0.000000
-17.212800 0.000000
-17.176200 0.000000
-17.139700 0.000000
-17.103100 0.000000
-17.066600 0.000000
-17.030100 0.000000
-16.993500 0.000000
-16.957000 0.000000
-16.920500 0.000000
-16.883900 0.000000
-16.847400 0.000000
-16.810900 0.000000
-16.774300 0.000000
-16.737800 0.000000
-16.701300 0.000000
-16.664700 0.000000
-16.628200 0.000000
-16.591700 0.000000
-16.555100 10.048400
-16.518600 19.408200
-16.482100 9.978000
-16.445500 5.743000
-16.409000 3.557300
-16.372500 1.822100
-16.335900 0.000000
-16.299400 0.000000
-16.262900 0.000000
-16.226300 0.000000
-16.189800 0.000000
-16.153200 0.000000
-16.116700 0.000000
-16.080200 0.000000
-16.043600 0.000000
-16.007100 0.000000
-15.970600 0.000000
-15.934000 0.000000
-15.897500 0.000000
-15.861000 0.000000
-15.824400 0.000000
-15.787900 0.000000
-15.751400 0.000000
-15.714800 0.000000
-15.678300 0.000000
-15.641800 0.000000
-15.605200 0.000000
-15.568700 0.000000
-15.532200 0.000000
-15.495600 0.000000
-15.459100 0.000000
-15.422600 0.000000
-15.386000 0.000000
-15.349500 0.000000
-15.313000 0.000000
-15.276400 0.000000
-15.239900 0.000000
-15.203400 0.000000
-15.166800 0.000000
-15.130300 0.000000
-15.093700 0.000000
-15.057200 0.000000
-15.020700 0.000000
-14.984100 0.000000
-14.947600 0.000000
-14.911100 0.000000
-14.874500 0.000000
-14.838000 0.000000
-14.801500 0.000000
-14.764900 0.000000
-14.728400 0.000000
-14.691900 0.000000
-14.655300 0.000000
-14.618800 0.000000
-14.582300 0.000000
-14.545700 0.000000
-14.509200 0.000000
-14.472700 0.000000
-14.436100 0.000000
-14.399600 0.000000
-14.363100 0.000000
-14.326500 0.000000
-14.290000 0.000000
-14.253500 0.000000
-14.216900 0.000000
-14.180400 0.000000
-14.143900 0.000000
-14.107300 0.000000
-14.070800 0.000000
-14.034200 0.000000
-13.997700 0.000000
-13.961200 0.000000
-13.924600 0.000000
-13.888100 0.000000
-13.851600 0.000000
-13.815000 0.000000
-13.778500 0.000000
-13.742000 0.000000
-13.705400 0.000000
-13.668900 0.000000
-13.632400 0.000000
-13.595800 0.000000
-13.559300 0.000000
-13.522800 0.000000
-13.486200 0.000000
-13.449700 0.000000
-13.413200 0.000000
-13.376600 0.000000
-13.340100 0.000000
-13.303600 0.000000
-13.267000 0.000000
-13.230500 0.000000
-13.194000 0.000000
-13.157400 0.000000
-13.120900 0.000000
-13.084400 0.000000
-13.047800 0.000000
-13.011300 0.000000
-12.974700 0.000000
-12.938200 0.000000
-12.901700 0.000000
-12.865100 0.000000
-12.828600 0.000000
-12.792100 0.000000
-12.755500 0.000000
-12.719000 0.000000
-12.682500 0.000000
-12.645900 0.000000
-12.609400 0.000000
-12.572900 0.000000
-12.536300 0.000000
-12.499800 0.000000
-12.463300 0.000000
-12.426700 0.000000
-12.390200 0.000000
-12.353700 0.000000
-12.317100 0.000000
-12.280600 0.000000
-12.244100 0.000000
-12.207500 0.000000
-12.171000 0.000000
-12.134500 0.000000
-12.097900 0.000000
-12.061400 0.000000
-12.024900 0.000000
-11.988300 0.000000
-11.951800 0.000000
-11.915200 0.000000
-11.878700 0.000000
-11.842200 0.000000
-11.805600 0.000000
-11.769100 0.000000
-11.732600 0.000000
-11.696000 0.000000
-11.659500 0.000000
-11.623000 0.000000
-11.586400 0.000000
-11.549900 0.000000
-11.513400 0.000000
-11.476800 0.000000
-11.440300 0.000000
-11.403800 0.000000
-11.367200 0.000000
-11.330700 0.000000
-11.294200 0.000000
-11.257600 0.000000
-11.221100 0.000000
-11.184600 0.000000
-11.148000 0.000000
-11.111500 0.000000
-11.075000 0.000000
-11.038400 0.000000
-11.001900 0.000000
-10.965400 0.000000
-10.928800 0.000000
-10.892300 0.000000
-10.855700 0.000000
-10.819200 0.000000
-10.782700 0.000000
-10.746100 0.000000
-10.709600 0.000000
-10.673100 0.000000
-10.636500 0.000000
-10.600000 0.000000
-10.563500 0.000000
-10.526900 0.000000
-10.490400 0.000000
-10.453900 0.000000
-10.417300 0.000000
-10.380800 0.000000
-10.344300 0.000000
-10.307700 0.000000
-10.271200 0.000000
-10.234700 0.000000
-10.198100 0.000000
-10.161600 0.000000
-10.125100 0.000000
-10.088500 0.000000
-10.052000 0.000000
-10.015500 0.000000
-9.978900 0.000000
-9.942400 0.000000
-9.905900 0.000000
-9.869300 0.000000
-9.832800 0.000000
-9.796200 0.000000
-9.759700 0.000000
-9.723200 0.000000
-9.686600 0.000000
-9.650100 0.000000
-9.613600 0.000000
-9.577000 0.000000
-9.540500 0.000000
-9.504000 0.000000
-9.467400 0.000000
-9.430900 0.000000
-9.394400 0.000000
-9.357800 0.000000
-9.321300 0.000000
-9.284800 0.000000
-9.248200 0.000000
-9.211700 0.000000
-9.175200 0.000000
-9.138600 0.000000
-9.102100 0.000000
-9.065600 0.000000
-9.029000 0.000000
-8.992500 0.000000
-8.956000 0.000000
-8.919400 0.000000
-8.882900 0.000000
-8.846400 0.000000
-8.809800 0.085600
-8.773300 0.507900
-8.736700 0.640200
-8.700200 0.867800
-8.663700 1.168800
-8.627100 1.626200
-8.590600 1.981600
-8.554100 2.460500
-8.517500 2.942800
-8.481000 2.990000
-8.444500 4.709300
-8.407900 7.722200
-8.371400 10.775600
-8.334900 11.337900
-8.298300 15.870700
-8.261800 11.803600
-8.225300 11.423500
-8.188700 10.969600
-8.152200 10.247500
-8.115700 9.337600
-8.079100 6.660900
-8.042600 10.094700
-8.006100 12.225500
-7.969500 6.669400
-7.933000 2.198500
-7.896500 1.341000
-7.859900 1.074000
-7.823400 0.836700
-7.786900 0.669400
-7.750300 0.532400
-7.713800 0.357900
-7.677200 0.195900
-7.640700 0.000000
-7.604200 0.000000
-7.567600 0.000000
-7.531100 0.000000
-7.494600 0.000000
-7.458000 0.000000
-7.421500 0.000000
-7.385000 0.000000
-7.348400 0.000000
-7.311900 0.000000
-7.275400 0.000000
-7.238800 0.000000
-7.202300 0.000000
-7.165800 0.000000
-7.129200 0.000000
-7.092700 0.000000
-7.056200 0.000000
-7.019600 0.000000
-6.983100 0.000000
-6.946600 0.000000
-6.910000 0.000000
-6.873500 0.000000
-6.837000 0.000000
-6.800400 0.000000
-6.763900 0.000000
-6.727400 0.000000
-6.690800 0.000000
-6.654300 0.000000
-6.617700 0.000000
-6.581200 0.000000
-6.544700 0.000000
-6.508100 0.000000
-6.471600 0.000000
-6.435100 0.000000
-6.398500 0.000000
-6.362000 0.000000
-6.325500 0.000000
-6.288900 0.000000
-6.252400 0.000000
-6.215900 0.000000
-6.179300 0.000000
-6.142800 0.000000
-6.106300 0.000000
-6.069700 0.000000
-6.033200 0.000000
-5.996700 0.000000
-5.960100 0.000000
-5.923600 0.000000
-5.887100 0.000000
-5.850500 0.000000
-5.814000 0.000000
-5.777500 0.000000
-5.740900 0.000000
-5.704400 0.000000
-5.667900 0.000000
-5.631300 0.000000
-5.594800 0.000000
-5.558200 0.000000
-5.521700 0.000000
-5.485200 0.000000
-5.448600 0.000000
-5.412100 0.000000
-5.375600 0.000000
-5.339000 0.000000
-5.302500 0.000000
-5.266000 0.000000
-5.229400 0.000000
-5.192900 0.000000
-5.156400 0.000000
-5.119800 0.000000
-5.083300 0.000000
-5.046800 0.000000
-5.010200 0.000000
-4.973700 0.000000
-4.937200 0.000000
-4.900600 0.000000
-4.864100 0.000000
-4.827600 0.000000
-4.791000 0.000000
-4.754500 0.000000
-4.718000 0.000000
-4.681400 0.000000
-4.644900 0.000000
-4.608300 0.000000
-4.571800 0.000000
-4.535300 0.000000
-4.498700 0.000000
-4.462200 0.000000
-4.425700 0.000000
-4.389100 0.000000
-4.352600 0.000000
-4.316100 0.000000
-4.279500 0.000000
-4.243000 0.000000
-4.206500 0.000000
-4.169900 0.000000
-4.133400 0.000000
-4.096900 0.000000
-4.060300 0.000000
-4.023800 0.000000
-3.987300 0.000000
-3.950700 0.000000
-3.914200 0.000000
-3.877700 0.000000
-3.841100 0.000000
-3.804600 0.000000
-3.768100 0.000000
-3.731500 0.000000
-3.695000 0.000000
-3.658500 0.000000
-3.621900 0.000000
-3.585400 0.000000
-3.548800 0.000000
-3.512300 0.000000
-3.475800 0.000000
-3.439200 0.000000
-3.402700 0.000000
-3.366200 0.000000
-3.329600 0.000000
-3.293100 0.000000
-3.256600 0.000000
-3.220000 0.000000
-3.183500 0.000000
-3.147000 0.000000
-3.110400 0.000000
-3.073900 0.000000
-3.037400 0.000000
-3.000800 0.000000
-2.964300 0.000000
-2.927800 0.000000
-2.891200 0.000000
-2.854700 0.000000
-2.818200 0.000000
-2.781600 0.000000
-2.745100 0.000000
-2.708600 0.000000
-2.672000 0.000000
-2.635500 0.000000
-2.599000 0.000000
-2.562400 0.000000
-2.525900 0.000000
-2.489300 0.000000
-2.452800 0.000000
-2.416300 0.000000
-2.379700 0.000000
-2.343200 0.000000
-2.306700 0.000000
-2.270100 0.000000
-2.233600 0.000000
-2.197100 0.000000
-2.160500 0.000000
-2.124000 0.000000
-2.087500 0.000000
-2.050900 0.000000
-2.014400 0.000000
-1.977900 0.000000
-1.941300 0.000000
-1.904800 0.000000
-1.868300 0.000000
-1.831700 0.000000
-1.795200 0.000000
-1.758700 0.000000
-1.722100 0.000000
-1.685600 0.000000
-1.649100 0.000000
-1.612500 0.000000
-1.576000 0.000000
-1.539500 0.000000
-1.502900 0.000000
-1.466400 0.000000
-1.429800 0.000000
-1.393300 0.000000
-1.356800 0.000000
-1.320200 0.000000
-1.283700 0.000000
-1.247200 0.000000
-1.210600 0.000000
-1.174100 0.000000
-1.137600 0.000000
-1.101000 0.000000
-1.064500 0.000000
-1.028000 0.000000
-0.991400 0.000000
-0.954900 0.000000
-0.918400 0.000000
-0.881800 0.000000
-0.845300 0.000000
-0.808800 0.000000
-0.772200 0.000000
-0.735700 0.000000
-0.699200 0.259900
-0.662600 0.377300
-0.626100 0.509100
-0.589600 0.664700
-0.553000 1.583800
-0.516500 3.121400
-0.480000 5.022400
-0.443400 7.242900
-0.406900 8.021700
-0.370300 9.028200
-0.333800 9.438200
-0.297300 3.214000
-0.260700 1.753800
-0.224200 1.603900
-0.187700 1.603400
-0.151100 1.724000
-0.114600 2.344300
-0.078100 3.860300
-0.041500 5.169200
-0.005000 6.289800
0.031500 7.474200
0.068100 6.364100
0.104600 5.005800
0.141100 5.882000
0.177700 7.763500
0.214200 7.364300
0.250700 6.597500
0.287300 5.949400
0.323800 5.426100
0.360300 5.279200
0.396900 4.667500
0.433400 4.334100
0.469900 4.601500
0.506500 6.183600
0.543000 6.359900
0.579500 6.662100
0.616100 6.585300
0.652600 6.552200
0.689200 5.471400
0.725700 5.846300
0.762200 9.684900
0.798800 11.278500
0.835300 7.664900
0.871800 7.268300
0.908400 4.521600
0.944900 5.397400
0.981400 6.235700
1.018000 5.902800
1.054500 5.337000
1.091000 4.797300
1.127600 4.345600
1.164100 4.245600
1.200600 4.445100
1.237200 5.215200
1.273700 8.384700
1.310200 10.535100
1.346800 7.114000
1.383300 5.668500
1.419800 7.382000
1.456400 4.119200
1.492900 4.753100
1.529400 4.359700
1.566000 0.011300
1.602500 0.037500
1.639000 0.079100
1.675600 0.136000
1.712100 0.208300
1.748700 0.295900
1.785200 0.398800
1.821700 0.559600
1.858300 1.053800
1.894800 1.882000
1.931300 2.851900
1.967900 6.086800
2.004400 12.195900
2.040900 11.994900
2.077500 10.846700
2.114000 5.747600
2.150500 7.194300
2.187100 7.988200
2.223600 12.040700
2.260100 8.770600
2.296700 5.904900
2.333200 5.451700
2.369700 4.347900
2.406300 3.396100
2.442800 2.023300
2.479300 1.905700
2.515900 1.537300
2.552400 1.310100
2.588900 1.564200
2.625500 2.005700
2.662000 2.956800
2.698500 5.003100
2.735100 21.730400
2.771600 10.841300
2.808200 3.140900
2.844700 0.579400
2.881200 0.000000
2.917800 0.000000
2.954300 0.000000
2.990800 0.000000
3.027400 0.000000
3.063900 0.000000
3.100400 0.000000
3.137000 0.000000
3.173500 0.000000
3.210000 0.000000
3.246600 0.000000
3.283100 0.000000
3.319600 0.000000
3.356200 0.000000
3.392700 0.000000
3.429200 0.000000
3.465800 0.000000
3.502300 0.000000
3.538800 0.000000
3.575400 0.000000
3.611900 0.000000
3.648400 0.000000
3.685000 0.000000
3.721500 0.000000
3.758000 0.000000
3.794600 0.000000
3.831100 0.000000
3.867700 0.000000
3.904200 0.000000
3.940700 0.000000
3.977300 0.000000
4.013800 0.000000
4.050300 0.000000
4.086900 0.000000
4.123400 0.000000
4.159900 0.000000
4.196500 0.000000
4.233000 0.000000
4.269500 0.000000
4.306100 0.000000
4.342600 0.000000
4.379100 0.000000
4.415700 0.000000
4.452200 0.000000
4.488700 0.000000
4.525300 0.000000
4.561800 0.000000
4.598300 0.000000
4.634900 0.000000
4.671400 0.000000
4.707900 0.000000
4.744500 0.000000
4.781000 0.000000
4.817500 0.000000
4.854100 0.000000
4.890600 0.000000
4.927200 0.000000
4.963700 0.000000
5.000200 0.000000
5.036800 0.000000
5.073300 0.000000
5.109800 0.000000
5.146400 0.000000
5.182900 0.000000
5.219400 0.000000
5.256000 0.000000
5.292500 0.000000
5.329000 0.000000
5.365600 0.000000
5.402100 0.000000
5.438600 0.000000
5.475200 0.000000
5.511700 0.000000
5.548200 0.000000
5.584800 0.000000
5.621300 0.000000
5.657800 0.000000
5.694400 0.000000
5.730900 0.000000
5.767400 0.000000
5.804000 0.000000
5.840500 0.000000
5.877000 0.000000
5.913600 0.000000
5.950100 0.000000
5.986700 0.000000
6.023200 0.000000
6.059700 0.000000
6.096300 0.000000
6.132800 0.000000
6.169300 0.000000
6.205900 0.000000
6.242400 0.000000
6.278900 0.000000
6.315500 0.000000
6.352000 0.000000
6.388500 0.000000
6.425100 0.000000
6.461600 0.000000
6.498100 0.000000
6.534700 0.000000
6.571200 0.000000
6.607700 0.000000
6.644300 0.000000
6.680800 0.000000
6.717300 0.000000
6.753900 0.000000
6.790400 0.000000
6.826900 0.000000
6.863500 0.000000
6.900000 0.000000
6.936600 0.000000
6.973100 0.000000
7.009600 0.000000
7.046200 0.000000
7.082700 0.000000
7.119200 0.000000
7.155800 0.000000
7.192300 0.000000
7.228800 0.000000
7.265400 0.000000
7.301900 0.000000
7.338400 0.000000
7.375000 0.000000
7.411500 0.000000
7.448000 0.000000
7.484600 0.000000
7.521100 0.000000
7.557600 0.000000
7.594200 0.000000
7.630700 0.000000
7.667200 0.000000
7.703800 0.000000
7.740300 0.000000
7.776800 0.000000
7.813400 0.000000
7.849900 0.000000
7.886400 0.000000
7.923000 0.000000
7.959500 0.000000
7.996100 0.000000
8.032600 0.000000
8.069100 0.000000
8.105700 0.000000
8.142200 0.000000
8.178700 0.000000
8.215300 0.000000
8.251800 0.000000
8.288300 0.000000
8.324900 0.000000
8.361400 0.000000
8.397900 0.000000
8.434500 0.000000
8.471000 0.000000
8.507500 0.000000
8.544100 0.000000
8.580600 0.000000
8.617100 0.000000
8.653700 0.000000
8.690200 0.000000
8.726700 0.000000
8.763300 0.000000
8.799800 0.000000
8.836300 0.000000
8.872900 0.000000
8.909400 0.000000
8.945900 0.000000
8.982500 0.000000
9.019000 0.000000
9.055600 0.000000
9.092100 0.014500
9.128600 0.029000
9.165200 0.042100
9.201700 0.053700
9.238200 0.063800
9.274800 0.073700
9.311300 0.088700
9.347800 0.102900
9.384400 0.116100
9.420900 0.128500
9.457400 0.140000
9.494000 0.150700
9.530500 0.160500
9.567000 0.171200
9.603600 0.185400
9.640100 0.195800
9.676600 0.226800
9.713200 0.262800
9.749700 0.303600
9.786200 0.350000
9.822800 0.401700
9.859300 0.452200
9.895800 0.499600
9.932400 0.578400
9.968900 0.601600
10.005400 0.659800
10.042000 0.734800
10.078500 0.806700
10.115100 0.875400
10.151600 1.015300
10.188100 1.039200
10.224700 1.109000
10.261200 1.154500
10.297700 1.184700
10.334300 1.204700
10.370800 1.250200
10.407300 1.309700
10.443900 1.352100
10.480400 1.408500
10.516900 1.484800
10.553500 1.567700
10.590000 1.706700
10.626500 1.806800
10.663100 1.908900
10.699600 2.010400
10.736100 2.108800
10.772700 2.223400
10.809200 2.380000
10.845700 2.661900
10.882300 4.042200
10.918800 4.701800
10.955300 5.295200
10.991900 5.541600
11.028400 5.168400
11.064900 4.869600
11.101500 4.347900
11.138000 2.903100
11.174600 2.388700
11.211100 2.005600
11.247600 2.144200
11.284200 2.390400
11.320700 2.803400
11.357200 3.650500
11.393800 6.532200
11.430300 6.898900
11.466800 5.107200
11.503400 4.378500
11.539900 3.604700
11.576400 3.285600
11.613000 2.575800
11.649500 2.445800
11.686000 2.490500
11.722600 2.653300
11.759100 2.918000
11.795600 5.326000
11.832200 8.515200
11.868700 11.577500
11.905200 10.809900
11.941800 9.433200
11.978300 7.343100
12.014800 6.501500
12.051400 7.772900
12.087900 6.491600
12.124400 4.321900
12.161000 9.385200
12.197500 15.773300
12.234100 19.095400
12.270600 6.600800
12.307100 6.184200
12.343700 11.723300
12.380200 19.587600
12.416700 18.797700
12.453300 18.290200
12.489800 15.440100
12.526300 11.547400
12.562900 17.482800
12.599400 6.625700
12.635900 8.756700
12.672500 14.893500
12.709000 26.327700
12.745500 24.052600
12.782100 20.655100
12.818600 17.018400
12.855100 15.047200
12.891700 14.598000
12.928200 7.434400
12.964700 6.088500
13.001300 5.359400
13.037800 5.786600
13.074300 5.658000
13.110900 5.124600
13.147400 5.080100
13.183900 5.774100
13.220500 4.590900
13.257000 4.062500
13.293600 3.780400
13.330100 3.392600
13.366600 2.877800
13.403200 3.637500
13.439700 4.865300
13.476200 5.119500
13.512800 4.871700
13.549300 4.438000
13.585800 4.061000
13.622400 3.950100
13.658900 3.847000
13.695400 3.624100
13.732000 3.172000
13.768500 2.874800
13.805000 2.577100
13.841600 2.385400
13.878100 2.194000
13.914600 1.686700
13.951200 1.373800
13.987700 1.296800
14.024200 1.241000
14.060800 1.185800
14.097300 1.125600
14.133800 1.066600
14.170400 1.011100
14.206900 1.097800
14.243400 1.072500
14.280000 2.146900
14.316500 0.424000
14.353100 0.419200
14.389600 0.418100
14.426100 0.421100
14.462700 0.427300
14.499200 0.433600
14.535700 0.440000
14.572300 0.446600
14.608800 0.453300
14.645300 0.460200
14.681900 0.467000
14.718400 0.473700
14.754900 0.480100
14.791500 0.486200
14.828000 0.492200
14.864500 0.497800
14.901100 0.503300
14.937600 0.508500
14.974100 0.513500
15.010700 0.518300
15.047200 0.537800
15.083700 0.570800
15.120300 0.547500
15.156800 0.557800
15.193300 0.568900
15.229900 0.580800
15.266400 0.593400
15.302900 0.625900
15.339500 0.650000
15.376000 0.664800
15.412600 0.679100
15.449100 0.693100
15.485600 0.722600
15.522200 0.736200
15.558700 0.749200
15.595200 0.762400
15.631800 0.776100
15.668300 0.790000
15.704800 0.804300
15.741400 0.818900
15.777900 0.833800
15.814400 0.849100
15.851000 0.864700
15.887500 0.882300
15.924000 0.900700
15.960600 0.919400
15.997100 0.943000
16.033600 0.967000
16.070200 1.039200
16.106700 1.040000
16.143200 1.036700
16.179800 1.035800
16.216300 1.030400
16.252800 1.020500
16.289400 1.006100
16.325900 0.993600
16.362400 0.974600
16.399000 0.947400
16.435500 0.800700
16.472100 0.682500
16.508600 0.577800
16.545100 0.445000
16.581700 0.284200
16.618200 0.000000
16.654700 0.000000
16.691300 0.000000
16.727800 0.000000
16.764300 0.000000
16.800900 0.013700
16.837400 0.058800
16.873900 0.033300
16.910500 0.038400
16.947000 0.043400
16.983500 0.048300
17.020100 0.053200
17.056600 0.057900
17.093100 0.062500
17.129700 0.067000
17.166200 0.071400
17.202700 0.075800
17.239300 0.080000
17.275800 0.084100
17.312300 0.088200
17.348900 0.092100
17.385400 0.100100
17.421900 0.121100
17.458500 0.155300
17.495000 0.202700
17.531600 0.264500
17.568100 0.340900
17.604600 0.429300
17.641200 0.364200
17.677700 0.386600
17.714200 0.410700
17.750800 0.436700
17.787300 0.464800
17.823800 0.494500
17.860400 0.525800
17.896900 0.558800
17.933400 0.593400
17.970000 0.629700
18.006500 0.669500
18.043000 0.715300
18.079600 0.756700
18.116100 0.793800
18.152600 0.826600
18.189200 0.855000
18.225700 0.879000
18.262200 0.898800
18.298800 0.914200
18.335300 0.904300
18.371800 0.958800
18.408400 0.949300
18.444900 0.927800
18.481500 0.919600
18.518000 0.924600
18.554500 0.941400
18.591100 1.191500
18.627600 1.186700
18.664100 1.357200
18.700700 1.482600
18.737200 1.502500
18.773700 1.501900
18.810300 1.480700
18.846800 1.437500
18.883300 1.374800
18.919900 1.301900
18.956400 1.224800
18.992900 1.139300
19.029500 1.051600
19.066000 0.944200
19.102500 0.823100
19.139100 0.765100
19.175600 0.707600
19.212100 0.620300
19.248700 0.571400
19.285200 0.541500
19.321700 0.513300
19.358300 0.486600
19.394800 0.461800
19.431300 0.439600
19.467900 0.420200
19.504400 0.403600
19.541000 0.389900
19.577500 0.341200
19.614000 0.341300
19.650600 0.379200
19.687100 0.391000
19.723600 0.405300
19.760200 0.422200
19.796700 0.441600
19.833200 0.463700
19.869800 0.488400
19.906300 0.516000
19.942800 0.585500
19.979400 0.674800
20.015900 0.762600
20.052400 0.894100
20.089000 1.036900
20.125500 1.190900
20.162000 1.356200
20.198600 1.589800
20.235100 1.657500
20.271600 1.697300
20.308200 1.776900
20.344700 1.884200
20.381200 1.952100
20.417800 1.999100
20.454300 2.127700
20.490800 2.785800
20.527400 1.990200
20.563900 1.624900
20.600500 1.247000
20.637000 1.179100
20.673500 1.119900
20.710100 1.066100
20.746600 1.141000
20.783100 1.094900
20.819700 1.038400
20.856200 0.988300
20.892700 0.983000
20.929300 0.978100
20.965800 0.973600
21.002300 0.969400
21.038900 0.965500
21.075400 0.961600
21.111900 0.957600
21.148500 0.953400
21.185000 0.953300
21.221500 0.951700
21.258100 0.947800
21.294600 0.943800
21.331100 0.939800
21.367700 0.934900
21.404200 0.942200
21.440700 0.947900
21.477300 0.984100
21.513800 1.005000
21.550300 1.033200
21.586900 1.055500
21.623400 1.066900
21.660000 1.068900
21.696500 1.069000
21.733000 1.071900
21.769600 1.084700
21.806100 1.115000
21.842600 1.137700
21.879200 1.152900
21.915700 1.163000
21.952200 1.177300
21.988800 1.216800
22.025300 1.260300
22.061800 1.308100
22.098400 1.359800
22.134900 1.416500
22.171400 1.447400
22.208000 1.458500
22.244500 1.572500
22.281000 1.844900
22.317600 2.121600
22.354100 2.402300
22.390600 2.729600
22.427200 2.733800
22.463700 2.477700
22.500200 2.213600
22.536800 1.791100
22.573300 1.638000
22.609800 1.556000
22.646400 1.411700
22.682900 1.295200
22.719500 1.192300
22.756000 1.164100
22.792500 1.293900
22.829100 1.646000
22.865600 2.113200
22.902100 2.834200
22.938700 3.161800
22.975200 3.502500
23.011700 3.658900
23.048300 3.720800
23.084800 3.799700
23.121300 3.769700
23.157900 3.871700
23.194400 4.092600
23.230900 4.487600
23.267500 2.981100
23.304000 2.546300
23.340500 2.406800
23.377100 2.182400
23.413600 1.961300
23.450100 1.975000
23.486700 2.096900
23.523200 2.358200
23.559700 2.694700
23.596300 2.977600
23.632800 3.559700
23.669300 3.521000
23.705900 3.538000
23.742400 3.709700
23.779000 3.414600
23.815500 3.267600
23.852000 2.987900
23.888600 2.809400
23.925100 2.598500
23.961600 2.535600
23.998200 2.505000
24.034700 2.500600
24.071200 2.530700
24.107800 2.558600
24.144300 2.641200
24.180800 2.735000
24.217400 2.892900
24.253900 2.983200
24.290400 3.052600
24.327000 2.910100
24.363500 3.221100
24.400000 3.176900
24.436600 3.045900
24.473100 2.892000
24.509600 2.720600
24.546200 2.489200
24.582700 2.332500
24.619200 2.233600
24.655800 2.212200
24.692300 2.218800
24.728800 2.231300
24.765400 2.251100
24.801900 2.288100
24.838500 2.321400
24.875000 2.514500
24.911500 2.742900
24.948100 2.896100
24.984600 2.929000
25.021100 3.296100
25.057700 3.252400
25.094200 3.177100
25.130700 3.109400
25.167300 2.929700
25.203800 2.890600
25.240300 2.791900
25.276900 2.353600
25.313400 2.144500
25.349900 1.895300
25.386500 1.626100
25.423000 1.515300
25.459500 1.513500
25.496100 1.542300
25.532600 1.644600
25.569100 1.714300
25.605700 2.010400
25.642200 1.959800
25.678700 1.853300
25.715300 1.753500
25.751800 1.679400
25.788300 1.849600
25.824900 1.651400
25.861400 1.612000
25.898000 1.621000
25.934500 1.623300
25.971000 1.631000
26.007600 1.644000
26.044100 1.689000
26.080600 1.906300
26.117200 2.150500
26.153700 1.766900
26.190200 1.569100
26.226800 1.298600
26.263300 0.962500
26.299800 0.876100
26.336400 0.873200
26.372900 0.932000
26.409400 1.050000
26.446000 1.182700
26.482500 1.319700
26.519000 1.454000
26.555600 1.580600
26.592100 1.709900
26.628600 1.847400
26.665200 1.940900
26.701700 1.982600
26.738200 2.017000
26.774800 2.057200
26.811300 2.099700
26.847800 2.144200
26.884400 2.111200
26.920900 2.103800
26.957500 2.093200
26.994000 1.994500
27.030500 1.871400
27.067100 1.831200
27.103600 1.831600
27.140100 1.868400
27.176700 1.779600
27.213200 1.775400
27.249700 1.734400
27.286300 1.704100
27.322800 1.694300
27.359300 1.690700
27.395900 1.820900
27.432400 1.908900
27.468900 2.103000
27.505500 2.329000
27.542000 2.487600
27.578500 2.443900
27.615100 2.438600
27.651600 2.466400
27.688100 2.458200
27.724700 2.145700
27.761200 2.123900
27.797700 2.098400
27.834300 2.069100
27.870800 2.174900
27.907300 1.936400
27.943900 1.912500
27.980400 1.880500
28.017000 1.836000
28.053500 1.778900
28.090000 1.731300
28.126600 1.727100
28.163100 1.652300
28.199600 1.596500
28.236200 1.521100
28.272700 1.466500
28.309200 1.427900
28.345800 1.393800
28.382300 1.359500
28.418800 1.322700
28.455400 1.294600
28.491900 1.316100
28.528400 1.331000
28.565000 1.357400
28.601500 1.390000
28.638000 1.468700
28.674600 1.636700
28.711100 1.639600
28.747600 1.712500
28.784200 1.782900
28.820700 1.849100
28.857200 1.910200
28.893800 1.965800
28.930300 2.144500
28.966800 1.928700
29.003400 1.753000
29.039900 1.656200
29.076500 1.610900
29.113000 1.464300
29.149500 1.395200
29.186100 1.357800
29.222600 1.330600
29.259100 1.302200
29.295700 1.263700
29.332200 1.224100
29.368700 1.141900
29.405300 1.072200
29.441800 1.062100
29.478300 1.055000
29.514900 1.050800
29.551400 1.277700
29.587900 1.327700
29.624500 1.399500
29.661000 1.495900
29.697500 1.620300
29.734100 1.690100
29.770600 1.819100
29.807100 1.955300
29.843700 2.011500
29.880200 1.912000
29.916700 1.889100
29.953300 1.875200
29.989800 1.910000
30.026400 2.027500
30.062900 2.109200
30.099400 2.154100
30.136000 2.234400
30.172500 2.208500
30.209000 2.764200
30.245600 2.027700
30.282100 1.927500
30.318600 1.820200
30.355200 1.714700
30.391700 1.628600
30.428200 1.551200
30.464800 1.495300
30.501300 1.466800
30.537800 1.499300
30.574400 1.505500
30.610900 1.572200
30.647400 1.696000
30.684000 2.164900
30.720500 2.357800
30.757000 2.487800
30.793600 2.469600
30.830100 2.451700
30.866600 2.447700
30.903200 2.457800
30.939700 2.474900
30.976200 2.536600
31.012800 2.488200
31.049300 2.149500
31.085900 1.934900
31.122400 1.741200
31.158900 1.589900
31.195500 1.482700
31.232000 1.401400
31.268500 1.349100
31.305100 1.312300
31.341600 1.285200
31.378100 1.326400
31.414700 1.412200
31.451200 1.535600
31.487700 1.697600
31.524300 2.195100
31.560800 2.181000
31.597300 2.609500
31.633900 3.941800
31.670400 3.541400
31.706900 3.441900
31.743500 3.317900
31.780000 3.226800
31.816500 3.234500
31.853100 3.420600
31.889600 3.408900
31.926100 3.288900
31.962700 3.013400
31.999200 2.214300
32.035700 2.242700
32.072300 2.252300
32.108800 2.243100
32.145400 2.215300
32.181900 2.175300
32.218400 2.127300
32.255000 2.077200
32.291500 2.030800
32.328000 2.144100
32.364600 2.187900
32.401100 2.131300
32.437600 2.155900
32.474200 2.120300
32.510700 2.096900
32.547200 2.104200
32.583800 2.017400
32.620300 1.999600
32.656800 2.001600
32.693400 2.005100
32.729900 2.009700
32.766400 1.997500
32.803000 2.044300
32.839500 2.009600
32.876000 1.890800
32.912600 1.930300
32.949100 2.056000
32.985600 2.065800
33.022200 1.907600
33.058700 1.781500
33.095200 1.699400
33.131800 1.708800
33.168300 1.851100
33.204900 2.006600
33.241400 2.161500
33.277900 2.260000
33.314500 2.350600
33.351000 2.447300
33.387500 2.543400
33.424100 2.637500
33.460600 2.694200
33.497100 2.810700
33.533700 2.883900
33.570200 2.963700
33.606700 3.009700
33.643300 2.781300
33.679800 2.580900
33.716300 2.435700
33.752900 2.269200
33.789400 2.159500
33.825900 1.904200
33.862500 1.672400
33.899000 1.521800
33.935500 1.431500
33.972100 1.337900
34.008600 1.274500
34.045100 1.294200
34.081700 1.331700
34.118200 1.367400
34.154700 1.411600
34.191300 1.472800
34.227800 1.709600
34.264400 1.684600
34.300900 1.709300
34.337400 1.741800
34.374000 2.193600
34.410500 2.384400
34.447000 2.531300
34.483600 2.549600
34.520100 2.493200
34.556600 2.518700
34.593200 2.529200
34.629700 2.523000
34.666200 2.492200
34.702800 2.573700
34.739300 2.465700
34.775800 2.338800
34.812400 2.185100
34.848900 2.051000
34.885400 2.041600
34.922000 2.055500
34.958500 2.055000
34.995000 2.091000
35.031600 2.134700
35.068100 2.137800
35.104600 2.091900
35.141200 2.059800
35.177700 1.931900
35.214200 1.981700
35.250800 2.064500
35.287300 2.238400
35.323900 2.447900
35.360400 2.643300
35.396900 2.918700
35.433500 3.113200
35.470000 3.231400
35.506500 3.243400
35.543100 3.413800
35.579600 3.377000
35.616100 3.711500
35.652700 3.364100
35.689200 2.882200
35.725700 2.381900
35.762300 2.096000
35.798800 2.111900
35.835300 2.153600
35.871900 2.208700
35.908400 2.295800
35.944900 2.261200
35.981500 2.654700
36.018000 3.115400
36.054500 3.387000
36.091100 3.910200
36.127600 4.198400
36.164100 3.171000
36.200700 2.785500
36.237200 2.467400
36.273700 2.125300
36.310300 2.002600
36.346800 2.325800
36.383400 2.133500
36.419900 2.142200
36.456400 2.162700
36.493000 2.225700
36.529500 2.354500
36.566000 2.641700
36.602600 2.958200
36.639100 3.118400
36.675600 3.181400
36.712200 3.204900
36.748700 3.913100
36.785200 3.181800
36.821800 3.100700
36.858300 3.635500
36.894800 3.903900
36.931400 3.752200
36.967900 3.391300
37.004400 3.178300
37.041000 2.971800
37.077500 2.751100
37.114000 2.341400
37.150600 1.768200
37.187100 1.453000
37.223600 1.353300
37.260200 1.292100
37.296700 1.234600
37.333200 1.171100
37.369800 1.093400
37.406300 1.001800
37.442900 0.896100
37.479400 0.776300
37.515900 0.593300
37.552500 0.463800
37.589000 0.360900
37.625500 0.278600
37.662100 0.208300
37.698600 0.150200
37.735100 0.104800
37.771700 0.068900
37.808200 0.046900
37.844700 0.036600
37.881300 0.026900
37.917800 0.017700
37.954300 0.000000
37.990900 0.000000
38.027400 0.000000
38.063900 0.000000
38.100500 0.000000
38.137000 0.000000
38.173500 0.000000
38.210100 0.000000
38.246600 0.000000
38.283100 0.000000
38.319700 0.000000
38.356200 0.000000
38.392700 0.000000
38.429300 0.000000
38.465800 0.000000
38.502400 0.000000
38.538900 0.000000
38.575400 0.000000
38.612000 0.000000
38.648500 0.000000
38.685000 0.000000
38.721600 0.000000
38.758100 0.000000
38.794600 0.000000
38.831200 0.000000
38.867700 0.000000
38.904200 0.000000
38.940800 0.000000
38.977300 0.000000
39.013800 0.000000
39.050400 0.000000
39.086900 0.000000
39.123400 0.000000
39.160000 0.000000
39.196500 0.000000
39.233000 0.000000
39.269600 0.000000
39.306100 0.000000
39.342600 0.000000
39.379200 0.000000
39.415700 0.000000
39.452200 0.000000
39.488800 0.000000
39.525300 0.000000
39.561900 0.000000
39.598400 0.000000
39.634900 0.000000
39.671500 0.000000
39.708000 0.000000
39.744500 0.000000
39.781100 0.000000
39.817600 0.000000
39.854100 0.000000
39.890700 0.000000
39.927200 0.000000
39.963700 0.000000
40.000300 0.000000
40.036800 0.000000
40.073300 0.000000
40.109900 0.000000
40.146400 0.000000
40.182900 0.000000
40.219500 0.000000
40.256000 0.000000
40.292500 0.000000
40.329100 0.000000
40.365600 0.000000
40.402100 0.000000
40.438700 0.000000
40.475200 0.000000
40.511700 0.000000
40.548300 0.000000
40.584800 0.000000
40.621400 0.000000
40.657900 0.000000
40.694400 0.000000
40.731000 0.000000
40.767500 0.000000
40.804000 0.000000
40.840600 0.000000
40.877100 0.000000
40.913600 0.000000
40.950200 0.000000
40.986700 0.000000
41.023200 0.000000
41.059800 0.000000
41.096300 0.000000
41.132800 0.000000
41.169400 0.000000
41.205900 0.000000
41.242400 0.000000
e
