set title 'mp-13451 - Density of States'
set xlabel 'Energy (eV)'
set ylabel 'DOS (states/eV)'
set grid
set xrange [-10:10]
set yrange [0:50.248]
set xzeroaxis lt -1
set terminal png size 800,600
set output 'mp-13451_dos_gnuplot.png'
plot '-' using 1:2 with lines title 'DOS'
-18.693800 0.000000
-18.677800 0.000000
-18.661800 0.000000
-18.645800 0.000000
-18.629800 0.000000
-18.613700 0.000000
-18.597700 0.000000
-18.581700 0.000000
-18.565700 0.000000
-18.549700 0.000000
-18.533700 0.000000
-18.517700 0.000000
-18.501700 0.000000
-18.485700 0.000000
-18.469700 0.000000
-18.453700 0.000000
-18.437700 0.000000
-18.421700 0.000000
-18.405700 0.000000
-18.389700 0.000000
-18.373600 0.000000
-18.357600 0.000000
-18.341600 0.000000
-18.325600 0.000000
-18.309600 0.000000
-18.293600 0.000000
-18.277600 0.000000
-18.261600 0.000000
-18.245600 0.000000
-18.229600 0.000000
-18.213600 0.000000
-18.197600 0.000000
-18.181600 0.000000
-18.165600 0.000000
-18.149600 0.000000
-18.133500 0.000000
-18.117500 0.000000
-18.101500 0.000000
-18.085500 0.000000
-18.069500 0.000000
-18.053500 0.000000
-18.037500 0.000000
-18.021500 0.000000
-18.005500 0.000000
-17.989500 0.000000
-17.973500 0.000000
-17.957500 0.000000
-17.941500 0.000000
-17.925500 0.000000
-17.909500 0.000000
-17.893400 0.000000
-17.877400 0.000000
-17.861400 0.000000
-17.845400 0.000000
-17.829400 0.000000
-17.813400 0.000000
-17.797400 0.000000
-17.781400 0.000000
-17.765400 0.000000
-17.749400 0.000000
-17.733400 0.000000
-17.717400 0.000000
-17.701400 0.000000
-17.685400 0.000000
-17.669400 0.000000
-17.653400 0.000000
-17.637300 0.000000
-17.621300 0.000000
-17.605300 0.000000
-17.589300 0.000000
-17.573300 0.000000
-17.557300 0.000000
-17.541300 0.000000
-17.525300 0.000000
-17.509300 0.000000
-17.493300 0.000000
-17.477300 0.000000
-17.461300 0.000000
-17.445300 0.000000
-17.429300 0.000000
-17.413300 0.000000
-17.397200 0.000000
-17.381200 0.000000
-17.365200 0.000000
-17.349200 0.000000
-17.333200 0.000000
-17.317200 0.000000
-17.301200 0.000000
-17.285200 0.000000
-17.269200 0.000000
-17.253200 0.000000
-17.237200 139.067300
-17.221200 0.000000
-17.205200 41.728800
-17.189200 273.525900
-17.173200 59.422700
-17.157100 89.715500
-17.141100 0.000000
-17.125100 0.000000
-17.109100 0.000000
-17.093100 422.841900
-17.077100 0.000000
-17.061100 0.000000
-17.045100 395.607700
-17.029100 62.731700
-17.013100 120.749600
-16.997100 50.674500
-16.981100 0.000000
-16.965100 0.000000
-16.949100 306.524300
-16.933100 141.532600
-16.917100 112.770100
-16.901000 95.807600
-16.885000 128.227900
-16.869000 0.000000
-16.853000 0.000000
-16.837000 0.000000
-16.821000 0.000000
-16.805000 0.000000
-16.789000 0.000000
-16.773000 0.000000
-16.757000 0.000000
-16.741000 0.000000
-16.725000 0.000000
-16.709000 0.000000
-16.693000 0.000000
-16.677000 0.000000
-16.660900 0.000000
-16.644900 0.000000
-16.628900 0.000000
-16.612900 0.000000
-16.596900 0.000000
-16.580900 0.000000
-16.564900 0.000000
-16.548900 0.000000
-16.532900 0.000000
-16.516900 0.000000
-16.500900 0.000000
-16.484900 0.000000
-16.468900 0.000000
-16.452900 0.000000
-16.436900 0.000000
-16.420800 0.000000
-16.404800 0.000000
-16.388800 0.000000
-16.372800 0.000000
-16.356800 0.000000
-16.340800 0.000000
-16.324800 0.000000
-16.308800 0.000000
-16.292800 0.000000
-16.276800 0.000000
-16.260800 0.000000
-16.244800 0.000000
-16.228800 0.000000
-16.212800 0.000000
-16.196800 0.000000
-16.180800 0.000000
-16.164700 0.000000
-16.148700 0.000000
-16.132700 0.000000
-16.116700 0.000000
-16.100700 0.000000
-16.084700 0.000000
-16.068700 0.000000
-16.052700 0.000000
-16.036700 0.000000
-16.020700 0.000000
-16.004700 0.000000
-15.988700 0.000000
-15.972700 0.000000
-15.956700 0.000000
-15.940700 0.000000
-15.924600 0.000000
-15.908600 0.000000
-15.892600 0.000000
-15.876600 0.000000
-15.860600 0.000000
-15.844600 0.000000
-15.828600 0.000000
-15.812600 0.000000
-15.796600 0.000000
-15.780600 0.000000
-15.764600 0.000000
-15.748600 0.000000
-15.732600 0.000000
-15.716600 0.000000
-15.700600 0.000000
-15.684500 0.000000
-15.668500 0.000000
-15.652500 0.000000
-15.636500 0.000000
-15.620500 0.000000
-15.604500 0.000000
-15.588500 0.000000
-15.572500 0.000000
-15.556500 0.000000
-15.540500 0.000000
-15.524500 0.000000
-15.508500 0.000000
-15.492500 0.000000
-15.476500 0.000000
-15.460500 0.000000
-15.444500 0.000000
-15.428400 0.000000
-15.412400 0.000000
-15.396400 0.000000
-15.380400 0.000000
-15.364400 0.000000
-15.348400 0.000000
-15.332400 0.000000
-15.316400 0.000000
-15.300400 0.000000
-15.284400 0.000000
-15.268400 0.000000
-15.252400 0.000000
-15.236400 0.000000
-15.220400 0.000000
-15.204400 0.000000
-15.188300 0.000000
-15.172300 0.000000
-15.156300 0.000000
-15.140300 0.000000
-15.124300 0.000000
-15.108300 0.000000
-15.092300 0.000000
-15.076300 0.000000
-15.060300 0.000000
-15.044300 0.000000
-15.028300 0.000000
-15.012300 0.000000
-14.996300 0.000000
-14.980300 0.000000
-14.964300 0.000000
-14.948200 0.000000
-14.932200 0.000000
-14.916200 0.000000
-14.900200 0.000000
-14.884200 0.000000
-14.868200 0.000000
-14.852200 0.000000
-14.836200 0.000000
-14.820200 0.000000
-14.804200 0.000000
-14.788200 0.000000
-14.772200 0.000000
-14.756200 0.000000
-14.740200 0.000000
-14.724200 0.000000
-14.708100 0.000000
-14.692100 0.000000
-14.676100 0.000000
-14.660100 0.000000
-14.644100 0.000000
-14.628100 0.000000
-14.612100 0.000000
-14.596100 0.000000
-14.580100 0.000000
-14.564100 0.000000
-14.548100 0.000000
-14.532100 0.000000
-14.516100 0.000000
-14.500100 0.000000
-14.484100 0.000000
-14.468100 0.000000
-14.452000 0.000000
-14.436000 0.000000
-14.420000 0.000000
-14.404000 0.000000
-14.388000 0.000000
-14.372000 0.000000
-14.356000 0.000000
-14.340000 0.000000
-14.324000 0.000000
-14.308000 0.000000
-14.292000 0.000000
-14.276000 0.000000
-14.260000 0.000000
-14.244000 0.000000
-14.228000 0.000000
-14.211900 0.000000
-14.195900 0.000000
-14.179900 0.000000
-14.163900 0.000000
-14.147900 0.000000
-14.131900 0.000000
-14.115900 0.000000
-14.099900 0.000000
-14.083900 0.000000
-14.067900 0.000000
-14.051900 0.000000
-14.035900 0.000000
-14.019900 0.000000
-14.003900 0.000000
-13.987900 0.000000
-13.971800 0.000000
-13.955800 0.000000
-13.939800 0.000000
-13.923800 0.000000
-13.907800 0.000000
-13.891800 0.000000
-13.875800 0.000000
-13.859800 0.000000
-13.843800 0.000000
-13.827800 0.000000
-13.811800 0.000000
-13.795800 0.000000
-13.779800 0.000000
-13.763800 0.000000
-13.747800 0.000000
-13.731800 0.000000
-13.715700 0.000000
-13.699700 0.000000
-13.683700 0.000000
-13.667700 0.000000
-13.651700 0.000000
-13.635700 0.000000
-13.619700 0.000000
-13.603700 0.000000
-13.587700 0.000000
-13.571700 0.000000
-13.555700 0.000000
-13.539700 0.000000
-13.523700 0.000000
-13.507700 0.000000
-13.491700 0.000000
-13.475600 0.000000
-13.459600 0.000000
-13.443600 0.000000
-13.427600 0.000000
-13.411600 0.000000
-13.395600 0.000000
-13.379600 0.000000
-13.363600 0.000000
-13.347600 0.000000
-13.331600 0.000000
-13.315600 0.000000
-13.299600 0.000000
-13.283600 0.000000
-13.267600 0.000000
-13.251600 0.000000
-13.235500 0.000000
-13.219500 0.000000
-13.203500 0.000000
-13.187500 0.000000
-13.171500 0.000000
-13.155500 0.000000
-13.139500 0.000000
-13.123500 0.000000
-13.107500 0.000000
-13.091500 0.000000
-13.075500 0.000000
-13.059500 0.000000
-13.043500 0.000000
-13.027500 0.000000
-13.011500 0.000000
-12.995500 0.000000
-12.979400 0.000000
-12.963400 0.000000
-12.947400 0.000000
-12.931400 0.000000
-12.915400 0.000000
-12.899400 0.000000
-12.883400 0.000000
-12.867400 0.000000
-12.851400 0.000000
-12.835400 0.000000
-12.819400 0.000000
-12.803400 0.000000
-12.787400 0.000000
-12.771400 0.000000
-12.755400 0.000000
-12.739300 0.000000
-12.723300 0.000000
-12.707300 0.000000
-12.691300 0.000000
-12.675300 0.000000
-12.659300 0.000000
-12.643300 0.000000
-12.627300 0.000000
-12.611300 0.000000
-12.595300 0.000000
-12.579300 0.000000
-12.563300 0.000000
-12.547300 0.000000
-12.531300 0.000000
-12.515300 0.000000
-12.499200 0.000000
-12.483200 0.000000
-12.467200 0.000000
-12.451200 0.000000
-12.435200 0.000000
-12.419200 0.000000
-12.403200 0.000000
-12.387200 0.000000
-12.371200 0.000000
-12.355200 0.000000
-12.339200 0.000000
-12.323200 0.000000
-12.307200 0.000000
-12.291200 0.000000
-12.275200 0.000000
-12.259200 0.000000
-12.243100 0.000000
-12.227100 0.000000
-12.211100 0.000000
-12.195100 0.000000
-12.179100 0.000000
-12.163100 0.000000
-12.147100 0.000000
-12.131100 0.000000
-12.115100 0.000000
-12.099100 0.000000
-12.083100 0.000000
-12.067100 0.000000
-12.051100 0.000000
-12.035100 0.000000
-12.019100 0.000000
-12.003000 0.000000
-11.987000 0.000000
-11.971000 0.000000
-11.955000 0.000000
-11.939000 0.000000
-11.923000 0.000000
-11.907000 0.000000
-11.891000 0.000000
-11.875000 0.000000
-11.859000 0.000000
-11.843000 0.000000
-11.827000 0.000000
-11.811000 0.000000
-11.795000 0.000000
-11.779000 0.000000
-11.762900 0.000000
-11.746900 0.000000
-11.730900 0.000000
-11.714900 0.000000
-11.698900 0.000000
-11.682900 0.000000
-11.666900 0.000000
-11.650900 0.000000
-11.634900 0.000000
-11.618900 0.000000
-11.602900 0.000000
-11.586900 0.000000
-11.570900 0.000000
-11.554900 0.000000
-11.538900 0.000000
-11.522800 0.000000
-11.506800 0.000000
-11.490800 0.000000
-11.474800 0.000000
-11.458800 0.000000
-11.442800 0.000000
-11.426800 0.000000
-11.410800 0.000000
-11.394800 0.000000
-11.378800 0.000000
-11.362800 0.000000
-11.346800 0.000000
-11.330800 0.000000
-11.314800 0.000000
-11.298800 0.000000
-11.282800 0.000000
-11.266700 0.000000
-11.250700 0.000000
-11.234700 0.000000
-11.218700 0.000000
-11.202700 0.000000
-11.186700 0.000000
-11.170700 0.000000
-11.154700 0.000000
-11.138700 0.000000
-11.122700 0.000000
-11.106700 0.000000
-11.090700 0.000000
-11.074700 0.000000
-11.058700 0.000000
-11.042700 0.000000
-11.026600 0.000000
-11.010600 0.000000
-10.994600 0.000000
-10.978600 0.000000
-10.962600 0.000000
-10.946600 0.000000
-10.930600 0.000000
-10.914600 0.000000
-10.898600 0.000000
-10.882600 0.000000
-10.866600 0.000000
-10.850600 0.000000
-10.834600 0.000000
-10.818600 0.000000
-10.802600 0.000000
-10.786500 0.000000
-10.770500 0.000000
-10.754500 0.000000
-10.738500 0.000000
-10.722500 0.000000
-10.706500 0.000000
-10.690500 0.000000
-10.674500 0.000000
-10.658500 0.000000
-10.642500 0.000000
-10.626500 0.000000
-10.610500 0.000000
-10.594500 0.000000
-10.578500 0.000000
-10.562500 0.000000
-10.546500 0.000000
-10.530400 0.000000
-10.514400 0.000000
-10.498400 0.000000
-10.482400 0.000000
-10.466400 0.000000
-10.450400 0.000000
-10.434400 0.000000
-10.418400 0.000000
-10.402400 0.000000
-10.386400 0.000000
-10.370400 0.000000
-10.354400 0.000000
-10.338400 0.000000
-10.322400 0.000000
-10.306400 0.000000
-10.290300 0.000000
-10.274300 0.000000
-10.258300 0.000000
-10.242300 0.000000
-10.226300 0.000000
-10.210300 0.000000
-10.194300 0.000000
-10.178300 0.000000
-10.162300 0.000000
-10.146300 0.000000
-10.130300 0.000000
-10.114300 0.000000
-10.098300 0.000000
-10.082300 0.000000
-10.066300 0.000000
-10.050200 0.000000
-10.034200 0.000000
-10.018200 0.000000
-10.002200 0.000000
-9.986200 0.000000
-9.970200 0.000000
-9.954200 0.000000
-9.938200 0.000000
-9.922200 0.000000
-9.906200 0.000000
-9.890200 0.000000
-9.874200 0.000000
-9.858200 0.000000
-9.842200 0.000000
-9.826200 0.000000
-9.810200 0.000000
-9.794100 0.000000
-9.778100 0.000000
-9.762100 0.000000
-9.746100 0.000000
-9.730100 0.000000
-9.714100 0.000000
-9.698100 0.000000
-9.682100 0.000000
-9.666100 0.000000
-9.650100 0.000000
-9.634100 0.000000
-9.618100 0.000000
-9.602100 0.000000
-9.586100 0.000000
-9.570100 0.000000
-9.554000 0.000000
-9.538000 0.000000
-9.522000 0.000000
-9.506000 0.000000
-9.490000 0.000000
-9.474000 0.000000
-9.458000 0.000000
-9.442000 0.000000
-9.426000 0.000000
-9.410000 0.000000
-9.394000 0.000000
-9.378000 0.000000
-9.362000 0.000000
-9.346000 0.000000
-9.330000 0.000000
-9.313900 0.000000
-9.297900 0.000000
-9.281900 0.000000
-9.265900 0.000000
-9.249900 0.000000
-9.233900 0.000000
-9.217900 0.000000
-9.201900 0.000000
-9.185900 0.000000
-9.169900 0.000000
-9.153900 0.000000
-9.137900 0.000000
-9.121900 0.000000
-9.105900 0.000000
-9.089900 0.000000
-9.073900 0.000000
-9.057800 0.000000
-9.041800 0.000000
-9.025800 0.000000
-9.009800 0.000000
-8.993800 0.000000
-8.977800 0.000000
-8.961800 0.000000
-8.945800 0.000000
-8.929800 0.000000
-8.913800 0.000000
-8.897800 0.000000
-8.881800 0.000000
-8.865800 0.000000
-8.849800 0.000000
-8.833800 0.000000
-8.817700 0.000000
-8.801700 0.000000
-8.785700 0.000000
-8.769700 0.000000
-8.753700 0.000000
-8.737700 0.000000
-8.721700 0.000000
-8.705700 0.000000
-8.689700 0.000000
-8.673700 0.000000
-8.657700 0.000000
-8.641700 0.000000
-8.625700 0.000000
-8.609700 0.000000
-8.593700 0.000000
-8.577600 0.000000
-8.561600 0.000000
-8.545600 0.000000
-8.529600 0.000000
-8.513600 0.000000
-8.497600 0.000000
-8.481600 0.000000
-8.465600 0.000000
-8.449600 0.000000
-8.433600 0.000000
-8.417600 0.000000
-8.401600 0.000000
-8.385600 0.000000
-8.369600 0.000000
-8.353600 0.000000
-8.337500 0.000000
-8.321500 0.000000
-8.305500 0.000000
-8.289500 0.000000
-8.273500 0.000000
-8.257500 0.000000
-8.241500 0.000000
-8.225500 0.000000
-8.209500 0.000000
-8.193500 0.000000
-8.177500 0.000000
-8.161500 0.000000
-8.145500 0.000000
-8.129500 0.000000
-8.113500 0.000000
-8.097500 0.000000
-8.081400 0.000000
-8.065400 0.000000
-8.049400 0.000000
-8.033400 0.000000
-8.017400 0.000000
-8.001400 0.000000
-7.985400 0.000000
-7.969400 0.000000
-7.953400 0.000000
-7.937400 0.000000
-7.921400 0.000000
-7.905400 0.000000
-7.889400 0.000000
-7.873400 0.000000
-7.857400 0.000000
-7.841300 0.000000
-7.825300 0.000000
-7.809300 0.000000
-7.793300 0.000000
-7.777300 0.000000
-7.761300 0.000000
-7.745300 0.000000
-7.729300 0.000000
-7.713300 0.000000
-7.697300 0.000000
-7.681300 0.000000
-7.665300 0.000000
-7.649300 0.000000
-7.633300 0.000000
-7.617300 0.000000
-7.601200 0.000000
-7.585200 0.000000
-7.569200 0.000000
-7.553200 0.000000
-7.537200 0.000000
-7.521200 0.000000
-7.505200 0.000000
-7.489200 0.000000
-7.473200 0.000000
-7.457200 0.000000
-7.441200 0.000000
-7.425200 0.000000
-7.409200 0.000000
-7.393200 0.000000
-7.377200 0.000000
-7.361200 0.000000
-7.345100 0.000000
-7.329100 0.000000
-7.313100 0.000000
-7.297100 0.000000
-7.281100 0.000000
-7.265100 0.000000
-7.249100 0.000000
-7.233100 0.000000
-7.217100 0.000000
-7.201100 0.000000
-7.185100 0.000000
-7.169100 0.000000
-7.153100 0.000000
-7.137100 0.000000
-7.121100 0.000000
-7.105000 0.000000
-7.089000 0.000000
-7.073000 0.000000
-7.057000 0.000000
-7.041000 0.000000
-7.025000 0.000000
-7.009000 0.000000
-6.993000 0.000000
-6.977000 0.000000
-6.961000 0.000000
-6.945000 0.000000
-6.929000 0.000000
-6.913000 0.000000
-6.897000 0.000000
-6.881000 0.000000
-6.864900 0.000000
-6.848900 0.000000
-6.832900 0.000000
-6.816900 0.000000
-6.800900 0.000000
-6.784900 0.000000
-6.768900 0.000000
-6.752900 0.000000
-6.736900 0.000000
-6.720900 0.000000
-6.704900 0.000000
-6.688900 0.000000
-6.672900 0.000000
-6.656900 0.000000
-6.640900 0.000000
-6.624900 0.000000
-6.608800 0.000000
-6.592800 0.000000
-6.576800 0.000000
-6.560800 0.000000
-6.544800 0.000000
-6.528800 0.000000
-6.512800 0.000000
-6.496800 0.000000
-6.480800 0.000000
-6.464800 0.000000
-6.448800 0.000000
-6.432800 0.000000
-6.416800 0.000000
-6.400800 0.000000
-6.384800 0.000000
-6.368700 0.000000
-6.352700 0.000000
-6.336700 0.000000
-6.320700 0.000000
-6.304700 0.000000
-6.288700 0.000000
-6.272700 0.000000
-6.256700 0.000000
-6.240700 0.000000
-6.224700 0.000000
-6.208700 0.000000
-6.192700 0.000000
-6.176700 0.000000
-6.160700 0.000000
-6.144700 0.000000
-6.128600 0.000000
-6.112600 0.000000
-6.096600 0.000000
-6.080600 0.000000
-6.064600 0.000000
-6.048600 0.000000
-6.032600 0.000000
-6.016600 0.000000
-6.000600 0.000000
-5.984600 0.000000
-5.968600 0.000000
-5.952600 0.000000
-5.936600 0.000000
-5.920600 0.000000
-5.904600 0.000000
-5.888600 0.000000
-5.872500 0.000000
-5.856500 0.000000
-5.840500 0.000000
-5.824500 0.000000
-5.808500 0.000000
-5.792500 0.000000
-5.776500 0.000000
-5.760500 0.000000
-5.744500 0.000000
-5.728500 0.000000
-5.712500 0.000000
-5.696500 0.000000
-5.680500 0.000000
-5.664500 0.000000
-5.648500 0.000000
-5.632400 0.000000
-5.616400 0.000000
-5.600400 0.000000
-5.584400 0.000000
-5.568400 0.000000
-5.552400 0.000000
-5.536400 0.000000
-5.520400 0.000000
-5.504400 0.000000
-5.488400 0.002200
-5.472400 0.121800
-5.456400 0.424000
-5.440400 0.909000
-5.424400 1.635300
-5.408400 2.504800
-5.392300 3.391800
-5.376300 3.914300
-5.360300 4.046000
-5.344300 3.818100
-5.328300 3.193000
-5.312300 2.602500
-5.296300 2.249900
-5.280300 2.341000
-5.264300 2.890000
-5.248300 3.523300
-5.232300 4.014300
-5.216300 4.355400
-5.200300 4.399200
-5.184300 4.273700
-5.168300 4.215800
-5.152200 4.104000
-5.136200 4.003500
-5.120200 3.966300
-5.104200 3.851600
-5.088200 3.720500
-5.072200 3.572100
-5.056200 3.396700
-5.040200 4.807700
-5.024200 5.754300
-5.008200 6.238600
-4.992200 6.799400
-4.976200 6.347500
-4.960200 6.202300
-4.944200 6.331800
-4.928200 6.415500
-4.912200 6.497300
-4.896100 6.571500
-4.880100 6.529800
-4.864100 6.547900
-4.848100 7.300400
-4.832100 8.070100
-4.816100 8.375400
-4.800100 8.003300
-4.784100 6.724300
-4.768100 5.943300
-4.752100 5.517100
-4.736100 5.422300
-4.720100 5.330300
-4.704100 5.234000
-4.688100 5.112100
-4.672100 4.984500
-4.656000 4.869100
-4.640000 4.765600
-4.624000 4.677500
-4.608000 4.520300
-4.592000 4.574800
-4.576000 4.876800
-4.560000 5.380000
-4.544000 5.829900
-4.528000 6.202200
-4.512000 6.441100
-4.496000 6.765500
-4.480000 7.380900
-4.464000 7.813100
-4.448000 8.081900
-4.432000 7.499900
-4.415900 7.249200
-4.399900 6.928200
-4.383900 7.374300
-4.367900 7.857900
-4.351900 8.018100
-4.335900 8.124800
-4.319900 8.672100
-4.303900 9.149900
-4.287900 9.249500
-4.271900 8.943700
-4.255900 8.021200
-4.239900 7.299700
-4.223900 6.863600
-4.207900 6.779500
-4.191900 6.789600
-4.175900 7.162400
-4.159800 8.018700
-4.143800 9.148400
-4.127800 10.327200
-4.111800 12.247900
-4.095800 11.437300
-4.079800 10.442100
-4.063800 8.393000
-4.047800 8.252100
-4.031800 8.484200
-4.015800 8.843200
-3.999800 9.298400
-3.983800 9.803000
-3.967800 12.240800
-3.951800 15.553100
-3.935800 9.533500
-3.919700 9.332200
-3.903700 9.244900
-3.887700 8.856300
-3.871700 8.718600
-3.855700 8.626800
-3.839700 8.523000
-3.823700 8.448700
-3.807700 8.331500
-3.791700 14.633200
-3.775700 8.784900
-3.759700 6.865200
-3.743700 6.699000
-3.727700 6.570500
-3.711700 6.469500
-3.695700 6.413200
-3.679600 6.363200
-3.663600 6.307700
-3.647600 6.207800
-3.631600 6.100200
-3.615600 9.166200
-3.599600 9.046300
-3.583600 9.161100
-3.567600 4.994500
-3.551600 4.977300
-3.535600 4.968100
-3.519600 6.497600
-3.503600 6.505800
-3.487600 7.218200
-3.471600 6.557600
-3.455600 6.512600
-3.439600 4.796100
-3.423500 4.034100
-3.407500 4.026500
-3.391500 4.019900
-3.375500 4.014400
-3.359500 4.010500
-3.343500 4.008100
-3.327500 4.048800
-3.311500 4.176900
-3.295500 4.466800
-3.279500 4.866900
-3.263500 5.284100
-3.247500 5.774200
-3.231500 6.343400
-3.215500 7.533800
-3.199500 8.447600
-3.183400 9.178500
-3.167400 11.469500
-3.151400 12.105300
-3.135400 7.774100
-3.119400 7.921500
-3.103400 8.283700
-3.087400 8.897300
-3.071400 10.904200
-3.055400 12.336400
-3.039400 11.221200
-3.023400 10.456000
-3.007400 4.577200
-2.991400 4.530300
-2.975400 8.932200
-2.959400 8.125000
-2.943300 3.244700
-2.927300 7.905500
-2.911300 13.121400
-2.895300 8.157900
-2.879300 10.457000
-2.863300 11.675200
-2.847300 12.297800
-2.831300 16.727600
-2.815300 17.754400
-2.799300 8.189200
-2.783300 4.917700
-2.767300 4.815100
-2.751300 11.182700
-2.735300 7.503400
-2.719300 5.181000
-2.703300 5.053600
-2.687200 6.045600
-2.671200 11.654700
-2.655200 8.727500
-2.639200 15.600300
-2.623200 8.054400
-2.607200 10.335200
-2.591200 13.373600
-2.575200 16.301500
-2.559200 14.985200
-2.543200 7.561800
-2.527200 7.092800
-2.511200 8.240200
-2.495200 9.687800
-2.479200 11.485900
-2.463200 6.630200
-2.447100 6.519600
-2.431100 6.416400
-2.415100 6.248500
-2.399100 8.290700
-2.383100 10.688000
-2.367100 13.960500
-2.351100 13.675300
-2.335100 10.981000
-2.319100 9.738500
-2.303100 14.657800
-2.287100 24.072600
-2.271100 27.954300
-2.255100 15.908600
-2.239100 13.354400
-2.223100 12.030100
-2.207000 19.476700
-2.191000 17.848700
-2.175000 31.341900
-2.159000 18.044300
-2.143000 18.109200
-2.127000 16.941900
-2.111000 12.954500
-2.095000 12.508500
-2.079000 10.226400
-2.063000 9.338200
-2.047000 13.510600
-2.031000 14.106900
-2.015000 16.102700
-1.999000 19.383700
-1.983000 18.123000
-1.966900 26.648200
-1.950900 43.894600
-1.934900 43.377400
-1.918900 23.190600
-1.902900 11.595200
-1.886900 10.243200
-1.870900 7.758300
-1.854900 12.910600
-1.838900 9.727300
-1.822900 9.693900
-1.806900 9.713700
-1.790900 13.615900
-1.774900 12.683200
-1.758900 8.640200
-1.742900 8.125000
-1.726900 7.688700
-1.710800 7.290600
-1.694800 6.993700
-1.678800 6.709800
-1.662800 5.700700
-1.646800 5.162000
-1.630800 5.160800
-1.614800 5.160100
-1.598800 5.159700
-1.582800 5.159700
-1.566800 5.160100
-1.550800 5.160800
-1.534800 5.000900
-1.518800 4.561300
-1.502800 4.584900
-1.486800 4.636400
-1.470700 4.872400
-1.454700 5.141200
-1.438700 5.426900
-1.422700 5.713700
-1.406700 6.291500
-1.390700 6.629300
-1.374700 6.977900
-1.358700 7.167200
-1.342700 6.862800
-1.326700 6.581500
-1.310700 6.470400
-1.294700 6.535100
-1.278700 6.517000
-1.262700 6.523600
-1.246700 5.673300
-1.230600 3.994200
-1.214600 3.161900
-1.198600 3.074700
-1.182600 3.073900
-1.166600 3.073300
-1.150600 3.072800
-1.134600 3.072400
-1.118600 3.072200
-1.102600 3.672900
-1.086600 3.974400
-1.070600 4.205000
-1.054600 4.354700
-1.038600 4.358400
-1.022600 4.380900
-1.006600 4.440700
-0.990600 4.513100
-0.974500 4.598100
-0.958500 4.697700
-0.942500 5.983100
-0.926500 8.098400
-0.910500 9.314700
-0.894500 8.861900
-0.878500 6.914400
-0.862500 4.121100
-0.846500 2.909500
-0.830500 3.037600
-0.814500 3.196100
-0.798500 3.384800
-0.782500 3.503800
-0.766500 3.744500
-0.750500 3.778700
-0.734400 3.793400
-0.718400 3.777200
-0.702400 3.730000
-0.686400 3.660100
-0.670400 3.592600
-0.654400 3.529500
-0.638400 3.557500
-0.622400 3.732500
-0.606400 3.740800
-0.590400 3.729900
-0.574400 3.716200
-0.558400 3.714300
-0.542400 3.490500
-0.526400 3.488700
-0.510400 4.083100
-0.494300 4.241600
-0.478300 4.262200
-0.462300 4.285500
-0.446300 4.455300
-0.430300 3.717000
-0.414300 2.406300
-0.398300 1.985600
-0.382300 1.619600
-0.366300 1.308500
-0.350300 1.052300
-0.334300 0.850800
-0.318300 0.795600
-0.302300 0.795600
-0.286300 0.795600
-0.270300 0.795700
-0.254300 0.795900
-0.238200 0.796100
-0.222200 0.796400
-0.206200 0.796700
-0.190200 0.797100
-0.174200 0.797600
-0.158200 0.798100
-0.142200 0.864900
-0.126200 1.219100
-0.110200 1.373200
-0.094200 1.457000
-0.078200 1.537600
-0.062200 1.614800
-0.046200 1.688800
-0.030200 1.759500
-0.014200 1.826900
0.001900 1.891000
0.017900 1.947900
0.033900 1.512300
0.049900 1.168700
0.065900 1.038600
0.081900 0.936800
0.097900 0.836900
0.113900 0.738900
0.129900 0.642600
0.145900 0.548300
0.161900 0.455800
0.177900 0.365200
0.193900 0.276400
0.209900 0.189400
0.225900 0.106000
0.242000 0.041800
0.258000 0.000800
0.274000 0.000000
0.290000 0.000000
0.306000 0.000000
0.322000 0.000000
0.338000 0.000000
0.354000 0.000000
0.370000 0.000000
0.386000 0.000000
0.402000 0.000000
0.418000 0.000000
0.434000 0.000000
0.450000 0.000000
0.466000 0.000000
0.482100 0.000000
0.498100 0.000000
0.514100 0.000000
0.530100 0.000000
0.546100 0.000000
0.562100 0.000000
0.578100 0.000000
0.594100 0.000000
0.610100 0.000000
0.626100 0.000000
0.642100 0.000000
0.658100 0.000000
0.674100 0.000000
0.690100 0.000000
0.706100 0.000000
0.722100 0.000000
0.738200 0.000000
0.754200 0.000000
0.770200 0.000000
0.786200 0.000000
0.802200 0.000000
0.818200 0.000000
0.834200 0.000000
0.850200 0.000000
0.866200 0.000000
0.882200 0.000000
0.898200 0.000000
0.914200 0.000000
0.930200 0.000000
0.946200 0.000000
0.962200 0.000000
0.978300 0.000000
0.994300 0.000000
1.010300 0.000000
1.026300 0.000000
1.042300 0.000000
1.058300 0.000000
1.074300 0.000000
1.090300 0.000000
1.106300 0.000000
1.122300 1.262100
1.138300 1.466000
1.154300 1.937900
1.170300 2.733300
1.186300 3.628000
1.202300 3.501100
1.218400 3.353300
1.234400 3.076000
1.250400 3.329800
1.266400 3.928400
1.282400 4.504200
1.298400 5.649500
1.314400 5.640600
1.330400 5.349200
1.346400 5.004700
1.362400 5.050800
1.378400 5.185800
1.394400 4.297000
1.410400 2.866100
1.426400 2.637600
1.442400 2.455700
1.458400 2.320300
1.474500 2.227900
1.490500 2.173600
1.506500 2.143200
1.522500 2.132900
1.538500 2.130500
1.554500 10.668900
1.570500 20.048200
1.586500 11.155800
1.602500 5.119800
1.618500 3.257300
1.634500 3.258500
1.650500 3.256700
1.666500 3.265300
1.682500 4.792500
1.698500 6.842900
1.714600 5.743600
1.730600 5.667100
1.746600 6.005200
1.762600 6.354900
1.778600 6.550400
1.794600 6.650100
1.810600 7.227900
1.826600 6.189200
1.842600 6.386700
1.858600 7.855500
1.874600 9.357800
1.890600 11.088700
1.906600 12.049100
1.922600 15.732800
1.938600 23.155300
1.954700 16.594700
1.970700 24.337600
1.986700 24.461700
2.002700 20.469100
2.018700 18.995000
2.034700 16.106600
2.050700 14.724800
2.066700 15.577400
2.082700 17.757600
2.098700 16.142400
2.114700 19.640800
2.130700 18.958000
2.146700 18.561400
2.162700 18.142200
2.178700 22.198400
2.194700 22.668500
2.210800 20.353300
2.226800 17.295900
2.242800 21.906300
2.258800 12.877000
2.274800 11.784200
2.290800 11.410600
2.306800 11.307000
2.322800 11.685800
2.338800 11.809100
2.354800 11.186700
2.370800 13.419200
2.386800 13.028300
2.402800 11.243200
2.418800 10.897100
2.434800 12.714600
2.450900 12.316600
2.466900 13.517100
2.482900 13.726600
2.498900 16.662100
2.514900 15.551200
2.530900 13.923400
2.546900 13.144000
2.562900 12.756200
2.578900 12.625900
2.594900 12.612200
2.610900 14.778500
2.626900 14.478300
2.642900 12.686700
2.658900 12.915600
2.674900 20.826500
2.691000 12.353800
2.707000 11.817700
2.723000 11.191000
2.739000 13.420900
2.755000 16.698100
2.771000 18.598300
2.787000 16.109900
2.803000 15.807500
2.819000 15.094400
2.835000 14.709700
2.851000 14.251400
2.867000 14.629800
2.883000 14.449300
2.899000 14.182300
2.915000 15.632900
2.931000 17.749100
2.947100 17.235700
2.963100 16.310000
2.979100 16.217100
2.995100 16.410500
3.011100 16.801400
3.027100 17.043700
3.043100 18.509400
3.059100 17.142300
3.075100 18.759500
3.091100 15.840600
3.107100 14.799100
3.123100 14.678200
3.139100 15.245800
3.155100 15.392400
3.171100 15.125400
3.187200 14.902300
3.203200 14.564000
3.219200 14.506700
3.235200 14.420400
3.251200 14.422100
3.267200 14.561000
3.283200 15.062200
3.299200 15.662200
3.315200 13.843900
3.331200 13.228200
3.347200 13.526000
3.363200 14.185600
3.379200 15.060500
3.395200 14.864900
3.411200 15.009100
3.427300 15.013700
3.443300 14.891400
3.459300 14.410900
3.475300 14.059600
3.491300 14.573300
3.507300 15.617800
3.523300 17.856500
3.539300 16.934000
3.555300 17.745500
3.571300 18.159100
3.587300 20.038900
3.603300 18.353900
3.619300 16.921700
3.635300 17.732500
3.651300 18.793700
3.667400 18.519100
3.683400 18.799700
3.699400 18.335400
3.715400 17.739000
3.731400 17.451700
3.747400 21.669700
3.763400 21.953200
3.779400 16.849900
3.795400 17.927800
3.811400 19.601700
3.827400 17.954600
3.843400 15.047500
3.859400 14.478200
3.875400 14.846800
3.891400 20.052700
3.907400 29.547200
3.923500 17.669100
3.939500 16.224400
3.955500 15.614200
3.971500 21.839900
3.987500 20.120800
4.003500 20.983200
4.019500 20.933700
4.035500 20.173400
4.051500 22.319000
4.067500 21.811900
4.083500 26.758000
4.099500 23.589600
4.115500 24.477400
4.131500 23.915300
4.147500 21.380200
4.163600 18.288000
4.179600 18.483100
4.195600 18.576900
4.211600 17.890400
4.227600 18.879900
4.243600 20.521000
4.259600 22.616100
4.275600 21.045900
4.291600 23.489100
4.307600 22.132800
4.323600 25.292800
4.339600 26.698700
4.355600 23.775100
4.371600 24.484100
4.387600 25.066200
4.403700 22.618700
4.419700 20.942800
4.435700 21.188500
4.451700 21.662100
4.467700 20.610300
4.483700 21.609200
4.499700 22.865700
4.515700 27.815800
4.531700 27.184600
4.547700 24.891600
4.563700 23.947100
4.579700 23.210000
4.595700 22.835700
4.611700 22.009000
4.627700 24.105800
4.643700 24.322300
4.659800 24.401500
4.675800 23.321800
4.691800 23.138600
4.707800 23.253300
4.723800 22.967200
4.739800 23.244000
4.755800 21.527300
4.771800 23.303600
4.787800 25.173300
4.803800 22.187800
4.819800 27.861700
4.835800 36.784500
4.851800 28.709800
4.867800 26.847900
4.883800 33.462900
4.899900 30.072600
4.915900 30.427800
4.931900 27.121300
4.947900 22.123800
4.963900 21.716500
4.979900 23.839100
4.995900 24.533900
5.011900 24.109600
5.027900 23.495500
5.043900 22.040700
5.059900 20.963600
5.075900 21.462800
5.091900 23.305400
5.107900 23.870200
5.123900 23.475800
5.140000 21.242200
5.156000 20.907600
5.172000 21.892200
5.188000 23.971400
5.204000 25.024700
5.220000 26.361200
5.236000 32.076400
5.252000 29.562200
5.268000 29.203500
5.284000 30.677500
5.300000 29.575000
5.316000 26.674700
5.332000 23.243900
5.348000 25.625600
5.364000 28.083700
5.380000 26.343300
5.396100 27.144300
5.412100 23.987200
5.428100 22.536000
5.444100 20.395300
5.460100 19.880700
5.476100 22.010800
5.492100 33.227300
5.508100 26.088900
5.524100 22.783000
5.540100 20.978400
5.556100 17.090200
5.572100 17.311000
5.588100 17.716900
5.604100 17.392900
5.620100 17.416300
5.636200 18.378900
5.652200 19.469000
5.668200 19.922000
5.684200 20.201900
5.700200 20.051900
5.716200 21.168000
5.732200 17.366300
5.748200 16.406300
5.764200 16.091100
5.780200 15.460200
5.796200 14.550000
5.812200 13.644400
5.828200 12.894300
5.844200 12.656000
5.860200 13.252500
5.876300 14.980800
5.892300 16.492100
5.908300 11.370700
5.924300 9.614600
5.940300 13.537400
5.956300 10.492100
5.972300 7.923800
5.988300 6.092500
6.004300 4.968300
6.020300 5.436400
6.036300 6.026600
6.052300 6.566000
6.068300 7.370900
6.084300 7.691900
6.100300 7.827100
6.116300 8.012900
6.132400 7.235900
6.148400 5.678800
6.164400 4.982900
6.180400 5.641500
6.196400 6.893200
6.212400 7.445200
6.228400 7.592400
6.244400 7.643200
6.260400 8.042100
6.276400 8.611900
6.292400 8.283700
6.308400 7.765900
6.324400 8.240400
6.340400 7.839200
6.356400 7.646400
6.372500 6.918100
6.388500 6.436000
6.404500 5.889700
6.420500 5.726600
6.436500 5.642300
6.452500 4.320500
6.468500 5.759700
6.484500 7.855100
6.500500 9.212000
6.516500 9.872600
6.532500 10.393600
6.548500 9.794800
6.564500 9.605300
6.580500 9.006800
6.596500 8.317000
6.612600 7.713000
6.628600 7.428000
6.644600 7.326800
6.660600 7.337000
6.676600 7.390000
6.692600 7.499100
6.708600 7.664300
6.724600 7.436700
6.740600 7.677600
6.756600 8.829000
6.772600 9.581100
6.788600 9.042000
6.804600 8.809300
6.820600 8.620700
6.836600 8.752000
6.852700 8.252900
6.868700 7.957600
6.884700 8.687800
6.900700 9.831200
6.916700 11.257000
6.932700 14.603900
6.948700 15.244800
6.964700 13.137900
6.980700 12.644800
6.996700 14.054300
7.012700 12.522800
7.028700 12.570700
7.044700 12.542400
7.060700 12.847800
7.076700 10.634400
7.092700 10.014100
7.108800 10.482200
7.124800 8.979300
7.140800 8.910900
7.156800 11.349300
7.172800 12.910600
7.188800 9.715300
7.204800 7.216600
7.220800 6.316000
7.236800 4.380400
7.252800 3.651000
7.268800 3.309100
7.284800 3.738800
7.300800 4.759600
7.316800 5.933500
7.332800 6.981000
7.348900 8.150000
7.364900 8.903400
7.380900 10.497600
7.396900 14.611600
7.412900 18.043600
7.428900 21.598700
7.444900 19.468400
7.460900 16.534400
7.476900 13.806200
7.492900 11.545200
7.508900 12.222500
7.524900 13.934900
7.540900 15.231300
7.556900 15.874200
7.572900 15.685600
7.589000 14.797100
7.605000 13.146600
7.621000 13.603200
7.637000 13.845300
7.653000 17.834400
7.669000 16.111500
7.685000 14.288800
7.701000 12.738300
7.717000 14.194200
7.733000 14.178500
7.749000 13.994100
7.765000 13.458800
7.781000 13.041100
7.797000 12.563800
7.813000 15.566100
7.829000 19.105600
7.845100 22.579600
7.861100 20.418300
7.877100 16.007000
7.893100 14.763000
7.909100 14.662400
7.925100 15.002600
7.941100 19.085700
7.957100 16.368300
7.973100 15.750100
7.989100 16.101100
8.005100 17.313700
8.021100 18.360700
8.037100 19.909600
8.053100 20.369200
8.069100 18.481400
8.085200 20.858100
8.101200 20.513300
8.117200 22.573000
8.133200 22.966800
8.149200 22.178600
8.165200 21.912000
8.181200 17.778900
8.197200 18.186800
8.213200 19.005800
8.229200 21.244200
8.245200 21.053400
8.261200 21.912800
8.277200 23.558400
8.293200 24.520100
8.309200 24.023900
8.325300 22.901000
8.341300 21.253900
8.357300 20.389600
8.373300 20.173300
8.389300 20.501200
8.405300 20.663300
8.421300 19.291500
8.437300 19.179900
8.453300 19.512400
8.469300 20.354400
8.485300 21.515500
8.501300 24.587100
8.517300 25.808700
8.533300 31.502500
8.549300 31.757400
8.565300 30.001400
8.581400 29.005200
8.597400 29.322600
8.613400 26.128300
8.629400 23.784400
8.645400 24.177900
8.661400 25.962300
8.677400 28.769400
8.693400 29.922100
8.709400 23.454700
8.725400 23.444600
8.741400 27.557500
8.757400 28.080400
8.773400 26.290000
8.789400 21.454000
8.805400 19.663200
8.821500 17.341200
8.837500 17.986400
8.853500 19.286900
8.869500 20.644100
8.885500 20.636400
8.901500 21.139800
8.917500 21.940700
8.933500 23.574000
8.949500 27.906300
8.965500 28.040700
8.981500 25.668900
8.997500 26.505500
9.013500 26.946400
9.029500 26.903100
9.045500 27.289000
9.061600 24.308400
9.077600 24.546600
9.093600 25.744600
9.109600 26.471800
9.125600 28.423400
9.141600 27.322200
9.157600 25.419500
9.173600 23.292800
9.189600 23.796000
9.205600 24.882400
9.221600 28.398500
9.237600 25.117500
9.253600 25.614600
9.269600 26.514700
9.285600 33.456600
9.301600 24.252600
9.317700 28.049700
9.333700 28.055900
9.349700 28.050400
9.365700 25.428600
9.381700 23.073600
9.397700 24.594500
9.413700 25.729200
9.429700 28.567000
9.445700 26.561700
9.461700 26.763400
9.477700 25.632900
9.493700 26.217000
9.509700 27.108700
9.525700 31.070800
9.541700 28.142700
9.557800 28.060000
9.573800 23.634300
9.589800 26.244800
9.605800 24.617100
9.621800 25.460500
9.637800 28.487200
9.653800 28.095900
9.669800 29.035300
9.685800 27.427900
9.701800 28.884700
9.717800 29.777700
9.733800 29.397000
9.749800 29.472300
9.765800 33.354800
9.781800 33.028400
9.797900 33.206400
9.813900 32.445100
9.829900 31.837500
9.845900 32.673800
9.861900 32.749900
9.877900 30.092300
9.893900 32.668700
9.909900 33.417000
9.925900 45.680100
9.941900 38.365400
9.957900 34.252900
9.973900 35.152400
9.989900 36.921500
10.005900 30.962600
10.021900 28.219400
10.038000 31.772100
10.054000 30.587600
10.070000 30.019400
10.086000 38.427300
10.102000 32.859300
10.118000 35.440500
10.134000 33.199200
10.150000 32.453700
10.166000 35.166000
10.182000 37.789700
10.198000 34.217300
10.214000 35.737300
10.230000 31.379900
10.246000 37.560100
10.262000 39.942100
10.278000 37.194100
10.294100 33.239600
10.310100 39.556800
10.326100 34.277000
10.342100 40.116000
10.358100 33.088300
10.374100 34.619300
10.390100 26.968400
10.406100 22.977300
10.422100 25.489800
10.438100 34.583100
10.454100 35.228400
10.470100 33.345000
10.486100 27.822900
10.502100 27.367600
10.518100 26.965100
10.534200 26.173100
10.550200 26.188900
10.566200 35.751600
10.582200 37.536400
10.598200 34.504600
10.614200 30.550500
10.630200 27.537300
10.646200 27.824200
10.662200 28.471400
10.678200 29.793900
10.694200 28.516600
10.710200 29.093700
10.726200 30.722600
10.742200 31.558700
10.758200 32.750500
10.774300 34.597600
10.790300 32.065400
10.806300 35.543800
10.822300 33.383800
10.838300 28.654800
10.854300 25.188900
10.870300 24.672400
10.886300 28.149800
10.902300 26.849400
10.918300 24.396600
10.934300 24.652100
10.950300 23.518200
10.966300 26.080600
10.982300 25.281600
10.998300 28.509100
11.014300 29.665700
11.030400 24.349700
11.046400 20.373000
11.062400 22.669000
11.078400 25.990300
11.094400 27.376900
11.110400 21.958400
11.126400 21.970400
11.142400 23.089700
11.158400 26.655800
11.174400 28.840100
11.190400 22.907400
11.206400 20.851100
11.222400 20.672200
11.238400 21.496700
11.254400 21.088300
11.270500 19.224000
11.286500 19.946600
11.302500 20.416500
11.318500 19.043400
11.334500 20.405500
11.350500 18.923000
11.366500 17.346900
11.382500 17.170800
11.398500 18.517600
11.414500 16.510800
11.430500 16.473100
11.446500 15.424500
11.462500 15.965600
11.478500 18.157100
11.494500 17.422800
11.510600 13.583200
11.526600 11.981000
11.542600 5.817700
11.558600 5.873100
11.574600 12.350000
11.590600 18.565400
11.606600 15.585800
11.622600 12.026400
11.638600 9.027600
11.654600 7.683400
11.670600 8.423300
11.686600 11.153800
11.702600 7.446700
11.718600 9.730100
11.734600 8.747700
11.750600 8.568600
11.766700 7.246700
11.782700 8.128300
11.798700 6.287800
11.814700 3.787700
11.830700 1.794300
11.846700 0.818800
11.862700 0.060000
11.878700 0.000000
11.894700 0.000000
11.910700 0.000000
11.926700 0.000000
11.942700 0.000000
11.958700 0.000000
11.974700 0.000000
11.990700 0.000000
12.006800 0.000000
12.022800 0.000000
12.038800 0.000000
12.054800 0.000000
12.070800 0.000000
12.086800 0.000000
12.102800 0.000000
12.118800 0.000000
12.134800 0.000000
12.150800 0.000000
12.166800 0.000000
12.182800 0.000000
12.198800 0.000000
12.214800 0.000000
12.230800 0.000000
12.246900 0.000000
12.262900 0.000000
12.278900 0.000000
12.294900 0.000000
12.310900 0.000000
12.326900 0.000000
12.342900 0.000000
12.358900 0.000000
12.374900 0.000000
12.390900 0.000000
12.406900 0.000000
12.422900 0.000000
12.438900 0.000000
12.454900 0.000000
12.470900 0.000000
12.486900 0.000000
12.503000 0.000000
12.519000 0.000000
12.535000 0.000000
12.551000 0.000000
12.567000 0.000000
12.583000 0.000000
12.599000 0.000000
12.615000 0.000000
12.631000 0.000000
12.647000 0.000000
12.663000 0.000000
12.679000 0.000000
12.695000 0.000000
12.711000 0.000000
12.727000 0.000000
12.743100 0.000000
12.759100 0.000000
12.775100 0.000000
12.791100 0.000000
12.807100 0.000000
12.823100 0.000000
12.839100 0.000000
12.855100 0.000000
12.871100 0.000000
12.887100 0.000000
12.903100 0.000000
12.919100 0.000000
12.935100 0.000000
12.951100 0.000000
12.967100 0.000000
12.983200 0.000000
12.999200 0.000000
13.015200 0.000000
13.031200 0.000000
13.047200 0.000000
13.063200 0.000000
13.079200 0.000000
13.095200 0.000000
13.111200 0.000000
13.127200 0.000000
13.143200 0.000000
13.159200 0.000000
13.175200 0.000000
13.191200 0.000000
13.207200 0.000000
13.223300 0.000000
13.239300 0.000000
13.255300 0.000000
13.271300 0.000000
13.287300 0.000000
13.303300 0.000000
13.319300 0.000000
e
