set title 'mp-9853 - Density of States'
set xlabel 'Energy (eV)'
set ylabel 'DOS (states/eV)'
set grid
set xrange [-10:10]
set yrange [0:13.857]
set xzeroaxis lt -1
set terminal png size 800,600
set output 'mp-9853_dos_gnuplot.png'
plot '-' using 1:2 with lines title 'DOS'
-23.000000 0.000000
-22.978200 0.000000
-22.956300 0.000000
-22.934500 0.000000
-22.912700 0.000000
-22.890900 0.000000
-22.869100 0.000000
-22.847200 0.000000
-22.825400 0.000000
-22.803600 0.000000
-22.781800 0.000000
-22.760000 0.000000
-22.738100 0.000000
-22.716300 0.000000
-22.694500 0.000000
-22.672700 0.000000
-22.650900 0.000000
-22.629000 0.000000
-22.607200 0.000000
-22.585400 0.000000
-22.563600 0.000000
-22.541800 0.000000
-22.519900 0.000000
-22.498100 0.000000
-22.476300 0.000000
-22.454500 0.000000
-22.432700 0.000000
-22.410800 0.000000
-22.389000 0.000000
-22.367200 0.000000
-22.345400 0.000000
-22.323600 0.000000
-22.301700 0.000000
-22.279900 0.000000
-22.258100 0.000000
-22.236300 0.000000
-22.214500 0.000000
-22.192600 0.000000
-22.170800 0.000000
-22.149000 0.000000
-22.127200 0.000000
-22.105400 0.000000
-22.083500 0.000000
-22.061700 0.000000
-22.039900 0.000000
-22.018100 0.000000
-21.996300 0.000000
-21.974500 0.000000
-21.952600 0.000000
-21.930800 0.000000
-21.909000 0.000000
-21.887200 0.000000
-21.865400 0.000000
-21.843500 0.000000
-21.821700 0.000000
-21.799900 0.000000
-21.778100 0.000000
-21.756300 0.000000
-21.734400 0.000000
-21.712600 0.000000
-21.690800 0.000000
-21.669000 0.000000
-21.647200 0.000000
-21.625300 0.000000
-21.603500 0.000000
-21.581700 0.000000
-21.559900 0.000000
-21.538100 0.000000
-21.516200 0.000000
-21.494400 0.000000
-21.472600 0.000000
-21.450800 0.000000
-21.429000 0.000000
-21.407100 0.000000
-21.385300 0.000000
-21.363500 0.000000
-21.341700 0.000000
-21.319900 0.000000
-21.298000 0.000000
-21.276200 0.000000
-21.254400 0.000000
-21.232600 0.000000
-21.210800 0.000000
-21.188900 0.000000
-21.167100 0.000000
-21.145300 0.000000
-21.123500 0.000000
-21.101700 0.000000
-21.079800 0.000000
-21.058000 0.000000
-21.036200 0.000000
-21.014400 849.610400
-20.992600 0.000000
-20.970700 0.000000
-20.948900 0.000000
-20.927100 0.000000
-20.905300 0.000000
-20.883500 0.000000
-20.861700 0.000000
-20.839800 376.346500
-20.818000 0.000000
-20.796200 0.000000
-20.774400 0.000000
-20.752600 0.000000
-20.730700 0.000000
-20.708900 0.000000
-20.687100 0.000000
-20.665300 0.000000
-20.643500 0.000000
-20.621600 0.000000
-20.599800 0.000000
-20.578000 0.000000
-20.556200 0.000000
-20.534400 0.000000
-20.512500 0.000000
-20.490700 0.000000
-20.468900 0.000000
-20.447100 0.000000
-20.425300 0.000000
-20.403400 0.000000
-20.381600 0.000000
-20.359800 0.000000
-20.338000 0.000000
-20.316200 0.000000
-20.294300 0.000000
-20.272500 0.000000
-20.250700 0.000000
-20.228900 0.000000
-20.207100 0.000000
-20.185200 0.000000
-20.163400 0.000000
-20.141600 0.000000
-20.119800 0.000000
-20.098000 0.000000
-20.076100 0.000000
-20.054300 0.000000
-20.032500 0.000000
-20.010700 0.000000
-19.988900 0.000000
-19.967000 0.000000
-19.945200 0.000000
-19.923400 0.000000
-19.901600 0.000000
-19.879800 0.000000
-19.857900 0.000000
-19.836100 0.000000
-19.814300 0.000000
-19.792500 0.000000
-19.770700 0.000000
-19.748900 0.000000
-19.727000 0.000000
-19.705200 0.000000
-19.683400 0.000000
-19.661600 0.000000
-19.639800 0.000000
-19.617900 0.000000
-19.596100 0.000000
-19.574300 0.000000
-19.552500 0.000000
-19.530700 0.000000
-19.508800 0.000000
-19.487000 0.000000
-19.465200 0.000000
-19.443400 0.000000
-19.421600 0.000000
-19.399700 0.000000
-19.377900 0.000000
-19.356100 0.000000
-19.334300 0.000000
-19.312500 0.000000
-19.290600 0.000000
-19.268800 0.000000
-19.247000 0.000000
-19.225200 0.000000
-19.203400 0.000000
-19.181500 0.000000
-19.159700 0.000000
-19.137900 0.000000
-19.116100 0.000000
-19.094300 0.000000
-19.072400 0.000000
-19.050600 0.000000
-19.028800 0.000000
-19.007000 0.000000
-18.985200 0.000000
-18.963300 0.000000
-18.941500 0.000000
-18.919700 0.000000
-18.897900 0.000000
-18.876100 0.000000
-18.854200 0.000000
-18.832400 0.000000
-18.810600 0.000000
-18.788800 0.000000
-18.767000 0.000000
-18.745100 0.000000
-18.723300 0.000000
-18.701500 0.000000
-18.679700 0.000000
-18.657900 0.000000
-18.636100 0.000000
-18.614200 0.000000
-18.592400 0.000000
-18.570600 0.000000
-18.548800 0.000000
-18.527000 0.000000
-18.505100 0.000000
-18.483300 0.000000
-18.461500 0.000000
-18.439700 0.000000
-18.417900 0.000000
-18.396000 0.000000
-18.374200 0.000000
-18.352400 0.000000
-18.330600 0.000000
-18.308800 0.000000
-18.286900 0.000000
-18.265100 0.000000
-18.243300 0.000000
-18.221500 0.000000
-18.199700 0.000000
-18.177800 0.000000
-18.156000 0.000000
-18.134200 0.000000
-18.112400 0.000000
-18.090600 0.000000
-18.068700 0.000000
-18.046900 0.000000
-18.025100 0.000000
-18.003300 0.000000
-17.981500 0.000000
-17.959600 0.000000
-17.937800 0.000000
-17.916000 0.000000
-17.894200 0.000000
-17.872400 0.000000
-17.850500 0.000000
-17.828700 0.000000
-17.806900 0.000000
-17.785100 0.000000
-17.763300 0.000000
-17.741400 0.000000
-17.719600 0.000000
-17.697800 0.000000
-17.676000 0.000000
-17.654200 0.000000
-17.632300 0.000000
-17.610500 0.000000
-17.588700 0.000000
-17.566900 0.000000
-17.545100 0.000000
-17.523200 0.000000
-17.501400 0.000000
-17.479600 0.000000
-17.457800 0.000000
-17.436000 0.000000
-17.414200 0.000000
-17.392300 0.000000
-17.370500 0.000000
-17.348700 0.000000
-17.326900 0.000000
-17.305100 0.000000
-17.283200 0.000000
-17.261400 0.000000
-17.239600 0.000000
-17.217800 0.000000
-17.196000 0.000000
-17.174100 0.000000
-17.152300 0.000000
-17.130500 0.000000
-17.108700 0.000000
-17.086900 0.000000
-17.065000 0.000000
-17.043200 0.000000
-17.021400 0.000000
-16.999600 0.000000
-16.977800 0.000000
-16.955900 0.000000
-16.934100 0.000000
-16.912300 0.000000
-16.890500 0.000000
-16.868700 0.000000
-16.846800 0.000000
-16.825000 0.000000
-16.803200 0.000000
-16.781400 0.000000
-16.759600 0.000000
-16.737700 0.000000
-16.715900 0.000000
-16.694100 0.000000
-16.672300 0.000000
-16.650500 0.000000
-16.628600 0.000000
-16.606800 0.000000
-16.585000 0.000000
-16.563200 0.000000
-16.541400 0.000000
-16.519500 0.000000
-16.497700 0.000000
-16.475900 0.000000
-16.454100 0.000000
-16.432300 0.000000
-16.410400 0.000000
-16.388600 0.000000
-16.366800 0.000000
-16.345000 0.000000
-16.323200 0.000000
-16.301400 0.000000
-16.279500 0.000000
-16.257700 0.000000
-16.235900 0.000000
-16.214100 0.000000
-16.192300 0.000000
-16.170400 0.000000
-16.148600 0.000000
-16.126800 0.000000
-16.105000 0.000000
-16.083200 0.000000
-16.061300 0.000000
-16.039500 0.000000
-16.017700 0.000000
-15.995900 0.000000
-15.974100 0.000000
-15.952200 0.000000
-15.930400 0.000000
-15.908600 0.000000
-15.886800 0.000000
-15.865000 0.000000
-15.843100 0.000000
-15.821300 0.000000
-15.799500 0.000000
-15.777700 0.000000
-15.755900 0.000000
-15.734000 0.000000
-15.712200 0.000000
-15.690400 0.000000
-15.668600 0.000000
-15.646800 0.000000
-15.624900 0.000000
-15.603100 0.000000
-15.581300 0.000000
-15.559500 0.000000
-15.537700 0.000000
-15.515800 0.000000
-15.494000 0.000000
-15.472200 0.000000
-15.450400 0.000000
-15.428600 0.000000
-15.406700 0.000000
-15.384900 0.000000
-15.363100 0.000000
-15.341300 0.000000
-15.319500 0.000000
-15.297600 0.000000
-15.275800 0.000000
-15.254000 0.000000
-15.232200 0.000000
-15.210400 0.000000
-15.188600 0.000000
-15.166700 0.000000
-15.144900 0.000000
-15.123100 0.000000
-15.101300 0.000000
-15.079500 0.000000
-15.057600 0.000000
-15.035800 0.000000
-15.014000 0.000000
-14.992200 0.000000
-14.970400 0.000000
-14.948500 0.000000
-14.926700 0.000000
-14.904900 0.000000
-14.883100 0.000000
-14.861300 0.000000
-14.839400 0.000000
-14.817600 0.000000
-14.795800 0.000000
-14.774000 0.000000
-14.752200 0.000000
-14.730300 0.000000
-14.708500 0.000000
-14.686700 0.000000
-14.664900 0.000000
-14.643100 0.000000
-14.621200 0.000000
-14.599400 0.000000
-14.577600 0.000000
-14.555800 0.000000
-14.534000 0.000000
-14.512100 0.000000
-14.490300 0.000000
-14.468500 0.000000
-14.446700 0.000000
-14.424900 0.000000
-14.403000 0.000000
-14.381200 0.000000
-14.359400 0.000000
-14.337600 0.000000
-14.315800 0.000000
-14.293900 0.000000
-14.272100 0.000000
-14.250300 0.000000
-14.228500 0.000000
-14.206700 0.000000
-14.184800 0.000000
-14.163000 0.000000
-14.141200 0.000000
-14.119400 0.000000
-14.097600 0.000000
-14.075800 0.000000
-14.053900 0.000000
-14.032100 0.000000
-14.010300 0.000000
-13.988500 0.000000
-13.966700 0.000000
-13.944800 0.000000
-13.923000 0.000000
-13.901200 0.000000
-13.879400 0.000000
-13.857600 0.000000
-13.835700 0.000000
-13.813900 0.000000
-13.792100 0.000000
-13.770300 0.000000
-13.748500 0.000000
-13.726600 0.000000
-13.704800 0.000000
-13.683000 0.000000
-13.661200 0.000000
-13.639400 0.000000
-13.617500 0.000000
-13.595700 0.000000
-13.573900 0.000000
-13.552100 0.000000
-13.530300 0.000000
-13.508400 0.000000
-13.486600 0.000000
-13.464800 0.000000
-13.443000 0.000000
-13.421200 0.000000
-13.399300 0.000000
-13.377500 0.000000
-13.355700 0.000000
-13.333900 0.000000
-13.312100 0.000000
-13.290200 0.000000
-13.268400 0.000000
-13.246600 0.000000
-13.224800 0.000000
-13.203000 0.000000
-13.181100 0.000000
-13.159300 0.000000
-13.137500 0.000000
-13.115700 0.000000
-13.093900 0.000000
-13.072000 0.000000
-13.050200 0.000000
-13.028400 0.000000
-13.006600 0.000000
-12.984800 0.000000
-12.963000 0.000000
-12.941100 0.000000
-12.919300 0.000000
-12.897500 0.000000
-12.875700 0.000000
-12.853900 0.000000
-12.832000 0.000000
-12.810200 0.000000
-12.788400 0.000000
-12.766600 0.000000
-12.744800 0.000000
-12.722900 0.000000
-12.701100 0.000000
-12.679300 0.000000
-12.657500 0.000000
-12.635700 0.000000
-12.613800 0.000000
-12.592000 0.000000
-12.570200 0.000000
-12.548400 0.000000
-12.526600 0.000000
-12.504700 0.000000
-12.482900 0.000000
-12.461100 0.000000
-12.439300 0.000000
-12.417500 0.000000
-12.395600 0.000000
-12.373800 0.000000
-12.352000 0.000000
-12.330200 0.000000
-12.308400 0.000000
-12.286500 0.000000
-12.264700 0.000000
-12.242900 0.000000
-12.221100 0.000000
-12.199300 0.000000
-12.177400 0.000000
-12.155600 0.000000
-12.133800 0.000000
-12.112000 0.000000
-12.090200 0.000000
-12.068300 0.000000
-12.046500 0.000000
-12.024700 0.000000
-12.002900 0.000000
-11.981100 0.000000
-11.959200 0.000000
-11.937400 0.000000
-11.915600 0.000000
-11.893800 0.000000
-11.872000 0.000000
-11.850200 0.000000
-11.828300 0.000000
-11.806500 0.000000
-11.784700 0.000000
-11.762900 0.000000
-11.741100 0.000000
-11.719200 0.000000
-11.697400 0.000000
-11.675600 0.000000
-11.653800 0.000000
-11.632000 0.000000
-11.610100 0.000000
-11.588300 0.000000
-11.566500 0.000000
-11.544700 0.000000
-11.522900 0.000000
-11.501000 0.000000
-11.479200 0.000000
-11.457400 0.000000
-11.435600 0.000000
-11.413800 0.000000
-11.391900 0.000000
-11.370100 0.000000
-11.348300 0.000000
-11.326500 0.000000
-11.304700 0.000000
-11.282800 0.000000
-11.261000 0.000000
-11.239200 0.000000
-11.217400 0.000000
-11.195600 0.000000
-11.173700 0.000000
-11.151900 0.000000
-11.130100 0.000000
-11.108300 0.000000
-11.086500 0.000000
-11.064600 0.000000
-11.042800 0.000000
-11.021000 0.000000
-10.999200 0.000000
-10.977400 0.000000
-10.955500 0.000000
-10.933700 0.000000
-10.911900 0.000000
-10.890100 0.000000
-10.868300 0.000000
-10.846400 0.000000
-10.824600 0.000000
-10.802800 0.000000
-10.781000 0.000000
-10.759200 0.000000
-10.737300 0.000000
-10.715500 0.000000
-10.693700 0.000000
-10.671900 0.000000
-10.650100 0.000000
-10.628300 0.000000
-10.606400 0.000000
-10.584600 0.000000
-10.562800 0.000000
-10.541000 0.000000
-10.519200 0.000000
-10.497300 0.000000
-10.475500 0.000000
-10.453700 0.000000
-10.431900 0.000000
-10.410100 0.000000
-10.388200 0.000000
-10.366400 0.000000
-10.344600 0.000000
-10.322800 0.000000
-10.301000 0.000000
-10.279100 0.000000
-10.257300 0.000000
-10.235500 0.000000
-10.213700 0.000000
-10.191900 0.000000
-10.170000 0.000000
-10.148200 0.000000
-10.126400 0.000000
-10.104600 0.000000
-10.082800 0.000000
-10.060900 0.000000
-10.039100 0.000000
-10.017300 0.000000
-9.995500 0.000000
-9.973700 0.000000
-9.951800 0.000000
-9.930000 0.000000
-9.908200 0.000000
-9.886400 0.000000
-9.864600 0.000000
-9.842700 0.000000
-9.820900 0.000000
-9.799100 0.000000
-9.777300 0.000000
-9.755500 0.000000
-9.733600 0.000000
-9.711800 0.000000
-9.690000 0.000000
-9.668200 0.000000
-9.646400 0.000000
-9.624500 0.000000
-9.602700 0.000000
-9.580900 0.000000
-9.559100 0.000000
-9.537300 0.000000
-9.515500 0.000000
-9.493600 0.000000
-9.471800 0.000000
-9.450000 0.000000
-9.428200 0.000000
-9.406400 0.000000
-9.384500 0.000000
-9.362700 0.000000
-9.340900 0.000000
-9.319100 0.000000
-9.297300 0.000000
-9.275400 0.000000
-9.253600 0.000000
-9.231800 0.000000
-9.210000 0.000000
-9.188200 0.000000
-9.166300 0.000000
-9.144500 0.022300
-9.122700 0.285400
-9.100900 0.676800
-9.079100 0.939700
-9.057200 1.057600
-9.035400 1.195800
-9.013600 1.357700
-8.991800 1.528500
-8.970000 1.707800
-8.948100 1.885800
-8.926300 2.312700
-8.904500 2.635700
-8.882700 2.669300
-8.860900 2.837600
-8.839000 3.146200
-8.817200 3.466900
-8.795400 3.496200
-8.773600 3.405100
-8.751800 3.395700
-8.729900 3.440000
-8.708100 3.454000
-8.686300 3.578300
-8.664500 4.105600
-8.642700 4.564900
-8.620800 4.389500
-8.599000 4.274700
-8.577200 4.172400
-8.555400 4.153100
-8.533600 4.146100
-8.511700 4.089900
-8.489900 4.192700
-8.468100 4.035500
-8.446300 4.266600
-8.424500 3.812500
-8.402700 3.547900
-8.380800 3.213700
-8.359000 3.121000
-8.337200 3.082200
-8.315400 3.026800
-8.293600 3.095300
-8.271700 2.589000
-8.249900 2.738700
-8.228100 2.898600
-8.206300 3.042700
-8.184500 3.611800
-8.162600 3.273400
-8.140800 3.276700
-8.119000 3.198200
-8.097200 3.131100
-8.075400 3.056500
-8.053500 2.909000
-8.031700 3.032200
-8.009900 2.225000
-7.988100 2.035600
-7.966300 1.928800
-7.944400 1.833500
-7.922600 1.742200
-7.900800 1.655100
-7.879000 1.571700
-7.857200 1.493300
-7.835300 1.402700
-7.813500 1.337900
-7.791700 1.272200
-7.769900 1.204400
-7.748100 1.136400
-7.726200 1.066800
-7.704400 0.994100
-7.682600 0.916300
-7.660800 0.839900
-7.639000 0.765000
-7.617100 0.692000
-7.595300 0.621700
-7.573500 0.520500
-7.551700 0.421300
-7.529900 0.346400
-7.508000 0.281800
-7.486200 0.285500
-7.464400 0.356800
-7.442600 0.433400
-7.420800 0.523300
-7.398900 0.595800
-7.377100 0.701000
-7.355300 0.843300
-7.333500 1.023500
-7.311700 1.207500
-7.289900 1.358800
-7.268000 1.516100
-7.246200 1.692400
-7.224400 1.856300
-7.202600 2.046200
-7.180800 2.292300
-7.158900 2.460100
-7.137100 2.600100
-7.115300 2.726700
-7.093500 3.452900
-7.071700 3.147700
-7.049800 3.196000
-7.028000 3.202000
-7.006200 3.191200
-6.984400 3.169900
-6.962600 4.055300
-6.940700 3.666000
-6.918900 3.880600
-6.897100 3.531500
-6.875300 3.543700
-6.853500 3.822600
-6.831600 4.136300
-6.809800 4.136200
-6.788000 3.869200
-6.766200 3.738400
-6.744400 3.627800
-6.722500 3.704400
-6.700700 3.220100
-6.678900 2.761700
-6.657100 2.736800
-6.635300 2.689200
-6.613400 2.638100
-6.591600 2.584300
-6.569800 2.529000
-6.548000 2.470100
-6.526200 2.424800
-6.504300 2.624900
-6.482500 2.665200
-6.460700 2.311500
-6.438900 2.148100
-6.417100 1.997700
-6.395200 1.893200
-6.373400 1.811800
-6.351600 1.799900
-6.329800 1.623300
-6.308000 1.446800
-6.286100 1.194900
-6.264300 1.208900
-6.242500 1.229900
-6.220700 1.256900
-6.198900 1.271600
-6.177100 1.286300
-6.155200 1.301000
-6.133400 1.315700
-6.111600 1.330500
-6.089800 1.345200
-6.068000 1.492600
-6.046100 1.751900
-6.024300 2.026700
-6.002500 2.359100
-5.980700 2.632500
-5.958900 2.955600
-5.937000 3.100900
-5.915200 3.205000
-5.893400 3.243100
-5.871600 3.139200
-5.849800 3.183200
-5.827900 3.184000
-5.806100 3.151600
-5.784300 2.988700
-5.762500 2.897500
-5.740700 2.816300
-5.718800 2.763600
-5.697000 2.755400
-5.675200 2.784100
-5.653400 2.813900
-5.631600 2.842100
-5.609700 2.840700
-5.587900 2.712500
-5.566100 2.514900
-5.544300 2.209900
-5.522500 1.905200
-5.500600 1.639400
-5.478800 1.536500
-5.457000 1.575800
-5.435200 1.623500
-5.413400 1.671100
-5.391500 1.718700
-5.369700 1.766200
-5.347900 3.524300
-5.326100 3.893600
-5.304300 2.636400
-5.282400 2.433000
-5.260600 2.279500
-5.238800 2.120800
-5.217000 2.122600
-5.195200 2.124000
-5.173300 2.135200
-5.151500 2.161900
-5.129700 2.299600
-5.107900 2.336800
-5.086100 2.157400
-5.064200 2.394700
-5.042400 2.845500
-5.020600 3.010900
-4.998800 2.587100
-4.977000 2.388600
-4.955200 2.392500
-4.933300 2.385000
-4.911500 2.364800
-4.889700 2.503200
-4.867900 2.561400
-4.846100 2.740500
-4.824200 3.332100
-4.802400 2.889000
-4.780600 2.766700
-4.758800 2.754100
-4.737000 2.918100
-4.715100 3.078800
-4.693300 3.805800
-4.671500 3.494600
-4.649700 3.285900
-4.627900 3.315000
-4.606000 2.198100
-4.584200 2.140700
-4.562400 2.088900
-4.540600 2.036500
-4.518800 1.992800
-4.496900 1.989000
-4.475100 2.005600
-4.453300 2.052800
-4.431500 2.042500
-4.409700 1.964800
-4.387800 1.847600
-4.366000 1.718000
-4.344200 1.638800
-4.322400 1.671600
-4.300600 1.758700
-4.278700 1.868600
-4.256900 1.938900
-4.235100 2.007100
-4.213300 2.070600
-4.191500 2.044300
-4.169600 2.034400
-4.147800 2.053200
-4.126000 2.121300
-4.104200 2.789500
-4.082400 2.398500
-4.060500 2.259100
-4.038700 2.203100
-4.016900 2.220800
-3.995100 2.207200
-3.973300 2.163900
-3.951400 2.105100
-3.929600 2.060500
-3.907800 2.019200
-3.886000 1.956800
-3.864200 1.882600
-3.842400 1.889000
-3.820500 2.249200
-3.798700 2.325700
-3.776900 2.407200
-3.755100 2.289800
-3.733300 2.298700
-3.711400 2.313000
-3.689600 2.346400
-3.667800 2.361000
-3.646000 2.354000
-3.624200 2.362400
-3.602300 2.394100
-3.580500 2.426500
-3.558700 2.468300
-3.536900 2.522400
-3.515100 2.582100
-3.493200 2.624800
-3.471400 2.675000
-3.449600 2.750400
-3.427800 2.885000
-3.406000 3.058800
-3.384100 3.226700
-3.362300 3.444700
-3.340500 3.639700
-3.318700 3.744300
-3.296900 3.800500
-3.275000 3.859000
-3.253200 3.934100
-3.231400 3.972700
-3.209600 3.841000
-3.187800 3.728600
-3.165900 3.624800
-3.144100 3.511000
-3.122300 3.384800
-3.100500 3.254100
-3.078700 3.155700
-3.056800 3.080000
-3.035000 3.014100
-3.013200 2.932000
-2.991400 2.864900
-2.969600 2.800400
-2.947700 2.734600
-2.925900 2.656500
-2.904100 2.461700
-2.882300 2.332300
-2.860500 2.206400
-2.838600 2.124300
-2.816800 2.029900
-2.795000 1.937100
-2.773200 1.880600
-2.751400 1.862900
-2.729600 1.886700
-2.707700 1.974600
-2.685900 1.943000
-2.664100 1.830700
-2.642300 1.710500
-2.620500 1.695100
-2.598600 1.667900
-2.576800 1.581600
-2.555000 1.604100
-2.533200 1.601600
-2.511400 1.498600
-2.489500 1.479300
-2.467700 1.427600
-2.445900 1.508400
-2.424100 1.390100
-2.402300 1.439800
-2.380400 1.568500
-2.358600 1.705600
-2.336800 1.634500
-2.315000 1.713500
-2.293200 1.808300
-2.271300 1.870700
-2.249500 1.934700
-2.227700 1.998700
-2.205900 2.073200
-2.184100 2.244900
-2.162200 2.317800
-2.140400 2.413300
-2.118600 2.507500
-2.096800 2.658600
-2.075000 2.876100
-2.053100 2.993000
-2.031300 3.131000
-2.009500 3.219700
-1.987700 3.303600
-1.965900 3.356200
-1.944000 3.394600
-1.922200 3.358000
-1.900400 3.287000
-1.878600 3.207800
-1.856800 3.105300
-1.834900 3.009200
-1.813100 2.913300
-1.791300 2.873100
-1.769500 2.850000
-1.747700 2.827400
-1.725800 2.802600
-1.704000 2.777200
-1.682200 2.751300
-1.660400 2.748200
-1.638600 2.760300
-1.616800 2.750500
-1.594900 2.718000
-1.573100 2.657600
-1.551300 2.576600
-1.529500 2.466300
-1.507700 2.448600
-1.485800 2.431100
-1.464000 2.418800
-1.442200 2.435400
-1.420400 2.451000
-1.398600 2.473600
-1.376700 2.497400
-1.354900 2.516500
-1.333100 2.540500
-1.311300 2.613100
-1.289500 2.528800
-1.267600 2.493900
-1.245800 2.474500
-1.224000 2.434500
-1.202200 2.388900
-1.180400 2.343000
-1.158500 2.305800
-1.136700 2.468000
-1.114900 2.404100
-1.093100 2.256300
-1.071300 2.154900
-1.049400 2.095600
-1.027600 2.005500
-1.005800 1.906800
-0.984000 1.778200
-0.962200 1.633300
-0.940300 1.712200
-0.918500 1.656300
-0.896700 1.284300
-0.874900 1.028300
-0.853100 0.525600
-0.831200 0.483800
-0.809400 0.401900
-0.787600 0.399500
-0.765800 0.472700
-0.744000 0.576200
-0.722100 0.694900
-0.700300 0.851700
-0.678500 1.034400
-0.656700 1.224100
-0.634900 1.415400
-0.613000 1.557700
-0.591200 1.695500
-0.569400 1.903700
-0.547600 2.108600
-0.525800 2.259700
-0.504000 2.289600
-0.482100 2.343700
-0.460300 2.401000
-0.438500 2.469700
-0.416700 2.558100
-0.394900 2.592700
-0.373000 2.617000
-0.351200 2.664200
-0.329400 2.741100
-0.307600 2.797500
-0.285800 2.863000
-0.263900 2.922800
-0.242100 3.006100
-0.220300 3.098100
-0.198500 3.188500
-0.176700 3.324600
-0.154800 3.369700
-0.133000 3.317600
-0.111200 3.325500
-0.089400 3.328500
-0.067600 3.355300
-0.045700 3.377900
-0.023900 3.405700
-0.002100 3.426500
0.019700 3.428100
0.041500 3.459600
0.063400 3.517700
0.085200 3.588800
0.107000 3.659500
0.128800 3.751900
0.150600 4.042100
0.172500 4.279900
0.194300 4.317500
0.216100 4.394700
0.237900 4.440900
0.259700 4.621800
0.281600 4.975700
0.303400 5.231300
0.325200 5.443600
0.347000 5.430800
0.368800 5.282500
0.390700 5.152500
0.412500 5.213100
0.434300 5.443500
0.456100 5.726200
0.477900 6.266500
0.499800 7.267900
0.521600 7.289600
0.543400 7.198600
0.565200 6.940800
0.587000 7.432000
0.608800 7.114800
0.630700 7.134500
0.652500 7.046500
0.674300 6.496900
0.696100 6.329400
0.717900 6.820800
0.739800 7.099900
0.761600 8.697600
0.783400 7.197300
0.805200 5.919900
0.827000 5.383500
0.848900 5.179800
0.870700 6.068400
0.892500 6.451000
0.914300 4.561200
0.936100 4.050300
0.958000 4.062900
0.979800 4.135800
1.001600 3.961300
1.023400 4.201100
1.045200 4.420800
1.067100 4.613800
1.088900 4.686300
1.110700 4.784700
1.132500 4.737200
1.154300 5.086700
1.176200 5.687800
1.198000 5.311400
1.219800 5.397800
1.241600 5.619400
1.263400 5.910100
1.285300 6.390000
1.307100 6.512800
1.328900 6.845900
1.350700 7.238800
1.372500 6.908600
1.394400 6.321000
1.416200 5.887500
1.438000 5.604000
1.459800 5.063900
1.481600 4.838200
1.503500 4.815800
1.525300 4.858200
1.547100 4.946800
1.568900 5.419200
1.590700 6.109700
1.612600 7.213100
1.634400 6.781000
1.656200 6.660500
1.678000 6.770100
1.699800 6.219500
1.721700 5.977300
1.743500 5.711100
1.765300 5.553200
1.787100 5.026600
1.808900 4.566100
1.830700 4.626900
1.852600 4.775300
1.874400 4.864600
1.896200 4.910300
1.918000 5.029600
1.939800 4.451500
1.961700 4.320700
1.983500 4.288200
2.005300 4.280600
2.027100 4.834900
2.048900 4.271600
2.070800 4.157900
2.092600 4.206500
2.114400 4.596400
2.136200 4.966300
2.158000 5.456800
2.179900 5.684800
2.201700 5.603100
2.223500 5.848200
2.245300 6.081900
2.267100 6.545300
2.289000 6.958500
2.310800 7.415400
2.332600 8.301400
2.354400 8.216800
2.376200 8.003500
2.398100 7.361200
2.419900 6.891700
2.441700 6.778800
2.463500 6.666200
2.485300 6.347800
2.507200 6.477500
2.529000 6.903400
2.550800 8.730500
2.572600 9.162700
2.594400 9.455200
2.616300 8.280500
2.638100 7.533100
2.659900 7.227400
2.681700 7.403900
2.703500 7.574700
2.725400 7.713800
2.747200 7.291200
2.769000 6.982600
2.790800 6.639900
2.812600 6.409400
2.834500 7.603700
2.856300 8.203100
2.878100 7.642800
2.899900 7.388700
2.921700 7.195100
2.943500 7.292900
2.965400 7.482500
2.987200 6.875700
3.009000 6.442700
3.030800 5.596400
3.052600 5.595900
3.074500 5.809800
3.096300 6.668500
3.118100 6.976200
3.139900 6.690800
3.161700 6.618100
3.183600 6.101600
3.205400 5.862500
3.227200 5.313900
3.249000 5.069500
3.270800 5.171900
3.292700 5.303800
3.314500 5.283100
3.336300 5.476100
3.358100 5.887200
3.379900 6.433300
3.401800 7.231600
3.423600 7.246800
3.445400 6.694500
3.467200 6.806300
3.489000 6.798000
3.510900 6.607400
3.532700 6.694600
3.554500 6.449900
3.576300 6.375100
3.598100 6.311200
3.620000 6.317000
3.641800 6.299000
3.663600 7.786400
3.685400 7.794500
3.707200 7.946200
3.729100 8.231400
3.750900 8.647900
3.772700 8.456500
3.794500 7.813300
3.816300 7.544400
3.838200 7.543500
3.860000 7.493600
3.881800 8.254600
3.903600 8.824200
3.925400 9.353300
3.947300 9.461100
3.969100 10.160500
3.990900 9.540200
4.012700 9.423000
4.034500 9.023900
4.056300 8.850100
4.078200 8.975100
4.100000 9.349900
4.121800 9.549900
4.143600 10.473000
4.165400 9.771100
4.187300 10.205900
4.209100 9.328000
4.230900 9.134700
4.252700 9.824600
4.274500 10.825700
4.296400 11.033300
4.318200 9.650700
4.340000 9.431600
4.361800 9.853400
4.383600 10.252600
4.405500 10.023800
4.427300 9.760500
4.449100 9.420100
4.470900 8.759300
4.492700 7.271500
4.514600 7.277100
4.536400 6.009800
4.558200 5.998800
4.580000 5.901100
4.601800 5.546400
4.623700 3.467400
4.645500 2.983900
4.667300 2.970900
4.689100 3.174900
4.710900 3.575200
4.732800 4.082200
4.754600 4.574700
4.776400 5.851900
4.798200 5.832000
4.820000 5.526300
4.841900 5.495100
4.863700 5.967500
4.885500 6.838200
4.907300 7.225800
4.929100 8.252900
4.951000 8.794500
4.972800 10.684600
4.994600 10.688800
5.016400 11.276900
5.038200 9.847900
5.060100 6.895000
5.081900 5.340300
5.103700 5.119500
5.125500 5.098100
5.147300 4.928700
5.169100 4.510100
5.191000 3.843300
5.212800 3.432900
5.234600 3.045100
5.256400 2.650900
5.278200 2.474600
5.300100 2.086400
5.321900 1.568300
5.343700 0.935900
5.365500 0.735200
5.387300 0.610800
5.409200 0.523900
5.431000 0.421000
5.452800 0.296900
5.474600 0.193300
5.496400 0.109600
5.518300 0.048000
5.540100 0.011500
5.561900 0.000000
5.583700 0.000000
5.605500 0.000000
5.627400 0.000000
5.649200 0.000000
5.671000 0.000000
5.692800 0.000000
5.714600 0.000000
5.736500 0.000000
5.758300 0.050300
5.780100 0.151500
5.801900 0.176700
5.823700 0.203600
5.845600 0.232200
5.867400 0.262500
5.889200 0.294400
5.911000 0.322600
5.932800 0.345500
5.954700 0.370200
5.976500 0.396500
5.998300 0.496200
6.020100 0.560000
6.041900 0.617100
6.063800 0.666700
6.085600 0.701600
6.107400 0.725900
6.129200 0.749100
6.151000 0.741500
6.172900 0.789600
6.194700 0.859400
6.216500 0.935800
6.238300 1.044400
6.260100 1.192900
6.281900 1.371100
6.303800 1.594700
6.325600 1.754100
6.347400 1.801100
6.369200 1.457700
6.391000 1.469600
6.412900 1.607900
6.434700 1.633500
6.456500 1.668500
6.478300 1.722200
6.500100 1.820800
6.522000 1.957600
6.543800 2.111700
6.565600 2.252400
6.587400 2.398800
6.609200 2.632300
6.631100 2.798400
6.652900 2.699000
6.674700 2.689200
6.696500 2.755400
6.718300 2.825600
6.740200 2.851100
6.762000 2.868500
6.783800 3.003600
6.805600 3.078000
6.827400 3.152800
6.849300 3.259800
6.871100 3.507500
6.892900 3.759900
6.914700 3.950100
6.936500 4.175100
6.958400 4.298200
6.980200 4.443400
7.002000 4.876900
7.023800 4.852000
7.045600 4.601100
7.067500 4.634600
7.089300 4.683600
7.111100 4.763200
7.132900 5.010400
7.154700 5.303500
7.176600 5.628700
7.198400 5.675200
7.220200 5.521100
7.242000 5.248200
7.263800 5.098300
7.285700 5.078200
7.307500 5.081500
7.329300 5.113300
7.351100 5.154900
7.372900 5.216700
7.394700 5.390100
7.416600 6.691900
7.438400 6.776800
7.460200 7.034800
7.482000 7.117700
7.503800 7.032700
7.525700 6.985700
7.547500 7.059200
7.569300 6.277800
7.591100 5.957300
7.612900 5.820800
7.634800 5.674400
7.656600 5.543400
7.678400 5.639700
7.700200 5.528900
7.722000 5.080500
7.743900 5.011800
7.765700 5.214600
7.787500 5.527300
7.809300 6.180400
7.831100 7.224100
7.853000 7.581700
7.874800 7.730700
7.896600 7.257800
7.918400 7.254900
7.940200 7.515600
7.962100 7.922100
7.983900 8.116800
8.005700 8.209400
8.027500 7.999100
8.049300 7.855500
8.071200 8.049100
8.093000 8.307400
8.114800 9.513500
8.136600 8.304300
8.158400 7.608600
8.180300 7.566700
8.202100 7.848200
8.223900 7.805200
8.245700 8.050100
8.267500 8.447900
8.289400 9.274000
8.311200 10.007100
8.333000 9.153900
8.354800 8.380900
8.376600 7.904100
8.398500 7.788900
8.420300 7.700400
8.442100 8.807300
8.463900 9.761500
8.485700 9.597400
8.507600 9.744800
8.529400 8.852600
8.551200 8.735400
8.573000 8.177700
8.594800 8.243000
8.616600 8.506800
8.638500 9.537700
8.660300 9.398400
8.682100 10.274100
8.703900 9.959900
8.725700 10.134200
8.747600 10.744300
8.769400 9.688600
8.791200 9.247400
8.813000 8.902000
8.834800 8.542100
8.856700 8.064700
8.878500 8.033900
8.900300 8.310200
8.922100 9.096000
8.943900 9.937400
8.965800 9.817000
8.987600 8.888500
9.009400 8.515600
9.031200 8.455800
9.053000 8.171800
9.074900 8.410000
9.096700 8.573400
9.118500 9.215200
9.140300 9.719400
9.162100 8.808700
9.184000 8.600800
9.205800 9.255300
9.227600 9.555900
9.249400 9.761000
9.271200 9.890300
9.293100 9.684600
9.314900 9.315200
9.336700 8.709500
9.358500 8.132100
9.380300 7.942200
9.402200 8.428200
9.424000 10.041600
9.445800 10.833000
9.467600 12.440500
9.489400 12.597000
9.511300 11.854700
9.533100 11.483900
9.554900 10.869400
9.576700 10.438400
9.598500 10.866600
9.620400 10.972700
9.642200 11.556500
9.664000 11.912600
9.685800 12.130200
9.707600 11.469400
9.729400 11.060700
9.751300 10.064600
9.773100 9.868900
9.794900 9.632500
9.816700 8.982900
9.838500 9.102000
9.860400 9.711000
9.882200 10.667300
9.904000 11.435900
9.925800 11.386200
9.947600 11.176300
9.969500 11.066000
9.991300 10.197100
10.013100 9.502500
10.034900 9.390000
10.056700 9.694200
10.078600 10.181500
10.100400 10.842700
10.122200 10.669400
10.144000 11.548500
10.165800 11.581200
10.187700 10.485300
10.209500 9.289400
10.231300 8.928000
10.253100 8.102500
10.274900 7.821600
10.296800 8.116500
10.318600 8.959900
10.340400 9.246600
10.362200 8.689600
10.384000 8.043700
10.405900 8.704800
10.427700 8.769800
10.449500 9.858400
10.471300 11.409000
10.493100 12.164200
10.515000 10.875300
10.536800 10.372400
10.558600 9.534600
10.580400 8.477500
10.602200 8.027000
10.624100 8.075200
10.645900 8.391900
10.667700 8.400000
10.689500 8.598800
10.711300 8.403000
10.733200 8.262100
10.755000 8.684800
10.776800 8.930900
10.798600 9.127300
10.820400 9.111500
10.842200 9.125000
10.864100 8.980400
10.885900 8.414600
10.907700 8.470500
10.929500 8.560200
10.951300 8.957400
10.973200 9.283200
10.995000 9.528900
11.016800 9.637100
11.038600 10.307700
11.060400 9.740500
11.082300 9.226500
11.104100 9.891400
11.125900 10.123800
11.147700 10.238700
11.169500 10.360600
11.191400 10.623400
11.213200 11.435000
11.235000 10.436700
11.256800 9.801600
11.278600 9.066100
11.300500 8.759400
11.322300 8.822400
11.344100 8.915900
11.365900 9.062600
11.387700 8.679200
11.409600 7.473200
11.431400 7.736300
11.453200 7.696700
11.475000 7.843300
11.496800 8.161600
11.518700 9.192300
11.540500 8.808500
11.562300 8.563900
11.584100 8.449700
11.605900 8.351600
11.627800 8.951100
11.649600 9.254000
11.671400 8.400700
11.693200 7.728100
11.715000 7.890600
11.736900 9.118000
11.758700 10.012500
11.780500 9.704900
11.802300 9.865900
11.824100 9.554700
11.846000 9.970300
11.867800 8.084100
11.889600 8.358600
11.911400 8.063400
11.933200 7.474800
11.955000 7.080500
11.976900 7.033100
11.998700 7.528700
12.020500 8.302400
12.042300 8.645100
12.064100 9.026700
12.086000 11.133700
12.107800 10.761100
12.129600 8.673100
12.151400 7.439900
12.173200 6.699000
12.195100 6.382400
12.216900 6.359400
12.238700 6.248800
12.260500 6.130200
12.282300 6.054900
12.304200 5.839900
12.326000 5.588200
12.347800 5.821700
12.369600 5.741700
12.391400 6.154000
12.413300 6.119400
12.435100 6.240500
12.456900 7.053700
12.478700 7.332300
12.500500 7.932500
12.522400 7.261200
12.544200 7.322300
12.566000 7.307900
12.587800 6.884000
12.609600 6.469900
12.631500 6.803700
12.653300 6.211200
12.675100 6.404600
12.696900 7.009900
12.718700 7.658100
12.740600 8.652200
12.762400 8.466400
12.784200 7.251600
12.806000 6.698100
12.827800 6.547800
12.849700 6.827100
12.871500 7.432500
12.893300 6.988700
12.915100 6.899400
12.936900 6.875100
12.958800 6.224200
12.980600 6.325600
13.002400 6.526400
13.024200 6.554500
13.046000 6.509700
13.067800 7.156800
13.089700 7.938300
13.111500 7.688400
13.133300 7.793200
13.155100 7.529600
13.176900 6.872200
13.198800 6.198200
13.220600 5.891200
13.242400 5.904500
13.264200 6.125400
13.286000 6.564900
13.307900 6.739400
13.329700 6.982200
13.351500 7.450900
13.373300 7.501600
13.395100 6.981700
13.417000 6.780000
13.438800 6.957200
13.460600 7.670400
13.482400 7.798100
13.504200 8.022500
13.526100 7.989900
13.547900 8.568600
13.569700 8.344600
13.591500 8.301800
13.613300 8.394700
13.635200 7.941500
13.657000 8.217100
13.678800 8.196300
13.700600 7.597700
13.722400 7.073400
13.744300 6.920500
13.766100 6.729900
13.787900 6.943700
13.809700 7.111300
13.831500 7.703400
13.853400 7.650300
13.875200 7.586000
13.897000 7.614800
13.918800 7.157600
13.940600 6.432200
13.962500 6.228500
13.984300 6.473000
14.006100 7.608700
14.027900 7.725100
14.049700 8.223100
14.071600 7.861000
14.093400 7.345800
14.115200 6.728200
14.137000 6.543300
14.158800 6.582400
14.180600 6.769800
14.202500 6.929600
14.224300 6.942100
14.246100 7.043100
14.267900 7.412700
14.289700 7.510200
14.311600 7.558700
14.333400 7.580200
14.355200 7.633600
14.377000 8.132400
14.398800 8.642800
14.420700 8.256600
14.442500 8.270800
14.464300 7.706200
14.486100 7.289600
14.507900 7.204000
14.529800 7.149500
14.551600 7.235000
14.573400 7.613100
14.595200 8.141700
14.617000 8.336800
14.638900 8.463600
14.660700 8.957300
14.682500 9.740700
14.704300 9.477900
14.726100 8.489300
14.748000 7.997500
14.769800 8.192800
14.791600 8.322100
14.813400 8.283900
14.835200 8.186800
14.857100 7.667100
14.878900 7.326600
14.900700 7.232800
14.922500 7.490900
14.944300 7.243700
14.966200 7.501200
14.988000 7.700700
15.009800 7.963500
15.031600 8.135000
15.053400 7.866400
15.075300 7.807000
15.097100 7.166000
15.118900 7.050500
15.140700 7.086700
15.162500 6.877200
15.184400 6.870700
15.206200 7.480000
15.228000 8.126900
15.249800 8.693500
15.271600 9.308400
15.293500 9.918200
15.315300 10.252500
15.337100 9.247400
15.358900 8.412600
15.380700 7.659000
15.402500 7.398400
15.424400 7.573200
15.446200 7.590400
15.468000 8.242800
15.489800 8.047600
15.511600 8.000600
15.533500 8.059800
15.555300 8.230600
15.577100 7.858800
15.598900 7.850900
15.620700 7.641900
15.642600 7.432400
15.664400 8.016100
15.686200 7.999400
15.708000 7.836000
15.729800 7.600600
15.751700 7.132000
15.773500 7.273500
15.795300 7.656900
15.817100 7.831200
15.838900 8.041100
15.860800 8.436300
15.882600 8.560800
15.904400 8.774000
15.926200 9.279100
15.948000 9.385500
15.969900 8.128100
15.991700 7.701800
16.013500 7.696200
16.035300 7.579100
16.057100 7.042600
16.079000 6.721000
16.100800 6.782800
16.122600 6.950100
16.144400 6.916800
16.166200 6.700600
16.188100 7.108000
16.209900 7.008600
16.231700 7.459900
16.253500 7.508600
16.275300 7.321500
16.297200 7.354000
16.319000 7.471300
16.340800 7.734300
16.362600 7.956600
16.384400 8.155900
16.406300 8.389100
16.428100 8.359400
16.449900 7.990900
16.471700 7.619100
16.493500 7.061800
16.515300 6.802900
16.537200 6.728900
16.559000 6.646300
16.580800 6.798500
16.602600 7.080900
16.624400 7.203600
16.646300 7.274500
16.668100 7.545800
16.689900 7.638400
16.711700 7.877400
16.733500 7.539500
16.755400 7.471500
16.777200 7.360000
16.799000 6.798200
16.820800 6.606100
16.842600 6.510200
16.864500 6.464100
16.886300 6.575100
16.908100 6.771200
16.929900 6.892100
16.951700 6.923700
16.973600 7.143200
16.995400 7.724100
17.017200 8.143900
17.039000 8.229600
17.060800 7.367100
17.082700 7.130500
17.104500 7.596400
17.126300 8.204400
17.148100 8.173900
17.169900 8.166300
17.191800 8.328200
17.213600 8.356000
17.235400 8.307500
17.257200 8.203900
17.279000 8.841500
17.300900 6.938300
17.322700 6.539900
17.344500 6.548600
17.366300 6.858100
17.388100 7.132900
17.410000 7.410200
17.431800 7.733600
17.453600 8.168800
17.475400 8.285800
17.497200 8.107800
17.519100 7.958700
17.540900 7.655800
17.562700 7.495000
17.584500 7.174600
17.606300 6.813400
17.628100 6.859000
17.650000 7.042400
17.671800 7.107700
17.693600 7.101400
17.715400 7.040900
17.737200 6.983800
17.759100 6.868600
17.780900 6.744800
17.802700 6.719300
17.824500 6.767600
17.846300 6.885100
17.868200 7.382100
17.890000 7.420900
17.911800 7.220500
17.933600 6.710500
17.955400 6.375600
17.977300 6.031400
17.999100 5.976500
18.020900 6.056100
18.042700 5.823500
18.064500 5.455000
18.086400 5.440900
18.108200 5.461900
18.130000 5.366500
18.151800 5.068600
18.173600 4.800000
18.195500 4.400900
18.217300 4.180800
18.239100 3.925700
18.260900 3.717000
18.282700 3.330600
18.304600 3.015700
18.326400 2.808200
18.348200 2.581300
18.370000 2.288700
18.391800 1.991200
18.413700 1.632900
18.435500 1.309400
18.457300 1.078200
18.479100 0.855100
18.500900 0.795800
18.522800 0.459400
18.544600 0.279700
18.566400 0.200300
18.588200 0.145600
18.610000 0.085100
18.631900 0.037600
18.653700 0.002600
18.675500 0.000000
18.697300 0.000000
18.719100 0.000000
18.740900 0.000000
18.762800 0.000000
18.784600 0.000000
18.806400 0.000000
18.828200 0.000000
18.850000 0.000000
18.871900 0.000000
18.893700 0.000000
18.915500 0.000000
18.937300 0.000000
18.959100 0.000000
18.981000 0.000000
19.002800 0.000000
19.024600 0.000000
19.046400 0.000000
19.068200 0.000000
19.090100 0.000000
19.111900 0.000000
19.133700 0.000000
19.155500 0.000000
19.177300 0.000000
19.199200 0.000000
19.221000 0.000000
19.242800 0.000000
19.264600 0.000000
19.286400 0.000000
19.308300 0.000000
19.330100 0.000000
19.351900 0.000000
19.373700 0.000000
19.395500 0.000000
19.417400 0.000000
19.439200 0.000000
19.461000 0.000000
19.482800 0.000000
19.504600 0.000000
19.526500 0.000000
19.548300 0.000000
19.570100 0.000000
19.591900 0.000000
19.613700 0.000000
19.635600 0.000000
19.657400 0.000000
19.679200 0.000000
19.701000 0.000000
19.722800 0.000000
19.744700 0.000000
19.766500 0.000000
19.788300 0.000000
19.810100 0.000000
19.831900 0.000000
19.853700 0.000000
19.875600 0.000000
19.897400 0.000000
19.919200 0.000000
19.941000 0.000000
19.962800 0.000000
19.984700 0.000000
20.006500 0.000000
20.028300 0.000000
20.050100 0.000000
20.071900 0.000000
20.093800 0.000000
20.115600 0.000000
20.137400 0.000000
20.159200 0.000000
20.181000 0.000000
20.202900 0.000000
20.224700 0.000000
20.246500 0.000000
20.268300 0.000000
20.290100 0.000000
20.312000 0.000000
20.333800 0.000000
20.355600 0.000000
20.377400 0.000000
20.399200 0.000000
20.421100 0.000000
20.442900 0.000000
20.464700 0.000000
20.486500 0.000000
20.508300 0.000000
20.530200 0.000000
20.552000 0.000000
20.573800 0.000000
20.595600 0.000000
20.617400 0.000000
20.639300 0.000000
e
