set title 'mp-363 - Density of States'
set xlabel 'Energy (eV)'
set ylabel 'DOS (states/eV)'
set grid
set xrange [-10:10]
set yrange [0:16.158]
set xzeroaxis lt -1
set terminal png size 800,600
set output 'mp-363_dos_gnuplot.png'
plot '-' using 1:2 with lines title 'DOS'
-27.901500 0.000000
-27.876800 0.000000
-27.852100 0.000000
-27.827300 0.000000
-27.802600 0.000000
-27.777900 0.000000
-27.753100 0.000000
-27.728400 0.000000
-27.703700 0.000000
-27.679000 0.000000
-27.654200 0.000000
-27.629500 0.000000
-27.604800 0.000000
-27.580000 0.000000
-27.555300 0.000000
-27.530600 0.000000
-27.505900 0.000000
-27.481100 0.000000
-27.456400 0.000000
-27.431700 0.000000
-27.406900 0.000000
-27.382200 0.000000
-27.357500 0.000000
-27.332700 0.000000
-27.308000 0.000000
-27.283300 0.000000
-27.258600 0.000000
-27.233800 0.000000
-27.209100 0.000000
-27.184400 0.000000
-27.159600 0.000000
-27.134900 0.000000
-27.110200 0.000000
-27.085400 0.000000
-27.060700 0.000000
-27.036000 0.000000
-27.011300 0.000000
-26.986500 0.000000
-26.961800 0.000000
-26.937100 0.000000
-26.912300 0.000000
-26.887600 0.000000
-26.862900 0.000000
-26.838100 0.000000
-26.813400 0.000000
-26.788700 0.000000
-26.764000 0.000000
-26.739200 0.000000
-26.714500 0.000000
-26.689800 0.000000
-26.665000 0.000000
-26.640300 0.000000
-26.615600 0.000000
-26.590800 0.000000
-26.566100 0.000000
-26.541400 0.000000
-26.516700 0.000000
-26.491900 0.000000
-26.467200 0.000000
-26.442500 0.000000
-26.417700 0.000000
-26.393000 0.000000
-26.368300 0.000000
-26.343600 0.000000
-26.318800 0.000000
-26.294100 0.000000
-26.269400 0.000000
-26.244600 0.000000
-26.219900 0.000000
-26.195200 0.000000
-26.170400 0.000000
-26.145700 0.000000
-26.121000 0.000000
-26.096300 0.000000
-26.071500 0.000000
-26.046800 0.000000
-26.022100 0.000000
-25.997300 0.000000
-25.972600 0.000000
-25.947900 0.000000
-25.923100 0.000000
-25.898400 0.000000
-25.873700 0.000000
-25.849000 0.000000
-25.824200 0.000000
-25.799500 0.000000
-25.774800 0.000000
-25.750000 0.000000
-25.725300 0.000000
-25.700600 0.000000
-25.675800 0.000000
-25.651100 46.514300
-25.626400 99.235600
-25.601700 34.489300
-25.576900 80.189300
-25.552200 138.104200
-25.527500 67.945600
-25.502700 73.322700
-25.478000 242.515900
-25.453300 105.469700
-25.428500 0.000000
-25.403800 0.000000
-25.379100 0.000000
-25.354400 0.000000
-25.329600 0.000000
-25.304900 0.000000
-25.280200 0.000000
-25.255400 0.000000
-25.230700 0.000000
-25.206000 0.000000
-25.181300 0.000000
-25.156500 0.000000
-25.131800 0.000000
-25.107100 0.000000
-25.082300 0.000000
-25.057600 0.000000
-25.032900 0.000000
-25.008100 0.000000
-24.983400 0.000000
-24.958700 0.000000
-24.934000 0.000000
-24.909200 0.000000
-24.884500 0.000000
-24.859800 0.000000
-24.835000 0.000000
-24.810300 0.000000
-24.785600 0.000000
-24.760800 0.000000
-24.736100 0.000000
-24.711400 0.000000
-24.686700 0.000000
-24.661900 0.000000
-24.637200 0.000000
-24.612500 0.000000
-24.587700 0.000000
-24.563000 0.000000
-24.538300 0.000000
-24.513500 0.000000
-24.488800 0.000000
-24.464100 0.000000
-24.439400 0.000000
-24.414600 0.000000
-24.389900 0.000000
-24.365200 0.000000
-24.340400 0.000000
-24.315700 0.000000
-24.291000 0.000000
-24.266300 0.000000
-24.241500 0.000000
-24.216800 0.000000
-24.192100 0.000000
-24.167300 0.000000
-24.142600 0.000000
-24.117900 0.000000
-24.093100 0.000000
-24.068400 0.000000
-24.043700 0.000000
-24.019000 0.000000
-23.994200 0.000000
-23.969500 0.000000
-23.944800 0.000000
-23.920000 0.000000
-23.895300 0.000000
-23.870600 0.000000
-23.845800 0.000000
-23.821100 0.000000
-23.796400 0.000000
-23.771700 0.000000
-23.746900 0.000000
-23.722200 0.000000
-23.697500 0.000000
-23.672700 0.000000
-23.648000 0.000000
-23.623300 0.000000
-23.598500 0.000000
-23.573800 0.000000
-23.549100 0.000000
-23.524400 0.000000
-23.499600 0.000000
-23.474900 0.000000
-23.450200 0.000000
-23.425400 0.000000
-23.400700 0.000000
-23.376000 0.000000
-23.351200 0.000000
-23.326500 0.000000
-23.301800 0.000000
-23.277100 0.000000
-23.252300 0.000000
-23.227600 0.000000
-23.202900 0.000000
-23.178100 0.000000
-23.153400 0.000000
-23.128700 0.000000
-23.104000 0.000000
-23.079200 0.000000
-23.054500 0.000000
-23.029800 0.000000
-23.005000 0.000000
-22.980300 0.000000
-22.955600 0.000000
-22.930800 0.000000
-22.906100 0.000000
-22.881400 0.000000
-22.856700 0.000000
-22.831900 0.000000
-22.807200 0.000000
-22.782500 0.000000
-22.757700 0.000000
-22.733000 0.000000
-22.708300 0.000000
-22.683500 0.000000
-22.658800 0.000000
-22.634100 0.000000
-22.609400 0.000000
-22.584600 0.000000
-22.559900 0.000000
-22.535200 0.000000
-22.510400 0.000000
-22.485700 0.000000
-22.461000 0.000000
-22.436200 0.000000
-22.411500 0.000000
-22.386800 0.000000
-22.362100 0.000000
-22.337300 0.000000
-22.312600 0.000000
-22.287900 0.000000
-22.263100 0.000000
-22.238400 0.000000
-22.213700 0.000000
-22.188900 0.000000
-22.164200 0.000000
-22.139500 0.000000
-22.114800 0.000000
-22.090000 0.000000
-22.065300 0.000000
-22.040600 0.000000
-22.015800 0.000000
-21.991100 0.000000
-21.966400 0.000000
-21.941700 0.000000
-21.916900 0.000000
-21.892200 0.000000
-21.867500 0.000000
-21.842700 0.000000
-21.818000 0.000000
-21.793300 0.000000
-21.768500 0.000000
-21.743800 0.000000
-21.719100 0.000000
-21.694400 0.000000
-21.669600 0.000000
-21.644900 0.000000
-21.620200 0.000000
-21.595400 0.000000
-21.570700 0.000000
-21.546000 0.000000
-21.521200 0.000000
-21.496500 0.000000
-21.471800 0.000000
-21.447100 0.000000
-21.422300 0.000000
-21.397600 0.000000
-21.372900 0.000000
-21.348100 0.000000
-21.323400 0.000000
-21.298700 0.000000
-21.273900 0.000000
-21.249200 0.000000
-21.224500 0.000000
-21.199800 0.000000
-21.175000 0.000000
-21.150300 0.000000
-21.125600 0.000000
-21.100800 0.000000
-21.076100 0.000000
-21.051400 0.000000
-21.026600 0.000000
-21.001900 0.000000
-20.977200 0.000000
-20.952500 0.000000
-20.927700 0.000000
-20.903000 0.000000
-20.878300 0.000000
-20.853500 0.000000
-20.828800 0.000000
-20.804100 0.000000
-20.779400 0.000000
-20.754600 0.000000
-20.729900 0.000000
-20.705200 0.000000
-20.680400 0.000000
-20.655700 0.000000
-20.631000 0.000000
-20.606200 0.000000
-20.581500 0.000000
-20.556800 0.000000
-20.532100 0.000000
-20.507300 0.000000
-20.482600 0.000000
-20.457900 0.000000
-20.433100 0.000000
-20.408400 0.000000
-20.383700 0.000000
-20.358900 0.000000
-20.334200 0.000000
-20.309500 0.000000
-20.284800 0.000000
-20.260000 0.000000
-20.235300 0.000000
-20.210600 0.000000
-20.185800 0.000000
-20.161100 0.000000
-20.136400 0.000000
-20.111600 0.000000
-20.086900 0.000000
-20.062200 0.000000
-20.037500 0.000000
-20.012700 0.000000
-19.988000 0.000000
-19.963300 0.000000
-19.938500 0.000000
-19.913800 0.000000
-19.889100 0.000000
-19.864400 0.000000
-19.839600 0.000000
-19.814900 0.000000
-19.790200 0.000000
-19.765400 0.000000
-19.740700 0.000000
-19.716000 0.000000
-19.691200 0.000000
-19.666500 0.000000
-19.641800 0.000000
-19.617100 0.000000
-19.592300 0.000000
-19.567600 0.000000
-19.542900 0.000000
-19.518100 0.000000
-19.493400 0.000000
-19.468700 0.000000
-19.443900 0.000000
-19.419200 0.000000
-19.394500 0.000000
-19.369800 0.000000
-19.345000 0.000000
-19.320300 0.000000
-19.295600 0.000000
-19.270800 0.000000
-19.246100 0.000000
-19.221400 0.000000
-19.196600 0.000000
-19.171900 0.000000
-19.147200 0.000000
-19.122500 0.000000
-19.097700 0.000000
-19.073000 58.569700
-19.048300 71.173400
-19.023500 364.795300
-18.998800 221.257400
-18.974100 315.586800
-18.949300 398.917400
-18.924600 476.061000
-18.899900 390.288700
-18.875200 1364.950000
-18.850400 129.093600
-18.825700 0.000000
-18.801000 0.000000
-18.776200 0.000000
-18.751500 0.000000
-18.726800 0.000000
-18.702100 0.000000
-18.677300 0.000000
-18.652600 0.000000
-18.627900 0.000000
-18.603100 0.000000
-18.578400 0.000000
-18.553700 0.000000
-18.528900 0.000000
-18.504200 0.000000
-18.479500 0.000000
-18.454800 0.000000
-18.430000 0.000000
-18.405300 0.000000
-18.380600 0.000000
-18.355800 0.000000
-18.331100 0.000000
-18.306400 0.000000
-18.281600 0.000000
-18.256900 0.000000
-18.232200 0.000000
-18.207500 0.000000
-18.182700 0.000000
-18.158000 0.000000
-18.133300 0.000000
-18.108500 0.000000
-18.083800 0.000000
-18.059100 0.000000
-18.034300 0.000000
-18.009600 0.000000
-17.984900 0.000000
-17.960200 0.000000
-17.935400 0.000000
-17.910700 0.000000
-17.886000 0.000000
-17.861200 0.000000
-17.836500 0.000000
-17.811800 0.000000
-17.787000 0.000000
-17.762300 0.000000
-17.737600 0.000000
-17.712900 0.000000
-17.688100 0.000000
-17.663400 0.000000
-17.638700 0.000000
-17.613900 0.000000
-17.589200 0.000000
-17.564500 0.000000
-17.539800 0.000000
-17.515000 0.000000
-17.490300 0.000000
-17.465600 0.000000
-17.440800 0.000000
-17.416100 0.000000
-17.391400 0.000000
-17.366600 0.000000
-17.341900 0.000000
-17.317200 0.000000
-17.292500 0.000000
-17.267700 0.000000
-17.243000 0.000000
-17.218300 0.000000
-17.193500 0.000000
-17.168800 0.000000
-17.144100 0.000000
-17.119300 0.000000
-17.094600 0.000000
-17.069900 0.000000
-17.045200 0.000000
-17.020400 0.000000
-16.995700 0.000000
-16.971000 0.000000
-16.946200 0.000000
-16.921500 0.000000
-16.896800 0.000000
-16.872000 0.000000
-16.847300 0.000000
-16.822600 0.000000
-16.797900 0.000000
-16.773100 0.000000
-16.748400 0.000000
-16.723700 0.000000
-16.698900 0.000000
-16.674200 0.000000
-16.649500 0.000000
-16.624800 0.000000
-16.600000 0.000000
-16.575300 0.000000
-16.550600 0.000000
-16.525800 0.000000
-16.501100 0.000000
-16.476400 0.000000
-16.451600 0.000000
-16.426900 0.000000
-16.402200 0.000000
-16.377500 0.000000
-16.352700 0.000000
-16.328000 0.000000
-16.303300 0.000000
-16.278500 0.000000
-16.253800 0.000000
-16.229100 0.000000
-16.204300 0.000000
-16.179600 0.000000
-16.154900 0.000000
-16.130200 0.000000
-16.105400 0.000000
-16.080700 0.000000
-16.056000 0.000000
-16.031200 0.000000
-16.006500 0.000000
-15.981800 0.000000
-15.957000 0.000000
-15.932300 0.000000
-15.907600 0.000000
-15.882900 0.000000
-15.858100 0.000000
-15.833400 0.000000
-15.808700 0.000000
-15.783900 0.000000
-15.759200 0.000000
-15.734500 0.000000
-15.709700 0.000000
-15.685000 0.000000
-15.660300 0.000000
-15.635600 0.000000
-15.610800 0.000000
-15.586100 0.000000
-15.561400 0.000000
-15.536600 0.000000
-15.511900 0.000000
-15.487200 0.000000
-15.462500 0.000000
-15.437700 0.000000
-15.413000 0.000000
-15.388300 0.000000
-15.363500 0.000000
-15.338800 0.000000
-15.314100 0.000000
-15.289300 0.000000
-15.264600 0.000000
-15.239900 0.000000
-15.215200 0.000000
-15.190400 0.000000
-15.165700 0.000000
-15.141000 0.000000
-15.116200 0.000000
-15.091500 0.000000
-15.066800 0.000000
-15.042000 0.000000
-15.017300 0.000000
-14.992600 0.000000
-14.967900 0.000000
-14.943100 0.000000
-14.918400 0.000000
-14.893700 0.000000
-14.868900 0.000000
-14.844200 0.000000
-14.819500 0.000000
-14.794700 0.000000
-14.770000 0.000000
-14.745300 0.000000
-14.720600 0.000000
-14.695800 0.000000
-14.671100 0.000000
-14.646400 0.000000
-14.621600 0.000000
-14.596900 0.000000
-14.572200 0.000000
-14.547400 0.000000
-14.522700 0.000000
-14.498000 0.000000
-14.473300 0.000000
-14.448500 0.000000
-14.423800 0.000000
-14.399100 0.000000
-14.374300 0.000000
-14.349600 0.000000
-14.324900 0.000000
-14.300200 0.000000
-14.275400 0.000000
-14.250700 0.000000
-14.226000 0.000000
-14.201200 0.000000
-14.176500 0.000000
-14.151800 0.000000
-14.127000 0.000000
-14.102300 0.000000
-14.077600 0.000000
-14.052900 0.000000
-14.028100 0.000000
-14.003400 0.000000
-13.978700 0.000000
-13.953900 0.000000
-13.929200 0.000000
-13.904500 0.000000
-13.879700 0.000000
-13.855000 0.000000
-13.830300 0.000000
-13.805600 0.000000
-13.780800 0.000000
-13.756100 0.000000
-13.731400 0.000000
-13.706600 0.000000
-13.681900 0.000000
-13.657200 0.000000
-13.632400 0.000000
-13.607700 0.000000
-13.583000 0.000000
-13.558300 0.000000
-13.533500 0.000000
-13.508800 0.000000
-13.484100 0.000000
-13.459300 0.000000
-13.434600 0.000000
-13.409900 0.000000
-13.385100 0.000000
-13.360400 0.000000
-13.335700 0.000000
-13.311000 0.000000
-13.286200 0.000000
-13.261500 0.000000
-13.236800 0.000000
-13.212000 0.000000
-13.187300 0.000000
-13.162600 0.000000
-13.137900 0.000000
-13.113100 0.000000
-13.088400 0.000000
-13.063700 0.000000
-13.038900 0.000000
-13.014200 0.000000
-12.989500 0.000000
-12.964700 0.000000
-12.940000 0.000000
-12.915300 0.000000
-12.890600 0.000000
-12.865800 0.000000
-12.841100 0.000000
-12.816400 0.000000
-12.791600 0.000000
-12.766900 0.000000
-12.742200 0.000000
-12.717400 0.000000
-12.692700 0.000000
-12.668000 0.000000
-12.643300 0.000000
-12.618500 0.000000
-12.593800 0.000000
-12.569100 0.000000
-12.544300 0.000000
-12.519600 0.000000
-12.494900 0.000000
-12.470100 0.000000
-12.445400 0.000000
-12.420700 0.000000
-12.396000 0.000000
-12.371200 0.000000
-12.346500 0.000000
-12.321800 0.000000
-12.297000 0.000000
-12.272300 0.000000
-12.247600 0.000000
-12.222900 0.000000
-12.198100 0.000000
-12.173400 0.000000
-12.148700 0.000000
-12.123900 0.000000
-12.099200 0.000000
-12.074500 0.000000
-12.049700 0.000000
-12.025000 0.000000
-12.000300 0.000000
-11.975600 0.000000
-11.950800 0.000000
-11.926100 0.000000
-11.901400 0.000000
-11.876600 0.000000
-11.851900 0.000000
-11.827200 0.000000
-11.802400 0.000000
-11.777700 0.000000
-11.753000 0.000000
-11.728300 0.000000
-11.703500 0.000000
-11.678800 0.000000
-11.654100 0.000000
-11.629300 0.000000
-11.604600 0.000000
-11.579900 0.000000
-11.555100 0.000000
-11.530400 0.000000
-11.505700 0.000000
-11.481000 0.000000
-11.456200 0.000000
-11.431500 0.000000
-11.406800 0.000000
-11.382000 0.000000
-11.357300 0.000000
-11.332600 0.000000
-11.307800 0.000000
-11.283100 0.000000
-11.258400 0.000000
-11.233700 0.000000
-11.208900 0.000000
-11.184200 0.000000
-11.159500 0.000000
-11.134700 0.000000
-11.110000 0.000000
-11.085300 0.000000
-11.060600 0.000000
-11.035800 0.000000
-11.011100 0.000000
-10.986400 0.000000
-10.961600 0.000000
-10.936900 0.000000
-10.912200 0.000000
-10.887400 0.000000
-10.862700 0.000000
-10.838000 0.000000
-10.813300 0.000000
-10.788500 0.000000
-10.763800 0.000000
-10.739100 0.000000
-10.714300 0.000000
-10.689600 0.000000
-10.664900 0.000000
-10.640100 0.000000
-10.615400 0.000000
-10.590700 0.000000
-10.566000 0.000000
-10.541200 0.000000
-10.516500 0.000000
-10.491800 0.000000
-10.467000 0.000000
-10.442300 0.000000
-10.417600 0.000000
-10.392800 0.000000
-10.368100 0.000000
-10.343400 0.000000
-10.318700 0.000000
-10.293900 0.000000
-10.269200 0.000000
-10.244500 0.000000
-10.219700 0.000000
-10.195000 0.000000
-10.170300 0.000000
-10.145500 0.000000
-10.120800 0.000000
-10.096100 0.000000
-10.071400 0.000000
-10.046600 0.000000
-10.021900 0.000000
-9.997200 0.000000
-9.972400 0.000000
-9.947700 0.000000
-9.923000 0.000000
-9.898300 0.000000
-9.873500 0.000000
-9.848800 0.000000
-9.824100 0.000000
-9.799300 0.000000
-9.774600 0.000000
-9.749900 0.000000
-9.725100 0.000000
-9.700400 0.000000
-9.675700 0.000000
-9.651000 0.000000
-9.626200 0.000000
-9.601500 0.000000
-9.576800 0.000000
-9.552000 0.000000
-9.527300 0.000000
-9.502600 0.000000
-9.477800 0.000000
-9.453100 0.000000
-9.428400 0.000000
-9.403700 0.000000
-9.378900 0.000000
-9.354200 0.000000
-9.329500 0.000000
-9.304700 0.000000
-9.280000 0.000000
-9.255300 0.000000
-9.230500 0.000000
-9.205800 0.000000
-9.181100 0.000000
-9.156400 0.000000
-9.131600 0.000000
-9.106900 0.000000
-9.082200 0.000000
-9.057400 0.000000
-9.032700 0.000000
-9.008000 0.000000
-8.983200 0.000000
-8.958500 0.000000
-8.933800 0.000000
-8.909100 0.000000
-8.884300 0.000000
-8.859600 0.000000
-8.834900 0.000000
-8.810100 0.000000
-8.785400 0.000000
-8.760700 0.000000
-8.736000 0.000000
-8.711200 0.000000
-8.686500 0.000000
-8.661800 0.000000
-8.637000 0.000000
-8.612300 0.000000
-8.587600 0.000000
-8.562800 0.000000
-8.538100 0.000000
-8.513400 0.000000
-8.488700 0.000000
-8.463900 0.000000
-8.439200 0.000000
-8.414500 0.000000
-8.389700 0.000000
-8.365000 0.000000
-8.340300 0.000000
-8.315500 0.000000
-8.290800 0.000000
-8.266100 0.000000
-8.241400 0.000000
-8.216600 0.000000
-8.191900 0.000000
-8.167200 0.000000
-8.142400 0.000000
-8.117700 0.000000
-8.093000 0.000000
-8.068200 0.000000
-8.043500 0.000000
-8.018800 0.000000
-7.994100 0.000000
-7.969300 0.000000
-7.944600 0.000000
-7.919900 0.000000
-7.895100 0.000000
-7.870400 0.000000
-7.845700 0.000000
-7.821000 0.000000
-7.796200 0.000000
-7.771500 0.000000
-7.746800 0.000000
-7.722000 0.000000
-7.697300 0.000000
-7.672600 0.000000
-7.647800 0.000000
-7.623100 0.000000
-7.598400 0.000000
-7.573700 0.000000
-7.548900 0.000000
-7.524200 0.000000
-7.499500 0.000000
-7.474700 0.000000
-7.450000 0.000000
-7.425300 0.000000
-7.400500 0.000000
-7.375800 0.000000
-7.351100 0.000000
-7.326400 0.000000
-7.301600 0.000000
-7.276900 0.000000
-7.252200 0.000000
-7.227400 0.010200
-7.202700 0.100800
-7.178000 0.214300
-7.153200 0.238700
-7.128500 0.271900
-7.103800 0.321100
-7.079100 0.370500
-7.054300 0.404800
-7.029600 0.419200
-7.004900 0.439300
-6.980100 0.467900
-6.955400 0.496500
-6.930700 0.525000
-6.905900 0.554200
-6.881200 0.577800
-6.856500 0.599100
-6.831800 0.620600
-6.807000 0.637300
-6.782300 0.656600
-6.757600 0.676900
-6.732800 0.697300
-6.708100 0.719300
-6.683400 0.742200
-6.658700 0.765700
-6.633900 0.786000
-6.609200 0.803500
-6.584500 0.822700
-6.559700 0.894300
-6.535000 0.988000
-6.510300 0.937200
-6.485500 0.949900
-6.460800 0.962300
-6.436100 0.974100
-6.411400 0.969600
-6.386600 0.968800
-6.361900 0.978200
-6.337200 0.985300
-6.312400 0.991200
-6.287700 0.997600
-6.263000 1.004200
-6.238200 1.002300
-6.213500 1.032100
-6.188800 1.143900
-6.164100 1.137200
-6.139300 1.165600
-6.114600 1.195100
-6.089900 1.225700
-6.065100 1.242000
-6.040400 1.255600
-6.015700 1.278000
-5.990900 1.303100
-5.966200 1.332200
-5.941500 1.363000
-5.916800 1.395000
-5.892000 1.417100
-5.867300 1.448200
-5.842600 1.485400
-5.817800 1.527200
-5.793100 1.572600
-5.768400 1.619400
-5.743600 1.667700
-5.718900 1.781200
-5.694200 1.860800
-5.669500 1.867300
-5.644700 1.878700
-5.620000 2.123400
-5.595300 2.003000
-5.570500 1.932100
-5.545800 1.915300
-5.521100 1.899400
-5.496400 1.880200
-5.471600 1.830000
-5.446900 1.804500
-5.422200 1.792400
-5.397400 1.838900
-5.372700 1.892400
-5.348000 1.694000
-5.323200 1.661500
-5.298500 1.631900
-5.273800 1.593100
-5.249100 1.538600
-5.224300 1.587000
-5.199600 1.473700
-5.174900 1.375900
-5.150100 1.353900
-5.125400 1.264100
-5.100700 1.230400
-5.075900 1.200700
-5.051200 1.182100
-5.026500 1.168800
-5.001800 1.160900
-4.977000 1.159800
-4.952300 1.242500
-4.927600 1.474800
-4.902800 1.653200
-4.878100 1.596100
-4.853400 1.813700
-4.828600 2.069900
-4.803900 2.458200
-4.779200 2.948900
-4.754500 3.237100
-4.729700 3.117600
-4.705000 3.004200
-4.680300 2.862700
-4.655500 2.815200
-4.630800 2.895400
-4.606100 3.021000
-4.581300 2.899600
-4.556600 2.473800
-4.531900 2.059400
-4.507200 1.619700
-4.482400 1.653100
-4.457700 1.727900
-4.433000 1.693300
-4.408200 1.890400
-4.383500 1.854400
-4.358800 1.895400
-4.334100 2.091800
-4.309300 1.999000
-4.284600 2.016200
-4.259900 2.036600
-4.235100 2.011700
-4.210400 1.900700
-4.185700 1.829900
-4.160900 1.735400
-4.136200 1.838900
-4.111500 1.694400
-4.086800 1.682200
-4.062000 1.729400
-4.037300 1.789600
-4.012600 1.959000
-3.987800 1.978500
-3.963100 1.920200
-3.938400 1.960400
-3.913600 2.027200
-3.888900 2.080900
-3.864200 2.177100
-3.839500 2.257200
-3.814700 2.279200
-3.790000 2.350700
-3.765300 2.384600
-3.740500 2.196000
-3.715800 1.933100
-3.691100 1.735200
-3.666300 1.579600
-3.641600 1.414600
-3.616900 1.354200
-3.592200 1.444000
-3.567400 1.597200
-3.542700 2.222100
-3.518000 2.515800
-3.493200 3.524100
-3.468500 3.061700
-3.443800 2.765800
-3.419100 2.717200
-3.394300 2.676200
-3.369600 2.672100
-3.344900 2.691900
-3.320100 2.646700
-3.295400 2.716000
-3.270700 2.817300
-3.245900 2.926200
-3.221200 3.161900
-3.196500 3.712200
-3.171800 3.833100
-3.147000 3.442500
-3.122300 2.984600
-3.097600 2.640300
-3.072800 2.453500
-3.048100 2.318100
-3.023400 2.207500
-2.998600 2.100000
-2.973900 1.976000
-2.949200 1.838000
-2.924500 1.757500
-2.899700 1.703800
-2.875000 1.670700
-2.850300 1.680800
-2.825500 1.642600
-2.800800 1.617400
-2.776100 1.594700
-2.751300 1.572900
-2.726600 1.592900
-2.701900 1.620200
-2.677200 1.732100
-2.652400 1.767000
-2.627700 1.884400
-2.603000 2.136200
-2.578200 2.325500
-2.553500 2.129300
-2.528800 2.174300
-2.504000 2.086600
-2.479300 2.104200
-2.454600 2.205100
-2.429900 2.407700
-2.405100 2.682600
-2.380400 2.946700
-2.355700 3.255500
-2.330900 3.149700
-2.306200 3.053800
-2.281500 3.095600
-2.256800 3.124100
-2.232000 3.204200
-2.207300 3.523000
-2.182600 3.904900
-2.157800 3.352600
-2.133100 3.121000
-2.108400 2.940300
-2.083600 2.703700
-2.058900 2.137500
-2.034200 1.830400
-2.009500 1.685300
-1.984700 1.545800
-1.960000 1.346200
-1.935300 1.194200
-1.910500 1.092200
-1.885800 1.004800
-1.861100 1.092700
-1.836300 1.334400
-1.811600 2.147000
-1.786900 3.221400
-1.762200 3.258200
-1.737400 3.315300
-1.712700 3.666900
-1.688000 3.576200
-1.663200 3.689300
-1.638500 3.794700
-1.613800 3.874700
-1.589000 3.719300
-1.564300 3.549100
-1.539600 3.431300
-1.514900 3.260300
-1.490100 2.942200
-1.465400 2.734800
-1.440700 2.601700
-1.415900 2.491000
-1.391200 2.386000
-1.366500 2.274700
-1.341700 2.151900
-1.317000 2.293300
-1.292300 2.133000
-1.267600 1.973000
-1.242800 1.470900
-1.218100 1.320200
-1.193400 1.205100
-1.168600 1.162300
-1.143900 1.120300
-1.119200 1.078200
-1.094500 1.034800
-1.069700 0.986500
-1.045000 0.932200
-1.020300 0.860700
-0.995500 0.826300
-0.970800 0.794700
-0.946100 0.766200
-0.921300 0.740400
-0.896600 0.716000
-0.871900 0.691600
-0.847200 0.667400
-0.822400 0.643800
-0.797700 0.619700
-0.773000 0.593100
-0.748200 0.566900
-0.723500 0.541000
-0.698800 0.515500
-0.674000 0.491200
-0.649300 0.468400
-0.624600 0.447700
-0.599900 0.430600
-0.575100 0.414100
-0.550400 0.398300
-0.525700 0.382900
-0.500900 0.367800
-0.476200 0.353000
-0.451500 0.338600
-0.426700 0.324500
-0.402000 0.313400
-0.377300 0.298800
-0.352600 0.283900
-0.327800 0.268700
-0.303100 0.253700
-0.278400 0.263100
-0.253600 0.268000
-0.228900 0.273800
-0.204200 0.280200
-0.179500 0.287400
-0.154700 0.299100
-0.130000 0.315400
-0.105300 0.333300
-0.080500 0.380400
-0.055800 0.449800
-0.031100 0.558000
-0.006300 0.661700
0.018400 0.653200
0.043100 0.637400
0.067800 0.653700
0.092600 0.646900
0.117300 0.726500
0.142000 0.814300
0.166800 0.908900
0.191500 1.023000
0.216200 1.179300
0.241000 1.348100
0.265700 1.528600
0.290400 1.597200
0.315100 1.741400
0.339900 1.883200
0.364600 2.008800
0.389300 2.104700
0.414100 2.242600
0.438800 2.396500
0.463500 2.561400
0.488300 2.767600
0.513000 3.086400
0.537700 3.428500
0.562400 3.828500
0.587200 4.622900
0.611900 5.592400
0.636600 6.792700
0.661400 7.895500
0.686100 8.550700
0.710800 7.649100
0.735600 5.009500
0.760300 3.789200
0.785000 3.234500
0.809700 2.868300
0.834500 2.724700
0.859200 2.512000
0.883900 2.479400
0.908700 2.599700
0.933400 2.741300
0.958100 2.993200
0.982800 3.429200
1.007600 4.724800
1.032300 7.434900
1.057000 7.190300
1.081800 6.101900
1.106500 5.486900
1.131200 5.005500
1.156000 4.347100
1.180700 3.554500
1.205400 2.209300
1.230100 1.789700
1.254900 1.644200
1.279600 1.568900
1.304300 1.533000
1.329100 1.552000
1.353800 1.621400
1.378500 1.726600
1.403300 1.864400
1.428000 2.059900
1.452700 3.379300
1.477400 4.245300
1.502200 4.363800
1.526900 4.587100
1.551600 4.756700
1.576400 4.659600
1.601100 4.682200
1.625800 4.816800
1.650600 4.873300
1.675300 5.126300
1.700000 5.145000
1.724700 5.821500
1.749500 5.062800
1.774200 3.907000
1.798900 3.474000
1.823700 3.346700
1.848400 3.323200
1.873100 2.728600
1.897900 2.138100
1.922600 2.530900
1.947300 3.014800
1.972000 3.228800
1.996800 3.301800
2.021500 3.472300
2.046200 4.284000
2.071000 3.700100
2.095700 3.694900
2.120400 3.853600
2.145100 3.923300
2.169900 4.012400
2.194600 4.104300
2.219300 4.199200
2.244100 4.288400
2.268800 4.768900
2.293500 4.322900
2.318300 4.369800
2.343000 4.386800
2.367700 4.703400
2.392400 4.440000
2.417200 3.846300
2.441900 3.620900
2.466600 3.598000
2.491400 3.668700
2.516100 3.883600
2.540800 4.145200
2.565600 4.116700
2.590300 4.211100
2.615000 4.405600
2.639700 4.799400
2.664500 4.873700
2.689200 4.470600
2.713900 4.361400
2.738700 4.311300
2.763400 4.261400
2.788100 4.079500
2.812900 3.905000
2.837600 3.676700
2.862300 3.519300
2.887000 3.571700
2.911800 3.744700
2.936500 4.074500
2.961200 4.401600
2.986000 4.792700
3.010700 5.240300
3.035400 5.129800
3.060200 5.495000
3.084900 5.947300
3.109600 6.484400
3.134300 7.384000
3.159100 7.655900
3.183800 7.238600
3.208500 6.811200
3.233300 5.793600
3.258000 6.526100
3.282700 7.330800
3.307400 12.921200
3.332200 14.302600
3.356900 12.391100
3.381600 6.893600
3.406400 7.949100
3.431100 9.324200
3.455800 9.003900
3.480600 6.762900
3.505300 6.011100
3.530000 5.179800
3.554700 6.684600
3.579500 8.654100
3.604200 10.270500
3.628900 14.149000
3.653700 14.688800
3.678400 12.163900
3.703100 12.640400
3.727900 11.434400
3.752600 11.308800
3.777300 10.951600
3.802000 10.823200
3.826800 11.856700
3.851500 12.191800
3.876200 13.819000
3.901000 11.021200
3.925700 11.617600
3.950400 11.417300
3.975200 10.945600
3.999900 9.638100
4.024600 8.638200
4.049300 7.725000
4.074100 7.046400
4.098800 9.080300
4.123500 8.898300
4.148300 6.847600
4.173000 5.775200
4.197700 5.114200
4.222400 7.931800
4.247200 7.302000
4.271900 7.702300
4.296600 7.990900
4.321400 6.470800
4.346100 5.233800
4.370800 4.710500
4.395600 4.451700
4.420300 4.327200
4.445000 4.444200
4.469700 5.131600
4.494500 5.111800
4.519200 4.467400
4.543900 4.395600
4.568700 4.493900
4.593400 4.267200
4.618100 4.162800
4.642900 4.139500
4.667600 4.086800
4.692300 3.629400
4.717000 3.612700
4.741800 3.630000
4.766500 3.646800
4.791200 3.466300
4.816000 3.333700
4.840700 3.201600
4.865400 3.044900
4.890200 2.873800
4.914900 2.711800
4.939600 2.622700
4.964300 2.571100
4.989100 2.593700
5.013800 3.115900
5.038500 3.289200
5.063300 2.635600
5.088000 2.317300
5.112700 2.094300
5.137500 1.915200
5.162200 1.727400
5.186900 1.659200
5.211600 1.663900
5.236400 1.674100
5.261100 1.679900
5.285800 1.691800
5.310600 1.703600
5.335300 1.716300
5.360000 1.730000
5.384700 2.129000
5.409500 2.403800
5.434200 2.743500
5.458900 3.013900
5.483700 3.210200
5.508400 3.478500
5.533100 3.908900
5.557900 4.030800
5.582600 4.783000
5.607300 5.421200
5.632000 5.895800
5.656800 5.094900
5.681500 4.940500
5.706200 4.144500
5.731000 4.004200
5.755700 3.740000
5.780400 3.408900
5.805200 3.257700
5.829900 3.166000
5.854600 3.027600
5.879300 2.942000
5.904100 2.929500
5.928800 2.825500
5.953500 2.722200
5.978300 2.692900
6.003000 2.614500
6.027700 2.561600
6.052500 2.574500
6.077200 2.565700
6.101900 2.572000
6.126600 2.652900
6.151400 2.778400
6.176100 2.901100
6.200800 3.022400
6.225600 3.550200
6.250300 3.685400
6.275000 3.572000
6.299800 3.485800
6.324500 3.528800
6.349200 3.529000
6.373900 3.395800
6.398700 3.454300
6.423400 4.662700
6.448100 5.560800
6.472900 5.551700
6.497600 5.522100
6.522300 5.419100
6.547000 5.071200
6.571800 4.821300
6.596500 4.800400
6.621200 4.719400
6.646000 4.510000
6.670700 3.774000
6.695400 3.231700
6.720200 3.067600
6.744900 2.800800
6.769600 2.696900
6.794300 2.613500
6.819100 3.004400
6.843800 2.851900
6.868500 2.916900
6.893300 3.047100
6.918000 3.281100
6.942700 3.278200
6.967500 3.251800
6.992200 3.962900
7.016900 4.192600
7.041600 4.258200
7.066400 4.451100
7.091100 4.719900
7.115800 4.946000
7.140600 5.614700
7.165300 6.669100
7.190000 5.875700
7.214800 6.145600
7.239500 6.833600
7.264200 7.377100
7.288900 11.071900
7.313700 9.411000
7.338400 9.683900
7.363100 7.590300
7.387900 6.687700
7.412600 6.135400
7.437300 5.936400
7.462100 5.613700
7.486800 5.681000
7.511500 5.017900
7.536200 4.928300
7.561000 5.120800
7.585700 5.040300
7.610400 7.016500
7.635200 7.893500
7.659900 8.290600
7.684600 8.465300
7.709300 7.705900
7.734100 7.274100
7.758800 7.322900
7.783500 7.927600
7.808300 8.497200
7.833000 8.498300
7.857700 6.964200
7.882500 6.367000
7.907200 5.856100
7.931900 5.642800
7.956600 5.429400
7.981400 5.501600
8.006100 5.599100
8.030800 5.933900
8.055600 7.204800
8.080300 8.325900
8.105000 10.029400
8.129800 12.377900
8.154500 13.630300
8.179200 12.023000
8.203900 8.988700
8.228700 7.424400
8.253400 6.746500
8.278100 6.502500
8.302900 6.968600
8.327600 7.017600
8.352300 6.902300
8.377100 7.328900
8.401800 6.124100
8.426500 6.109000
8.451200 5.342800
8.476000 4.864600
8.500700 5.536500
8.525400 6.803400
8.550200 7.356700
8.574900 7.187400
8.599600 6.711800
8.624300 6.100900
8.649100 5.710900
8.673800 5.684600
8.698500 5.447200
8.723300 4.568000
8.748000 4.292900
8.772700 4.991400
8.797500 6.846500
8.822200 5.492300
8.846900 5.171500
8.871600 4.808000
8.896400 4.570600
8.921100 4.873700
8.945800 5.561300
8.970600 6.868900
8.995300 7.284300
9.020000 6.517500
9.044800 6.793700
9.069500 7.222000
9.094200 9.224900
9.118900 8.915500
9.143700 9.144900
9.168400 10.100600
9.193100 9.498600
9.217900 8.141200
9.242600 6.213700
9.267300 5.721200
9.292100 6.702700
9.316800 6.648500
9.341500 6.241200
9.366200 6.857200
9.391000 7.618000
9.415700 7.015000
9.440400 5.692100
9.465200 5.195800
9.489900 5.133400
9.514600 5.027600
9.539400 4.840200
9.564100 4.119300
9.588800 4.595900
9.613500 4.434400
9.638300 6.030800
9.663000 7.380900
9.687700 8.443500
9.712500 7.860400
9.737200 6.810600
9.761900 5.719000
9.786600 4.696700
9.811400 4.196900
9.836100 4.142500
9.860800 4.217900
9.885600 4.190100
9.910300 4.587200
9.935000 4.828500
9.959800 5.108800
9.984500 5.049700
10.009200 5.187300
10.033900 5.421300
10.058700 5.845500
10.083400 6.161500
10.108100 6.313500
10.132900 5.544300
10.157600 3.878800
10.182300 3.151700
10.207100 3.099800
10.231800 3.173200
10.256500 3.311000
10.281200 3.293100
10.306000 3.429600
10.330700 3.514100
10.355400 3.548200
10.380200 3.681900
10.404900 4.085400
10.429600 5.242300
10.454400 5.726500
10.479100 5.402200
10.503800 4.343800
10.528500 4.128500
10.553300 3.330900
10.578000 3.309300
10.602700 3.443300
10.627500 3.567400
10.652200 3.795500
10.676900 4.133200
10.701700 4.280900
10.726400 4.519300
10.751100 4.838700
10.775800 5.050800
10.800600 5.233300
10.825300 5.432100
10.850000 5.537000
10.874800 5.960300
10.899500 5.347800
10.924200 5.313000
10.948900 5.365200
10.973700 5.166800
10.998400 5.067800
11.023100 4.935000
11.047900 4.856900
11.072600 4.848100
11.097300 4.771200
11.122100 4.586600
11.146800 4.540800
11.171500 4.581200
11.196200 4.714800
11.221000 5.014700
11.245700 5.223600
11.270400 5.209700
11.295200 5.237900
11.319900 4.749500
11.344600 6.132700
11.369400 5.499700
11.394100 5.192400
11.418800 5.252900
11.443500 5.232500
11.468300 5.686300
11.493000 5.959600
11.517700 6.172400
11.542500 6.449900
11.567200 6.103100
11.591900 5.507700
11.616700 4.957400
11.641400 5.497400
11.666100 6.630200
11.690800 6.637400
11.715600 6.814700
11.740300 6.388600
11.765000 6.514600
11.789800 6.995500
11.814500 7.870100
11.839200 8.980600
11.863900 9.076900
11.888700 7.948200
11.913400 7.292300
11.938100 6.878000
11.962900 6.323100
11.987600 5.980200
12.012300 5.776000
12.037100 5.920500
12.061800 6.136100
12.086500 6.829300
12.111200 7.914600
12.136000 6.812200
12.160700 5.395500
12.185400 4.911900
12.210200 5.036900
12.234900 5.277900
12.259600 5.272200
12.284400 5.293800
12.309100 5.304200
12.333800 5.044600
12.358500 4.648300
12.383300 4.880600
12.408000 5.116200
12.432700 5.564000
12.457500 5.112600
12.482200 4.471100
12.506900 4.309300
12.531700 4.367800
12.556400 4.288000
12.581100 4.148600
12.605800 4.082200
12.630600 4.346200
12.655300 5.025000
12.680000 5.621800
12.704800 5.992500
12.729500 5.984000
12.754200 5.803600
12.779000 5.344500
12.803700 4.926800
12.828400 5.117000
12.853100 5.146700
12.877900 5.096900
12.902600 5.011100
12.927300 4.851600
12.952100 4.786000
12.976800 4.982100
13.001500 4.558600
13.026200 4.306600
13.051000 4.425700
13.075700 4.576800
13.100400 3.658600
13.125200 3.319300
13.149900 3.007800
13.174600 2.788400
13.199400 4.310400
13.224100 4.167400
13.248800 4.121200
13.273500 3.910200
13.298300 3.795800
13.323000 4.310100
13.347700 4.791900
13.372500 5.310100
13.397200 5.633600
13.421900 5.283200
13.446700 4.871100
13.471400 4.614200
13.496100 4.194600
13.520800 4.023000
13.545600 3.809200
13.570300 3.623600
13.595000 3.548400
13.619800 3.496700
13.644500 3.464900
13.669200 3.561000
13.694000 3.659200
13.718700 3.592300
13.743400 3.611300
13.768100 3.624000
13.792900 3.418700
13.817600 3.056400
13.842300 2.888400
13.867100 2.235500
13.891800 2.194200
13.916500 2.324900
13.941300 2.490200
13.966000 2.964200
13.990700 2.909900
14.015400 2.987100
14.040200 3.097100
14.064900 3.237200
14.089600 3.565200
14.114400 3.595200
14.139100 3.530900
14.163800 4.008300
14.188500 3.808400
14.213300 3.623700
14.238000 2.918100
14.262700 2.589900
14.287500 2.368100
14.312200 2.187000
14.336900 2.176000
14.361700 2.243400
14.386400 2.370100
14.411100 2.492100
14.435800 2.543200
14.460600 2.813800
14.485300 3.340200
14.510000 3.771100
14.534800 4.149900
14.559500 4.109500
14.584200 3.786000
14.609000 3.363400
14.633700 2.991700
14.658400 2.631600
14.683100 2.410400
14.707900 2.357300
14.732600 2.341000
14.757300 2.485700
14.782100 2.714500
14.806800 2.886400
14.831500 3.200900
14.856300 3.568000
14.881000 3.993400
14.905700 4.237100
14.930400 4.291200
14.955200 4.890000
14.979900 5.437700
15.004600 4.753500
15.029400 3.926600
15.054100 3.533100
15.078800 3.272300
15.103600 3.188100
15.128300 3.241300
15.153000 3.361700
15.177700 3.563200
15.202500 3.864800
15.227200 4.263000
15.251900 4.345800
15.276700 5.437900
15.301400 5.173100
15.326100 4.830500
15.350800 6.551600
15.375600 4.303300
15.400300 4.114000
15.425000 3.844900
15.449800 3.778100
15.474500 3.688300
15.499200 3.919700
15.524000 3.954300
15.548700 3.763300
15.573400 3.648900
15.598100 3.586900
15.622900 3.573400
15.647600 3.573400
15.672300 3.604800
15.697100 3.686600
15.721800 3.841500
15.746500 3.851600
15.771300 4.025300
15.796000 4.036700
15.820700 3.941900
15.845400 3.836600
15.870200 3.748700
15.894900 3.656400
15.919600 3.589100
15.944400 3.541400
15.969100 3.478800
15.993800 3.430400
16.018600 3.374300
16.043300 3.431600
16.068000 3.346700
16.092700 3.376500
16.117500 3.552500
16.142200 3.552300
16.166900 3.542300
16.191700 3.589900
16.216400 3.789600
16.241100 3.727500
16.265800 3.723200
16.290600 3.690200
16.315300 3.785600
16.340000 3.960800
16.364800 4.198400
16.389500 4.385600
16.414200 4.614800
16.439000 4.462500
16.463700 4.440000
16.488400 4.573100
16.513100 4.648000
16.537900 4.583300
16.562600 4.628500
16.587300 4.485700
16.612100 4.462400
16.636800 4.530400
16.661500 4.950400
16.686300 5.031200
16.711000 4.712100
16.735700 4.521000
16.760400 4.302800
16.785200 4.218200
16.809900 4.157800
16.834600 4.189500
16.859400 4.361600
16.884100 4.486900
16.908800 4.492900
16.933600 4.450500
16.958300 4.827200
16.983000 4.688400
17.007700 4.365300
17.032500 4.197800
17.057200 4.130700
17.081900 3.786900
17.106700 3.370300
17.131400 3.457700
17.156100 3.586000
17.180900 3.469000
17.205600 3.450900
17.230300 3.794200
17.255000 4.664100
17.279800 5.098600
17.304500 5.522400
17.329200 5.440500
17.354000 5.007100
17.378700 4.732400
17.403400 4.505400
17.428100 4.288700
17.452900 4.124900
17.477600 3.914500
17.502300 3.717100
17.527100 3.597500
17.551800 3.481300
17.576500 3.335500
17.601300 3.156800
17.626000 3.204600
17.650700 2.773000
17.675400 3.069900
17.700200 2.839100
17.724900 2.394000
17.749600 2.331100
17.774400 2.311300
17.799100 2.010800
17.823800 1.826900
17.848600 1.657500
17.873300 1.686600
17.898000 1.218200
17.922700 1.105000
17.947500 1.034800
17.972200 1.018300
17.996900 0.975400
18.021700 0.941000
18.046400 0.908200
18.071100 0.873900
18.095900 0.845800
18.120600 0.817900
18.145300 0.790400
18.170000 0.763700
18.194800 0.737400
18.219500 2.317900
18.244200 0.933600
18.269000 0.661500
18.293700 0.594300
18.318400 0.532100
18.343200 0.511900
18.367900 0.492800
18.392600 0.474100
18.417300 0.456500
18.442100 0.440100
18.466800 0.424900
18.491500 0.408600
18.516300 0.377500
18.541000 0.355400
18.565700 0.378000
18.590400 0.358000
18.615200 0.366700
18.639900 0.394000
18.664600 0.424300
18.689400 0.383300
18.714100 0.308200
18.738800 0.261600
18.763600 0.224600
18.788300 0.190200
18.813000 0.159100
18.837700 0.050000
18.862500 0.040400
18.887200 0.033900
18.911900 0.029800
18.936700 0.026200
18.961400 0.022800
18.986100 0.019700
19.010900 0.016800
19.035600 0.014100
19.060300 0.011700
19.085000 0.009500
19.109800 0.007500
19.134500 0.005800
19.159200 0.004300
19.184000 0.003000
19.208700 0.001900
19.233400 0.001100
19.258200 0.000500
19.282900 0.000100
19.307600 0.000000
19.332300 0.000000
19.357100 0.000000
19.381800 0.000000
19.406500 0.000000
19.431300 0.000000
19.456000 0.000000
19.480700 0.000000
19.505500 0.000000
19.530200 0.000000
19.554900 0.000000
19.579600 0.000000
19.604400 0.000000
19.629100 0.000000
19.653800 0.000000
19.678600 0.000000
19.703300 0.000000
19.728000 0.000000
19.752700 0.000000
19.777500 0.000000
19.802200 0.000000
19.826900 0.000000
19.851700 0.000000
19.876400 0.000000
19.901100 0.000000
19.925900 0.000000
19.950600 0.000000
19.975300 0.000000
20.000000 0.000000
20.024800 0.000000
20.049500 0.000000
20.074200 0.000000
20.099000 0.000000
20.123700 0.000000
20.148400 0.000000
20.173200 0.000000
20.197900 0.000000
20.222600 0.000000
20.247300 0.000000
20.272100 0.000000
20.296800 0.000000
20.321500 0.000000
20.346300 0.000000
20.371000 0.000000
20.395700 0.000000
20.420500 0.000000
20.445200 0.000000
20.469900 0.000000
20.494600 0.000000
20.519400 0.000000
20.544100 0.000000
20.568800 0.000000
20.593600 0.000000
20.618300 0.000000
20.643000 0.000000
20.667700 0.000000
20.692500 0.000000
20.717200 0.000000
20.741900 0.000000
20.766700 0.000000
20.791400 0.000000
20.816100 0.000000
20.840900 0.000000
20.865600 0.000000
20.890300 0.000000
20.915000 0.000000
20.939800 0.000000
20.964500 0.000000
20.989200 0.000000
21.014000 0.000000
21.038700 0.000000
21.063400 0.000000
21.088200 0.000000
21.112900 0.000000
21.137600 0.000000
21.162300 0.000000
21.187100 0.000000
21.211800 0.000000
21.236500 0.000000
21.261300 0.000000
21.286000 0.000000
21.310700 0.000000
21.335500 0.000000
21.360200 0.000000
21.384900 0.000000
21.409600 0.000000
21.434400 0.000000
21.459100 0.000000
21.483800 0.000000
21.508600 0.000000
21.533300 0.000000
21.558000 0.000000
e
