set title 'mp-1011375 - Density of States'
set xlabel 'Energy (eV)'
set ylabel 'DOS (states/eV)'
set grid
set xrange [-10:10]
set yrange [0:61.079]
set xzeroaxis lt -1
set terminal png size 800,600
set output 'mp-1011375_dos_gnuplot.png'
plot '-' using 1:2 with lines title 'DOS'
-31.401700 0.000000
-31.366900 0.000000
-31.332100 0.000000
-31.297400 0.000000
-31.262600 0.000000
-31.227800 0.000000
-31.193100 0.000000
-31.158300 0.000000
-31.123500 0.000000
-31.088800 0.000000
-31.054000 0.000000
-31.019200 0.000000
-30.984500 0.000000
-30.949700 0.000000
-30.914900 0.000000
-30.880200 0.000000
-30.845400 0.000000
-30.810600 0.000000
-30.775800 0.000000
-30.741100 0.000000
-30.706300 0.000000
-30.671500 0.000000
-30.636800 0.000000
-30.602000 0.000000
-30.567200 0.000000
-30.532500 0.000000
-30.497700 0.000000
-30.462900 0.000000
-30.428200 0.000000
-30.393400 0.000000
-30.358600 0.000000
-30.323900 0.000000
-30.289100 0.000000
-30.254300 0.000000
-30.219500 0.000000
-30.184800 0.000000
-30.150000 0.000000
-30.115200 0.000000
-30.080500 0.000000
-30.045700 0.000000
-30.010900 0.000000
-29.976200 0.000000
-29.941400 0.000000
-29.906600 0.000000
-29.871900 0.000000
-29.837100 0.000000
-29.802300 0.000000
-29.767600 0.000000
-29.732800 0.000000
-29.698000 0.000000
-29.663300 0.000000
-29.628500 0.000000
-29.593700 0.000000
-29.558900 0.000000
-29.524200 0.000000
-29.489400 0.000000
-29.454600 0.000000
-29.419900 0.000000
-29.385100 0.000000
-29.350300 0.000000
-29.315600 0.000000
-29.280800 0.000000
-29.246000 0.000000
-29.211300 0.000000
-29.176500 0.000000
-29.141700 0.000000
-29.107000 0.000000
-29.072200 0.000000
-29.037400 0.000000
-29.002600 0.000000
-28.967900 0.000000
-28.933100 0.000000
-28.898300 0.000000
-28.863600 0.000000
-28.828800 0.000000
-28.794000 0.000000
-28.759300 0.000000
-28.724500 0.000000
-28.689700 0.000000
-28.655000 0.000000
-28.620200 0.000000
-28.585400 0.000000
-28.550700 0.000000
-28.515900 0.000000
-28.481100 0.000000
-28.446300 0.000000
-28.411600 0.000000
-28.376800 0.000200
-28.342000 0.009600
-28.307300 0.193600
-28.272500 1.759500
-28.237700 7.613400
-28.203000 16.423700
-28.168200 18.107900
-28.133400 10.176300
-28.098700 2.838700
-28.063900 0.376800
-28.029100 0.022700
-27.994400 0.000600
-27.959600 0.000000
-27.924800 0.000000
-27.890100 0.000000
-27.855300 0.000000
-27.820500 0.000000
-27.785700 0.000000
-27.751000 0.000000
-27.716200 0.000000
-27.681400 0.000000
-27.646700 0.000000
-27.611900 0.000000
-27.577100 0.000000
-27.542400 0.000000
-27.507600 0.000000
-27.472800 0.000000
-27.438100 0.000000
-27.403300 0.000000
-27.368500 0.000000
-27.333800 0.000000
-27.299000 0.000000
-27.264200 0.000000
-27.229400 0.000000
-27.194700 0.000000
-27.159900 0.000000
-27.125100 0.000000
-27.090400 0.000000
-27.055600 0.000000
-27.020800 0.000000
-26.986100 0.000000
-26.951300 0.000000
-26.916500 0.000000
-26.881800 0.000000
-26.847000 0.000000
-26.812200 0.000000
-26.777500 0.000000
-26.742700 0.000000
-26.707900 0.000000
-26.673100 0.000000
-26.638400 0.000000
-26.603600 0.000000
-26.568800 0.000000
-26.534100 0.000000
-26.499300 0.000000
-26.464500 0.000000
-26.429800 0.000000
-26.395000 0.000000
-26.360200 0.000000
-26.325500 0.000000
-26.290700 0.000000
-26.255900 0.000000
-26.221200 0.000000
-26.186400 0.000000
-26.151600 0.000000
-26.116900 0.000000
-26.082100 0.000000
-26.047300 0.000000
-26.012500 0.000000
-25.977800 0.000000
-25.943000 0.000000
-25.908200 0.000000
-25.873500 0.000000
-25.838700 0.000000
-25.803900 0.000000
-25.769200 0.000000
-25.734400 0.000000
-25.699600 0.000000
-25.664900 0.000000
-25.630100 0.000000
-25.595300 0.000000
-25.560600 0.000000
-25.525800 0.000000
-25.491000 0.000000
-25.456200 0.000000
-25.421500 0.000000
-25.386700 0.000000
-25.351900 0.000000
-25.317200 0.000000
-25.282400 0.000000
-25.247600 0.000000
-25.212900 0.000000
-25.178100 0.000000
-25.143300 0.000000
-25.108600 0.000000
-25.073800 0.000000
-25.039000 0.000000
-25.004300 0.000000
-24.969500 0.000000
-24.934700 0.000000
-24.900000 0.000000
-24.865200 0.000000
-24.830400 0.000000
-24.795600 0.000000
-24.760900 0.000000
-24.726100 0.000000
-24.691300 0.000000
-24.656600 0.000000
-24.621800 0.000000
-24.587000 0.000000
-24.552300 0.000000
-24.517500 0.000000
-24.482700 0.000000
-24.448000 0.000000
-24.413200 0.000000
-24.378400 0.000000
-24.343700 0.000000
-24.308900 0.000000
-24.274100 0.000000
-24.239300 0.000000
-24.204600 0.000000
-24.169800 0.000000
-24.135000 0.000000
-24.100300 0.000000
-24.065500 0.000000
-24.030700 0.000000
-23.996000 0.000000
-23.961200 0.000000
-23.926400 0.000000
-23.891700 0.000000
-23.856900 0.000000
-23.822100 0.000000
-23.787400 0.000000
-23.752600 0.000000
-23.717800 0.000000
-23.683000 0.000000
-23.648300 0.000000
-23.613500 0.000000
-23.578700 0.000000
-23.544000 0.000000
-23.509200 0.000000
-23.474400 0.000000
-23.439700 0.000000
-23.404900 0.000000
-23.370100 0.000000
-23.335400 0.000000
-23.300600 0.000000
-23.265800 0.000000
-23.231100 0.000000
-23.196300 0.000000
-23.161500 0.000000
-23.126800 0.000000
-23.092000 0.000000
-23.057200 0.000000
-23.022400 0.000000
-22.987700 0.000000
-22.952900 0.000000
-22.918100 0.000000
-22.883400 0.000000
-22.848600 0.000000
-22.813800 0.000000
-22.779100 0.000000
-22.744300 0.000000
-22.709500 0.000000
-22.674800 0.000000
-22.640000 0.000000
-22.605200 0.000000
-22.570500 0.000000
-22.535700 0.000000
-22.500900 0.000000
-22.466100 0.000000
-22.431400 0.000000
-22.396600 0.000000
-22.361800 0.000000
-22.327100 0.000000
-22.292300 0.000000
-22.257500 0.000000
-22.222800 0.000000
-22.188000 0.000000
-22.153200 0.000000
-22.118500 0.000000
-22.083700 0.000000
-22.048900 0.000000
-22.014200 0.000000
-21.979400 0.000000
-21.944600 0.000000
-21.909900 0.000000
-21.875100 0.000000
-21.840300 0.000000
-21.805500 0.000000
-21.770800 0.000000
-21.736000 0.000000
-21.701200 0.000000
-21.666500 0.000000
-21.631700 0.000000
-21.596900 0.000000
-21.562200 0.000000
-21.527400 0.000000
-21.492600 0.000000
-21.457900 0.000000
-21.423100 0.000000
-21.388300 0.000000
-21.353600 0.000000
-21.318800 0.000000
-21.284000 0.000000
-21.249200 0.000000
-21.214500 0.000000
-21.179700 0.000000
-21.144900 0.000000
-21.110200 0.000000
-21.075400 0.000000
-21.040600 0.000000
-21.005900 0.000000
-20.971100 0.000000
-20.936300 0.000000
-20.901600 0.000000
-20.866800 0.000000
-20.832000 0.000000
-20.797300 0.000000
-20.762500 0.000000
-20.727700 0.000000
-20.692900 0.000000
-20.658200 0.000000
-20.623400 0.000000
-20.588600 0.000000
-20.553900 0.000000
-20.519100 0.000000
-20.484300 0.000000
-20.449600 0.000000
-20.414800 0.000000
-20.380000 0.000000
-20.345300 0.000000
-20.310500 0.000000
-20.275700 0.000000
-20.241000 0.000000
-20.206200 0.000000
-20.171400 0.000000
-20.136700 0.000000
-20.101900 0.000000
-20.067100 0.000000
-20.032300 0.000000
-19.997600 0.000000
-19.962800 0.000000
-19.928000 0.000000
-19.893300 0.000000
-19.858500 0.000000
-19.823700 0.000000
-19.789000 0.000000
-19.754200 0.000000
-19.719400 0.000000
-19.684700 0.000000
-19.649900 0.000000
-19.615100 0.000000
-19.580400 0.000000
-19.545600 0.000000
-19.510800 0.000000
-19.476000 0.000000
-19.441300 0.000000
-19.406500 0.000000
-19.371700 0.000000
-19.337000 0.000000
-19.302200 0.000000
-19.267400 0.000000
-19.232700 0.000000
-19.197900 0.000000
-19.163100 0.000000
-19.128400 0.000000
-19.093600 0.000000
-19.058800 0.000000
-19.024100 0.000000
-18.989300 0.000000
-18.954500 0.000000
-18.919800 0.000000
-18.885000 0.000000
-18.850200 0.000000
-18.815400 0.000000
-18.780700 0.000000
-18.745900 0.000000
-18.711100 0.000000
-18.676400 0.000000
-18.641600 0.000000
-18.606800 0.000000
-18.572100 0.000000
-18.537300 0.000000
-18.502500 0.000000
-18.467800 0.000000
-18.433000 0.000000
-18.398200 0.000000
-18.363500 0.000000
-18.328700 0.000000
-18.293900 0.000000
-18.259100 0.000000
-18.224400 0.000000
-18.189600 0.000000
-18.154800 0.000000
-18.120100 0.000000
-18.085300 0.000000
-18.050500 0.000000
-18.015800 0.000000
-17.981000 0.000000
-17.946200 0.000000
-17.911500 0.000000
-17.876700 0.000000
-17.841900 0.000000
-17.807200 0.000000
-17.772400 0.000000
-17.737600 0.000000
-17.702800 0.000000
-17.668100 0.000000
-17.633300 0.000000
-17.598500 0.000000
-17.563800 0.000000
-17.529000 0.000000
-17.494200 0.000000
-17.459500 0.000000
-17.424700 0.000000
-17.389900 0.000000
-17.355200 0.000000
-17.320400 0.000000
-17.285600 0.000000
-17.250900 0.000000
-17.216100 0.000000
-17.181300 0.000000
-17.146600 0.000000
-17.111800 0.000000
-17.077000 0.000000
-17.042200 0.000000
-17.007500 0.000000
-16.972700 0.000000
-16.937900 0.000000
-16.903200 0.000000
-16.868400 0.000000
-16.833600 0.000000
-16.798900 0.000000
-16.764100 0.000000
-16.729300 0.000000
-16.694600 0.000000
-16.659800 0.000000
-16.625000 0.000000
-16.590300 0.000000
-16.555500 0.000000
-16.520700 0.000000
-16.485900 0.000000
-16.451200 0.000000
-16.416400 0.000000
-16.381600 0.000000
-16.346900 0.000000
-16.312100 0.000000
-16.277300 0.000000
-16.242600 0.000000
-16.207800 0.000000
-16.173000 0.000000
-16.138300 0.000000
-16.103500 0.000000
-16.068700 0.000000
-16.034000 0.000000
-15.999200 0.000000
-15.964400 0.000000
-15.929700 0.000000
-15.894900 0.000000
-15.860100 0.000000
-15.825300 0.000000
-15.790600 0.000000
-15.755800 0.000000
-15.721000 0.000000
-15.686300 0.000000
-15.651500 0.000000
-15.616700 0.000000
-15.582000 0.000000
-15.547200 0.000000
-15.512400 0.000000
-15.477700 0.000000
-15.442900 0.000000
-15.408100 0.000000
-15.373400 0.000000
-15.338600 0.000000
-15.303800 0.000000
-15.269000 0.000000
-15.234300 0.000000
-15.199500 0.000000
-15.164700 0.000000
-15.130000 0.000000
-15.095200 0.000000
-15.060400 0.000000
-15.025700 0.000000
-14.990900 0.000000
-14.956100 0.000000
-14.921400 0.000000
-14.886600 0.000000
-14.851800 0.000000
-14.817100 0.000000
-14.782300 0.000000
-14.747500 0.000000
-14.712700 0.000000
-14.678000 0.000000
-14.643200 0.000000
-14.608400 0.000000
-14.573700 0.000000
-14.538900 0.000000
-14.504100 0.000000
-14.469400 0.000000
-14.434600 0.000000
-14.399800 0.000000
-14.365100 0.000000
-14.330300 0.000000
-14.295500 0.000000
-14.260800 0.000000
-14.226000 0.000000
-14.191200 0.000000
-14.156500 0.000000
-14.121700 0.000000
-14.086900 0.000000
-14.052100 0.000000
-14.017400 0.000000
-13.982600 0.000000
-13.947800 0.000000
-13.913100 0.000000
-13.878300 0.000000
-13.843500 0.000000
-13.808800 0.000000
-13.774000 0.000000
-13.739200 0.000000
-13.704500 0.000000
-13.669700 0.000000
-13.634900 0.000000
-13.600200 0.000000
-13.565400 0.000000
-13.530600 0.000000
-13.495800 0.000000
-13.461100 0.000000
-13.426300 0.000000
-13.391500 0.000000
-13.356800 0.000000
-13.322000 0.000000
-13.287200 0.000000
-13.252500 0.000000
-13.217700 0.000000
-13.182900 0.000000
-13.148200 0.000000
-13.113400 0.000000
-13.078600 0.000000
-13.043900 0.000000
-13.009100 0.000000
-12.974300 0.000000
-12.939500 0.000000
-12.904800 0.000000
-12.870000 0.000000
-12.835200 0.000000
-12.800500 0.000000
-12.765700 0.000000
-12.730900 0.000000
-12.696200 0.000000
-12.661400 0.000000
-12.626600 0.000000
-12.591900 0.000000
-12.557100 0.000000
-12.522300 0.000000
-12.487600 0.000000
-12.452800 0.000000
-12.418000 0.000000
-12.383300 0.000000
-12.348500 0.000000
-12.313700 0.000000
-12.278900 0.000000
-12.244200 0.000000
-12.209400 0.000000
-12.174600 0.000000
-12.139900 0.000000
-12.105100 0.000000
-12.070300 0.000000
-12.035600 0.000000
-12.000800 0.000000
-11.966000 0.000000
-11.931300 0.000000
-11.896500 0.000000
-11.861700 0.000000
-11.827000 0.000000
-11.792200 0.000000
-11.757400 0.000000
-11.722600 0.000000
-11.687900 0.000100
-11.653100 0.002800
-11.618300 0.043000
-11.583600 0.298500
-11.548800 1.060000
-11.514000 2.230200
-11.479300 3.055700
-11.444500 2.999600
-11.409700 2.944300
-11.375000 3.737100
-11.340200 4.505100
-11.305400 4.493900
-11.270700 4.581700
-11.235900 4.963700
-11.201100 5.485800
-11.166400 6.026600
-11.131600 5.792900
-11.096800 5.188800
-11.062000 4.377800
-11.027300 4.232200
-10.992500 6.241500
-10.957700 8.634100
-10.923000 9.429500
-10.888200 10.893900
-10.853400 14.066600
-10.818700 15.409300
-10.783900 13.124000
-10.749100 9.856700
-10.714400 8.044800
-10.679600 6.176500
-10.644800 3.345500
-10.610100 1.109800
-10.575300 0.199800
-10.540500 0.017200
-10.505700 0.000600
-10.471000 0.000000
-10.436200 0.000000
-10.401400 0.000000
-10.366700 0.000000
-10.331900 0.000000
-10.297100 0.000000
-10.262400 0.000000
-10.227600 0.000000
-10.192800 0.000000
-10.158100 0.000000
-10.123300 0.000000
-10.088500 0.000000
-10.053800 0.000000
-10.019000 0.000000
-9.984200 0.000000
-9.949400 0.000000
-9.914700 0.000000
-9.879900 0.000000
-9.845100 0.000000
-9.810400 0.000000
-9.775600 0.000000
-9.740800 0.000000
-9.706100 0.000000
-9.671300 0.000000
-9.636500 0.000000
-9.601800 0.000000
-9.567000 0.000000
-9.532200 0.000000
-9.497500 0.000000
-9.462700 0.000000
-9.427900 0.000000
-9.393200 0.000000
-9.358400 0.000000
-9.323600 0.000000
-9.288800 0.000000
-9.254100 0.000000
-9.219300 0.000000
-9.184500 0.000000
-9.149800 0.000000
-9.115000 0.000000
-9.080200 0.000000
-9.045500 0.000000
-9.010700 0.000000
-8.975900 0.000000
-8.941200 0.000000
-8.906400 0.000000
-8.871600 0.000000
-8.836900 0.000000
-8.802100 0.000000
-8.767300 0.000000
-8.732500 0.000000
-8.697800 0.000000
-8.663000 0.000000
-8.628200 0.000000
-8.593500 0.000000
-8.558700 0.000000
-8.523900 0.000000
-8.489200 0.000000
-8.454400 0.000000
-8.419600 0.000000
-8.384900 0.000000
-8.350100 0.000000
-8.315300 0.000000
-8.280600 0.000000
-8.245800 0.000000
-8.211000 0.000000
-8.176300 0.000000
-8.141500 0.000000
-8.106700 0.000000
-8.071900 0.000000
-8.037200 0.000000
-8.002400 0.000000
-7.967600 0.000000
-7.932900 0.000000
-7.898100 0.000000
-7.863300 0.000000
-7.828600 0.000000
-7.793800 0.000000
-7.759000 0.000000
-7.724300 0.000000
-7.689500 0.000000
-7.654700 0.000000
-7.620000 0.000000
-7.585200 0.000300
-7.550400 0.003500
-7.515600 0.015200
-7.480900 0.032100
-7.446100 0.052700
-7.411300 0.098200
-7.376600 0.167500
-7.341800 0.206000
-7.307000 0.157500
-7.272300 0.102200
-7.237500 0.168100
-7.202700 0.282700
-7.168000 0.297900
-7.133200 0.286700
-7.098400 0.358400
-7.063700 0.385400
-7.028900 0.294300
-6.994100 0.290400
-6.959300 0.421100
-6.924600 0.460500
-6.889800 0.417700
-6.855000 0.440500
-6.820300 0.476800
-6.785500 0.546200
-6.750700 0.789000
-6.716000 0.930400
-6.681200 0.725400
-6.646400 0.495200
-6.611700 0.557300
-6.576900 0.643100
-6.542100 0.747700
-6.507400 1.146200
-6.472600 1.598300
-6.437800 2.126600
-6.403100 2.608300
-6.368300 2.567400
-6.333500 2.380400
-6.298700 2.454200
-6.264000 2.703100
-6.229200 2.938400
-6.194400 2.990800
-6.159700 2.755200
-6.124900 2.492600
-6.090100 2.371000
-6.055400 2.298000
-6.020600 2.298100
-5.985800 2.317200
-5.951100 2.279500
-5.916300 2.237200
-5.881500 2.096500
-5.846800 1.673700
-5.812000 1.200200
-5.777200 0.964700
-5.742400 1.060300
-5.707700 1.356000
-5.672900 1.750400
-5.638100 2.207800
-5.603400 2.583600
-5.568600 2.892000
-5.533800 2.956000
-5.499100 2.829800
-5.464300 2.774700
-5.429500 2.995500
-5.394800 3.246000
-5.360000 3.060200
-5.325200 2.926000
-5.290500 3.083500
-5.255700 2.986000
-5.220900 2.745600
-5.186200 2.631100
-5.151400 2.296800
-5.116600 1.616200
-5.081800 0.958800
-5.047100 0.802200
-5.012300 0.949400
-4.977500 0.994600
-4.942800 0.760300
-4.908000 0.474600
-4.873200 0.458100
-4.838500 0.506200
-4.803700 0.463300
-4.768900 0.368500
-4.734200 0.272900
-4.699400 0.246900
-4.664600 0.210500
-4.629900 0.133600
-4.595100 0.071500
-4.560300 0.025400
-4.525500 0.004500
-4.490800 0.000400
-4.456000 0.000000
-4.421200 0.000000
-4.386500 0.000000
-4.351700 0.000000
-4.316900 0.000000
-4.282200 0.000000
-4.247400 0.000000
-4.212600 0.000000
-4.177900 0.000000
-4.143100 0.000000
-4.108300 0.000000
-4.073600 0.000000
-4.038800 0.000000
-4.004000 0.000000
-3.969200 0.000000
-3.934500 0.000000
-3.899700 0.000000
-3.864900 0.000000
-3.830200 0.000000
-3.795400 0.000000
-3.760600 0.000000
-3.725900 0.000000
-3.691100 0.000000
-3.656300 0.000000
-3.621600 0.000000
-3.586800 0.000000
-3.552000 0.000000
-3.517300 0.000000
-3.482500 0.000000
-3.447700 0.000000
-3.413000 0.000000
-3.378200 0.000000
-3.343400 0.000000
-3.308600 0.000000
-3.273900 0.000000
-3.239100 0.000000
-3.204300 0.000000
-3.169600 0.000000
-3.134800 0.000000
-3.100000 0.000000
-3.065300 0.000000
-3.030500 0.000000
-2.995700 0.000000
-2.961000 0.000000
-2.926200 0.000000
-2.891400 0.000000
-2.856700 0.000000
-2.821900 0.000000
-2.787100 0.000000
-2.752300 0.000000
-2.717600 0.000000
-2.682800 0.000000
-2.648000 0.000000
-2.613300 0.000000
-2.578500 0.000000
-2.543700 0.000000
-2.509000 0.000000
-2.474200 0.000000
-2.439400 0.000000
-2.404700 0.000000
-2.369900 0.000000
-2.335100 0.000000
-2.300400 0.000000
-2.265600 0.000000
-2.230800 0.000000
-2.196000 0.000000
-2.161300 0.000000
-2.126500 0.000000
-2.091700 0.000000
-2.057000 0.000000
-2.022200 0.000000
-1.987400 0.000000
-1.952700 0.000000
-1.917900 0.000000
-1.883100 0.000000
-1.848400 0.000000
-1.813600 0.000000
-1.778800 0.000000
-1.744100 0.000000
-1.709300 0.000000
-1.674500 0.000000
-1.639800 0.000000
-1.605000 0.000000
-1.570200 0.000000
-1.535400 0.000000
-1.500700 0.000000
-1.465900 0.000000
-1.431100 0.000000
-1.396400 0.000000
-1.361600 0.000000
-1.326800 0.000000
-1.292100 0.000000
-1.257300 0.000000
-1.222500 0.000000
-1.187800 0.000000
-1.153000 0.000000
-1.118200 0.000000
-1.083500 0.000000
-1.048700 0.000000
-1.013900 0.000000
-0.979100 0.000000
-0.944400 0.000000
-0.909600 0.000000
-0.874800 0.000000
-0.840100 0.000000
-0.805300 0.000000
-0.770500 0.000000
-0.735800 0.000000
-0.701000 0.000000
-0.666200 0.000000
-0.631500 0.000000
-0.596700 0.000000
-0.561900 0.000000
-0.527200 0.000000
-0.492400 0.000000
-0.457600 0.000000
-0.422900 0.000000
-0.388100 0.000000
-0.353300 0.000000
-0.318500 0.000000
-0.283800 0.000000
-0.249000 0.000000
-0.214200 0.000000
-0.179500 0.000000
-0.144700 0.000000
-0.109900 0.000000
-0.075200 0.000000
-0.040400 0.000000
-0.005600 0.000000
0.029100 0.000000
0.063900 0.000000
0.098700 0.000000
0.133400 0.000000
0.168200 0.000000
0.203000 0.000000
0.237800 0.000000
0.272500 0.000000
0.307300 0.000000
0.342100 0.000000
0.376800 0.000000
0.411600 0.000000
0.446400 0.000000
0.481100 0.000000
0.515900 0.000000
0.550700 0.000000
0.585400 0.000000
0.620200 0.000000
0.655000 0.000000
0.689700 0.000000
0.724500 0.000000
0.759300 0.000000
0.794100 0.000000
0.828800 0.000000
0.863600 0.000000
0.898400 0.000000
0.933100 0.000000
0.967900 0.000000
1.002700 0.000000
1.037400 0.000100
1.072200 0.002200
1.107000 0.015400
1.141700 0.049000
1.176500 0.073800
1.211300 0.070400
1.246000 0.107400
1.280800 0.205300
1.315600 0.343000
1.350300 0.629500
1.385100 1.056500
1.419900 1.270700
1.454700 1.368100
1.489400 1.658800
1.524200 1.975600
1.559000 2.121600
1.593700 2.090100
1.628500 2.025100
1.663300 1.912600
1.698000 1.861200
1.732800 2.273400
1.767600 2.607100
1.802300 2.468200
1.837100 2.512500
1.871900 2.534900
1.906600 2.217900
1.941400 2.165100
1.976200 2.410000
2.011000 2.450800
2.045700 2.371600
2.080500 2.575100
2.115300 2.756500
2.150000 2.400400
2.184800 1.762100
2.219600 1.578500
2.254300 1.838000
2.289100 1.730400
2.323900 1.467600
2.358600 1.839500
2.393400 2.307300
2.428200 2.233000
2.462900 2.040400
2.497700 2.228900
2.532500 2.577400
2.567200 2.527100
2.602000 2.021000
2.636800 1.446100
2.671600 1.081900
2.706300 1.086500
2.741100 1.387200
2.775900 1.708300
2.810600 1.806000
2.845400 1.409100
2.880200 1.263300
2.914900 1.481000
2.949700 1.497400
2.984500 1.633000
3.019200 1.437800
3.054000 0.991100
3.088800 1.316400
3.123500 2.001800
3.158300 2.172800
3.193100 2.006300
3.227900 1.949100
3.262600 2.052500
3.297400 2.115100
3.332200 1.814000
3.366900 1.248500
3.401700 1.040600
3.436500 1.589600
3.471200 2.435500
3.506000 2.854500
3.540800 2.793200
3.575500 2.444200
3.610300 2.253000
3.645100 2.447400
3.679800 2.811700
3.714600 2.993600
3.749400 2.810500
3.784200 2.948500
3.818900 3.757200
3.853700 4.262100
3.888500 3.635700
3.923200 2.783800
3.958000 2.874300
3.992800 3.354800
4.027500 3.175100
4.062300 2.804500
4.097100 2.651600
4.131800 2.609600
4.166600 2.519100
4.201400 2.551600
4.236100 2.937200
4.270900 3.043600
4.305700 2.685700
4.340400 2.348100
4.375200 2.248600
4.410000 2.060800
4.444800 1.903600
4.479500 2.082700
4.514300 2.280200
4.549100 2.367300
4.583800 2.757400
4.618600 3.595000
4.653400 4.600600
4.688100 5.122800
4.722900 4.756400
4.757700 3.901600
4.792400 3.001300
4.827200 2.679900
4.862000 3.258700
4.896700 3.949600
4.931500 4.033100
4.966300 3.764400
5.001100 3.733200
5.035800 3.563100
5.070600 2.961500
5.105400 2.260400
5.140100 1.950500
5.174900 2.108900
5.209700 2.115600
5.244400 1.872600
5.279200 1.912100
5.314000 1.936500
5.348700 1.602200
5.383500 1.356800
5.418300 1.326600
5.453000 1.467500
5.487800 1.619600
5.522600 1.512400
5.557300 1.415700
5.592100 1.769200
5.626900 2.609300
5.661700 3.307400
5.696400 3.579600
5.731200 3.552400
5.766000 3.438900
5.800700 3.477700
5.835500 3.530500
5.870300 3.562900
5.905000 3.130200
5.939800 2.599300
5.974600 2.732500
6.009300 2.788200
6.044100 2.284900
6.078900 2.203400
6.113600 2.369600
6.148400 1.987000
6.183200 1.476500
6.218000 1.342800
6.252700 1.611800
6.287500 1.741300
6.322300 1.507700
6.357000 1.353500
6.391800 1.423100
6.426600 1.637700
6.461300 1.824100
6.496100 1.872600
6.530900 1.876800
6.565600 2.198500
6.600400 3.086400
6.635200 4.699900
6.669900 7.813700
6.704700 11.632200
6.739500 13.451400
6.774300 12.817800
6.809000 11.213200
6.843800 11.460800
6.878600 16.934400
6.913300 29.493500
6.948100 46.208000
6.982900 55.526700
7.017600 46.955300
7.052400 27.938400
7.087200 14.332300
7.121900 8.516400
7.156700 6.140000
7.191500 5.455500
7.226200 5.809500
7.261000 6.050200
7.295800 5.610300
7.330500 5.143000
7.365300 5.125100
7.400100 4.966300
7.434900 4.588200
7.469600 4.118700
7.504400 3.720500
7.539200 3.211000
7.573900 2.762100
7.608700 2.446200
7.643500 2.056200
7.678200 1.519900
7.713000 1.166000
7.747800 1.270300
7.782500 1.499000
7.817300 1.682600
7.852100 1.626100
7.886800 1.307100
7.921600 0.966100
7.956400 0.840800
7.991200 0.895500
8.025900 0.924400
8.060700 0.928800
8.095500 0.822600
8.130200 0.595200
8.165000 0.421900
8.199800 0.327600
8.234500 0.242000
8.269300 0.247200
8.304100 0.386800
8.338800 0.544800
8.373600 0.673100
8.408400 0.895100
8.443100 0.890700
8.477900 0.595200
8.512700 0.587400
8.547500 0.922700
8.582200 1.059600
8.617000 0.857600
8.651800 0.722700
8.686500 0.683100
8.721300 0.743800
8.756100 0.973600
8.790800 0.859300
8.825600 0.521400
8.860400 0.544800
8.895100 0.925500
8.929900 1.344800
8.964700 1.685400
8.999400 2.087900
9.034200 2.140900
9.069000 1.750800
9.103700 1.345500
9.138500 0.992700
9.173300 0.906600
9.208100 1.163400
9.242800 1.301500
9.277600 1.043400
9.312400 0.802900
9.347100 1.054100
9.381900 1.404400
9.416700 1.454400
9.451400 1.523800
9.486200 1.432600
9.521000 1.040900
9.555700 0.881800
9.590500 1.018400
9.625300 1.405200
9.660000 2.093900
9.694800 2.600000
9.729600 2.652100
9.764400 2.689900
9.799100 2.703800
9.833900 2.528300
9.868700 2.362200
9.903400 2.388800
9.938200 2.287100
9.973000 1.895600
10.007700 1.477100
10.042500 1.421000
10.077300 1.810000
10.112000 2.283200
10.146800 2.620900
10.181600 2.734500
10.216300 2.769100
10.251100 2.788500
10.285900 2.626300
10.320600 2.479500
10.355400 2.419200
10.390200 2.338100
10.425000 2.127500
10.459700 1.671400
10.494500 1.424400
10.529300 1.757400
10.564000 2.442600
10.598800 2.899100
10.633600 2.932000
10.668300 3.166000
10.703100 3.117800
10.737900 2.520200
10.772600 2.385200
10.807400 2.683700
10.842200 2.454700
10.876900 2.102200
10.911700 2.143400
10.946500 2.623400
10.981300 3.474200
11.016000 4.072600
11.050800 4.188900
11.085600 4.083800
11.120300 3.677000
11.155100 3.117600
11.189900 3.056300
11.224600 3.416100
11.259400 3.763800
11.294200 3.757700
11.328900 3.469100
11.363700 3.229300
11.398500 3.120300
11.433200 3.263900
11.468000 4.124200
11.502800 5.294800
11.537600 5.504700
11.572300 4.731100
11.607100 4.202500
11.641900 4.589400
11.676600 5.168900
11.711400 5.469100
11.746200 4.912600
11.780900 3.877600
11.815700 3.641100
11.850500 3.570100
11.885200 2.949800
11.920000 2.718900
11.954800 2.776400
11.989500 2.760300
12.024300 2.768500
12.059100 2.760400
12.093800 2.958700
12.128600 3.324600
12.163400 3.702200
12.198200 3.718500
12.232900 3.286900
12.267700 2.985900
12.302500 3.229200
12.337200 3.365400
12.372000 3.187000
12.406800 3.025300
12.441500 2.541700
12.476300 1.838600
12.511100 1.373700
12.545800 1.166900
12.580600 1.328200
12.615400 1.617400
12.650100 1.558500
12.684900 1.319200
12.719700 1.265100
12.754500 1.270700
12.789200 1.106600
12.824000 1.151400
12.858800 1.237600
12.893500 1.136900
12.928300 1.060500
12.963100 1.146000
12.997800 1.250500
13.032600 1.136700
13.067400 0.899600
13.102100 0.866700
13.136900 1.019500
13.171700 0.998000
13.206400 1.205600
13.241200 1.694400
13.276000 1.568600
13.310700 1.125600
13.345500 1.175700
13.380300 1.443700
13.415100 1.503300
13.449800 1.768400
13.484600 2.028800
13.519400 1.905500
13.554100 1.639900
13.588900 1.312000
13.623700 1.111600
13.658400 1.184100
13.693200 1.379700
13.728000 1.410900
13.762700 1.196000
13.797500 1.011400
13.832300 1.026800
13.867000 0.983300
13.901800 0.695800
13.936600 0.585500
13.971400 0.785500
14.006100 1.033400
14.040900 1.163900
14.075700 0.990000
14.110400 0.756700
14.145200 0.803800
14.180000 0.815400
14.214700 0.625300
14.249500 0.435700
14.284300 0.409500
14.319000 0.536200
14.353800 0.757100
14.388600 1.077300
14.423300 1.217800
14.458100 1.162800
14.492900 1.339200
14.527700 1.588800
14.562400 1.473200
14.597200 1.205800
14.632000 1.184100
14.666700 1.325500
14.701500 1.358800
14.736300 1.219400
14.771000 1.178100
14.805800 1.349100
14.840600 1.536900
14.875300 1.454600
14.910100 1.157900
14.944900 0.951000
14.979600 0.817100
15.014400 0.843500
15.049200 1.200100
15.083900 1.651300
15.118700 1.662000
15.153500 1.411500
15.188300 1.497900
15.223000 1.787700
15.257800 1.829800
15.292600 1.476400
15.327300 1.101500
15.362100 1.154000
15.396900 1.291900
15.431600 1.132600
15.466400 1.038200
15.501200 1.291300
15.535900 1.834000
15.570700 2.171200
15.605500 2.152700
15.640200 2.497200
15.675000 2.882400
15.709800 2.628400
15.744600 2.073200
15.779300 1.755100
15.814100 1.644000
15.848900 1.573400
15.883600 1.579800
15.918400 1.831600
15.953200 2.437600
15.987900 2.785500
16.022700 2.443900
16.057500 1.933000
16.092200 1.845800
16.127000 2.119500
16.161800 2.368000
16.196500 2.321900
16.231300 2.044000
16.266100 1.851300
16.300800 1.918200
16.335600 2.189600
16.370400 2.239200
16.405200 1.960400
16.439900 1.719900
16.474700 1.918500
16.509500 2.490300
16.544200 2.921800
16.579000 2.823900
16.613800 2.557200
16.648500 2.552700
16.683300 2.806300
16.718100 3.042100
16.752800 2.834400
16.787600 2.396100
16.822400 2.100700
16.857100 2.021700
16.891900 2.231000
16.926700 2.345700
16.961500 2.284800
16.996200 2.297800
17.031000 2.367600
17.065800 2.347800
17.100500 2.259100
17.135300 2.123100
17.170100 1.980700
17.204800 2.111000
17.239600 2.360800
17.274400 2.363100
17.309100 1.942600
17.343900 1.390200
17.378700 1.172600
17.413400 1.263200
17.448200 1.457900
17.483000 1.803000
17.517800 2.159700
17.552500 2.272100
17.587300 2.200900
17.622100 1.902500
17.656800 1.545000
17.691600 1.451100
17.726400 1.824100
17.761100 2.447300
17.795900 2.651900
17.830700 2.089200
17.865400 1.658200
17.900200 1.909400
17.935000 2.465300
17.969700 2.927400
18.004500 2.592400
18.039300 1.687400
18.074000 1.505200
18.108800 1.862000
18.143600 1.740600
18.178400 1.585200
18.213100 2.148200
18.247900 2.686800
18.282700 2.496000
18.317400 2.269000
18.352200 2.482400
18.387000 2.941200
18.421700 3.263900
18.456500 2.978500
18.491300 2.474000
18.526000 2.403700
18.560800 2.821000
18.595600 3.076400
18.630300 2.558100
18.665100 2.047000
18.699900 2.392700
18.734700 3.024400
18.769400 3.484100
18.804200 3.608100
18.839000 3.226700
18.873700 2.760800
18.908500 2.556100
18.943300 2.593000
18.978000 2.828400
19.012800 2.954200
19.047600 2.857800
19.082300 2.678400
19.117100 2.498100
19.151900 2.238100
19.186600 1.852600
19.221400 1.773500
19.256200 2.072300
19.291000 2.397500
19.325700 2.397400
19.360500 2.273500
19.395300 2.770900
19.430000 3.477000
19.464800 3.293600
19.499600 2.831400
19.534300 2.695400
19.569100 2.464000
19.603900 2.232200
19.638600 2.426200
19.673400 2.678600
19.708200 2.664500
19.742900 2.619900
19.777700 2.628500
19.812500 2.584500
19.847200 2.853700
19.882000 3.208500
19.916800 3.340000
19.951600 3.165800
19.986300 2.776500
20.021100 2.272700
20.055900 2.075700
20.090600 2.329600
20.125400 2.657400
20.160200 2.919800
20.194900 2.949000
20.229700 2.903900
20.264500 2.874700
20.299200 2.854400
20.334000 3.203200
20.368800 3.502300
20.403500 3.198900
20.438300 2.528800
20.473100 2.117100
20.507900 2.057300
20.542600 1.927500
20.577400 1.631000
20.612200 1.652600
20.646900 2.157500
20.681700 2.776900
20.716500 3.124700
20.751200 2.692200
20.786000 1.961300
20.820800 1.918300
20.855500 2.227800
20.890300 2.100400
20.925100 1.756300
20.959800 1.601500
20.994600 1.660200
21.029400 1.896300
21.064100 2.261500
21.098900 2.333600
21.133700 1.983000
21.168500 1.768400
21.203200 1.927900
21.238000 1.970100
21.272800 1.740700
21.307500 1.474100
21.342300 1.189900
21.377100 0.903200
21.411800 0.982100
21.446600 1.345200
21.481400 1.669500
21.516100 1.825000
21.550900 1.703600
21.585700 1.407300
21.620400 1.445400
21.655200 1.979500
21.690000 2.340100
21.724800 2.123500
21.759500 1.798700
21.794300 1.567900
21.829100 1.420400
21.863800 1.578900
21.898600 1.990100
21.933400 2.113200
21.968100 1.770200
22.002900 1.517900
22.037700 1.728900
22.072400 2.236800
22.107200 2.710200
22.142000 2.595700
22.176700 1.831700
22.211500 1.253500
22.246300 1.393300
22.281100 1.992600
22.315800 2.427900
22.350600 2.315900
22.385400 2.032100
22.420100 1.900700
22.454900 1.833300
22.489700 1.837900
22.524400 2.102000
22.559200 2.520300
22.594000 2.717900
22.628700 2.433200
22.663500 1.850600
22.698300 1.537100
22.733000 1.792600
22.767800 2.230000
22.802600 2.350500
22.837300 2.369300
22.872100 2.554500
22.906900 2.617000
22.941700 2.687900
22.976400 2.731200
23.011200 2.491200
23.046000 2.058300
23.080700 1.720100
23.115500 1.844500
23.150300 2.286700
23.185000 2.568200
23.219800 2.539300
23.254600 2.418400
23.289300 2.489500
23.324100 2.493000
23.358900 2.290000
23.393600 2.233100
23.428400 2.430100
23.463200 2.357500
23.498000 1.846900
23.532700 1.474700
23.567500 1.746600
23.602300 2.188900
23.637000 2.152300
23.671800 2.102500
23.706600 2.576300
23.741300 3.098400
23.776100 3.219100
23.810900 3.218900
23.845600 3.216000
23.880400 2.976800
23.915200 2.600300
23.949900 2.341400
23.984700 2.664500
24.019500 3.257600
24.054200 3.681500
24.089000 3.972600
24.123800 4.117000
24.158600 3.902800
24.193300 3.597200
24.228100 3.177600
24.262900 2.582700
24.297600 2.391400
24.332400 2.686000
24.367200 3.130300
24.401900 3.506000
24.436700 3.355800
24.471500 2.723300
24.506200 2.196200
24.541000 1.952300
24.575800 1.886100
24.610500 2.173200
24.645300 2.713900
24.680100 3.002200
24.714900 2.957900
24.749600 2.885900
24.784400 2.759200
24.819200 2.761200
24.853900 2.829200
24.888700 2.931000
24.923500 2.887800
24.958200 2.615700
24.993000 2.458900
25.027800 2.457600
25.062500 2.553200
25.097300 2.631400
25.132100 2.533400
25.166800 2.497300
25.201600 3.128000
25.236400 3.811800
25.271200 3.740600
25.305900 3.232500
25.340700 2.927900
25.375500 2.950600
25.410200 2.576600
25.445000 1.827100
25.479800 1.593200
25.514500 2.174500
25.549300 2.861000
25.584100 2.944600
25.618800 2.858800
25.653600 2.979000
25.688400 2.798700
25.723100 2.195300
25.757900 1.591200
25.792700 1.494200
25.827400 2.290700
25.862200 3.283800
25.897000 3.656100
25.931800 3.376000
25.966500 2.787600
26.001300 2.366500
26.036100 2.076200
26.070800 1.731000
26.105600 1.607000
26.140400 2.037800
26.175100 2.443800
26.209900 2.189300
26.244700 1.788000
26.279400 1.700600
26.314200 1.647700
26.349000 2.128100
26.383700 2.966100
26.418500 3.089500
26.453300 2.754900
26.488100 2.660300
26.522800 2.761500
26.557600 2.934000
26.592400 3.090500
26.627100 2.792600
26.661900 2.327300
26.696700 2.317400
26.731400 2.719000
26.766200 3.031000
26.801000 3.243800
26.835700 3.315300
26.870500 2.769600
26.905300 2.198300
26.940000 2.211200
26.974800 2.645700
27.009600 3.248000
27.044300 3.327900
27.079100 2.923100
27.113900 2.609600
27.148700 2.239100
27.183400 2.016100
27.218200 2.246600
27.253000 2.629100
27.287700 2.926800
27.322500 2.769300
27.357300 2.232000
27.392000 2.221700
27.426800 2.904800
27.461600 3.067100
27.496300 2.349900
27.531100 1.857700
27.565900 1.797100
27.600600 2.016900
27.635400 2.657500
27.670200 3.159700
27.705000 2.730900
27.739700 2.025300
27.774500 2.004700
27.809300 2.307200
27.844000 2.628400
27.878800 2.781500
27.913600 2.733600
27.948300 2.802500
27.983100 2.854400
28.017900 3.134800
28.052600 3.440700
28.087400 3.261500
28.122200 3.252600
28.156900 3.666100
28.191700 4.145200
28.226500 4.393200
28.261300 4.062700
28.296000 3.060300
28.330800 2.151300
28.365600 2.018900
28.400300 2.290600
28.435100 2.799200
28.469900 3.347900
28.504600 3.407700
28.539400 3.144700
28.574200 3.309600
28.608900 3.791300
28.643700 3.888600
28.678500 3.205700
28.713200 2.360000
28.748000 2.101300
28.782800 2.256200
28.817500 2.057300
28.852300 1.700800
28.887100 2.027000
28.921900 2.626500
28.956600 2.812300
28.991400 2.648700
29.026200 2.707600
29.060900 2.680300
29.095700 2.526100
29.130500 2.880300
29.165200 3.398900
29.200000 3.186900
29.234800 2.700400
29.269500 2.567900
29.304300 2.642600
29.339100 2.799700
29.373800 2.741400
29.408600 2.813600
29.443400 2.983400
29.478200 2.902200
29.512900 2.624500
29.547700 2.500000
29.582500 2.629800
29.617200 2.920500
29.652000 3.225700
29.686800 3.176400
29.721500 2.890000
29.756300 2.704700
29.791100 2.322100
29.825800 1.826500
29.860600 1.710300
29.895400 1.895200
29.930100 2.463400
29.964900 3.178400
29.999700 3.544700
30.034500 3.844900
30.069200 4.072700
30.104000 3.546900
30.138800 2.643200
30.173500 2.176800
30.208300 2.047700
30.243100 2.402400
30.277800 2.837300
30.312600 2.802300
30.347400 2.906800
30.382100 3.378700
30.416900 3.658800
30.451700 3.557000
30.486400 3.317100
30.521200 3.086800
30.556000 3.108000
30.590700 3.295600
30.625500 3.189200
30.660300 3.164800
30.695100 3.657200
30.729800 4.111400
30.764600 3.821800
30.799400 3.657900
30.834100 3.740400
30.868900 3.295200
30.903700 3.117300
30.938400 3.406300
30.973200 3.170000
31.008000 2.615900
31.042700 2.366100
31.077500 2.647500
31.112300 3.188200
31.147000 3.346300
31.181800 3.333600
31.216600 3.514900
31.251400 3.262700
31.286100 2.769300
31.320900 2.692300
31.355700 2.778700
31.390400 2.776100
31.425200 2.963000
31.460000 3.191400
31.494700 3.104800
31.529500 3.057500
31.564300 3.418700
31.599000 3.674200
31.633800 3.262400
31.668600 2.255500
31.703300 1.536500
31.738100 1.494700
31.772900 1.796400
31.807600 2.180800
31.842400 2.639000
31.877200 3.074100
31.912000 2.848600
31.946700 2.107100
31.981500 1.693100
32.016300 1.843700
32.051000 2.372000
32.085800 2.975300
32.120600 3.077700
32.155300 2.492900
32.190100 1.839500
32.224900 1.537100
32.259600 1.542600
32.294400 1.731400
32.329200 1.922100
32.363900 1.901000
32.398700 1.905400
32.433500 1.917300
32.468300 1.688600
32.503000 1.434200
32.537800 1.435900
32.572600 1.454600
32.607300 1.409900
32.642100 1.604400
32.676900 1.662800
32.711600 1.430900
32.746400 1.344200
32.781200 1.358500
32.815900 1.377600
32.850700 1.441000
32.885500 1.319800
32.920200 1.055200
32.955000 1.099900
32.989800 1.271300
33.024600 1.186600
33.059300 0.920400
33.094100 0.697600
33.128900 0.617600
33.163600 0.781100
33.198400 0.927500
33.233200 0.900100
33.267900 0.934000
33.302700 0.895900
33.337500 0.849100
33.372200 0.783700
33.407000 0.633900
33.441800 0.563700
33.476500 0.557500
33.511300 0.509400
33.546100 0.414900
33.580800 0.374600
33.615600 0.411500
33.650400 0.365500
33.685200 0.232600
33.719900 0.234500
33.754700 0.412200
33.789500 0.562400
33.824200 0.504900
33.859000 0.307800
33.893800 0.145500
33.928500 0.068900
33.963300 0.032500
33.998100 0.014500
34.032800 0.035100
34.067600 0.118800
34.102400 0.208900
34.137100 0.191800
34.171900 0.088400
34.206700 0.023900
34.241500 0.038400
34.276200 0.103300
34.311000 0.119100
34.345800 0.056400
34.380500 0.011000
34.415300 0.001300
34.450100 0.006700
34.484800 0.038700
34.519600 0.091300
34.554400 0.088200
34.589100 0.035300
34.623900 0.010100
34.658700 0.021600
34.693400 0.058100
34.728200 0.102500
34.763000 0.097000
34.797700 0.041200
34.832500 0.007300
34.867300 0.000800
34.902100 0.005000
34.936800 0.032400
34.971600 0.085900
35.006400 0.093200
35.041100 0.041400
35.075900 0.007500
35.110700 0.000500
35.145400 0.000000
35.180200 0.000000
35.215000 0.000000
35.249700 0.000000
35.284500 0.000000
35.319300 0.000000
35.354000 0.000000
35.388800 0.000000
35.423600 0.000000
35.458400 0.000000
35.493100 0.000000
35.527900 0.000000
35.562700 0.000000
35.597400 0.000000
35.632200 0.000000
35.667000 0.000000
35.701700 0.000000
35.736500 0.000000
35.771300 0.000000
35.806000 0.000000
35.840800 0.000000
35.875600 0.000000
35.910300 0.000000
35.945100 0.000000
35.979900 0.000000
36.014700 0.000000
36.049400 0.000000
36.084200 0.000000
36.119000 0.000000
36.153700 0.000000
36.188500 0.000000
36.223300 0.000000
36.258000 0.000000
36.292800 0.000000
36.327600 0.000000
36.362300 0.000000
36.397100 0.000000
36.431900 0.000000
36.466600 0.000000
36.501400 0.000000
36.536200 0.000000
36.570900 0.000000
36.605700 0.000000
36.640500 0.000000
36.675300 0.000000
36.710000 0.000000
36.744800 0.000000
36.779600 0.000000
36.814300 0.000000
36.849100 0.000000
36.883900 0.000000
36.918600 0.000000
36.953400 0.000000
36.988200 0.000000
37.022900 0.000000
37.057700 0.000000
37.092500 0.000000
37.127200 0.000000
37.162000 0.000000
37.196800 0.000000
37.231600 0.000000
37.266300 0.000000
37.301100 0.000000
37.335900 0.000000
37.370600 0.000000
37.405400 0.000000
37.440200 0.000000
37.474900 0.000000
37.509700 0.000000
37.544500 0.000000
37.579200 0.000000
37.614000 0.000000
37.648800 0.000000
37.683500 0.000000
37.718300 0.000000
37.753100 0.000000
37.787800 0.000000
37.822600 0.000000
37.857400 0.000000
37.892200 0.000000
37.926900 0.000000
37.961700 0.000000
37.996500 0.000000
38.031200 0.000000
38.066000 0.000000
38.100800 0.000000
38.135500 0.000000
e
