set title 'mp-9978 - Density of States'
set xlabel 'Energy (eV)'
set ylabel 'DOS (states/eV)'
set grid
set xrange [-10:10]
set yrange [0:19.398]
set xzeroaxis lt -1
set terminal png size 800,600
set output 'mp-9978_dos_gnuplot.png'
plot '-' using 1:2 with lines title 'DOS'
-22.338800 0.000000
-22.317200 0.000000
-22.295500 0.000000
-22.273900 0.000000
-22.252300 0.000000
-22.230600 0.000000
-22.209000 0.000000
-22.187400 0.000000
-22.165800 0.000000
-22.144100 0.000000
-22.122500 0.000000
-22.100900 0.000000
-22.079300 0.000000
-22.057600 0.000000
-22.036000 0.000000
-22.014400 0.000000
-21.992700 0.000000
-21.971100 0.000000
-21.949500 0.000000
-21.927900 0.000000
-21.906200 0.000000
-21.884600 0.000000
-21.863000 0.000000
-21.841400 0.000000
-21.819700 0.000000
-21.798100 0.000000
-21.776500 0.000000
-21.754800 0.000000
-21.733200 0.000000
-21.711600 0.000000
-21.690000 0.000000
-21.668300 0.000000
-21.646700 0.000000
-21.625100 0.000000
-21.603400 0.000000
-21.581800 0.000000
-21.560200 0.000000
-21.538600 0.000000
-21.516900 0.000000
-21.495300 0.000000
-21.473700 0.000000
-21.452100 0.000000
-21.430400 0.000000
-21.408800 0.000000
-21.387200 0.000000
-21.365500 0.000000
-21.343900 0.000000
-21.322300 0.000000
-21.300700 0.000000
-21.279000 0.000000
-21.257400 0.000000
-21.235800 0.000000
-21.214100 0.000000
-21.192500 0.000000
-21.170900 0.000000
-21.149300 0.000000
-21.127600 0.000000
-21.106000 0.000000
-21.084400 0.000000
-21.062800 0.000000
-21.041100 0.000000
-21.019500 0.000000
-20.997900 0.000000
-20.976200 0.000000
-20.954600 0.000000
-20.933000 0.000000
-20.911400 0.000000
-20.889700 0.000000
-20.868100 0.000000
-20.846500 0.000000
-20.824900 0.000000
-20.803200 0.000000
-20.781600 0.000000
-20.760000 0.000000
-20.738300 0.000000
-20.716700 0.000000
-20.695100 0.000000
-20.673500 0.000000
-20.651800 0.000000
-20.630200 0.000000
-20.608600 0.000000
-20.586900 0.000000
-20.565300 0.000000
-20.543700 0.000000
-20.522100 0.000000
-20.500400 0.000000
-20.478800 0.000000
-20.457200 0.000000
-20.435600 0.000000
-20.413900 0.000000
-20.392300 0.000000
-20.370700 54.610000
-20.349000 73.603300
-20.327400 74.141800
-20.305800 122.485400
-20.284200 329.096200
-20.262500 0.000000
-20.240900 0.000000
-20.219300 0.000000
-20.197700 0.000000
-20.176000 0.000000
-20.154400 0.000000
-20.132800 0.000000
-20.111100 0.000000
-20.089500 0.000000
-20.067900 0.000000
-20.046300 0.000000
-20.024600 0.000000
-20.003000 0.000000
-19.981400 0.000000
-19.959700 0.000000
-19.938100 0.000000
-19.916500 0.000000
-19.894900 0.000000
-19.873200 0.000000
-19.851600 0.000000
-19.830000 0.000000
-19.808400 0.000000
-19.786700 0.000000
-19.765100 0.000000
-19.743500 0.000000
-19.721800 0.000000
-19.700200 0.000000
-19.678600 0.000000
-19.657000 0.000000
-19.635300 0.000000
-19.613700 0.000000
-19.592100 0.000000
-19.570500 0.000000
-19.548800 0.000000
-19.527200 0.000000
-19.505600 0.000000
-19.483900 0.000000
-19.462300 0.000000
-19.440700 0.000000
-19.419100 0.000000
-19.397400 0.000000
-19.375800 0.000000
-19.354200 0.000000
-19.332500 0.000000
-19.310900 0.000000
-19.289300 0.000000
-19.267700 0.000000
-19.246000 0.000000
-19.224400 0.000000
-19.202800 0.000000
-19.181200 0.000000
-19.159500 0.000000
-19.137900 0.000000
-19.116300 0.000000
-19.094600 0.000000
-19.073000 0.000000
-19.051400 0.000000
-19.029800 0.000000
-19.008100 0.000000
-18.986500 0.000000
-18.964900 0.000000
-18.943300 0.000000
-18.921600 0.000000
-18.900000 0.000000
-18.878400 0.000000
-18.856700 0.000000
-18.835100 0.000000
-18.813500 0.000000
-18.791900 0.000000
-18.770200 0.000000
-18.748600 0.000000
-18.727000 0.000000
-18.705300 0.000000
-18.683700 0.000000
-18.662100 0.000000
-18.640500 0.000000
-18.618800 0.000000
-18.597200 0.000000
-18.575600 0.000000
-18.554000 0.000000
-18.532300 0.000000
-18.510700 0.000000
-18.489100 0.000000
-18.467400 0.000000
-18.445800 0.000000
-18.424200 0.000000
-18.402600 0.000000
-18.380900 0.000000
-18.359300 0.000000
-18.337700 0.000000
-18.316100 0.000000
-18.294400 0.000000
-18.272800 0.000000
-18.251200 0.000000
-18.229500 0.000000
-18.207900 0.000000
-18.186300 0.000000
-18.164700 0.000000
-18.143000 0.000000
-18.121400 0.000000
-18.099800 0.000000
-18.078100 0.000000
-18.056500 0.000000
-18.034900 0.000000
-18.013300 0.000000
-17.991600 0.000000
-17.970000 0.000000
-17.948400 0.000000
-17.926800 0.000000
-17.905100 0.000000
-17.883500 0.000000
-17.861900 0.000000
-17.840200 0.000000
-17.818600 0.000000
-17.797000 0.000000
-17.775400 0.000000
-17.753700 0.000000
-17.732100 0.000000
-17.710500 0.000000
-17.688900 0.000000
-17.667200 0.000000
-17.645600 0.000000
-17.624000 0.000000
-17.602300 0.000000
-17.580700 0.000000
-17.559100 0.000000
-17.537500 0.000000
-17.515800 0.000000
-17.494200 0.000000
-17.472600 0.000000
-17.450900 0.000000
-17.429300 0.000000
-17.407700 0.000000
-17.386100 0.000000
-17.364400 0.000000
-17.342800 0.000000
-17.321200 0.000000
-17.299600 0.000000
-17.277900 0.000000
-17.256300 0.000000
-17.234700 0.000000
-17.213000 0.000000
-17.191400 0.000000
-17.169800 0.000000
-17.148200 0.000000
-17.126500 0.000000
-17.104900 0.000000
-17.083300 0.000000
-17.061700 0.000000
-17.040000 0.000000
-17.018400 0.000000
-16.996800 0.000000
-16.975100 0.000000
-16.953500 0.000000
-16.931900 0.000000
-16.910300 0.000000
-16.888600 0.000000
-16.867000 0.000000
-16.845400 0.000000
-16.823700 0.000000
-16.802100 0.000000
-16.780500 0.000000
-16.758900 0.000000
-16.737200 0.000000
-16.715600 0.000000
-16.694000 0.000000
-16.672400 0.000000
-16.650700 0.000000
-16.629100 0.000000
-16.607500 0.000000
-16.585800 0.000000
-16.564200 0.000000
-16.542600 0.000000
-16.521000 0.000000
-16.499300 0.000000
-16.477700 0.000000
-16.456100 0.000000
-16.434500 0.000000
-16.412800 0.000000
-16.391200 0.000000
-16.369600 0.000000
-16.347900 0.000000
-16.326300 0.000000
-16.304700 0.000000
-16.283100 0.000000
-16.261400 0.000000
-16.239800 0.000000
-16.218200 0.000000
-16.196500 0.000000
-16.174900 0.000000
-16.153300 0.000000
-16.131700 0.000000
-16.110000 0.000000
-16.088400 0.000000
-16.066800 0.000000
-16.045200 0.000000
-16.023500 0.000000
-16.001900 0.000000
-15.980300 0.000000
-15.958600 0.000000
-15.937000 0.000000
-15.915400 0.000000
-15.893800 0.000000
-15.872100 0.000000
-15.850500 0.000000
-15.828900 0.000000
-15.807300 0.000000
-15.785600 0.000000
-15.764000 0.000000
-15.742400 0.000000
-15.720700 0.000000
-15.699100 0.000000
-15.677500 0.000000
-15.655900 0.000000
-15.634200 0.000000
-15.612600 0.000000
-15.591000 0.000000
-15.569300 0.000000
-15.547700 0.000000
-15.526100 0.000000
-15.504500 0.000000
-15.482800 0.000000
-15.461200 0.000000
-15.439600 0.000000
-15.418000 0.000000
-15.396300 0.000000
-15.374700 0.000000
-15.353100 0.000000
-15.331400 0.000000
-15.309800 0.000000
-15.288200 0.000000
-15.266600 0.000000
-15.244900 0.000000
-15.223300 0.000000
-15.201700 0.000000
-15.180100 0.000000
-15.158400 0.000000
-15.136800 0.000000
-15.115200 0.000000
-15.093500 0.000000
-15.071900 0.000000
-15.050300 0.000000
-15.028700 0.000000
-15.007000 0.000000
-14.985400 0.000000
-14.963800 0.000000
-14.942100 0.000000
-14.920500 0.000000
-14.898900 0.000000
-14.877300 0.000000
-14.855600 0.000000
-14.834000 0.000000
-14.812400 0.000000
-14.790800 0.000000
-14.769100 0.000000
-14.747500 0.000000
-14.725900 0.000000
-14.704200 0.000000
-14.682600 0.000000
-14.661000 0.000000
-14.639400 0.000000
-14.617700 0.000000
-14.596100 0.000000
-14.574500 0.000000
-14.552800 0.000000
-14.531200 0.000000
-14.509600 0.000000
-14.488000 0.000000
-14.466300 0.000000
-14.444700 0.000000
-14.423100 0.000000
-14.401500 0.000000
-14.379800 0.000000
-14.358200 0.000000
-14.336600 0.000000
-14.314900 0.000000
-14.293300 0.000000
-14.271700 0.000000
-14.250100 0.000000
-14.228400 0.000000
-14.206800 0.000000
-14.185200 0.000000
-14.163600 0.000000
-14.141900 0.000000
-14.120300 0.000000
-14.098700 0.000000
-14.077000 0.000000
-14.055400 0.000000
-14.033800 0.000000
-14.012200 0.000000
-13.990500 0.000000
-13.968900 0.000000
-13.947300 0.000000
-13.925600 0.000000
-13.904000 0.000000
-13.882400 0.000000
-13.860800 0.000000
-13.839100 0.000000
-13.817500 0.000000
-13.795900 0.000000
-13.774300 0.000000
-13.752600 0.000000
-13.731000 0.000000
-13.709400 0.000000
-13.687700 0.000000
-13.666100 0.000000
-13.644500 0.000000
-13.622900 0.000000
-13.601200 0.000000
-13.579600 0.000000
-13.558000 0.000000
-13.536400 0.000000
-13.514700 0.000000
-13.493100 0.000000
-13.471500 0.000000
-13.449800 0.000000
-13.428200 0.000000
-13.406600 0.000000
-13.385000 0.000000
-13.363300 0.000000
-13.341700 0.000000
-13.320100 0.000000
-13.298400 0.000000
-13.276800 0.000000
-13.255200 0.000000
-13.233600 0.000000
-13.211900 0.000000
-13.190300 0.000000
-13.168700 0.000000
-13.147100 0.000000
-13.125400 0.000000
-13.103800 0.000000
-13.082200 0.000000
-13.060500 0.000000
-13.038900 0.000000
-13.017300 0.000000
-12.995700 0.000000
-12.974000 0.000000
-12.952400 0.000000
-12.930800 0.000000
-12.909200 0.000000
-12.887500 0.000000
-12.865900 0.000000
-12.844300 0.000000
-12.822600 0.000000
-12.801000 0.000000
-12.779400 0.000000
-12.757800 0.000000
-12.736100 0.000000
-12.714500 0.000000
-12.692900 0.000000
-12.671200 0.000000
-12.649600 0.000000
-12.628000 0.000000
-12.606400 0.000000
-12.584700 0.000000
-12.563100 0.000000
-12.541500 0.000000
-12.519900 0.000000
-12.498200 0.000000
-12.476600 0.000000
-12.455000 0.000000
-12.433300 0.000000
-12.411700 0.000000
-12.390100 0.000000
-12.368500 0.000000
-12.346800 0.000000
-12.325200 0.000000
-12.303600 0.000000
-12.282000 0.000000
-12.260300 0.000000
-12.238700 0.000000
-12.217100 0.000000
-12.195400 0.000000
-12.173800 0.000000
-12.152200 0.000000
-12.130600 0.000000
-12.108900 0.000000
-12.087300 0.000000
-12.065700 0.000000
-12.044000 0.000000
-12.022400 0.000000
-12.000800 0.000000
-11.979200 0.000000
-11.957500 0.000000
-11.935900 0.000000
-11.914300 0.000000
-11.892700 0.000000
-11.871000 0.000000
-11.849400 0.000000
-11.827800 0.000000
-11.806100 0.000000
-11.784500 0.000000
-11.762900 0.000000
-11.741300 0.000000
-11.719600 0.000000
-11.698000 0.000000
-11.676400 0.000000
-11.654800 0.000000
-11.633100 0.000000
-11.611500 0.000000
-11.589900 0.000000
-11.568200 0.000000
-11.546600 0.000000
-11.525000 0.000000
-11.503400 0.000000
-11.481700 0.000000
-11.460100 0.000000
-11.438500 0.000000
-11.416800 0.000000
-11.395200 0.000000
-11.373600 0.000000
-11.352000 0.000000
-11.330300 0.000000
-11.308700 0.000000
-11.287100 0.000000
-11.265500 0.000000
-11.243800 0.000000
-11.222200 0.000000
-11.200600 0.000000
-11.178900 0.000000
-11.157300 0.000000
-11.135700 0.000000
-11.114100 0.000000
-11.092400 0.000000
-11.070800 0.000000
-11.049200 0.000000
-11.027600 0.000000
-11.005900 0.000000
-10.984300 0.000000
-10.962700 0.000000
-10.941000 0.000000
-10.919400 0.000000
-10.897800 0.000000
-10.876200 0.000000
-10.854500 0.000000
-10.832900 0.000000
-10.811300 0.000000
-10.789600 0.000000
-10.768000 0.000000
-10.746400 0.000000
-10.724800 0.000000
-10.703100 0.000000
-10.681500 0.000000
-10.659900 0.000000
-10.638300 0.000000
-10.616600 0.000000
-10.595000 0.000000
-10.573400 0.000000
-10.551700 0.000000
-10.530100 0.000000
-10.508500 0.000000
-10.486900 0.000000
-10.465200 0.000000
-10.443600 0.000000
-10.422000 0.000000
-10.400400 0.000000
-10.378700 0.000000
-10.357100 0.000000
-10.335500 0.467600
-10.313800 0.725100
-10.292200 0.773200
-10.270600 0.898600
-10.249000 0.976800
-10.227300 0.955400
-10.205700 0.862800
-10.184100 0.863600
-10.162400 0.864300
-10.140800 0.869900
-10.119200 0.890200
-10.097600 0.924100
-10.075900 0.959200
-10.054300 0.994300
-10.032700 0.961200
-10.011100 0.920500
-9.989400 0.910300
-9.967800 0.900100
-9.946200 0.898700
-9.924500 0.908900
-9.902900 0.921700
-9.881300 0.934500
-9.859700 0.947300
-9.838000 0.960100
-9.816400 0.972900
-9.794800 0.985700
-9.773200 0.999100
-9.751500 0.986900
-9.729900 0.967800
-9.708300 0.964800
-9.686600 0.961800
-9.665000 0.961300
-9.643400 0.965500
-9.621800 0.970800
-9.600100 0.976200
-9.578500 0.981600
-9.556900 0.987000
-9.535200 0.992400
-9.513600 1.000700
-9.492000 1.016000
-9.470400 1.029700
-9.448700 1.041400
-9.427100 1.053100
-9.405500 1.064800
-9.383900 1.057400
-9.362200 1.045900
-9.340600 1.042600
-9.319000 1.039700
-9.297300 1.040500
-9.275700 1.043300
-9.254100 1.050800
-9.232500 1.061300
-9.210800 1.071800
-9.189200 1.082300
-9.167600 1.092200
-9.146000 1.100800
-9.124300 1.109200
-9.102700 1.117600
-9.081100 1.126000
-9.059400 1.134500
-9.037800 1.142900
-9.016200 1.151300
-8.994600 1.159700
-8.972900 1.182800
-8.951300 2.634500
-8.929700 1.958700
-8.908000 1.876500
-8.886400 1.449200
-8.864800 1.319600
-8.843200 1.278600
-8.821500 1.237600
-8.799900 1.196500
-8.778300 1.032500
-8.756700 0.997100
-8.735000 0.966100
-8.713400 0.950300
-8.691800 0.934900
-8.670100 0.919500
-8.648500 0.896000
-8.626900 0.845800
-8.605300 0.810200
-8.583600 0.774600
-8.562000 0.738900
-8.540400 0.703300
-8.518700 0.667700
-8.497100 0.632100
-8.475500 0.735300
-8.453900 2.680200
-8.432200 2.735500
-8.410600 2.436000
-8.389000 2.599100
-8.367400 2.718700
-8.345700 2.479400
-8.324100 2.705700
-8.302500 3.476300
-8.280800 3.990000
-8.259200 3.256700
-8.237600 3.159200
-8.216000 3.121400
-8.194300 3.092700
-8.172700 3.081500
-8.151100 3.066100
-8.129500 3.022400
-8.107800 2.993300
-8.086200 3.003500
-8.064600 3.124600
-8.042900 3.293500
-8.021300 3.535200
-7.999700 3.976700
-7.978100 4.907700
-7.956400 7.429200
-7.934800 3.579200
-7.913200 2.094900
-7.891500 1.323600
-7.869900 0.799000
-7.848300 0.758200
-7.826700 0.987700
-7.805000 1.491100
-7.783400 2.519000
-7.761800 3.543500
-7.740200 5.682100
-7.718500 6.077700
-7.696900 5.878900
-7.675300 8.888800
-7.653600 10.285300
-7.632000 17.634600
-7.610400 4.148700
-7.588800 5.422400
-7.567100 7.101200
-7.545500 10.223800
-7.523900 14.617800
-7.502300 13.792600
-7.480600 13.652600
-7.459000 13.353800
-7.437400 11.277700
-7.415700 3.885200
-7.394100 2.164900
-7.372500 1.068900
-7.350900 1.013500
-7.329200 0.958100
-7.307600 0.902600
-7.286000 0.847200
-7.264300 0.791700
-7.242700 0.749200
-7.221100 0.736100
-7.199500 0.723000
-7.177800 0.709900
-7.156200 0.696800
-7.134600 0.683700
-7.113000 0.670600
-7.091300 0.657500
-7.069700 0.644400
-7.048100 0.631300
-7.026400 0.583200
-7.004800 0.583700
-6.983200 0.584300
-6.961600 0.584800
-6.939900 0.585300
-6.918300 0.602900
-6.896700 0.587700
-6.875100 0.572400
-6.853400 0.557100
-6.831800 0.541800
-6.810200 0.526500
-6.788500 0.511200
-6.766900 0.495900
-6.745300 0.480600
-6.723700 0.466400
-6.702000 0.466100
-6.680400 0.465800
-6.658800 0.465500
-6.637100 0.465200
-6.615500 0.465000
-6.593900 0.464700
-6.572300 0.464400
-6.550600 0.538900
-6.529000 0.509500
-6.507400 0.480200
-6.485800 0.450800
-6.464100 0.421400
-6.442500 0.392000
-6.420900 0.362600
-6.399200 0.333300
-6.377600 0.303900
-6.356000 0.274500
-6.334400 0.000000
-6.312700 0.000000
-6.291100 0.000000
-6.269500 0.000000
-6.247900 0.000000
-6.226200 0.000000
-6.204600 0.000000
-6.183000 0.000000
-6.161300 0.000000
-6.139700 0.000000
-6.118100 0.000000
-6.096500 0.000000
-6.074800 0.000000
-6.053200 0.000000
-6.031600 0.000000
-6.009900 0.000000
-5.988300 0.000000
-5.966700 0.000000
-5.945100 0.000000
-5.923400 0.000000
-5.901800 0.000000
-5.880200 0.000000
-5.858600 0.000000
-5.836900 0.000000
-5.815300 0.000000
-5.793700 0.000000
-5.772000 0.000000
-5.750400 0.000000
-5.728800 0.000000
-5.707200 0.000000
-5.685500 0.000000
-5.663900 0.000000
-5.642300 0.000000
-5.620700 0.000000
-5.599000 0.000000
-5.577400 0.000000
-5.555800 0.000000
-5.534100 0.000000
-5.512500 0.000000
-5.490900 0.000000
-5.469300 0.000000
-5.447600 0.000000
-5.426000 0.000000
-5.404400 0.000000
-5.382700 0.000000
-5.361100 0.000000
-5.339500 0.000000
-5.317900 0.000000
-5.296200 0.000000
-5.274600 0.000000
-5.253000 0.000000
-5.231400 0.000000
-5.209700 0.000000
-5.188100 0.000000
-5.166500 0.000000
-5.144800 0.000000
-5.123200 0.000000
-5.101600 0.000000
-5.080000 0.000000
-5.058300 0.000000
-5.036700 0.000000
-5.015100 0.000000
-4.993500 0.000000
-4.971800 0.000000
-4.950200 0.000000
-4.928600 0.000000
-4.906900 0.000000
-4.885300 0.000000
-4.863700 0.000000
-4.842100 0.000000
-4.820400 0.000000
-4.798800 0.000000
-4.777200 0.000000
-4.755500 0.000000
-4.733900 0.000000
-4.712300 0.000000
-4.690700 0.000000
-4.669000 0.000000
-4.647400 0.000000
-4.625800 0.000000
-4.604200 0.000000
-4.582500 0.000000
-4.560900 0.000000
-4.539300 0.000000
-4.517600 0.000000
-4.496000 0.000000
-4.474400 0.000000
-4.452800 0.000000
-4.431100 0.000000
-4.409500 0.000000
-4.387900 0.000000
-4.366300 0.000000
-4.344600 0.000000
-4.323000 0.000000
-4.301400 0.000000
-4.279700 0.000000
-4.258100 0.000000
-4.236500 0.000000
-4.214900 0.000000
-4.193200 0.000000
-4.171600 0.000000
-4.150000 0.000000
-4.128300 0.000000
-4.106700 0.000000
-4.085100 0.000000
-4.063500 0.000000
-4.041800 0.000000
-4.020200 0.000000
-3.998600 0.000000
-3.977000 0.000000
-3.955300 0.000000
-3.933700 0.000000
-3.912100 0.000000
-3.890400 0.000000
-3.868800 0.000000
-3.847200 0.000000
-3.825600 0.000000
-3.803900 0.000000
-3.782300 0.000000
-3.760700 0.000000
-3.739100 0.000000
-3.717400 0.000000
-3.695800 0.000000
-3.674200 0.000000
-3.652500 0.000000
-3.630900 0.000000
-3.609300 0.000000
-3.587700 0.000000
-3.566000 0.000000
-3.544400 0.000000
-3.522800 0.000000
-3.501100 0.000000
-3.479500 0.000000
-3.457900 0.000000
-3.436300 0.000000
-3.414600 0.000000
-3.393000 0.000000
-3.371400 0.000000
-3.349800 0.000000
-3.328100 0.000000
-3.306500 0.000000
-3.284900 0.000000
-3.263200 0.000000
-3.241600 0.000000
-3.220000 0.000000
-3.198400 0.000000
-3.176700 0.000000
-3.155100 0.000000
-3.133500 0.000000
-3.111900 0.000000
-3.090200 0.000000
-3.068600 0.000000
-3.047000 0.000000
-3.025300 0.000000
-3.003700 0.000000
-2.982100 0.000000
-2.960500 0.000000
-2.938800 0.000000
-2.917200 0.000000
-2.895600 0.000000
-2.873900 0.000000
-2.852300 0.000000
-2.830700 0.000000
-2.809100 0.000000
-2.787400 0.000000
-2.765800 0.000000
-2.744200 0.000000
-2.722600 0.000000
-2.700900 0.000000
-2.679300 0.000000
-2.657700 0.000000
-2.636000 0.000000
-2.614400 0.000000
-2.592800 0.000000
-2.571200 0.000000
-2.549500 0.000000
-2.527900 0.000000
-2.506300 0.000000
-2.484700 0.000000
-2.463000 0.000000
-2.441400 0.000000
-2.419800 0.000000
-2.398100 0.000000
-2.376500 0.000000
-2.354900 0.000000
-2.333300 0.000000
-2.311600 0.000000
-2.290000 0.000000
-2.268400 0.000000
-2.246700 0.000000
-2.225100 0.000000
-2.203500 0.000000
-2.181900 0.000000
-2.160200 0.000000
-2.138600 0.000000
-2.117000 0.000000
-2.095400 0.000000
-2.073700 0.000000
-2.052100 0.000000
-2.030500 0.000000
-2.008800 0.000000
-1.987200 0.000000
-1.965600 0.000000
-1.944000 0.000000
-1.922300 0.000000
-1.900700 0.000000
-1.879100 0.000000
-1.857400 0.000000
-1.835800 0.000000
-1.814200 0.000000
-1.792600 0.195800
-1.770900 0.270400
-1.749300 0.350400
-1.727700 0.440900
-1.706100 0.662600
-1.684400 0.787300
-1.662800 1.072800
-1.641200 0.926300
-1.619500 0.969400
-1.597900 0.949000
-1.576300 0.964500
-1.554700 0.978700
-1.533000 1.148200
-1.511400 0.889000
-1.489800 0.922800
-1.468200 0.956700
-1.446500 1.045700
-1.424900 1.066400
-1.403300 1.071000
-1.381600 1.062000
-1.360000 1.060300
-1.338400 1.058200
-1.316800 1.055700
-1.295100 1.082000
-1.273500 1.017700
-1.251900 0.966900
-1.230200 0.968300
-1.208600 0.973400
-1.187000 0.980400
-1.165400 0.988700
-1.143700 0.998000
-1.122100 1.008500
-1.100500 1.017800
-1.078900 1.056100
-1.057200 1.073800
-1.035600 1.086700
-1.014000 1.094800
-0.992300 1.100400
-0.970700 1.109300
-0.949100 1.120100
-0.927500 1.155100
-0.905800 1.166200
-0.884200 1.179700
-0.862600 1.194800
-0.841000 1.218700
-0.819300 1.252900
-0.797700 1.292200
-0.776100 1.333000
-0.754400 2.781600
-0.732800 2.164900
-0.711200 2.461900
-0.689600 2.944500
-0.667900 3.568600
-0.646300 4.480200
-0.624700 5.245600
-0.603000 5.023000
-0.581400 5.400100
-0.559800 3.317500
-0.538200 2.997300
-0.516500 2.866700
-0.494900 3.119000
-0.473300 2.935600
-0.451700 2.933000
-0.430000 2.917900
-0.408400 2.813500
-0.386800 2.715500
-0.365100 2.621700
-0.343500 2.614300
-0.321900 2.698700
-0.300300 3.077500
-0.278600 3.362600
-0.257000 3.850400
-0.235400 4.870200
-0.213800 4.834300
-0.192100 4.303000
-0.170500 3.671500
-0.148900 3.257700
-0.127200 3.218300
-0.105600 2.611700
-0.084000 2.559800
-0.062400 4.750300
-0.040700 4.954700
-0.019100 2.589900
0.002500 2.413200
0.024200 2.126900
0.045800 1.906900
0.067400 1.870600
0.089000 1.896300
0.110700 1.924200
0.132300 2.186500
0.153900 2.263500
0.175500 2.424700
0.197200 2.618300
0.218800 3.818000
0.240400 3.152400
0.262100 2.934000
0.283700 3.244700
0.305300 4.345200
0.326900 4.111100
0.348600 4.553300
0.370200 5.393400
0.391800 6.608500
0.413400 7.570600
0.435100 5.846100
0.456700 4.640000
0.478300 3.439100
0.500000 3.292500
0.521600 3.153200
0.543200 3.011100
0.564800 2.864200
0.586500 2.662900
0.608100 2.652300
0.629700 2.673900
0.651400 2.716300
0.673000 2.759400
0.694600 2.883700
0.716200 2.990800
0.737900 4.163700
0.759500 3.421600
0.781100 3.285400
0.802700 3.293000
0.824400 3.154300
0.846000 3.287500
0.867600 3.485200
0.889300 3.561900
0.910900 3.621400
0.932500 3.736000
0.954100 3.915500
0.975800 4.382300
0.997400 4.261100
1.019000 5.492000
1.040600 5.261500
1.062300 5.342300
1.083900 5.468500
1.105500 5.583700
1.127200 5.386400
1.148800 5.580900
1.170400 5.106300
1.192000 5.003400
1.213700 4.915900
1.235300 5.005400
1.256900 4.778100
1.278600 4.762700
1.300200 5.227300
1.321800 5.221900
1.343400 7.592800
1.365100 4.363700
1.386700 3.997400
1.408300 4.015700
1.429900 4.230700
1.451600 4.334600
1.473200 4.544700
1.494800 4.925300
1.516500 5.116500
1.538100 5.365500
1.559700 5.686000
1.581300 5.634300
1.603000 5.262500
1.624600 5.050700
1.646200 4.662700
1.667800 4.330400
1.689500 4.579100
1.711100 4.367000
1.732700 3.807900
1.754400 3.683500
1.776000 3.610900
1.797600 3.389800
1.819200 3.441200
1.840900 3.598200
1.862500 3.789400
1.884100 4.180100
1.905800 4.487600
1.927400 4.933900
1.949000 12.680900
1.970600 6.417700
1.992300 6.602200
2.013900 7.219000
2.035500 6.808400
2.057100 6.937200
2.078800 6.027300
2.100400 6.038100
2.122000 7.896100
2.143700 6.519000
2.165300 6.181500
2.186900 5.888200
2.208500 5.342400
2.230200 4.565000
2.251800 7.226200
2.273400 5.246100
2.295000 5.389700
2.316700 6.863900
2.338300 6.912200
2.359900 7.399500
2.381600 6.084600
2.403200 6.301900
2.424800 7.360500
2.446400 7.819000
2.468100 7.610100
2.489700 4.822200
2.511300 3.971200
2.533000 3.464800
2.554600 4.255200
2.576200 4.365400
2.597800 4.290800
2.619500 4.551900
2.641100 4.636000
2.662700 5.085700
2.684300 5.693200
2.706000 5.978500
2.727600 5.849700
2.749200 6.012500
2.770900 6.368400
2.792500 7.370500
2.814100 8.232400
2.835700 7.933900
2.857400 6.504700
2.879000 5.787900
2.900600 5.386100
2.922200 4.984200
2.943900 4.917800
2.965500 4.968000
2.987100 4.983500
3.008800 4.866300
3.030400 4.686300
3.052000 4.695100
3.073600 4.846600
3.095300 4.699100
3.116900 4.832400
3.138500 5.076400
3.160200 5.182400
3.181800 4.723800
3.203400 4.594800
3.225000 3.492800
3.246700 2.982200
3.268300 2.725200
3.289900 2.533900
3.311500 2.001700
3.333200 1.971800
3.354800 1.987000
3.376400 2.017300
3.398100 2.159500
3.419700 2.346900
3.441300 2.592800
3.462900 2.766100
3.484600 2.872200
3.506200 2.993200
3.527800 3.421700
3.549400 3.471600
3.571100 3.318500
3.592700 3.167900
3.614300 3.098900
3.636000 3.026300
3.657600 2.887200
3.679200 2.796900
3.700800 2.696400
3.722500 3.017400
3.744100 2.270500
3.765700 2.088000
3.787400 2.022400
3.809000 1.958400
3.830600 1.895900
3.852200 1.806000
3.873900 1.737100
3.895500 1.661200
3.917100 1.584300
3.938700 1.486300
3.960400 1.652900
3.982000 1.612200
4.003600 1.776600
4.025300 1.658500
4.046900 1.058100
4.068500 1.051500
4.090100 1.048500
4.111800 1.045500
4.133400 1.042500
4.155000 1.039500
4.176700 1.036600
4.198300 1.032200
4.219900 1.027300
4.241500 1.022100
4.263200 1.014500
4.284800 1.007300
4.306400 0.999800
4.328000 0.985200
4.349700 0.973900
4.371300 0.959700
4.392900 0.944200
4.414600 0.926600
4.436200 0.913200
4.457800 0.894900
4.479400 0.888100
4.501100 0.879500
4.522700 0.872300
4.544300 0.871900
4.565900 0.871500
4.587600 0.871000
4.609200 0.870600
4.630800 0.870500
4.652500 0.871200
4.674100 0.870500
4.695700 0.869400
4.717300 0.868200
4.739000 0.868600
4.760600 0.867500
4.782200 0.865500
4.803900 0.861300
4.825500 0.861100
4.847100 0.860900
4.868700 0.860600
4.890400 0.860400
4.912000 0.860100
4.933600 0.858200
4.955200 0.858500
4.976900 0.858800
4.998500 0.859200
5.020100 0.859700
5.041800 0.860200
5.063400 1.091100
5.085000 1.204700
5.106600 1.336100
5.128300 1.029900
5.149900 1.020700
5.171500 1.089200
5.193100 1.019200
5.214800 0.957300
5.236400 0.903600
5.258000 0.861600
5.279700 0.853400
5.301300 0.912200
5.322900 0.954400
5.344500 1.000400
5.366200 1.024700
5.387800 1.029300
5.409400 1.033300
5.431100 1.040400
5.452700 1.053200
5.474300 1.066000
5.495900 1.078600
5.517600 1.050400
5.539200 1.070300
5.560800 1.089600
5.582400 1.108600
5.604100 1.127000
5.625700 1.181400
5.647300 1.249900
5.669000 1.320400
5.690600 1.372400
5.712200 1.331300
5.733800 1.311400
5.755500 1.420100
5.777100 1.562300
5.798700 1.653400
5.820300 1.527800
5.842000 1.614000
5.863600 1.819800
5.885200 1.822900
5.906900 1.870000
5.928500 1.798900
5.950100 1.724500
5.971700 1.636600
5.993400 1.415800
6.015000 1.418100
6.036600 1.417200
6.058300 1.379800
6.079900 1.508900
6.101500 1.373600
6.123100 1.315100
6.144800 1.303500
6.166400 1.290600
6.188000 1.281300
6.209600 1.273300
6.231300 1.248100
6.252900 1.241400
6.274500 1.235000
6.296200 1.229000
6.317800 1.227100
6.339400 1.240000
6.361000 1.246200
6.382700 1.245700
6.404300 1.245900
6.425900 1.640300
6.447500 1.413100
6.469200 1.232200
6.490800 1.316700
6.512400 1.422200
6.534100 1.484200
6.555700 1.551900
6.577300 1.639800
6.598900 1.741200
6.620600 1.826600
6.642200 1.991000
6.663800 2.105100
6.685500 2.264100
6.707100 2.435700
6.728700 2.618100
6.750300 2.825200
6.772000 3.139500
6.793600 3.367500
6.815200 3.493900
6.836800 2.814100
6.858500 2.651100
6.880100 2.649300
6.901700 3.069500
6.923400 3.286200
6.945000 3.531200
6.966600 3.655800
6.988200 4.322400
7.009900 4.950300
7.031500 5.373100
7.053100 5.250500
7.074700 5.576900
7.096400 6.098700
7.118000 6.487700
7.139600 11.993600
7.161300 8.814400
7.182900 8.221500
7.204500 8.348000
7.226100 8.621600
7.247800 8.095800
7.269400 8.608700
7.291000 9.345000
7.312700 11.195900
7.334300 10.704400
7.355900 10.188600
7.377500 8.473000
7.399200 7.423400
7.420800 7.215700
7.442400 6.478000
7.464000 6.142700
7.485700 4.967400
7.507300 4.657800
7.528900 4.084100
7.550600 3.881100
7.572200 3.969300
7.593800 4.067300
7.615400 4.365200
7.637100 4.407000
7.658700 4.592700
7.680300 4.864600
7.701900 4.745700
7.723600 5.397800
7.745200 6.061200
7.766800 5.326600
7.788500 5.472200
7.810100 5.120300
7.831700 5.271300
7.853300 6.116000
7.875000 7.390400
7.896600 6.254200
7.918200 6.580900
7.939900 7.033100
7.961500 6.717300
7.983100 6.468700
8.004700 6.499200
8.026400 6.551500
8.048000 5.933500
8.069600 6.133900
8.091200 6.729800
8.112900 6.530900
8.134500 6.865300
8.156100 7.381000
8.177800 6.792900
8.199400 6.572900
8.221000 6.745500
8.242600 7.002400
8.264300 7.354800
8.285900 7.537700
8.307500 7.639400
8.329100 6.696000
8.350800 6.314200
8.372400 6.004400
8.394000 6.032900
8.415700 5.498900
8.437300 5.302900
8.458900 5.201900
8.480500 5.536900
8.502200 5.910800
8.523800 5.735800
8.545400 5.630800
8.567100 5.590400
8.588700 5.642800
8.610300 5.683500
8.631900 5.622600
8.653600 5.867300
8.675200 6.444300
8.696800 6.619800
8.718400 5.730800
8.740100 5.291800
8.761700 5.122400
8.783300 6.048900
8.805000 8.429900
8.826600 6.906700
8.848200 6.088300
8.869800 6.197800
8.891500 6.076900
8.913100 5.956500
8.934700 4.978600
8.956300 4.852800
8.978000 4.686400
8.999600 4.736500
9.021200 5.583400
9.042900 5.377800
9.064500 5.221500
9.086100 5.387700
9.107700 5.412100
9.129400 5.547900
9.151000 5.691500
9.172600 5.980100
9.194300 6.924200
9.215900 7.690200
9.237500 8.030100
9.259100 8.195300
9.280800 8.242300
9.302400 8.664100
9.324000 8.317000
9.345600 7.833100
9.367300 7.005500
9.388900 6.361200
9.410500 6.176400
9.432200 6.244900
9.453800 6.213300
9.475400 6.007800
9.497000 5.598100
9.518700 5.353500
9.540300 5.534500
9.561900 5.532800
9.583500 4.580600
9.605200 4.742000
9.626800 5.728500
9.648400 5.573300
9.670100 5.408900
9.691700 7.558300
9.713300 6.592500
9.734900 6.503400
9.756600 5.569600
9.778200 5.590500
9.799800 5.953800
9.821500 6.590200
9.843100 7.578500
9.864700 15.493000
9.886300 6.482100
9.908000 6.036800
9.929600 5.827800
9.951200 5.704600
9.972800 5.526400
9.994500 5.444100
10.016100 5.190300
10.037700 5.163900
10.059400 4.882900
10.081000 5.315600
10.102600 5.553100
10.124200 5.106400
10.145900 5.034100
10.167500 5.050200
10.189100 5.283100
10.210700 4.921600
10.232400 4.692900
10.254000 4.701700
10.275600 4.676500
10.297300 4.679200
10.318900 4.764700
10.340500 4.742100
10.362100 4.750200
10.383800 5.133400
10.405400 5.127600
10.427000 4.814300
10.448700 3.201300
10.470300 1.832700
10.491900 1.816800
10.513500 1.793500
10.535200 1.277700
10.556800 1.291100
10.578400 1.305800
10.600000 1.590900
10.621700 1.726200
10.643300 1.869400
10.664900 2.160300
10.686600 2.260900
10.708200 1.427000
10.729800 1.390400
10.751400 1.359400
10.773100 1.333800
10.794700 1.312700
10.816300 1.318100
10.838000 1.327400
10.859600 1.337500
10.881200 1.347000
10.902800 1.359800
10.924500 1.530700
10.946100 1.538100
10.967700 1.567100
10.989300 1.386700
11.011000 1.403900
11.032600 1.421000
11.054200 1.437700
11.075900 1.480300
11.097500 1.512900
11.119100 1.547100
11.140700 1.656900
11.162400 1.640400
11.184000 1.583200
11.205600 1.503000
11.227200 1.523800
11.248900 1.615600
11.270500 1.625600
11.292100 1.619500
11.313800 1.613400
11.335400 1.613900
11.357000 1.553000
11.378600 1.515300
11.400300 1.470700
11.421900 1.687200
11.443500 1.744500
11.465200 1.765400
11.486800 1.690000
11.508400 1.764000
11.530000 1.802000
11.551700 1.852600
11.573300 2.088100
11.594900 2.374800
11.616500 2.609900
11.638200 2.732500
11.659800 2.522900
11.681400 2.631400
11.703100 2.734700
11.724700 2.865500
11.746300 2.958500
11.767900 3.076700
11.789600 3.176400
11.811200 3.784900
11.832800 3.948700
11.854400 4.089400
11.876100 4.033800
11.897700 3.856700
11.919300 3.754300
11.941000 3.551100
11.962600 3.296900
11.984200 2.751000
12.005800 2.571000
12.027500 2.425400
12.049100 2.335400
12.070700 2.310200
12.092400 2.316800
12.114000 2.352700
12.135600 2.746900
12.157200 2.367600
12.178900 2.686300
12.200500 3.654400
12.222100 4.352800
12.243700 6.244200
12.265400 4.472600
12.287000 4.415300
12.308600 4.367000
12.330300 4.174800
12.351900 3.882200
12.373500 3.517800
12.395100 3.475000
12.416800 3.377700
12.438400 3.267000
12.460000 3.076500
12.481600 3.200900
12.503300 2.981600
12.524900 2.799500
12.546500 2.646900
12.568200 3.015500
12.589800 3.067800
12.611400 2.942800
12.633000 3.223200
12.654700 3.111400
12.676300 3.342300
12.697900 3.376500
12.719600 3.472400
12.741200 3.299800
12.762800 3.358700
12.784400 3.438100
12.806100 3.928800
12.827700 3.804700
12.849300 3.762700
12.870900 3.158000
12.892600 2.662800
12.914200 2.988300
12.935800 2.826700
12.957500 2.882500
12.979100 3.039100
13.000700 3.035300
13.022300 3.242000
13.044000 3.283500
13.065600 3.451400
13.087200 3.536200
13.108800 3.486400
13.130500 3.582300
13.152100 3.962400
13.173700 4.267100
13.195400 4.905900
13.217000 5.023000
13.238600 5.099700
13.260200 5.006300
13.281900 4.780000
13.303500 4.109600
13.325100 4.334100
13.346800 4.644300
13.368400 4.940200
13.390000 5.124500
13.411600 4.745100
13.433300 4.388600
13.454900 4.100700
13.476500 3.812000
13.498100 4.152300
13.519800 4.096100
13.541400 3.926400
13.563000 3.688100
13.584700 3.468400
13.606300 3.407300
13.627900 3.343000
13.649500 3.274200
13.671200 3.320500
13.692800 3.871400
13.714400 4.215400
13.736000 4.662400
13.757700 4.962600
13.779300 5.058800
13.800900 5.178000
13.822600 5.430000
13.844200 5.071600
13.865800 4.743100
13.887400 5.025000
13.909100 4.855000
13.930700 4.545600
13.952300 4.248700
13.974000 4.104800
13.995600 4.674500
14.017200 4.731800
14.038800 4.851200
14.060500 4.561700
14.082100 4.498300
14.103700 4.150300
14.125300 4.102900
14.147000 3.693500
14.168600 3.457300
14.190200 3.344600
14.211900 3.341900
14.233500 3.355200
14.255100 3.685400
14.276700 3.665000
14.298400 3.467400
14.320000 3.457800
14.341600 3.493600
14.363200 4.026500
14.384900 3.909100
14.406500 4.095500
14.428100 3.995400
14.449800 4.013900
14.471400 4.120400
14.493000 4.214000
14.514600 4.427500
14.536300 5.000600
14.557900 4.857000
14.579500 4.720800
14.601200 4.445400
14.622800 4.058900
14.644400 4.324100
14.666000 4.785200
14.687700 5.307800
14.709300 4.438900
14.730900 4.696500
14.752500 4.708700
14.774200 4.731300
14.795800 5.041200
14.817400 4.498900
14.839100 4.500600
14.860700 4.440700
14.882300 5.514800
14.903900 4.998100
14.925600 4.925300
14.947200 5.083700
14.968800 4.909700
14.990400 4.909100
15.012100 4.963000
15.033700 4.881600
15.055300 4.674800
15.077000 4.652700
15.098600 4.682900
15.120200 5.613100
15.141800 6.226500
15.163500 6.227800
15.185100 6.555700
15.206700 6.607500
15.228400 6.517200
15.250000 5.755900
15.271600 5.711100
15.293200 5.057400
15.314900 4.078300
15.336500 3.894700
15.358100 3.685600
15.379700 3.330000
15.401400 3.326900
15.423000 3.283600
15.444600 3.250300
15.466300 3.226800
15.487900 3.221000
15.509500 3.223800
15.531100 3.445400
15.552800 3.838000
15.574400 4.246400
15.596000 4.339400
15.617600 4.800400
15.639300 4.977000
15.660900 4.778400
15.682500 5.715900
15.704200 5.474800
15.725800 5.409700
15.747400 5.575300
15.769000 6.020900
15.790700 6.626500
15.812300 5.827500
15.833900 5.647500
15.855600 6.320800
15.877200 5.526100
15.898800 5.206700
15.920400 5.279200
15.942100 5.176100
15.963700 4.943500
15.985300 4.909300
16.006900 4.650400
16.028600 4.405400
16.050200 4.203200
16.071800 4.002400
16.093500 3.816600
16.115100 3.671600
16.136700 3.535200
16.158300 3.785000
16.180000 3.792900
16.201600 3.539100
16.223200 3.614300
16.244800 4.526800
16.266500 4.232100
16.288100 3.918600
16.309700 3.591600
16.331400 4.694800
16.353000 3.386000
16.374600 4.011900
16.396200 3.789700
16.417900 3.439100
16.439500 3.051100
16.461100 3.013300
16.482800 2.950200
16.504400 2.851700
16.526000 2.743500
16.547600 3.009800
16.569300 3.318700
16.590900 3.300500
16.612500 3.314200
16.634100 3.486700
16.655800 3.633600
16.677400 3.714500
16.699000 3.987500
16.720700 4.140300
16.742300 4.075500
16.763900 4.172400
16.785500 4.314200
16.807200 4.381500
16.828800 4.474800
16.850400 4.601900
16.872100 4.828700
16.893700 5.055500
16.915300 5.287400
16.936900 5.331200
16.958600 6.390500
16.980200 5.722200
17.001800 5.467400
17.023400 5.396100
17.045100 5.346100
17.066700 5.331100
17.088300 5.298300
17.110000 5.053800
17.131600 4.883900
17.153200 5.085600
17.174800 4.998200
17.196500 4.624500
17.218100 4.678600
17.239700 4.913000
17.261300 5.268500
17.283000 5.755000
17.304600 5.283900
17.326200 4.704200
17.347900 3.995700
17.369500 3.831500
17.391100 3.650800
17.412700 3.477100
17.434400 3.434100
17.456000 3.392500
17.477600 3.214100
17.499300 2.910000
17.520900 2.983100
17.542500 3.110300
17.564100 3.167400
17.585800 3.298600
17.607400 3.382400
17.629000 3.844700
17.650600 4.224800
17.672300 4.655800
17.693900 5.193300
17.715500 6.375800
17.737200 4.608300
17.758800 5.136800
17.780400 4.168400
17.802000 3.668600
17.823700 3.649800
17.845300 2.974600
17.866900 2.599100
17.888500 2.191500
17.910200 2.090000
17.931800 2.010100
17.953400 2.237100
17.975100 2.546300
17.996700 2.590300
18.018300 2.778700
18.039900 2.796500
18.061600 2.732700
18.083200 2.712600
18.104800 2.701000
18.126500 2.671300
18.148100 2.656000
18.169700 3.051800
18.191300 4.273500
18.213000 3.022400
18.234600 2.437700
18.256200 1.927000
18.277800 1.708700
18.299500 1.347200
18.321100 1.253700
18.342700 1.171100
18.364400 1.092700
18.386000 1.016000
18.407600 0.935800
18.429200 0.944200
18.450900 0.764100
18.472500 0.701900
18.494100 0.589100
18.515700 0.490000
18.537400 0.431400
18.559000 0.275500
18.580600 0.184600
18.602300 0.167700
18.623900 0.152000
18.645500 0.137000
18.667100 0.122700
18.688800 0.109100
18.710400 0.096100
18.732000 0.083900
18.753700 0.072400
18.775300 0.061500
18.796900 0.051400
18.818500 0.041900
18.840200 0.033200
18.861800 0.025100
18.883400 0.017800
18.905000 0.011100
18.926700 0.005200
18.948300 0.000100
18.969900 0.000000
18.991600 0.000000
19.013200 0.000000
19.034800 0.000000
19.056400 0.000000
19.078100 0.000000
19.099700 0.000000
19.121300 0.000000
19.142900 0.000000
19.164600 0.000000
19.186200 0.000000
19.207800 0.000000
19.229500 0.000000
19.251100 0.000000
19.272700 0.000000
19.294300 0.000000
19.316000 0.000000
19.337600 0.000000
19.359200 0.000000
19.380900 0.000000
19.402500 0.000000
19.424100 0.000000
19.445700 0.000000
19.467400 0.000000
19.489000 0.000000
19.510600 0.000000
19.532200 0.000000
19.553900 0.000000
19.575500 0.000000
19.597100 0.000000
19.618800 0.000000
19.640400 0.000000
19.662000 0.000000
19.683600 0.000000
19.705300 0.000000
19.726900 0.000000
19.748500 0.000000
19.770100 0.000000
19.791800 0.000000
19.813400 0.000000
19.835000 0.000000
19.856700 0.000000
19.878300 0.000000
19.899900 0.000000
19.921500 0.000000
19.943200 0.000000
19.964800 0.000000
19.986400 0.000000
20.008100 0.000000
20.029700 0.000000
20.051300 0.000000
20.072900 0.000000
20.094600 0.000000
20.116200 0.000000
20.137800 0.000000
20.159400 0.000000
20.181100 0.000000
20.202700 0.000000
20.224300 0.000000
20.246000 0.000000
20.267600 0.000000
20.289200 0.000000
20.310800 0.000000
20.332500 0.000000
20.354100 0.000000
20.375700 0.000000
20.397300 0.000000
20.419000 0.000000
20.440600 0.000000
20.462200 0.000000
20.483900 0.000000
20.505500 0.000000
20.527100 0.000000
20.548700 0.000000
20.570400 0.000000
20.592000 0.000000
20.613600 0.000000
20.635300 0.000000
20.656900 0.000000
20.678500 0.000000
20.700100 0.000000
20.721800 0.000000
20.743400 0.000000
20.765000 0.000000
20.786600 0.000000
20.808300 0.000000
20.829900 0.000000
20.851500 0.000000
20.873200 0.000000
20.894800 0.000000
20.916400 0.000000
e
