set title 'mp-1214775 - Density of States'
set xlabel 'Energy (eV)'
set ylabel 'DOS (states/eV)'
set grid
set xrange [-10:10]
set yrange [0:31.312]
set xzeroaxis lt -1
set terminal png size 800,600
set output 'mp-1214775_dos_gnuplot.png'
plot '-' using 1:2 with lines title 'DOS'
-17.026900 0.000000
-17.011600 0.000000
-16.996200 0.000000
-16.980900 0.000000
-16.965600 0.000000
-16.950300 0.000000
-16.934900 0.000000
-16.919600 0.000000
-16.904300 0.000000
-16.888900 0.000000
-16.873600 0.000000
-16.858300 0.000000
-16.843000 0.000000
-16.827600 0.000000
-16.812300 0.000000
-16.797000 0.000000
-16.781600 0.000000
-16.766300 0.000000
-16.751000 0.000000
-16.735700 0.000000
-16.720300 0.000000
-16.705000 0.000000
-16.689700 0.000000
-16.674300 0.000000
-16.659000 0.000000
-16.643700 0.000000
-16.628400 0.000000
-16.613000 0.000000
-16.597700 0.000000
-16.582400 0.000000
-16.567000 0.000000
-16.551700 0.000000
-16.536400 0.000000
-16.521100 0.000000
-16.505700 0.000000
-16.490400 0.000000
-16.475100 0.000000
-16.459700 0.000000
-16.444400 0.000000
-16.429100 0.000000
-16.413800 0.000000
-16.398400 0.000000
-16.383100 0.000000
-16.367800 0.000000
-16.352400 0.000000
-16.337100 0.000000
-16.321800 0.000000
-16.306400 0.000000
-16.291100 0.000000
-16.275800 0.000000
-16.260500 0.000000
-16.245100 0.000000
-16.229800 0.000000
-16.214500 0.000000
-16.199100 0.000000
-16.183800 0.000000
-16.168500 0.000000
-16.153200 0.000000
-16.137800 0.000000
-16.122500 0.000000
-16.107200 0.000000
-16.091800 0.000000
-16.076500 0.000000
-16.061200 0.000000
-16.045900 0.000000
-16.030500 0.000000
-16.015200 0.000000
-15.999900 0.000000
-15.984500 0.000000
-15.969200 0.000000
-15.953900 0.000000
-15.938600 0.000000
-15.923200 0.000000
-15.907900 0.000000
-15.892600 0.000000
-15.877200 0.000000
-15.861900 0.000000
-15.846600 0.000000
-15.831300 0.000000
-15.815900 0.000000
-15.800600 0.000000
-15.785300 0.000000
-15.769900 0.000000
-15.754600 0.000000
-15.739300 0.000000
-15.724000 0.000000
-15.708600 0.000000
-15.693300 0.000000
-15.678000 0.000000
-15.662600 0.000000
-15.647300 0.000000
-15.632000 1.156800
-15.616700 2.504200
-15.601300 3.566300
-15.586000 5.400400
-15.570700 6.370400
-15.555300 6.710100
-15.540000 7.347200
-15.524700 8.227000
-15.509300 11.144800
-15.494000 15.067900
-15.478700 17.448800
-15.463400 15.186900
-15.448000 14.206900
-15.432700 14.937500
-15.417400 16.885400
-15.402000 24.167000
-15.386700 54.169800
-15.371400 48.211000
-15.356100 0.000000
-15.340700 0.000000
-15.325400 0.000000
-15.310100 0.000000
-15.294700 0.000000
-15.279400 2.278900
-15.264100 2.858500
-15.248800 3.620000
-15.233400 4.334300
-15.218100 5.308400
-15.202800 6.507600
-15.187400 8.862000
-15.172100 11.912100
-15.156800 20.746300
-15.141500 12.142600
-15.126100 9.985500
-15.110800 8.276300
-15.095500 7.131100
-15.080100 30.960300
-15.064800 42.753800
-15.049500 63.843600
-15.034200 16.991500
-15.018800 0.000000
-15.003500 0.000000
-14.988200 0.000000
-14.972800 0.000000
-14.957500 0.000000
-14.942200 0.000000
-14.926900 0.000000
-14.911500 0.000000
-14.896200 0.000000
-14.880900 0.000000
-14.865500 0.000000
-14.850200 0.000000
-14.834900 0.000000
-14.819600 0.000000
-14.804200 0.000000
-14.788900 0.000000
-14.773600 0.000000
-14.758200 0.000000
-14.742900 0.000000
-14.727600 0.000000
-14.712200 0.000000
-14.696900 0.000000
-14.681600 0.000000
-14.666300 0.000000
-14.650900 0.000000
-14.635600 0.000000
-14.620300 0.000000
-14.604900 0.000000
-14.589600 0.000000
-14.574300 0.000000
-14.559000 0.000000
-14.543600 0.000000
-14.528300 0.000000
-14.513000 0.000000
-14.497600 0.000000
-14.482300 0.000000
-14.467000 0.000000
-14.451700 0.000000
-14.436300 0.000000
-14.421000 0.000000
-14.405700 0.000000
-14.390300 0.000000
-14.375000 0.000000
-14.359700 0.000000
-14.344400 0.000000
-14.329000 0.000000
-14.313700 0.000000
-14.298400 0.000000
-14.283000 0.000000
-14.267700 0.000000
-14.252400 0.000000
-14.237100 0.000000
-14.221700 0.000000
-14.206400 0.000000
-14.191100 0.000000
-14.175700 0.000000
-14.160400 0.000000
-14.145100 0.000000
-14.129800 0.000000
-14.114400 0.000000
-14.099100 0.000000
-14.083800 0.000000
-14.068400 0.000000
-14.053100 0.000000
-14.037800 0.000000
-14.022400 0.000000
-14.007100 0.000000
-13.991800 0.000000
-13.976500 0.000000
-13.961100 0.000000
-13.945800 0.000000
-13.930500 0.000000
-13.915100 0.000000
-13.899800 0.000000
-13.884500 0.000000
-13.869200 0.000000
-13.853800 0.000000
-13.838500 0.000000
-13.823200 0.000000
-13.807800 0.000000
-13.792500 0.000000
-13.777200 0.000000
-13.761900 0.000000
-13.746500 0.000000
-13.731200 0.000000
-13.715900 0.000000
-13.700500 0.000000
-13.685200 0.000000
-13.669900 0.000000
-13.654600 0.000000
-13.639200 0.000000
-13.623900 0.000000
-13.608600 0.000000
-13.593200 0.000000
-13.577900 0.000000
-13.562600 0.000000
-13.547300 0.000000
-13.531900 0.000000
-13.516600 0.000000
-13.501300 0.000000
-13.485900 0.000000
-13.470600 0.000000
-13.455300 0.000000
-13.440000 0.000000
-13.424600 0.000000
-13.409300 0.000000
-13.394000 0.000000
-13.378600 0.000000
-13.363300 0.000000
-13.348000 0.000000
-13.332700 0.000000
-13.317300 0.000000
-13.302000 0.000000
-13.286700 0.000000
-13.271300 0.000000
-13.256000 0.000000
-13.240700 0.000000
-13.225300 0.000000
-13.210000 0.000000
-13.194700 0.000000
-13.179400 0.000000
-13.164000 0.000000
-13.148700 0.000000
-13.133400 0.000000
-13.118000 0.000000
-13.102700 0.000000
-13.087400 0.000000
-13.072100 0.000000
-13.056700 0.000000
-13.041400 0.000000
-13.026100 0.000000
-13.010700 0.000000
-12.995400 0.000000
-12.980100 0.000000
-12.964800 0.000000
-12.949400 0.000000
-12.934100 0.000000
-12.918800 0.000000
-12.903400 0.000000
-12.888100 0.000000
-12.872800 0.000000
-12.857500 0.000000
-12.842100 0.000000
-12.826800 0.000000
-12.811500 0.000000
-12.796100 0.000000
-12.780800 0.000000
-12.765500 0.000000
-12.750200 0.000000
-12.734800 0.000000
-12.719500 0.000000
-12.704200 0.000000
-12.688800 0.000000
-12.673500 0.000000
-12.658200 0.000000
-12.642900 0.000000
-12.627500 0.000000
-12.612200 0.000000
-12.596900 0.000000
-12.581500 0.000000
-12.566200 0.000000
-12.550900 0.000000
-12.535600 0.000000
-12.520200 0.000000
-12.504900 0.000000
-12.489600 0.000000
-12.474200 0.000000
-12.458900 0.000000
-12.443600 0.000000
-12.428200 0.000000
-12.412900 0.000000
-12.397600 0.000000
-12.382300 0.000000
-12.366900 0.000000
-12.351600 0.000000
-12.336300 0.000000
-12.320900 0.000000
-12.305600 0.000000
-12.290300 0.000000
-12.275000 0.000000
-12.259600 0.000000
-12.244300 0.000000
-12.229000 0.000000
-12.213600 0.000000
-12.198300 0.000000
-12.183000 0.000000
-12.167700 0.000000
-12.152300 0.000000
-12.137000 0.000000
-12.121700 0.000000
-12.106300 0.000000
-12.091000 0.000000
-12.075700 0.000000
-12.060400 0.000000
-12.045000 0.000000
-12.029700 0.000000
-12.014400 0.000000
-11.999000 0.000000
-11.983700 0.000000
-11.968400 0.000000
-11.953100 0.000000
-11.937700 0.000000
-11.922400 0.000000
-11.907100 0.000000
-11.891700 0.000000
-11.876400 0.000000
-11.861100 0.000000
-11.845800 0.000000
-11.830400 0.000000
-11.815100 0.000000
-11.799800 0.000000
-11.784400 0.000000
-11.769100 0.000000
-11.753800 0.000000
-11.738400 0.000000
-11.723100 0.000000
-11.707800 0.000000
-11.692500 0.000000
-11.677100 0.000000
-11.661800 0.000000
-11.646500 0.000000
-11.631100 0.000000
-11.615800 0.000000
-11.600500 0.000000
-11.585200 0.000000
-11.569800 0.000000
-11.554500 0.000000
-11.539200 0.000000
-11.523800 0.000000
-11.508500 0.000000
-11.493200 0.000000
-11.477900 0.000000
-11.462500 0.000000
-11.447200 0.000000
-11.431900 0.000000
-11.416500 0.000000
-11.401200 0.000000
-11.385900 0.000000
-11.370600 0.000000
-11.355200 0.000000
-11.339900 0.000000
-11.324600 0.000000
-11.309200 0.000000
-11.293900 0.000000
-11.278600 0.000000
-11.263300 0.000000
-11.247900 0.000000
-11.232600 0.000000
-11.217300 0.000000
-11.201900 0.000000
-11.186600 0.000000
-11.171300 0.000000
-11.156000 0.000000
-11.140600 0.000000
-11.125300 0.000000
-11.110000 0.000000
-11.094600 0.000000
-11.079300 0.000000
-11.064000 0.000000
-11.048700 0.000000
-11.033300 0.000000
-11.018000 0.000000
-11.002700 0.000000
-10.987300 0.000000
-10.972000 0.000000
-10.956700 0.000000
-10.941300 0.000000
-10.926000 0.000000
-10.910700 0.000000
-10.895400 0.000000
-10.880000 0.000000
-10.864700 0.000000
-10.849400 0.000000
-10.834000 0.000000
-10.818700 0.000000
-10.803400 0.000000
-10.788100 0.000000
-10.772700 0.000000
-10.757400 0.000000
-10.742100 0.000000
-10.726700 0.000000
-10.711400 0.000000
-10.696100 0.000000
-10.680800 0.000000
-10.665400 0.000000
-10.650100 0.000000
-10.634800 0.000000
-10.619400 0.000000
-10.604100 0.000000
-10.588800 0.000000
-10.573500 0.000000
-10.558100 0.000000
-10.542800 0.000000
-10.527500 0.000000
-10.512100 0.000000
-10.496800 0.000000
-10.481500 0.000000
-10.466200 0.000000
-10.450800 0.000000
-10.435500 0.000000
-10.420200 0.000000
-10.404800 0.000000
-10.389500 0.000000
-10.374200 0.000000
-10.358900 0.000000
-10.343500 0.000000
-10.328200 0.000000
-10.312900 0.000000
-10.297500 0.000000
-10.282200 0.000000
-10.266900 0.000000
-10.251600 0.000000
-10.236200 0.000000
-10.220900 0.000000
-10.205600 0.000000
-10.190200 0.000000
-10.174900 0.000000
-10.159600 0.000000
-10.144200 0.000000
-10.128900 0.000000
-10.113600 0.000000
-10.098300 0.000000
-10.082900 0.000000
-10.067600 0.000000
-10.052300 0.000000
-10.036900 0.000000
-10.021600 0.000000
-10.006300 0.000000
-9.991000 0.000000
-9.975600 0.000000
-9.960300 0.000000
-9.945000 0.000000
-9.929600 0.000000
-9.914300 0.000000
-9.899000 0.000000
-9.883700 0.000000
-9.868300 0.000000
-9.853000 0.000000
-9.837700 0.000000
-9.822300 0.000000
-9.807000 0.000000
-9.791700 0.000000
-9.776400 0.000000
-9.761000 0.000000
-9.745700 0.000000
-9.730400 0.000000
-9.715000 0.000000
-9.699700 0.000000
-9.684400 0.000000
-9.669100 0.000000
-9.653700 0.000000
-9.638400 0.000000
-9.623100 0.000000
-9.607700 0.000000
-9.592400 0.000000
-9.577100 0.000000
-9.561800 0.000000
-9.546400 0.000000
-9.531100 0.000000
-9.515800 0.000000
-9.500400 0.000000
-9.485100 0.000000
-9.469800 0.000000
-9.454400 0.000000
-9.439100 0.000000
-9.423800 0.000000
-9.408500 0.000000
-9.393100 0.000000
-9.377800 0.000000
-9.362500 0.000000
-9.347100 0.000000
-9.331800 0.000000
-9.316500 0.000000
-9.301200 0.000000
-9.285800 0.000000
-9.270500 0.000000
-9.255200 0.000000
-9.239800 0.000000
-9.224500 0.000000
-9.209200 0.000000
-9.193900 0.000000
-9.178500 0.000000
-9.163200 0.000000
-9.147900 0.000000
-9.132500 0.000000
-9.117200 0.000000
-9.101900 0.000000
-9.086600 0.000000
-9.071200 0.000000
-9.055900 0.000000
-9.040600 0.000000
-9.025200 0.000000
-9.009900 0.000000
-8.994600 0.000000
-8.979300 0.000000
-8.963900 0.000000
-8.948600 0.000000
-8.933300 0.000000
-8.917900 0.000000
-8.902600 0.000000
-8.887300 0.000000
-8.872000 0.000000
-8.856600 0.000000
-8.841300 0.000000
-8.826000 0.000000
-8.810600 0.000000
-8.795300 0.000000
-8.780000 0.000000
-8.764700 0.000000
-8.749300 0.000000
-8.734000 0.000000
-8.718700 0.000000
-8.703300 0.000000
-8.688000 0.000000
-8.672700 0.000000
-8.657300 0.000000
-8.642000 0.000000
-8.626700 0.000000
-8.611400 0.000000
-8.596000 0.000000
-8.580700 0.000000
-8.565400 0.000000
-8.550000 0.000000
-8.534700 0.000000
-8.519400 0.000000
-8.504100 0.000000
-8.488700 0.000000
-8.473400 0.000000
-8.458100 0.000000
-8.442700 0.000000
-8.427400 0.000000
-8.412100 0.000000
-8.396800 0.000000
-8.381400 0.000000
-8.366100 0.000000
-8.350800 0.000000
-8.335400 0.000000
-8.320100 0.000000
-8.304800 0.000000
-8.289500 0.000000
-8.274100 0.000000
-8.258800 0.000000
-8.243500 0.000000
-8.228100 0.000000
-8.212800 0.000000
-8.197500 0.000000
-8.182200 0.000000
-8.166800 0.000000
-8.151500 0.000000
-8.136200 0.000000
-8.120800 0.000000
-8.105500 0.000000
-8.090200 0.000000
-8.074900 0.000000
-8.059500 0.000000
-8.044200 0.000000
-8.028900 0.000000
-8.013500 0.000000
-7.998200 0.000000
-7.982900 0.000000
-7.967500 0.000000
-7.952200 0.000000
-7.936900 0.000000
-7.921600 0.000000
-7.906200 0.000000
-7.890900 0.000000
-7.875600 0.000000
-7.860200 0.000000
-7.844900 0.000000
-7.829600 0.000000
-7.814300 0.000000
-7.798900 0.000000
-7.783600 0.000000
-7.768300 0.000000
-7.752900 0.000000
-7.737600 0.000000
-7.722300 0.000000
-7.707000 0.000000
-7.691600 0.000000
-7.676300 0.000000
-7.661000 0.000000
-7.645600 0.000000
-7.630300 0.000000
-7.615000 0.000000
-7.599700 0.000000
-7.584300 0.000000
-7.569000 0.000000
-7.553700 0.000000
-7.538300 0.000000
-7.523000 0.000000
-7.507700 0.000000
-7.492400 0.000000
-7.477000 0.000000
-7.461700 0.000000
-7.446400 0.000000
-7.431000 0.000000
-7.415700 0.000000
-7.400400 0.000000
-7.385100 0.000000
-7.369700 0.000000
-7.354400 0.000000
-7.339100 0.000000
-7.323700 0.000000
-7.308400 0.000000
-7.293100 0.000000
-7.277800 0.000000
-7.262400 0.000000
-7.247100 0.000000
-7.231800 0.000000
-7.216400 0.000000
-7.201100 0.000000
-7.185800 0.000000
-7.170400 0.000000
-7.155100 0.000000
-7.139800 0.000000
-7.124500 0.000000
-7.109100 0.000000
-7.093800 0.000000
-7.078500 0.000000
-7.063100 0.000000
-7.047800 0.000000
-7.032500 0.000000
-7.017200 0.000000
-7.001800 0.000000
-6.986500 0.000000
-6.971200 0.000000
-6.955800 0.000000
-6.940500 0.000000
-6.925200 0.000000
-6.909900 0.000000
-6.894500 0.000000
-6.879200 0.000000
-6.863900 0.000000
-6.848500 0.000000
-6.833200 0.000000
-6.817900 0.000000
-6.802600 0.000000
-6.787200 0.000000
-6.771900 0.000000
-6.756600 0.000000
-6.741200 0.000000
-6.725900 0.000000
-6.710600 0.000000
-6.695300 0.000000
-6.679900 0.000000
-6.664600 0.000000
-6.649300 0.000000
-6.633900 0.000000
-6.618600 0.000000
-6.603300 0.000000
-6.588000 0.000000
-6.572600 0.000000
-6.557300 0.000000
-6.542000 0.000000
-6.526600 0.000000
-6.511300 0.000000
-6.496000 0.000000
-6.480700 0.000000
-6.465300 0.000000
-6.450000 0.000000
-6.434700 0.000000
-6.419300 0.000000
-6.404000 0.000000
-6.388700 0.000000
-6.373300 0.000000
-6.358000 0.000000
-6.342700 0.000000
-6.327400 0.000000
-6.312000 0.000000
-6.296700 0.000000
-6.281400 0.000000
-6.266000 0.000000
-6.250700 0.000000
-6.235400 0.000000
-6.220100 1.219400
-6.204700 1.963800
-6.189400 2.857300
-6.174100 3.265500
-6.158700 3.563200
-6.143400 3.604600
-6.128100 3.859700
-6.112800 5.099000
-6.097400 5.957600
-6.082100 7.155500
-6.066800 8.309000
-6.051400 10.529700
-6.036100 14.727200
-6.020800 11.049700
-6.005500 10.191200
-5.990100 8.771800
-5.974800 8.021100
-5.959500 8.023400
-5.944100 8.154300
-5.928800 8.306400
-5.913500 8.885300
-5.898200 9.251700
-5.882800 12.857300
-5.867500 8.905500
-5.852200 8.252000
-5.836800 7.473400
-5.821500 6.119900
-5.806200 5.616200
-5.790900 11.975200
-5.775500 13.140400
-5.760200 13.864700
-5.744900 15.188400
-5.729500 12.151400
-5.714200 15.452600
-5.698900 18.178100
-5.683500 14.390600
-5.668200 13.549100
-5.652900 13.961600
-5.637600 11.974300
-5.622200 11.196000
-5.606900 11.462800
-5.591600 15.960300
-5.576200 11.745200
-5.560900 10.109500
-5.545600 7.755300
-5.530300 6.373900
-5.514900 6.433000
-5.499600 6.492500
-5.484300 6.552600
-5.468900 6.613100
-5.453600 6.674000
-5.438300 28.465900
-5.423000 23.622400
-5.407600 0.000000
-5.392300 0.000000
-5.377000 0.000000
-5.361600 0.000000
-5.346300 0.000000
-5.331000 0.000000
-5.315700 8.387700
-5.300300 9.275400
-5.285000 3.105900
-5.269700 3.102700
-5.254300 3.099400
-5.239000 3.096200
-5.223700 3.093100
-5.208400 3.089900
-5.193000 3.086700
-5.177700 3.083500
-5.162400 3.080300
-5.147000 3.077200
-5.131700 3.074000
-5.116400 3.070900
-5.101100 3.067800
-5.085700 3.140500
-5.070400 4.614000
-5.055100 2.884900
-5.039700 2.851500
-5.024400 3.792800
-5.009100 4.278000
-4.993800 4.460600
-4.978400 4.708000
-4.963100 5.781200
-4.947800 6.122300
-4.932400 6.233300
-4.917100 6.525700
-4.901800 6.818300
-4.886400 6.786100
-4.871100 6.769400
-4.855800 7.033800
-4.840500 7.316200
-4.825100 7.054400
-4.809800 6.718500
-4.794500 6.184900
-4.779100 6.365900
-4.763800 5.566000
-4.748500 6.199800
-4.733200 7.801700
-4.717800 6.043600
-4.702500 6.338500
-4.687200 6.839200
-4.671800 7.253300
-4.656500 7.019300
-4.641200 6.907100
-4.625900 6.900600
-4.610500 6.889600
-4.595200 6.893200
-4.579900 7.790300
-4.564500 8.575000
-4.549200 10.026200
-4.533900 11.438600
-4.518600 16.813800
-4.503200 20.692200
-4.487900 14.106500
-4.472600 11.747200
-4.457200 8.380900
-4.441900 15.234200
-4.426600 14.852300
-4.411300 9.863500
-4.395900 9.047400
-4.380600 10.326400
-4.365300 10.625000
-4.349900 10.969800
-4.334600 13.261400
-4.319300 15.029800
-4.304000 9.967900
-4.288600 11.846100
-4.273300 8.207800
-4.258000 8.928900
-4.242600 9.000800
-4.227300 8.483500
-4.212000 8.249100
-4.196700 7.824700
-4.181300 7.289100
-4.166000 8.545600
-4.150700 9.627900
-4.135300 10.901100
-4.120000 9.547400
-4.104700 6.888400
-4.089300 6.794600
-4.074000 8.095900
-4.058700 8.049300
-4.043400 8.564400
-4.028000 11.162900
-4.012700 6.782300
-3.997400 6.935600
-3.982000 7.118000
-3.966700 9.053400
-3.951400 8.128900
-3.936100 8.196500
-3.920700 8.264700
-3.905400 8.333700
-3.890100 8.326700
-3.874700 8.408900
-3.859400 8.664300
-3.844100 9.735000
-3.828800 11.053300
-3.813400 10.541500
-3.798100 9.920000
-3.782800 9.758400
-3.767400 11.353700
-3.752100 7.725500
-3.736800 7.548000
-3.721500 7.504500
-3.706100 6.831100
-3.690800 8.507100
-3.675500 8.428700
-3.660100 9.573400
-3.644800 10.447100
-3.629500 14.030400
-3.614200 17.902200
-3.598800 16.437200
-3.583500 9.717700
-3.568200 8.821400
-3.552800 8.197200
-3.537500 15.588900
-3.522200 11.595000
-3.506900 13.997200
-3.491500 9.122000
-3.476200 8.914900
-3.460900 8.374500
-3.445500 7.737100
-3.430200 7.165600
-3.414900 6.675400
-3.399500 6.366000
-3.384200 6.149200
-3.368900 6.282300
-3.353600 7.035400
-3.338200 6.028100
-3.322900 6.148500
-3.307600 6.081700
-3.292200 6.058300
-3.276900 5.878800
-3.261600 5.584300
-3.246300 6.022500
-3.230900 4.990300
-3.215600 4.688000
-3.200300 4.494400
-3.184900 4.254400
-3.169600 4.255800
-3.154300 4.277800
-3.139000 4.314100
-3.123600 4.396700
-3.108300 7.088000
-3.093000 6.460100
-3.077600 2.908500
-3.062300 2.994100
-3.047000 4.274300
-3.031700 4.522100
-3.016300 4.040100
-3.001000 5.048000
-2.985700 4.062600
-2.970300 3.143700
-2.955000 2.897600
-2.939700 3.392900
-2.924400 5.118300
-2.909000 6.179100
-2.893700 7.356300
-2.878400 9.997800
-2.863000 10.738400
-2.847700 10.710600
-2.832400 9.934600
-2.817100 8.835400
-2.801700 8.057000
-2.786400 8.445600
-2.771100 8.944400
-2.755700 8.214200
-2.740400 8.722200
-2.725100 7.385300
-2.709800 6.845600
-2.694400 6.653000
-2.679100 6.639800
-2.663800 6.380400
-2.648400 6.552300
-2.633100 6.108700
-2.617800 6.157900
-2.602400 6.186800
-2.587100 6.661900
-2.571800 6.752800
-2.556500 6.305300
-2.541100 6.418600
-2.525800 6.611000
-2.510500 7.163900
-2.495100 9.968000
-2.479800 9.644100
-2.464500 10.776900
-2.449200 10.889100
-2.433800 9.807500
-2.418500 9.711400
-2.403200 8.535900
-2.387800 7.258600
-2.372500 6.222600
-2.357200 5.016300
-2.341900 4.746300
-2.326500 4.130400
-2.311200 3.178700
-2.295900 7.615300
-2.280500 8.587400
-2.265200 8.067700
-2.249900 6.119400
-2.234600 5.725600
-2.219200 5.287600
-2.203900 5.543800
-2.188600 5.782900
-2.173200 6.117900
-2.157900 6.892700
-2.142600 7.090800
-2.127300 8.584100
-2.111900 12.018100
-2.096600 10.604700
-2.081300 10.661800
-2.065900 9.726700
-2.050600 8.290200
-2.035300 8.293400
-2.020000 7.537800
-2.004600 6.114600
-1.989300 6.700700
-1.974000 7.085700
-1.958600 7.059700
-1.943300 7.506300
-1.928000 8.440900
-1.912700 12.768100
-1.897300 13.128200
-1.882000 9.600600
-1.866700 8.817800
-1.851300 8.620000
-1.836000 8.854200
-1.820700 8.612000
-1.805300 9.091000
-1.790000 13.202100
-1.774700 10.659500
-1.759400 11.039300
-1.744000 11.662800
-1.728700 11.674600
-1.713400 11.258100
-1.698000 10.996100
-1.682700 10.333500
-1.667400 10.017500
-1.652100 9.688300
-1.636700 8.937300
-1.621400 8.355100
-1.606100 8.203500
-1.590700 8.035200
-1.575400 7.879700
-1.560100 8.067500
-1.544800 7.879100
-1.529400 7.727100
-1.514100 7.043900
-1.498800 6.973400
-1.483400 6.791900
-1.468100 6.833500
-1.452800 6.786900
-1.437500 6.752100
-1.422100 6.775400
-1.406800 7.907200
-1.391500 8.638500
-1.376100 8.350200
-1.360800 8.579000
-1.345500 8.646600
-1.330200 8.405700
-1.314800 8.588400
-1.299500 8.484800
-1.284200 8.055700
-1.268800 7.734600
-1.253500 6.961000
-1.238200 6.705000
-1.222900 6.446800
-1.207500 6.202700
-1.192200 5.922800
-1.176900 5.487600
-1.161500 5.750000
-1.146200 5.566800
-1.130900 5.272800
-1.115500 4.799400
-1.100200 4.393300
-1.084900 4.223400
-1.069600 4.208900
-1.054200 3.997600
-1.038900 4.113900
-1.023600 4.184100
-1.008200 7.024400
-0.992900 4.010000
-0.977600 2.237600
-0.962300 2.095300
-0.946900 1.997600
-0.931600 1.903100
-0.916300 1.641800
-0.900900 1.437300
-0.885600 1.255300
-0.870300 1.095900
-0.855000 0.959100
-0.839600 0.911500
-0.824300 0.959200
-0.809000 0.996500
-0.793600 1.035000
-0.778300 1.074700
-0.763000 1.165600
-0.747700 1.212800
-0.732300 1.259800
-0.717000 1.471500
-0.701700 1.565400
-0.686300 1.639600
-0.671000 1.715200
-0.655700 1.792300
-0.640400 1.890000
-0.625000 1.997600
-0.609700 2.110000
-0.594400 2.250600
-0.579000 2.373500
-0.563700 2.613700
-0.548400 3.478300
-0.533100 4.265600
-0.517700 4.264400
-0.502400 4.355800
-0.487100 4.419000
-0.471700 4.453800
-0.456400 5.372900
-0.441100 12.428700
-0.425800 4.371500
-0.410400 4.296000
-0.395100 4.380300
-0.379800 4.256500
-0.364400 4.106000
-0.349100 4.194900
-0.333800 3.642500
-0.318400 3.509200
-0.303100 4.446400
-0.287800 1.124100
-0.272500 0.000000
-0.257100 0.000000
-0.241800 0.000000
-0.226500 0.000000
-0.211100 0.000000
-0.195800 0.000000
-0.180500 0.000000
-0.165200 0.000000
-0.149800 0.000000
-0.134500 0.000000
-0.119200 0.000000
-0.103800 0.000000
-0.088500 0.000000
-0.073200 0.000000
-0.057900 0.000000
-0.042500 0.000000
-0.027200 0.000000
-0.011900 0.000000
0.003500 0.000000
0.018800 0.000000
0.034100 0.000000
0.049400 0.000000
0.064800 0.000000
0.080100 0.000000
0.095400 0.000000
0.110800 0.000000
0.126100 0.000000
0.141400 0.000000
0.156700 0.000000
0.172100 0.000000
0.187400 0.000000
0.202700 0.000000
0.218100 0.000000
0.233400 0.000000
0.248700 0.000000
0.264000 0.000000
0.279400 0.000000
0.294700 0.000000
0.310000 0.000000
0.325400 0.000000
0.340700 0.000000
0.356000 0.000000
0.371400 0.000000
0.386700 0.000000
0.402000 0.000000
0.417300 0.000000
0.432700 0.000000
0.448000 0.000000
0.463300 0.000000
0.478700 0.000000
0.494000 0.000000
0.509300 0.000000
0.524600 0.000000
0.540000 0.000000
0.555300 0.000000
0.570600 0.000000
0.586000 0.000000
0.601300 0.000000
0.616600 0.000000
0.631900 0.000000
0.647300 0.000000
0.662600 0.000000
0.677900 0.000000
0.693300 0.000000
0.708600 0.000000
0.723900 0.000000
0.739200 0.000000
0.754600 0.000000
0.769900 0.000000
0.785200 0.000000
0.800600 0.000000
0.815900 0.000000
0.831200 0.000000
0.846500 0.097500
0.861900 0.106200
0.877200 0.115300
0.892500 0.124500
0.907900 0.134100
0.923200 0.143900
0.938500 0.153900
0.953800 0.164300
0.969200 0.174900
0.984500 0.185700
0.999800 0.196800
1.015200 0.208200
1.030500 0.219900
1.045800 0.231800
1.061100 0.244000
1.076500 0.256400
1.091800 0.269100
1.107100 0.282100
1.122500 0.295400
1.137800 0.308900
1.153100 0.322600
1.168500 0.336700
1.183800 0.402900
1.199100 0.415300
1.214400 0.427700
1.229800 0.439800
1.245100 0.451900
1.260400 0.463900
1.275800 0.475700
1.291100 0.487400
1.306400 0.499000
1.321700 0.510500
1.337100 0.521900
1.352400 0.533100
1.367700 0.544300
1.383100 0.555300
1.398400 0.566200
1.413700 0.577000
1.429000 0.587600
1.444400 0.598200
1.459700 0.603800
1.475000 0.620100
1.490400 0.636800
1.505700 0.705600
1.521000 0.722100
1.536300 0.743700
1.551700 0.765700
1.567000 0.918300
1.582300 0.957300
1.597700 0.997300
1.613000 1.038300
1.628300 1.080300
1.643600 1.123400
1.659000 1.167400
1.674300 1.442800
1.689600 1.547300
1.705000 1.655300
1.720300 1.767100
1.735600 1.757300
1.750900 1.787600
1.766300 1.817600
1.781600 1.848800
1.796900 1.882400
1.812300 1.943900
1.827600 1.966700
1.842900 1.987700
1.858200 2.007000
1.873600 2.330700
1.888900 2.303800
1.904200 2.271500
1.919600 1.718800
1.934900 1.718700
1.950200 1.724500
1.965600 1.730000
1.980900 1.735300
1.996200 1.740400
2.011500 1.745300
2.026900 1.749900
2.042200 1.747800
2.057500 1.756800
2.072900 1.834400
2.088200 1.846400
2.103500 1.861500
2.118800 1.881500
2.134200 1.893500
2.149500 1.915700
2.164800 1.937500
2.180200 1.957400
2.195500 1.977400
2.210800 2.414400
2.226100 2.531100
2.241500 2.652200
2.256800 2.291900
2.272100 2.381600
2.287500 2.369900
2.302800 2.357100
2.318100 2.344700
2.333400 2.334100
2.348800 2.319100
2.364100 2.302800
2.379400 2.285200
2.394800 2.666700
2.410100 2.583100
2.425400 1.861900
2.440700 1.836100
2.456100 1.817100
2.471400 1.798700
2.486700 1.780700
2.502100 1.762800
2.517400 1.745000
2.532700 1.727400
2.548000 1.710000
2.563400 1.692700
2.578700 1.675600
2.594000 1.658600
2.609400 1.641700
2.624700 1.625000
2.640000 1.599600
2.655400 1.584900
2.670700 1.566700
2.686000 1.547600
2.701300 1.527900
2.716700 1.507400
2.732000 1.475300
2.747300 1.456300
2.762700 1.437400
2.778000 1.418700
2.793300 1.400200
2.808600 1.381900
2.824000 1.362800
2.839300 1.332400
2.854600 1.311200
2.870000 1.291100
2.885300 1.272000
2.900600 1.247600
2.915900 1.237700
2.931300 1.228600
2.946600 1.219700
2.961900 1.211200
2.977300 1.202900
2.992600 1.188600
3.007900 1.182800
3.023200 1.176800
3.038600 1.170700
3.053900 1.164400
3.069200 1.158000
3.084600 1.151400
3.099900 1.145200
3.115200 1.139300
3.130500 1.136600
3.145900 1.128000
3.161200 1.119300
3.176500 1.110600
3.191900 1.102000
3.207200 1.093400
3.222500 1.084700
3.237800 1.076100
3.253200 1.067400
3.268500 1.050200
3.283800 1.041200
3.299200 1.032400
3.314500 1.023700
3.329800 1.015100
3.345100 1.006700
3.360500 0.998500
3.375800 0.991800
3.391100 0.986000
3.406500 0.985000
3.421800 0.970400
3.437100 0.967500
3.452500 1.117600
3.467800 1.134700
3.483100 1.152600
3.498400 1.171400
3.513800 1.191000
3.529100 1.212400
3.544400 1.235200
3.559800 1.261600
3.575100 1.283100
3.590400 1.305400
3.605700 1.328600
3.621100 1.372500
3.636400 1.337000
3.651700 1.349100
3.667100 1.360600
3.682400 1.371700
3.697700 1.382300
3.713000 1.392300
3.728400 1.401900
3.743700 1.411600
3.759000 1.519400
3.774400 1.541500
3.789700 1.540800
3.805000 1.539100
3.820300 1.536500
3.835700 1.534200
3.851000 1.532000
3.866300 1.529200
3.881700 1.525700
3.897000 1.522500
3.912300 1.519300
3.927600 1.444300
3.943000 1.446600
3.958300 1.437100
3.973600 1.428800
3.989000 1.438400
4.004300 1.431800
4.019600 1.405100
4.034900 1.389100
4.050300 1.372400
4.065600 1.355100
4.080900 1.337200
4.096300 1.194200
4.111600 1.189900
4.126900 1.184600
4.142200 1.188500
4.157600 1.174800
4.172900 1.160300
4.188200 1.145000
4.203600 1.099200
4.218900 1.085800
4.234200 1.072700
4.249600 1.059900
4.264900 1.047300
4.280200 1.159800
4.295500 1.163100
4.310900 1.170600
4.326200 1.166000
4.341500 1.162900
4.356900 1.161300
4.372200 1.161100
4.387500 1.162400
4.402800 1.165100
4.418200 1.163200
4.433500 1.172200
4.448800 1.182500
4.464200 1.077900
4.479500 1.082800
4.494800 1.091500
4.510100 1.099700
4.525500 1.107400
4.540800 1.114600
4.556100 1.121300
4.571500 1.127500
4.586800 1.127100
4.602100 1.143200
4.617400 1.159800
4.632800 1.176400
4.648100 1.193000
4.663400 1.209800
4.678800 1.226600
4.694100 1.243600
4.709400 1.251000
4.724700 1.268200
4.740100 1.285900
4.755400 1.305200
4.770700 1.415200
4.786100 1.439400
4.801400 1.466700
4.816700 1.495100
4.832000 1.522800
4.847400 1.549800
4.862700 1.575100
4.878000 1.598900
4.893400 1.622200
4.908700 1.917500
4.924000 2.005700
4.939400 2.251000
4.954700 2.341500
4.970000 2.460500
4.985300 2.588300
5.000700 2.800100
5.016000 4.175800
5.031300 3.053200
5.046700 3.233700
5.062000 3.292500
5.077300 3.367600
5.092600 3.461000
5.108000 3.555700
5.123300 3.651400
5.138600 3.882100
5.154000 3.984100
5.169300 4.133400
5.184600 4.212200
5.199900 4.281000
5.215300 4.397400
5.230600 4.664100
5.245900 4.829400
5.261300 5.021300
5.276600 5.177200
5.291900 5.329400
5.307200 4.998700
5.322600 4.492000
5.337900 4.382600
5.353200 4.277800
5.368600 4.151100
5.383900 4.025100
5.399200 3.895600
5.414500 3.765700
5.429900 3.694700
5.445200 2.793500
5.460500 2.692500
5.475900 2.602200
5.491200 2.520600
5.506500 2.447800
5.521800 2.370900
5.537200 2.331500
5.552500 2.293800
5.567800 2.257800
5.583200 2.223400
5.598500 2.205500
5.613800 2.253800
5.629100 2.299100
5.644500 2.442600
5.659800 2.534800
5.675100 2.691700
5.690500 2.828200
5.705800 3.102100
5.721100 3.272300
5.736500 3.451500
5.751800 3.639700
5.767100 3.944800
5.782400 10.432300
5.797800 5.483200
5.813100 5.525200
5.828400 5.386400
5.843800 5.175000
5.859100 5.517500
5.874400 4.593300
5.889700 4.437600
5.905100 4.595900
5.920400 4.751200
5.935700 4.951600
5.951100 5.471100
5.966400 5.692500
5.981700 6.033400
5.997000 5.725200
6.012400 5.793200
6.027700 6.474100
6.043000 6.706800
6.058400 6.895400
6.073700 6.313300
6.089000 3.794100
6.104300 3.218400
6.119700 2.699700
6.135000 2.403700
6.150300 2.601100
6.165700 2.957700
6.181000 5.941400
6.196300 3.579000
6.211600 3.648300
6.227000 3.898000
6.242300 4.866200
6.257600 5.303500
6.273000 5.674300
6.288300 6.119100
6.303600 6.444700
6.318900 6.699600
6.334300 6.883100
6.349600 7.613500
6.364900 7.315900
6.380300 6.621000
6.395600 5.972700
6.410900 4.923700
6.426200 4.244700
6.441600 3.689600
6.456900 2.581200
6.472200 1.554800
6.487600 0.923400
6.502900 0.433900
6.518200 0.381400
6.533600 0.449400
6.548900 0.661900
6.564200 1.627300
6.579500 3.007400
6.594900 3.669900
6.610200 4.350600
6.625500 5.049400
6.640900 6.530700
6.656200 8.349400
6.671500 8.564400
6.686800 8.554700
6.702200 7.382900
6.717500 6.742300
6.732800 6.100800
6.748200 5.538600
6.763500 5.093500
6.778800 5.268500
6.794100 5.428500
6.809500 5.188500
6.824800 5.806700
6.840100 7.709000
6.855500 9.288800
6.870800 5.438500
6.886100 5.241900
6.901400 4.825500
6.916800 4.940900
6.932100 5.928200
6.947400 6.662300
6.962800 6.901600
6.978100 7.102000
6.993400 7.231900
7.008700 7.495400
7.024100 7.530700
7.039400 7.547200
7.054700 7.540200
7.070100 6.914100
7.085400 6.292600
7.100700 6.660100
7.116000 6.697500
7.131400 7.263400
7.146700 6.992100
7.162000 5.852900
7.177400 4.873600
7.192700 6.157300
7.208000 7.545400
7.223400 8.658800
7.238700 8.931600
7.254000 8.903300
7.269300 8.577200
7.284700 9.012000
7.300000 10.253800
7.315300 8.985200
7.330700 8.840100
7.346000 8.560200
7.361300 8.491400
7.376600 8.170700
7.392000 8.019800
7.407300 7.281500
7.422600 6.660200
7.438000 6.286500
7.453300 6.195800
7.468600 6.584600
7.483900 6.370200
7.499300 5.792100
7.514600 5.662300
7.529900 6.712300
7.545300 5.709400
7.560600 5.604900
7.575900 5.493200
7.591200 5.374300
7.606600 4.490500
7.621900 4.651300
7.637200 4.188800
7.652600 3.830700
7.667900 3.906200
7.683200 2.697000
7.698500 2.608700
7.713900 2.039300
7.729200 2.113400
7.744500 2.223900
7.759900 2.304200
7.775200 2.284500
7.790500 2.720800
7.805800 2.872500
7.821200 3.039100
7.836500 3.209900
7.851800 3.385200
7.867200 3.564700
7.882500 3.748500
7.897800 3.932600
7.913100 4.173100
7.928500 4.654700
7.943800 4.504600
7.959100 4.349700
7.974500 4.363600
7.989800 4.368200
8.005100 4.364000
8.020500 4.625600
8.035800 4.684300
8.051100 4.778300
8.066400 5.321100
8.081800 5.522100
8.097100 6.020800
8.112400 6.506400
8.127800 8.404300
8.143100 7.372000
8.158400 8.036500
8.173700 8.591200
8.189100 8.236900
8.204400 10.816500
8.219700 8.061600
8.235100 7.520300
8.250400 9.535100
8.265700 7.461800
8.281000 7.402500
8.296400 6.924200
8.311700 6.693400
8.327000 6.438400
8.342400 6.128400
8.357700 6.084300
8.373000 6.832200
8.388300 6.637600
8.403700 6.100500
8.419000 6.776200
8.434300 7.655800
8.449700 7.335100
8.465000 6.623400
8.480300 6.216700
8.495600 5.772800
8.511000 5.299100
8.526300 4.122100
8.541600 3.626600
8.557000 3.572800
8.572300 3.525100
8.587600 3.483300
8.602900 3.335800
8.618300 3.761900
8.633600 3.639700
8.648900 3.721100
8.664300 3.714200
8.679600 3.880500
8.694900 3.933400
8.710300 4.021800
8.725600 4.105900
8.740900 3.985700
8.756200 3.511500
8.771600 3.482200
8.786900 3.453000
8.802200 3.424100
8.817600 3.173900
8.832900 3.695800
8.848200 3.430800
8.863500 2.793300
8.878900 2.415700
8.894200 2.411300
8.909500 2.834300
8.924900 3.357900
8.940200 4.369700
8.955500 3.772500
8.970800 2.298400
8.986200 2.977100
9.001500 3.135600
9.016800 3.314500
9.032200 3.513700
9.047500 4.739000
9.062800 5.500100
9.078100 8.352800
9.093500 5.840800
9.108800 5.837000
9.124100 5.803100
9.139500 5.525400
9.154800 6.207300
9.170100 7.149500
9.185400 5.453200
9.200800 5.341500
9.216100 5.253700
9.231400 5.185900
9.246800 5.012900
9.262100 5.193300
9.277400 5.453300
9.292700 6.871000
9.308100 6.493700
9.323400 6.365700
9.338700 6.459300
9.354100 6.656600
9.369400 5.599200
9.384700 5.313600
9.400000 5.371200
9.415400 5.221900
9.430700 5.457500
9.446000 5.413600
9.461400 5.250300
9.476700 5.375800
9.492000 5.228100
9.507400 4.943100
9.522700 4.422200
9.538000 4.399900
9.553300 4.394700
9.568700 4.406800
9.584000 4.585400
9.599300 4.807400
9.614700 4.875100
9.630000 4.991300
9.645300 8.653700
9.660600 5.655000
9.676000 5.522900
9.691300 5.422100
9.706600 5.254600
9.722000 5.079000
9.737300 4.945100
9.752600 4.763400
9.767900 4.634800
9.783300 4.507700
9.798600 4.007600
9.813900 4.332200
9.829300 3.508400
9.844600 3.533900
9.859900 3.579200
9.875200 3.644200
9.890600 4.030300
9.905900 4.231100
9.921200 4.650400
9.936600 4.839700
9.951900 4.886600
9.967200 6.301000
9.982500 7.020200
9.997900 6.358700
10.013200 6.012100
10.028500 6.073100
10.043900 5.044300
10.059200 5.181100
10.074500 5.219500
10.089800 5.270300
10.105200 5.612200
10.120500 5.928900
10.135800 7.090400
10.151200 6.635100
10.166500 6.625900
10.181800 6.636600
10.197100 6.487000
10.212500 6.182300
10.227800 6.343300
10.243100 6.627700
10.258500 6.633200
10.273800 6.517700
10.289100 6.256800
10.304500 6.194400
10.319800 6.140900
10.335100 6.075000
10.350400 5.011000
10.365800 4.064600
10.381100 3.966200
10.396400 3.876500
10.411800 3.836500
10.427100 4.361400
10.442400 4.317800
10.457700 4.773700
10.473100 4.683500
10.488400 4.237800
10.503700 4.238200
10.519100 4.251500
10.534400 5.951400
10.549700 5.357100
10.565000 5.658600
10.580400 6.301600
10.595700 6.040200
10.611000 6.139300
10.626400 6.776200
10.641700 7.385700
10.657000 7.537900
10.672300 7.626700
10.687700 9.170800
10.703000 6.945900
10.718300 5.125000
10.733700 4.898700
10.749000 4.679400
10.764300 5.218900
10.779600 6.024100
10.795000 5.873400
10.810300 7.253700
10.825600 6.592800
10.841000 7.301900
10.856300 7.710500
10.871600 8.119500
10.886900 8.452300
10.902300 9.512400
10.917600 9.683100
10.932900 8.850600
10.948300 7.561900
10.963600 7.332000
10.978900 7.380000
10.994300 7.399800
11.009600 7.140500
11.024900 7.348000
11.040200 8.237100
11.055600 8.501300
11.070900 8.630300
11.086200 9.084200
11.101600 6.793600
11.116900 6.378300
11.132200 5.481600
11.147500 4.617100
11.162900 4.579600
11.178200 4.201900
11.193500 4.147800
11.208900 4.074700
11.224200 3.997000
11.239500 3.892100
11.254800 3.658700
11.270200 3.391000
11.285500 3.447200
11.300800 3.505400
11.316200 4.547500
11.331500 5.940400
11.346800 7.813000
11.362100 11.033100
11.377500 8.873000
11.392800 8.129700
11.408100 6.623400
11.423500 6.207700
11.438800 5.826400
11.454100 4.867300
11.469400 4.386400
11.484800 4.143000
11.500100 4.315800
11.515400 4.297100
11.530800 4.276400
11.546100 4.524500
11.561400 4.517900
11.576700 4.503100
11.592100 4.528400
11.607400 4.655800
11.622700 4.541300
11.638100 4.841600
11.653400 5.147200
11.668700 5.989100
11.684000 8.147300
11.699400 5.715500
11.714700 4.720000
11.730000 4.300200
11.745400 4.303900
11.760700 4.458400
11.776000 4.551200
11.791400 4.777500
11.806700 4.976900
11.822000 5.253900
11.837300 5.372100
11.852700 5.474800
11.868000 6.786600
11.883300 9.732300
11.898700 10.229700
11.914000 7.622300
11.929300 5.901900
11.944600 5.525300
11.960000 8.911300
11.975300 6.800500
11.990600 5.645400
12.006000 5.107900
12.021300 4.536700
12.036600 4.044200
12.051900 3.694900
12.067300 3.297400
12.082600 3.033600
12.097900 2.725600
12.113300 2.502700
12.128600 2.329900
12.143900 2.073800
12.159200 1.828800
12.174600 1.594900
12.189900 1.372200
12.205200 0.773700
12.220600 0.458400
12.235900 0.185200
12.251200 0.000000
12.266500 0.000000
12.281900 0.000000
12.297200 0.000000
12.312500 0.000000
12.327900 0.000000
12.343200 0.000000
12.358500 0.000000
12.373800 0.000000
12.389200 0.000000
12.404500 0.000000
12.419800 0.000000
12.435200 0.000000
12.450500 0.000000
12.465800 0.000000
12.481100 0.000000
12.496500 0.000000
12.511800 0.000000
12.527100 0.000000
12.542500 0.000000
12.557800 0.000000
12.573100 0.000000
12.588500 0.000000
12.603800 0.000000
12.619100 0.000000
12.634400 0.000000
12.649800 0.000000
12.665100 0.000000
12.680400 0.000000
12.695800 0.000000
12.711100 0.000000
12.726400 0.000000
12.741700 0.000000
12.757100 0.000000
12.772400 0.000000
12.787700 0.000000
12.803100 0.000000
12.818400 0.000000
12.833700 0.000000
12.849000 0.000000
12.864400 0.000000
12.879700 0.000000
12.895000 0.000000
12.910400 0.000000
12.925700 0.000000
12.941000 0.000000
12.956300 0.000000
12.971700 0.000000
12.987000 0.000000
13.002300 0.000000
13.017700 0.000000
13.033000 0.000000
13.048300 0.000000
13.063600 0.000000
13.079000 0.000000
13.094300 0.000000
13.109600 0.000000
13.125000 0.000000
13.140300 0.000000
13.155600 0.000000
13.170900 0.000000
13.186300 0.000000
13.201600 0.000000
13.216900 0.000000
13.232300 0.000000
13.247600 0.000000
13.262900 0.000000
13.278300 0.000000
13.293600 0.000000
13.308900 0.000000
13.324200 0.000000
13.339600 0.000000
13.354900 0.000000
13.370200 0.000000
13.385600 0.000000
13.400900 0.000000
13.416200 0.000000
13.431500 0.000000
13.446900 0.000000
13.462200 0.000000
13.477500 0.000000
13.492900 0.000000
13.508200 0.000000
13.523500 0.000000
13.538800 0.000000
13.554200 0.000000
13.569500 0.000000
13.584800 0.000000
13.600200 0.000000
13.615500 0.000000
13.630800 0.000000
e
