set title 'mp-22909 - Density of States'
set xlabel 'Energy (eV)'
set ylabel 'DOS (states/eV)'
set grid
set xrange [-10:10]
set yrange [0:77.303]
set xzeroaxis lt -1
set terminal png size 800,600
set output 'mp-22909_dos_gnuplot.png'
plot '-' using 1:2 with lines title 'DOS'
-17.351300 0.000000
-17.328600 0.000000
-17.305900 0.000000
-17.283200 0.000000
-17.260500 0.000000
-17.237800 0.000000
-17.215100 0.000000
-17.192400 0.000000
-17.169700 0.000000
-17.147000 0.000000
-17.124300 0.000000
-17.101600 0.000000
-17.078900 0.000000
-17.056300 0.000000
-17.033600 0.000000
-17.010900 0.000000
-16.988200 0.000000
-16.965500 0.000000
-16.942800 0.000000
-16.920100 0.000000
-16.897400 0.000000
-16.874700 0.000000
-16.852000 0.000000
-16.829300 0.000000
-16.806600 0.000000
-16.783900 0.000000
-16.761200 0.000000
-16.738600 0.000000
-16.715900 0.000000
-16.693200 0.000000
-16.670500 0.000000
-16.647800 0.000000
-16.625100 0.000000
-16.602400 0.000000
-16.579700 0.000000
-16.557000 0.000000
-16.534300 0.000000
-16.511600 0.000000
-16.488900 0.000000
-16.466200 0.000000
-16.443500 0.000000
-16.420800 0.000000
-16.398200 0.000000
-16.375500 0.000000
-16.352800 0.000000
-16.330100 0.000000
-16.307400 0.000000
-16.284700 0.000000
-16.262000 0.000000
-16.239300 0.000000
-16.216600 0.000000
-16.193900 0.000000
-16.171200 0.000000
-16.148500 0.000000
-16.125800 0.000000
-16.103100 0.000000
-16.080400 0.000000
-16.057800 0.000000
-16.035100 0.000000
-16.012400 0.000000
-15.989700 0.000000
-15.967000 0.000000
-15.944300 0.000000
-15.921600 0.000000
-15.898900 0.000000
-15.876200 0.000000
-15.853500 0.000000
-15.830800 0.000000
-15.808100 0.000000
-15.785400 0.000000
-15.762700 0.000000
-15.740000 0.000000
-15.717400 0.000000
-15.694700 0.000000
-15.672000 0.000000
-15.649300 0.000000
-15.626600 0.000000
-15.603900 0.000000
-15.581200 0.000000
-15.558500 0.000000
-15.535800 0.000000
-15.513100 0.000000
-15.490400 0.000000
-15.467700 0.000000
-15.445000 0.000000
-15.422300 0.000000
-15.399600 0.000000
-15.377000 0.000000
-15.354300 0.000000
-15.331600 0.000000
-15.308900 0.000000
-15.286200 0.003500
-15.263500 0.506900
-15.240800 1.862300
-15.218100 2.812400
-15.195400 3.376500
-15.172700 4.191800
-15.150000 5.213400
-15.127300 6.534500
-15.104600 9.567600
-15.081900 11.524300
-15.059300 12.559300
-15.036600 14.052500
-15.013900 10.582800
-14.991200 4.970800
-14.968500 0.913500
-14.945800 0.678600
-14.923100 2.285600
-14.900400 15.387500
-14.877700 21.665400
-14.855000 16.811200
-14.832300 9.846800
-14.809600 7.551100
-14.786900 18.198800
-14.764200 51.860000
-14.741500 49.566900
-14.718900 40.441100
-14.696200 11.807400
-14.673500 0.189500
-14.650800 0.000000
-14.628100 0.000000
-14.605400 0.000000
-14.582700 0.000000
-14.560000 0.000000
-14.537300 0.000000
-14.514600 0.000000
-14.491900 0.000000
-14.469200 0.000000
-14.446500 0.000000
-14.423800 0.000000
-14.401100 0.000000
-14.378500 0.000000
-14.355800 0.000000
-14.333100 0.000000
-14.310400 0.000000
-14.287700 0.000000
-14.265000 0.000000
-14.242300 0.000000
-14.219600 0.000000
-14.196900 0.000000
-14.174200 0.000000
-14.151500 0.000000
-14.128800 0.000000
-14.106100 0.000000
-14.083400 0.000000
-14.060700 0.000000
-14.038100 0.000000
-14.015400 0.000000
-13.992700 0.000000
-13.970000 0.000000
-13.947300 0.000000
-13.924600 0.000000
-13.901900 0.000000
-13.879200 0.000000
-13.856500 0.000000
-13.833800 0.000000
-13.811100 0.000000
-13.788400 0.000000
-13.765700 0.000000
-13.743000 0.000000
-13.720300 0.000000
-13.697700 0.000000
-13.675000 0.000000
-13.652300 0.000000
-13.629600 0.000000
-13.606900 0.000000
-13.584200 0.000000
-13.561500 0.000000
-13.538800 0.000000
-13.516100 0.000000
-13.493400 0.000000
-13.470700 0.000000
-13.448000 0.000000
-13.425300 0.000000
-13.402600 0.000000
-13.380000 0.000000
-13.357300 0.000000
-13.334600 0.000000
-13.311900 0.000000
-13.289200 0.000000
-13.266500 0.000000
-13.243800 0.000000
-13.221100 0.000000
-13.198400 0.000000
-13.175700 0.000000
-13.153000 0.000000
-13.130300 0.000000
-13.107600 0.000000
-13.084900 0.000000
-13.062200 0.000000
-13.039600 0.000000
-13.016900 0.000000
-12.994200 0.000000
-12.971500 0.000000
-12.948800 0.000000
-12.926100 0.000000
-12.903400 0.000000
-12.880700 0.000000
-12.858000 0.000000
-12.835300 0.000000
-12.812600 0.000000
-12.789900 0.000000
-12.767200 0.000000
-12.744500 0.000000
-12.721800 0.000000
-12.699200 0.000000
-12.676500 0.000000
-12.653800 0.000000
-12.631100 0.000000
-12.608400 0.000000
-12.585700 0.000000
-12.563000 0.000000
-12.540300 0.000000
-12.517600 0.000000
-12.494900 0.000000
-12.472200 0.000000
-12.449500 0.000000
-12.426800 0.000000
-12.404100 0.000000
-12.381400 0.000000
-12.358800 0.000000
-12.336100 0.000000
-12.313400 0.000000
-12.290700 0.000000
-12.268000 0.000000
-12.245300 0.000000
-12.222600 0.000000
-12.199900 0.000000
-12.177200 0.000000
-12.154500 0.000000
-12.131800 0.000000
-12.109100 0.000000
-12.086400 0.000000
-12.063700 0.000000
-12.041000 0.000000
-12.018400 0.000000
-11.995700 0.000000
-11.973000 0.000000
-11.950300 0.000000
-11.927600 0.000000
-11.904900 0.000000
-11.882200 0.000000
-11.859500 0.000000
-11.836800 0.000000
-11.814100 0.000000
-11.791400 0.000000
-11.768700 0.000000
-11.746000 0.000000
-11.723300 0.000000
-11.700700 0.000000
-11.678000 0.000000
-11.655300 0.000000
-11.632600 0.000000
-11.609900 0.000000
-11.587200 0.000000
-11.564500 0.000000
-11.541800 0.000000
-11.519100 0.000000
-11.496400 0.000000
-11.473700 0.000000
-11.451000 0.000000
-11.428300 0.000000
-11.405600 0.000000
-11.382900 0.000000
-11.360300 0.000000
-11.337600 0.000000
-11.314900 0.000000
-11.292200 0.000000
-11.269500 0.000000
-11.246800 0.000000
-11.224100 0.000000
-11.201400 0.000000
-11.178700 0.000000
-11.156000 0.000000
-11.133300 0.000000
-11.110600 0.000000
-11.087900 0.000000
-11.065200 0.000000
-11.042500 0.000000
-11.019900 0.000000
-10.997200 0.000000
-10.974500 0.000000
-10.951800 0.000000
-10.929100 0.000000
-10.906400 0.000000
-10.883700 0.000000
-10.861000 0.000000
-10.838300 0.000000
-10.815600 0.000000
-10.792900 0.000000
-10.770200 0.000000
-10.747500 0.000000
-10.724800 0.000000
-10.702100 0.000000
-10.679500 0.000000
-10.656800 0.000000
-10.634100 0.000000
-10.611400 0.000000
-10.588700 0.000000
-10.566000 0.000000
-10.543300 0.000000
-10.520600 0.000000
-10.497900 0.000000
-10.475200 0.000000
-10.452500 0.000000
-10.429800 0.000000
-10.407100 0.000000
-10.384400 0.000000
-10.361700 0.000000
-10.339100 0.000000
-10.316400 0.000000
-10.293700 0.000000
-10.271000 0.000000
-10.248300 0.000000
-10.225600 0.000000
-10.202900 0.000000
-10.180200 0.000000
-10.157500 0.000000
-10.134800 0.000000
-10.112100 0.000000
-10.089400 0.000000
-10.066700 0.000000
-10.044000 0.000000
-10.021400 0.000000
-9.998700 0.000000
-9.976000 0.000000
-9.953300 0.000000
-9.930600 0.000000
-9.907900 0.000000
-9.885200 0.000000
-9.862500 0.000000
-9.839800 0.000000
-9.817100 0.000000
-9.794400 0.000000
-9.771700 0.000000
-9.749000 0.000000
-9.726300 0.000000
-9.703600 0.000000
-9.681000 0.000000
-9.658300 0.000000
-9.635600 0.000000
-9.612900 0.000000
-9.590200 0.000000
-9.567500 0.000000
-9.544800 0.000000
-9.522100 0.000000
-9.499400 0.000000
-9.476700 0.000000
-9.454000 0.000000
-9.431300 0.000000
-9.408600 0.000000
-9.385900 0.000000
-9.363200 0.000000
-9.340600 0.000000
-9.317900 0.000000
-9.295200 0.000000
-9.272500 0.000000
-9.249800 0.000000
-9.227100 0.000000
-9.204400 0.000000
-9.181700 0.000000
-9.159000 0.000000
-9.136300 0.000000
-9.113600 0.000000
-9.090900 0.000000
-9.068200 0.000000
-9.045500 0.000000
-9.022800 0.000000
-9.000200 0.000000
-8.977500 0.000000
-8.954800 0.000000
-8.932100 0.000000
-8.909400 0.000000
-8.886700 0.000000
-8.864000 0.000000
-8.841300 0.000000
-8.818600 0.000000
-8.795900 0.000000
-8.773200 0.000000
-8.750500 0.000000
-8.727800 0.000000
-8.705100 0.000000
-8.682400 0.000000
-8.659800 0.000000
-8.637100 0.000000
-8.614400 0.000000
-8.591700 0.000000
-8.569000 0.000000
-8.546300 0.000000
-8.523600 0.000000
-8.500900 0.000000
-8.478200 0.000000
-8.455500 0.000000
-8.432800 0.000000
-8.410100 0.000000
-8.387400 0.000000
-8.364700 0.000000
-8.342100 0.000000
-8.319400 0.000000
-8.296700 0.000000
-8.274000 0.000000
-8.251300 0.000000
-8.228600 0.000000
-8.205900 0.000000
-8.183200 0.000000
-8.160500 0.000000
-8.137800 0.000000
-8.115100 0.000000
-8.092400 0.000000
-8.069700 0.000000
-8.047000 0.000000
-8.024300 0.000000
-8.001700 0.000000
-7.979000 0.000000
-7.956300 0.000000
-7.933600 0.000000
-7.910900 0.000000
-7.888200 0.000000
-7.865500 0.000000
-7.842800 0.000000
-7.820100 0.000000
-7.797400 0.000000
-7.774700 0.000000
-7.752000 0.000000
-7.729300 0.000000
-7.706600 0.000000
-7.683900 0.000000
-7.661300 0.000000
-7.638600 0.000000
-7.615900 0.000000
-7.593200 0.000000
-7.570500 0.000000
-7.547800 0.000000
-7.525100 0.000000
-7.502400 0.000000
-7.479700 0.000000
-7.457000 0.000000
-7.434300 0.000000
-7.411600 0.000000
-7.388900 0.000000
-7.366200 0.000000
-7.343500 0.000000
-7.320900 0.000000
-7.298200 0.000000
-7.275500 0.000000
-7.252800 0.000000
-7.230100 0.000000
-7.207400 0.000000
-7.184700 0.000000
-7.162000 0.000000
-7.139300 0.000000
-7.116600 0.000000
-7.093900 0.000000
-7.071200 0.000000
-7.048500 0.000000
-7.025800 0.000000
-7.003100 0.000000
-6.980500 0.000000
-6.957800 0.000000
-6.935100 0.000000
-6.912400 0.000000
-6.889700 0.000000
-6.867000 0.000000
-6.844300 0.000000
-6.821600 0.000000
-6.798900 0.000000
-6.776200 0.000000
-6.753500 0.000000
-6.730800 0.000000
-6.708100 20.020600
-6.685400 57.435400
-6.662800 11.626100
-6.640100 35.146100
-6.617400 39.552800
-6.594700 39.923100
-6.572000 54.559000
-6.549300 16.752600
-6.526600 15.333200
-6.503900 27.380400
-6.481200 16.349400
-6.458500 10.496600
-6.435800 9.040300
-6.413100 0.000000
-6.390400 2.158800
-6.367700 13.920200
-6.345000 45.366400
-6.322400 56.668900
-6.299700 32.890200
-6.277000 12.675600
-6.254300 23.013700
-6.231600 58.448200
-6.208900 46.310200
-6.186200 39.067100
-6.163500 46.885000
-6.140800 70.005000
-6.118100 70.275700
-6.095400 0.000000
-6.072700 0.000000
-6.050000 0.000000
-6.027300 0.000000
-6.004600 0.000000
-5.982000 0.000000
-5.959300 0.000000
-5.936600 0.000000
-5.913900 0.000000
-5.891200 0.000000
-5.868500 0.000000
-5.845800 0.000000
-5.823100 0.000000
-5.800400 0.000000
-5.777700 0.000000
-5.755000 0.000000
-5.732300 0.000000
-5.709600 0.000000
-5.686900 0.003600
-5.664200 0.049600
-5.641600 0.148500
-5.618900 0.300200
-5.596200 0.504800
-5.573500 0.969500
-5.550800 1.236900
-5.528100 1.533300
-5.505400 1.859600
-5.482700 2.215900
-5.460000 2.602100
-5.437300 3.018300
-5.414600 4.103600
-5.391900 5.009200
-5.369200 6.107100
-5.346500 7.119300
-5.323800 8.509300
-5.301200 7.804800
-5.278500 6.160100
-5.255800 4.881900
-5.233100 3.970200
-5.210400 3.311000
-5.187700 2.858200
-5.165000 2.410900
-5.142300 2.078800
-5.119600 1.806500
-5.096900 1.534500
-5.074200 2.237200
-5.051500 2.585400
-5.028800 2.966900
-5.006100 3.103300
-4.983500 2.147300
-4.960800 2.011700
-4.938100 1.896800
-4.915400 1.802600
-4.892700 1.767600
-4.870000 1.866400
-4.847300 1.965200
-4.824600 2.109100
-4.801900 2.402200
-4.779200 2.786900
-4.756500 3.263200
-4.733800 4.091700
-4.711100 4.711500
-4.688400 4.876500
-4.665700 4.934000
-4.643100 4.878900
-4.620400 4.711100
-4.597700 4.467500
-4.575000 4.219900
-4.552300 3.798800
-4.529600 3.204200
-4.506900 2.435900
-4.484200 2.020900
-4.461500 1.802800
-4.438800 1.608600
-4.416100 1.423300
-4.393400 1.247000
-4.370700 1.079700
-4.348000 0.921300
-4.325300 0.771900
-4.302700 0.631400
-4.280000 0.478600
-4.257300 0.381700
-4.234600 0.307000
-4.211900 0.244300
-4.189200 0.188700
-4.166500 0.140400
-4.143800 0.099100
-4.121100 0.065000
-4.098400 0.038100
-4.075700 0.018300
-4.053000 0.005700
-4.030300 0.000200
-4.007600 0.000000
-3.984900 0.000000
-3.962300 0.000000
-3.939600 0.000000
-3.916900 0.000000
-3.894200 0.000000
-3.871500 0.000000
-3.848800 0.000000
-3.826100 0.000000
-3.803400 1.961100
-3.780700 6.923700
-3.758000 12.829300
-3.735300 12.637000
-3.712600 13.730900
-3.689900 9.092100
-3.667200 6.213800
-3.644500 6.125800
-3.621900 5.374700
-3.599200 5.110900
-3.576500 4.999200
-3.553800 4.990000
-3.531100 4.699700
-3.508400 4.562500
-3.485700 4.844500
-3.463000 5.228800
-3.440300 5.715400
-3.417600 9.606600
-3.394900 12.597300
-3.372200 8.867200
-3.349500 7.982100
-3.326800 7.132500
-3.304200 6.062600
-3.281500 5.773100
-3.258800 4.307100
-3.236100 2.230800
-3.213400 2.372100
-3.190700 3.239500
-3.168000 3.584500
-3.145300 3.900700
-3.122600 4.548000
-3.099900 5.576500
-3.077200 6.931200
-3.054500 8.109300
-3.031800 9.340000
-3.009100 15.496400
-2.986400 12.295500
-2.963800 8.724800
-2.941100 7.401700
-2.918400 7.168600
-2.895700 8.015200
-2.873000 7.995700
-2.850300 8.099500
-2.827600 8.373200
-2.804900 7.405300
-2.782200 7.966900
-2.759500 8.980900
-2.736800 4.676500
-2.714100 3.529500
-2.691400 3.883000
-2.668700 5.067700
-2.646000 8.087400
-2.623400 9.710700
-2.600700 11.442200
-2.578000 11.534000
-2.555300 10.368100
-2.532600 11.095900
-2.509900 13.798300
-2.487200 14.057600
-2.464500 14.526700
-2.441800 15.464100
-2.419100 12.807600
-2.396400 14.517000
-2.373700 10.634400
-2.351000 10.698900
-2.328300 12.053800
-2.305600 9.732600
-2.283000 8.092200
-2.260300 7.872500
-2.237600 10.800500
-2.214900 12.038700
-2.192200 10.321000
-2.169500 7.257300
-2.146800 5.587900
-2.124100 7.431000
-2.101400 9.792200
-2.078700 10.364100
-2.056000 15.130800
-2.033300 20.954500
-2.010600 31.064600
-1.987900 13.604600
-1.965200 4.226500
-1.942600 10.777900
-1.919900 29.451000
-1.897200 9.961600
-1.874500 8.290900
-1.851800 10.914900
-1.829100 18.168500
-1.806400 21.142000
-1.783700 21.868400
-1.761000 10.110400
-1.738300 7.743900
-1.715600 6.169000
-1.692900 4.292000
-1.670200 2.426300
-1.647500 1.030200
-1.624900 0.407300
-1.602200 0.068400
-1.579500 0.000000
-1.556800 0.000000
-1.534100 0.000000
-1.511400 0.000000
-1.488700 0.000000
-1.466000 0.000000
-1.443300 0.000000
-1.420600 0.000000
-1.397900 0.000000
-1.375200 0.000000
-1.352500 0.000000
-1.329800 0.000000
-1.307100 0.000000
-1.284500 0.000000
-1.261800 0.000000
-1.239100 0.000000
-1.216400 0.000000
-1.193700 0.000000
-1.171000 0.000000
-1.148300 0.000000
-1.125600 0.000000
-1.102900 0.000000
-1.080200 0.000000
-1.057500 0.000000
-1.034800 0.000000
-1.012100 0.000000
-0.989400 0.000000
-0.966700 0.000000
-0.944100 0.000000
-0.921400 0.000000
-0.898700 0.000000
-0.876000 0.000000
-0.853300 0.000000
-0.830600 0.000000
-0.807900 0.000000
-0.785200 0.000000
-0.762500 0.000000
-0.739800 0.000000
-0.717100 0.000000
-0.694400 0.000000
-0.671700 0.000000
-0.649000 0.000000
-0.626300 0.000000
-0.603700 0.000000
-0.581000 0.000000
-0.558300 0.000000
-0.535600 0.000000
-0.512900 0.000000
-0.490200 0.000000
-0.467500 0.000000
-0.444800 0.000000
-0.422100 0.000000
-0.399400 0.000000
-0.376700 0.000000
-0.354000 0.000000
-0.331300 0.000000
-0.308600 0.000000
-0.285900 0.000000
-0.263300 0.000000
-0.240600 0.000000
-0.217900 0.000000
-0.195200 0.000000
-0.172500 0.000000
-0.149800 0.000000
-0.127100 0.000000
-0.104400 0.000000
-0.081700 0.000000
-0.059000 0.000000
-0.036300 0.000000
-0.013600 0.000000
0.009100 0.000000
0.031800 0.000000
0.054400 0.000000
0.077100 0.000000
0.099800 0.000000
0.122500 0.000000
0.145200 0.000000
0.167900 0.000000
0.190600 0.000000
0.213300 0.000000
0.236000 0.000000
0.258700 0.000000
0.281400 0.000000
0.304100 0.000000
0.326800 0.000000
0.349500 0.000000
0.372200 0.000000
0.394800 0.000000
0.417500 0.000000
0.440200 0.000000
0.462900 0.000000
0.485600 0.000000
0.508300 0.000000
0.531000 0.000000
0.553700 0.000000
0.576400 0.000000
0.599100 0.000000
0.621800 0.000000
0.644500 0.000000
0.667200 0.000000
0.689900 0.000000
0.712600 0.000000
0.735200 0.000000
0.757900 0.000000
0.780600 0.000000
0.803300 0.000000
0.826000 0.000000
0.848700 0.000000
0.871400 0.000000
0.894100 0.000000
0.916800 0.000000
0.939500 0.000000
0.962200 0.000000
0.984900 0.000000
1.007600 0.000000
1.030300 0.000000
1.053000 0.000000
1.075600 0.000000
1.098300 0.000000
1.121000 0.000000
1.143700 0.000000
1.166400 0.000000
1.189100 0.000000
1.211800 0.000000
1.234500 0.000000
1.257200 0.000000
1.279900 0.000000
1.302600 0.000000
1.325300 0.000000
1.348000 0.000000
1.370700 0.000000
1.393400 0.000000
1.416000 0.000000
1.438700 0.000000
1.461400 0.000000
1.484100 0.000000
1.506800 0.000000
1.529500 0.000000
1.552200 0.000000
1.574900 0.000000
1.597600 0.000000
1.620300 0.000000
1.643000 0.000000
1.665700 0.000000
1.688400 0.000000
1.711100 0.000000
1.733700 0.000000
1.756400 0.000000
1.779100 0.000000
1.801800 0.000000
1.824500 0.000000
1.847200 0.000000
1.869900 0.000000
1.892600 0.000000
1.915300 0.000000
1.938000 0.000000
1.960700 0.000000
1.983400 0.000000
2.006100 0.000000
2.028800 0.000000
2.051500 0.000000
2.074100 0.000000
2.096800 0.000000
2.119500 0.000000
2.142200 0.000000
2.164900 0.000000
2.187600 0.000000
2.210300 0.000000
2.233000 0.000000
2.255700 0.000000
2.278400 0.000000
2.301100 0.000000
2.323800 0.000000
2.346500 0.000000
2.369200 0.000000
2.391900 0.000000
2.414500 0.000000
2.437200 0.000000
2.459900 0.000000
2.482600 0.000300
2.505300 0.002100
2.528000 0.005800
2.550700 0.011300
2.573400 0.018600
2.596100 0.027700
2.618800 0.038600
2.641500 0.051300
2.664200 0.065800
2.686900 0.082100
2.709600 0.100300
2.732300 0.120200
2.754900 0.142000
2.777600 0.165600
2.800300 0.190900
2.823000 0.218100
2.845700 0.247100
2.868400 0.277900
2.891100 0.310500
2.913800 0.431300
2.936500 0.443600
2.959200 0.457200
2.981900 0.472200
3.004600 0.488400
3.027300 0.506000
3.050000 0.524800
3.072700 0.545000
3.095300 0.567200
3.118000 0.591600
3.140700 0.618100
3.163400 0.646700
3.186100 0.677500
3.208800 0.710400
3.231500 0.745500
3.254200 0.782700
3.276900 0.822000
3.299600 0.863500
3.322300 0.909300
3.345000 0.960600
3.367700 1.017400
3.390400 1.079700
3.413000 1.147600
3.435700 1.220900
3.458400 1.299900
3.481100 1.385900
3.503800 1.495400
3.526500 1.630100
3.549200 1.790100
3.571900 1.975400
3.594600 2.437400
3.617300 2.970700
3.640000 3.532600
3.662700 3.954900
3.685400 4.312500
3.708100 4.605300
3.730800 5.096400
3.753400 5.808500
3.776100 5.028000
3.798800 4.347100
3.821500 3.759200
3.844200 3.264400
3.866900 4.146700
3.889600 2.552300
3.912300 1.091900
3.935000 0.796200
3.957700 0.579000
3.980400 0.394900
4.003100 0.243800
4.025800 0.125900
4.048500 0.041100
4.071200 0.486000
4.093800 0.811300
4.116500 1.185200
4.139200 1.607900
4.161900 2.079300
4.184600 1.292800
4.207300 1.303400
4.230000 1.374400
4.252700 1.446300
4.275400 1.605000
4.298100 2.020200
4.320800 2.596700
4.343500 3.605700
4.366200 3.339200
4.388900 3.354100
4.411600 3.285700
4.434200 3.177400
4.456900 3.280500
4.479600 3.416600
4.502300 3.515800
4.525000 3.578100
4.547700 3.603600
4.570400 3.638000
4.593100 3.636400
4.615800 3.554800
4.638500 3.389900
4.661200 3.140400
4.683900 2.820300
4.706600 2.475300
4.729300 2.165900
4.752000 2.007200
4.774600 1.849600
4.797300 1.693000
4.820000 1.543400
4.842700 1.440700
4.865400 1.298000
4.888100 1.115100
4.910800 0.490400
4.933500 0.094000
4.956200 0.000000
4.978900 0.000000
5.001600 0.000000
5.024300 0.000000
5.047000 0.000000
5.069700 0.277300
5.092300 0.205900
5.115000 0.258400
5.137700 0.316200
5.160400 0.379300
5.183100 0.447800
5.205800 0.521600
5.228500 0.600700
5.251200 0.685100
5.273900 0.774900
5.296600 0.869900
5.319300 0.970400
5.342000 1.079400
5.364700 1.216800
5.387400 1.398600
5.410100 1.631100
5.432700 1.914100
5.455400 1.826600
5.478100 1.913100
5.500800 2.005400
5.523500 2.215900
5.546200 2.293000
5.568900 2.370000
5.591600 2.447100
5.614300 2.539000
5.637000 2.639000
5.659700 2.747100
5.682400 2.865000
5.705100 2.988900
5.727800 3.115000
5.750500 3.242100
5.773100 3.369400
5.795800 3.508800
5.818500 3.880700
5.841200 4.283700
5.863900 4.345900
5.886600 4.482200
5.909300 4.626800
5.932000 4.428300
5.954700 3.952700
5.977400 3.555300
6.000100 3.270000
6.022800 3.409900
6.045500 3.477400
6.068200 3.559300
6.090900 3.664300
6.113500 4.019200
6.136200 4.725600
6.158900 5.408900
6.181600 5.982800
6.204300 6.663600
6.227000 7.212600
6.249700 7.239800
6.272400 7.549900
6.295100 6.392200
6.317800 5.661100
6.340500 5.634900
6.363200 5.300400
6.385900 5.009400
6.408600 4.762000
6.431300 4.800600
6.453900 5.931900
6.476600 4.963700
6.499300 2.316700
6.522000 2.311300
6.544700 2.326000
6.567400 2.361000
6.590100 3.705600
6.612800 3.396900
6.635500 3.187000
6.658200 3.080400
6.680900 3.102600
6.703600 3.169400
6.726300 3.237200
6.749000 3.295200
6.771600 3.342600
6.794300 3.379200
6.817000 4.921700
6.839700 3.536600
6.862400 3.542000
6.885100 3.549100
6.907800 3.671500
6.930500 3.819500
6.953200 3.983000
6.975900 4.203200
6.998600 4.480300
7.021300 4.851500
7.044000 4.344500
7.066700 4.438200
7.089400 4.565000
7.112000 4.807600
7.134700 5.451100
7.157400 6.285600
7.180100 6.927000
7.202800 6.928700
7.225500 6.703300
7.248200 5.928300
7.270900 4.793000
7.293600 3.313100
7.316300 1.744900
7.339000 0.117400
7.361700 0.093700
7.384400 0.072600
7.407100 0.054300
7.429800 0.038600
7.452400 0.025500
7.475100 0.015200
7.497800 0.007500
7.520500 0.145200
7.543200 0.230100
7.565900 0.336700
7.588600 0.462900
7.611300 0.646000
7.634000 1.009900
7.656700 1.524400
7.679400 2.085900
7.702100 2.689500
7.724800 3.972100
7.747500 5.891500
7.770200 5.408300
7.792800 5.183100
7.815500 4.937800
7.838200 4.778100
7.860900 4.703900
7.883600 4.708800
7.906300 4.741800
7.929000 4.896000
7.951700 5.194000
7.974400 5.579600
7.997100 5.965100
8.019800 7.019300
8.042500 6.097400
8.065200 5.940900
8.087900 5.824200
8.110600 5.705700
8.133200 5.597100
8.155900 5.498600
8.178600 5.410100
8.201300 5.331600
8.224000 5.527100
8.246700 5.535100
8.269400 5.452900
8.292100 5.139100
8.314800 5.940500
8.337500 5.351500
8.360200 4.920500
8.382900 4.644800
8.405600 4.542800
8.428300 4.662700
8.450900 5.009700
8.473600 5.651100
8.496300 6.397800
8.519000 5.149200
8.541700 5.802600
8.564400 7.075900
8.587100 7.521200
8.609800 7.212300
8.632500 6.589200
8.655200 7.206700
8.677900 7.763600
8.700600 6.900800
8.723300 8.126200
8.746000 8.362600
8.768700 9.589200
8.791300 10.304200
8.814000 10.643000
8.836700 10.255100
8.859400 9.301800
8.882100 7.707000
8.904800 6.130000
8.927500 4.554200
8.950200 2.865700
8.972900 1.233700
8.995600 1.391600
9.018300 3.606300
9.041000 16.413200
9.063700 8.503800
9.086400 7.823000
9.109100 7.129200
9.131700 7.150600
9.154400 6.658100
9.177100 6.191300
9.199800 5.694000
9.222500 4.724800
9.245200 4.772200
9.267900 5.183000
9.290600 5.735600
9.313300 5.728300
9.336000 6.211900
9.358700 6.371300
9.381400 6.774200
9.404100 7.210600
9.426800 7.754200
9.449500 8.092200
9.472100 7.776300
9.494800 3.743000
9.517500 3.119900
9.540200 2.921700
9.562900 3.036900
9.585600 3.014400
9.608300 2.984100
9.631000 2.944800
9.653700 2.924800
9.676400 2.985500
9.699100 3.034600
9.721800 3.027800
9.744500 3.114400
9.767200 3.301800
9.789900 3.498300
9.812500 3.701700
9.835200 3.883600
9.857900 3.933900
9.880600 6.020300
9.903300 5.790100
9.926000 5.892900
9.948700 5.732400
9.971400 5.280200
9.994100 3.754000
10.016800 2.753500
10.039500 2.842600
10.062200 2.736700
10.084900 2.983900
10.107600 3.369500
10.130200 3.853700
10.152900 4.484700
10.175600 4.132100
10.198300 4.840000
10.221000 5.224100
10.243700 5.437700
10.266400 5.477100
10.289100 5.660400
10.311800 5.710500
10.334500 5.284400
10.357200 4.640000
10.379900 3.821500
10.402600 3.027000
10.425300 2.607500
10.448000 2.481800
10.470600 2.362100
10.493300 3.203500
10.516000 3.386900
10.538700 3.739800
10.561400 4.113600
10.584100 4.582000
10.606800 4.597900
10.629500 4.576500
10.652200 4.598900
10.674900 4.533800
10.697600 4.375800
10.720300 4.176300
10.743000 4.085700
10.765700 4.203300
10.788400 4.252100
10.811000 4.141500
10.833700 4.146100
10.856400 4.152200
10.879100 4.164800
10.901800 5.009400
10.924500 4.526800
10.947200 4.290600
10.969900 4.328500
10.992600 4.370900
11.015300 4.417900
11.038000 4.220700
11.060700 4.212100
11.083400 4.240500
11.106100 4.325000
11.128800 4.243900
11.151400 4.195500
11.174100 4.271400
11.196800 4.375300
11.219500 4.486300
11.242200 4.605100
11.264900 4.853000
11.287600 5.052200
11.310300 4.953600
11.333000 4.812800
11.355700 4.805700
11.378400 4.990000
11.401100 5.070000
11.423800 3.709200
11.446500 3.144300
11.469200 2.915000
11.491800 2.702700
11.514500 2.443000
11.537200 2.302500
11.559900 2.234200
11.582600 2.181700
11.605300 2.315200
11.628000 2.810800
11.650700 3.637900
11.673400 3.901200
11.696100 3.942400
11.718800 2.924200
11.741500 2.926400
11.764200 2.950300
11.786900 2.994300
11.809500 3.054200
11.832200 3.129700
11.854900 3.175900
11.877600 3.199800
11.900300 3.216800
11.923000 3.226700
11.945700 3.229500
11.968400 3.225300
11.991100 3.214100
12.013800 3.230100
12.036500 3.673400
12.059200 4.187500
12.081900 3.590900
12.104600 3.601800
12.127300 3.612900
12.149900 3.616200
12.172600 3.622000
12.195300 3.641100
12.218000 3.627400
12.240700 3.919100
12.263400 4.331600
12.286100 4.786400
12.308800 5.296500
12.331500 5.774200
12.354200 5.246500
12.376900 5.177600
12.399600 5.127800
12.422300 5.104700
12.445000 5.093300
12.467700 4.854600
12.490300 5.313500
12.513000 5.327700
12.535700 5.299200
12.558400 5.259700
12.581100 5.215800
12.603800 5.167400
12.626500 5.114700
12.649200 4.707800
12.671900 4.694800
12.694600 5.064000
12.717300 5.869400
12.740000 6.827300
12.762700 6.916100
12.785400 6.516500
12.808100 5.492100
12.830700 4.563600
12.853400 3.715800
12.876100 3.205900
12.898800 2.887000
12.921500 2.626000
12.944200 2.398100
12.966900 1.860500
12.989600 1.757500
13.012300 1.701400
13.035000 1.679400
13.057700 1.713900
13.080400 1.807300
13.103100 2.121600
13.125800 2.304800
13.148500 2.546900
13.171100 2.847900
13.193800 3.207800
13.216500 3.635400
13.239200 4.635000
13.261900 5.811300
13.284600 6.371500
13.307300 6.826200
13.330000 6.536900
13.352700 6.504500
13.375400 6.221600
13.398100 5.646400
13.420800 5.012800
13.443500 4.838600
13.466200 4.587600
13.488800 4.681300
13.511500 5.559900
13.534200 6.304800
13.556900 6.683300
13.579600 6.902700
13.602300 6.266700
13.625000 6.467800
13.647700 6.698700
13.670400 6.038700
13.693100 5.540100
13.715800 5.116900
13.738500 4.760700
13.761200 4.452300
13.783900 4.256400
13.806600 4.128200
13.829200 3.987800
13.851900 3.836300
13.874600 3.732900
13.897300 3.732400
13.920000 3.246400
13.942700 3.303000
13.965400 4.013100
13.988100 5.037700
14.010800 4.860100
14.033500 8.728400
14.056200 9.169800
14.078900 9.093900
14.101600 8.495000
14.124300 7.514900
14.147000 6.461900
14.169600 4.898700
14.192300 3.791400
14.215000 3.297900
14.237700 2.901200
14.260400 2.610700
14.283100 2.367000
14.305800 2.214500
14.328500 1.842000
14.351200 0.219600
14.373900 0.212600
14.396600 0.896300
14.419300 2.277700
14.442000 6.060100
14.464700 5.494800
14.487400 7.097300
14.510000 9.379200
14.532700 10.594000
14.555400 7.192500
14.578100 7.287500
14.600800 7.448500
14.623500 7.659300
14.646200 7.701900
14.668900 7.415700
14.691600 7.680200
14.714300 6.689300
14.737000 5.179500
14.759700 4.956300
14.782400 4.767800
14.805100 4.613900
14.827800 4.494600
14.850400 4.410000
14.873100 4.701500
14.895800 4.933800
14.918500 5.946300
14.941200 5.941800
14.963900 5.699900
14.986600 5.842300
15.009300 5.930100
15.032000 5.963500
15.054700 5.871200
15.077400 5.886800
15.100100 6.193200
15.122800 5.855500
15.145500 5.286800
15.168100 4.906900
15.190800 4.567700
15.213500 4.774000
15.236200 4.993200
15.258900 5.464600
15.281600 5.690400
15.304300 5.773800
15.327000 6.112100
15.349700 6.507700
15.372400 6.960600
15.395100 6.959300
15.417800 7.522600
15.440500 8.168200
15.463200 8.523900
15.485900 8.115700
15.508500 8.261300
15.531200 8.375100
15.553900 8.521800
15.576600 7.813700
15.599300 7.646100
15.622000 7.593900
15.644700 5.830300
15.667400 5.980200
15.690100 6.103500
15.712800 5.938300
15.735500 5.530000
15.758200 5.483100
15.780900 5.465500
15.803600 5.563600
15.826300 5.734900
15.848900 5.923400
15.871600 5.489100
15.894300 5.566200
15.917000 5.637100
15.939700 5.701800
15.962400 8.970300
15.985100 5.668300
16.007800 4.855300
16.030500 4.197400
16.053200 3.858900
16.075900 3.723200
16.098600 3.716100
16.121300 3.718400
16.144000 3.465100
16.166700 3.483500
16.189300 3.528400
16.212000 3.596700
16.234700 3.708500
16.257400 3.866300
16.280100 4.070200
16.302800 4.325600
16.325500 4.411600
16.348200 4.031400
16.370900 4.209900
16.393600 4.582500
16.416300 4.690500
16.439000 4.824300
16.461700 4.983800
16.484400 5.169200
16.507100 5.380400
16.529700 5.178900
16.552400 5.077800
16.575100 6.580300
16.597800 6.737800
16.620500 5.953500
16.643200 5.056600
16.665900 6.501600
16.688600 6.812200
16.711300 7.199700
16.734000 7.411100
16.756700 7.462200
16.779400 7.369200
16.802100 7.073500
16.824800 6.541900
16.847400 6.285400
16.870100 6.072000
16.892800 5.859000
16.915500 5.681000
16.938200 5.304400
16.960900 4.881800
16.983600 4.555300
17.006300 4.440800
17.029000 4.439800
17.051700 4.502500
17.074400 4.626300
17.097100 4.835500
17.119800 5.481300
17.142500 6.889300
17.165200 5.985400
17.187800 5.904400
17.210500 5.836400
17.233200 5.626300
17.255900 5.445100
17.278600 5.521300
17.301300 5.677700
17.324000 6.065000
17.346700 6.998200
17.369400 6.884200
17.392100 6.560000
17.414800 6.055500
17.437500 6.032400
17.460200 6.034400
17.482900 6.037600
17.505600 6.036800
17.528200 6.035800
17.550900 6.076100
17.573600 6.069900
17.596300 6.009000
17.619000 5.928900
17.641700 5.893400
17.664400 5.941200
17.687100 5.642900
17.709800 5.256800
17.732500 5.632700
17.755200 6.265300
17.777900 6.968900
17.800600 6.578400
17.823300 7.011800
17.846000 6.701700
17.868600 6.174100
17.891300 5.759600
17.914000 5.538000
17.936700 5.448600
17.959400 5.381500
17.982100 5.400000
18.004800 5.996800
18.027500 5.988900
18.050200 6.157800
18.072900 6.565700
18.095600 8.793800
18.118300 8.642200
18.141000 4.882700
18.163700 4.907500
18.186400 5.003900
18.209000 5.509900
18.231700 6.047400
18.254400 6.631600
18.277100 7.215000
18.299800 7.475200
18.322500 7.498600
18.345200 7.753000
18.367900 8.054700
18.390600 8.419700
18.413300 6.607700
18.436000 5.858000
18.458700 5.225100
18.481400 4.744600
18.504100 4.083400
18.526700 4.157100
18.549400 4.320700
18.572100 5.523100
18.594800 7.488300
18.617500 7.237400
18.640200 7.682500
18.662900 8.232300
18.685600 8.705600
18.708300 8.358300
18.731000 7.213300
18.753700 5.370800
18.776400 4.863000
18.799100 7.441100
18.821800 6.386800
18.844500 6.279000
18.867100 4.243100
18.889800 4.502600
18.912500 4.915200
18.935200 5.362800
18.957900 5.845400
18.980600 6.363000
19.003300 10.232700
19.026000 12.007800
19.048700 11.933700
19.071400 9.213600
19.094100 5.806300
19.116800 4.439100
19.139500 4.339800
19.162200 5.604100
19.184900 7.826500
19.207500 10.283600
19.230200 10.693600
19.252900 6.381700
19.275600 4.220500
19.298300 3.720100
19.321000 3.271700
19.343700 2.875200
19.366400 2.531100
19.389100 2.273400
19.411800 1.927800
19.434500 2.038200
19.457200 2.503000
19.479900 3.668300
19.502600 7.272500
19.525300 9.078100
19.547900 8.421200
19.570600 7.881100
19.593300 7.337500
19.616000 6.797500
19.638700 6.272800
19.661400 7.052100
19.684100 4.325300
19.706800 3.169500
19.729500 2.398200
19.752200 2.017200
19.774900 2.123800
19.797600 2.304900
19.820300 2.532300
19.843000 2.812300
19.865700 3.152300
19.888300 4.186500
19.911000 6.148600
19.933700 7.718400
19.956400 10.185300
19.979100 9.212900
20.001800 8.271500
20.024500 7.036200
20.047200 5.965000
20.069900 5.155500
20.092600 4.719400
20.115300 5.421400
20.138000 4.018100
20.160700 3.685900
20.183400 3.558000
20.206000 3.708600
20.228700 3.869200
20.251400 4.044400
20.274100 4.290200
20.296800 4.623400
20.319500 7.205500
20.342200 6.226100
20.364900 6.065800
20.387600 5.601300
20.410300 5.120300
20.433000 4.830300
20.455700 4.593500
20.478400 4.535300
20.501100 4.635500
20.523800 5.788500
20.546400 6.459700
20.569100 6.735000
20.591800 6.824600
20.614500 6.906000
20.637200 7.708800
20.659900 5.128600
20.682600 3.785500
20.705300 3.758300
20.728000 3.684100
20.750700 3.732700
20.773400 3.790400
20.796100 3.836200
20.818800 4.577100
20.841500 6.189200
20.864200 6.481700
20.886800 6.521400
20.909500 6.598900
20.932200 6.554400
20.954900 6.388400
20.977600 6.126500
21.000300 5.878200
21.023000 5.627100
21.045700 5.371900
21.068400 5.615900
21.091100 5.239300
21.113800 4.855600
21.136500 4.925400
21.159200 5.613600
21.181900 8.019700
21.204600 6.408400
21.227200 5.602000
21.249900 5.184300
21.272600 5.743500
21.295300 5.954800
21.318000 7.412800
21.340700 5.938900
21.363400 5.753600
21.386100 5.835600
21.408800 5.822300
21.431500 5.876800
21.454200 5.600700
21.476900 5.465300
21.499600 5.809800
21.522300 4.195800
21.545000 4.102000
21.567600 4.032700
21.590300 3.987300
21.613000 3.969300
21.635700 3.993000
21.658400 4.042900
21.681100 4.174100
21.703800 4.171000
21.726500 4.101500
21.749200 3.822200
21.771900 3.640600
21.794600 3.506500
21.817300 3.486500
21.840000 3.492900
21.862700 3.551600
21.885300 3.628000
21.908000 3.717100
21.930700 3.889000
21.953400 4.703400
21.976100 4.777600
21.998800 4.893400
22.021500 5.050900
22.044200 5.511200
22.066900 6.559600
22.089600 6.641600
22.112300 6.984800
22.135000 5.639600
22.157700 5.866300
22.180400 6.181400
22.203100 6.468600
22.225700 6.680500
22.248400 6.691000
22.271100 6.446100
22.293800 6.229800
22.316500 5.609600
22.339200 5.371400
22.361900 6.267200
22.384600 5.353800
22.407300 4.278400
22.430000 4.200200
22.452700 4.544400
22.475400 4.474900
22.498100 4.211400
22.520800 4.075200
22.543500 4.046400
22.566100 4.013100
22.588800 3.975500
22.611500 4.186500
22.634200 4.536600
22.656900 5.125400
22.679600 5.749800
22.702300 6.126600
22.725000 6.259300
22.747700 6.325200
22.770400 6.221800
22.793100 6.094600
22.815800 6.113300
22.838500 6.231300
22.861200 6.304300
22.883900 6.772100
22.906500 6.740100
22.929200 6.746800
22.951900 6.748000
22.974600 6.783000
22.997300 6.747600
23.020000 6.683700
23.042700 6.266200
23.065400 5.826800
23.088100 5.479100
23.110800 5.213400
23.133500 5.177100
23.156200 5.241400
23.178900 6.577200
23.201600 7.532700
23.224300 8.433800
23.246900 8.435500
23.269600 8.379600
23.292300 7.627500
23.315000 7.497600
23.337700 7.248100
23.360400 7.175700
23.383100 7.347700
23.405800 7.587800
23.428500 6.029000
23.451200 6.027300
23.473900 6.002400
23.496600 6.022600
23.519300 6.066700
23.542000 6.179000
23.564600 6.202900
23.587300 6.152700
23.610000 6.102600
23.632700 6.055600
23.655400 6.020800
23.678100 5.998800
23.700800 5.992300
23.723500 5.984600
23.746200 6.080700
23.768900 5.743700
23.791600 4.567100
23.814300 4.378600
23.837000 4.633600
23.859700 4.795100
23.882400 5.048300
23.905000 5.176200
23.927700 5.010400
23.950400 4.861700
23.973100 4.766300
23.995800 4.725200
24.018500 4.724200
24.041200 4.814700
24.063900 5.018900
24.086600 5.202600
24.109300 5.451000
24.132000 5.761200
24.154700 6.730800
24.177400 7.495300
24.200100 7.552100
24.222800 7.193800
24.245400 6.925300
24.268100 6.510200
24.290800 6.176700
24.313500 5.428800
24.336200 4.999300
24.358900 4.461200
24.381600 4.347400
24.404300 4.322700
24.427000 4.031000
24.449700 4.309100
24.472400 4.566700
24.495100 4.910200
24.517800 5.399600
24.540500 5.937700
24.563200 5.691100
24.585800 5.613400
24.608500 5.572800
24.631200 5.532500
24.653900 5.479700
24.676600 6.266100
24.699300 6.500800
24.722000 5.946200
24.744700 5.815400
24.767400 5.897000
24.790100 10.375600
24.812800 9.234300
24.835500 5.757500
24.858200 5.545000
24.880900 5.346400
24.903600 5.181600
24.926200 5.010100
24.948900 4.876500
24.971600 4.825200
24.994300 4.799100
25.017000 4.793500
25.039700 4.797000
25.062400 4.951600
25.085100 4.983600
25.107800 5.076900
25.130500 5.347400
25.153200 5.575900
25.175900 5.768600
25.198600 5.706300
25.221300 5.362800
25.243900 5.006100
25.266600 4.943400
25.289300 4.773900
25.312000 4.383600
25.334700 4.153200
25.357400 3.931400
25.380100 3.719100
25.402800 3.518700
25.425500 3.323400
25.448200 3.133000
25.470900 2.947500
25.493600 2.767100
25.516300 2.584300
25.539000 2.411200
25.561700 2.384300
25.584300 2.425500
25.607000 3.296900
25.629700 5.191000
25.652400 5.522700
25.675100 4.553200
25.697800 3.588000
25.720500 3.104500
25.743200 2.055400
25.765900 1.429700
25.788600 0.837200
25.811300 0.286700
25.834000 0.015200
25.856700 0.009100
25.879400 0.005900
25.902100 0.003400
25.924700 0.001500
25.947400 0.000400
25.970100 0.000000
25.992800 0.000000
26.015500 0.000000
26.038200 0.000000
26.060900 0.000000
26.083600 0.000000
26.106300 0.000000
26.129000 0.000000
26.151700 0.000000
26.174400 0.000000
26.197100 0.000000
26.219800 0.000000
26.242500 0.000000
26.265100 0.000000
26.287800 0.000000
26.310500 0.000000
26.333200 0.000000
26.355900 0.000000
26.378600 0.000000
26.401300 0.000000
26.424000 0.000000
26.446700 0.000000
26.469400 0.000000
26.492100 0.000000
26.514800 0.000000
26.537500 0.000000
26.560200 0.000000
26.582800 0.000000
26.605500 0.000000
26.628200 0.000000
26.650900 0.000000
26.673600 0.000000
26.696300 0.000000
26.719000 0.000000
26.741700 0.000000
26.764400 0.000000
26.787100 0.000000
26.809800 0.000000
26.832500 0.000000
26.855200 0.000000
26.877900 0.000000
26.900600 0.000000
26.923200 0.000000
26.945900 0.000000
26.968600 0.000000
26.991300 0.000000
27.014000 0.000000
27.036700 0.000000
27.059400 0.000000
27.082100 0.000000
27.104800 0.000000
27.127500 0.000000
27.150200 0.000000
27.172900 0.000000
27.195600 0.000000
27.218300 0.000000
27.241000 0.000000
27.263600 0.000000
27.286300 0.000000
27.309000 0.000000
27.331700 0.000000
27.354400 0.000000
27.377100 0.000000
27.399800 0.000000
27.422500 0.000000
27.445200 0.000000
27.467900 0.000000
27.490600 0.000000
27.513300 0.000000
27.536000 0.000000
27.558700 0.000000
27.581400 0.000000
27.604000 0.000000
27.626700 0.000000
27.649400 0.000000
27.672100 0.000000
27.694800 0.000000
27.717500 0.000000
27.740200 0.000000
27.762900 0.000000
27.785600 0.000000
27.808300 0.000000
27.831000 0.000000
27.853700 0.000000
27.876400 0.000000
27.899100 0.000000
27.921800 0.000000
27.944400 0.000000
27.967100 0.000000
27.989800 0.000000
28.012500 0.000000
28.035200 0.000000
e
