set title 'mp-1056004 - Density of States'
set xlabel 'Energy (eV)'
set ylabel 'DOS (states/eV)'
set grid
set xrange [-10:10]
set yrange [0:2.226]
set xzeroaxis lt -1
set terminal png size 800,600
set output 'mp-1056004_dos_gnuplot.png'
plot '-' using 1:2 with lines title 'DOS'
-31.811200 0.000000
-31.775200 0.000000
-31.739300 0.000000
-31.703400 0.000000
-31.667400 0.000000
-31.631500 0.000000
-31.595500 0.000000
-31.559600 0.000000
-31.523600 0.000000
-31.487700 0.000000
-31.451700 0.000000
-31.415800 0.000000
-31.379900 0.000000
-31.343900 0.000000
-31.308000 0.000000
-31.272000 0.000000
-31.236100 0.000000
-31.200100 0.000000
-31.164200 0.000000
-31.128200 0.000000
-31.092300 0.000000
-31.056400 0.000000
-31.020400 0.000000
-30.984500 0.000000
-30.948500 0.000000
-30.912600 0.000000
-30.876600 0.000000
-30.840700 0.000000
-30.804800 0.000000
-30.768800 0.000000
-30.732900 0.000000
-30.696900 0.000000
-30.661000 0.000000
-30.625000 0.000000
-30.589100 0.000000
-30.553100 0.000000
-30.517200 0.000000
-30.481300 0.000000
-30.445300 0.000000
-30.409400 0.000000
-30.373400 0.000000
-30.337500 0.000000
-30.301500 0.000000
-30.265600 0.000000
-30.229700 0.000000
-30.193700 0.000000
-30.157800 0.000000
-30.121800 0.000000
-30.085900 0.000000
-30.049900 0.000000
-30.014000 0.000000
-29.978000 0.000000
-29.942100 0.000000
-29.906200 0.000000
-29.870200 0.000000
-29.834300 0.000000
-29.798300 0.000000
-29.762400 0.000000
-29.726400 0.000000
-29.690500 0.000000
-29.654600 0.000000
-29.618600 0.000000
-29.582700 0.000000
-29.546700 0.000000
-29.510800 0.000000
-29.474800 0.000000
-29.438900 0.000000
-29.402900 0.000000
-29.367000 0.000000
-29.331100 0.000000
-29.295100 0.000000
-29.259200 0.000000
-29.223200 0.000000
-29.187300 0.000000
-29.151300 0.000000
-29.115400 0.000000
-29.079500 0.000000
-29.043500 0.000000
-29.007600 0.000000
-28.971600 0.000000
-28.935700 0.000000
-28.899700 0.000000
-28.863800 0.000000
-28.827800 0.000000
-28.791900 0.000000
-28.756000 0.000000
-28.720000 0.000000
-28.684100 0.000000
-28.648100 0.000000
-28.612200 0.000000
-28.576200 0.000000
-28.540300 0.025100
-28.504400 0.347500
-28.468400 0.544100
-28.432500 0.760500
-28.396500 1.011900
-28.360600 1.412000
-28.324600 2.605600
-28.288700 2.172800
-28.252700 1.669900
-28.216800 1.324700
-28.180900 1.247400
-28.144900 1.171600
-28.109000 1.368000
-28.073000 1.811000
-28.037100 2.198900
-28.001100 2.548800
-27.965200 3.083800
-27.929300 3.541600
-27.893300 3.977600
-27.857400 4.364000
-27.821400 4.817400
-27.785500 4.578400
-27.749500 3.801500
-27.713600 3.969500
-27.677600 4.178800
-27.641700 3.483700
-27.605800 2.964600
-27.569800 2.761400
-27.533900 2.748200
-27.497900 2.924000
-27.462000 3.102200
-27.426000 3.192000
-27.390100 3.717200
-27.354100 3.590100
-27.318200 3.896600
-27.282300 4.220100
-27.246300 4.950800
-27.210400 6.172400
-27.174400 5.531900
-27.138500 5.796700
-27.102500 6.018000
-27.066600 6.551900
-27.030700 5.438200
-26.994700 4.956200
-26.958800 4.642700
-26.922800 3.545000
-26.886900 2.968900
-26.850900 2.513600
-26.815000 2.077500
-26.779000 1.332400
-26.743100 1.569800
-26.707200 2.029400
-26.671200 2.047500
-26.635300 2.121300
-26.599300 1.031700
-26.563400 0.000000
-26.527400 0.000000
-26.491500 0.000000
-26.455600 0.000000
-26.419600 0.000000
-26.383700 0.000000
-26.347700 0.000000
-26.311800 0.000000
-26.275800 0.000000
-26.239900 0.000000
-26.203900 0.000000
-26.168000 0.000000
-26.132100 0.000000
-26.096100 0.000000
-26.060200 0.000000
-26.024200 0.000000
-25.988300 0.000000
-25.952300 0.000000
-25.916400 0.000000
-25.880500 0.000000
-25.844500 0.000000
-25.808600 0.000000
-25.772600 0.000000
-25.736700 0.000000
-25.700700 0.000000
-25.664800 0.000000
-25.628800 0.000000
-25.592900 0.000000
-25.557000 0.000000
-25.521000 0.000000
-25.485100 0.000000
-25.449100 0.000000
-25.413200 0.000000
-25.377200 0.000000
-25.341300 0.000000
-25.305400 0.000000
-25.269400 0.000000
-25.233500 0.000000
-25.197500 0.000000
-25.161600 0.000000
-25.125600 0.000000
-25.089700 0.000000
-25.053700 0.000000
-25.017800 0.000000
-24.981900 0.000000
-24.945900 0.000000
-24.910000 0.000000
-24.874000 0.000000
-24.838100 0.000000
-24.802100 0.000000
-24.766200 0.000000
-24.730300 0.000000
-24.694300 0.000000
-24.658400 0.000000
-24.622400 0.000000
-24.586500 0.000000
-24.550500 0.000000
-24.514600 0.000000
-24.478600 0.000000
-24.442700 0.000000
-24.406800 0.000000
-24.370800 0.000000
-24.334900 0.000000
-24.298900 0.000000
-24.263000 0.000000
-24.227000 0.000000
-24.191100 0.000000
-24.155200 0.000000
-24.119200 0.000000
-24.083300 0.000000
-24.047300 0.000000
-24.011400 0.000000
-23.975400 0.000000
-23.939500 0.000000
-23.903500 0.000000
-23.867600 0.000000
-23.831700 0.000000
-23.795700 0.000000
-23.759800 0.000000
-23.723800 0.000000
-23.687900 0.000000
-23.651900 0.000000
-23.616000 0.000000
-23.580100 0.000000
-23.544100 0.000000
-23.508200 0.000000
-23.472200 0.000000
-23.436300 0.000000
-23.400300 0.000000
-23.364400 0.000000
-23.328400 0.000000
-23.292500 0.000000
-23.256600 0.000000
-23.220600 0.000000
-23.184700 0.000000
-23.148700 0.000000
-23.112800 0.000000
-23.076800 0.000000
-23.040900 0.000000
-23.004900 0.000000
-22.969000 0.000000
-22.933100 0.000000
-22.897100 0.000000
-22.861200 0.000000
-22.825200 0.000000
-22.789300 0.000000
-22.753300 0.000000
-22.717400 0.000000
-22.681500 0.000000
-22.645500 0.000000
-22.609600 0.000000
-22.573600 0.000000
-22.537700 0.000000
-22.501700 0.000000
-22.465800 0.000000
-22.429800 0.000000
-22.393900 0.000000
-22.358000 0.000000
-22.322000 0.000000
-22.286100 0.000000
-22.250100 0.000000
-22.214200 0.000000
-22.178200 0.000000
-22.142300 0.000000
-22.106400 0.000000
-22.070400 0.000000
-22.034500 0.000000
-21.998500 0.000000
-21.962600 0.000000
-21.926600 0.000000
-21.890700 0.000000
-21.854700 0.000000
-21.818800 0.000000
-21.782900 0.000000
-21.746900 0.000000
-21.711000 0.000000
-21.675000 0.000000
-21.639100 0.000000
-21.603100 0.000000
-21.567200 0.000000
-21.531300 0.000000
-21.495300 0.000000
-21.459400 0.000000
-21.423400 0.000000
-21.387500 0.000000
-21.351500 0.000000
-21.315600 0.000000
-21.279600 0.000000
-21.243700 0.000000
-21.207800 0.000000
-21.171800 0.000000
-21.135900 0.000000
-21.099900 0.000000
-21.064000 0.000000
-21.028000 0.000000
-20.992100 0.000000
-20.956200 0.000000
-20.920200 0.000000
-20.884300 0.000000
-20.848300 0.000000
-20.812400 0.000000
-20.776400 0.000000
-20.740500 0.000000
-20.704500 0.000000
-20.668600 0.000000
-20.632700 0.000000
-20.596700 0.000000
-20.560800 0.000000
-20.524800 0.000000
-20.488900 0.000000
-20.452900 0.000000
-20.417000 0.000000
-20.381100 0.000000
-20.345100 0.000000
-20.309200 0.000000
-20.273200 0.000000
-20.237300 0.000000
-20.201300 0.000000
-20.165400 0.000000
-20.129400 0.000000
-20.093500 0.000000
-20.057600 0.000000
-20.021600 0.000000
-19.985700 0.000000
-19.949700 0.000000
-19.913800 0.000000
-19.877800 0.000000
-19.841900 0.000000
-19.806000 0.000000
-19.770000 0.000000
-19.734100 0.000000
-19.698100 0.000000
-19.662200 0.000000
-19.626200 0.000000
-19.590300 0.000000
-19.554300 0.000000
-19.518400 0.000000
-19.482500 0.000000
-19.446500 0.000000
-19.410600 0.000000
-19.374600 0.000000
-19.338700 0.000000
-19.302700 0.000000
-19.266800 0.000000
-19.230800 0.000000
-19.194900 0.000000
-19.159000 0.000000
-19.123000 0.000000
-19.087100 0.000000
-19.051100 0.000000
-19.015200 0.000000
-18.979200 0.000000
-18.943300 0.000000
-18.907400 0.000000
-18.871400 0.000000
-18.835500 0.000000
-18.799500 0.000000
-18.763600 0.000000
-18.727600 0.000000
-18.691700 0.000000
-18.655700 0.000000
-18.619800 0.000000
-18.583900 0.000000
-18.547900 0.000000
-18.512000 0.000000
-18.476000 0.000000
-18.440100 0.000000
-18.404100 0.000000
-18.368200 0.000000
-18.332300 0.000000
-18.296300 0.000000
-18.260400 0.000000
-18.224400 0.000000
-18.188500 0.000000
-18.152500 0.000000
-18.116600 0.000000
-18.080600 0.000000
-18.044700 0.000000
-18.008800 0.000000
-17.972800 0.000000
-17.936900 0.000000
-17.900900 0.000000
-17.865000 0.000000
-17.829000 0.000000
-17.793100 0.000000
-17.757200 0.000000
-17.721200 0.000000
-17.685300 0.000000
-17.649300 0.000000
-17.613400 0.000000
-17.577400 0.000000
-17.541500 0.000000
-17.505500 0.000000
-17.469600 0.000000
-17.433700 0.000000
-17.397700 0.000000
-17.361800 0.000000
-17.325800 0.000000
-17.289900 0.000000
-17.253900 0.000000
-17.218000 0.000000
-17.182100 0.000000
-17.146100 0.000000
-17.110200 0.000000
-17.074200 0.000000
-17.038300 0.000000
-17.002300 0.000000
-16.966400 0.000000
-16.930400 0.000000
-16.894500 0.000000
-16.858600 0.000000
-16.822600 0.000000
-16.786700 0.000000
-16.750700 0.000000
-16.714800 0.000000
-16.678800 0.000000
-16.642900 0.000000
-16.607000 0.000000
-16.571000 0.000000
-16.535100 0.000000
-16.499100 0.000000
-16.463200 0.000000
-16.427200 0.000000
-16.391300 0.000000
-16.355300 0.000000
-16.319400 0.000000
-16.283500 0.000000
-16.247500 0.000000
-16.211600 0.000000
-16.175600 0.000000
-16.139700 0.000000
-16.103700 0.000000
-16.067800 0.000000
-16.031900 0.000000
-15.995900 0.000000
-15.960000 0.000000
-15.924000 0.000000
-15.888100 0.000000
-15.852100 0.000000
-15.816200 0.000000
-15.780200 0.000000
-15.744300 0.000000
-15.708400 0.000000
-15.672400 0.000000
-15.636500 0.000000
-15.600500 0.000000
-15.564600 0.000000
-15.528600 0.000000
-15.492700 0.000000
-15.456800 0.000000
-15.420800 0.000000
-15.384900 0.000000
-15.348900 0.000000
-15.313000 0.000000
-15.277000 0.000000
-15.241100 0.000000
-15.205100 0.000000
-15.169200 0.000000
-15.133300 0.000000
-15.097300 0.000000
-15.061400 0.000000
-15.025400 0.000000
-14.989500 0.000000
-14.953500 0.000000
-14.917600 0.000000
-14.881600 0.000000
-14.845700 0.000000
-14.809800 0.000000
-14.773800 0.000000
-14.737900 0.000000
-14.701900 0.000000
-14.666000 0.000000
-14.630000 0.000000
-14.594100 0.000000
-14.558200 0.000000
-14.522200 0.000000
-14.486300 0.000000
-14.450300 0.000000
-14.414400 0.000000
-14.378400 0.000000
-14.342500 0.000000
-14.306500 0.000000
-14.270600 0.000000
-14.234700 0.000000
-14.198700 0.000000
-14.162800 0.000000
-14.126800 0.000000
-14.090900 0.000000
-14.054900 0.000000
-14.019000 0.000000
-13.983100 0.000000
-13.947100 0.000000
-13.911200 0.000000
-13.875200 0.000000
-13.839300 0.000000
-13.803300 0.000000
-13.767400 0.000000
-13.731400 0.000000
-13.695500 0.000000
-13.659600 0.000000
-13.623600 0.000000
-13.587700 0.000000
-13.551700 0.000000
-13.515800 0.000000
-13.479800 0.000000
-13.443900 0.000000
-13.408000 0.000000
-13.372000 0.000000
-13.336100 0.000000
-13.300100 0.000000
-13.264200 0.000000
-13.228200 0.000000
-13.192300 0.000000
-13.156300 0.000000
-13.120400 0.000000
-13.084500 0.000000
-13.048500 0.000000
-13.012600 0.000000
-12.976600 0.000000
-12.940700 0.000000
-12.904700 0.000000
-12.868800 0.000000
-12.832900 0.000000
-12.796900 0.000000
-12.761000 0.000000
-12.725000 0.000000
-12.689100 0.000000
-12.653100 0.000000
-12.617200 0.000000
-12.581200 0.000000
-12.545300 0.000000
-12.509400 0.000000
-12.473400 0.000000
-12.437500 0.000000
-12.401500 0.000000
-12.365600 0.000000
-12.329600 0.000000
-12.293700 0.000000
-12.257800 0.000000
-12.221800 0.000000
-12.185900 0.000000
-12.149900 0.000000
-12.114000 0.000000
-12.078000 0.000000
-12.042100 0.000000
-12.006100 0.000000
-11.970200 0.000000
-11.934300 0.000000
-11.898300 0.000000
-11.862400 0.000000
-11.826400 0.000000
-11.790500 0.000000
-11.754500 0.000000
-11.718600 0.000000
-11.682700 0.000000
-11.646700 0.000000
-11.610800 0.000000
-11.574800 0.000000
-11.538900 0.000000
-11.502900 0.000000
-11.467000 0.000000
-11.431000 0.000000
-11.395100 0.000000
-11.359200 0.000000
-11.323200 0.000000
-11.287300 0.000000
-11.251300 0.000000
-11.215400 0.000000
-11.179400 0.000000
-11.143500 0.000000
-11.107500 0.000000
-11.071600 0.000000
-11.035700 0.000000
-10.999700 0.000000
-10.963800 0.000000
-10.927800 0.000000
-10.891900 0.000000
-10.855900 0.000000
-10.820000 0.000000
-10.784100 0.000000
-10.748100 0.000000
-10.712200 0.000000
-10.676200 0.000000
-10.640300 0.000000
-10.604300 0.000000
-10.568400 0.000000
-10.532400 0.000000
-10.496500 0.000000
-10.460600 0.000000
-10.424600 0.000000
-10.388700 0.000000
-10.352700 0.000000
-10.316800 0.000000
-10.280800 0.000000
-10.244900 0.000000
-10.209000 0.000000
-10.173000 0.000000
-10.137100 0.000000
-10.101100 0.000000
-10.065200 0.000000
-10.029200 0.000000
-9.993300 0.000000
-9.957300 0.000000
-9.921400 0.000000
-9.885500 0.000000
-9.849500 0.000000
-9.813600 0.000000
-9.777600 0.000000
-9.741700 0.000000
-9.705700 0.000000
-9.669800 0.000000
-9.633900 0.000000
-9.597900 0.000000
-9.562000 0.000000
-9.526000 0.000000
-9.490100 0.000000
-9.454100 0.000000
-9.418200 0.000000
-9.382200 0.000000
-9.346300 0.000000
-9.310400 0.000000
-9.274400 0.000000
-9.238500 0.000000
-9.202500 0.000000
-9.166600 0.000000
-9.130600 0.000000
-9.094700 0.000000
-9.058800 0.000000
-9.022800 0.000000
-8.986900 0.000000
-8.950900 0.000000
-8.915000 0.000000
-8.879000 0.000000
-8.843100 0.000000
-8.807100 0.000000
-8.771200 0.000000
-8.735300 0.000000
-8.699300 0.000000
-8.663400 0.000000
-8.627400 0.000000
-8.591500 0.000000
-8.555500 0.000000
-8.519600 0.000000
-8.483700 0.000000
-8.447700 0.000000
-8.411800 0.000000
-8.375800 0.000000
-8.339900 0.000000
-8.303900 0.000000
-8.268000 0.000000
-8.232000 0.000000
-8.196100 0.000000
-8.160200 0.000000
-8.124200 0.000000
-8.088300 0.000000
-8.052300 0.000000
-8.016400 0.000000
-7.980400 0.000000
-7.944500 0.000000
-7.908600 0.000000
-7.872600 0.000000
-7.836700 0.000000
-7.800700 0.000000
-7.764800 0.000000
-7.728800 0.000000
-7.692900 0.000000
-7.656900 0.000000
-7.621000 0.000000
-7.585100 0.000000
-7.549100 0.000000
-7.513200 0.000000
-7.477200 0.000000
-7.441300 0.000000
-7.405300 0.000000
-7.369400 0.000000
-7.333500 0.000000
-7.297500 0.000000
-7.261600 0.000000
-7.225600 0.000000
-7.189700 0.000000
-7.153700 0.000000
-7.117800 0.000000
-7.081800 0.000000
-7.045900 0.000000
-7.010000 0.000000
-6.974000 0.000000
-6.938100 0.000000
-6.902100 0.000000
-6.866200 0.000000
-6.830200 0.000000
-6.794300 0.000000
-6.758300 0.000000
-6.722400 0.000000
-6.686500 0.000000
-6.650500 0.000000
-6.614600 0.000000
-6.578600 0.000000
-6.542700 0.000000
-6.506700 0.000000
-6.470800 0.000000
-6.434900 0.000000
-6.398900 0.000000
-6.363000 0.000000
-6.327000 0.000000
-6.291100 0.000000
-6.255100 0.000000
-6.219200 0.000000
-6.183200 0.000000
-6.147300 0.000000
-6.111400 0.000000
-6.075400 0.000000
-6.039500 0.000000
-6.003500 0.000000
-5.967600 0.000000
-5.931600 0.000000
-5.895700 0.000000
-5.859800 0.000000
-5.823800 0.000000
-5.787900 0.000000
-5.751900 0.000000
-5.716000 0.000000
-5.680000 0.000000
-5.644100 0.000000
-5.608100 0.000000
-5.572200 0.000000
-5.536300 0.000000
-5.500300 0.000000
-5.464400 0.000000
-5.428400 0.000000
-5.392500 0.000000
-5.356500 0.000000
-5.320600 0.000000
-5.284700 0.000000
-5.248700 0.000000
-5.212800 0.000000
-5.176800 0.000000
-5.140900 0.000000
-5.104900 0.000000
-5.069000 0.000000
-5.033000 0.000000
-4.997100 0.000000
-4.961200 0.000000
-4.925200 0.000000
-4.889300 0.000000
-4.853300 0.000000
-4.817400 0.000000
-4.781400 0.000000
-4.745500 0.000000
-4.709600 0.000000
-4.673600 0.000000
-4.637700 0.000000
-4.601700 0.000000
-4.565800 0.000000
-4.529800 0.000000
-4.493900 0.000000
-4.457900 0.000000
-4.422000 0.000000
-4.386100 0.000000
-4.350100 0.000000
-4.314200 0.000000
-4.278200 0.000000
-4.242300 0.000000
-4.206300 0.000000
-4.170400 0.000000
-4.134500 0.000000
-4.098500 0.000000
-4.062600 0.000000
-4.026600 0.000000
-3.990700 0.000000
-3.954700 0.000000
-3.918800 0.000000
-3.882800 0.000000
-3.846900 0.000000
-3.811000 0.000000
-3.775000 0.000000
-3.739100 0.000000
-3.703100 0.000000
-3.667200 0.000000
-3.631200 0.000000
-3.595300 0.000000
-3.559400 0.000000
-3.523400 0.000000
-3.487500 0.000000
-3.451500 0.000000
-3.415600 0.000000
-3.379600 0.000000
-3.343700 0.000000
-3.307700 0.000000
-3.271800 0.000000
-3.235900 0.000000
-3.199900 0.000000
-3.164000 0.000000
-3.128000 0.000000
-3.092100 0.000000
-3.056100 0.000000
-3.020200 0.000000
-2.984200 0.000000
-2.948300 0.000000
-2.912400 0.000000
-2.876400 0.000000
-2.840500 0.000000
-2.804500 0.000000
-2.768600 0.000000
-2.732600 0.000000
-2.696700 0.000000
-2.660800 0.000000
-2.624800 0.000000
-2.588900 0.000000
-2.552900 0.000000
-2.517000 0.000000
-2.481000 0.000000
-2.445100 0.000000
-2.409100 0.000000
-2.373200 0.000000
-2.337300 0.000000
-2.301300 0.000000
-2.265400 0.000000
-2.229400 0.000000
-2.193500 0.000000
-2.157500 0.000000
-2.121600 0.000000
-2.085700 0.000000
-2.049700 0.000000
-2.013800 0.000000
-1.977800 0.000000
-1.941900 0.000000
-1.905900 0.000000
-1.870000 0.000000
-1.834000 0.000000
-1.798100 0.000000
-1.762200 0.000000
-1.726200 0.000000
-1.690300 0.000000
-1.654300 0.000000
-1.618400 0.000000
-1.582400 0.000000
-1.546500 0.000000
-1.510600 0.000000
-1.474600 0.000000
-1.438700 0.000000
-1.402700 0.000000
-1.366800 0.000000
-1.330800 0.000000
-1.294900 0.000000
-1.258900 0.000000
-1.223000 0.000000
-1.187100 0.000000
-1.151100 0.000000
-1.115200 0.000000
-1.079200 0.000000
-1.043300 0.000000
-1.007300 0.000000
-0.971400 0.000000
-0.935500 0.000000
-0.899500 0.000000
-0.863600 0.000000
-0.827600 0.000000
-0.791700 0.000000
-0.755700 0.000000
-0.719800 0.000000
-0.683800 0.000000
-0.647900 0.000000
-0.612000 0.000000
-0.576000 0.000000
-0.540100 0.000000
-0.504100 0.000000
-0.468200 0.000000
-0.432200 0.000000
-0.396300 0.000000
-0.360400 0.000000
-0.324400 0.000000
-0.288500 0.000000
-0.252500 0.000000
-0.216600 0.000000
-0.180600 0.000000
-0.144700 0.000000
-0.108700 0.000000
-0.072800 0.000000
-0.036900 0.000000
-0.000900 0.000000
0.035000 0.000000
0.071000 0.000000
0.106900 0.000000
0.142900 0.000000
0.178800 0.000000
0.214700 0.000000
0.250700 0.000000
0.286600 0.000000
0.322600 0.000000
0.358500 0.000000
0.394500 0.000000
0.430400 0.000000
0.466400 0.000000
0.502300 0.000000
0.538200 0.000000
0.574200 0.000000
0.610100 0.000000
0.646100 0.000000
0.682000 0.000000
0.718000 0.000000
0.753900 0.000000
0.789800 0.000000
0.825800 0.000000
0.861700 0.005700
0.897700 0.017800
0.933600 0.019900
0.969600 0.023400
1.005500 0.028200
1.041500 0.032700
1.077400 0.035100
1.113300 0.037200
1.149300 0.039800
1.185200 0.042900
1.221200 0.045900
1.257100 0.048800
1.293100 0.051500
1.329000 0.053800
1.365000 0.056100
1.400900 0.058500
1.436800 0.060800
1.472800 0.063300
1.508700 0.066000
1.544700 0.068600
1.580600 0.071200
1.616600 0.073900
1.652500 0.076300
1.688400 0.078600
1.724400 0.081100
1.760300 0.083800
1.796300 0.086500
1.832200 0.089100
1.868200 0.091800
1.904100 0.094500
1.940100 0.097300
1.976000 0.100300
2.011900 0.103300
2.047900 0.106200
2.083800 0.109300
2.119800 0.112400
2.155700 0.115600
2.191700 0.118800
2.227600 0.122100
2.263500 0.125600
2.299500 0.129200
2.335400 0.133000
2.371400 0.155100
2.407300 0.216200
2.443300 0.247400
2.479200 0.271000
2.515200 0.296200
2.551100 0.327200
2.587000 0.347700
2.623000 0.367100
2.658900 0.388400
2.694900 0.412500
2.730800 0.437300
2.766800 0.463600
2.802700 0.498600
2.838600 0.586200
2.874600 0.668900
2.910500 0.729500
2.946500 0.808800
2.982400 0.906000
3.018400 0.991800
3.054300 1.054600
3.090300 1.077900
3.126200 1.078600
3.162100 1.092700
3.198100 1.094200
3.234000 1.094700
3.270000 1.107300
3.305900 1.137800
3.341900 1.162500
3.377800 1.181500
3.413700 1.198300
3.449700 1.222600
3.485600 1.247500
3.521600 1.291700
3.557500 1.348300
3.593500 1.392400
3.629400 1.440800
3.665400 1.494800
3.701300 1.506900
3.737200 1.542100
3.773200 1.482500
3.809100 1.465800
3.845100 1.420600
3.881000 1.431200
3.917000 1.492800
3.952900 1.393300
3.988800 1.331100
4.024800 1.299300
4.060700 1.286900
4.096700 1.279600
4.132600 1.286000
4.168600 1.294400
4.204500 1.302500
4.240500 1.382200
4.276400 1.433800
4.312300 1.434000
4.348300 1.397400
4.384200 1.402900
4.420200 1.434200
4.456100 1.435400
4.492100 1.431100
4.528000 1.394700
4.563900 1.415400
4.599900 1.413200
4.635800 1.401300
4.671800 1.364800
4.707700 1.359500
4.743700 1.389200
4.779600 1.399900
4.815600 1.395400
4.851500 1.458700
4.887400 1.551100
4.923400 1.671300
4.959300 1.756500
4.995300 2.023300
5.031200 1.979500
5.067200 1.740700
5.103100 1.560200
5.139100 1.456400
5.175000 1.395100
5.210900 1.312700
5.246900 1.252000
5.282800 1.236600
5.318800 1.238500
5.354700 1.191800
5.390700 1.114800
5.426600 1.057500
5.462500 1.012400
5.498500 0.983300
5.534400 1.000800
5.570400 0.961700
5.606300 0.960700
5.642300 1.008700
5.678200 1.100600
5.714200 1.117800
5.750100 1.138700
5.786000 1.164100
5.822000 1.240000
5.857900 1.167800
5.893900 1.154100
5.929800 1.134400
5.965800 1.128800
6.001700 1.122100
6.037600 1.097800
6.073600 1.078400
6.109500 1.080800
6.145500 1.101600
6.181400 1.121600
6.217400 1.154800
6.253300 1.126300
6.289300 1.109700
6.325200 1.098000
6.361100 1.089800
6.397100 1.081400
6.433000 1.061000
6.469000 1.050200
6.504900 1.069100
6.540900 1.100400
6.576800 1.108300
6.612700 1.134200
6.648700 1.206500
6.684600 1.173100
6.720600 1.169000
6.756500 1.193100
6.792500 1.226300
6.828400 1.258300
6.864400 1.263600
6.900300 1.271700
6.936200 1.285200
6.972200 1.285300
7.008100 1.288900
7.044100 1.303800
7.080000 1.259400
7.116000 1.234800
7.151900 1.224000
7.187800 1.241800
7.223800 1.325000
7.259700 1.253000
7.295700 1.172900
7.331600 1.121700
7.367600 0.973900
7.403500 0.921200
7.439500 0.855300
7.475400 0.830300
7.511300 0.834000
7.547300 0.856600
7.583200 0.870400
7.619200 0.879600
7.655100 0.882900
7.691100 0.892800
7.727000 0.936200
7.762900 1.057700
7.798900 1.075900
7.834800 1.044300
7.870800 0.949600
7.906700 1.015800
7.942700 1.056100
7.978600 1.051400
8.014600 0.992900
8.050500 0.957900
8.086400 0.954200
8.122400 0.933400
8.158300 0.930600
8.194300 1.000900
8.230200 1.084100
8.266200 1.175800
8.302100 1.305500
8.338000 1.289400
8.374000 1.320100
8.409900 1.404000
8.445900 1.393400
8.481800 1.338100
8.517800 1.286600
8.553700 1.241000
8.589700 1.183700
8.625600 1.176100
8.661500 1.185600
8.697500 1.199900
8.733400 1.221500
8.769400 1.233500
8.805300 1.242800
8.841300 1.246000
8.877200 1.256200
8.913100 1.280400
8.949100 1.331100
8.985000 1.432200
9.021000 1.591100
9.056900 1.783800
9.092900 1.829000
9.128800 1.844900
9.164800 1.841400
9.200700 1.788500
9.236600 1.707400
9.272600 1.644600
9.308500 1.571600
9.344500 1.513000
9.380400 1.454300
9.416400 1.370500
9.452300 1.256400
9.488300 1.209200
9.524200 1.171100
9.560100 1.152300
9.596100 1.147500
9.632000 1.147900
9.668000 1.150600
9.703900 1.159200
9.739900 1.186800
9.775800 1.242000
9.811700 1.309500
9.847700 1.258900
9.883600 1.239800
9.919600 1.236300
9.955500 1.227500
9.991500 1.178200
10.027400 1.158700
10.063400 1.143000
10.099300 1.137100
10.135200 1.140600
10.171200 1.116700
10.207100 1.093600
10.243100 1.076200
10.279000 1.073900
10.315000 1.075000
10.350900 1.069500
10.386800 1.074700
10.422800 1.085800
10.458700 1.071000
10.494700 1.071700
10.530600 1.077800
10.566600 1.104700
10.602500 1.110600
10.638500 1.026800
10.674400 0.977700
10.710300 0.965300
10.746300 0.967500
10.782200 1.024900
10.818200 1.049500
10.854100 1.035700
10.890100 1.027700
10.926000 0.999500
10.961900 0.967400
10.997900 0.964900
11.033800 0.973500
11.069800 0.943100
11.105700 0.915100
11.141700 0.877800
11.177600 0.843700
11.213600 0.819300
11.249500 0.798000
11.285400 0.774600
11.321400 0.749600
11.357300 0.725000
11.393300 0.708100
11.429200 0.689400
11.465200 0.679900
11.501100 0.644800
11.537000 0.588500
11.573000 0.564000
11.608900 0.547800
11.644900 0.527300
11.680800 0.508500
11.716800 0.491400
11.752700 0.475700
11.788700 0.461300
11.824600 0.450500
11.860500 0.430800
11.896500 0.427500
11.932400 0.424700
11.968400 0.422100
12.004300 0.419100
12.040300 0.416200
12.076200 0.414200
12.112100 0.412500
12.148100 0.411000
12.184000 0.410100
12.220000 0.410000
12.255900 0.411000
12.291900 0.414500
12.327800 0.417700
12.363800 0.417700
12.399700 0.415400
12.435600 0.411800
12.471600 0.408000
12.507500 0.404300
12.543500 0.402000
12.579400 0.402800
12.615400 0.405000
12.651300 0.407500
12.687200 0.410700
12.723200 0.412100
12.759100 0.416400
12.795100 0.424600
12.831000 0.435700
12.867000 0.447000
12.902900 0.434900
12.938900 0.416200
12.974800 0.390800
13.010700 0.358200
13.046700 0.324900
13.082600 0.306400
13.118600 0.292100
13.154500 0.282100
13.190500 0.273600
13.226400 0.265900
13.262400 0.259900
13.298300 0.256800
13.334200 0.254700
13.370200 0.253600
13.406100 0.252900
13.442100 0.252300
13.478000 0.251700
13.514000 0.251300
13.549900 0.251100
13.585800 0.251000
13.621800 0.250900
13.657700 0.250600
13.693700 0.250200
13.729600 0.249600
13.765600 0.249000
13.801500 0.248400
13.837500 0.247700
13.873400 0.247000
13.909300 0.246800
13.945300 0.247300
13.981200 0.246800
14.017200 0.246200
14.053100 0.245300
14.089100 0.244800
14.125000 0.246000
14.160900 0.248400
14.196900 0.249800
14.232800 0.244900
14.268800 0.234400
14.304700 0.228700
14.340700 0.224200
14.376600 0.219900
14.412600 0.215600
14.448500 0.211500
14.484400 0.207600
14.520400 0.204000
14.556300 0.200600
14.592300 0.197500
14.628200 0.194600
14.664200 0.192000
14.700100 0.189600
14.736000 0.187500
14.772000 0.184900
14.807900 0.182400
14.843900 0.182500
14.879800 0.187300
14.915800 0.191300
14.951700 0.186300
14.987700 0.182800
15.023600 0.179800
15.059500 0.178600
15.095500 0.178000
15.131400 0.177200
15.167400 0.176300
15.203300 0.176700
15.239300 0.175400
15.275200 0.174400
15.311100 0.172200
15.347100 0.172000
15.383000 0.171200
15.419000 0.170500
15.454900 0.170200
15.490900 0.170200
15.526800 0.170500
15.562800 0.171200
15.598700 0.172000
15.634600 0.192200
15.670600 0.192700
15.706500 0.198400
15.742500 0.205600
15.778400 0.212800
15.814400 0.220100
15.850300 0.226400
15.886200 0.227200
15.922200 0.230700
15.958100 0.236300
15.994100 0.243300
16.030000 0.250400
16.066000 0.257800
16.101900 0.263900
16.137900 0.269300
16.173800 0.279500
16.209700 0.289400
16.245700 0.300800
16.281600 0.305400
16.317600 0.310900
16.353500 0.314900
16.389500 0.322400
16.425400 0.333000
16.461300 0.345900
16.497300 0.357900
16.533200 0.369600
16.569200 0.382600
16.605100 0.400600
16.641100 0.436900
16.677000 0.447300
16.713000 0.465500
16.748900 0.482300
16.784800 0.500600
16.820800 0.518500
16.856700 0.585000
16.892700 0.515700
16.928600 0.519800
16.964600 0.539700
17.000500 0.544200
17.036400 0.501200
17.072400 0.487800
17.108300 0.475400
17.144300 0.465900
17.180200 0.463200
17.216200 0.463200
17.252100 0.465600
17.288100 0.470400
17.324000 0.480200
17.359900 0.486800
17.395900 0.493700
17.431800 0.501700
17.467800 0.509700
17.503700 0.518900
17.539700 0.530000
17.575600 0.543000
17.611600 0.557600
17.647500 0.594000
17.683400 0.657600
17.719400 0.757200
17.755300 0.988200
17.791300 0.827800
17.827200 0.632300
17.863200 0.595400
17.899100 0.568500
17.935000 0.543400
17.971000 0.528500
18.006900 0.516900
18.042900 0.508000
18.078800 0.501000
18.114800 0.492800
18.150700 0.485100
18.186700 0.477900
18.222600 0.470500
18.258500 0.466000
18.294500 0.461800
18.330400 0.457800
18.366400 0.453700
18.402300 0.449400
18.438300 0.446300
18.474200 0.443500
18.510100 0.440900
18.546100 0.438500
18.582000 0.436600
18.618000 0.434900
18.653900 0.433000
18.689900 0.431100
18.725800 0.428900
18.761800 0.426500
18.797700 0.424400
18.833600 0.422400
18.869600 0.420600
18.905500 0.419500
18.941500 0.418300
18.977400 0.416900
19.013400 0.415400
19.049300 0.413900
19.085200 0.411900
19.121200 0.409600
19.157100 0.406600
19.193100 0.402800
19.229000 0.400800
19.265000 0.394300
19.300900 0.379100
19.336900 0.373500
19.372800 0.369800
19.408700 0.366600
19.444700 0.363600
19.480600 0.360700
19.516600 0.357800
19.552500 0.355000
19.588500 0.352400
19.624400 0.350000
19.660300 0.347900
19.696300 0.345600
19.732200 0.343000
19.768200 0.340500
19.804100 0.338200
19.840100 0.336100
19.876000 0.334400
19.912000 0.332900
19.947900 0.331500
19.983800 0.329900
20.019800 0.328600
20.055700 0.327700
20.091700 0.327000
20.127600 0.326300
20.163600 0.325600
20.199500 0.325300
20.235400 0.325100
20.271400 0.325100
20.307300 0.325000
20.343300 0.324800
20.379200 0.324700
20.415200 0.324400
20.451100 0.324300
20.487100 0.324500
20.523000 0.324900
20.558900 0.325300
20.594900 0.325800
20.630800 0.326400
20.666800 0.327500
20.702700 0.327700
20.738700 0.329100
20.774600 0.331600
20.810500 0.335200
20.846500 0.339300
20.882400 0.342800
20.918400 0.346300
20.954300 0.346100
20.990300 0.345500
21.026200 0.345000
21.062200 0.345400
21.098100 0.345000
21.134000 0.346500
21.170000 0.349700
21.205900 0.354800
21.241900 0.361300
21.277800 0.369600
21.313800 0.371100
21.349700 0.374800
21.385700 0.379500
21.421600 0.386400
21.457500 0.393100
21.493500 0.404900
21.529400 0.452700
21.565400 0.517700
21.601300 0.567500
21.637300 0.577200
21.673200 0.600200
21.709100 0.626100
21.745100 0.622100
21.781000 0.619300
21.817000 0.624500
21.852900 0.626600
21.888900 0.628000
21.924800 0.627200
21.960800 0.639200
21.996700 0.650700
22.032600 0.661900
22.068600 0.678200
22.104500 0.701300
22.140500 0.711300
22.176400 0.714900
22.212400 0.712400
22.248300 0.712900
22.284200 0.713300
22.320200 0.712800
22.356100 0.704500
22.392100 0.705700
22.428000 0.717700
22.464000 0.715600
22.499900 0.714800
22.535900 0.714700
22.571800 0.719500
22.607700 0.757800
22.643700 0.772100
22.679600 0.765100
22.715600 0.764300
22.751500 0.756200
22.787500 0.756800
22.823400 0.760600
22.859300 0.744900
22.895300 0.721100
22.931200 0.709900
22.967200 0.701300
23.003100 0.696000
23.039100 0.691900
23.075000 0.716300
23.111000 0.714900
23.146900 0.740200
23.182800 0.764300
23.218800 0.786200
23.254700 0.808900
23.290700 0.878300
23.326600 1.054700
23.362600 1.126300
23.398500 0.992100
23.434400 0.915900
23.470400 0.837600
23.506300 0.762200
23.542300 0.716200
23.578200 0.689700
23.614200 0.666100
23.650100 0.649500
23.686100 0.651300
23.722000 0.645000
23.757900 0.640900
23.793900 0.667800
23.829800 0.731700
23.865800 0.718900
23.901700 0.692900
23.937700 0.673400
23.973600 0.658200
24.009500 0.664300
24.045500 0.630500
24.081400 0.621100
24.117400 0.621900
24.153300 0.637100
24.189300 0.648800
24.225200 0.665300
24.261200 0.691900
24.297100 0.708800
24.333000 0.699700
24.369000 0.703200
24.404900 0.710900
24.440900 0.724900
24.476800 0.753800
24.512800 0.796300
24.548700 0.853900
24.584600 0.926300
24.620600 1.036500
24.656500 1.209300
24.692500 1.447300
24.728400 1.933700
24.764400 4.799600
24.800300 2.267000
24.836300 1.538400
24.872200 1.268800
24.908100 1.117700
24.944100 1.004900
24.980000 0.907300
25.016000 0.835500
25.051900 0.783600
25.087900 0.740100
25.123800 0.679800
25.159700 0.638800
25.195700 0.599800
25.231600 0.561900
25.267600 0.548200
25.303500 0.537200
25.339500 0.528200
25.375400 0.523400
25.411400 0.521400
25.447300 0.521700
25.483200 0.523800
25.519200 0.526500
25.555100 0.556700
25.591100 0.593100
25.627000 0.617400
25.663000 0.646400
25.698900 0.671500
25.734900 0.666300
25.770800 0.680600
25.806700 0.744200
25.842700 0.799200
25.878600 0.885100
25.914600 0.883400
25.950500 0.874800
25.986500 0.877500
26.022400 0.893000
26.058300 0.902500
26.094300 0.898400
26.130200 0.887500
26.166200 0.862800
26.202100 0.829600
26.238100 0.821300
26.274000 0.813600
26.310000 0.807300
26.345900 0.802800
26.381800 0.797600
26.417800 0.785500
26.453700 0.775300
26.489700 0.768700
26.525600 0.766800
26.561600 0.767600
26.597500 0.769200
26.633400 0.771900
26.669400 0.776500
26.705300 0.792000
26.741300 0.804300
26.777200 0.812200
26.813200 0.804900
26.849100 0.793300
26.885100 0.787100
26.921000 0.784300
26.956900 0.784200
26.992900 0.786700
27.028800 0.788400
27.064800 0.787500
27.100700 0.789700
27.136700 0.795500
27.172600 0.797400
27.208500 0.795000
27.244500 0.798000
27.280400 0.806400
27.316400 0.800500
27.352300 0.786400
27.388300 0.773400
27.424200 0.764400
27.460200 0.762500
27.496100 0.762600
27.532000 0.764200
27.568000 0.768700
27.603900 0.778100
27.639900 0.792900
27.675800 0.807100
27.711800 0.820500
27.747700 0.831400
27.783600 0.848500
27.819600 0.865100
27.855500 0.887100
27.891500 0.897600
27.927400 0.915600
27.963400 0.909700
27.999300 0.882300
28.035300 0.838700
28.071200 0.827300
28.107100 0.785100
28.143100 0.742600
28.179000 0.720700
28.215000 0.703300
28.250900 0.688200
28.286900 0.676400
28.322800 0.674100
28.358700 0.680300
28.394700 0.694300
28.430600 0.734000
28.466600 0.764200
28.502500 0.785200
28.538500 0.801100
28.574400 0.820800
28.610400 0.862800
28.646300 0.907400
28.682200 0.966100
28.718200 1.005700
28.754100 1.031800
28.790100 1.073000
28.826000 1.040300
28.862000 0.969200
28.897900 0.937600
28.933800 0.869100
28.969800 0.763300
29.005700 0.714600
29.041700 0.676300
29.077600 0.643300
29.113600 0.611100
29.149500 0.579300
29.185500 0.547800
29.221400 0.525000
29.257300 0.515200
29.293300 0.515000
29.329200 0.514100
29.365200 0.509300
29.401100 0.501700
29.437100 0.497300
29.473000 0.495600
29.509000 0.494500
29.544900 0.492500
29.580800 0.491500
29.616800 0.493500
29.652700 0.499200
29.688700 0.506600
29.724600 0.515100
29.760600 0.524400
29.796500 0.530900
29.832400 0.531900
29.868400 0.531600
29.904300 0.523400
29.940300 0.525700
29.976200 0.521200
30.012200 0.526300
30.048100 0.534200
30.084100 0.545400
30.120000 0.561900
30.155900 0.580600
30.191900 0.601500
30.227800 0.609200
30.263800 0.633900
30.299700 0.648200
30.335700 0.663900
30.371600 0.696800
30.407500 0.700000
30.443500 0.691200
30.479400 0.676300
30.515400 0.664400
30.551300 0.656800
30.587300 0.648900
30.623200 0.642300
30.659200 0.627600
30.695100 0.614100
30.731000 0.609100
30.767000 0.604700
30.802900 0.600500
30.838900 0.596200
30.874800 0.591700
30.910800 0.587200
30.946700 0.585700
30.982600 0.582500
31.018600 0.578200
31.054500 0.577000
31.090500 0.578400
31.126400 0.580600
31.162400 0.583300
31.198300 0.586200
31.234300 0.589400
31.270200 0.592700
31.306100 0.596400
31.342100 0.599700
31.378000 0.604800
31.414000 0.602300
31.449900 0.599800
31.485900 0.597800
31.521800 0.595800
31.557700 0.593700
31.593700 0.591700
31.629600 0.591200
31.665600 0.591900
31.701500 0.593800
31.737500 0.607500
31.773400 0.638200
31.809400 0.611400
31.845300 0.602200
31.881200 0.590000
31.917200 0.570600
31.953100 0.561800
31.989100 0.565900
32.025000 0.580400
32.061000 0.574800
32.096900 0.581300
32.132800 0.588300
32.168800 0.588200
32.204700 0.582500
32.240700 0.582600
32.276600 0.582000
32.312600 0.582900
32.348500 0.582100
32.384500 0.575400
32.420400 0.567100
32.456300 0.554000
32.492300 0.555700
32.528200 0.564500
32.564200 0.563100
32.600100 0.563600
32.636100 0.565500
32.672000 0.566900
32.707900 0.577400
32.743900 0.588000
32.779800 0.589300
32.815800 0.591400
32.851700 0.596900
32.887700 0.615300
32.923600 0.606200
32.959600 0.590400
32.995500 0.573600
33.031400 0.560300
33.067400 0.544100
33.103300 0.539500
33.139300 0.536400
33.175200 0.536800
33.211200 0.539500
33.247100 0.541500
33.283000 0.551300
33.319000 0.561900
33.354900 0.573000
33.390900 0.584400
33.426800 0.600400
33.462800 0.618500
33.498700 0.637800
33.534700 0.661900
33.570600 0.691300
33.606500 0.712900
33.642500 0.729600
33.678400 0.768200
33.714400 0.764700
33.750300 0.788700
33.786300 0.807100
33.822200 0.819900
33.858200 0.831600
33.894100 0.843700
33.930000 0.851400
33.966000 0.867900
34.001900 0.878700
34.037900 0.883500
34.073800 0.888400
34.109800 0.892900
34.145700 0.897700
34.181600 0.896800
34.217600 0.896200
34.253500 0.898500
34.289500 0.899100
34.325400 0.899800
34.361400 0.898600
34.397300 0.897300
34.433300 0.889800
34.469200 0.879200
34.505100 0.879000
34.541100 0.879300
34.577000 0.878600
34.613000 0.877700
34.648900 0.878500
34.684900 0.859700
34.720800 0.846100
34.756700 0.838800
34.792700 0.836500
34.828600 0.841800
34.864600 0.837600
34.900500 0.829900
34.936500 0.813500
34.972400 0.786400
35.008400 0.757300
35.044300 0.725100
35.080200 0.693900
35.116200 0.672100
35.152100 0.650400
35.188100 0.628700
35.224000 0.610700
35.260000 0.585800
35.295900 0.568200
35.331800 0.554500
35.367800 0.540700
35.403700 0.527100
35.439700 0.502700
35.475600 0.468000
35.511600 0.435400
35.547500 0.406700
35.583500 0.382800
35.619400 0.360500
35.655300 0.344300
35.691300 0.329300
35.727200 0.322300
35.763200 0.309500
35.799100 0.295900
35.835100 0.251900
35.871000 0.202100
35.906900 0.172800
35.942900 0.148300
35.978800 0.134000
36.014800 0.122300
36.050700 0.113600
36.086700 0.107300
36.122600 0.088400
36.158600 0.073900
36.194500 0.063200
36.230400 0.054600
36.266400 0.048400
36.302300 0.044400
36.338300 0.038100
36.374200 0.032600
36.410200 0.028000
36.446100 0.023900
36.482000 0.020100
36.518000 0.016700
36.553900 0.013900
36.589900 0.011800
36.625800 0.010300
36.661800 0.007600
36.697700 0.005100
36.733700 0.000300
36.769600 0.000100
36.805500 0.000000
36.841500 0.000000
36.877400 0.000000
36.913400 0.000000
36.949300 0.000000
36.985300 0.000000
37.021200 0.000000
37.057100 0.000000
37.093100 0.000000
37.129000 0.000000
37.165000 0.000000
37.200900 0.000000
37.236900 0.000000
37.272800 0.000000
37.308800 0.000000
37.344700 0.000000
37.380600 0.000000
37.416600 0.000000
37.452500 0.000000
37.488500 0.000000
37.524400 0.000000
37.560400 0.000000
37.596300 0.000000
37.632300 0.000000
37.668200 0.000000
37.704100 0.000000
37.740100 0.000000
37.776000 0.000000
37.812000 0.000000
37.847900 0.000000
37.883900 0.000000
37.919800 0.000000
37.955700 0.000000
37.991700 0.000000
38.027600 0.000000
38.063600 0.000000
38.099500 0.000000
38.135500 0.000000
38.171400 0.000000
38.207400 0.000000
38.243300 0.000000
38.279200 0.000000
38.315200 0.000000
38.351100 0.000000
38.387100 0.000000
38.423000 0.000000
38.459000 0.000000
38.494900 0.000000
38.530800 0.000000
38.566800 0.000000
38.602700 0.000000
38.638700 0.000000
38.674600 0.000000
38.710600 0.000000
38.746500 0.000000
38.782500 0.000000
38.818400 0.000000
38.854300 0.000000
38.890300 0.000000
38.926200 0.000000
38.962200 0.000000
38.998100 0.000000
39.034100 0.000000
39.070000 0.000000
39.105900 0.000000
39.141900 0.000000
39.177800 0.000000
39.213800 0.000000
39.249700 0.000000
39.285700 0.000000
39.321600 0.000000
39.357600 0.000000
39.393500 0.000000
39.429400 0.000000
39.465400 0.000000
39.501300 0.000000
39.537300 0.000000
39.573200 0.000000
39.609200 0.000000
39.645100 0.000000
39.681000 0.000000
39.717000 0.000000
39.752900 0.000000
39.788900 0.000000
39.824800 0.000000
39.860800 0.000000
39.896700 0.000000
39.932700 0.000000
39.968600 0.000000
40.004500 0.000000
40.040500 0.000000
40.076400 0.000000
e
