set title 'mp-661 - Density of States'
set xlabel 'Energy (eV)'
set ylabel 'DOS (states/eV)'
set grid
set xrange [-10:10]
set yrange [0:6.561]
set xzeroaxis lt -1
set terminal png size 800,600
set output 'mp-661_dos_gnuplot.png'
plot '-' using 1:2 with lines title 'DOS'
-10.622400 0.000000
-10.605600 0.000000
-10.588800 0.000000
-10.572100 0.000000
-10.555300 0.000000
-10.538500 0.000000
-10.521700 0.000000
-10.504900 0.000000
-10.488200 0.000000
-10.471400 0.000000
-10.454600 0.000000
-10.437800 0.000000
-10.421000 0.000000
-10.404300 0.000000
-10.387500 0.000000
-10.370700 0.000000
-10.353900 0.000000
-10.337100 0.000000
-10.320400 0.000000
-10.303600 0.000000
-10.286800 0.000000
-10.270000 0.000000
-10.253200 0.000000
-10.236500 0.000000
-10.219700 0.000000
-10.202900 0.000000
-10.186100 0.000000
-10.169300 0.000000
-10.152600 0.000000
-10.135800 0.000000
-10.119000 0.000000
-10.102200 0.000000
-10.085400 0.000000
-10.068700 0.000000
-10.051900 0.000000
-10.035100 0.000000
-10.018300 0.000000
-10.001500 0.000000
-9.984800 0.000000
-9.968000 0.000000
-9.951200 0.000000
-9.934400 0.000000
-9.917600 0.000000
-9.900900 0.000000
-9.884100 0.000000
-9.867300 0.000000
-9.850500 0.000000
-9.833700 0.000000
-9.817000 0.000000
-9.800200 0.000000
-9.783400 0.000000
-9.766600 0.000000
-9.749900 0.000000
-9.733100 0.000000
-9.716300 0.000000
-9.699500 0.000000
-9.682700 0.000000
-9.666000 0.000000
-9.649200 0.000000
-9.632400 0.000000
-9.615600 0.000000
-9.598800 0.000000
-9.582100 0.000000
-9.565300 0.000000
-9.548500 0.000000
-9.531700 0.000000
-9.514900 0.000000
-9.498200 0.000000
-9.481400 0.000000
-9.464600 0.000000
-9.447800 0.000000
-9.431000 0.000000
-9.414300 0.000000
-9.397500 0.000000
-9.380700 0.000000
-9.363900 0.000000
-9.347100 0.000000
-9.330400 0.000000
-9.313600 0.000000
-9.296800 0.000000
-9.280000 0.000000
-9.263200 0.000000
-9.246500 0.000000
-9.229700 0.000000
-9.212900 0.000000
-9.196100 0.000000
-9.179300 0.000000
-9.162600 0.000000
-9.145800 0.000000
-9.129000 0.000000
-9.112200 0.000000
-9.095400 0.000300
-9.078700 0.038900
-9.061900 0.104000
-9.045100 0.112500
-9.028300 0.139900
-9.011500 0.169200
-8.994800 0.191100
-8.978000 0.197800
-8.961200 0.211400
-8.944400 0.227600
-8.927600 0.243700
-8.910900 0.260300
-8.894100 0.276400
-8.877300 0.285500
-8.860500 0.295900
-8.843800 0.306400
-8.827000 0.317000
-8.810200 0.328400
-8.793400 0.341100
-8.776600 0.354300
-8.759900 0.367800
-8.743100 0.378900
-8.726300 0.386700
-8.709500 0.395500
-8.692700 0.405300
-8.676000 0.414900
-8.659200 0.424800
-8.642400 0.435400
-8.625600 0.446300
-8.608800 0.457400
-8.592100 0.468500
-8.575300 0.479400
-8.558500 0.488800
-8.541700 0.498000
-8.524900 0.507000
-8.508200 0.516200
-8.491400 0.525700
-8.474600 0.535400
-8.457800 0.545200
-8.441000 0.555200
-8.424300 0.565300
-8.407500 0.575800
-8.390700 0.586700
-8.373900 0.597700
-8.357100 0.608100
-8.340400 0.644300
-8.323600 0.701000
-8.306800 0.668800
-8.290000 0.676400
-8.273200 0.683200
-8.256500 0.680700
-8.239700 0.682700
-8.222900 0.688300
-8.206100 0.693700
-8.189300 0.698800
-8.172600 0.700000
-8.155800 0.703700
-8.139000 0.707500
-8.122200 0.711200
-8.105400 0.730000
-8.088700 0.800500
-8.071900 0.786400
-8.055100 0.803500
-8.038300 0.819000
-8.021500 0.825400
-8.004800 0.835700
-7.988000 0.849800
-7.971200 0.864300
-7.954400 0.879200
-7.937700 0.889700
-7.920900 0.902600
-7.904100 0.915600
-7.887300 0.929200
-7.870500 0.944100
-7.853800 0.959500
-7.837000 0.975500
-7.820200 0.989900
-7.803400 1.004200
-7.786600 1.020000
-7.769900 1.036100
-7.753100 1.052400
-7.736300 1.069100
-7.719500 1.086000
-7.702700 1.103700
-7.686000 1.121900
-7.669200 1.139000
-7.652400 1.157200
-7.635600 1.175800
-7.618800 1.196500
-7.602100 1.217600
-7.585300 1.239800
-7.568500 1.262500
-7.551700 1.285700
-7.534900 1.309600
-7.518200 1.334400
-7.501400 1.360000
-7.484600 1.386700
-7.467800 1.413800
-7.451000 1.441700
-7.434300 1.470700
-7.417500 1.500500
-7.400700 1.531200
-7.383900 1.563000
-7.367100 1.599500
-7.350400 1.639100
-7.333600 1.683000
-7.316800 1.731200
-7.300000 1.781300
-7.283200 1.835600
-7.266500 1.893700
-7.249700 1.955200
-7.232900 2.032100
-7.216100 2.123100
-7.199300 2.248400
-7.182600 2.381600
-7.165800 2.391600
-7.149000 2.515400
-7.132200 2.513800
-7.115400 2.553800
-7.098700 2.565600
-7.081900 2.579600
-7.065100 2.594500
-7.048300 2.613500
-7.031600 2.675800
-7.014800 2.742000
-6.998000 2.788300
-6.981200 2.783600
-6.964400 2.801100
-6.947700 2.829300
-6.930900 2.847200
-6.914100 2.867700
-6.897300 2.872700
-6.880500 2.889200
-6.863800 2.903800
-6.847000 2.809600
-6.830200 2.807500
-6.813400 2.866500
-6.796600 2.932000
-6.779900 3.096300
-6.763100 3.022000
-6.746300 2.999900
-6.729500 3.099700
-6.712700 3.114300
-6.696000 3.129400
-6.679200 3.146600
-6.662400 3.234100
-6.645600 3.355600
-6.628800 3.495500
-6.612100 3.827700
-6.595300 3.892700
-6.578500 4.036300
-6.561700 4.354600
-6.544900 4.545000
-6.528200 4.697000
-6.511400 5.273300
-6.494600 5.964100
-6.477800 4.725700
-6.461000 3.149000
-6.444300 1.870000
-6.427500 0.111900
-6.410700 0.000000
-6.393900 0.000000
-6.377100 0.000000
-6.360400 0.000000
-6.343600 0.000000
-6.326800 0.000000
-6.310000 0.000000
-6.293200 0.000000
-6.276500 0.000000
-6.259700 0.000000
-6.242900 0.000000
-6.226100 0.000000
-6.209300 0.000000
-6.192600 0.000000
-6.175800 0.000000
-6.159000 0.000000
-6.142200 0.000000
-6.125500 0.000000
-6.108700 0.000000
-6.091900 0.000000
-6.075100 0.000000
-6.058300 0.000000
-6.041600 0.000000
-6.024800 0.000000
-6.008000 0.000000
-5.991200 0.000000
-5.974400 0.000000
-5.957700 0.000000
-5.940900 0.000000
-5.924100 0.000000
-5.907300 0.000000
-5.890500 0.000000
-5.873800 0.000000
-5.857000 0.000000
-5.840200 0.000000
-5.823400 0.000000
-5.806600 0.000000
-5.789900 0.000000
-5.773100 0.000000
-5.756300 0.000000
-5.739500 0.000000
-5.722700 0.000000
-5.706000 0.000000
-5.689200 0.000000
-5.672400 0.000000
-5.655600 0.000000
-5.638800 0.000000
-5.622100 0.000000
-5.605300 0.000000
-5.588500 0.000000
-5.571700 0.000000
-5.554900 0.000000
-5.538200 0.000000
-5.521400 0.000000
-5.504600 0.000000
-5.487800 0.000000
-5.471000 0.000000
-5.454300 0.000000
-5.437500 0.000000
-5.420700 0.000000
-5.403900 0.000000
-5.387100 0.000000
-5.370400 0.000000
-5.353600 0.000000
-5.336800 0.000000
-5.320000 0.000000
-5.303200 0.000000
-5.286500 0.000000
-5.269700 0.000000
-5.252900 0.000000
-5.236100 0.000000
-5.219400 0.000000
-5.202600 0.000000
-5.185800 0.000000
-5.169000 0.000000
-5.152200 0.000000
-5.135500 0.000000
-5.118700 0.000000
-5.101900 0.000000
-5.085100 0.000000
-5.068300 0.000000
-5.051600 0.000000
-5.034800 0.000000
-5.018000 0.000000
-5.001200 0.000000
-4.984400 0.000000
-4.967700 0.000000
-4.950900 0.000000
-4.934100 0.000000
-4.917300 0.000000
-4.900500 0.000000
-4.883800 0.000000
-4.867000 0.000000
-4.850200 0.000000
-4.833400 0.000000
-4.816600 0.000000
-4.799900 0.000000
-4.783100 0.000000
-4.766300 0.000000
-4.749500 0.000000
-4.732700 0.000000
-4.716000 0.000000
-4.699200 0.000000
-4.682400 0.000000
-4.665600 0.000000
-4.648800 0.000000
-4.632100 0.000000
-4.615300 0.000000
-4.598500 0.000000
-4.581700 0.000000
-4.564900 0.000000
-4.548200 0.000000
-4.531400 0.000000
-4.514600 0.000000
-4.497800 0.000000
-4.481000 0.000000
-4.464300 0.000000
-4.447500 0.000000
-4.430700 0.000000
-4.413900 0.000000
-4.397100 0.000000
-4.380400 0.000000
-4.363600 0.000000
-4.346800 0.000000
-4.330000 0.000000
-4.313300 0.000000
-4.296500 0.000000
-4.279700 0.000000
-4.262900 0.000000
-4.246100 0.000000
-4.229400 0.000000
-4.212600 0.000000
-4.195800 0.000000
-4.179000 0.000000
-4.162200 0.000000
-4.145500 0.000000
-4.128700 0.000000
-4.111900 0.000000
-4.095100 0.000000
-4.078300 0.000000
-4.061600 0.000000
-4.044800 0.000000
-4.028000 0.000000
-4.011200 0.000000
-3.994400 0.000000
-3.977700 0.000000
-3.960900 0.000000
-3.944100 0.000000
-3.927300 0.000000
-3.910500 0.000000
-3.893800 0.000000
-3.877000 0.000000
-3.860200 0.000000
-3.843400 0.000000
-3.826600 0.000000
-3.809900 0.000000
-3.793100 0.000000
-3.776300 0.000000
-3.759500 0.000000
-3.742700 0.000000
-3.726000 0.000000
-3.709200 0.000000
-3.692400 0.000000
-3.675600 0.000000
-3.658800 0.000000
-3.642100 0.000000
-3.625300 0.000000
-3.608500 0.000000
-3.591700 0.000000
-3.574900 0.000000
-3.558200 0.000000
-3.541400 0.000000
-3.524600 0.000000
-3.507800 0.000000
-3.491000 0.000000
-3.474300 0.000000
-3.457500 0.000000
-3.440700 0.000000
-3.423900 0.000000
-3.407200 0.000000
-3.390400 0.000000
-3.373600 0.000000
-3.356800 0.000000
-3.340000 0.000000
-3.323300 0.000000
-3.306500 0.000000
-3.289700 0.000000
-3.272900 0.000000
-3.256100 0.000000
-3.239400 0.000000
-3.222600 0.000000
-3.205800 0.000000
-3.189000 0.000000
-3.172200 0.000000
-3.155500 0.000000
-3.138700 0.000000
-3.121900 0.000000
-3.105100 0.000000
-3.088300 0.000000
-3.071600 0.000000
-3.054800 0.000000
-3.038000 0.000000
-3.021200 0.000000
-3.004400 0.000000
-2.987700 0.000000
-2.970900 0.000000
-2.954100 0.000000
-2.937300 0.000000
-2.920500 0.000000
-2.903800 0.000000
-2.887000 0.000000
-2.870200 0.000000
-2.853400 0.000000
-2.836600 0.000000
-2.819900 0.000000
-2.803100 0.000000
-2.786300 0.000000
-2.769500 0.000000
-2.752700 0.000000
-2.736000 0.000000
-2.719200 0.000000
-2.702400 0.000000
-2.685600 0.000000
-2.668800 0.000000
-2.652100 0.000000
-2.635300 0.000000
-2.618500 0.000000
-2.601700 0.000000
-2.584900 0.000000
-2.568200 0.000000
-2.551400 0.000000
-2.534600 0.000000
-2.517800 0.000000
-2.501100 0.000000
-2.484300 0.000000
-2.467500 0.000000
-2.450700 0.000000
-2.433900 0.000000
-2.417200 0.000000
-2.400400 0.000000
-2.383600 0.000000
-2.366800 0.000000
-2.350000 0.000000
-2.333300 0.000000
-2.316500 0.000000
-2.299700 0.000000
-2.282900 0.000000
-2.266100 0.000000
-2.249400 0.000000
-2.232600 0.000000
-2.215800 0.000000
-2.199000 0.000000
-2.182200 0.000000
-2.165500 0.000000
-2.148700 0.000000
-2.131900 0.000000
-2.115100 0.000000
-2.098300 0.000000
-2.081600 0.000000
-2.064800 0.000000
-2.048000 0.000000
-2.031200 0.000000
-2.014400 0.000000
-1.997700 0.000000
-1.980900 0.000000
-1.964100 0.000000
-1.947300 0.000000
-1.930500 0.000000
-1.913800 0.000000
-1.897000 0.000000
-1.880200 0.000000
-1.863400 0.000000
-1.846600 0.000000
-1.829900 0.000000
-1.813100 0.000000
-1.796300 0.000000
-1.779500 0.000000
-1.762700 0.000000
-1.746000 0.000000
-1.729200 0.000000
-1.712400 0.000000
-1.695600 0.000000
-1.678800 0.000000
-1.662100 0.000000
-1.645300 0.000000
-1.628500 0.000000
-1.611700 0.000000
-1.595000 0.000000
-1.578200 0.000000
-1.561400 0.000000
-1.544600 0.000000
-1.527800 0.000000
-1.511100 0.000000
-1.494300 0.000000
-1.477500 0.000000
-1.460700 0.000000
-1.443900 0.000000
-1.427200 0.000000
-1.410400 0.000000
-1.393600 0.000000
-1.376800 0.000000
-1.360000 0.000000
-1.343300 0.000000
-1.326500 0.000000
-1.309700 0.000000
-1.292900 0.000000
-1.276100 0.000000
-1.259400 0.000000
-1.242600 0.000000
-1.225800 0.000000
-1.209000 0.000000
-1.192200 0.000000
-1.175500 0.000000
-1.158700 0.000000
-1.141900 0.000000
-1.125100 0.000000
-1.108300 0.000000
-1.091600 0.000000
-1.074800 0.000000
-1.058000 0.000000
-1.041200 0.000000
-1.024400 0.000000
-1.007700 0.000000
-0.990900 0.000000
-0.974100 0.000000
-0.957300 0.000000
-0.940500 0.000000
-0.923800 0.000000
-0.907000 0.000000
-0.890200 0.000000
-0.873400 0.000000
-0.856600 0.000000
-0.839900 0.000000
-0.823100 0.000000
-0.806300 0.000000
-0.789500 0.000000
-0.772800 0.000000
-0.756000 0.000000
-0.739200 0.000000
-0.722400 0.000000
-0.705600 0.000000
-0.688900 0.000000
-0.672100 0.000000
-0.655300 0.000000
-0.638500 0.000000
-0.621700 0.000000
-0.605000 0.000000
-0.588200 0.000000
-0.571400 0.000000
-0.554600 0.000000
-0.537800 0.000000
-0.521100 0.000000
-0.504300 0.000000
-0.487500 0.000000
-0.470700 0.000000
-0.453900 0.000000
-0.437200 0.000000
-0.420400 0.000000
-0.403600 0.000000
-0.386800 0.000000
-0.370000 0.000000
-0.353300 0.000000
-0.336500 0.000000
-0.319700 0.000000
-0.302900 0.000000
-0.286100 0.000000
-0.269400 0.000000
-0.252600 0.000000
-0.235800 0.000000
-0.219000 0.000000
-0.202200 0.000000
-0.185500 0.000000
-0.168700 0.000000
-0.151900 0.000000
-0.135100 0.000000
-0.118300 0.000000
-0.101600 0.000000
-0.084800 0.000000
-0.068000 0.000000
-0.051200 0.000000
-0.034400 0.000000
-0.017700 0.000000
-0.000900 0.000000
0.015900 0.000000
0.032700 0.000000
0.049500 0.000000
0.066200 0.000000
0.083000 0.007300
0.099800 0.027000
0.116600 0.041000
0.133300 0.056100
0.150100 0.071800
0.166900 0.081600
0.183700 0.086700
0.200500 0.093400
0.217200 0.098800
0.234000 0.103700
0.250800 0.108500
0.267600 0.114600
0.284400 0.122200
0.301100 0.130100
0.317900 0.136400
0.334700 0.142300
0.351500 0.348900
0.368300 0.439100
0.385000 0.539100
0.401800 0.636300
0.418600 0.754200
0.435400 0.805600
0.452200 0.840800
0.468900 0.882000
0.485700 0.917700
0.502500 0.939600
0.519300 0.977500
0.536100 1.022700
0.552800 1.138000
0.569600 1.208000
0.586400 1.312300
0.603200 1.404100
0.620000 1.445500
0.636700 1.472800
0.653500 1.511400
0.670300 1.546300
0.687100 1.570700
0.703900 1.587200
0.720600 1.621600
0.737400 1.657000
0.754200 1.691700
0.771000 1.728600
0.787800 1.762100
0.804500 1.800200
0.821300 1.838200
0.838100 1.874900
0.854900 1.909700
0.871700 1.944700
0.888400 1.987400
0.905200 2.032000
0.922000 2.080000
0.938800 2.133700
0.955600 2.193300
0.972300 2.263700
0.989100 2.334600
1.005900 2.412700
1.022700 2.523700
1.039400 2.797300
1.056200 2.830300
1.073000 2.868600
1.089800 2.963100
1.106600 2.990200
1.123300 3.046700
1.140100 3.084700
1.156900 3.156700
1.173700 3.231300
1.190500 3.358100
1.207200 3.390800
1.224000 3.609700
1.240800 3.488700
1.257600 3.445700
1.274400 3.175700
1.291100 3.018100
1.307900 2.824800
1.324700 2.704600
1.341500 2.496400
1.358300 2.352600
1.375000 2.231600
1.391800 2.120400
1.408600 2.016100
1.425400 1.921000
1.442200 1.842600
1.458900 1.777900
1.475700 1.725200
1.492500 1.678200
1.509300 1.637000
1.526100 1.603900
1.542800 1.572800
1.559600 1.546200
1.576400 1.518000
1.593200 1.485000
1.610000 1.452300
1.626700 1.428100
1.643500 1.411500
1.660300 1.398900
1.677100 1.389000
1.693900 1.381200
1.710600 1.375800
1.727400 1.380800
1.744200 1.394700
1.761000 1.414600
1.777800 1.443200
1.794500 1.502500
1.811300 1.559000
1.828100 1.624300
1.844900 1.696500
1.861700 1.767700
1.878400 1.818700
1.895200 1.916600
1.912000 2.028000
1.928800 2.130900
1.945500 2.210600
1.962300 2.254700
1.979100 2.219600
1.995900 2.134100
2.012700 1.911900
2.029400 1.728300
2.046200 1.580500
2.063000 1.424000
2.079800 1.237000
2.096600 1.091800
2.113300 1.020800
2.130100 0.980800
2.146900 0.945500
2.163700 0.897600
2.180500 0.867600
2.197200 0.856300
2.214000 0.859700
2.230800 0.859100
2.247600 0.868200
2.264400 0.893600
2.281100 0.927500
2.297900 0.961100
2.314700 1.023800
2.331500 1.170100
2.348300 1.225100
2.365000 1.065500
2.381800 1.114400
2.398600 1.156500
2.415400 1.193400
2.432200 1.220100
2.448900 1.239400
2.465700 1.252700
2.482500 1.261800
2.499300 1.280600
2.516100 1.298100
2.532800 1.313700
2.549600 1.332100
2.566400 1.348000
2.583200 1.378200
2.600000 1.433200
2.616700 1.497100
2.633500 1.560800
2.650300 1.621600
2.667100 1.674600
2.683900 1.728600
2.700600 1.768400
2.717400 1.832300
2.734200 1.872600
2.751000 1.885600
2.767800 1.860300
2.784500 1.828900
2.801300 1.789200
2.818100 1.752500
2.834900 1.697800
2.851600 1.647100
2.868400 1.553300
2.885200 1.550500
2.902000 1.537400
2.918800 1.521400
2.935500 1.510200
2.952300 1.529800
2.969100 1.550400
2.985900 1.675000
3.002700 1.535200
3.019400 1.579300
3.036200 1.597400
3.053000 1.600000
3.069800 1.603300
3.086600 1.606600
3.103300 1.610700
3.120100 1.614600
3.136900 1.617900
3.153700 1.622700
3.170500 1.632000
3.187200 1.645800
3.204000 1.670800
3.220800 1.695500
3.237600 1.717300
3.254400 1.738300
3.271100 1.733600
3.287900 1.732700
3.304700 1.739100
3.321500 1.748600
3.338300 1.767500
3.355000 1.789300
3.371800 1.815900
3.388600 1.842900
3.405400 1.869700
3.422200 1.904700
3.438900 1.955300
3.455700 2.024000
3.472500 2.224600
3.489300 2.006300
3.506100 1.947900
3.522800 1.927500
3.539600 1.906700
3.556400 1.883600
3.573200 1.869600
3.590000 1.864100
3.606700 1.864000
3.623500 1.864400
3.640300 1.946200
3.657100 1.992100
3.673900 2.002100
3.690600 2.005200
3.707400 2.026000
3.724200 2.030000
3.741000 2.050100
3.757700 2.085700
3.774500 2.128900
3.791300 2.175100
3.808100 2.200200
3.824900 2.201500
3.841600 2.210500
3.858400 2.262600
3.875200 2.309600
3.892000 2.357200
3.908800 2.424100
3.925500 2.527800
3.942300 2.570100
3.959100 2.597400
3.975900 2.602200
3.992700 2.606600
4.009400 2.630900
4.026200 2.646500
4.043000 2.637800
4.059800 2.617600
4.076600 2.602100
4.093300 2.603800
4.110100 2.622500
4.126900 2.651400
4.143700 2.770900
4.160500 2.796800
4.177200 2.942600
4.194000 2.932900
4.210800 2.899500
4.227600 2.818400
4.244400 2.843200
4.261100 2.920200
4.277900 2.948500
4.294700 2.940500
4.311500 2.916300
4.328300 2.883300
4.345000 2.873400
4.361800 2.890800
4.378600 2.927900
4.395400 2.930400
4.412200 2.978800
4.428900 2.987700
4.445700 2.981000
4.462500 2.960700
4.479300 2.936800
4.496100 2.972600
4.512800 3.025100
4.529600 3.046700
4.546400 3.070300
4.563200 3.102800
4.580000 3.150900
4.596700 3.097300
4.613500 3.102400
4.630300 3.320400
4.647100 4.118600
4.663800 4.264300
4.680600 3.833800
4.697400 3.643400
4.714200 3.427500
4.731000 3.403300
4.747700 3.417400
4.764500 3.410600
4.781300 3.378900
4.798100 3.367000
4.814900 3.360700
4.831600 3.373100
4.848400 3.397100
4.865200 3.438100
4.882000 3.512900
4.898800 3.701000
4.915500 4.092200
4.932300 4.070300
4.949100 4.068400
4.965900 4.152300
4.982700 4.293800
4.999400 4.456300
5.016200 4.620600
5.033000 4.809500
5.049800 4.903400
5.066600 4.934000
5.083300 5.001600
5.100100 5.160100
5.116900 5.218400
5.133700 5.283400
5.150500 5.686800
5.167200 5.618600
5.184000 5.389500
5.200800 4.281300
5.217600 4.120100
5.234400 3.864800
5.251100 3.657700
5.267900 3.478500
5.284700 3.316500
5.301500 3.129700
5.318300 2.979900
5.335000 2.884300
5.351800 2.806600
5.368600 2.651700
5.385400 2.607100
5.402200 2.442600
5.418900 2.359800
5.435700 2.284000
5.452500 2.215700
5.469300 2.165200
5.486100 2.031900
5.502800 1.993700
5.519600 1.931600
5.536400 1.860500
5.553200 1.787500
5.569900 1.724500
5.586700 1.654600
5.603500 1.584900
5.620300 1.511500
5.637100 1.442900
5.653800 1.382900
5.670600 1.317600
5.687400 1.247400
5.704200 1.236800
5.721000 1.170200
5.737700 1.033500
5.754500 0.926000
5.771300 0.662900
5.788100 0.407800
5.804900 0.382800
5.821600 0.346000
5.838400 0.316600
5.855200 0.301900
5.872000 0.288500
5.888800 0.243300
5.905500 0.185000
5.922300 0.132000
5.939100 0.082500
5.955900 0.038400
5.972700 0.001400
5.989400 0.000000
6.006200 0.000000
6.023000 0.000000
6.039800 0.000000
6.056600 0.000000
6.073300 0.000000
6.090100 0.000000
6.106900 0.000000
6.123700 0.000000
6.140500 0.000000
6.157200 0.000000
6.174000 0.000000
6.190800 0.000000
6.207600 0.000000
6.224400 0.000000
6.241100 0.000000
6.257900 0.000000
6.274700 0.000000
6.291500 0.000000
6.308300 0.000000
6.325000 0.000000
6.341800 0.000000
6.358600 0.000000
6.375400 0.000000
6.392200 0.000000
6.408900 0.000000
6.425700 0.000000
6.442500 0.000000
6.459300 0.000000
6.476000 0.000000
6.492800 0.000000
6.509600 0.000000
6.526400 0.000000
6.543200 0.000000
6.559900 0.000000
6.576700 0.000000
6.593500 0.000000
6.610300 0.000000
6.627100 0.000000
6.643800 0.000000
6.660600 0.000000
6.677400 0.000000
6.694200 0.000000
6.711000 0.000000
6.727700 0.000000
6.744500 0.000000
6.761300 0.000000
6.778100 0.000000
6.794900 0.000000
6.811600 0.000000
6.828400 0.000000
6.845200 0.000000
6.862000 0.000000
6.878800 0.000000
6.895500 0.000000
6.912300 0.000000
6.929100 0.000000
6.945900 0.000000
6.962700 0.000000
6.979400 0.000000
6.996200 0.000000
7.013000 0.000000
7.029800 0.000000
7.046600 0.000000
7.063300 0.000000
7.080100 0.000000
7.096900 0.000000
7.113700 0.000000
7.130500 0.000000
7.147200 0.000000
7.164000 0.000000
7.180800 0.000000
7.197600 0.000000
7.214400 0.000000
7.231100 0.000000
7.247900 0.000000
7.264700 0.000000
7.281500 0.000000
7.298300 0.000000
7.315000 0.000000
7.331800 0.000000
7.348600 0.000000
7.365400 0.000000
7.382100 0.000000
7.398900 0.000000
7.415700 0.000000
7.432500 0.000000
7.449300 0.000000
7.466000 0.000000
7.482800 0.000000
7.499600 0.000000
7.516400 0.000000
7.533200 0.000000
7.549900 0.000000
7.566700 0.000000
7.583500 0.000000
7.600300 0.000000
7.617100 0.000000
7.633800 0.000000
7.650600 0.000000
7.667400 0.000000
7.684200 0.000000
7.701000 0.000000
7.717700 0.000000
7.734500 0.000000
7.751300 0.000000
7.768100 0.000000
7.784900 0.000000
7.801600 0.000000
7.818400 0.000000
7.835200 0.000000
7.852000 0.000000
7.868800 0.000000
7.885500 0.000000
7.902300 0.000000
7.919100 0.000000
7.935900 0.000000
7.952700 0.000000
7.969400 0.000000
7.986200 0.000000
8.003000 0.000000
8.019800 0.000000
8.036600 0.000000
8.053300 0.000000
8.070100 0.000000
8.086900 0.000000
8.103700 0.000000
8.120500 0.000000
8.137200 0.000000
8.154000 0.000000
8.170800 0.000000
8.187600 0.000000
8.204400 0.000000
8.221100 0.000000
8.237900 0.000000
8.254700 0.000000
8.271500 0.000000
8.288200 0.000000
8.305000 0.000000
8.321800 0.000000
8.338600 0.000000
8.355400 0.000000
8.372100 0.000000
8.388900 0.000000
8.405700 0.000000
8.422500 0.000000
8.439300 0.000000
8.456000 0.000000
8.472800 0.000000
8.489600 0.000000
8.506400 0.000000
8.523200 0.000000
8.539900 0.000000
8.556700 0.000000
8.573500 0.000000
8.590300 0.000000
8.607100 0.000000
8.623800 0.000000
8.640600 0.000000
8.657400 0.000000
8.674200 0.000000
8.691000 0.000000
8.707700 0.000000
8.724500 0.000000
8.741300 0.000000
8.758100 0.000000
8.774900 0.000000
8.791600 0.000000
8.808400 0.000000
8.825200 0.000000
8.842000 0.000000
8.858800 0.000000
8.875500 0.000000
8.892300 0.000000
8.909100 0.000000
8.925900 0.000000
8.942700 0.000000
8.959400 0.000000
8.976200 0.000000
8.993000 0.000000
9.009800 0.000000
9.026600 0.000000
9.043300 0.000000
9.060100 0.000000
9.076900 0.000000
9.093700 0.000000
9.110400 0.000000
9.127200 0.000000
9.144000 0.000000
9.160800 0.000000
9.177600 0.000000
9.194300 0.000000
9.211100 0.000000
9.227900 0.000000
9.244700 0.000000
9.261500 0.000000
9.278200 0.000000
9.295000 0.000000
9.311800 0.000000
9.328600 0.000000
9.345400 0.000000
9.362100 0.000000
9.378900 0.000000
9.395700 0.000000
9.412500 0.000000
9.429300 0.000000
9.446000 0.000000
9.462800 0.000000
9.479600 0.000000
9.496400 0.000000
9.513200 0.000000
9.529900 0.000000
9.546700 0.000000
9.563500 0.000000
9.580300 0.000000
9.597100 0.000000
9.613800 0.000000
9.630600 0.000000
9.647400 0.000000
9.664200 0.000000
9.681000 0.000000
9.697700 0.000000
9.714500 0.000000
9.731300 0.000000
9.748100 0.000000
9.764900 0.000000
9.781600 0.000000
9.798400 0.000000
9.815200 0.000000
9.832000 0.000000
9.848800 0.000000
9.865500 0.000000
9.882300 0.000000
9.899100 0.000000
9.915900 0.000000
9.932700 0.000000
9.949400 0.000000
9.966200 0.000000
9.983000 0.000000
9.999800 0.000000
10.016500 0.000000
10.033300 0.000000
10.050100 0.000300
10.066900 0.001000
10.083700 0.002200
10.100400 0.003800
10.117200 0.005900
10.134000 0.008400
10.150800 0.011400
10.167600 0.014900
10.184300 0.018400
10.201100 0.020100
10.217900 0.021500
10.234700 0.022600
10.251500 0.023400
10.268200 0.024000
10.285000 0.024300
10.301800 0.025200
10.318600 0.026700
10.335400 0.028100
10.352100 0.029600
10.368900 0.031100
10.385700 0.032700
10.402500 0.034300
10.419300 0.035900
10.436000 0.037500
10.452800 0.039200
10.469600 0.040800
10.486400 0.042300
10.503200 0.043700
10.519900 0.045000
10.536700 0.046200
10.553500 0.047300
10.570300 0.048500
10.587100 0.049800
10.603800 0.051200
10.620600 0.052700
10.637400 0.054100
10.654200 0.055600
10.671000 0.057100
10.687700 0.058600
10.704500 0.060100
10.721300 0.061600
10.738100 0.063200
10.754900 0.064700
10.771600 0.066300
10.788400 0.067800
10.805200 0.069400
10.822000 0.071000
10.838800 0.072700
10.855500 0.074600
10.872300 0.076500
10.889100 0.078400
10.905900 0.080500
10.922600 0.143400
10.939400 0.188100
10.956200 0.220600
10.973000 0.255500
10.989800 0.287800
11.006500 0.317000
11.023300 0.341700
11.040100 0.356900
11.056900 0.388100
11.073700 0.424700
11.090400 0.467000
11.107200 0.503500
11.124000 0.568400
11.140800 0.599400
11.157600 0.626400
11.174300 0.653100
11.191100 0.679900
11.207900 0.701300
11.224700 0.713800
11.241500 0.732700
11.258200 0.758300
11.275000 0.783400
11.291800 0.809500
11.308600 0.835700
11.325400 0.862600
11.342100 0.891800
11.358900 0.923600
11.375700 0.955300
11.392500 1.021600
11.409300 1.063200
11.426000 1.109600
11.442800 1.166900
11.459600 1.250200
11.476400 1.326800
11.493200 1.403400
11.509900 1.481200
11.526700 1.522800
11.543500 1.532300
11.560300 1.558100
11.577100 1.588900
11.593800 1.603700
11.610600 1.604000
11.627400 1.632900
11.644200 1.654400
11.661000 1.676000
11.677700 1.695100
11.694500 1.710600
11.711300 1.710500
11.728100 1.716400
11.744900 1.705500
11.761600 1.697500
11.778400 1.747400
11.795200 1.788400
11.812000 1.848200
11.828700 1.926900
11.845500 2.003300
11.862300 2.064000
11.879100 2.128700
11.895900 2.189100
11.912600 2.251000
11.929400 2.307300
11.946200 2.322300
11.963000 2.288600
11.979800 2.236500
11.996500 2.219400
12.013300 2.218500
12.030100 2.213100
12.046900 2.210200
12.063700 2.209500
12.080400 2.209700
12.097200 2.208100
12.114000 2.206100
12.130800 2.206100
12.147600 2.203700
12.164300 2.196300
12.181100 2.165600
12.197900 2.143000
12.214700 2.125700
12.231500 2.099000
12.248200 2.084500
12.265000 2.074300
12.281800 2.064500
12.298600 2.053900
12.315400 2.051000
12.332100 2.058400
12.348900 2.090300
12.365700 2.149500
12.382500 2.132200
12.399300 2.131800
12.416000 2.004200
12.432800 1.904300
12.449600 1.821100
12.466400 1.757900
12.483200 1.852900
12.499900 1.885500
12.516700 1.714900
12.533500 1.679500
12.550300 1.658800
12.567100 1.654100
12.583800 1.697000
12.600600 1.668900
12.617400 1.618200
12.634200 1.571900
12.651000 1.571500
12.667700 1.583300
12.684500 1.389500
12.701300 1.384900
12.718100 1.377000
12.734800 1.361100
12.751600 1.351500
12.768400 1.350800
12.785200 1.347200
12.802000 1.341900
12.818700 1.339000
12.835500 1.342400
12.852300 1.361200
12.869100 1.374800
12.885900 1.392600
12.902600 1.413000
12.919400 1.469400
12.936200 1.487900
12.953000 1.461100
12.969800 1.423400
12.986500 1.492800
13.003300 1.386000
13.020100 1.319800
13.036900 1.312100
13.053700 1.280600
13.070400 1.245800
13.087200 1.213800
13.104000 1.185700
13.120800 1.159700
13.137600 1.138100
13.154300 1.118300
13.171100 1.096900
13.187900 1.078500
13.204700 1.060800
13.221500 1.044200
13.238200 1.028800
13.255000 1.011800
13.271800 0.993300
13.288600 0.975200
13.305400 0.955700
13.322100 0.937800
13.338900 0.922600
13.355700 0.910100
13.372500 0.896100
13.389300 0.882700
13.406000 0.870000
13.422800 0.857300
13.439600 0.845500
13.456400 0.835400
13.473200 0.826700
13.489900 0.818300
13.506700 0.810100
13.523500 0.801900
13.540300 0.793500
13.557100 0.784700
13.573800 0.779900
13.590600 0.781900
13.607400 0.782800
13.624200 0.778800
13.640900 0.772600
13.657700 0.766900
13.674500 0.795300
13.691300 0.860800
13.708100 0.790800
13.724800 0.720000
13.741600 0.656300
13.758400 0.597500
13.775200 0.544300
13.792000 0.550800
13.808700 0.572200
13.825500 0.596300
13.842300 0.623700
13.859100 0.645300
13.875900 0.672100
13.892600 0.703400
13.909400 0.739700
13.926200 0.740900
13.943000 0.731500
13.959800 0.726300
13.976500 0.732300
13.993300 0.744700
14.010100 0.759800
14.026900 0.764600
14.043700 0.723500
14.060400 0.755000
14.077200 0.784300
14.094000 0.814600
14.110800 0.849600
14.127600 0.879600
14.144300 0.921900
14.161100 0.936000
14.177900 0.940200
14.194700 0.947000
14.211500 0.953000
14.228200 0.964300
14.245000 0.985600
14.261800 1.016000
14.278600 1.053900
14.295400 1.117000
14.312100 1.175700
14.328900 1.221700
14.345700 1.262500
14.362500 1.307700
14.379300 1.390800
14.396000 1.425800
14.412800 1.472100
14.429600 1.539500
14.446400 1.618300
14.463200 1.723900
14.479900 1.837800
14.496700 1.993100
14.513500 2.151800
14.530300 2.544700
14.547000 2.249800
14.563800 2.226400
14.580600 2.198300
14.597400 2.139100
14.614200 2.067200
14.630900 2.033200
14.647700 2.033100
14.664500 2.030700
14.681300 2.025500
14.698100 2.014000
14.714800 1.966800
14.731600 1.917500
14.748400 1.874300
14.765200 1.843200
14.782000 1.828900
14.798700 1.832500
14.815500 1.851000
14.832300 1.853600
14.849100 1.857600
14.865900 1.879000
14.882600 1.961800
14.899400 2.250700
14.916200 2.555600
14.933000 2.654000
14.949800 2.525600
14.966500 2.352300
14.983300 2.204800
15.000100 2.068600
15.016900 2.048900
15.033700 2.239800
15.050400 2.021800
15.067200 2.005400
15.084000 1.887700
15.100800 1.886800
15.117600 1.727900
15.134300 1.642900
15.151100 1.585200
15.167900 1.528500
15.184700 1.523500
15.201500 1.512700
15.218200 1.672500
15.235000 1.677200
15.251800 1.755800
15.268600 1.831800
15.285400 2.092100
15.302100 1.544500
15.318900 1.610100
15.335700 1.688800
15.352500 1.788100
15.369300 1.859600
15.386000 1.933600
15.402800 2.047600
15.419600 2.120500
15.436400 2.143600
15.453100 2.173300
15.469900 2.206700
15.486700 2.246500
15.503500 2.310300
15.520300 2.480400
15.537000 2.594000
15.553800 2.744200
15.570600 2.975500
15.587400 3.339300
15.604200 3.201400
15.620900 3.137700
15.637700 3.124700
15.654500 3.102700
15.671300 2.997800
15.688100 2.840400
15.704800 2.655600
15.721600 2.542800
15.738400 2.453900
15.755200 2.388400
15.772000 2.333200
15.788700 2.283100
15.805500 2.242300
15.822300 2.210600
15.839100 2.182500
15.855900 2.153800
15.872600 2.078200
15.889400 2.023000
15.906200 1.968100
15.923000 1.891900
15.939800 1.811700
15.956500 1.749200
15.973300 1.657100
15.990100 1.573400
16.006900 1.454700
16.023700 1.278900
16.040400 1.143400
16.057200 1.053200
16.074000 0.914000
16.090800 0.844400
16.107600 0.616500
16.124300 0.349400
16.141100 0.228000
16.157900 0.184600
16.174700 0.179100
16.191500 0.173500
16.208200 0.167900
16.225000 0.162100
16.241800 0.156300
16.258600 0.150300
16.275400 0.144200
16.292100 0.141700
16.308900 0.138600
16.325700 0.134500
16.342500 0.124700
16.359200 0.133700
16.376000 0.167700
16.392800 0.215400
16.409600 0.250500
16.426400 0.291600
16.443100 0.324900
16.459900 0.326500
16.476700 0.345300
16.493500 0.371400
16.510300 0.391900
16.527000 0.412900
16.543800 0.435500
16.560600 0.465800
16.577400 0.585600
16.594200 1.024600
16.610900 1.486200
16.627700 1.935700
16.644500 2.315100
16.661300 2.512800
16.678100 2.527900
16.694800 2.440100
16.711600 2.338700
16.728400 2.314700
16.745200 2.286400
16.762000 2.263000
16.778700 2.281400
16.795500 2.329400
16.812300 2.348600
16.829100 2.376900
16.845900 2.418500
16.862600 2.469700
16.879400 2.535300
16.896200 2.573900
16.913000 2.582700
16.929800 2.677300
16.946500 2.794100
16.963300 2.883400
16.980100 3.086700
16.996900 3.206700
17.013700 3.176500
17.030400 2.781700
17.047200 2.488700
17.064000 2.536500
17.080800 2.782600
17.097600 2.864500
17.114300 2.879200
17.131100 2.922600
17.147900 2.718300
17.164700 2.727500
17.181500 2.724700
17.198200 2.781400
17.215000 2.814400
17.231800 2.853100
17.248600 2.856500
17.265300 2.836100
17.282100 2.842300
17.298900 2.849400
17.315700 2.893800
17.332500 3.004800
17.349200 3.212800
17.366000 3.114700
17.382800 3.048100
17.399600 3.082900
17.416400 3.155500
17.433100 3.217700
17.449900 3.383500
17.466700 3.460200
17.483500 3.460000
17.500300 3.646900
17.517000 3.595800
17.533800 3.520700
17.550600 3.554400
17.567400 3.678800
17.584200 3.712000
17.600900 3.713600
17.617700 3.761400
17.634500 3.489900
17.651300 3.369900
17.668100 3.227000
17.684800 3.090700
17.701600 3.029000
17.718400 2.993900
17.735200 2.953800
17.752000 2.954500
17.768700 2.916400
17.785500 2.867200
17.802300 2.845900
17.819100 2.932600
17.835900 3.019300
17.852600 3.011500
17.869400 3.027700
17.886200 3.093300
17.903000 2.822200
17.919800 2.636300
17.936500 2.349500
17.953300 2.144000
17.970100 1.949200
17.986900 1.708500
18.003700 1.477600
18.020400 1.282200
18.037200 1.415300
18.054000 1.817300
18.070800 2.354400
18.087600 2.721800
18.104300 2.899900
18.121100 3.161100
18.137900 3.434200
18.154700 3.906700
18.171400 5.591400
18.188200 5.265100
18.205000 4.363200
18.221800 4.072300
18.238600 3.652400
18.255300 3.307400
18.272100 3.082000
18.288900 2.916200
18.305700 2.749200
18.322500 2.540600
18.339200 2.413200
18.356000 2.306800
18.372800 2.168500
18.389600 2.043400
18.406400 1.949900
18.423100 1.894600
18.439900 1.869300
18.456700 1.854500
18.473500 1.840000
18.490300 1.822600
18.507000 1.815400
18.523800 1.804700
18.540600 1.790000
18.557400 1.781200
18.574200 1.787800
18.590900 1.792400
18.607700 1.790800
18.624500 1.833800
18.641300 1.933400
18.658100 1.860000
18.674800 1.825700
18.691600 1.776700
18.708400 1.768300
18.725200 1.762000
18.742000 1.901200
18.758700 1.732600
18.775500 1.729000
18.792300 1.754400
18.809100 1.738800
18.825900 1.785400
18.842600 1.786400
18.859400 1.858900
18.876200 1.796100
18.893000 1.682100
18.909800 1.592700
18.926500 1.500300
18.943300 1.406400
18.960100 1.337900
18.976900 1.303300
18.993600 1.268300
19.010400 1.255000
19.027200 1.239400
19.044000 1.225200
19.060800 1.211900
19.077500 1.174400
19.094300 1.142300
19.111100 1.112300
19.127900 1.088800
19.144700 1.077500
19.161400 1.053700
19.178200 1.028900
19.195000 0.997500
19.211800 0.965300
19.228600 0.921300
19.245300 0.900900
19.262100 0.879600
19.278900 0.879300
19.295700 0.883000
19.312500 0.891500
19.329200 0.914500
19.346000 0.900100
19.362800 0.935100
19.379600 0.882100
19.396400 0.870000
19.413100 0.851600
19.429900 0.822800
19.446700 0.797400
19.463500 0.787100
19.480300 0.777500
19.497000 0.774300
19.513800 0.779000
19.530600 0.783100
19.547400 0.787000
19.564200 0.794500
19.580900 0.795800
19.597700 0.796900
19.614500 0.799000
19.631300 0.801200
19.648100 0.805900
19.664800 0.828800
19.681600 0.790400
19.698400 0.780000
19.715200 0.770400
19.732000 0.760300
19.748700 0.749600
19.765500 0.745900
19.782300 0.747000
19.799100 0.748200
19.815900 0.749600
19.832600 0.748000
19.849400 0.745300
19.866200 0.747100
19.883000 0.747100
19.899700 0.745700
19.916500 0.741100
19.933300 0.734300
19.950100 0.728200
19.966900 0.724000
19.983600 0.720400
20.000400 0.717800
20.017200 0.715700
20.034000 0.714000
20.050800 0.712600
20.067500 0.711300
20.084300 0.709900
20.101100 0.708500
20.117900 0.707200
20.134700 0.706000
20.151400 0.705500
20.168200 0.731800
20.185000 0.773800
20.201800 0.816000
20.218600 0.858100
20.235300 0.888500
20.252100 0.931800
20.268900 0.968100
20.285700 0.979000
20.302500 0.986600
20.319200 0.993700
20.336000 1.013100
20.352800 1.039200
20.369600 1.067400
20.386400 1.091300
20.403100 1.123800
20.419900 1.161000
20.436700 1.207400
20.453500 1.263300
20.470300 1.479800
20.487000 1.645900
20.503800 1.656500
20.520600 1.643300
20.537400 1.613700
20.554200 1.666500
20.570900 1.595000
20.587700 1.404300
20.604500 1.211100
20.621300 1.061700
20.638100 0.960400
20.654800 0.869200
20.671600 0.798500
20.688400 0.747700
20.705200 0.702700
20.722000 0.660300
20.738700 0.618300
20.755500 0.577600
20.772300 0.543800
20.789100 0.510600
20.805800 0.476900
20.822600 0.445800
20.839400 0.423600
20.856200 0.403800
20.873000 0.387500
20.889700 0.380800
20.906500 0.417200
20.923300 0.518500
20.940100 0.603900
20.956900 0.491500
20.973600 0.326300
20.990400 0.183400
21.007200 0.051600
21.024000 0.017300
21.040800 0.015300
21.057500 0.013500
21.074300 0.011900
21.091100 0.010600
21.107900 0.009500
21.124700 0.008500
21.141400 0.007500
21.158200 0.006600
21.175000 0.005700
21.191800 0.005000
21.208600 0.004200
21.225300 0.003600
21.242100 0.002900
21.258900 0.002400
21.275700 0.001900
21.292500 0.001500
21.309200 0.001100
21.326000 0.000800
21.342800 0.000500
21.359600 0.000300
21.376400 0.000100
21.393100 0.000000
21.409900 0.000000
21.426700 0.000000
21.443500 0.000000
21.460300 0.000000
21.477000 0.000000
21.493800 0.000000
21.510600 0.000000
21.527400 0.000000
21.544200 0.000000
21.560900 0.000000
21.577700 0.000000
21.594500 0.000000
21.611300 0.000000
21.628100 0.000000
21.644800 0.000000
21.661600 0.000000
21.678400 0.000000
21.695200 0.000000
21.711900 0.000000
21.728700 0.000000
21.745500 0.000000
21.762300 0.000000
21.779100 0.000000
21.795800 0.000000
21.812600 0.000000
21.829400 0.000000
21.846200 0.000000
21.863000 0.000000
21.879700 0.000000
21.896500 0.000000
21.913300 0.000000
21.930100 0.000000
21.946900 0.000000
21.963600 0.000000
21.980400 0.000000
21.997200 0.000000
22.014000 0.000000
22.030800 0.000000
22.047500 0.000000
22.064300 0.000000
22.081100 0.000000
22.097900 0.000000
22.114700 0.000000
22.131400 0.000000
22.148200 0.000000
22.165000 0.000000
22.181800 0.000000
22.198600 0.000000
22.215300 0.000000
22.232100 0.000000
22.248900 0.000000
22.265700 0.000000
22.282500 0.000000
22.299200 0.000000
22.316000 0.000000
22.332800 0.000000
22.349600 0.000000
22.366400 0.000000
22.383100 0.000000
22.399900 0.000000
22.416700 0.000000
22.433500 0.000000
22.450300 0.000000
22.467000 0.000000
22.483800 0.000000
22.500600 0.000000
22.517400 0.000000
22.534200 0.000000
22.550900 0.000000
22.567700 0.000000
22.584500 0.000000
22.601300 0.000000
22.618000 0.000000
22.634800 0.000000
22.651600 0.000000
22.668400 0.000000
22.685200 0.000000
22.701900 0.000000
22.718700 0.000000
22.735500 0.000000
22.752300 0.000000
22.769100 0.000000
22.785800 0.000000
22.802600 0.000000
22.819400 0.000000
22.836200 0.000000
22.853000 0.000000
22.869700 0.000000
22.886500 0.000000
22.903300 0.000000
22.920100 0.000000
22.936900 0.000000
e
