set title 'mp-1190647 - Density of States'
set xlabel 'Energy (eV)'
set ylabel 'DOS (states/eV)'
set grid
set xrange [-10:10]
set yrange [0:119.376]
set xzeroaxis lt -1
set terminal png size 800,600
set output 'mp-1190647_dos_gnuplot.png'
plot '-' using 1:2 with lines title 'DOS'
-27.679900 0.000000
-27.655200 0.000000
-27.630400 0.000000
-27.605600 0.000000
-27.580800 0.000000
-27.556000 0.000000
-27.531200 0.000000
-27.506400 0.000000
-27.481600 0.000000
-27.456800 0.000000
-27.432100 0.000000
-27.407300 0.000000
-27.382500 0.000000
-27.357700 0.000000
-27.332900 0.000000
-27.308100 0.000000
-27.283300 0.000000
-27.258500 0.000000
-27.233700 0.000000
-27.208900 0.000000
-27.184200 0.000000
-27.159400 0.000000
-27.134600 0.000000
-27.109800 0.000000
-27.085000 0.000000
-27.060200 0.000000
-27.035400 0.000000
-27.010600 0.000000
-26.985800 0.000000
-26.961100 0.000000
-26.936300 0.000000
-26.911500 0.000000
-26.886700 0.000000
-26.861900 0.000000
-26.837100 0.000000
-26.812300 0.000000
-26.787500 0.000000
-26.762700 0.000000
-26.738000 0.000000
-26.713200 0.000000
-26.688400 0.000000
-26.663600 0.000000
-26.638800 0.000000
-26.614000 0.000000
-26.589200 0.000000
-26.564400 0.000000
-26.539600 0.000000
-26.514900 0.000000
-26.490100 0.000000
-26.465300 0.000000
-26.440500 0.000000
-26.415700 0.000000
-26.390900 0.000000
-26.366100 0.000000
-26.341300 0.000000
-26.316500 0.000000
-26.291700 0.000000
-26.267000 0.000000
-26.242200 0.000000
-26.217400 0.000000
-26.192600 0.000000
-26.167800 0.000000
-26.143000 0.000000
-26.118200 0.000000
-26.093400 0.000000
-26.068600 0.000000
-26.043900 0.000000
-26.019100 0.000000
-25.994300 0.000000
-25.969500 0.000000
-25.944700 0.000000
-25.919900 0.000000
-25.895100 0.000000
-25.870300 0.000000
-25.845500 0.000000
-25.820800 0.000000
-25.796000 0.000000
-25.771200 0.000000
-25.746400 0.000000
-25.721600 0.000000
-25.696800 0.000000
-25.672000 0.000000
-25.647200 0.000000
-25.622400 0.000000
-25.597600 0.000000
-25.572900 0.000000
-25.548100 0.000000
-25.523300 0.000000
-25.498500 0.000000
-25.473700 0.000000
-25.448900 0.000000
-25.424100 679.241700
-25.399300 0.000000
-25.374500 0.000000
-25.349800 0.000000
-25.325000 0.000000
-25.300200 0.000000
-25.275400 0.000000
-25.250600 0.000000
-25.225800 0.000000
-25.201000 0.000000
-25.176200 0.000000
-25.151400 0.000000
-25.126700 0.000000
-25.101900 0.000000
-25.077100 0.000000
-25.052300 0.000000
-25.027500 0.000000
-25.002700 0.000000
-24.977900 0.000000
-24.953100 0.000000
-24.928300 0.000000
-24.903600 0.000000
-24.878800 0.000000
-24.854000 0.000000
-24.829200 0.000000
-24.804400 0.000000
-24.779600 0.000000
-24.754800 59.571900
-24.730000 0.000000
-24.705200 0.000000
-24.680400 115.432600
-24.655700 4.360400
-24.630900 0.000000
-24.606100 0.000000
-24.581300 0.000000
-24.556500 0.000000
-24.531700 131.329200
-24.506900 44.694700
-24.482100 40.712400
-24.457300 82.211700
-24.432600 0.000000
-24.407800 182.965500
-24.383000 0.000000
-24.358200 0.000000
-24.333400 0.000000
-24.308600 0.000000
-24.283800 0.000000
-24.259000 0.000000
-24.234200 0.000000
-24.209500 0.000000
-24.184700 0.000000
-24.159900 0.000000
-24.135100 0.000000
-24.110300 0.000000
-24.085500 0.000000
-24.060700 0.000000
-24.035900 0.000000
-24.011100 0.010300
-23.986400 1.506500
-23.961600 6.237000
-23.936800 11.912400
-23.912000 11.201800
-23.887200 9.526100
-23.862400 9.805100
-23.837600 13.828200
-23.812800 19.840000
-23.788000 23.144900
-23.763200 19.014200
-23.738500 13.383100
-23.713700 9.564600
-23.688900 1.060300
-23.664100 2.961100
-23.639300 7.190500
-23.614500 13.275600
-23.589700 11.691600
-23.564900 10.512200
-23.540100 10.532900
-23.515400 28.157100
-23.490600 2.721800
-23.465800 6.844700
-23.441000 33.198200
-23.416200 19.271500
-23.391400 19.092800
-23.366600 5.866600
-23.341800 1.629300
-23.317000 0.129300
-23.292300 0.000000
-23.267500 0.000000
-23.242700 0.000000
-23.217900 1.959300
-23.193100 10.288500
-23.168300 28.911700
-23.143500 37.471100
-23.118700 6.758900
-23.093900 8.387800
-23.069100 51.450100
-23.044400 24.931000
-23.019600 0.000000
-22.994800 9.146600
-22.970000 8.089500
-22.945200 10.675200
-22.920400 14.665800
-22.895600 13.908700
-22.870800 13.933800
-22.846000 19.449500
-22.821300 27.631000
-22.796500 27.667900
-22.771700 0.000000
-22.746900 0.000000
-22.722100 0.000000
-22.697300 47.245900
-22.672500 146.923600
-22.647700 0.000000
-22.622900 0.000000
-22.598200 0.000000
-22.573400 138.217800
-22.548600 84.489000
-22.523800 0.000000
-22.499000 0.000000
-22.474200 0.000000
-22.449400 0.000000
-22.424600 0.000000
-22.399800 0.000000
-22.375100 0.000000
-22.350300 0.000000
-22.325500 0.000000
-22.300700 0.000000
-22.275900 0.000000
-22.251100 0.000000
-22.226300 0.000000
-22.201500 60.029800
-22.176700 160.316500
-22.151900 0.000000
-22.127200 0.000000
-22.102400 0.000000
-22.077600 0.000000
-22.052800 0.000000
-22.028000 0.000000
-22.003200 0.000000
-21.978400 0.000000
-21.953600 0.000000
-21.928800 0.000000
-21.904100 0.000000
-21.879300 0.000000
-21.854500 0.000000
-21.829700 0.000000
-21.804900 0.000000
-21.780100 0.000000
-21.755300 0.000000
-21.730500 0.000000
-21.705700 0.000000
-21.681000 0.000000
-21.656200 0.000000
-21.631400 0.000000
-21.606600 0.000000
-21.581800 0.000000
-21.557000 0.000000
-21.532200 0.000000
-21.507400 302.760800
-21.482600 0.000000
-21.457900 0.000000
-21.433100 0.000000
-21.408300 0.000000
-21.383500 0.000000
-21.358700 0.000000
-21.333900 0.000000
-21.309100 0.000000
-21.284300 0.000000
-21.259500 0.000000
-21.234700 0.000000
-21.210000 0.000000
-21.185200 0.000000
-21.160400 0.000000
-21.135600 0.000000
-21.110800 0.000000
-21.086000 0.000000
-21.061200 0.000000
-21.036400 0.000000
-21.011600 0.000000
-20.986900 0.000000
-20.962100 0.000000
-20.937300 0.000000
-20.912500 0.000000
-20.887700 0.000000
-20.862900 0.000000
-20.838100 0.000000
-20.813300 0.000000
-20.788500 0.000000
-20.763800 0.000000
-20.739000 0.000000
-20.714200 0.000000
-20.689400 0.000000
-20.664600 0.000000
-20.639800 0.000000
-20.615000 0.000000
-20.590200 0.000000
-20.565400 0.000000
-20.540700 0.000000
-20.515900 0.000000
-20.491100 0.000000
-20.466300 0.000000
-20.441500 0.000000
-20.416700 0.000000
-20.391900 0.000000
-20.367100 0.000000
-20.342300 0.000000
-20.317500 0.000000
-20.292800 0.000000
-20.268000 0.000000
-20.243200 0.000000
-20.218400 0.000000
-20.193600 0.000000
-20.168800 0.000000
-20.144000 0.000000
-20.119200 0.000000
-20.094400 0.000000
-20.069700 0.000000
-20.044900 0.000000
-20.020100 0.000000
-19.995300 0.000000
-19.970500 0.000000
-19.945700 0.000000
-19.920900 0.000000
-19.896100 0.000000
-19.871300 0.000000
-19.846600 0.000000
-19.821800 0.000000
-19.797000 0.000000
-19.772200 0.000000
-19.747400 0.000000
-19.722600 0.000000
-19.697800 0.000000
-19.673000 0.000000
-19.648200 0.000000
-19.623400 0.000000
-19.598700 0.000000
-19.573900 0.000000
-19.549100 0.000000
-19.524300 0.000000
-19.499500 0.000000
-19.474700 0.000000
-19.449900 0.000000
-19.425100 0.000000
-19.400300 0.000000
-19.375600 0.000000
-19.350800 0.000000
-19.326000 0.000000
-19.301200 0.000000
-19.276400 0.000000
-19.251600 0.000000
-19.226800 0.000000
-19.202000 0.000000
-19.177200 0.000000
-19.152500 0.000000
-19.127700 0.000000
-19.102900 0.000000
-19.078100 0.000000
-19.053300 0.000000
-19.028500 0.000000
-19.003700 0.000000
-18.978900 0.000000
-18.954100 0.000000
-18.929400 0.000000
-18.904600 0.000000
-18.879800 0.000000
-18.855000 0.000000
-18.830200 0.000000
-18.805400 0.000000
-18.780600 0.000000
-18.755800 0.000000
-18.731000 0.000000
-18.706200 0.000000
-18.681500 0.000000
-18.656700 0.000000
-18.631900 0.000000
-18.607100 0.000000
-18.582300 0.000000
-18.557500 0.000000
-18.532700 0.000000
-18.507900 0.000000
-18.483100 0.000000
-18.458400 0.000000
-18.433600 0.000000
-18.408800 0.000000
-18.384000 0.000000
-18.359200 0.000000
-18.334400 0.000000
-18.309600 0.000000
-18.284800 0.000000
-18.260000 0.000000
-18.235300 0.000000
-18.210500 0.000000
-18.185700 0.000000
-18.160900 0.000000
-18.136100 0.000000
-18.111300 0.000000
-18.086500 0.000000
-18.061700 0.000000
-18.036900 0.000000
-18.012200 0.000000
-17.987400 0.000000
-17.962600 0.000000
-17.937800 0.000000
-17.913000 0.000000
-17.888200 0.000000
-17.863400 0.000000
-17.838600 0.000000
-17.813800 0.000000
-17.789000 0.000000
-17.764300 0.000000
-17.739500 0.000000
-17.714700 0.000000
-17.689900 0.000000
-17.665100 0.000000
-17.640300 0.000000
-17.615500 0.000000
-17.590700 0.000000
-17.565900 0.000000
-17.541200 0.000000
-17.516400 0.000000
-17.491600 0.000000
-17.466800 0.000000
-17.442000 0.000000
-17.417200 0.000000
-17.392400 0.000000
-17.367600 0.000000
-17.342800 0.000000
-17.318100 0.000000
-17.293300 0.000000
-17.268500 0.000000
-17.243700 0.000000
-17.218900 0.000000
-17.194100 0.000000
-17.169300 0.000000
-17.144500 0.000000
-17.119700 0.000000
-17.094900 0.000000
-17.070200 0.000000
-17.045400 0.000000
-17.020600 0.000000
-16.995800 0.000000
-16.971000 0.000000
-16.946200 0.000000
-16.921400 0.000000
-16.896600 0.000000
-16.871800 0.000000
-16.847100 0.000000
-16.822300 0.000000
-16.797500 0.000000
-16.772700 0.000000
-16.747900 0.000000
-16.723100 0.000000
-16.698300 0.000000
-16.673500 0.000000
-16.648700 0.000000
-16.624000 0.000000
-16.599200 0.000000
-16.574400 0.000000
-16.549600 0.000000
-16.524800 0.000000
-16.500000 0.000000
-16.475200 0.000000
-16.450400 0.000000
-16.425600 0.000000
-16.400900 0.000000
-16.376100 0.000000
-16.351300 0.000000
-16.326500 0.000000
-16.301700 0.000000
-16.276900 0.000000
-16.252100 0.000000
-16.227300 0.000000
-16.202500 0.000000
-16.177700 0.000000
-16.153000 0.000000
-16.128200 0.000000
-16.103400 0.000000
-16.078600 0.000000
-16.053800 0.000000
-16.029000 0.000000
-16.004200 0.000000
-15.979400 0.000000
-15.954600 0.000000
-15.929900 0.000000
-15.905100 0.000000
-15.880300 0.000000
-15.855500 0.000000
-15.830700 0.000000
-15.805900 0.000000
-15.781100 0.000000
-15.756300 0.000000
-15.731500 0.000000
-15.706800 0.000000
-15.682000 0.000000
-15.657200 0.000000
-15.632400 0.000000
-15.607600 0.000000
-15.582800 0.000000
-15.558000 0.000000
-15.533200 0.000000
-15.508400 0.000000
-15.483700 0.000000
-15.458900 0.000000
-15.434100 0.000000
-15.409300 0.000000
-15.384500 0.000000
-15.359700 0.000000
-15.334900 0.000000
-15.310100 0.000000
-15.285300 0.000000
-15.260500 0.000000
-15.235800 0.000000
-15.211000 0.000000
-15.186200 0.000000
-15.161400 0.000000
-15.136600 0.000000
-15.111800 0.000000
-15.087000 0.000000
-15.062200 0.000000
-15.037400 0.000000
-15.012700 0.000000
-14.987900 0.000000
-14.963100 0.000000
-14.938300 0.000000
-14.913500 0.000000
-14.888700 0.000000
-14.863900 0.000000
-14.839100 0.000000
-14.814300 0.000000
-14.789600 0.000000
-14.764800 0.000000
-14.740000 0.000000
-14.715200 0.000000
-14.690400 0.000000
-14.665600 0.000000
-14.640800 0.000000
-14.616000 0.000000
-14.591200 0.000000
-14.566500 0.000000
-14.541700 0.000000
-14.516900 0.000000
-14.492100 0.000000
-14.467300 0.000000
-14.442500 0.000000
-14.417700 0.000000
-14.392900 0.000000
-14.368100 0.000000
-14.343300 0.000000
-14.318600 0.000000
-14.293800 0.000000
-14.269000 0.000000
-14.244200 0.000000
-14.219400 0.000000
-14.194600 0.000000
-14.169800 0.000000
-14.145000 0.000000
-14.120200 0.000000
-14.095500 0.000000
-14.070700 0.000000
-14.045900 0.000000
-14.021100 0.000000
-13.996300 0.000000
-13.971500 0.000000
-13.946700 0.000000
-13.921900 0.000000
-13.897100 0.000000
-13.872400 0.000000
-13.847600 0.000000
-13.822800 0.000000
-13.798000 0.000000
-13.773200 0.000000
-13.748400 0.000000
-13.723600 0.000000
-13.698800 0.000000
-13.674000 0.000000
-13.649200 0.000000
-13.624500 0.000000
-13.599700 0.000000
-13.574900 0.000000
-13.550100 0.000000
-13.525300 0.000000
-13.500500 0.000000
-13.475700 0.000000
-13.450900 0.000000
-13.426100 0.000000
-13.401400 0.000000
-13.376600 0.000000
-13.351800 0.000000
-13.327000 0.000000
-13.302200 0.000000
-13.277400 0.000000
-13.252600 0.000000
-13.227800 0.000000
-13.203000 0.000000
-13.178300 0.000000
-13.153500 0.000000
-13.128700 0.000000
-13.103900 0.000000
-13.079100 0.000000
-13.054300 0.000000
-13.029500 0.000000
-13.004700 0.000000
-12.979900 0.000000
-12.955200 0.000000
-12.930400 0.000000
-12.905600 0.000000
-12.880800 0.000000
-12.856000 0.000000
-12.831200 0.000000
-12.806400 0.000000
-12.781600 0.000000
-12.756800 0.000000
-12.732000 0.000000
-12.707300 0.000000
-12.682500 0.000000
-12.657700 0.000000
-12.632900 0.000000
-12.608100 0.000000
-12.583300 0.000000
-12.558500 0.000000
-12.533700 0.000000
-12.508900 0.000000
-12.484200 0.000000
-12.459400 0.000000
-12.434600 0.000000
-12.409800 0.000000
-12.385000 0.000000
-12.360200 0.000000
-12.335400 0.000000
-12.310600 0.000000
-12.285800 0.000000
-12.261100 0.000000
-12.236300 0.000000
-12.211500 0.000000
-12.186700 0.000000
-12.161900 0.000000
-12.137100 0.000000
-12.112300 0.000000
-12.087500 0.000000
-12.062700 0.000000
-12.038000 0.000000
-12.013200 0.000000
-11.988400 0.000000
-11.963600 0.000000
-11.938800 0.000000
-11.914000 0.000000
-11.889200 0.000000
-11.864400 0.000000
-11.839600 0.000000
-11.814800 0.000000
-11.790100 0.000000
-11.765300 0.000000
-11.740500 0.000000
-11.715700 0.000000
-11.690900 0.000000
-11.666100 0.000000
-11.641300 0.000000
-11.616500 0.000000
-11.591700 0.000000
-11.567000 0.000000
-11.542200 0.000000
-11.517400 0.000000
-11.492600 0.000000
-11.467800 0.000000
-11.443000 0.000000
-11.418200 0.000000
-11.393400 0.000000
-11.368600 0.000000
-11.343900 0.000000
-11.319100 0.000000
-11.294300 0.000000
-11.269500 0.000000
-11.244700 0.000000
-11.219900 0.000000
-11.195100 0.000000
-11.170300 0.000000
-11.145500 0.000000
-11.120700 0.000000
-11.096000 0.000000
-11.071200 0.000000
-11.046400 0.000000
-11.021600 0.000000
-10.996800 0.000000
-10.972000 0.000000
-10.947200 0.000000
-10.922400 0.000000
-10.897600 0.000000
-10.872900 0.000000
-10.848100 0.000000
-10.823300 0.000000
-10.798500 0.000000
-10.773700 0.000000
-10.748900 0.000000
-10.724100 0.000000
-10.699300 0.000000
-10.674500 0.000000
-10.649800 0.000000
-10.625000 0.000000
-10.600200 0.000000
-10.575400 0.000000
-10.550600 0.000000
-10.525800 0.000000
-10.501000 0.000000
-10.476200 0.000000
-10.451400 0.000000
-10.426700 0.000000
-10.401900 0.000000
-10.377100 0.000000
-10.352300 0.000000
-10.327500 0.000000
-10.302700 0.000000
-10.277900 0.000000
-10.253100 0.000000
-10.228300 0.000000
-10.203500 0.000000
-10.178800 0.000000
-10.154000 0.000000
-10.129200 0.000000
-10.104400 0.000000
-10.079600 0.000000
-10.054800 0.000000
-10.030000 0.000000
-10.005200 0.000000
-9.980400 0.000000
-9.955700 0.000000
-9.930900 0.000000
-9.906100 0.000000
-9.881300 0.000000
-9.856500 0.000000
-9.831700 0.013300
-9.806900 0.463000
-9.782100 1.550900
-9.757300 3.373400
-9.732600 4.374000
-9.707800 5.941900
-9.683000 7.306100
-9.658200 7.244700
-9.633400 8.951300
-9.608600 9.902500
-9.583800 8.889000
-9.559000 8.790500
-9.534200 8.594300
-9.509500 8.150900
-9.484700 7.142400
-9.459900 7.103900
-9.435100 7.129600
-9.410300 9.986400
-9.385500 16.785600
-9.360700 20.784500
-9.335900 7.085500
-9.311100 10.855900
-9.286300 9.042300
-9.261600 6.766900
-9.236800 8.686900
-9.212000 7.659000
-9.187200 4.205000
-9.162400 3.664300
-9.137600 3.585200
-9.112800 3.488800
-9.088000 3.373200
-9.063200 3.267700
-9.038500 3.277200
-9.013700 3.411000
-8.988900 6.136700
-8.964100 6.428300
-8.939300 8.117300
-8.914500 7.692400
-8.889700 8.005600
-8.864900 7.640700
-8.840100 6.071000
-8.815400 5.500600
-8.790600 5.314900
-8.765800 5.190000
-8.741000 5.022300
-8.716200 5.326300
-8.691400 6.883200
-8.666600 5.715800
-8.641800 3.173800
-8.617000 2.509300
-8.592300 1.916200
-8.567500 1.394500
-8.542700 0.944200
-8.517900 0.645300
-8.493100 0.421500
-8.468300 0.228600
-8.443500 0.066400
-8.418700 0.000000
-8.393900 0.000000
-8.369100 0.220000
-8.344400 0.468400
-8.319600 0.975600
-8.294800 1.740000
-8.270000 3.325300
-8.245200 3.569500
-8.220400 3.806000
-8.195600 2.605300
-8.170800 2.512600
-8.146000 2.395200
-8.121300 2.253100
-8.096500 2.119700
-8.071700 2.038000
-8.046900 1.943900
-8.022100 1.837500
-7.997300 1.839600
-7.972500 2.486500
-7.947700 9.831800
-7.922900 5.695400
-7.898200 5.108200
-7.873400 4.472000
-7.848600 4.126100
-7.823800 3.911400
-7.799000 4.178000
-7.774200 4.471700
-7.749400 4.653400
-7.724600 4.811800
-7.699800 4.946900
-7.675000 4.651100
-7.650300 4.038700
-7.625500 3.437600
-7.600700 2.945900
-7.575900 2.697000
-7.551100 2.466000
-7.526300 2.252900
-7.501500 2.057800
-7.476700 1.880700
-7.451900 1.730000
-7.427200 1.626500
-7.402400 1.567300
-7.377600 1.544700
-7.352800 1.596300
-7.328000 1.776500
-7.303200 1.990400
-7.278400 2.208000
-7.253600 2.429300
-7.228800 2.585900
-7.204100 2.666100
-7.179300 2.709700
-7.154500 2.712400
-7.129700 2.650100
-7.104900 2.518100
-7.080100 2.253000
-7.055300 1.977300
-7.030500 1.691800
-7.005700 1.398400
-6.981000 1.109200
-6.956200 0.826300
-6.931400 0.647800
-6.906600 0.492700
-6.881800 0.356100
-6.857000 0.238200
-6.832200 0.138900
-6.807400 0.058200
-6.782600 0.008900
-6.757800 0.000000
-6.733100 0.000000
-6.708300 0.755300
-6.683500 4.358800
-6.658700 12.559200
-6.633900 37.390200
-6.609100 10.564000
-6.584300 22.033800
-6.559500 14.539000
-6.534700 14.520400
-6.510000 6.493200
-6.485200 6.415200
-6.460400 6.413700
-6.435600 6.420600
-6.410800 6.436000
-6.386000 6.459900
-6.361200 6.062400
-6.336400 3.842100
-6.311600 2.879500
-6.286900 0.225700
-6.262100 0.000000
-6.237300 0.264000
-6.212500 1.134300
-6.187700 2.124900
-6.162900 3.018900
-6.138100 3.718600
-6.113300 4.539400
-6.088500 6.167800
-6.063800 27.438700
-6.039000 33.039800
-6.014200 43.810700
-5.989400 7.060600
-5.964600 11.752200
-5.939800 35.605000
-5.915000 28.201000
-5.890200 31.890500
-5.865400 11.062300
-5.840600 12.219500
-5.815900 11.881300
-5.791100 13.933200
-5.766300 6.138400
-5.741500 6.854000
-5.716700 7.384900
-5.691900 8.194300
-5.667100 9.141000
-5.642300 9.986100
-5.617500 25.903700
-5.592800 12.276700
-5.568000 12.748800
-5.543200 16.374800
-5.518400 19.186800
-5.493600 15.961200
-5.468800 5.984500
-5.444000 3.954500
-5.419200 6.257700
-5.394400 10.069100
-5.369700 7.507700
-5.344900 8.445300
-5.320100 13.064600
-5.295300 28.478900
-5.270500 20.418000
-5.245700 19.698000
-5.220900 15.412200
-5.196100 13.667100
-5.171300 14.890000
-5.146500 16.691000
-5.121800 26.653800
-5.097000 28.628000
-5.072200 36.332600
-5.047400 17.989900
-5.022600 13.508000
-4.997800 11.521600
-4.973000 10.652500
-4.948200 10.909000
-4.923400 17.716400
-4.898700 16.967700
-4.873900 16.315800
-4.849100 19.180800
-4.824300 22.520300
-4.799500 27.206300
-4.774700 24.221200
-4.749900 5.309900
-4.725100 3.321100
-4.700300 7.525400
-4.675600 11.344300
-4.650800 19.007600
-4.626000 19.060900
-4.601200 23.784900
-4.576400 21.052700
-4.551600 15.797700
-4.526800 19.125600
-4.502000 32.248200
-4.477200 26.876100
-4.452500 18.086900
-4.427700 23.251900
-4.402900 19.805300
-4.378100 19.075200
-4.353300 18.512600
-4.328500 17.217700
-4.303700 10.491800
-4.278900 30.556300
-4.254100 25.208200
-4.229300 15.424000
-4.204600 21.173400
-4.179800 31.225400
-4.155000 25.774300
-4.130200 10.119600
-4.105400 13.265900
-4.080600 26.746000
-4.055800 26.265600
-4.031000 31.277600
-4.006200 31.962600
-3.981500 30.975300
-3.956700 21.109300
-3.931900 27.260500
-3.907100 38.434800
-3.882300 27.166100
-3.857500 31.961200
-3.832700 45.609000
-3.807900 38.391800
-3.783100 25.207600
-3.758400 41.737700
-3.733600 48.049200
-3.708800 35.200500
-3.684000 27.542900
-3.659200 33.146400
-3.634400 25.792500
-3.609600 14.937700
-3.584800 19.999200
-3.560000 22.800500
-3.535300 17.244800
-3.510500 19.865100
-3.485700 32.649100
-3.460900 21.281400
-3.436100 9.696500
-3.411300 6.267300
-3.386500 37.179100
-3.361700 36.326200
-3.336900 43.813600
-3.312100 25.253600
-3.287400 10.409600
-3.262600 1.020000
-3.237800 10.796700
-3.213000 25.072700
-3.188200 64.406600
-3.163400 44.735900
-3.138600 35.298600
-3.113800 108.523700
-3.089000 36.165300
-3.064300 38.999600
-3.039500 40.637400
-3.014700 48.926100
-2.989900 36.965300
-2.965100 41.631100
-2.940300 23.454900
-2.915500 20.211300
-2.890700 22.596000
-2.865900 21.271200
-2.841200 19.081700
-2.816400 11.536000
-2.791600 6.608700
-2.766800 1.114700
-2.742000 0.000000
-2.717200 0.060200
-2.692400 0.804800
-2.667600 2.398700
-2.642800 27.896200
-2.618100 30.958800
-2.593300 0.010100
-2.568500 0.482200
-2.543700 1.524000
-2.518900 2.403100
-2.494100 4.832000
-2.469300 6.488000
-2.444500 7.877800
-2.419700 8.457900
-2.394900 6.591500
-2.370200 5.191700
-2.345400 7.878700
-2.320600 11.471500
-2.295800 12.975300
-2.271000 11.434400
-2.246200 8.331800
-2.221400 7.361400
-2.196600 7.490800
-2.171800 20.234400
-2.147100 8.154600
-2.122300 6.069300
-2.097500 7.914500
-2.072700 10.097000
-2.047900 0.000000
-2.023100 0.000000
-1.998300 0.000000
-1.973500 0.000000
-1.948700 0.000000
-1.924000 0.000000
-1.899200 0.000000
-1.874400 0.000000
-1.849600 11.646100
-1.824800 13.511700
-1.800000 36.327500
-1.775200 7.090800
-1.750400 7.086700
-1.725600 7.083400
-1.700800 7.081200
-1.676100 7.079900
-1.651300 7.236500
-1.626500 11.347300
-1.601700 14.570900
-1.576900 14.489800
-1.552100 10.051000
-1.527300 8.030700
-1.502500 6.859700
-1.477700 5.648300
-1.453000 4.164600
-1.428200 1.429400
-1.403400 0.000000
-1.378600 0.000000
-1.353800 0.000000
-1.329000 0.000000
-1.304200 0.000000
-1.279400 0.000000
-1.254600 0.000000
-1.229900 0.000000
-1.205100 0.000000
-1.180300 0.000000
-1.155500 0.000000
-1.130700 0.000000
-1.105900 0.000000
-1.081100 0.000000
-1.056300 0.000000
-1.031500 0.000000
-1.006800 0.000000
-0.982000 0.000000
-0.957200 0.000000
-0.932400 0.000000
-0.907600 0.000000
-0.882800 0.000000
-0.858000 0.000000
-0.833200 0.000000
-0.808400 0.000000
-0.783600 0.000000
-0.758900 0.000000
-0.734100 0.000000
-0.709300 0.000000
-0.684500 0.000000
-0.659700 0.000000
-0.634900 0.000000
-0.610100 0.000000
-0.585300 0.000000
-0.560500 0.000000
-0.535800 0.000000
-0.511000 0.000000
-0.486200 0.000000
-0.461400 0.000000
-0.436600 0.000000
-0.411800 0.000000
-0.387000 0.000000
-0.362200 0.000000
-0.337400 0.000000
-0.312700 0.000000
-0.287900 0.000000
-0.263100 0.000000
-0.238300 0.000000
-0.213500 0.000000
-0.188700 0.000000
-0.163900 0.000000
-0.139100 0.000000
-0.114300 0.000000
-0.089600 0.000000
-0.064800 0.000000
-0.040000 0.000000
-0.015200 0.000000
0.009600 0.000000
0.034400 0.000000
0.059200 0.000000
0.084000 0.000000
0.108800 0.000000
0.133600 0.000000
0.158300 0.000000
0.183100 0.000000
0.207900 0.000000
0.232700 0.000000
0.257500 0.000000
0.282300 0.000000
0.307100 0.000000
0.331900 0.000000
0.356700 0.000000
0.381400 0.000000
0.406200 0.000000
0.431000 0.000000
0.455800 0.000000
0.480600 0.000000
0.505400 0.000000
0.530200 0.000000
0.555000 0.000000
0.579800 0.000000
0.604500 0.000000
0.629300 0.000000
0.654100 0.000000
0.678900 0.000000
0.703700 0.000000
0.728500 0.000000
0.753300 0.000000
0.778100 0.000000
0.802900 0.000000
0.827700 0.000000
0.852400 0.000000
0.877200 0.000000
0.902000 0.000000
0.926800 0.000000
0.951600 0.000000
0.976400 0.000000
1.001200 0.000000
1.026000 0.000000
1.050800 0.000000
1.075500 0.000000
1.100300 0.000000
1.125100 0.000000
1.149900 0.000000
1.174700 0.000000
1.199500 0.000000
1.224300 0.000000
1.249100 0.000000
1.273900 0.000000
1.298600 0.000000
1.323400 0.000000
1.348200 0.000000
1.373000 0.000000
1.397800 0.000000
1.422600 0.000000
1.447400 0.000000
1.472200 0.000000
1.497000 0.000000
1.521700 0.000000
1.546500 0.000000
1.571300 0.000000
1.596100 0.000000
1.620900 0.000000
1.645700 0.000000
1.670500 0.000000
1.695300 0.000000
1.720100 0.000000
1.744900 0.000000
1.769600 0.000000
1.794400 0.000000
1.819200 0.000000
1.844000 0.000000
1.868800 0.000000
1.893600 0.000000
1.918400 0.000000
1.943200 0.000000
1.968000 0.000000
1.992700 0.000000
2.017500 0.000000
2.042300 0.000000
2.067100 0.000000
2.091900 0.000000
2.116700 0.000000
2.141500 0.000000
2.166300 0.000000
2.191100 0.000000
2.215800 0.000000
2.240600 0.000000
2.265400 0.000000
2.290200 0.000000
2.315000 0.000000
2.339800 0.000000
2.364600 0.000000
2.389400 0.000000
2.414200 0.000000
2.438900 0.000000
2.463700 0.000000
2.488500 0.000000
2.513300 0.000000
2.538100 0.000000
2.562900 0.000000
2.587700 0.000000
2.612500 0.000000
2.637300 0.000000
2.662100 0.000000
2.686800 0.000000
2.711600 0.000000
2.736400 0.000000
2.761200 0.000000
2.786000 0.000000
2.810800 0.000000
2.835600 0.000000
2.860400 0.000000
2.885200 0.000000
2.909900 0.000000
2.934700 0.000000
2.959500 0.000000
2.984300 1.403000
3.009100 2.066700
3.033900 2.803200
3.058700 3.488400
3.083500 4.068300
3.108300 4.533000
3.133000 4.875000
3.157800 5.054800
3.182600 4.909500
3.207400 4.400500
3.232200 4.264000
3.257000 4.231700
3.281800 4.095100
3.306600 3.851500
3.331400 3.500800
3.356100 3.471500
3.380900 3.247900
3.405700 3.204200
3.430500 3.809600
3.455300 4.405000
3.480100 4.873400
3.504900 6.360300
3.529700 9.335300
3.554500 9.929400
3.579300 9.633400
3.604000 10.246500
3.628800 9.040000
3.653600 6.441500
3.678400 5.496200
3.703200 4.639700
3.728000 3.991200
3.752800 2.437200
3.777600 1.491000
3.802400 0.000000
3.827100 0.000000
3.851900 0.000000
3.876700 0.000000
3.901500 0.000000
3.926300 0.000000
3.951100 0.000000
3.975900 15.550200
4.000700 9.391300
4.025500 12.471000
4.050200 14.103900
4.075000 24.089800
4.099800 21.070000
4.124600 24.243400
4.149400 23.647400
4.174200 16.903200
4.199000 10.587700
4.223800 7.863600
4.248600 9.366300
4.273400 8.947800
4.298100 9.463500
4.322900 8.909200
4.347700 8.122300
4.372500 8.015900
4.397300 7.496100
4.422100 6.158700
4.446900 7.597000
4.471700 25.214400
4.496500 13.915100
4.521200 12.385900
4.546000 12.646300
4.570800 11.935300
4.595600 6.855300
4.620400 1.392100
4.645200 1.400300
4.670000 3.998100
4.694800 7.014200
4.719600 11.856200
4.744300 16.233600
4.769100 15.191100
4.793900 9.410800
4.818700 8.245200
4.843500 8.922400
4.868300 9.301400
4.893100 14.059600
4.917900 14.264900
4.942700 8.971600
4.967400 7.938600
4.992200 6.893300
5.017000 5.835700
5.041800 4.765900
5.066600 3.683700
5.091400 1.825700
5.116200 1.062700
5.141000 0.634200
5.165800 2.383700
5.190600 4.992000
5.215300 6.010800
5.240100 6.849300
5.264900 5.607500
5.289700 4.227000
5.314500 3.806400
5.339300 4.150800
5.364100 4.574800
5.388900 5.109700
5.413700 5.873400
5.438400 8.129600
5.463200 9.583400
5.488000 11.500800
5.512800 11.364100
5.537600 9.155400
5.562400 8.635000
5.587200 8.359300
5.612000 8.362100
5.636800 8.660800
5.661500 8.722100
5.686300 10.766700
5.711100 11.902600
5.735900 10.706800
5.760700 9.304000
5.785500 10.446600
5.810300 11.743700
5.835100 11.339800
5.859900 12.327100
5.884600 10.708400
5.909400 6.463900
5.934200 6.895800
5.959000 10.206800
5.983800 15.075000
6.008600 15.111000
6.033400 6.659800
6.058200 4.456200
6.083000 2.809600
6.107800 2.629700
6.132500 2.415200
6.157300 2.239500
6.182100 2.122000
6.206900 2.062700
6.231700 2.093400
6.256500 2.808700
6.281300 4.967400
6.306100 5.770800
6.330900 4.689500
6.355600 4.609700
6.380400 3.647500
6.405200 4.192400
6.430000 4.805000
6.454800 6.552500
6.479600 6.787500
6.504400 8.427700
6.529200 10.090100
6.554000 12.748700
6.578700 16.627300
6.603500 12.511900
6.628300 6.534400
6.653100 5.636800
6.677900 11.069200
6.702700 10.344400
6.727500 7.247800
6.752300 3.747900
6.777100 1.790500
6.801900 0.690600
6.826600 0.130800
6.851400 0.000000
6.876200 0.000000
6.901000 0.000000
6.925800 0.000000
6.950600 0.000000
6.975400 0.000000
7.000200 0.000000
7.025000 0.000000
7.049700 0.000000
7.074500 0.000000
7.099300 0.000000
7.124100 0.000000
7.148900 0.000000
7.173700 0.000000
7.198500 0.000000
7.223300 0.000000
7.248100 0.000000
7.272800 0.000000
7.297600 0.000000
7.322400 0.000000
7.347200 0.000000
7.372000 0.000000
7.396800 0.000000
7.421600 0.000000
7.446400 0.000000
7.471200 0.000000
7.495900 0.000000
7.520700 0.000000
7.545500 0.000000
7.570300 0.000000
7.595100 0.000000
7.619900 0.000000
7.644700 0.000000
7.669500 0.000000
7.694300 0.000000
7.719100 0.000000
7.743800 0.000000
7.768600 0.000000
7.793400 0.000000
7.818200 0.000000
7.843000 0.000000
7.867800 0.000000
7.892600 0.000000
7.917400 0.000000
7.942200 0.000000
7.966900 0.000000
7.991700 0.000000
8.016500 0.000000
8.041300 0.000000
8.066100 0.000000
8.090900 0.000000
8.115700 0.000000
8.140500 0.000000
8.165300 0.000000
8.190000 0.000000
8.214800 0.000000
8.239600 0.000000
8.264400 0.000000
8.289200 0.000000
8.314000 0.000000
8.338800 0.000000
8.363600 0.000000
8.388400 0.000000
8.413100 0.000000
8.437900 0.000000
8.462700 0.000000
8.487500 0.000000
8.512300 0.000000
8.537100 0.000000
8.561900 0.000000
8.586700 0.000000
8.611500 0.000000
8.636300 0.000000
8.661000 0.000000
8.685800 0.000000
8.710600 0.000000
8.735400 0.000000
8.760200 0.000000
8.785000 0.000000
8.809800 0.001000
8.834600 0.042800
8.859400 0.146600
8.884100 0.312300
8.908900 0.539900
8.933700 1.219200
8.958500 3.787900
8.983300 5.259400
9.008100 6.336600
9.032900 6.934100
9.057700 7.412900
9.082500 7.534000
9.107200 7.121400
9.132000 6.533000
9.156800 6.771000
9.181600 6.900000
9.206400 6.998100
9.231200 7.174100
9.256000 7.229900
9.280800 7.074800
9.305600 6.992400
9.330300 10.597400
9.355100 12.948200
9.379900 4.165200
9.404700 7.230600
9.429500 8.546100
9.454300 7.988900
9.479100 6.559600
9.503900 4.670100
9.528700 3.146600
9.553500 3.682700
9.578200 4.852100
9.603000 6.467900
9.627800 9.170300
9.652600 9.615200
9.677400 6.041800
9.702200 6.498200
9.727000 9.047300
9.751800 11.526700
9.776600 12.466300
9.801300 12.610000
9.826100 10.572500
9.850900 9.962600
9.875700 9.743400
9.900500 14.165800
9.925300 12.530800
9.950100 15.361300
9.974900 9.853200
9.999700 6.599800
10.024400 4.514300
10.049200 4.751700
10.074000 5.642800
10.098800 7.341500
10.123600 8.406900
10.148400 9.106600
10.173200 10.803900
10.198000 11.223900
10.222800 12.304100
10.247600 10.291200
10.272300 7.378700
10.297100 7.158000
10.321900 7.189600
10.346700 7.531100
10.371500 7.744000
10.396300 8.022200
10.421100 9.773900
10.445900 7.631700
10.470700 7.238200
10.495400 6.917500
10.520200 6.859800
10.545000 6.940300
10.569800 7.788100
10.594600 9.315500
10.619400 9.794800
10.644200 9.388700
10.669000 8.449600
10.693800 8.578400
10.718500 10.886200
10.743300 9.763200
10.768100 9.374000
10.792900 8.908400
10.817700 8.738700
10.842500 9.433700
10.867300 10.805000
10.892100 10.386400
10.916900 9.763700
10.941600 8.253800
10.966400 7.840300
10.991200 8.285400
11.016000 10.691300
11.040800 12.814100
11.065600 9.112500
11.090400 8.490300
11.115200 6.100300
11.140000 6.452600
11.164800 6.249300
11.189500 6.133500
11.214300 6.744800
11.239100 8.213500
11.263900 8.113800
11.288700 7.770400
11.313500 6.072100
11.338300 6.995600
11.363100 15.041100
11.387900 11.684300
11.412600 12.122200
11.437400 15.138000
11.462200 17.437500
11.487000 17.730900
11.511800 10.502900
11.536600 7.541800
11.561400 8.223200
11.586200 18.552300
11.611000 7.957200
11.635700 3.189700
11.660500 3.031500
11.685300 2.878300
11.710100 2.730400
11.734900 3.444700
11.759700 5.430400
11.784500 9.744600
11.809300 10.340000
11.834100 8.954800
11.858800 7.677700
11.883600 6.456600
11.908400 5.843900
11.933200 6.718200
11.958000 14.876000
11.982800 8.774400
12.007600 7.739900
12.032400 11.616400
12.057200 17.019600
12.082000 15.476800
12.106700 13.141100
12.131500 10.408800
12.156300 4.343800
12.181100 3.086200
12.205900 4.539700
12.230700 7.738000
12.255500 16.530200
12.280300 17.654900
12.305100 15.874500
12.329800 14.974200
12.354600 14.278900
12.379400 13.308200
12.404200 13.765700
12.429000 9.379100
12.453800 5.931300
12.478600 5.494800
12.503400 6.404900
12.528200 7.724500
12.552900 7.921900
12.577700 8.001400
12.602500 8.126300
12.627300 7.851700
12.652100 7.910100
12.676900 8.047600
12.701700 8.219000
12.726500 8.526600
12.751300 8.399400
12.776100 7.650500
12.800800 6.926200
12.825600 6.865000
12.850400 7.123800
12.875200 7.745800
12.900000 7.887000
12.924800 8.273100
12.949600 6.969900
12.974400 6.326800
12.999200 5.119700
13.023900 4.139700
13.048700 3.476300
13.073500 7.497400
13.098300 9.112600
13.123100 9.022300
13.147900 7.366800
13.172700 8.230200
13.197500 7.577700
13.222300 7.106800
13.247000 8.059900
13.271800 8.640600
13.296600 7.527400
13.321400 8.031900
13.346200 9.266400
13.371000 12.857700
13.395800 13.240400
13.420600 13.301000
13.445400 13.416600
13.470100 11.337900
13.494900 9.932700
13.519700 6.880800
13.544500 4.105500
13.569300 4.193600
13.594100 5.387700
13.618900 6.132300
13.643700 6.877500
13.668500 11.019300
13.693300 16.892100
13.718000 14.423100
13.742800 17.595700
13.767600 21.348100
13.792400 22.134000
13.817200 14.555200
13.842000 6.883700
13.866800 5.051100
13.891600 4.593200
13.916400 5.364600
13.941100 6.648400
13.965900 8.744200
13.990700 11.318000
14.015500 12.223200
14.040300 10.346400
14.065100 10.597700
14.089900 11.010900
14.114700 11.464900
14.139500 12.498900
14.164200 12.641800
14.189000 16.998200
14.213800 11.186300
14.238600 9.925400
14.263400 7.653700
14.288200 13.785400
14.313000 16.774200
14.337800 14.634800
14.362600 14.434600
14.387300 13.163900
14.412100 12.393200
14.436900 11.700200
14.461700 10.464100
14.486500 9.269400
14.511300 10.009000
14.536100 11.321400
14.560900 12.615600
14.585700 9.663900
14.610500 6.358800
14.635200 4.960800
14.660000 4.841000
14.684800 7.736700
14.709600 11.432800
14.734400 13.183600
14.759200 14.987200
14.784000 17.071600
14.808800 18.254700
14.833600 6.132000
14.858300 6.740100
14.883100 6.972200
14.907900 7.427300
14.932700 10.136500
14.957500 9.888500
14.982300 7.540900
15.007100 8.063100
15.031900 13.676600
15.056700 11.776300
15.081400 11.710900
15.106200 10.957800
15.131000 11.801700
15.155800 11.116300
15.180600 8.479900
15.205400 8.493100
15.230200 12.616300
15.255000 12.322100
15.279800 12.312000
15.304500 11.759100
15.329300 11.531000
15.354100 9.655100
15.378900 9.034600
15.403700 9.143700
15.428500 12.072600
15.453300 14.511400
15.478100 12.846900
15.502900 14.731600
15.527700 11.709500
15.552400 7.407000
15.577200 6.364000
15.602000 11.822800
15.626800 15.037300
15.651600 9.868800
15.676400 8.907500
15.701200 7.382600
15.726000 5.899100
15.750800 9.001600
15.775500 7.531400
15.800300 7.650300
15.825100 8.164400
15.849900 11.309700
15.874700 15.451000
15.899500 16.099600
15.924300 28.398600
15.949100 15.798400
15.973900 12.385900
15.998600 9.168800
16.023400 6.623600
16.048200 8.091500
16.073000 10.154100
16.097800 11.753800
16.122600 10.701700
16.147400 7.035200
16.172200 6.026800
16.197000 6.622900
16.221800 7.404900
16.246500 9.223300
16.271300 11.270000
16.296100 13.745300
16.320900 13.026100
16.345700 13.094600
16.370500 12.672400
16.395300 9.497600
16.420100 6.866700
16.444900 6.212900
16.469600 5.942400
16.494400 5.934200
16.519200 5.960500
16.544000 5.987300
16.568800 8.772800
16.593600 7.013600
16.618400 6.555000
16.643200 6.233900
16.668000 6.441600
16.692700 11.837500
16.717500 11.943000
16.742300 10.983600
16.767100 9.315800
16.791900 7.697900
16.816700 6.846800
16.841500 6.726600
16.866300 9.020100
16.891100 9.490800
16.915800 9.966300
16.940600 9.135000
16.965400 6.630000
16.990200 5.400100
17.015000 8.982100
17.039800 11.024600
17.064600 11.153500
17.089400 10.917800
17.114200 7.992400
17.139000 7.439300
17.163700 8.108100
17.188500 8.348100
17.213300 8.738100
17.238100 9.392500
17.262900 9.501200
17.287700 15.650300
17.312500 11.181300
17.337300 9.752300
17.362100 8.794800
17.386800 8.415600
17.411600 7.566700
17.436400 7.127900
17.461200 6.607300
17.486000 6.452400
17.510800 6.638700
17.535600 7.483900
17.560400 10.506300
17.585200 14.632600
17.609900 13.261100
17.634700 11.842400
17.659500 8.838000
17.684300 13.712600
17.709100 12.165800
17.733900 11.668900
17.758700 12.815700
17.783500 13.702800
17.808300 13.159900
17.833000 13.321700
17.857800 12.819200
17.882600 10.360100
17.907400 9.149500
17.932200 6.640200
17.957000 5.539600
17.981800 5.194500
18.006600 8.937700
18.031400 10.163000
18.056200 10.448000
18.080900 10.764900
18.105700 7.948700
18.130500 7.170900
18.155300 6.381700
18.180100 6.323000
18.204900 7.447000
18.229700 8.910900
18.254500 9.621700
18.279300 10.361600
18.304000 9.840300
18.328800 9.147100
18.353600 8.181600
18.378400 18.935300
18.403200 11.641200
18.428000 11.233400
18.452800 10.622200
18.477600 8.830000
18.502400 7.676900
18.527100 8.453600
18.551900 10.127100
18.576700 11.685200
18.601500 11.696700
18.626300 11.996400
18.651100 11.372200
18.675900 10.715000
18.700700 10.074900
18.725500 10.351000
18.750300 9.840300
18.775000 9.181000
18.799800 8.959100
18.824600 8.559700
18.849400 7.970200
18.874200 7.425100
18.899000 7.105300
18.923800 6.746000
18.948600 6.047700
18.973400 5.237100
18.998100 4.773100
19.022900 4.374000
19.047700 3.990700
19.072500 3.779000
19.097300 3.667600
19.122100 3.634900
19.146900 3.762400
19.171700 3.868100
19.196500 3.703500
19.221200 3.631600
19.246000 3.784100
19.270800 3.253200
19.295600 2.441200
19.320400 1.998900
19.345200 1.696300
19.370000 1.518100
19.394800 1.344600
19.419600 1.166900
19.444300 0.985000
19.469100 0.808900
19.493900 0.644500
19.518700 0.491300
19.543500 0.337600
19.568300 0.194800
19.593100 0.089100
19.617900 0.024300
19.642700 0.000200
19.667500 0.000000
19.692200 0.000000
19.717000 0.000000
19.741800 0.000000
19.766600 0.000000
19.791400 0.000000
19.816200 0.000000
19.841000 0.000000
19.865800 0.000000
19.890600 0.000000
19.915300 0.000000
19.940100 0.000000
19.964900 0.000000
19.989700 0.000000
20.014500 0.000000
20.039300 0.000000
20.064100 0.000000
20.088900 0.000000
20.113700 0.000000
20.138400 0.000000
20.163200 0.000000
20.188000 0.000000
20.212800 0.000000
20.237600 0.000000
20.262400 0.000000
20.287200 0.000000
20.312000 0.000000
20.336800 0.000000
20.361500 0.000000
20.386300 0.000000
20.411100 0.000000
20.435900 0.000000
20.460700 0.000000
20.485500 0.000000
20.510300 0.000000
20.535100 0.000000
20.559900 0.000000
20.584700 0.000000
20.609400 0.000000
20.634200 0.000000
20.659000 0.000000
20.683800 0.000000
20.708600 0.000000
20.733400 0.000000
20.758200 0.000000
20.783000 0.000000
20.807800 0.000000
20.832500 0.000000
20.857300 0.000000
20.882100 0.000000
20.906900 0.000000
20.931700 0.000000
20.956500 0.000000
20.981300 0.000000
21.006100 0.000000
21.030900 0.000000
21.055600 0.000000
21.080400 0.000000
21.105200 0.000000
21.130000 0.000000
21.154800 0.000000
21.179600 0.000000
21.204400 0.000000
21.229200 0.000000
21.254000 0.000000
21.278700 0.000000
21.303500 0.000000
21.328300 0.000000
21.353100 0.000000
21.377900 0.000000
21.402700 0.000000
21.427500 0.000000
21.452300 0.000000
21.477100 0.000000
21.501900 0.000000
21.526600 0.000000
21.551400 0.000000
21.576200 0.000000
21.601000 0.000000
21.625800 0.000000
21.650600 0.000000
21.675400 0.000000
21.700200 0.000000
21.725000 0.000000
21.749700 0.000000
21.774500 0.000000
21.799300 0.000000
21.824100 0.000000
21.848900 0.000000
21.873700 0.000000
21.898500 0.000000
e
