set title 'mp-10281 - Density of States'
set xlabel 'Energy (eV)'
set ylabel 'DOS (states/eV)'
set grid
set xrange [-10:10]
set yrange [0:157.354]
set xzeroaxis lt -1
set terminal png size 800,600
set output 'mp-10281_dos_gnuplot.png'
plot '-' using 1:2 with lines title 'DOS'
-12.796600 0.000000
-12.777900 0.000000
-12.759100 0.000000
-12.740400 0.000000
-12.721600 0.000000
-12.702900 0.000000
-12.684100 0.000000
-12.665400 0.000000
-12.646600 0.000000
-12.627800 0.000000
-12.609100 0.000000
-12.590300 0.000000
-12.571600 0.000000
-12.552800 0.000000
-12.534100 0.000000
-12.515300 0.000000
-12.496600 0.000000
-12.477800 0.000000
-12.459100 0.000000
-12.440300 0.000000
-12.421500 0.000000
-12.402800 0.000000
-12.384000 0.000000
-12.365300 0.000000
-12.346500 0.000000
-12.327800 0.000000
-12.309000 0.000000
-12.290300 0.000000
-12.271500 0.000000
-12.252800 0.000000
-12.234000 0.000000
-12.215200 0.000000
-12.196500 0.000000
-12.177700 0.000000
-12.159000 0.000000
-12.140200 0.000000
-12.121500 0.000000
-12.102700 0.000000
-12.084000 0.000000
-12.065200 0.000000
-12.046500 0.000000
-12.027700 0.000000
-12.008900 0.000000
-11.990200 0.000000
-11.971400 0.000000
-11.952700 0.000000
-11.933900 0.000000
-11.915200 0.000000
-11.896400 0.000000
-11.877700 0.000000
-11.858900 0.000000
-11.840200 0.000000
-11.821400 0.000000
-11.802600 0.000000
-11.783900 0.000000
-11.765100 0.000000
-11.746400 0.000000
-11.727600 0.000000
-11.708900 0.000000
-11.690100 0.000000
-11.671400 0.000000
-11.652600 0.000000
-11.633900 0.000000
-11.615100 0.000000
-11.596300 0.000000
-11.577600 0.000000
-11.558800 0.000000
-11.540100 0.000000
-11.521300 0.000000
-11.502600 0.000000
-11.483800 0.000000
-11.465100 0.000000
-11.446300 0.000000
-11.427600 0.000000
-11.408800 0.000000
-11.390000 0.000000
-11.371300 0.000000
-11.352500 0.000000
-11.333800 0.000000
-11.315000 0.000000
-11.296300 0.000000
-11.277500 0.000000
-11.258800 0.000000
-11.240000 0.000000
-11.221300 0.000000
-11.202500 0.000000
-11.183700 0.000000
-11.165000 0.000000
-11.146200 0.000000
-11.127500 0.000000
-11.108700 0.000000
-11.090000 0.000200
-11.071200 0.028200
-11.052500 0.103700
-11.033700 0.226500
-11.015000 0.396800
-10.996200 0.614500
-10.977400 0.879900
-10.958700 1.164200
-10.939900 1.307500
-10.921200 1.424800
-10.902400 1.515900
-10.883700 1.580900
-10.864900 1.619800
-10.846200 1.697700
-10.827400 1.820400
-10.808700 1.946400
-10.789900 2.075600
-10.771100 2.208000
-10.752400 2.343700
-10.733600 2.482700
-10.714900 2.623800
-10.696100 2.765300
-10.677400 2.898400
-10.658600 3.023900
-10.639900 3.146400
-10.621100 3.276100
-10.602300 3.427200
-10.583600 3.610400
-10.564800 3.804000
-10.546100 3.987700
-10.527300 4.175600
-10.508600 4.368800
-10.489800 4.567400
-10.471100 4.771300
-10.452300 4.980600
-10.433600 5.195200
-10.414800 5.415200
-10.396000 5.642600
-10.377300 5.908500
-10.358500 6.305600
-10.339800 6.837200
-10.321000 7.520100
-10.302300 8.306500
-10.283500 9.273100
-10.264800 10.742800
-10.246000 11.940300
-10.227300 12.781000
-10.208500 13.181600
-10.189700 13.374300
-10.171000 13.318500
-10.152200 13.181700
-10.133500 14.229400
-10.114700 16.069000
-10.096000 16.840900
-10.077200 14.610800
-10.058500 14.540700
-10.039700 14.387200
-10.021000 13.937700
-10.002200 15.254100
-9.983400 16.733400
-9.964700 19.705500
-9.945900 24.064300
-9.927200 21.170000
-9.908400 0.000000
-9.889700 0.000000
-9.870900 0.000000
-9.852200 0.000000
-9.833400 0.000000
-9.814700 0.000000
-9.795900 0.000000
-9.777100 0.000000
-9.758400 0.000000
-9.739600 0.000000
-9.720900 0.000000
-9.702100 0.000000
-9.683400 0.000000
-9.664600 0.000000
-9.645900 0.000000
-9.627100 0.000000
-9.608400 0.000000
-9.589600 0.000000
-9.570800 0.000000
-9.552100 0.000000
-9.533300 0.000000
-9.514600 0.000000
-9.495800 0.000000
-9.477100 0.000000
-9.458300 0.000000
-9.439600 0.000000
-9.420800 0.000000
-9.402100 0.000000
-9.383300 0.000000
-9.364500 0.000000
-9.345800 0.000000
-9.327000 0.000000
-9.308300 0.000000
-9.289500 0.000000
-9.270800 0.000000
-9.252000 0.000000
-9.233300 0.000000
-9.214500 0.000000
-9.195800 0.000000
-9.177000 0.000000
-9.158200 0.000000
-9.139500 0.000000
-9.120700 0.000000
-9.102000 0.000000
-9.083200 0.000000
-9.064500 0.000000
-9.045700 0.000000
-9.027000 0.000000
-9.008200 0.000000
-8.989500 0.000000
-8.970700 0.000000
-8.951900 0.000000
-8.933200 0.000000
-8.914400 0.000000
-8.895700 0.000000
-8.876900 0.000000
-8.858200 0.000000
-8.839400 0.000000
-8.820700 0.000000
-8.801900 0.000000
-8.783200 0.000000
-8.764400 0.000000
-8.745600 0.000000
-8.726900 0.000000
-8.708100 0.000000
-8.689400 0.000000
-8.670600 0.000000
-8.651900 0.000000
-8.633100 0.000000
-8.614400 0.000000
-8.595600 0.000000
-8.576900 0.000000
-8.558100 0.000000
-8.539300 0.000000
-8.520600 0.000000
-8.501800 0.000000
-8.483100 0.000000
-8.464300 0.000000
-8.445600 0.000000
-8.426800 0.000000
-8.408100 0.000000
-8.389300 0.000000
-8.370600 0.000000
-8.351800 0.000000
-8.333000 0.000000
-8.314300 0.000000
-8.295500 0.000000
-8.276800 0.000000
-8.258000 0.000000
-8.239300 0.000000
-8.220500 0.000000
-8.201800 0.000000
-8.183000 0.000000
-8.164300 0.000000
-8.145500 0.000000
-8.126700 0.000000
-8.108000 0.000000
-8.089200 0.000000
-8.070500 0.000000
-8.051700 0.000000
-8.033000 0.000000
-8.014200 0.000000
-7.995500 0.000000
-7.976700 0.000000
-7.958000 0.000000
-7.939200 0.000000
-7.920400 0.000000
-7.901700 0.000000
-7.882900 0.000000
-7.864200 0.000000
-7.845400 0.000000
-7.826700 0.000000
-7.807900 0.000000
-7.789200 0.000000
-7.770400 0.000000
-7.751700 0.000000
-7.732900 0.000000
-7.714100 0.000000
-7.695400 0.000000
-7.676600 0.000000
-7.657900 0.000000
-7.639100 0.000000
-7.620400 0.000000
-7.601600 0.000000
-7.582900 0.000000
-7.564100 0.000000
-7.545300 0.000000
-7.526600 0.000000
-7.507800 0.000000
-7.489100 0.000000
-7.470300 0.000000
-7.451600 0.000000
-7.432800 0.000000
-7.414100 0.000000
-7.395300 0.000000
-7.376600 0.000000
-7.357800 0.000000
-7.339000 0.000000
-7.320300 0.000000
-7.301500 0.000000
-7.282800 0.000000
-7.264000 0.000000
-7.245300 0.000000
-7.226500 0.000000
-7.207800 0.000000
-7.189000 0.000000
-7.170300 0.000000
-7.151500 0.000000
-7.132700 0.000000
-7.114000 0.000000
-7.095200 0.000000
-7.076500 0.000000
-7.057700 0.000000
-7.039000 0.000000
-7.020200 0.000000
-7.001500 0.000000
-6.982700 0.000000
-6.964000 0.000000
-6.945200 0.000000
-6.926400 0.000000
-6.907700 0.000000
-6.888900 0.000000
-6.870200 0.000000
-6.851400 0.000000
-6.832700 0.000000
-6.813900 0.000000
-6.795200 0.000000
-6.776400 0.000000
-6.757700 0.000000
-6.738900 0.000000
-6.720100 0.000000
-6.701400 0.000000
-6.682600 0.000000
-6.663900 0.000000
-6.645100 0.000000
-6.626400 0.000000
-6.607600 0.000000
-6.588900 0.000000
-6.570100 0.000000
-6.551400 0.000000
-6.532600 0.000000
-6.513800 0.000000
-6.495100 0.000000
-6.476300 0.000000
-6.457600 0.000000
-6.438800 0.000000
-6.420100 0.000000
-6.401300 0.000000
-6.382600 0.000000
-6.363800 0.000000
-6.345100 0.000000
-6.326300 0.000000
-6.307500 0.000000
-6.288800 0.000000
-6.270000 0.000000
-6.251300 0.000000
-6.232500 0.000000
-6.213800 0.000000
-6.195000 0.000000
-6.176300 0.000000
-6.157500 0.000000
-6.138800 0.000000
-6.120000 0.000000
-6.101200 0.000000
-6.082500 0.000000
-6.063700 0.000000
-6.045000 0.000000
-6.026200 0.000000
-6.007500 0.000000
-5.988700 0.000000
-5.970000 0.000000
-5.951200 0.000000
-5.932500 0.000000
-5.913700 0.000000
-5.894900 0.000000
-5.876200 0.000000
-5.857400 0.000000
-5.838700 0.000000
-5.819900 0.000000
-5.801200 0.000000
-5.782400 0.000000
-5.763700 0.000000
-5.744900 0.000000
-5.726200 0.000000
-5.707400 0.000000
-5.688600 0.000000
-5.669900 0.000000
-5.651100 0.000000
-5.632400 0.000000
-5.613600 0.000000
-5.594900 0.000000
-5.576100 0.000000
-5.557400 0.000000
-5.538600 0.000000
-5.519900 0.000000
-5.501100 0.000000
-5.482300 0.000000
-5.463600 0.000000
-5.444800 0.000000
-5.426100 0.000000
-5.407300 0.000000
-5.388600 0.000000
-5.369800 0.000000
-5.351100 0.000000
-5.332300 0.000000
-5.313600 0.000000
-5.294800 0.000000
-5.276000 0.000000
-5.257300 0.000000
-5.238500 0.000000
-5.219800 0.000000
-5.201000 0.000000
-5.182300 0.000000
-5.163500 0.000000
-5.144800 0.000000
-5.126000 0.000000
-5.107300 0.000000
-5.088500 0.000000
-5.069700 0.000000
-5.051000 0.000000
-5.032200 0.000000
-5.013500 0.000000
-4.994700 0.000000
-4.976000 0.000000
-4.957200 0.000000
-4.938500 0.000000
-4.919700 0.000000
-4.901000 0.000000
-4.882200 0.000000
-4.863400 0.000000
-4.844700 0.000000
-4.825900 0.000000
-4.807200 0.000000
-4.788400 0.000000
-4.769700 0.000000
-4.750900 0.000000
-4.732200 0.000000
-4.713400 0.000000
-4.694700 0.000000
-4.675900 0.000000
-4.657100 0.000000
-4.638400 0.000000
-4.619600 0.000000
-4.600900 0.000000
-4.582100 0.000000
-4.563400 0.000000
-4.544600 0.000000
-4.525900 0.000000
-4.507100 0.000000
-4.488400 0.000000
-4.469600 0.000000
-4.450800 0.000000
-4.432100 0.000000
-4.413300 0.000000
-4.394600 0.000000
-4.375800 53.963600
-4.357100 46.894300
-4.338300 76.602100
-4.319600 77.717200
-4.300800 84.118100
-4.282000 94.564200
-4.263300 101.916600
-4.244500 86.213300
-4.225800 75.173000
-4.207000 67.157600
-4.188300 50.484200
-4.169500 47.832600
-4.150800 50.497200
-4.132000 56.844500
-4.113300 38.754600
-4.094500 42.753000
-4.075700 37.036100
-4.057000 32.696200
-4.038200 37.254700
-4.019500 33.120100
-4.000700 32.842800
-3.982000 28.296900
-3.963200 15.449700
-3.944500 111.409300
-3.925700 138.717100
-3.907000 98.685500
-3.888200 143.049000
-3.869400 63.597500
-3.850700 26.718200
-3.831900 24.868200
-3.813200 23.298100
-3.794400 23.318800
-3.775700 23.568200
-3.756900 22.769900
-3.738200 18.673600
-3.719400 17.384400
-3.700700 16.834400
-3.681900 23.611900
-3.663100 20.266000
-3.644400 19.372100
-3.625600 15.613000
-3.606900 10.611700
-3.588100 8.601700
-3.569400 0.000000
-3.550600 0.000000
-3.531900 0.000000
-3.513100 0.000000
-3.494400 0.000000
-3.475600 0.000000
-3.456800 0.000000
-3.438100 0.000000
-3.419300 0.000000
-3.400600 0.000000
-3.381800 0.000000
-3.363100 0.000000
-3.344300 0.000000
-3.325600 0.000000
-3.306800 0.000000
-3.288100 0.000000
-3.269300 0.000000
-3.250500 0.000000
-3.231800 0.001200
-3.213000 0.005400
-3.194300 0.012600
-3.175500 0.023000
-3.156800 0.036500
-3.138000 0.053000
-3.119300 0.072600
-3.100500 0.095300
-3.081800 0.121100
-3.063000 0.149900
-3.044200 0.173200
-3.025500 0.197500
-3.006700 0.223300
-2.988000 0.359100
-2.969200 0.689800
-2.950500 1.215600
-2.931700 1.792900
-2.913000 2.099500
-2.894200 2.441300
-2.875500 2.818300
-2.856700 3.230400
-2.837900 3.677700
-2.819200 4.278100
-2.800400 4.731400
-2.781700 5.390800
-2.762900 6.162200
-2.744200 6.937800
-2.725400 7.719300
-2.706700 8.965700
-2.687900 9.210100
-2.669200 9.248700
-2.650400 8.832200
-2.631600 8.342800
-2.612900 7.542300
-2.594100 6.717300
-2.575400 5.559500
-2.556600 5.336600
-2.537900 5.167000
-2.519100 5.217100
-2.500400 5.733600
-2.481600 6.217000
-2.462900 6.548200
-2.444100 6.912000
-2.425300 7.361100
-2.406600 6.647900
-2.387800 6.624500
-2.369100 6.582000
-2.350300 6.516500
-2.331600 6.427500
-2.312800 6.315400
-2.294100 6.183000
-2.275300 5.911800
-2.256600 5.529500
-2.237800 5.242200
-2.219000 4.960600
-2.200300 4.673200
-2.181500 4.339700
-2.162800 4.238800
-2.144000 4.134900
-2.125300 4.027800
-2.106500 3.917700
-2.087800 3.804500
-2.069000 3.688100
-2.050300 3.568700
-2.031500 3.446200
-2.012700 3.320600
-1.994000 3.191900
-1.975200 3.060100
-1.956500 2.947600
-1.937700 2.866600
-1.919000 2.789300
-1.900200 2.715500
-1.881500 2.645300
-1.862700 2.578700
-1.844000 2.515900
-1.825200 2.456700
-1.806400 2.399400
-1.787700 2.344000
-1.768900 2.290500
-1.750200 2.238500
-1.731400 2.188000
-1.712700 2.139000
-1.693900 2.091500
-1.675200 2.045400
-1.656400 2.000900
-1.637700 1.957900
-1.618900 1.916800
-1.600100 1.877400
-1.581400 1.839800
-1.562600 1.804000
-1.543900 1.773400
-1.525100 1.748600
-1.506400 1.724700
-1.487600 1.701400
-1.468900 1.678900
-1.450100 1.657200
-1.431400 1.636200
-1.412600 1.615900
-1.393800 1.596400
-1.375100 1.577400
-1.356300 1.558800
-1.337600 1.540600
-1.318800 1.522000
-1.300100 1.503000
-1.281300 1.483600
-1.262600 1.797000
-1.243800 1.894900
-1.225000 2.396100
-1.206300 2.638600
-1.187500 2.914200
-1.168800 3.223000
-1.150000 3.565100
-1.131300 3.793700
-1.112500 3.355300
-1.093800 3.508500
-1.075000 3.751400
-1.056300 3.970200
-1.037500 4.157700
-1.018700 4.313900
-1.000000 4.438900
-0.981200 4.508300
-0.962500 4.567900
-0.943700 4.609600
-0.925000 4.622100
-0.906200 4.624700
-0.887500 4.616000
-0.868700 4.604300
-0.850000 4.590900
-0.831200 4.575800
-0.812400 4.558900
-0.793700 4.540200
-0.774900 4.520600
-0.756200 4.510000
-0.737400 4.511800
-0.718700 4.526300
-0.699900 4.796900
-0.681200 5.231100
-0.662400 5.432900
-0.643700 5.442200
-0.624900 5.421400
-0.606100 5.362900
-0.587400 8.806100
-0.568600 8.051400
-0.549900 6.890000
-0.531100 6.886300
-0.512400 6.855900
-0.493600 6.798900
-0.474900 6.651100
-0.456100 6.517800
-0.437400 6.262800
-0.418600 6.201500
-0.399800 6.163900
-0.381100 6.147300
-0.362300 6.128500
-0.343600 6.101900
-0.324800 6.067500
-0.306100 6.025200
-0.287300 6.028500
-0.268600 6.043300
-0.249800 5.935700
-0.231100 6.042900
-0.212300 6.080400
-0.193500 6.158800
-0.174800 6.174900
-0.156000 6.196100
-0.137300 6.215900
-0.118500 6.233500
-0.099800 6.249000
-0.081000 6.262500
-0.062300 6.273800
-0.043500 6.191400
-0.024800 6.212800
-0.006000 6.287300
0.012800 6.362300
0.031500 6.437800
0.050300 6.513600
0.069000 6.590300
0.087800 6.680900
0.106500 6.796400
0.125300 6.931800
0.144000 7.083800
0.162800 7.298300
0.181500 7.456900
0.200300 7.622100
0.219100 7.796900
0.237800 7.981900
0.256600 8.019500
0.275300 8.182600
0.294100 8.306800
0.312800 8.320700
0.331600 8.224700
0.350300 8.126600
0.369100 8.209600
0.387800 8.681500
0.406600 9.052900
0.425400 9.132900
0.444100 8.861300
0.462900 8.552200
0.481600 8.268300
0.500400 8.020500
0.519100 7.808800
0.537900 7.661200
0.556600 10.021700
0.575400 9.401700
0.594100 9.160600
0.612900 8.937000
0.631700 8.730800
0.650400 8.527200
0.669200 8.440500
0.687900 8.535000
0.706700 8.643900
0.725400 8.743800
0.744200 8.834100
0.762900 8.905900
0.781700 8.969700
0.800400 9.025600
0.819200 9.074400
0.838000 9.119500
0.856700 8.658400
0.875500 8.060800
0.894200 7.925200
0.913000 7.709300
0.931700 7.443200
0.950500 7.250100
0.969200 7.037200
0.988000 6.808100
1.006700 6.568500
1.025500 6.318600
1.044300 6.058400
1.063000 5.789600
1.081800 5.520400
1.100500 5.306700
1.119300 5.101700
1.138000 4.905500
1.156800 4.717900
1.175500 4.524700
1.194300 4.301100
1.213000 4.132700
1.231800 3.988500
1.250600 3.846900
1.269300 3.708100
1.288100 3.572400
1.306800 3.439800
1.325600 3.293500
1.344300 3.146200
1.363100 3.014300
1.381800 2.889000
1.400600 2.767700
1.419300 2.650800
1.438100 2.542400
1.456900 2.438400
1.475600 2.336500
1.494400 2.236700
1.513100 2.138900
1.531900 2.043100
1.550600 1.949400
1.569400 1.981300
1.588100 2.028200
1.606900 2.048400
1.625600 2.041800
1.644400 2.008400
1.663200 1.948200
1.681900 1.801300
1.700700 1.588900
1.719400 1.368100
1.738200 1.088900
1.756900 0.806100
1.775700 0.566000
1.794400 0.368600
1.813200 0.213900
1.832000 0.101800
1.850700 0.031700
1.869500 0.001400
1.888200 0.000000
1.907000 0.000000
1.925700 0.000000
1.944500 0.000000
1.963200 0.000000
1.982000 0.000000
2.000700 0.000000
2.019500 0.000000
2.038300 0.000000
2.057000 0.000000
2.075800 0.000000
2.094500 0.000000
2.113300 0.000000
2.132000 0.000000
2.150800 0.000000
2.169500 0.000000
2.188300 0.000000
2.207000 0.000000
2.225800 0.000000
2.244600 0.000000
2.263300 0.000000
2.282100 0.000000
2.300800 0.000000
2.319600 0.000000
2.338300 0.000000
2.357100 0.000000
2.375800 0.000000
2.394600 0.000000
2.413300 0.000000
2.432100 0.000000
2.450900 0.000000
2.469600 0.000000
2.488400 0.000000
2.507100 0.000000
2.525900 0.000000
2.544600 0.000000
2.563400 0.000000
2.582100 0.000000
2.600900 0.000000
2.619600 0.000000
2.638400 0.000000
2.657200 0.000000
2.675900 0.000000
2.694700 0.000000
2.713400 0.000000
2.732200 0.000000
2.750900 0.000000
2.769700 0.000000
2.788400 0.000000
2.807200 0.000000
2.825900 0.000000
2.844700 0.000000
2.863500 0.000000
2.882200 0.000000
2.901000 0.000000
2.919700 0.000000
2.938500 0.000000
2.957200 0.000000
2.976000 0.000000
2.994700 0.000000
3.013500 0.000000
3.032200 0.000000
3.051000 0.000000
3.069800 0.000000
3.088500 0.000000
3.107300 0.000000
3.126000 0.000000
3.144800 0.000000
3.163500 0.000000
3.182300 0.000000
3.201000 0.000000
3.219800 0.000000
3.238500 0.000000
3.257300 0.000000
3.276100 0.000000
3.294800 0.000000
3.313600 0.000000
3.332300 0.000000
3.351100 0.000000
3.369800 0.000000
3.388600 0.000000
3.407300 0.000000
3.426100 0.000000
3.444800 0.000000
3.463600 0.000000
3.482400 0.000000
3.501100 0.000000
3.519900 0.000000
3.538600 0.000000
3.557400 0.000000
3.576100 0.000000
3.594900 0.000000
3.613600 0.000000
3.632400 0.000000
3.651100 0.000000
3.669900 0.000000
3.688700 0.000000
3.707400 0.000000
3.726200 0.000000
3.744900 0.000000
3.763700 0.000000
3.782400 0.000000
3.801200 0.000000
3.819900 0.000000
3.838700 0.000000
3.857400 0.000000
3.876200 0.000000
3.895000 0.000000
3.913700 0.000000
3.932500 0.000000
3.951200 0.000200
3.970000 0.000500
3.988700 0.000900
4.007500 0.001400
4.026200 0.002100
4.045000 0.002900
4.063700 0.003900
4.082500 0.005000
4.101300 0.006200
4.120000 0.007600
4.138800 0.009100
4.157500 0.010700
4.176300 0.012500
4.195000 0.014400
4.213800 0.016400
4.232500 0.018600
4.251300 0.020900
4.270000 0.023300
4.288800 0.025900
4.307600 0.028600
4.326300 0.031400
4.345100 0.034400
4.363800 0.037500
4.382600 0.040800
4.401300 0.044200
4.420100 0.047700
4.438800 0.051400
4.457600 0.055200
4.476300 0.059100
4.495100 0.063100
4.513900 0.067300
4.532600 0.071700
4.551400 0.076100
4.570100 0.080700
4.588900 0.085500
4.607600 0.090300
4.626400 0.095400
4.645100 0.100500
4.663900 0.105800
4.682600 0.111200
4.701400 0.116700
4.720200 0.122400
4.738900 0.128200
4.757700 0.134200
4.776400 0.140300
4.795200 0.148400
4.813900 0.159800
4.832700 0.174700
4.851400 0.193000
4.870200 0.209600
4.889000 0.222900
4.907700 0.237100
4.926500 0.252100
4.945200 0.268000
4.964000 0.284800
4.982700 0.302500
5.001500 0.321000
5.020200 0.340400
5.039000 0.360700
5.057700 0.381400
5.076500 0.402200
5.095300 0.422900
5.114000 0.443800
5.132800 0.464700
5.151500 0.485600
5.170300 0.507600
5.189000 0.532900
5.207800 0.561600
5.226500 0.592100
5.245300 0.646600
5.264000 0.709300
5.282800 0.776100
5.301600 0.846800
5.320300 0.921600
5.339100 1.000400
5.357800 1.083300
5.376600 1.206000
5.395300 1.350000
5.414100 1.504900
5.432800 1.679600
5.451600 1.870600
5.470300 2.077600
5.489100 2.300400
5.507900 2.539000
5.526600 2.791300
5.545400 3.054300
5.564100 3.327900
5.582900 3.564100
5.601600 3.750200
5.620400 3.916100
5.639100 4.061800
5.657900 4.187200
5.676600 4.301300
5.695400 4.411000
5.714200 4.517100
5.732900 4.651300
5.751700 4.785300
5.770400 4.919000
5.789200 5.052800
5.807900 5.188700
5.826700 5.327100
5.845400 5.466800
5.864200 5.583000
5.882900 5.675300
5.901700 5.743700
5.920500 5.816000
5.939200 5.941500
5.958000 6.091200
5.976700 6.286100
5.995500 6.451800
6.014200 6.603700
6.033000 6.750300
6.051700 6.910100
6.070500 7.070200
6.089200 7.158600
6.108000 7.166400
6.126800 7.100700
6.145500 7.014600
6.164300 6.909300
6.183000 6.784500
6.201800 6.640500
6.220500 6.471000
6.239300 6.727600
6.258000 6.429600
6.276800 6.147600
6.295500 5.865600
6.314300 5.577900
6.333100 5.308300
6.351800 5.056600
6.370600 4.788600
6.389300 4.664900
6.408100 4.558200
6.426800 4.468200
6.445600 4.395200
6.464300 4.339000
6.483100 4.299300
6.501800 4.271600
6.520600 4.251800
6.539400 4.238100
6.558100 4.035100
6.576900 4.078600
6.595600 4.120400
6.614400 4.171500
6.633100 4.237500
6.651900 4.707600
6.670600 5.904200
6.689400 6.665200
6.708100 6.926700
6.726900 7.030300
6.745700 6.538600
6.764400 6.083900
6.783200 5.672700
6.801900 5.434100
6.820700 5.237500
6.839400 5.031800
6.858200 4.816900
6.876900 4.592900
6.895700 5.009700
6.914400 4.649000
6.933200 4.421700
6.952000 4.299400
6.970700 3.718900
6.989500 3.744400
7.008200 3.761600
7.027000 3.770600
7.045700 3.779500
7.064500 3.796100
7.083200 3.820200
7.102000 3.852000
7.120700 3.891300
7.139500 3.938300
7.158300 3.992900
7.177000 4.735500
7.195800 5.918200
7.214500 6.896600
7.233300 6.262000
7.252000 6.028200
7.270800 5.871100
7.289500 5.790500
7.308300 5.795800
7.327000 5.922600
7.345800 6.152600
7.364600 6.418800
7.383300 6.535800
7.402100 6.582300
7.420800 6.554800
7.439600 6.463600
7.458300 6.040200
7.477100 5.556800
7.495800 5.092100
7.514600 4.646200
7.533300 4.219000
7.552100 4.007900
7.570900 3.883800
7.589600 3.781400
7.608400 3.177200
7.627100 2.733700
7.645900 2.439200
7.664600 2.177300
7.683400 2.187700
7.702100 2.016400
7.720900 1.853200
7.739600 1.698300
7.758400 1.552400
7.777200 1.444400
7.795900 1.423000
7.814700 1.490700
7.833400 1.647500
7.852200 1.893500
7.870900 2.117300
7.889700 2.259700
7.908400 2.189800
7.927200 2.431800
7.946000 2.685400
7.964700 2.939800
7.983500 3.194700
8.002200 3.450300
8.021000 3.706400
8.039700 4.000300
8.058500 4.304600
8.077200 4.625800
8.096000 4.959300
8.114700 5.305200
8.133500 5.663500
8.152300 6.034100
8.171000 6.417000
8.189800 6.815300
8.208500 7.233500
8.227300 7.820100
8.246000 8.366200
8.264800 8.865500
8.283500 9.315400
8.302300 10.017100
8.321000 10.307200
8.339800 10.430700
8.358600 10.387200
8.377300 10.171800
8.396100 9.880200
8.414800 7.359300
8.433600 5.674100
8.452300 4.780400
8.471100 4.346400
8.489800 3.955100
8.508600 3.606500
8.527300 3.300600
8.546100 3.037300
8.564900 2.386300
8.583600 2.128800
8.602400 2.401400
8.621100 2.324700
8.639900 2.301400
8.658600 2.322900
8.677400 2.366300
8.696100 2.430800
8.714900 2.516600
8.733600 2.623600
8.752400 2.760500
8.771200 2.933500
8.789900 3.072800
8.808700 3.009100
8.827400 2.989800
8.846200 3.122800
8.864900 3.666600
8.883700 4.577900
8.902400 5.398300
8.921200 6.092400
8.939900 7.327300
8.958700 9.337200
8.977500 8.951100
8.996200 8.954800
9.015000 9.103700
9.033700 9.299500
9.052500 9.556500
9.071200 9.736100
9.090000 9.102600
9.108700 9.278600
9.127500 9.453400
9.146200 9.636900
9.165000 9.836700
9.183800 10.107200
9.202500 10.423700
9.221300 10.267200
9.240000 9.545400
9.258800 8.748900
9.277500 7.995500
9.296300 7.193400
9.315000 6.119300
9.333800 5.417300
9.352500 5.088300
9.371300 4.802600
9.390100 4.551500
9.408800 4.337000
9.427600 4.162900
9.446300 4.023400
9.465100 3.673200
9.483800 3.649400
9.502600 3.512100
9.521300 3.429800
9.540100 3.444800
9.558800 3.465500
9.577600 3.492000
9.596400 3.524100
9.615100 3.561800
9.633900 3.605300
9.652600 4.049200
9.671400 4.064600
9.690100 4.085100
9.708900 4.118100
9.727600 4.165600
9.746400 4.212100
9.765100 4.301400
9.783900 4.435500
9.802700 4.911200
9.821400 5.155200
9.840200 5.423100
9.858900 5.955000
9.877700 6.393000
9.896400 6.122300
9.915200 6.008400
9.933900 6.042400
9.952700 5.995200
9.971400 6.088800
9.990200 6.181300
10.009000 6.272600
10.027700 6.362800
10.046500 6.451800
10.065200 6.539600
10.084000 6.626200
10.102700 6.706100
10.121500 6.734800
10.140200 6.737100
10.159000 6.713800
10.177700 6.666500
10.196500 6.642900
10.215300 6.864900
10.234000 6.640900
10.252800 6.469400
10.271500 6.192000
10.290300 5.952600
10.309000 5.814500
10.327800 5.693100
10.346500 5.551600
10.365300 5.390000
10.384000 5.208400
10.402800 5.006700
10.421600 4.780300
10.440300 4.312000
10.459100 4.054000
10.477800 3.975600
10.496600 3.942800
10.515300 3.902100
10.534100 3.850800
10.552800 3.788800
10.571600 3.716300
10.590300 3.633300
10.609100 3.539600
10.627900 3.477400
10.646600 5.001300
10.665400 5.531100
10.684100 4.556900
10.702900 4.524900
10.721600 4.484900
10.740400 4.450200
10.759100 4.424500
10.777900 4.407800
10.796600 4.400000
10.815400 4.392500
10.834200 4.380300
10.852900 4.345500
10.871700 4.316500
10.890400 4.296900
10.909200 4.349100
10.927900 4.407300
10.946700 4.397500
10.965400 4.401100
10.984200 4.391000
11.002900 4.362000
11.021700 4.314100
11.040500 4.247300
11.059200 4.157100
11.078000 4.029400
11.096700 3.774300
11.115500 3.599000
11.134200 3.429900
11.153000 3.585700
11.171700 4.130200
11.190500 4.287700
11.209300 3.716800
11.228000 3.870300
11.246800 3.708100
11.265500 3.599600
11.284300 3.544800
11.303000 3.543800
11.321800 3.604500
11.340500 3.253200
11.359300 3.315000
11.378000 3.403100
11.396800 3.501100
11.415600 3.507500
11.434300 3.477600
11.453100 3.452700
11.471800 3.433000
11.490600 3.418400
11.509300 3.409000
11.528100 3.404600
11.546800 3.405300
11.565600 3.411200
11.584300 3.422100
11.603100 3.436600
11.621900 3.451600
11.640600 3.467000
11.659400 3.482800
11.678100 3.499300
11.696900 3.581000
11.715600 3.777200
11.734400 3.994500
11.753100 4.199100
11.771900 4.393600
11.790600 4.561600
11.809400 4.701300
11.828200 4.884700
11.846900 5.394500
11.865700 5.411400
11.884400 4.754000
11.903200 3.800400
11.921900 3.704800
11.940700 3.611400
11.959400 3.593100
11.978200 3.517700
11.996900 3.448200
12.015700 3.384500
12.034500 3.326700
12.053200 3.274900
12.072000 3.228800
12.090700 3.188700
12.109500 3.154500
12.128200 3.126100
12.147000 3.103600
12.165700 3.087000
12.184500 3.076200
12.203200 3.071000
12.222000 3.071200
12.240800 3.076800
12.259500 3.083900
12.278300 3.050100
12.297000 3.020100
12.315800 2.993300
12.334500 2.969600
12.353300 2.948700
12.372000 2.929600
12.390800 2.912500
12.409500 3.747900
12.428300 4.551100
12.447100 4.744000
12.465800 4.849100
12.484600 4.947100
12.503300 5.037000
12.522100 5.118200
12.540800 5.431500
12.559600 5.673700
12.578300 5.903200
12.597100 6.018700
12.615800 6.116100
12.634600 6.195400
12.653400 6.256700
12.672100 6.299800
12.690900 6.324900
12.709600 6.074600
12.728400 5.970200
12.747100 5.812000
12.765900 5.625100
12.784600 5.446700
12.803400 5.257600
12.822100 5.038500
12.840900 4.948600
12.859700 4.834100
12.878400 4.809100
12.897200 4.689400
12.915900 4.571900
12.934700 4.626000
12.953400 4.695300
12.972200 4.779900
12.990900 5.710600
13.009700 5.759600
13.028400 5.525700
13.047200 5.267300
13.066000 5.019400
13.084700 4.782200
13.103500 4.555600
13.122200 4.339600
13.141000 4.210600
13.159700 4.139200
13.178500 4.053600
13.197200 3.956100
13.216000 3.847200
13.234700 3.767200
13.253500 3.730600
13.272300 3.834600
13.291000 3.950000
13.309800 4.076700
13.328500 4.214800
13.347300 4.169100
13.366000 5.306700
13.384800 4.673000
13.403500 3.095600
13.422300 3.101800
13.441000 3.128100
13.459800 3.158200
13.478600 3.155100
13.497300 3.117100
13.516100 3.072000
13.534800 3.037400
13.553600 3.006000
13.572300 2.977600
13.591100 2.952400
13.609800 2.930400
13.628600 2.911400
13.647300 2.895600
13.666100 2.882800
13.684900 2.873500
13.703600 2.936800
13.722400 3.130400
13.741100 3.365800
13.759900 3.604300
13.778600 3.845800
13.797400 4.090500
13.816100 4.338300
13.834900 4.260700
13.853600 4.090700
13.872400 3.873500
13.891200 3.698800
13.909900 3.654700
13.928700 3.617300
13.947400 3.622000
13.966200 3.624000
13.984900 3.623100
14.003700 3.619500
14.022400 3.613000
14.041200 3.603800
14.059900 3.577200
14.078700 3.532100
14.097500 3.484600
14.116200 3.444000
14.135000 3.422600
14.153700 3.420300
14.172500 3.437300
14.191200 3.473600
14.210000 3.529000
14.228700 3.598300
14.247500 3.553700
14.266300 3.493100
14.285000 3.419400
14.303800 3.420400
14.322500 3.951400
14.341300 4.288600
14.360000 4.645200
14.378800 5.021400
14.397500 5.417100
14.416300 5.831600
14.435000 5.846000
14.453800 6.187900
14.472600 6.162400
14.491300 5.978400
14.510100 5.991200
14.528800 6.006000
14.547600 6.022700
14.566300 6.041300
14.585100 6.061700
14.603800 6.087200
14.622600 6.134000
14.641300 6.174000
14.660100 6.191000
14.678900 6.185000
14.697600 6.156000
14.716400 6.104100
14.735100 6.029100
14.753900 5.931200
14.772600 5.804700
14.791400 5.628000
14.810100 5.432100
14.828900 5.225200
14.847600 5.000000
14.866400 4.536000
14.885200 4.010400
14.903900 3.727400
14.922700 3.576000
14.941400 3.564700
14.960200 3.678000
14.978900 3.789600
14.997700 3.910800
15.016400 4.150000
15.035200 4.461900
15.053900 4.887500
15.072700 5.664400
15.091500 6.274700
15.110200 6.712300
15.129000 6.947100
15.147700 6.982100
15.166500 7.017000
15.185200 7.198900
15.204000 7.353600
15.222700 7.503300
15.241500 7.674800
15.260200 7.868100
15.279000 8.181800
15.297800 8.493900
15.316500 9.021200
15.335300 10.003400
15.354000 10.679400
15.372800 10.257100
15.391500 8.844400
15.410300 7.593000
15.429000 6.477600
15.447800 5.775700
15.466500 5.583300
15.485300 5.418000
15.504100 5.257400
15.522800 5.101500
15.541600 4.950000
15.560300 4.802800
15.579100 4.661200
15.597800 4.574400
15.616600 4.567100
15.635300 4.639100
15.654100 5.188100
15.672800 5.240000
15.691600 4.628500
15.710400 4.318100
15.729100 4.290800
15.747900 4.264700
15.766600 4.239800
15.785400 4.216200
15.804100 4.193700
15.822900 4.172500
15.841600 4.152600
15.860400 4.221300
15.879100 4.227200
15.897900 4.237200
15.916700 4.251300
15.935400 4.269500
15.954200 4.256100
15.972900 4.284200
15.991700 4.320900
16.010400 4.363600
16.029200 4.394600
16.047900 4.397700
16.066700 4.403400
16.085400 4.377400
16.104200 4.319700
16.123000 4.230500
16.141700 4.116100
16.160500 3.987100
16.179200 3.813600
16.198000 3.606600
16.216700 3.419100
16.235500 3.255700
16.254200 3.116100
16.273000 3.000400
16.291700 2.914400
16.310500 2.882100
16.329300 2.906000
16.348000 3.023800
16.366800 3.199000
16.385500 3.437400
16.404300 3.712700
16.423000 4.022200
16.441800 4.365900
16.460500 4.768900
16.479300 4.952000
16.498000 4.944700
16.516800 5.442000
16.535600 5.894100
16.554300 6.324900
16.573100 6.810100
16.591800 7.286200
16.610600 7.752400
16.629300 8.403100
16.648100 8.709000
16.666800 8.354900
16.685600 7.692000
16.704300 6.803500
16.723100 6.347500
16.741900 6.043300
16.760600 5.859800
16.779400 5.743500
16.798100 5.671500
16.816900 5.577900
16.835600 5.463800
16.854400 5.357900
16.873100 5.259800
16.891900 5.153600
16.910600 5.061900
16.929400 4.989500
16.948200 4.906100
16.966900 4.880400
16.985700 4.873500
17.004400 4.885400
17.023200 4.916300
17.041900 4.966000
17.060700 5.033900
17.079400 5.110400
17.098200 5.202300
17.116900 5.367900
17.135700 5.638400
17.154500 6.019400
17.173200 6.713400
17.192000 7.490900
17.210700 8.436500
17.229500 8.788300
17.248200 9.020800
17.267000 9.278000
17.285700 9.171500
17.304500 8.734800
17.323300 8.517800
17.342000 8.297800
17.360800 8.072100
17.379500 7.793900
17.398300 7.228400
17.417000 7.048200
17.435800 6.453400
17.454500 6.300900
17.473300 6.218500
17.492000 6.202800
17.510800 6.205500
17.529600 6.225800
17.548300 6.263500
17.567100 6.318800
17.585800 6.391200
17.604600 6.308000
17.623300 6.206700
17.642100 6.087200
17.660800 5.950100
17.679600 5.828200
17.698300 5.739200
17.717100 5.683200
17.735900 7.149400
17.754600 7.791700
17.773400 6.633800
17.792100 6.036400
17.810900 6.269300
17.829600 6.518700
17.848400 6.784600
17.867100 7.138900
17.885900 7.400500
17.904600 7.381700
17.923400 7.161600
17.942200 6.966400
17.960900 6.777900
17.979700 6.596000
17.998400 6.947100
18.017200 6.747500
18.035900 6.625300
18.054700 6.574400
18.073400 8.316000
18.092200 7.689300
18.110900 5.619100
18.129700 5.275400
18.148500 4.910200
18.167200 4.523600
18.186000 3.985400
18.204700 3.326400
18.223500 3.189000
18.242200 3.070400
18.261000 2.948800
18.279700 2.829400
18.298500 2.716300
18.317200 2.610000
18.336000 2.510200
18.354800 2.417900
18.373500 2.992100
18.392300 3.577200
18.411000 4.033200
18.429800 4.491700
18.448500 4.859300
18.467300 4.994200
18.486000 5.135600
18.504800 5.430500
18.523500 5.761100
18.542300 5.960700
18.561100 6.121000
18.579800 6.255800
18.598600 6.366000
18.617300 6.451400
18.636100 6.531200
18.654800 6.703300
18.673600 6.873600
18.692300 7.065600
18.711100 7.235100
18.729800 7.377800
18.748600 7.493700
18.767400 7.582700
18.786100 7.644900
18.804900 7.680200
18.823600 7.688900
18.842400 7.697100
18.861100 7.724500
18.879900 7.753400
18.898600 7.676500
18.917400 7.475500
18.936100 7.150400
18.954900 7.006700
18.973700 6.429700
18.992400 5.916700
19.011200 5.457400
19.029900 5.052000
19.048700 4.709500
19.067400 4.453100
19.086200 4.289000
19.104900 4.207900
19.123700 4.209900
19.142400 4.327000
19.161200 4.542100
19.180000 4.522900
19.198700 4.870100
19.217500 5.169000
19.236200 5.419500
19.255000 5.623600
19.273700 6.144300
19.292500 6.371200
19.311200 6.555300
19.330000 6.739000
19.348700 6.894100
19.367500 6.993300
19.386300 7.036700
19.405000 7.024100
19.423800 6.998500
19.442500 7.095900
19.461300 7.832400
19.480000 7.671600
19.498800 7.197200
19.517500 6.409000
19.536300 5.307100
19.555000 4.200300
19.573800 3.535100
19.592600 2.970800
19.611300 2.779200
19.630100 2.764900
19.648800 2.755600
19.667600 2.751400
19.686300 2.752200
19.705100 2.758000
19.723800 2.768900
19.742600 2.785500
19.761300 2.807800
19.780100 3.086900
19.798900 3.465100
19.817600 3.838600
19.836400 4.215300
19.855100 4.589800
19.873900 4.693400
19.892600 4.660800
19.911400 4.551100
19.930100 4.524700
19.948900 4.497800
19.967600 4.533800
19.986400 4.628100
20.005200 4.738200
20.023900 4.865600
20.042700 5.010200
20.061400 5.172200
20.080200 5.343100
20.098900 5.506500
20.117700 5.662100
20.136400 5.809800
20.155200 5.949700
20.173900 6.004400
20.192700 6.012100
20.211500 8.343500
20.230200 10.000900
20.249000 10.164000
20.267700 9.558800
20.286500 7.997100
20.305200 7.353900
20.324000 6.954900
20.342700 6.992400
20.361500 6.879000
20.380300 6.678400
20.399000 6.483000
20.417800 5.868100
20.436500 4.516900
20.455300 3.903900
20.474000 3.386500
20.492800 2.991400
20.511500 2.711600
20.530300 2.544600
20.549000 2.490500
20.567800 2.642200
20.586600 2.882900
20.605300 3.109900
20.624100 3.506200
20.642800 3.790700
20.661600 4.064400
20.680300 4.327300
20.699100 4.579500
20.717800 4.826000
20.736600 5.073200
20.755300 5.321200
20.774100 5.571000
20.792900 5.950300
20.811600 6.544500
20.830400 7.734900
20.849100 8.259300
20.867900 8.671400
20.886600 9.004700
20.905400 9.305600
20.924100 8.383400
20.942900 7.329800
20.961600 7.252800
20.980400 7.233000
20.999200 7.215000
21.017900 7.137600
21.036700 7.063700
21.055400 6.989200
21.074200 6.889800
21.092900 6.761700
21.111700 6.605500
21.130400 6.500300
21.149200 6.551900
21.167900 6.736400
21.186700 7.010700
21.205500 7.421000
21.224200 7.924600
21.243000 5.924100
21.261700 5.597200
21.280500 5.336400
21.299200 5.146100
21.318000 5.025600
21.336700 5.250300
21.355500 5.386200
21.374200 5.554600
21.393000 5.798800
21.411800 6.109100
21.430500 6.427200
21.449300 6.746100
21.468000 6.673600
21.486800 6.679600
21.505500 6.798600
21.524300 7.038700
21.543000 5.852900
21.561800 6.551500
21.580500 6.959200
21.599300 7.001100
21.618100 7.056300
21.636800 7.112800
21.655600 7.167400
21.674300 7.206000
21.693100 6.961400
21.711800 6.948500
21.730600 6.950400
21.749300 7.093900
21.768100 7.386300
21.786800 7.070000
21.805600 6.153400
21.824400 5.339000
21.843100 4.742300
21.861900 4.372800
21.880600 4.316500
21.899400 4.386500
21.918100 4.375700
21.936900 4.344600
21.955600 4.336500
21.974400 4.361300
21.993100 4.392200
22.011900 4.429100
22.030700 4.470300
22.049400 4.515300
22.068200 4.564100
22.086900 4.616800
22.105700 4.673300
22.124400 4.733600
22.143200 4.797800
22.161900 4.719000
22.180700 4.640700
22.199400 5.115500
22.218200 5.955800
22.237000 5.942300
22.255700 5.390800
22.274500 4.959000
22.293200 4.617000
22.312000 4.528600
22.330700 5.015200
22.349500 4.901100
22.368200 4.655800
22.387000 3.373300
22.405700 2.802900
22.424500 2.295500
22.443300 1.850500
22.462000 1.467900
22.480800 1.147800
22.499500 0.850400
22.518300 0.212100
22.537000 0.124700
22.555800 0.114900
22.574500 0.105600
22.593300 0.096600
22.612000 0.088000
22.630800 0.079900
22.649600 0.072100
22.668300 0.064700
22.687100 0.057700
22.705800 0.051100
22.724600 0.045000
22.743300 0.039200
22.762100 0.033800
22.780800 0.028800
22.799600 0.024200
22.818300 0.020000
22.837100 0.016200
22.855900 0.012800
22.874600 0.009800
22.893400 0.007200
22.912100 0.005000
22.930900 0.003200
22.949600 0.001800
22.968400 0.000800
22.987100 0.000200
23.005900 0.000000
23.024600 0.000000
23.043400 0.000000
23.062200 0.000000
23.080900 0.000000
23.099700 0.000000
23.118400 0.000000
23.137200 0.000000
23.155900 0.000000
23.174700 0.000000
23.193400 0.000000
23.212200 0.000000
23.230900 0.000000
23.249700 0.000000
23.268500 0.000000
23.287200 0.000000
23.306000 0.000000
23.324700 0.000000
23.343500 0.000000
23.362200 0.000000
23.381000 0.000000
23.399700 0.000000
23.418500 0.000000
23.437300 0.000000
23.456000 0.000000
23.474800 0.000000
23.493500 0.000000
23.512300 0.000000
23.531000 0.000000
23.549800 0.000000
23.568500 0.000000
23.587300 0.000000
23.606000 0.000000
23.624800 0.000000
23.643600 0.000000
23.662300 0.000000
23.681100 0.000000
23.699800 0.000000
23.718600 0.000000
23.737300 0.000000
23.756100 0.000000
23.774800 0.000000
23.793600 0.000000
23.812300 0.000000
23.831100 0.000000
23.849900 0.000000
23.868600 0.000000
23.887400 0.000000
23.906100 0.000000
23.924900 0.000000
23.943600 0.000000
23.962400 0.000000
23.981100 0.000000
23.999900 0.000000
24.018600 0.000000
24.037400 0.000000
24.056200 0.000000
24.074900 0.000000
24.093700 0.000000
24.112400 0.000000
24.131200 0.000000
24.149900 0.000000
24.168700 0.000000
24.187400 0.000000
24.206200 0.000000
24.224900 0.000000
24.243700 0.000000
24.262500 0.000000
24.281200 0.000000
24.300000 0.000000
24.318700 0.000000
24.337500 0.000000
24.356200 0.000000
24.375000 0.000000
24.393700 0.000000
24.412500 0.000000
24.431200 0.000000
24.450000 0.000000
24.468800 0.000000
24.487500 0.000000
24.506300 0.000000
24.525000 0.000000
24.543800 0.000000
24.562500 0.000000
24.581300 0.000000
24.600000 0.000000
24.618800 0.000000
24.637500 0.000000
24.656300 0.000000
24.675100 0.000000
24.693800 0.000000
24.712600 0.000000
e
