set title 'mp-27945 - Density of States'
set xlabel 'Energy (eV)'
set ylabel 'DOS (states/eV)'
set grid
set xrange [-10:10]
set yrange [0:10.192]
set xzeroaxis lt -1
set terminal png size 800,600
set output 'mp-27945_dos_gnuplot.png'
plot '-' using 1:2 with lines title 'DOS'
-15.754300 0.000000
-15.733700 0.000000
-15.713000 0.000000
-15.692300 0.000000
-15.671600 0.000000
-15.650900 0.000000
-15.630200 0.000000
-15.609500 0.000000
-15.588900 0.000000
-15.568200 0.000000
-15.547500 0.000000
-15.526800 0.000000
-15.506100 0.000000
-15.485400 0.000000
-15.464700 0.000000
-15.444100 0.000000
-15.423400 0.000000
-15.402700 0.000000
-15.382000 0.000000
-15.361300 0.000000
-15.340600 0.000000
-15.320000 0.000000
-15.299300 0.000000
-15.278600 0.000000
-15.257900 0.000000
-15.237200 0.000000
-15.216500 0.000000
-15.195800 0.000000
-15.175200 0.000000
-15.154500 0.000000
-15.133800 0.000000
-15.113100 0.000000
-15.092400 0.000000
-15.071700 0.000000
-15.051100 0.000000
-15.030400 0.000000
-15.009700 0.000000
-14.989000 0.000000
-14.968300 0.000000
-14.947600 0.000000
-14.926900 0.000000
-14.906300 0.000000
-14.885600 0.000000
-14.864900 0.000000
-14.844200 0.000000
-14.823500 0.000000
-14.802800 0.000000
-14.782200 0.000000
-14.761500 0.000000
-14.740800 0.000000
-14.720100 0.000000
-14.699400 0.000000
-14.678700 0.000000
-14.658000 0.000000
-14.637400 0.000000
-14.616700 0.000000
-14.596000 0.000000
-14.575300 0.000000
-14.554600 0.000000
-14.533900 0.000000
-14.513200 0.000000
-14.492600 0.000000
-14.471900 0.000000
-14.451200 0.000000
-14.430500 0.000000
-14.409800 0.000000
-14.389100 0.000000
-14.368500 0.000000
-14.347800 0.000000
-14.327100 0.000000
-14.306400 0.000000
-14.285700 0.000000
-14.265000 0.000000
-14.244300 0.000000
-14.223700 0.000000
-14.203000 0.000000
-14.182300 0.000000
-14.161600 0.000000
-14.140900 0.000000
-14.120200 0.000000
-14.099600 0.000000
-14.078900 0.000000
-14.058200 0.000000
-14.037500 0.000000
-14.016800 0.000000
-13.996100 0.000000
-13.975400 0.000000
-13.954800 0.000000
-13.934100 0.000000
-13.913400 0.000000
-13.892700 0.000000
-13.872000 0.002400
-13.851300 0.181600
-13.830700 0.289000
-13.810000 0.363600
-13.789300 0.433900
-13.768600 0.511400
-13.747900 0.567500
-13.727200 0.627900
-13.706500 0.695600
-13.685900 0.760700
-13.665200 0.825000
-13.644500 0.892800
-13.623800 0.964200
-13.603100 1.039500
-13.582400 1.120400
-13.561700 1.205200
-13.541100 1.293500
-13.520400 1.387000
-13.499700 1.500000
-13.479000 1.622400
-13.458300 1.751700
-13.437600 1.888600
-13.417000 2.056600
-13.396300 2.266300
-13.375600 2.500500
-13.354900 2.764600
-13.334200 3.107400
-13.313500 3.667300
-13.292800 4.692400
-13.272200 5.036100
-13.251500 5.277100
-13.230800 5.345400
-13.210100 5.486300
-13.189400 5.738600
-13.168700 5.982100
-13.148100 6.398700
-13.127400 7.084600
-13.106700 8.826400
-13.086000 0.000000
-13.065300 0.000000
-13.044600 0.000000
-13.023900 0.000000
-13.003300 0.000000
-12.982600 0.000000
-12.961900 0.000000
-12.941200 0.000000
-12.920500 0.000000
-12.899800 0.000000
-12.879200 0.000000
-12.858500 0.000000
-12.837800 0.000000
-12.817100 0.000000
-12.796400 0.000000
-12.775700 0.000000
-12.755000 0.000000
-12.734400 0.000000
-12.713700 0.000000
-12.693000 0.000000
-12.672300 0.000000
-12.651600 0.000000
-12.630900 0.000000
-12.610300 0.000000
-12.589600 0.000000
-12.568900 0.000000
-12.548200 0.000000
-12.527500 0.000000
-12.506800 0.000000
-12.486100 0.000000
-12.465500 0.000000
-12.444800 0.000000
-12.424100 0.000000
-12.403400 0.000000
-12.382700 0.000000
-12.362000 0.000000
-12.341300 0.000000
-12.320700 0.000000
-12.300000 0.000000
-12.279300 0.000000
-12.258600 0.000000
-12.237900 0.000000
-12.217200 0.000000
-12.196600 0.000000
-12.175900 0.000000
-12.155200 0.000000
-12.134500 0.000000
-12.113800 0.000000
-12.093100 0.000000
-12.072400 0.000000
-12.051800 0.000000
-12.031100 0.000000
-12.010400 0.000000
-11.989700 0.000000
-11.969000 0.000000
-11.948300 0.000000
-11.927700 0.000000
-11.907000 0.000000
-11.886300 0.000000
-11.865600 0.000000
-11.844900 0.000000
-11.824200 0.000000
-11.803500 0.000000
-11.782900 0.000000
-11.762200 0.000000
-11.741500 0.000000
-11.720800 0.000000
-11.700100 0.000000
-11.679400 0.000000
-11.658800 0.000000
-11.638100 0.000000
-11.617400 0.000000
-11.596700 0.000000
-11.576000 0.000000
-11.555300 0.000000
-11.534600 0.000000
-11.514000 0.000000
-11.493300 0.000000
-11.472600 0.000000
-11.451900 0.000000
-11.431200 0.000000
-11.410500 0.000000
-11.389800 0.000000
-11.369200 0.000000
-11.348500 0.000000
-11.327800 0.000000
-11.307100 0.000000
-11.286400 0.000000
-11.265700 0.000000
-11.245100 0.000000
-11.224400 0.000000
-11.203700 0.000000
-11.183000 0.000000
-11.162300 0.000000
-11.141600 0.000000
-11.120900 0.000000
-11.100300 0.000000
-11.079600 0.000000
-11.058900 0.000000
-11.038200 0.000000
-11.017500 0.000000
-10.996800 0.000000
-10.976200 0.000000
-10.955500 0.000000
-10.934800 0.000000
-10.914100 0.000000
-10.893400 0.000000
-10.872700 0.000000
-10.852000 0.000000
-10.831400 0.000000
-10.810700 0.000000
-10.790000 0.000000
-10.769300 0.000000
-10.748600 0.000000
-10.727900 0.000000
-10.707300 0.000000
-10.686600 0.000000
-10.665900 0.000000
-10.645200 0.000000
-10.624500 0.000000
-10.603800 0.000000
-10.583100 0.000000
-10.562500 0.000000
-10.541800 0.000000
-10.521100 0.000000
-10.500400 0.000000
-10.479700 0.000000
-10.459000 0.000000
-10.438400 0.000000
-10.417700 0.000000
-10.397000 0.000000
-10.376300 0.000000
-10.355600 0.000000
-10.334900 0.000000
-10.314200 0.000000
-10.293600 0.000000
-10.272900 0.000000
-10.252200 0.000000
-10.231500 0.000000
-10.210800 0.000000
-10.190100 0.000000
-10.169400 0.000000
-10.148800 0.000000
-10.128100 0.000000
-10.107400 0.000000
-10.086700 0.000000
-10.066000 0.000000
-10.045300 0.000000
-10.024700 0.000000
-10.004000 0.000000
-9.983300 0.000000
-9.962600 0.000000
-9.941900 0.000000
-9.921200 0.000000
-9.900500 0.000000
-9.879900 0.000000
-9.859200 0.000000
-9.838500 0.000000
-9.817800 0.000000
-9.797100 0.000000
-9.776400 0.000000
-9.755800 0.000000
-9.735100 0.000000
-9.714400 0.000000
-9.693700 0.000000
-9.673000 0.000000
-9.652300 0.000000
-9.631600 0.000000
-9.611000 0.000000
-9.590300 0.000000
-9.569600 0.000000
-9.548900 0.000000
-9.528200 0.000000
-9.507500 0.000000
-9.486900 0.000000
-9.466200 0.000000
-9.445500 0.000000
-9.424800 0.000000
-9.404100 0.000000
-9.383400 0.000000
-9.362700 0.000000
-9.342100 0.000000
-9.321400 0.000000
-9.300700 0.000000
-9.280000 0.000000
-9.259300 0.000000
-9.238600 0.000000
-9.217900 0.000000
-9.197300 0.000000
-9.176600 0.000000
-9.155900 0.000000
-9.135200 0.000000
-9.114500 0.000000
-9.093800 0.000000
-9.073200 0.000000
-9.052500 0.000000
-9.031800 0.000000
-9.011100 0.000000
-8.990400 0.000000
-8.969700 0.000000
-8.949000 0.000000
-8.928400 0.000000
-8.907700 0.000000
-8.887000 0.000000
-8.866300 0.000000
-8.845600 0.000000
-8.824900 0.000000
-8.804300 0.000000
-8.783600 0.000000
-8.762900 0.000000
-8.742200 0.000000
-8.721500 0.000000
-8.700800 0.000000
-8.680100 0.000000
-8.659500 0.000000
-8.638800 0.000000
-8.618100 0.000000
-8.597400 0.000000
-8.576700 0.000000
-8.556000 0.000000
-8.535400 0.000000
-8.514700 0.000000
-8.494000 0.000000
-8.473300 0.000000
-8.452600 0.000000
-8.431900 0.000000
-8.411200 0.000000
-8.390600 0.000000
-8.369900 0.000000
-8.349200 0.000000
-8.328500 0.000000
-8.307800 0.000000
-8.287100 0.000000
-8.266400 0.000000
-8.245800 0.000000
-8.225100 0.000000
-8.204400 0.000000
-8.183700 0.000000
-8.163000 0.000000
-8.142300 0.000000
-8.121700 0.000000
-8.101000 0.000000
-8.080300 0.000000
-8.059600 0.000000
-8.038900 0.000000
-8.018200 0.000000
-7.997500 0.000000
-7.976900 0.000000
-7.956200 0.000000
-7.935500 0.000000
-7.914800 0.000000
-7.894100 0.000000
-7.873400 0.000000
-7.852800 0.000000
-7.832100 0.000000
-7.811400 0.000000
-7.790700 0.000000
-7.770000 0.000000
-7.749300 0.000000
-7.728600 0.000000
-7.708000 0.000000
-7.687300 0.000000
-7.666600 0.000000
-7.645900 0.000000
-7.625200 0.000000
-7.604500 0.000000
-7.583900 0.000000
-7.563200 0.000000
-7.542500 0.000000
-7.521800 0.000000
-7.501100 0.000000
-7.480400 0.000000
-7.459700 0.000000
-7.439100 0.000000
-7.418400 0.000000
-7.397700 0.000000
-7.377000 0.000000
-7.356300 0.000000
-7.335600 0.000000
-7.315000 0.000000
-7.294300 0.000000
-7.273600 0.000000
-7.252900 0.000000
-7.232200 0.000000
-7.211500 0.000000
-7.190800 0.000000
-7.170200 0.000000
-7.149500 0.000000
-7.128800 0.000000
-7.108100 0.000000
-7.087400 0.000000
-7.066700 0.000000
-7.046000 0.000000
-7.025400 0.000000
-7.004700 0.000000
-6.984000 0.000000
-6.963300 0.000000
-6.942600 0.000000
-6.921900 0.000000
-6.901300 0.000000
-6.880600 0.000000
-6.859900 0.000000
-6.839200 0.000000
-6.818500 0.000000
-6.797800 0.000000
-6.777100 0.000000
-6.756500 0.000000
-6.735800 0.000000
-6.715100 0.000000
-6.694400 0.000000
-6.673700 0.000000
-6.653000 0.000000
-6.632400 0.000000
-6.611700 0.000000
-6.591000 0.000000
-6.570300 0.000000
-6.549600 0.000000
-6.528900 0.000000
-6.508200 0.000000
-6.487600 0.000000
-6.466900 0.000000
-6.446200 0.000000
-6.425500 0.000000
-6.404800 0.000000
-6.384100 0.000000
-6.363500 0.000000
-6.342800 0.000000
-6.322100 0.000000
-6.301400 0.000000
-6.280700 0.000000
-6.260000 0.000000
-6.239300 0.000000
-6.218700 0.000000
-6.198000 0.000000
-6.177300 0.000000
-6.156600 0.000000
-6.135900 0.000000
-6.115200 0.000000
-6.094500 0.000000
-6.073900 0.000000
-6.053200 0.000000
-6.032500 0.000000
-6.011800 0.000000
-5.991100 0.000000
-5.970400 0.000000
-5.949800 0.000000
-5.929100 0.000000
-5.908400 0.000000
-5.887700 0.000000
-5.867000 0.000000
-5.846300 0.000000
-5.825600 0.000000
-5.805000 0.000000
-5.784300 0.000000
-5.763600 5.923800
-5.742900 7.176700
-5.722200 9.265000
-5.701500 8.024000
-5.680900 5.452500
-5.660200 4.391900
-5.639500 3.766500
-5.618800 3.392000
-5.598100 3.085500
-5.577400 2.818900
-5.556700 2.602900
-5.536100 2.449800
-5.515400 2.325700
-5.494700 2.210400
-5.474000 2.106800
-5.453300 2.022600
-5.432600 1.932000
-5.412000 1.862400
-5.391300 1.824700
-5.370600 1.755700
-5.349900 1.725000
-5.329200 1.620600
-5.308500 1.383100
-5.287800 1.266100
-5.267200 1.179800
-5.246500 1.103100
-5.225800 1.031200
-5.205100 0.963000
-5.184400 0.913000
-5.163700 0.863700
-5.143000 0.814400
-5.122400 0.767000
-5.101700 0.721500
-5.081000 0.686000
-5.060300 0.653200
-5.039600 0.620700
-5.018900 0.588100
-4.998300 0.555700
-4.977600 0.523500
-4.956900 0.495800
-4.936200 0.469600
-4.915500 0.443700
-4.894800 0.418200
-4.874100 0.393200
-4.853500 0.369200
-4.832800 0.346100
-4.812100 0.323400
-4.791400 0.298300
-4.770700 0.274900
-4.750000 0.251600
-4.729400 0.227700
-4.708700 0.207100
-4.688000 0.179200
-4.667300 0.149300
-4.646600 0.115400
-4.625900 0.089400
-4.605200 0.008500
-4.584600 0.000000
-4.563900 0.000000
-4.543200 0.000000
-4.522500 0.000000
-4.501800 0.000000
-4.481100 0.000000
-4.460500 0.000000
-4.439800 0.000000
-4.419100 0.000000
-4.398400 0.000000
-4.377700 0.000000
-4.357000 0.000000
-4.336300 0.000000
-4.315700 0.000000
-4.295000 0.000000
-4.274300 0.000000
-4.253600 0.000000
-4.232900 0.000000
-4.212200 0.000000
-4.191600 0.000000
-4.170900 0.000000
-4.150200 0.000000
-4.129500 0.000000
-4.108800 0.000000
-4.088100 0.000000
-4.067400 0.000000
-4.046800 0.000000
-4.026100 0.000000
-4.005400 0.000000
-3.984700 0.000000
-3.964000 0.000000
-3.943300 0.000000
-3.922600 0.000000
-3.902000 0.000000
-3.881300 0.000000
-3.860600 0.000000
-3.839900 0.000000
-3.819200 0.000000
-3.798500 0.000000
-3.777900 0.000000
-3.757200 0.000000
-3.736500 0.000000
-3.715800 0.000000
-3.695100 0.000000
-3.674400 0.000000
-3.653700 0.000000
-3.633100 0.000000
-3.612400 0.000000
-3.591700 0.000000
-3.571000 0.000000
-3.550300 0.000000
-3.529600 0.000000
-3.509000 0.000000
-3.488300 0.000000
-3.467600 0.000000
-3.446900 0.000000
-3.426200 0.000000
-3.405500 0.000000
-3.384800 0.000000
-3.364200 0.000000
-3.343500 0.000000
-3.322800 0.000000
-3.302100 0.000000
-3.281400 0.000000
-3.260700 0.000000
-3.240100 0.000000
-3.219400 0.000000
-3.198700 0.000000
-3.178000 0.000000
-3.157300 0.000000
-3.136600 0.000000
-3.115900 0.000000
-3.095300 0.000000
-3.074600 0.000000
-3.053900 0.000000
-3.033200 0.000000
-3.012500 0.000000
-2.991800 0.000000
-2.971100 0.000000
-2.950500 0.000000
-2.929800 0.000000
-2.909100 0.000000
-2.888400 0.000000
-2.867700 0.000000
-2.847000 0.000000
-2.826400 0.000000
-2.805700 0.000000
-2.785000 0.000000
-2.764300 0.000000
-2.743600 0.000000
-2.722900 0.000000
-2.702200 0.000000
-2.681600 0.000000
-2.660900 0.000000
-2.640200 0.000000
-2.619500 0.000000
-2.598800 0.000000
-2.578100 0.000000
-2.557500 0.000000
-2.536800 0.000000
-2.516100 0.000000
-2.495400 0.000000
-2.474700 0.000000
-2.454000 0.000000
-2.433300 0.000000
-2.412700 0.000000
-2.392000 0.000000
-2.371300 0.000000
-2.350600 0.000000
-2.329900 0.000000
-2.309200 0.000000
-2.288600 0.000000
-2.267900 0.000000
-2.247200 0.000000
-2.226500 0.000000
-2.205800 0.000000
-2.185100 0.000000
-2.164400 0.000000
-2.143800 0.000000
-2.123100 0.000000
-2.102400 0.000000
-2.081700 0.000000
-2.061000 0.000000
-2.040300 0.000000
-2.019600 0.000000
-1.999000 0.000000
-1.978300 0.000000
-1.957600 0.000000
-1.936900 0.000000
-1.916200 0.000000
-1.895500 0.000000
-1.874900 0.000000
-1.854200 0.000000
-1.833500 0.000000
-1.812800 0.000000
-1.792100 0.000000
-1.771400 0.000000
-1.750700 0.000000
-1.730100 0.000000
-1.709400 0.000000
-1.688700 0.000000
-1.668000 0.000000
-1.647300 0.000000
-1.626600 0.000000
-1.606000 0.000000
-1.585300 0.000000
-1.564600 0.000000
-1.543900 0.000000
-1.523200 0.000000
-1.502500 0.000000
-1.481800 0.000000
-1.461200 0.000000
-1.440500 0.000000
-1.419800 0.000000
-1.399100 0.000000
-1.378400 0.000000
-1.357700 0.000000
-1.337100 0.000000
-1.316400 0.000000
-1.295700 0.000000
-1.275000 0.000000
-1.254300 0.000000
-1.233600 0.000000
-1.212900 0.000000
-1.192300 0.000000
-1.171600 0.000000
-1.150900 0.000000
-1.130200 0.000000
-1.109500 0.000000
-1.088800 0.000000
-1.068200 0.000000
-1.047500 0.000000
-1.026800 0.000000
-1.006100 0.000000
-0.985400 0.000000
-0.964700 0.000000
-0.944000 0.000000
-0.923400 0.000000
-0.902700 0.000000
-0.882000 0.000000
-0.861300 0.000000
-0.840600 0.000000
-0.819900 0.000000
-0.799200 0.000000
-0.778600 0.000000
-0.757900 0.000000
-0.737200 0.000000
-0.716500 0.000000
-0.695800 0.000000
-0.675100 0.000000
-0.654500 0.000000
-0.633800 0.000000
-0.613100 0.000000
-0.592400 0.000000
-0.571700 0.039500
-0.551000 0.330100
-0.530300 0.474900
-0.509700 0.616100
-0.489000 0.776300
-0.468300 1.151400
-0.447600 1.529000
-0.426900 1.710900
-0.406200 1.933900
-0.385600 2.213100
-0.364900 2.458800
-0.344200 2.515100
-0.323500 2.421000
-0.302800 2.361400
-0.282100 2.281900
-0.261400 2.231200
-0.240800 2.111800
-0.220100 1.980600
-0.199400 1.922100
-0.178700 1.873200
-0.158000 1.832400
-0.137300 1.793900
-0.116700 1.881100
-0.096000 1.766000
-0.075300 1.786200
-0.054600 1.783600
-0.033900 1.798100
-0.013200 1.835100
0.007500 1.944300
0.028100 2.055300
0.048800 2.144000
0.069500 2.044900
0.090200 1.971600
0.110900 2.133700
0.131600 2.193500
0.152300 2.198800
0.172900 2.200500
0.193600 2.235000
0.214300 2.256900
0.235000 2.281300
0.255700 2.316800
0.276400 2.389300
0.297000 2.481600
0.317700 2.562500
0.338400 2.601900
0.359100 2.605500
0.379800 2.589400
0.400500 2.581600
0.421200 2.578600
0.441800 2.572800
0.462500 2.562000
0.483200 2.564100
0.503900 2.580200
0.524600 2.585900
0.545300 2.590500
0.565900 2.589900
0.586600 2.585300
0.607300 2.580100
0.628000 2.573700
0.648700 2.573100
0.669400 2.579900
0.690100 2.587600
0.710700 2.592100
0.731400 2.594200
0.752100 2.597500
0.772800 2.595600
0.793500 2.603300
0.814200 2.613800
0.834800 2.619100
0.855500 2.634700
0.876200 2.581100
0.896900 2.473200
0.917600 2.374400
0.938300 2.312000
0.959000 2.243900
0.979600 2.175100
1.000300 2.122500
1.021000 2.072100
1.041700 2.017800
1.062400 1.963900
1.083100 1.927100
1.103800 1.887900
1.124400 1.679000
1.145100 1.555800
1.165800 1.453800
1.186500 1.354100
1.207200 1.291700
1.227900 1.229200
1.248500 1.164200
1.269200 1.100700
1.289900 1.025700
1.310600 0.981500
1.331300 0.940400
1.352000 0.875300
1.372700 0.810100
1.393300 0.764200
1.414000 0.807000
1.434700 0.687900
1.455400 0.494800
1.476100 0.399100
1.496800 0.339600
1.517400 0.298800
1.538100 0.313900
1.558800 0.378900
1.579500 0.487700
1.600200 0.629300
1.620900 0.771800
1.641600 1.051600
1.662200 1.130700
1.682900 0.931100
1.703600 0.889900
1.724300 0.874400
1.745000 0.871400
1.765700 0.862800
1.786300 0.862300
1.807000 0.863300
1.827700 0.861200
1.848400 0.860000
1.869100 0.864600
1.889800 0.873000
1.910500 0.883500
1.931100 0.894000
1.951800 0.906600
1.972500 0.922000
1.993200 0.934900
2.013900 0.944500
2.034600 0.949500
2.055200 0.952600
2.075900 0.956200
2.096600 0.960300
2.117300 0.962400
2.138000 0.965800
2.158700 0.972400
2.179400 0.980000
2.200000 0.985200
2.220700 0.991200
2.241400 0.997400
2.262100 1.004300
2.282800 1.014500
2.303500 1.034300
2.324200 1.048400
2.344800 1.059900
2.365500 1.069200
2.386200 1.077400
2.406900 1.084300
2.427600 1.090500
2.448300 1.095200
2.468900 1.098000
2.489600 1.103300
2.510300 1.111500
2.531000 1.119800
2.551700 1.128800
2.572400 1.139000
2.593100 1.151900
2.613700 1.165600
2.634400 1.184400
2.655100 1.205300
2.675800 1.221500
2.696500 1.235900
2.717200 1.247700
2.737800 1.258300
2.758500 1.268300
2.779200 1.278300
2.799900 1.288400
2.820600 1.301500
2.841300 1.321300
2.862000 1.346700
2.882600 1.388300
2.903300 1.420700
2.924000 1.445200
2.944700 1.468400
2.965400 1.500300
2.986100 1.572200
3.006700 1.647000
3.027400 1.641500
3.048100 1.539800
3.068800 1.410100
3.089500 1.271700
3.110200 1.238600
3.130900 1.207900
3.151500 1.180600
3.172200 1.157500
3.192900 1.148200
3.213600 1.147300
3.234300 1.092000
3.255000 0.996200
3.275700 0.898700
3.296300 0.710900
3.317000 0.640200
3.337700 0.523200
3.358400 0.411600
3.379100 0.285800
3.399800 0.148200
3.420400 0.000000
3.441100 0.000000
3.461800 0.000000
3.482500 0.000000
3.503200 0.000000
3.523900 0.000000
3.544600 0.000000
3.565200 0.000000
3.585900 0.000000
3.606600 0.000000
3.627300 0.000000
3.648000 0.000000
3.668700 0.000000
3.689300 0.000000
3.710000 0.000000
3.730700 0.000000
3.751400 0.000000
3.772100 0.000000
3.792800 0.000000
3.813500 0.000000
3.834100 0.029600
3.854800 0.050300
3.875500 0.069900
3.896200 0.090200
3.916900 0.110600
3.937600 0.127400
3.958200 0.135300
3.978900 0.135200
3.999600 0.143000
4.020300 0.152600
4.041000 0.162100
4.061700 0.169600
4.082400 0.177300
4.103000 0.185200
4.123700 0.193400
4.144400 0.201700
4.165100 0.209500
4.185800 0.216400
4.206500 0.223000
4.227100 0.229100
4.247800 0.235600
4.268500 0.242300
4.289200 0.249100
4.309900 0.255900
4.330600 0.262800
4.351300 0.269900
4.371900 0.277000
4.392600 0.283900
4.413300 0.290700
4.434000 0.297400
4.454700 0.304100
4.475400 0.311200
4.496100 0.318400
4.516700 0.325500
4.537400 0.332800
4.558100 0.340100
4.578800 0.347500
4.599500 0.354900
4.620200 0.362300
4.640800 0.369600
4.661500 0.377000
4.682200 0.384400
4.702900 0.391900
4.723600 0.399400
4.744300 0.407000
4.765000 0.414600
4.785600 0.422300
4.806300 0.430100
4.827000 0.438500
4.847700 0.447500
4.868400 0.456500
4.889100 0.465800
4.909700 0.475300
4.930400 0.484800
4.951100 0.494400
4.971800 0.504000
4.992500 0.513700
5.013200 0.523500
5.033900 0.533200
5.054500 0.543100
5.075200 0.553400
5.095900 0.563700
5.116600 0.574200
5.137300 0.584700
5.158000 0.595300
5.178600 0.606000
5.199300 0.617300
5.220000 0.630100
5.240700 0.643900
5.261400 0.657700
5.282100 0.671500
5.302800 0.686900
5.323400 0.703400
5.344100 0.720000
5.364800 0.737100
5.385500 0.754500
5.406200 0.772500
5.426900 0.790800
5.447600 0.809600
5.468200 0.828900
5.488900 0.849300
5.509600 0.871300
5.530300 0.894700
5.551000 0.919900
5.571700 0.950300
5.592300 0.986300
5.613000 1.023600
5.633700 1.062900
5.654400 1.105300
5.675100 1.151300
5.695800 1.206100
5.716500 1.268300
5.737100 1.335500
5.757800 1.408400
5.778500 1.488900
5.799200 1.621500
5.819900 1.724300
5.840600 1.858500
5.861200 2.022800
5.881900 2.212000
5.902600 2.316500
5.923300 2.485500
5.944000 2.621500
5.964700 2.979500
5.985400 3.005100
6.006000 2.952800
6.026700 3.050500
6.047400 3.121100
6.068100 2.368900
6.088800 1.975400
6.109500 1.669400
6.130100 1.510300
6.150800 1.121700
6.171500 0.866800
6.192200 0.506800
6.212900 0.457000
6.233600 0.389700
6.254300 0.273300
6.274900 0.234700
6.295600 0.222800
6.316300 0.212200
6.337000 0.201800
6.357700 0.191600
6.378400 0.181800
6.399100 0.172500
6.419700 0.165900
6.440400 0.250500
6.461100 0.347500
6.481800 0.405700
6.502500 0.430900
6.523200 0.484200
6.543800 0.543000
6.564500 0.616700
6.585200 0.689600
6.605900 0.752500
6.626600 0.787800
6.647300 0.791900
6.668000 0.804500
6.688600 0.809300
6.709300 0.812400
6.730000 0.820200
6.750700 0.830700
6.771400 0.837500
6.792100 0.835400
6.812700 0.839000
6.833400 0.842000
6.854100 0.847900
6.874800 0.854900
6.895500 0.864700
6.916200 0.873100
6.936900 0.880300
6.957500 0.887600
6.978200 0.895900
6.998900 0.903800
7.019600 0.910400
7.040300 0.916200
7.061000 0.921500
7.081600 0.926500
7.102300 0.931700
7.123000 0.940800
7.143700 0.947800
7.164400 0.955000
7.185100 0.962500
7.205800 0.970300
7.226400 0.977700
7.247100 0.985100
7.267800 0.991800
7.288500 0.999900
7.309200 1.005400
7.329900 1.010500
7.350500 1.015700
7.371200 1.021400
7.391900 1.027900
7.412600 1.034300
7.433300 1.039800
7.454000 1.044400
7.474700 1.048300
7.495300 1.059700
7.516000 1.069200
7.536700 1.077000
7.557400 1.084200
7.578100 1.091400
7.598800 1.099700
7.619500 1.109200
7.640100 1.117900
7.660800 1.125500
7.681500 1.131600
7.702200 1.137200
7.722900 1.146200
7.743600 1.157600
7.764200 1.174100
7.784900 1.188300
7.805600 1.201300
7.826300 1.214900
7.847000 1.233300
7.867700 1.250200
7.888400 1.341400
7.909000 1.443800
7.929700 1.532600
7.950400 1.637700
7.971100 1.778200
7.991800 2.242100
8.012500 2.210300
8.033100 2.239600
8.053800 2.156700
8.074500 2.310000
8.095200 2.634000
8.115900 2.476100
8.136600 2.251900
8.157300 2.250600
8.177900 2.366200
8.198600 2.361600
8.219300 2.292600
8.240000 2.064500
8.260700 1.844000
8.281400 1.798800
8.302000 1.813300
8.322700 1.847800
8.343400 1.899400
8.364100 1.974300
8.384800 2.155300
8.405500 2.428100
8.426200 2.696600
8.446800 2.917200
8.467500 3.109600
8.488200 3.232900
8.508900 3.329500
8.529600 3.405000
8.550300 3.593200
8.571000 3.754000
8.591600 3.859100
8.612300 3.981100
8.633000 4.047400
8.653700 4.409400
8.674400 4.968300
8.695100 6.229900
8.715700 6.184500
8.736400 4.234100
8.757100 3.268300
8.777800 2.703300
8.798500 2.232000
8.819200 1.827300
8.839900 1.566200
8.860500 1.296800
8.881200 0.994800
8.901900 0.727100
8.922600 0.487100
8.943300 0.183300
8.964000 0.000000
8.984600 0.000000
9.005300 0.000000
9.026000 0.000000
9.046700 0.000000
9.067400 0.000000
9.088100 0.000000
9.108800 0.000000
9.129400 0.000000
9.150100 0.000000
9.170800 0.000000
9.191500 0.000000
9.212200 0.000000
9.232900 0.000000
9.253500 0.000000
9.274200 0.000000
9.294900 0.000000
9.315600 0.000000
9.336300 0.000000
9.357000 0.000000
9.377700 0.000000
9.398300 0.000000
9.419000 0.000000
9.439700 0.000000
9.460400 0.000000
9.481100 0.000000
9.501800 0.000000
9.522500 0.000000
9.543100 0.000000
9.563800 0.000000
9.584500 0.000000
9.605200 0.000000
9.625900 0.000000
9.646600 0.000000
9.667200 0.000000
9.687900 0.000000
9.708600 0.000000
9.729300 0.000000
9.750000 0.000000
9.770700 0.000000
9.791400 0.000000
9.812000 0.000000
9.832700 0.000000
9.853400 0.000000
9.874100 0.000000
9.894800 0.000000
9.915500 0.000000
9.936100 0.000000
9.956800 0.000000
9.977500 0.000000
9.998200 0.000000
10.018900 0.000000
10.039600 0.000000
10.060300 0.000000
10.080900 0.000000
10.101600 0.000000
10.122300 0.000000
10.143000 0.000000
10.163700 0.000000
10.184400 0.000000
10.205000 0.000000
10.225700 0.000000
10.246400 0.000000
10.267100 0.000000
10.287800 0.000000
10.308500 0.000000
10.329200 0.000000
10.349800 0.002900
10.370500 0.024100
10.391200 0.048200
10.411900 0.075300
10.432600 0.105000
10.453300 0.128700
10.473900 0.134600
10.494600 0.140700
10.515300 0.147400
10.536000 0.156900
10.556700 0.168100
10.577400 0.179500
10.598100 0.191100
10.618700 0.202900
10.639400 0.212300
10.660100 0.218000
10.680800 0.223600
10.701500 0.230600
10.722200 0.237600
10.742900 0.244600
10.763500 0.251600
10.784200 0.258900
10.804900 0.266400
10.825600 0.274200
10.846300 0.282000
10.867000 0.290000
10.887600 0.297900
10.908300 0.305900
10.929000 0.313500
10.949700 0.320300
10.970400 0.326400
10.991100 0.332300
11.011800 0.338300
11.032400 0.344500
11.053100 0.350800
11.073800 0.357300
11.094500 0.363900
11.115200 0.370600
11.135900 0.377300
11.156500 0.384200
11.177200 0.391200
11.197900 0.398500
11.218600 0.405700
11.239300 0.413100
11.260000 0.420700
11.280700 0.428500
11.301300 0.436600
11.322000 0.444800
11.342700 0.453100
11.363400 0.461400
11.384100 0.469500
11.404800 0.477900
11.425400 0.486300
11.446100 0.494800
11.466800 0.503300
11.487500 0.511400
11.508200 0.519400
11.528900 0.527500
11.549600 0.536000
11.570200 0.544900
11.590900 0.554200
11.611600 0.563800
11.632300 0.573800
11.653000 0.584100
11.673700 0.595000
11.694400 0.606500
11.715000 0.618400
11.735700 0.630900
11.756400 0.643900
11.777100 0.657600
11.797800 0.672000
11.818500 0.688100
11.839100 0.706300
11.859800 0.727600
11.880500 0.752800
11.901200 0.782500
11.921900 0.818500
11.942600 0.863000
11.963300 0.942500
11.983900 0.897400
12.004600 0.909700
12.025300 0.888000
12.046000 0.865600
12.066700 0.853100
12.087400 0.848200
12.108000 0.882100
12.128700 0.856400
12.149400 0.859200
12.170100 0.871400
12.190800 0.883400
12.211500 0.871700
12.232200 0.863300
12.252800 0.856600
12.273500 0.853900
12.294200 0.857700
12.314900 0.861700
12.335600 0.865800
12.356300 0.870800
12.376900 0.879800
12.397600 0.889700
12.418300 0.900400
12.439000 0.913700
12.459700 0.927900
12.480400 0.943100
12.501100 0.962500
12.521700 0.986100
12.542400 1.013600
12.563100 1.044200
12.583800 1.079900
12.604500 1.107600
12.625200 1.146000
12.645900 1.219200
12.666500 1.281500
12.687200 1.305100
12.707900 1.329300
12.728600 1.371100
12.749300 1.396800
12.770000 1.420900
12.790600 1.446600
12.811300 1.472400
12.832000 1.493500
12.852700 1.570100
12.873400 1.456300
12.894100 1.423600
12.914800 1.394100
12.935400 1.344900
12.956100 1.266700
12.976800 1.187600
12.997500 1.103800
13.018200 1.009500
13.038900 0.923800
13.059500 0.847000
13.080200 0.771700
13.100900 0.709500
13.121600 0.645600
13.142300 0.587900
13.163000 0.546800
13.183700 0.525000
13.204300 0.508900
13.225000 0.480500
13.245700 0.429500
13.266400 0.388600
13.287100 0.351200
13.307800 0.318000
13.328400 0.289900
13.349100 0.263000
13.369800 0.236400
13.390500 0.213000
13.411200 0.193300
13.431900 0.176500
13.452600 0.162200
13.473200 0.150300
13.493900 0.139300
13.514600 0.130000
13.535300 0.122500
13.556000 0.116500
13.576700 0.112100
13.597300 0.109200
13.618000 0.109100
13.638700 0.112400
13.659400 0.119700
13.680100 0.131600
13.700800 0.146800
13.721500 0.158100
13.742100 0.167600
13.762800 0.179400
13.783500 0.191100
13.804200 0.202600
13.824900 0.212800
13.845600 0.222000
13.866300 0.235800
13.886900 0.255400
13.907600 0.280300
13.928300 0.309900
13.949000 0.345600
13.969700 0.388800
13.990400 0.459600
14.011000 0.521300
14.031700 0.572600
14.052400 0.621100
14.073100 0.692500
14.093800 0.737800
14.114500 0.794700
14.135200 0.837500
14.155800 0.873400
14.176500 0.904600
14.197200 0.946000
14.217900 0.989100
14.238600 1.025900
14.259300 1.073700
14.279900 1.128100
14.300600 1.176000
14.321300 1.202900
14.342000 1.241800
14.362700 1.338500
14.383400 1.376300
14.404100 1.391600
14.424700 1.403800
14.445400 1.416800
14.466100 1.433100
14.486800 1.429500
14.507500 1.425400
14.528200 1.423400
14.548800 1.425400
14.569500 1.433500
14.590200 1.471800
14.610900 1.491800
14.631600 1.501200
14.652300 1.514200
14.673000 1.535600
14.693600 1.535600
14.714300 1.550500
14.735000 1.518700
14.755700 1.553000
14.776400 1.630000
14.797100 1.742300
14.817800 1.717600
14.838400 1.726000
14.859100 1.712600
14.879800 1.691200
14.900500 1.681800
14.921200 1.688200
14.941900 1.716300
14.962500 1.749000
14.983200 1.787800
15.003900 1.840000
15.024600 1.906500
15.045300 1.953600
15.066000 1.958800
15.086700 1.991700
15.107300 1.996700
15.128000 1.983900
15.148700 1.970900
15.169400 1.958600
15.190100 1.950100
15.210800 1.950100
15.231400 1.964700
15.252100 1.956200
15.272800 1.961400
15.293500 1.957500
15.314200 1.939700
15.334900 1.939300
15.355600 1.938000
15.376200 1.924500
15.396900 1.927700
15.417600 1.925800
15.438300 1.914500
15.459000 1.897300
15.479700 1.889600
15.500300 1.933900
15.521000 2.010900
15.541700 1.848900
15.562400 1.759400
15.583100 1.643500
15.603800 1.473600
15.624500 1.313000
15.645100 1.181300
15.665800 1.114600
15.686500 1.085600
15.707200 1.071000
15.727900 1.086000
15.748600 1.097200
15.769300 1.144600
15.789900 1.203300
15.810600 1.278300
15.831300 1.243100
15.852000 1.183400
15.872700 1.188200
15.893400 1.202200
15.914000 1.225700
15.934700 1.237300
15.955400 1.248300
15.976100 1.271500
15.996800 1.277500
16.017500 1.269400
16.038200 1.265800
16.058800 1.295900
16.079500 1.336500
16.100200 1.374200
16.120900 1.455800
16.141600 1.511100
16.162300 1.556000
16.182900 1.646400
16.203600 1.669900
16.224300 1.711200
16.245000 1.672000
16.265700 1.639800
16.286400 1.565600
16.307100 1.161500
16.327700 1.010100
16.348400 0.982500
16.369100 0.968400
16.389800 0.947900
16.410500 0.913600
16.431200 0.896700
16.451800 0.886100
16.472500 0.877200
16.493200 0.872000
16.513900 0.869000
16.534600 0.867400
16.555300 0.867200
16.576000 0.867800
16.596600 0.868000
16.617300 0.868800
16.638000 0.870200
16.658700 0.872500
16.679400 0.874500
16.700100 0.876500
16.720700 0.879100
16.741400 0.884400
16.762100 0.894200
16.782800 0.909800
16.803500 0.929600
16.824200 0.968400
16.844900 0.996900
16.865500 1.023500
16.886200 1.051900
16.906900 1.043300
16.927600 1.032500
16.948300 1.046600
16.969000 1.069100
16.989700 1.090100
17.010300 1.109700
17.031000 1.135000
17.051700 1.159700
17.072400 1.183200
17.093100 1.205700
17.113800 1.224300
17.134400 1.267400
17.155100 1.321400
17.175800 1.347600
17.196500 1.379000
17.217200 1.398400
17.237900 1.424800
17.258600 1.455800
17.279200 1.479300
17.299900 1.470600
17.320600 1.447500
17.341300 1.450200
17.362000 1.443100
17.382700 1.434600
17.403300 1.430000
17.424000 1.347900
17.444700 1.300200
17.465400 1.266300
17.486100 1.246700
17.506800 1.244300
17.527500 1.247300
17.548100 1.249700
17.568800 1.247600
17.589500 1.243600
17.610200 1.237300
17.630900 1.223200
17.651600 1.201100
17.672200 1.176600
17.692900 1.150300
17.713600 1.147100
17.734300 1.171200
17.755000 1.184000
17.775700 1.201400
17.796400 1.215600
17.817000 1.227500
17.837700 1.236600
17.858400 1.238100
17.879100 1.248000
17.899800 1.264500
17.920500 1.287100
17.941200 1.312700
17.961800 1.341900
17.982500 1.375600
18.003200 1.410000
18.023900 1.441800
18.044600 1.476300
18.065300 1.592400
18.085900 1.645800
18.106600 1.636200
18.127300 1.581500
18.148000 1.508900
18.168700 1.438000
18.189400 1.352100
18.210100 1.269400
18.230700 1.222600
18.251400 1.195100
18.272100 1.169800
18.292800 1.151400
18.313500 1.137800
18.334200 1.128700
18.354800 1.123200
18.375500 1.126400
18.396200 1.129400
18.416900 1.137000
18.437600 1.149400
18.458300 1.164400
18.479000 1.178100
18.499600 1.193100
18.520300 1.211400
18.541000 1.232500
18.561700 1.258800
18.582400 1.286000
18.603100 1.303200
18.623700 1.326400
18.644400 1.354000
18.665100 1.384300
18.685800 1.424900
18.706500 1.473400
18.727200 1.530300
18.747900 1.580600
18.768500 1.632200
18.789200 1.706200
18.809900 1.845700
18.830600 2.106500
18.851300 2.408600
18.872000 2.783600
18.892600 3.289200
18.913300 3.229600
18.934000 3.287700
18.954700 3.507400
18.975400 3.368000
18.996100 3.373200
19.016800 3.451700
19.037400 3.301800
19.058100 3.074900
19.078800 2.866900
19.099500 2.693900
19.120200 2.497700
19.140900 2.275600
19.161600 2.114300
19.182200 2.029000
19.202900 2.010100
19.223600 1.915900
19.244300 1.795700
19.265000 1.745500
19.285700 1.692500
19.306300 1.656600
19.327000 1.665100
19.347700 1.760900
19.368400 2.023700
19.389100 1.841300
19.409800 1.857800
19.430500 1.900400
19.451100 1.955900
19.471800 2.003000
19.492500 2.142500
19.513200 2.218500
19.533900 2.258500
19.554600 2.198800
19.575200 2.124300
19.595900 2.088800
19.616600 2.055800
19.637300 2.059800
19.658000 2.142700
19.678700 2.160200
19.699400 2.166600
19.720000 2.196100
19.740700 2.275000
19.761400 2.364200
19.782100 2.507600
19.802800 2.732400
19.823500 2.934600
19.844100 2.953300
19.864800 2.927500
19.885500 2.912900
19.906200 2.717800
19.926900 2.397800
19.947600 2.101200
19.968300 1.916200
19.988900 1.802000
20.009600 1.717800
20.030300 1.610400
20.051000 1.555700
20.071700 1.508000
20.092400 1.456800
20.113100 1.438000
20.133700 1.381400
20.154400 1.326900
20.175100 1.287100
20.195800 1.227900
20.216500 1.189200
20.237200 1.159400
20.257800 1.137900
20.278500 1.119800
20.299200 1.100000
20.319900 1.079500
20.340600 1.048900
20.361300 1.017100
20.382000 0.993700
20.402600 0.970900
20.423300 0.949500
20.444000 0.926400
20.464700 0.906600
20.485400 0.890400
20.506100 0.880600
20.526700 0.870900
20.547400 0.861900
20.568100 0.851100
20.588800 0.844000
20.609500 0.839300
20.630200 0.832500
20.650900 0.826300
20.671500 0.815700
20.692200 0.803500
20.712900 0.800900
20.733600 0.801200
20.754300 0.802300
20.775000 0.804200
20.795600 0.801500
20.816300 0.791000
20.837000 0.801000
20.857700 0.830000
20.878400 0.845900
20.899100 0.866700
20.919800 0.897400
20.940400 0.930900
20.961100 0.977300
20.981800 1.035400
21.002500 1.102900
21.023200 1.169600
21.043900 1.355500
21.064600 1.417300
21.085200 1.534700
21.105900 1.755300
21.126600 1.905000
21.147300 2.036800
21.168000 2.079500
21.188700 2.066600
21.209300 2.076200
21.230000 2.120400
21.250700 2.163200
21.271400 2.151400
21.292100 2.153700
21.312800 2.120100
21.333500 2.077900
21.354100 2.066200
21.374800 2.054400
21.395500 2.047200
21.416200 2.047200
21.436900 2.037800
21.457600 2.110100
21.478200 2.142800
21.498900 2.186300
21.519600 2.224300
21.540300 2.342500
21.561000 2.510100
21.581700 2.578000
21.602400 2.501900
21.623000 2.340700
21.643700 2.189000
21.664400 2.129600
21.685100 2.095300
21.705800 2.095100
21.726500 2.108100
21.747100 2.110200
21.767800 2.025500
21.788500 1.894300
21.809200 1.807700
21.829900 1.770300
21.850600 1.814400
21.871300 1.818900
21.891900 1.788000
21.912600 1.764100
21.933300 1.764200
21.954000 1.823700
21.974700 1.740800
21.995400 1.645000
22.016000 1.560100
22.036700 1.515600
22.057400 1.491100
22.078100 1.499500
22.098800 1.408400
22.119500 1.331800
22.140200 1.291000
22.160800 1.254000
22.181500 1.215300
22.202200 1.160300
22.222900 1.149800
22.243600 1.261200
22.264300 1.344200
22.285000 1.304300
22.305600 1.357500
22.326300 1.588300
22.347000 1.320500
22.367700 1.280100
22.388400 1.261500
22.409100 1.273800
22.429700 1.318600
22.450400 1.339000
22.471100 1.406900
22.491800 1.473800
22.512500 1.579900
22.533200 1.689700
22.553900 1.746600
22.574500 1.794400
22.595200 1.835800
22.615900 1.883800
22.636600 1.886500
22.657300 1.889100
22.678000 1.937300
22.698600 1.850800
22.719300 1.755100
22.740000 1.683100
22.760700 1.704100
22.781400 1.694500
22.802100 1.663000
22.822800 1.611900
22.843400 1.537400
22.864100 1.317000
22.884800 1.211600
22.905500 1.131600
22.926200 1.063100
22.946900 1.023500
22.967500 0.989300
22.988200 0.941600
23.008900 0.881900
23.029600 0.823800
23.050300 0.769100
23.071000 0.742300
23.091700 0.665600
23.112300 0.579800
23.133000 0.508400
23.153700 0.468500
23.174400 0.426300
23.195100 0.368100
23.215800 0.302600
23.236500 0.253100
23.257100 0.227200
23.277800 0.202500
23.298500 0.180700
23.319200 0.176400
23.339900 0.152600
23.360600 0.122100
23.381200 0.098700
23.401900 0.082400
23.422600 0.072600
23.443300 0.063900
23.464000 0.055500
23.484700 0.047200
23.505400 0.039200
23.526000 0.032900
23.546700 0.027000
23.567400 0.021700
23.588100 0.016800
23.608800 0.012600
23.629500 0.008900
23.650100 0.005800
23.670800 0.003300
23.691500 0.001500
23.712200 0.000400
23.732900 0.000000
23.753600 0.000000
23.774300 0.000000
23.794900 0.000000
23.815600 0.000000
23.836300 0.000000
23.857000 0.000000
23.877700 0.000000
23.898400 0.000000
23.919000 0.000000
23.939700 0.000000
23.960400 0.000000
23.981100 0.000000
24.001800 0.000000
24.022500 0.000000
24.043200 0.000000
24.063800 0.000000
24.084500 0.000000
24.105200 0.000000
24.125900 0.000000
24.146600 0.000000
24.167300 0.000000
24.188000 0.000000
24.208600 0.000000
24.229300 0.000000
24.250000 0.000000
24.270700 0.000000
24.291400 0.000000
24.312100 0.000000
24.332700 0.000000
24.353400 0.000000
24.374100 0.000000
24.394800 0.000000
24.415500 0.000000
24.436200 0.000000
24.456900 0.000000
24.477500 0.000000
24.498200 0.000000
24.518900 0.000000
24.539600 0.000000
24.560300 0.000000
24.581000 0.000000
24.601600 0.000000
24.622300 0.000000
24.643000 0.000000
24.663700 0.000000
24.684400 0.000000
24.705100 0.000000
24.725800 0.000000
24.746400 0.000000
24.767100 0.000000
24.787800 0.000000
24.808500 0.000000
24.829200 0.000000
24.849900 0.000000
24.870500 0.000000
24.891200 0.000000
24.911900 0.000000
24.932600 0.000000
24.953300 0.000000
24.974000 0.000000
24.994700 0.000000
25.015300 0.000000
25.036000 0.000000
25.056700 0.000000
25.077400 0.000000
25.098100 0.000000
25.118800 0.000000
25.139400 0.000000
25.160100 0.000000
25.180800 0.000000
25.201500 0.000000
25.222200 0.000000
25.242900 0.000000
25.263600 0.000000
25.284200 0.000000
25.304900 0.000000
25.325600 0.000000
25.346300 0.000000
25.367000 0.000000
25.387700 0.000000
25.408400 0.000000
25.429000 0.000000
25.449700 0.000000
25.470400 0.000000
25.491100 0.000000
25.511800 0.000000
25.532500 0.000000
25.553100 0.000000
25.573800 0.000000
25.594500 0.000000
25.615200 0.000000
e
