set title 'mp-983357 - Density of States'
set xlabel 'Energy (eV)'
set ylabel 'DOS (states/eV)'
set grid
set xrange [-10:10]
set yrange [0:38.405]
set xzeroaxis lt -1
set terminal png size 800,600
set output 'mp-983357_dos_gnuplot.png'
plot '-' using 1:2 with lines title 'DOS'
-29.934300 0.000000
-29.905000 0.000000
-29.875600 0.000000
-29.846300 0.000000
-29.816900 0.000000
-29.787600 0.000000
-29.758200 0.000000
-29.728900 0.000000
-29.699500 0.000000
-29.670200 0.000000
-29.640800 0.000000
-29.611500 0.000000
-29.582200 0.000000
-29.552800 0.000000
-29.523500 0.000000
-29.494100 0.000000
-29.464800 0.000000
-29.435400 0.000000
-29.406100 0.000000
-29.376700 0.000000
-29.347400 0.000000
-29.318000 0.000000
-29.288700 0.000000
-29.259300 0.000000
-29.230000 0.000000
-29.200600 0.000000
-29.171300 0.000000
-29.141900 0.000000
-29.112600 0.000000
-29.083200 0.000000
-29.053900 0.000000
-29.024600 0.000000
-28.995200 0.000000
-28.965900 0.000000
-28.936500 0.000000
-28.907200 0.000000
-28.877800 0.000000
-28.848500 0.000000
-28.819100 0.000000
-28.789800 0.000000
-28.760400 0.000000
-28.731100 0.000000
-28.701700 0.000000
-28.672400 0.000000
-28.643000 0.000000
-28.613700 0.000000
-28.584300 0.000000
-28.555000 0.000000
-28.525600 0.000000
-28.496300 0.000000
-28.467000 0.000000
-28.437600 0.000000
-28.408300 0.000000
-28.378900 0.000000
-28.349600 0.000000
-28.320200 0.000000
-28.290900 0.000000
-28.261500 0.000000
-28.232200 0.000000
-28.202800 0.000000
-28.173500 0.000000
-28.144100 0.000000
-28.114800 0.000000
-28.085400 0.000000
-28.056100 0.000000
-28.026700 0.000000
-27.997400 0.000000
-27.968000 0.000000
-27.938700 0.000000
-27.909400 0.000000
-27.880000 0.000000
-27.850700 0.000000
-27.821300 0.000000
-27.792000 0.000000
-27.762600 0.000000
-27.733300 0.000000
-27.703900 0.000000
-27.674600 0.000000
-27.645200 0.000000
-27.615900 0.000000
-27.586500 0.000000
-27.557200 0.000000
-27.527800 0.000000
-27.498500 0.000000
-27.469100 0.000000
-27.439800 0.000000
-27.410400 0.000000
-27.381100 0.000000
-27.351800 0.000000
-27.322400 0.000000
-27.293100 0.000000
-27.263700 0.017600
-27.234400 2.248000
-27.205000 4.681500
-27.175700 9.191700
-27.146300 12.653900
-27.117000 11.454500
-27.087600 6.578300
-27.058300 6.839000
-27.028900 7.560700
-26.999600 10.124800
-26.970200 9.133900
-26.940900 8.400000
-26.911500 8.811600
-26.882200 6.353200
-26.852800 6.297900
-26.823500 6.475300
-26.794200 6.702400
-26.764800 7.170500
-26.735500 7.000700
-26.706100 8.235700
-26.676800 6.007500
-26.647400 5.877800
-26.618100 5.909900
-26.588700 5.942200
-26.559400 5.974700
-26.530000 6.013500
-26.500700 7.833000
-26.471300 7.213900
-26.442000 7.269900
-26.412600 7.326000
-26.383300 7.382200
-26.353900 7.438600
-26.324600 20.577800
-26.295200 19.150200
-26.265900 14.800700
-26.236500 0.000000
-26.207200 0.000000
-26.177900 0.000000
-26.148500 0.000000
-26.119200 0.000000
-26.089800 0.000000
-26.060500 0.000000
-26.031100 0.000000
-26.001800 0.000000
-25.972400 0.000000
-25.943100 0.000000
-25.913700 0.000000
-25.884400 0.000000
-25.855000 0.000000
-25.825700 0.000000
-25.796300 0.000000
-25.767000 0.000000
-25.737600 0.000000
-25.708300 0.000000
-25.678900 0.000000
-25.649600 0.000000
-25.620300 0.000000
-25.590900 0.000000
-25.561600 0.000000
-25.532200 0.000000
-25.502900 0.000000
-25.473500 0.000000
-25.444200 0.000000
-25.414800 0.000000
-25.385500 0.000000
-25.356100 0.000000
-25.326800 0.000000
-25.297400 0.000000
-25.268100 0.000000
-25.238700 0.000000
-25.209400 0.000000
-25.180000 0.000000
-25.150700 0.000000
-25.121300 0.000000
-25.092000 0.000000
-25.062700 0.000000
-25.033300 0.000000
-25.004000 0.000000
-24.974600 0.000000
-24.945300 0.000000
-24.915900 0.000000
-24.886600 0.000000
-24.857200 0.000000
-24.827900 0.000000
-24.798500 0.000000
-24.769200 0.000000
-24.739800 0.000000
-24.710500 0.000000
-24.681100 0.000000
-24.651800 0.000000
-24.622400 0.000000
-24.593100 0.000000
-24.563700 0.000000
-24.534400 0.000000
-24.505100 0.000000
-24.475700 0.000000
-24.446400 0.000000
-24.417000 0.000000
-24.387700 0.000000
-24.358300 0.000000
-24.329000 0.000000
-24.299600 0.000000
-24.270300 0.000000
-24.240900 0.000000
-24.211600 0.000000
-24.182200 0.000000
-24.152900 0.000000
-24.123500 0.000000
-24.094200 0.000000
-24.064800 0.000000
-24.035500 0.000000
-24.006100 0.000000
-23.976800 0.000000
-23.947500 0.000000
-23.918100 0.000000
-23.888800 0.000000
-23.859400 0.000000
-23.830100 0.000000
-23.800700 0.000000
-23.771400 0.000000
-23.742000 0.000000
-23.712700 0.000000
-23.683300 0.000000
-23.654000 0.000000
-23.624600 0.000000
-23.595300 0.000000
-23.565900 0.000000
-23.536600 0.000000
-23.507200 0.000000
-23.477900 0.000000
-23.448500 0.000000
-23.419200 0.000000
-23.389900 0.000000
-23.360500 0.000000
-23.331200 0.000000
-23.301800 0.000000
-23.272500 0.000000
-23.243100 0.000000
-23.213800 0.000000
-23.184400 0.000000
-23.155100 0.000000
-23.125700 0.000000
-23.096400 0.000000
-23.067000 0.000000
-23.037700 0.000000
-23.008300 0.000000
-22.979000 0.000000
-22.949600 0.000000
-22.920300 0.000000
-22.890900 0.000000
-22.861600 0.000000
-22.832300 0.000000
-22.802900 0.000000
-22.773600 0.000000
-22.744200 0.000000
-22.714900 0.000000
-22.685500 0.000000
-22.656200 0.000000
-22.626800 0.000000
-22.597500 0.000000
-22.568100 0.000000
-22.538800 0.000000
-22.509400 0.000000
-22.480100 0.000000
-22.450700 0.000000
-22.421400 0.000000
-22.392000 0.000000
-22.362700 0.000000
-22.333300 0.000000
-22.304000 0.000000
-22.274700 0.000000
-22.245300 0.000000
-22.216000 0.000000
-22.186600 0.000000
-22.157300 0.000000
-22.127900 0.000000
-22.098600 0.000000
-22.069200 0.000000
-22.039900 0.000000
-22.010500 0.000000
-21.981200 0.000000
-21.951800 0.000000
-21.922500 0.000000
-21.893100 0.000000
-21.863800 0.000000
-21.834400 0.000000
-21.805100 0.000000
-21.775700 0.000000
-21.746400 0.000000
-21.717100 0.000000
-21.687700 0.000000
-21.658400 0.000000
-21.629000 0.000000
-21.599700 0.000000
-21.570300 0.000000
-21.541000 0.000000
-21.511600 0.000000
-21.482300 0.000000
-21.452900 0.000000
-21.423600 0.000000
-21.394200 0.000000
-21.364900 0.000000
-21.335500 0.000000
-21.306200 0.000000
-21.276800 0.000000
-21.247500 0.000000
-21.218100 0.000000
-21.188800 0.000000
-21.159400 0.000000
-21.130100 0.000000
-21.100800 0.000000
-21.071400 0.000000
-21.042100 0.000000
-21.012700 0.000000
-20.983400 0.000000
-20.954000 0.000000
-20.924700 0.000000
-20.895300 0.000000
-20.866000 0.000000
-20.836600 0.000000
-20.807300 0.000000
-20.777900 0.000000
-20.748600 0.000000
-20.719200 0.000000
-20.689900 0.000000
-20.660500 0.000000
-20.631200 0.000000
-20.601800 0.000000
-20.572500 0.000000
-20.543200 0.000000
-20.513800 0.000000
-20.484500 0.000000
-20.455100 0.000000
-20.425800 0.000000
-20.396400 0.000000
-20.367100 0.000000
-20.337700 0.000000
-20.308400 0.000000
-20.279000 0.000000
-20.249700 0.000000
-20.220300 0.000000
-20.191000 0.000000
-20.161600 0.000000
-20.132300 0.000000
-20.102900 0.000000
-20.073600 0.000000
-20.044200 0.000000
-20.014900 0.000000
-19.985600 0.000000
-19.956200 0.000000
-19.926900 0.000000
-19.897500 0.000000
-19.868200 0.000000
-19.838800 0.000000
-19.809500 0.000000
-19.780100 0.000000
-19.750800 0.000000
-19.721400 0.000000
-19.692100 0.000000
-19.662700 0.000000
-19.633400 0.000000
-19.604000 0.000000
-19.574700 0.000000
-19.545300 0.000000
-19.516000 0.000000
-19.486600 0.000000
-19.457300 0.000000
-19.428000 0.000000
-19.398600 0.000000
-19.369300 0.000000
-19.339900 0.000000
-19.310600 0.000000
-19.281200 0.000000
-19.251900 0.000000
-19.222500 0.000000
-19.193200 0.000000
-19.163800 0.000000
-19.134500 0.000000
-19.105100 0.000000
-19.075800 0.000000
-19.046400 0.000000
-19.017100 0.000000
-18.987700 0.000000
-18.958400 0.000000
-18.929000 0.000000
-18.899700 0.000000
-18.870400 0.000000
-18.841000 0.000000
-18.811700 0.000000
-18.782300 0.000000
-18.753000 0.000000
-18.723600 0.000000
-18.694300 0.000000
-18.664900 0.000000
-18.635600 0.000000
-18.606200 0.000000
-18.576900 0.000000
-18.547500 0.000000
-18.518200 0.000000
-18.488800 0.000000
-18.459500 0.000000
-18.430100 0.000000
-18.400800 0.000000
-18.371400 0.000000
-18.342100 0.000000
-18.312800 0.000000
-18.283400 0.000000
-18.254100 0.000000
-18.224700 0.000000
-18.195400 0.000000
-18.166000 0.000000
-18.136700 0.000000
-18.107300 0.000000
-18.078000 0.000000
-18.048600 0.000000
-18.019300 0.000000
-17.989900 0.000000
-17.960600 0.000000
-17.931200 0.000000
-17.901900 0.000000
-17.872500 0.000000
-17.843200 0.000000
-17.813800 0.000000
-17.784500 0.000000
-17.755200 0.000000
-17.725800 0.000000
-17.696500 0.000000
-17.667100 0.000000
-17.637800 0.000000
-17.608400 0.000000
-17.579100 0.000000
-17.549700 0.000000
-17.520400 0.000000
-17.491000 0.000000
-17.461700 0.000000
-17.432300 0.000000
-17.403000 0.000000
-17.373600 0.000000
-17.344300 0.000000
-17.314900 0.000000
-17.285600 0.000000
-17.256200 0.000000
-17.226900 0.000000
-17.197600 0.000000
-17.168200 0.000000
-17.138900 0.000000
-17.109500 0.000000
-17.080200 0.000000
-17.050800 0.000000
-17.021500 0.000000
-16.992100 0.000000
-16.962800 0.000000
-16.933400 0.000000
-16.904100 0.000000
-16.874700 0.000000
-16.845400 0.000000
-16.816000 0.000000
-16.786700 0.000000
-16.757300 0.000000
-16.728000 0.000000
-16.698600 0.000000
-16.669300 0.000000
-16.640000 0.000000
-16.610600 0.000000
-16.581300 0.000000
-16.551900 0.000000
-16.522600 0.000000
-16.493200 0.000000
-16.463900 0.000000
-16.434500 0.000000
-16.405200 0.000000
-16.375800 0.000000
-16.346500 0.000000
-16.317100 0.000000
-16.287800 0.000000
-16.258400 0.000000
-16.229100 0.000000
-16.199700 0.000000
-16.170400 0.000000
-16.141000 0.000000
-16.111700 0.000000
-16.082300 0.000000
-16.053000 0.000000
-16.023700 0.000000
-15.994300 0.000000
-15.965000 0.000000
-15.935600 0.000000
-15.906300 0.000000
-15.876900 0.000000
-15.847600 0.000000
-15.818200 0.000000
-15.788900 0.000000
-15.759500 0.000000
-15.730200 0.000000
-15.700800 0.000000
-15.671500 0.000000
-15.642100 0.000000
-15.612800 0.000000
-15.583400 0.000000
-15.554100 0.000000
-15.524700 0.000000
-15.495400 0.000000
-15.466100 0.000000
-15.436700 0.000000
-15.407400 0.000000
-15.378000 0.000000
-15.348700 0.000000
-15.319300 0.000000
-15.290000 0.000000
-15.260600 0.000000
-15.231300 0.000000
-15.201900 0.000000
-15.172600 0.000000
-15.143200 0.000000
-15.113900 0.000000
-15.084500 0.000000
-15.055200 0.000000
-15.025800 0.000000
-14.996500 0.000000
-14.967100 0.000000
-14.937800 0.000000
-14.908500 0.000000
-14.879100 0.000000
-14.849800 0.000000
-14.820400 0.000000
-14.791100 0.000000
-14.761700 0.000000
-14.732400 0.000000
-14.703000 0.000000
-14.673700 0.000000
-14.644300 0.000000
-14.615000 0.000000
-14.585600 0.000000
-14.556300 0.000000
-14.526900 0.000000
-14.497600 0.000000
-14.468200 0.000000
-14.438900 0.000000
-14.409500 0.000000
-14.380200 0.000000
-14.350900 0.000000
-14.321500 0.000000
-14.292200 0.000000
-14.262800 0.000000
-14.233500 0.000000
-14.204100 0.000000
-14.174800 0.000000
-14.145400 0.000000
-14.116100 0.000000
-14.086700 0.000000
-14.057400 0.000000
-14.028000 0.000000
-13.998700 0.000000
-13.969300 0.000000
-13.940000 0.000000
-13.910600 0.000000
-13.881300 0.000000
-13.851900 0.000000
-13.822600 0.000000
-13.793300 0.000000
-13.763900 0.000000
-13.734600 0.000000
-13.705200 0.000000
-13.675900 0.000000
-13.646500 0.000000
-13.617200 0.000000
-13.587800 0.000000
-13.558500 0.000000
-13.529100 0.000000
-13.499800 0.000000
-13.470400 0.000000
-13.441100 0.000000
-13.411700 0.000000
-13.382400 0.000000
-13.353000 0.000000
-13.323700 0.000000
-13.294300 0.000000
-13.265000 0.000000
-13.235700 0.000000
-13.206300 0.000000
-13.177000 0.000000
-13.147600 0.000000
-13.118300 0.000000
-13.088900 0.000000
-13.059600 0.000000
-13.030200 0.000000
-13.000900 0.000000
-12.971500 0.000000
-12.942200 0.000000
-12.912800 0.000000
-12.883500 0.000000
-12.854100 0.000000
-12.824800 0.000000
-12.795400 0.000000
-12.766100 0.000000
-12.736700 0.000000
-12.707400 0.000000
-12.678100 0.000000
-12.648700 0.000000
-12.619400 0.000000
-12.590000 0.000000
-12.560700 0.000000
-12.531300 0.000000
-12.502000 0.000000
-12.472600 0.000000
-12.443300 0.000000
-12.413900 0.000000
-12.384600 0.000000
-12.355200 0.000000
-12.325900 0.000000
-12.296500 0.000000
-12.267200 0.000000
-12.237800 0.000000
-12.208500 0.000000
-12.179100 0.000000
-12.149800 0.000000
-12.120500 0.000000
-12.091100 0.000000
-12.061800 0.000000
-12.032400 0.000000
-12.003100 0.000000
-11.973700 0.000000
-11.944400 0.000000
-11.915000 0.000000
-11.885700 0.000000
-11.856300 0.172000
-11.827000 2.121900
-11.797600 5.897800
-11.768300 8.306200
-11.738900 7.402800
-11.709600 6.435300
-11.680200 6.362000
-11.650900 5.425900
-11.621500 3.964100
-11.592200 3.889100
-11.562900 4.428100
-11.533500 3.150100
-11.504200 2.831400
-11.474800 2.779100
-11.445500 2.756400
-11.416100 2.734000
-11.386800 2.711700
-11.357400 2.689700
-11.328100 2.680100
-11.298700 2.730000
-11.269400 2.841900
-11.240000 3.243500
-11.210700 2.765300
-11.181300 2.417200
-11.152000 2.438200
-11.122600 2.795100
-11.093300 2.407500
-11.063900 2.210900
-11.034600 2.095100
-11.005200 2.020200
-10.975900 1.982200
-10.946600 1.972400
-10.917200 1.963600
-10.887900 1.955000
-10.858500 1.946400
-10.829200 1.942200
-10.799800 1.967000
-10.770500 2.013600
-10.741100 2.061000
-10.711800 2.108500
-10.682400 2.156100
-10.653100 2.203800
-10.623700 2.251700
-10.594400 2.299700
-10.565000 3.429700
-10.535700 0.243100
-10.506300 0.000000
-10.477000 0.000000
-10.447600 0.000000
-10.418300 0.578500
-10.389000 2.545200
-10.359600 2.496400
-10.330300 2.142300
-10.300900 1.971600
-10.271600 1.935000
-10.242200 1.900800
-10.212900 1.881500
-10.183500 1.877400
-10.154200 1.873700
-10.124800 1.869900
-10.095500 1.866300
-10.066100 1.862700
-10.036800 1.859100
-10.007400 1.855600
-9.978100 1.852100
-9.948700 1.848600
-9.919400 1.845200
-9.890000 1.842500
-9.860700 1.877200
-9.831400 1.972200
-9.802000 2.136700
-9.772700 2.702600
-9.743300 1.805500
-9.714000 2.919200
-9.684600 2.520400
-9.655300 2.167700
-9.625900 1.989300
-9.596600 1.958100
-9.567200 1.967000
-9.537900 1.975800
-9.508500 1.984700
-9.479200 1.993600
-9.449800 2.002500
-9.420500 2.011500
-9.391100 2.020400
-9.361800 2.029500
-9.332400 2.038500
-9.303100 2.047600
-9.273800 2.056700
-9.244400 2.065800
-9.215100 2.075800
-9.185700 2.129800
-9.156400 2.716700
-9.127000 5.832500
-9.097700 4.196000
-9.068300 4.461300
-9.039000 4.600500
-9.009600 4.661900
-8.980300 4.722000
-8.950900 4.782400
-8.921600 4.843000
-8.892200 4.846400
-8.862900 4.435000
-8.833500 0.000000
-8.804200 0.000000
-8.774800 0.000000
-8.745500 0.000000
-8.716200 0.000000
-8.686800 0.000000
-8.657500 0.000000
-8.628100 0.000000
-8.598800 0.000000
-8.569400 0.000000
-8.540100 0.000000
-8.510700 0.000000
-8.481400 0.000000
-8.452000 0.000000
-8.422700 0.000000
-8.393300 0.000000
-8.364000 0.000000
-8.334600 0.000000
-8.305300 0.000000
-8.275900 0.000000
-8.246600 0.000000
-8.217200 0.000000
-8.187900 0.000000
-8.158600 0.000000
-8.129200 0.000000
-8.099900 0.000000
-8.070500 0.000000
-8.041200 0.000000
-8.011800 0.000000
-7.982500 0.000000
-7.953100 0.000000
-7.923800 0.000000
-7.894400 0.000000
-7.865100 0.000000
-7.835700 0.000000
-7.806400 0.000000
-7.777000 0.000000
-7.747700 1.930000
-7.718300 8.165700
-7.689000 15.860700
-7.659600 12.156400
-7.630300 9.871700
-7.601000 10.704200
-7.571600 7.241100
-7.542300 3.119800
-7.512900 0.300100
-7.483600 0.000000
-7.454200 0.000000
-7.424900 0.000000
-7.395500 0.000000
-7.366200 0.000000
-7.336800 0.000000
-7.307500 0.000000
-7.278100 0.000000
-7.248800 0.000000
-7.219400 0.000000
-7.190100 0.000000
-7.160700 0.000300
-7.131400 11.701400
-7.102000 19.712400
-7.072700 18.428800
-7.043400 8.927200
-7.014000 5.967300
-6.984700 4.360200
-6.955300 0.081000
-6.926000 6.395300
-6.896600 8.376700
-6.867300 13.280300
-6.837900 16.973500
-6.808600 14.349000
-6.779200 10.648500
-6.749900 3.660100
-6.720500 8.584200
-6.691200 19.331800
-6.661800 18.748700
-6.632500 11.265500
-6.603100 9.104000
-6.573800 16.876000
-6.544400 26.229400
-6.515100 13.659300
-6.485800 5.602300
-6.456400 6.226700
-6.427100 34.913200
-6.397700 16.751900
-6.368400 9.675800
-6.339000 24.205100
-6.309700 16.716000
-6.280300 11.178800
-6.251000 7.653500
-6.221600 22.546500
-6.192300 25.116000
-6.162900 13.593300
-6.133600 1.940800
-6.104200 0.000000
-6.074900 0.000000
-6.045500 0.000000
-6.016200 0.000000
-5.986800 0.000000
-5.957500 0.006700
-5.928100 0.066200
-5.898800 0.187400
-5.869500 0.370100
-5.840100 0.618000
-5.810800 1.043500
-5.781400 1.455500
-5.752100 1.852900
-5.722700 3.018200
-5.693400 5.789100
-5.664000 6.054800
-5.634700 7.421400
-5.605300 7.850100
-5.576000 7.660600
-5.546600 7.128300
-5.517300 5.405800
-5.487900 5.014300
-5.458600 5.122800
-5.429200 1.875400
-5.399900 0.327500
-5.370500 0.000000
-5.341200 0.000000
-5.311900 0.000000
-5.282500 0.000000
-5.253200 0.000000
-5.223800 0.000000
-5.194500 0.000000
-5.165100 0.000000
-5.135800 0.000000
-5.106400 0.000000
-5.077100 0.000000
-5.047700 0.000000
-5.018400 0.000000
-4.989000 0.000000
-4.959700 0.000000
-4.930300 0.000000
-4.901000 0.000000
-4.871600 0.000000
-4.842300 0.000000
-4.812900 0.000000
-4.783600 0.000000
-4.754300 0.000000
-4.724900 0.000000
-4.695600 0.000000
-4.666200 0.000000
-4.636900 0.000000
-4.607500 0.000000
-4.578200 0.000000
-4.548800 0.000000
-4.519500 0.000000
-4.490100 0.000000
-4.460800 0.000000
-4.431400 0.000000
-4.402100 0.000000
-4.372700 0.000000
-4.343400 0.000000
-4.314000 0.000000
-4.284700 0.000000
-4.255300 0.000000
-4.226000 0.000000
-4.196700 0.000000
-4.167300 0.000000
-4.138000 0.000000
-4.108600 0.000000
-4.079300 0.000000
-4.049900 0.000000
-4.020600 0.000000
-3.991200 0.000000
-3.961900 0.000000
-3.932500 0.000000
-3.903200 0.000000
-3.873800 0.000000
-3.844500 0.000000
-3.815100 0.000000
-3.785800 0.000000
-3.756400 0.000000
-3.727100 0.000000
-3.697700 0.000000
-3.668400 0.000000
-3.639100 0.000000
-3.609700 0.000000
-3.580400 0.000000
-3.551000 0.000000
-3.521700 0.000000
-3.492300 0.000000
-3.463000 0.000000
-3.433600 0.000000
-3.404300 0.000000
-3.374900 0.000000
-3.345600 0.000000
-3.316200 0.000000
-3.286900 0.000000
-3.257500 0.000000
-3.228200 0.000000
-3.198800 0.000000
-3.169500 0.000000
-3.140100 0.000000
-3.110800 0.000000
-3.081500 0.000000
-3.052100 0.000000
-3.022800 0.000000
-2.993400 0.000000
-2.964100 0.000000
-2.934700 0.000000
-2.905400 0.000000
-2.876000 0.000000
-2.846700 0.000000
-2.817300 0.000000
-2.788000 0.000000
-2.758600 0.000000
-2.729300 0.000000
-2.699900 0.000000
-2.670600 0.000000
-2.641200 0.000000
-2.611900 0.000000
-2.582500 0.000000
-2.553200 0.000000
-2.523900 0.000000
-2.494500 0.000000
-2.465200 0.000000
-2.435800 0.000000
-2.406500 0.000000
-2.377100 0.000000
-2.347800 0.000000
-2.318400 0.000000
-2.289100 0.000000
-2.259700 0.000000
-2.230400 0.000000
-2.201000 0.000000
-2.171700 0.000000
-2.142300 0.000000
-2.113000 0.000000
-2.083600 0.000000
-2.054300 0.000000
-2.024900 0.000000
-1.995600 0.000000
-1.966300 0.000000
-1.936900 0.000000
-1.907600 0.000000
-1.878200 0.000000
-1.848900 0.000000
-1.819500 0.000000
-1.790200 0.000000
-1.760800 0.000000
-1.731500 0.000000
-1.702100 0.000000
-1.672800 0.000000
-1.643400 0.000000
-1.614100 0.000000
-1.584700 0.000000
-1.555400 0.000000
-1.526000 0.000000
-1.496700 0.000000
-1.467300 0.000000
-1.438000 0.000000
-1.408700 0.000000
-1.379300 0.000000
-1.350000 0.000000
-1.320600 0.000000
-1.291300 0.000000
-1.261900 0.000000
-1.232600 0.000000
-1.203200 0.000000
-1.173900 0.000000
-1.144500 0.000000
-1.115200 0.000000
-1.085800 0.000000
-1.056500 0.000000
-1.027100 0.000000
-0.997800 0.000000
-0.968400 0.000000
-0.939100 0.000000
-0.909700 0.000000
-0.880400 0.000000
-0.851000 0.000000
-0.821700 0.000000
-0.792400 0.000000
-0.763000 0.000000
-0.733700 0.000000
-0.704300 0.000000
-0.675000 0.000000
-0.645600 0.000000
-0.616300 0.000000
-0.586900 0.000000
-0.557600 0.000000
-0.528200 0.000000
-0.498900 0.000000
-0.469500 0.000000
-0.440200 0.000000
-0.410800 0.000000
-0.381500 0.000000
-0.352100 0.000000
-0.322800 0.000000
-0.293400 0.000000
-0.264100 0.000000
-0.234800 0.000000
-0.205400 0.000000
-0.176100 0.000000
-0.146700 0.000000
-0.117400 0.000000
-0.088000 0.000000
-0.058700 0.000000
-0.029300 0.000000
0.000000 0.000000
0.029400 0.000000
0.058700 0.000000
0.088100 0.000000
0.117400 0.000000
0.146800 0.000000
0.176100 0.000000
0.205500 0.000000
0.234800 0.000000
0.264200 0.000000
0.293500 0.000000
0.322800 0.000000
0.352200 0.000000
0.381500 0.000000
0.410900 0.000000
0.440200 0.000000
0.469600 0.000000
0.498900 0.000000
0.528300 0.000000
0.557600 0.000000
0.587000 0.000000
0.616300 0.000000
0.645700 0.000000
0.675000 0.000000
0.704400 0.000000
0.733700 0.000000
0.763100 0.000000
0.792400 0.000000
0.821800 0.000000
0.851100 0.000000
0.880400 0.000000
0.909800 0.000000
0.939100 0.000000
0.968500 0.000000
0.997800 0.000000
1.027200 0.000000
1.056500 0.000000
1.085900 0.000000
1.115200 0.000000
1.144600 0.000000
1.173900 0.000000
1.203300 0.000000
1.232600 0.000000
1.262000 0.000000
1.291300 0.000000
1.320700 0.000000
1.350000 0.000000
1.379400 0.000000
1.408700 0.000000
1.438000 0.000000
1.467400 0.000000
1.496700 0.000000
1.526100 0.000000
1.555400 0.000000
1.584800 0.000000
1.614100 0.000000
1.643500 0.000000
1.672800 0.000000
1.702200 0.000000
1.731500 0.000000
1.760900 0.000000
1.790200 0.000000
1.819600 0.000000
1.848900 0.000000
1.878300 0.000000
1.907600 0.000000
1.937000 0.000000
1.966300 0.000000
1.995600 0.000000
2.025000 0.000000
2.054300 0.000000
2.083700 0.000000
2.113000 0.000000
2.142400 0.000000
2.171700 0.000000
2.201100 0.000000
2.230400 0.000000
2.259800 0.000000
2.289100 0.000000
2.318500 0.000000
2.347800 0.000000
2.377200 0.000000
2.406500 0.000000
2.435900 0.000000
2.465200 0.000000
2.494600 0.000000
2.523900 0.000000
2.553200 0.017900
2.582600 0.071100
2.611900 0.159600
2.641300 0.271100
2.670600 0.386700
2.700000 0.494300
2.729300 0.571000
2.758700 0.637700
2.788000 0.702200
2.817400 0.777600
2.846700 0.845000
2.876100 0.912000
2.905400 0.971600
2.934800 1.023900
2.964100 1.067400
2.993500 1.086400
3.022800 1.079000
3.052200 1.056900
3.081500 1.050700
3.110800 1.060700
3.140200 1.084900
3.169500 1.116500
3.198900 1.151500
3.228200 1.189000
3.257600 1.229800
3.286900 1.273200
3.316300 1.319100
3.345600 1.364700
3.375000 1.405800
3.404300 1.441000
3.433700 1.470000
3.463000 1.486100
3.492400 1.489100
3.521700 1.479700
3.551100 1.460400
3.580400 1.437400
3.609800 1.403300
3.639100 1.374700
3.668500 1.367900
3.697800 1.364900
3.727100 1.360200
3.756500 1.353800
3.785800 1.345600
3.815200 1.335700
3.844500 1.333300
3.873900 1.388300
3.903200 1.403100
3.932600 1.373900
3.961900 1.200700
3.991300 1.063400
4.020600 0.973800
4.050000 0.994400
4.079300 1.061300
4.108700 1.103300
4.138000 1.106000
4.167400 0.952800
4.196700 0.901400
4.226100 0.872900
4.255400 0.835400
4.284700 0.791000
4.314100 0.739700
4.343400 0.688200
4.372800 0.634000
4.402100 0.572100
4.431500 0.555700
4.460800 0.589900
4.490200 0.676700
4.519500 0.802800
4.548900 1.064000
4.578200 1.475800
4.607600 1.893400
4.636900 1.965200
4.666300 1.684200
4.695600 1.657800
4.725000 1.639600
4.754300 1.632800
4.783700 1.642900
4.813000 1.705600
4.842300 1.801800
4.871700 1.849500
4.901000 1.843300
4.930400 1.788700
4.959700 1.735200
4.989100 1.735400
5.018400 1.745800
5.047800 1.758100
5.077100 1.772500
5.106500 1.791400
5.135800 1.813900
5.165200 1.840400
5.194500 1.871200
5.223900 1.959200
5.253200 2.101900
5.282600 2.144900
5.311900 2.033400
5.341300 1.935100
5.370600 1.908300
5.399900 1.942500
5.429300 2.054200
5.458600 2.215000
5.488000 2.190900
5.517300 1.882400
5.546700 1.656200
5.576000 1.499700
5.605400 1.359800
5.634700 1.325500
5.664100 1.398400
5.693400 1.438900
5.722800 1.509200
5.752100 1.484900
5.781500 1.549500
5.810800 1.634700
5.840200 1.693100
5.869500 1.784400
5.898900 1.746300
5.928200 1.811300
5.957500 1.726800
5.986900 1.731600
6.016200 1.754500
6.045600 1.777000
6.074900 1.799100
6.104300 1.819800
6.133600 1.838900
6.163000 1.854000
6.192300 1.867600
6.221700 1.888700
6.251000 1.932000
6.280400 2.000900
6.309700 2.114900
6.339100 2.339800
6.368400 2.503200
6.397800 2.684600
6.427100 2.828800
6.456500 3.107200
6.485800 2.874000
6.515100 2.091000
6.544500 1.362700
6.573800 1.175900
6.603200 1.066500
6.632500 1.055800
6.661900 1.103400
6.691200 1.174300
6.720600 1.267900
6.749900 1.519100
6.779300 1.738400
6.808600 1.933000
6.838000 2.147000
6.867300 2.725300
6.896700 2.653000
6.926000 2.415600
6.955400 2.420300
6.984700 2.370400
7.014100 2.318000
7.043400 2.285200
7.072700 2.315400
7.102100 2.357200
7.131400 2.259000
7.160800 2.137500
7.190100 2.041500
7.219500 1.925900
7.248800 1.841100
7.278200 1.781700
7.307500 1.738100
7.336900 1.708900
7.366200 1.685200
7.395600 1.672500
7.424900 1.673600
7.454300 1.692300
7.483600 1.750300
7.513000 1.906800
7.542300 2.127300
7.571700 2.604400
7.601000 2.887600
7.630300 2.810000
7.659700 2.683100
7.689000 2.492300
7.718400 2.473500
7.747700 2.471700
7.777100 2.541400
7.806400 2.603200
7.835800 2.683500
7.865100 2.806500
7.894500 2.990500
7.923800 3.171600
7.953200 3.349500
7.982500 3.473100
8.011900 3.548200
8.041200 3.571800
8.070600 3.548600
8.099900 3.486000
8.129300 3.407500
8.158600 3.310300
8.187900 3.153300
8.217300 2.910300
8.246600 2.744500
8.276000 2.582800
8.305300 2.460900
8.334700 2.404800
8.364000 2.367700
8.393400 2.334900
8.422700 2.325600
8.452100 2.373500
8.481400 2.463600
8.510800 2.616300
8.540100 2.788300
8.569500 3.048200
8.598800 3.667500
8.628200 3.762800
8.657500 3.759100
8.686900 3.721300
8.716200 3.656100
8.745600 3.594400
8.774900 3.449100
8.804200 3.369700
8.833600 3.445700
8.862900 3.367000
8.892300 3.374900
8.921600 3.448100
8.951000 3.530200
8.980300 3.595000
9.009700 3.654500
9.039000 3.687800
9.068400 3.707700
9.097700 3.703100
9.127100 3.654500
9.156400 3.614300
9.185800 3.582500
9.215100 3.487300
9.244500 3.437200
9.273800 3.299300
9.303200 3.590400
9.332500 3.932700
9.361800 4.147500
9.391200 4.152800
9.420500 4.089800
9.449900 4.075100
9.479200 3.841800
9.508600 3.668600
9.537900 3.735400
9.567300 3.367800
9.596600 3.240600
9.626000 3.275000
9.655300 3.307900
9.684700 3.339200
9.714000 3.395100
9.743400 3.553100
9.772700 3.755600
9.802100 3.840800
9.831400 3.750800
9.860800 3.568500
9.890100 3.331100
9.919400 3.237700
9.948800 3.254700
9.978100 3.476400
10.007500 3.033000
10.036800 2.798500
10.066200 3.198200
10.095500 3.456500
10.124900 3.421900
10.154200 3.092800
10.183600 3.075300
10.212900 2.959400
10.242300 2.795900
10.271600 2.888800
10.301000 2.958000
10.330300 3.014900
10.359700 3.144600
10.389000 3.253000
10.418400 3.240900
10.447700 3.174900
10.477000 3.018800
10.506400 2.894400
10.535700 2.806600
10.565100 2.911600
10.594400 3.079300
10.623800 3.435900
10.653100 3.731400
10.682500 3.693600
10.711800 3.479900
10.741200 3.226300
10.770500 2.891800
10.799900 2.542800
10.829200 2.233000
10.858600 2.022900
10.887900 1.873200
10.917300 1.773100
10.946600 1.765100
10.976000 1.840800
11.005300 1.946500
11.034600 2.044400
11.064000 2.119200
11.093300 2.177100
11.122700 2.235700
11.152000 2.586500
11.181400 3.035000
11.210700 3.069400
11.240100 2.739000
11.269400 2.478700
11.298800 2.434400
11.328100 2.517600
11.357500 2.491500
11.386800 2.453900
11.416200 2.404800
11.445500 2.460000
11.474900 2.616100
11.504200 2.901100
11.533600 3.306600
11.562900 3.621900
11.592200 3.645200
11.621600 3.450600
11.650900 3.356300
11.680300 3.237400
11.709600 2.885200
11.739000 2.462200
11.768300 2.382100
11.797700 2.445700
11.827000 2.565200
11.856400 2.896800
11.885700 3.052400
11.915100 3.067100
11.944400 3.076100
11.973800 3.243500
12.003100 3.379300
12.032500 3.593400
12.061800 3.501100
12.091200 3.024500
12.120500 2.495700
12.149800 2.239500
12.179200 2.224300
12.208500 2.277300
12.237900 2.314000
12.267200 2.622700
12.296600 2.985000
12.325900 3.314400
12.355300 3.461100
12.384600 3.491900
12.414000 3.488100
12.443300 3.436200
12.472700 3.641200
12.502000 3.732300
12.531400 3.782000
12.560700 3.756500
12.590100 3.680600
12.619400 3.668900
12.648800 3.773500
12.678100 3.541400
12.707400 2.998900
12.736800 2.917800
12.766100 2.839800
12.795500 2.758200
12.824800 2.689000
12.854200 2.644500
12.883500 2.654100
12.912900 2.732400
12.942200 2.828800
12.971600 3.052100
13.000900 3.107600
13.030300 3.100900
13.059600 3.023500
13.089000 2.923900
13.118300 2.879300
13.147700 3.060000
13.177000 3.174000
13.206400 2.921400
13.235700 3.030800
13.265000 3.186400
13.294400 3.307600
13.323700 3.492900
13.353100 3.714200
13.382400 3.983400
13.411800 4.414200
13.441100 5.219200
13.470500 4.642700
13.499800 4.345200
13.529200 4.122300
13.558500 3.737000
13.587900 3.483600
13.617200 2.815100
13.646600 2.321700
13.675900 2.084600
13.705300 1.960400
13.734600 1.969300
13.764000 1.988200
13.793300 2.013400
13.822700 2.093600
13.852000 2.269600
13.881300 2.427900
13.910700 2.547900
13.940000 2.621300
13.969400 2.678100
13.998700 2.711100
14.028100 2.790500
14.057400 2.840000
14.086800 2.880300
14.116100 2.801900
14.145500 2.692400
14.174800 2.593200
14.204200 2.469200
14.233500 2.308000
14.262900 2.064200
14.292200 1.891800
14.321600 1.751400
14.350900 1.663700
14.380300 1.654700
14.409600 1.745100
14.438900 1.836800
14.468300 1.926700
14.497600 2.029700
14.527000 2.264900
14.556300 2.439700
14.585700 2.640500
14.615000 2.884100
14.644400 3.093100
14.673700 3.431200
14.703100 3.689500
14.732400 3.932700
14.761800 3.763200
14.791100 3.229800
14.820500 3.004800
14.849800 2.905800
14.879200 2.832200
14.908500 2.763700
14.937900 2.675200
14.967200 2.564800
14.996500 2.442500
15.025900 2.305000
15.055200 2.152500
15.084600 2.018100
15.113900 1.932200
15.143300 1.862000
15.172600 1.793800
15.202000 1.681100
15.231300 1.568900
15.260700 1.580600
15.290000 1.578500
15.319400 1.563300
15.348700 1.591400
15.378100 1.743700
15.407400 2.011100
15.436800 2.332200
15.466100 2.942200
15.495500 3.772300
15.524800 4.075200
15.554100 3.779200
15.583500 3.462400
15.612800 3.259300
15.642200 3.204900
15.671500 3.204900
15.700900 3.244200
15.730200 3.386400
15.759600 3.441800
15.788900 3.138800
15.818300 2.834900
15.847600 2.520600
15.877000 2.177000
15.906300 2.024700
15.935700 1.981700
15.965000 2.117400
15.994400 2.065100
16.023700 2.072300
16.053100 2.218700
16.082400 2.547700
16.111700 2.580200
16.141100 2.549200
16.170400 2.513800
16.199800 2.434100
16.229100 2.413100
16.258500 2.412700
16.287800 2.384400
16.317200 2.335600
16.346500 2.268200
16.375900 2.185700
16.405200 2.094800
16.434600 2.025600
16.463900 1.988700
16.493300 1.976900
16.522600 2.155800
16.552000 2.479500
16.581300 2.884800
16.610700 3.080400
16.640000 3.242400
16.669300 3.330000
16.698700 3.444600
16.728000 3.601700
16.757400 3.651000
16.786700 3.558500
16.816100 3.356100
16.845400 3.167900
16.874800 2.972000
16.904100 2.820500
16.933500 2.718100
16.962800 2.587300
16.992200 2.407200
17.021500 2.196200
17.050900 1.912900
17.080200 1.838100
17.109600 1.811500
17.138900 1.824200
17.168300 1.844700
17.197600 1.888800
17.226900 1.941300
17.256300 2.000700
17.285600 2.055800
17.315000 2.106000
17.344300 2.153600
17.373700 2.197400
17.403000 2.273500
17.432400 2.725100
17.461700 3.191700
17.491100 3.271600
17.520400 3.119300
17.549800 3.104900
17.579100 3.158300
17.608500 2.946800
17.637800 2.772400
17.667200 2.772700
17.696500 2.675600
17.725900 2.589900
17.755200 2.613900
17.784500 2.675600
17.813900 2.722300
17.843200 2.704600
17.872600 2.619900
17.901900 2.555000
17.931300 2.562700
17.960600 2.607800
17.990000 2.702600
18.019300 2.845400
18.048700 2.878500
18.078000 2.951300
18.107400 3.005400
18.136700 3.192000
18.166100 3.205700
18.195400 3.268900
18.224800 3.358300
18.254100 3.464900
18.283500 3.517000
18.312800 3.532100
18.342100 3.554300
18.371500 3.672500
18.400800 3.387400
18.430200 3.056300
18.459500 2.703300
18.488900 2.423000
18.518200 2.272300
18.547600 2.293000
18.576900 2.355900
18.606300 2.434400
18.635600 2.579100
18.665000 2.690100
18.694300 2.720000
18.723700 2.777300
18.753000 2.876600
18.782400 2.993100
18.811700 3.160900
18.841100 3.371400
18.870400 3.608200
18.899800 3.829600
18.929100 4.049600
18.958400 4.354300
18.987800 4.324000
19.017100 4.126000
19.046500 3.887000
19.075800 3.570400
19.105200 3.244400
19.134500 2.927300
19.163900 2.616600
19.193200 2.165800
19.222600 2.003400
19.251900 1.951100
19.281300 1.903700
19.310600 1.891700
19.340000 1.939600
19.369300 2.065000
19.398700 2.298600
19.428000 2.617200
19.457400 2.991500
19.486700 3.382600
19.516000 3.722600
19.545400 4.050500
19.574700 3.919400
19.604100 3.711500
19.633400 3.604900
19.662800 3.543800
19.692100 3.332600
19.721500 3.037400
19.750800 2.795700
19.780200 2.602800
19.809500 2.455900
19.838900 2.375300
19.868200 2.354600
19.897600 2.271300
19.926900 2.241300
19.956300 2.289300
19.985600 2.355400
20.015000 2.445500
20.044300 2.577400
20.073600 2.800700
20.103000 3.024200
20.132300 3.229700
20.161700 3.385200
20.191000 3.636800
20.220400 4.161100
20.249700 4.822100
20.279100 4.809600
20.308400 4.079700
20.337800 3.788300
20.367100 3.584400
20.396500 3.514900
20.425800 3.554000
20.455200 3.720000
20.484500 3.569400
20.513900 3.381100
20.543200 2.804900
20.572600 2.513300
20.601900 2.320300
20.631200 2.181300
20.660600 2.186500
20.689900 2.235000
20.719300 2.319200
20.748600 2.422200
20.778000 2.372100
20.807300 2.420500
20.836700 2.497700
20.866000 2.604300
20.895400 2.745800
20.924700 2.918400
20.954100 3.045300
20.983400 3.057300
21.012800 2.960500
21.042100 2.869700
21.071500 2.839400
21.100800 2.904600
21.130200 2.976300
21.159500 3.061300
21.188800 3.161500
21.218200 3.280300
21.247500 3.430500
21.276900 3.541400
21.306200 3.626100
21.335600 3.692400
21.364900 3.705900
21.394300 3.581200
21.423600 3.361700
21.453000 3.142900
21.482300 3.071100
21.511700 3.029800
21.541000 3.142900
21.570400 3.219900
21.599700 3.095000
21.629100 3.007600
21.658400 2.855500
21.687800 2.711800
21.717100 2.462500
21.746400 2.395100
21.775800 2.455600
21.805100 2.539300
21.834500 2.679000
21.863800 3.086500
21.893200 3.532300
21.922500 3.991200
21.951900 4.140200
21.981200 4.019600
22.010600 3.825500
22.039900 3.668800
22.069300 3.602400
22.098600 3.495900
22.128000 3.357600
22.157300 3.344900
22.186700 3.344900
22.216000 3.385200
22.245400 3.475400
22.274700 3.556200
22.304000 3.605000
22.333400 3.583800
22.362700 3.574300
22.392100 3.590500
22.421400 3.615200
22.450800 3.635500
22.480100 3.545300
22.509500 3.444000
22.538800 3.393600
22.568200 3.297800
22.597500 3.214200
22.626900 3.182400
22.656200 3.158900
22.685600 3.227100
22.714900 3.264200
22.744300 3.234900
22.773600 3.318700
22.803000 3.538700
22.832300 3.814500
22.861600 3.910100
22.891000 3.799200
22.920300 3.459700
22.949700 3.336900
22.979000 3.203200
23.008400 3.088600
23.037700 3.063700
23.067100 2.949100
23.096400 2.840500
23.125800 2.730800
23.155100 2.631100
23.184500 2.574700
23.213800 2.546500
23.243200 2.558300
23.272500 2.585300
23.301900 2.621900
23.331200 2.669200
23.360600 2.713800
23.389900 2.740800
23.419200 2.964100
23.448600 2.969900
23.477900 3.076100
23.507300 3.248600
23.536600 3.390000
23.566000 3.574300
23.595300 3.600700
23.624700 3.568200
23.654000 3.614100
23.683400 3.695400
23.712700 3.523600
23.742100 3.356000
23.771400 3.344500
23.800800 3.315400
23.830100 3.105400
23.859500 3.014100
23.888800 2.989300
23.918200 2.974100
23.947500 3.011300
23.976900 3.090500
24.006200 3.243500
24.035500 3.386000
24.064900 3.548600
24.094200 3.657500
24.123600 3.811300
24.152900 3.970200
24.182300 4.063500
24.211600 4.084300
24.241000 4.118800
24.270300 4.074700
24.299700 3.950000
24.329000 3.764300
24.358400 3.625000
24.387700 3.464500
24.417100 3.330300
24.446400 3.218800
24.475800 3.108500
24.505100 3.006600
24.534500 2.952500
24.563800 2.936300
24.593100 2.950200
24.622500 3.001800
24.651800 3.094300
24.681200 3.251600
24.710500 3.414500
24.739900 3.536500
24.769200 3.406300
24.798600 3.453000
24.827900 3.305000
24.857300 3.178400
24.886600 3.106600
24.916000 3.090100
24.945300 3.070700
24.974700 3.081500
25.004000 3.211200
25.033400 3.440500
25.062700 3.208700
25.092100 3.132600
25.121400 3.117800
25.150700 3.093500
25.180100 3.106000
25.209400 3.143400
25.238800 3.216100
25.268100 3.371300
25.297500 3.274600
25.326800 2.937900
25.356200 2.702900
25.385500 2.582700
25.414900 2.525000
25.444200 2.616300
25.473600 2.827000
25.502900 2.622600
25.532300 2.378900
25.561600 2.193700
25.591000 2.017200
25.620300 1.880600
25.649700 1.759700
25.679000 1.646800
25.708300 1.406200
25.737700 1.268900
25.767000 1.059300
25.796400 0.789500
25.825700 0.604300
25.855100 0.491200
25.884400 0.408800
25.913800 0.347000
25.943100 0.304800
25.972500 0.282700
26.001800 0.285000
26.031200 0.098300
26.060500 0.026800
26.089900 0.000200
26.119200 0.000000
26.148600 0.000000
26.177900 0.000000
26.207300 0.000000
26.236600 0.000000
26.265900 0.000000
26.295300 0.000000
26.324600 0.000000
26.354000 0.000000
26.383300 0.000000
26.412700 0.000000
26.442000 0.000000
26.471400 0.000000
26.500700 0.000000
26.530100 0.000000
26.559400 0.000000
26.588800 0.000000
26.618100 0.000000
26.647500 0.000000
26.676800 0.000000
26.706200 0.000000
26.735500 0.000000
26.764900 0.000000
26.794200 0.000000
26.823500 0.000000
26.852900 0.000000
26.882200 0.000000
26.911600 0.000000
26.940900 0.000000
26.970300 0.000000
26.999600 0.000000
27.029000 0.000000
27.058300 0.000000
27.087700 0.000000
27.117000 0.000000
27.146400 0.000000
27.175700 0.000000
27.205100 0.000000
27.234400 0.000000
27.263800 0.000000
27.293100 0.000000
27.322500 0.000000
27.351800 0.000000
27.381100 0.000000
27.410500 0.000000
27.439800 0.000000
27.469200 0.000000
27.498500 0.000000
27.527900 0.000000
27.557200 0.000000
27.586600 0.000000
27.615900 0.000000
27.645300 0.000000
27.674600 0.000000
27.704000 0.000000
27.733300 0.000000
27.762700 0.000000
27.792000 0.000000
27.821400 0.000000
27.850700 0.000000
27.880100 0.000000
27.909400 0.000000
27.938700 0.000000
27.968100 0.000000
27.997400 0.000000
28.026800 0.000000
28.056100 0.000000
28.085500 0.000000
28.114800 0.000000
28.144200 0.000000
28.173500 0.000000
28.202900 0.000000
28.232200 0.000000
28.261600 0.000000
28.290900 0.000000
28.320300 0.000000
28.349600 0.000000
28.379000 0.000000
28.408300 0.000000
28.437700 0.000000
28.467000 0.000000
28.496300 0.000000
28.525700 0.000000
28.555000 0.000000
28.584400 0.000000
28.613700 0.000000
28.643100 0.000000
28.672400 0.000000
28.701800 0.000000
28.731100 0.000000
28.760500 0.000000
e
