set title 'mp-1217157 - Density of States'
set xlabel 'Energy (eV)'
set ylabel 'DOS (states/eV)'
set grid
set xrange [-10:10]
set yrange [0:16.504]
set xzeroaxis lt -1
set terminal png size 800,600
set output 'mp-1217157_dos_gnuplot.png'
plot '-' using 1:2 with lines title 'DOS'
-30.336200 0.000000
-30.302400 0.000000
-30.268600 0.000000
-30.234900 0.000000
-30.201100 0.000000
-30.167300 0.000000
-30.133500 0.000000
-30.099700 0.000000
-30.065900 0.000000
-30.032100 0.000000
-29.998400 0.000000
-29.964600 0.000000
-29.930800 0.000000
-29.897000 0.000000
-29.863200 0.000000
-29.829400 0.000000
-29.795600 0.000000
-29.761900 0.000000
-29.728100 0.000000
-29.694300 0.000000
-29.660500 0.000000
-29.626700 0.000000
-29.592900 0.000000
-29.559100 0.000000
-29.525400 0.000000
-29.491600 0.000000
-29.457800 0.000000
-29.424000 0.000000
-29.390200 0.000000
-29.356400 0.000000
-29.322600 0.000000
-29.288900 0.000000
-29.255100 0.000000
-29.221300 0.000000
-29.187500 0.000000
-29.153700 0.000000
-29.119900 0.000000
-29.086100 0.000000
-29.052400 0.000000
-29.018600 0.000000
-28.984800 0.000000
-28.951000 0.000000
-28.917200 0.000000
-28.883400 0.000000
-28.849700 0.000000
-28.815900 0.000000
-28.782100 0.000000
-28.748300 0.000000
-28.714500 0.000000
-28.680700 0.000000
-28.646900 0.000000
-28.613200 0.000000
-28.579400 0.000000
-28.545600 0.000000
-28.511800 0.000000
-28.478000 0.000000
-28.444200 0.000000
-28.410400 0.000000
-28.376700 0.000000
-28.342900 0.000000
-28.309100 0.000000
-28.275300 0.000000
-28.241500 0.000000
-28.207700 0.000000
-28.173900 0.000000
-28.140200 0.000000
-28.106400 0.000000
-28.072600 0.000000
-28.038800 0.000000
-28.005000 0.000000
-27.971200 0.000000
-27.937400 0.000000
-27.903700 0.000000
-27.869900 0.000000
-27.836100 0.000000
-27.802300 0.000000
-27.768500 0.000000
-27.734700 0.000000
-27.700900 0.000000
-27.667200 0.000000
-27.633400 0.000000
-27.599600 0.000000
-27.565800 0.000000
-27.532000 0.000000
-27.498200 0.000000
-27.464400 0.000000
-27.430700 0.000000
-27.396900 0.000100
-27.363100 0.003400
-27.329300 0.054500
-27.295500 0.411700
-27.261700 1.561600
-27.228000 3.468800
-27.194200 6.016000
-27.160400 10.376000
-27.126600 17.137000
-27.092800 25.077600
-27.059000 30.940100
-27.025200 31.915400
-26.991500 29.369200
-26.957700 25.467600
-26.923900 23.241500
-26.890100 24.277900
-26.856300 25.511300
-26.822500 24.502900
-26.788700 22.743400
-26.755000 23.956800
-26.721200 31.242800
-26.687400 39.742600
-26.653600 37.982700
-26.619800 25.101700
-26.586000 11.316900
-26.552200 5.602400
-26.518500 9.809000
-26.484700 18.264100
-26.450900 17.778400
-26.417100 8.089600
-26.383300 1.656300
-26.349500 0.149200
-26.315700 0.005800
-26.282000 0.000100
-26.248200 0.000000
-26.214400 0.000000
-26.180600 0.000000
-26.146800 0.000000
-26.113000 0.000000
-26.079200 0.000000
-26.045500 0.000000
-26.011700 0.000000
-25.977900 0.000000
-25.944100 0.000000
-25.910300 0.000000
-25.876500 0.000000
-25.842700 0.000000
-25.809000 0.000000
-25.775200 0.000000
-25.741400 0.000000
-25.707600 0.000000
-25.673800 0.000000
-25.640000 0.000000
-25.606200 0.000000
-25.572500 0.000000
-25.538700 0.000000
-25.504900 0.000000
-25.471100 0.000000
-25.437300 0.000000
-25.403500 0.000000
-25.369800 0.000000
-25.336000 0.000000
-25.302200 0.000000
-25.268400 0.000000
-25.234600 0.000000
-25.200800 0.000000
-25.167000 0.000000
-25.133300 0.000000
-25.099500 0.000000
-25.065700 0.000000
-25.031900 0.000000
-24.998100 0.000000
-24.964300 0.000000
-24.930500 0.000000
-24.896800 0.000000
-24.863000 0.000000
-24.829200 0.000000
-24.795400 0.000000
-24.761600 0.000000
-24.727800 0.000000
-24.694000 0.000000
-24.660300 0.000000
-24.626500 0.000000
-24.592700 0.000000
-24.558900 0.000000
-24.525100 0.000000
-24.491300 0.000000
-24.457500 0.000000
-24.423800 0.000000
-24.390000 0.000000
-24.356200 0.000000
-24.322400 0.000000
-24.288600 0.000000
-24.254800 0.000000
-24.221000 0.000000
-24.187300 0.000000
-24.153500 0.000000
-24.119700 0.000000
-24.085900 0.000000
-24.052100 0.000000
-24.018300 0.000000
-23.984500 0.000000
-23.950800 0.000000
-23.917000 0.000000
-23.883200 0.000000
-23.849400 0.000000
-23.815600 0.000000
-23.781800 0.000000
-23.748100 0.000000
-23.714300 0.000000
-23.680500 0.000000
-23.646700 0.000000
-23.612900 0.000000
-23.579100 0.000000
-23.545300 0.000000
-23.511600 0.000000
-23.477800 0.000000
-23.444000 0.000000
-23.410200 0.000000
-23.376400 0.000000
-23.342600 0.000000
-23.308800 0.000000
-23.275100 0.000000
-23.241300 0.000000
-23.207500 0.000000
-23.173700 0.000000
-23.139900 0.000000
-23.106100 0.000000
-23.072300 0.000000
-23.038600 0.000000
-23.004800 0.000000
-22.971000 0.000000
-22.937200 0.000000
-22.903400 0.000000
-22.869600 0.000000
-22.835800 0.000000
-22.802100 0.000000
-22.768300 0.000000
-22.734500 0.000000
-22.700700 0.000000
-22.666900 0.000000
-22.633100 0.000000
-22.599300 0.000000
-22.565600 0.000000
-22.531800 0.000000
-22.498000 0.000000
-22.464200 0.000000
-22.430400 0.000000
-22.396600 0.000000
-22.362800 0.000000
-22.329100 0.000000
-22.295300 0.000000
-22.261500 0.000000
-22.227700 0.000000
-22.193900 0.000000
-22.160100 0.000000
-22.126400 0.000000
-22.092600 0.000000
-22.058800 0.000000
-22.025000 0.000000
-21.991200 0.000000
-21.957400 0.000000
-21.923600 0.000000
-21.889900 0.000000
-21.856100 0.000000
-21.822300 0.000000
-21.788500 0.000000
-21.754700 0.000000
-21.720900 0.000000
-21.687100 0.000000
-21.653400 0.000000
-21.619600 0.000000
-21.585800 0.000000
-21.552000 0.000000
-21.518200 0.000000
-21.484400 0.000000
-21.450600 0.000000
-21.416900 0.000000
-21.383100 0.000000
-21.349300 0.000000
-21.315500 0.000000
-21.281700 0.000000
-21.247900 0.000000
-21.214100 0.000000
-21.180400 0.000000
-21.146600 0.000000
-21.112800 0.000000
-21.079000 0.000000
-21.045200 0.000000
-21.011400 0.000000
-20.977600 0.000000
-20.943900 0.000000
-20.910100 0.000000
-20.876300 0.000000
-20.842500 0.000000
-20.808700 0.000000
-20.774900 0.000000
-20.741100 0.000000
-20.707400 0.000000
-20.673600 0.000000
-20.639800 0.000000
-20.606000 0.000000
-20.572200 0.000000
-20.538400 0.000000
-20.504700 0.000000
-20.470900 0.000000
-20.437100 0.000000
-20.403300 0.000000
-20.369500 0.000000
-20.335700 0.000000
-20.301900 0.000000
-20.268200 0.000000
-20.234400 0.000000
-20.200600 0.000000
-20.166800 0.000000
-20.133000 0.000000
-20.099200 0.000000
-20.065400 0.000000
-20.031700 0.000000
-19.997900 0.000000
-19.964100 0.000000
-19.930300 0.000000
-19.896500 0.000000
-19.862700 0.000000
-19.828900 0.000000
-19.795200 0.000000
-19.761400 0.000000
-19.727600 0.000000
-19.693800 0.000000
-19.660000 0.000000
-19.626200 0.000000
-19.592400 0.000000
-19.558700 0.000000
-19.524900 0.000000
-19.491100 0.000000
-19.457300 0.000000
-19.423500 0.000000
-19.389700 0.000000
-19.355900 0.000000
-19.322200 0.000000
-19.288400 0.000000
-19.254600 0.000000
-19.220800 0.000000
-19.187000 0.000000
-19.153200 0.000000
-19.119400 0.000000
-19.085700 0.000000
-19.051900 0.000000
-19.018100 0.000000
-18.984300 0.000000
-18.950500 0.000000
-18.916700 0.000000
-18.883000 0.000000
-18.849200 0.000000
-18.815400 0.000000
-18.781600 0.000000
-18.747800 0.000000
-18.714000 0.000000
-18.680200 0.000000
-18.646500 0.000000
-18.612700 0.000000
-18.578900 0.000000
-18.545100 0.000000
-18.511300 0.000000
-18.477500 0.000000
-18.443700 0.000000
-18.410000 0.000000
-18.376200 0.000000
-18.342400 0.000000
-18.308600 0.000000
-18.274800 0.000000
-18.241000 0.000000
-18.207200 0.000000
-18.173500 0.000000
-18.139700 0.000000
-18.105900 0.000000
-18.072100 0.000000
-18.038300 0.000000
-18.004500 0.000000
-17.970700 0.000000
-17.937000 0.000000
-17.903200 0.000000
-17.869400 0.000000
-17.835600 0.000000
-17.801800 0.000000
-17.768000 0.000000
-17.734200 0.000000
-17.700500 0.000000
-17.666700 0.000000
-17.632900 0.000000
-17.599100 0.000000
-17.565300 0.000000
-17.531500 0.000000
-17.497700 0.000000
-17.464000 0.000000
-17.430200 0.000000
-17.396400 0.000000
-17.362600 0.000000
-17.328800 0.000000
-17.295000 0.000000
-17.261300 0.000000
-17.227500 0.000000
-17.193700 0.000000
-17.159900 0.000000
-17.126100 0.000000
-17.092300 0.000000
-17.058500 0.000000
-17.024800 0.000000
-16.991000 0.000000
-16.957200 0.000000
-16.923400 0.000000
-16.889600 0.000000
-16.855800 0.000000
-16.822000 0.000000
-16.788300 0.000000
-16.754500 0.000000
-16.720700 0.000000
-16.686900 0.000000
-16.653100 0.000000
-16.619300 0.000000
-16.585500 0.000000
-16.551800 0.000000
-16.518000 0.000000
-16.484200 0.000000
-16.450400 0.000000
-16.416600 0.000000
-16.382800 0.000000
-16.349000 0.000000
-16.315300 0.000000
-16.281500 0.000000
-16.247700 0.000000
-16.213900 0.000000
-16.180100 0.000000
-16.146300 0.000000
-16.112500 0.000000
-16.078800 0.000000
-16.045000 0.000000
-16.011200 0.000000
-15.977400 0.000000
-15.943600 0.000000
-15.909800 0.000000
-15.876000 0.000000
-15.842300 0.000000
-15.808500 0.000000
-15.774700 0.000000
-15.740900 0.000000
-15.707100 0.000000
-15.673300 0.000000
-15.639600 0.000000
-15.605800 0.000000
-15.572000 0.000000
-15.538200 0.000000
-15.504400 0.000000
-15.470600 0.000000
-15.436800 0.000000
-15.403100 0.000000
-15.369300 0.000000
-15.335500 0.000000
-15.301700 0.000000
-15.267900 0.000000
-15.234100 0.000000
-15.200300 0.000000
-15.166600 0.000000
-15.132800 0.000000
-15.099000 0.000000
-15.065200 0.000000
-15.031400 0.000000
-14.997600 0.000000
-14.963800 0.000000
-14.930100 0.000000
-14.896300 0.000000
-14.862500 0.000000
-14.828700 0.000000
-14.794900 0.000000
-14.761100 0.000000
-14.727300 0.000000
-14.693600 0.000000
-14.659800 0.000000
-14.626000 0.000000
-14.592200 0.000000
-14.558400 0.000000
-14.524600 0.000000
-14.490800 0.000000
-14.457100 0.000000
-14.423300 0.000000
-14.389500 0.000000
-14.355700 0.000000
-14.321900 0.000000
-14.288100 0.000000
-14.254300 0.000000
-14.220600 0.000000
-14.186800 0.000000
-14.153000 0.000000
-14.119200 0.000000
-14.085400 0.000000
-14.051600 0.000000
-14.017900 0.000000
-13.984100 0.000000
-13.950300 0.000000
-13.916500 0.000000
-13.882700 0.000000
-13.848900 0.000100
-13.815100 0.002100
-13.781400 0.016300
-13.747600 0.071900
-13.713800 0.191000
-13.680000 0.322300
-13.646200 0.418100
-13.612400 0.531700
-13.578600 0.673200
-13.544900 0.764100
-13.511100 0.781300
-13.477300 0.907400
-13.443500 1.136000
-13.409700 1.289500
-13.375900 1.338100
-13.342100 1.474700
-13.308400 1.675100
-13.274600 1.772800
-13.240800 1.844600
-13.207000 1.951200
-13.173200 2.255000
-13.139400 2.756000
-13.105600 3.223500
-13.071900 3.745100
-13.038100 4.695000
-13.004300 5.683800
-12.970500 6.068500
-12.936700 6.067100
-12.902900 6.047100
-12.869100 6.012200
-12.835400 6.310900
-12.801600 6.814300
-12.767800 6.755100
-12.734000 6.006300
-12.700200 5.232500
-12.666400 4.580000
-12.632600 4.093800
-12.598900 3.532700
-12.565100 2.704900
-12.531300 2.194700
-12.497500 2.029700
-12.463700 2.002900
-12.429900 2.094300
-12.396200 2.006300
-12.362400 1.815700
-12.328600 1.974800
-12.294800 2.587800
-12.261000 3.841300
-12.227200 5.813300
-12.193400 7.550800
-12.159700 7.712200
-12.125900 6.858100
-12.092100 6.163400
-12.058300 5.451000
-12.024500 5.047500
-11.990700 4.718000
-11.956900 3.902700
-11.923200 3.570700
-11.889400 4.054600
-11.855600 4.514900
-11.821800 5.345300
-11.788000 6.617300
-11.754200 7.148600
-11.720400 6.872600
-11.686700 6.094600
-11.652900 4.521800
-11.619100 2.698700
-11.585300 1.289700
-11.551500 0.444300
-11.517700 0.094600
-11.483900 0.010800
-11.450200 0.000600
-11.416400 0.000000
-11.382600 0.000000
-11.348800 0.000000
-11.315000 0.000000
-11.281200 0.000000
-11.247400 0.000000
-11.213700 0.000000
-11.179900 0.000000
-11.146100 0.000000
-11.112300 0.000000
-11.078500 0.000000
-11.044700 0.000000
-11.010900 0.000000
-10.977200 0.000000
-10.943400 0.000000
-10.909600 0.000000
-10.875800 0.000000
-10.842000 0.000000
-10.808200 0.000000
-10.774500 0.000000
-10.740700 0.000000
-10.706900 0.000000
-10.673100 0.000000
-10.639300 0.000000
-10.605500 0.000000
-10.571700 0.000000
-10.538000 0.000000
-10.504200 0.000000
-10.470400 0.000000
-10.436600 0.000000
-10.402800 0.000000
-10.369000 0.000000
-10.335200 0.000000
-10.301500 0.000000
-10.267700 0.000000
-10.233900 0.000000
-10.200100 0.000000
-10.166300 0.000000
-10.132500 0.000000
-10.098700 0.000000
-10.065000 0.000000
-10.031200 0.000000
-9.997400 0.000000
-9.963600 0.000000
-9.929800 0.000000
-9.896000 0.000000
-9.862200 0.000000
-9.828500 0.000000
-9.794700 0.000000
-9.760900 0.000000
-9.727100 0.000000
-9.693300 0.000000
-9.659500 0.000000
-9.625700 0.000000
-9.592000 0.000000
-9.558200 0.000000
-9.524400 0.000000
-9.490600 0.000000
-9.456800 0.000000
-9.423000 0.000000
-9.389200 0.000000
-9.355500 0.000000
-9.321700 0.000000
-9.287900 0.000000
-9.254100 0.000000
-9.220300 0.000000
-9.186500 0.000000
-9.152800 0.000000
-9.119000 0.000000
-9.085200 0.000000
-9.051400 0.000000
-9.017600 0.000000
-8.983800 0.000000
-8.950000 0.000000
-8.916300 0.000000
-8.882500 0.000000
-8.848700 0.000000
-8.814900 0.000000
-8.781100 0.000000
-8.747300 0.000000
-8.713500 0.000000
-8.679800 0.000000
-8.646000 0.000000
-8.612200 0.000000
-8.578400 0.000000
-8.544600 0.000000
-8.510800 0.000000
-8.477000 0.000000
-8.443300 0.000000
-8.409500 0.000000
-8.375700 0.000000
-8.341900 0.000000
-8.308100 0.000000
-8.274300 0.000000
-8.240500 0.000000
-8.206800 0.000000
-8.173000 0.000000
-8.139200 0.000000
-8.105400 0.000000
-8.071600 0.000000
-8.037800 0.000000
-8.004000 0.000000
-7.970300 0.000000
-7.936500 0.000000
-7.902700 0.000000
-7.868900 0.000000
-7.835100 0.000000
-7.801300 0.000000
-7.767500 0.000000
-7.733800 0.000000
-7.700000 0.000000
-7.666200 0.000000
-7.632400 0.000000
-7.598600 0.000000
-7.564800 0.000000
-7.531000 0.000000
-7.497300 0.000000
-7.463500 0.000000
-7.429700 0.000000
-7.395900 0.000000
-7.362100 0.000000
-7.328300 0.000000
-7.294600 0.000000
-7.260800 0.000000
-7.227000 0.000000
-7.193200 0.000000
-7.159400 0.000000
-7.125600 0.000000
-7.091800 0.000000
-7.058100 0.000000
-7.024300 0.000000
-6.990500 0.000000
-6.956700 0.000000
-6.922900 0.000000
-6.889100 0.000000
-6.855300 0.000000
-6.821600 0.000000
-6.787800 0.000000
-6.754000 0.000000
-6.720200 0.000000
-6.686400 0.000000
-6.652600 0.000000
-6.618800 0.000000
-6.585100 0.000000
-6.551300 0.000000
-6.517500 0.000000
-6.483700 0.000000
-6.449900 0.000000
-6.416100 0.000000
-6.382300 0.000000
-6.348600 0.000000
-6.314800 0.000000
-6.281000 0.000000
-6.247200 0.000000
-6.213400 0.000000
-6.179600 0.000000
-6.145800 0.000000
-6.112100 0.000000
-6.078300 0.000000
-6.044500 0.000000
-6.010700 0.000000
-5.976900 0.000000
-5.943100 0.000000
-5.909300 0.000000
-5.875600 0.000000
-5.841800 0.000000
-5.808000 0.000000
-5.774200 0.000000
-5.740400 0.000000
-5.706600 0.000000
-5.672900 0.000000
-5.639100 0.000000
-5.605300 0.000000
-5.571500 0.000000
-5.537700 0.000000
-5.503900 0.000000
-5.470100 0.000000
-5.436400 0.000000
-5.402600 0.000000
-5.368800 0.000000
-5.335000 0.000000
-5.301200 0.000000
-5.267400 0.000000
-5.233600 0.000000
-5.199900 0.000000
-5.166100 0.000000
-5.132300 0.000000
-5.098500 0.000000
-5.064700 0.000000
-5.030900 0.000000
-4.997100 0.000000
-4.963400 0.000000
-4.929600 0.000000
-4.895800 0.000000
-4.862000 0.000000
-4.828200 0.000000
-4.794400 0.000000
-4.760600 0.000000
-4.726900 0.000000
-4.693100 0.000000
-4.659300 0.000000
-4.625500 0.000000
-4.591700 0.000000
-4.557900 0.000000
-4.524100 0.000000
-4.490400 0.000000
-4.456600 0.000000
-4.422800 0.000000
-4.389000 0.000000
-4.355200 0.000000
-4.321400 0.000000
-4.287600 0.000000
-4.253900 0.000000
-4.220100 0.000000
-4.186300 0.000000
-4.152500 0.000000
-4.118700 0.000000
-4.084900 0.000000
-4.051200 0.000000
-4.017400 0.000000
-3.983600 0.000000
-3.949800 0.000000
-3.916000 0.000000
-3.882200 0.000000
-3.848400 0.000000
-3.814700 0.000000
-3.780900 0.000000
-3.747100 0.000000
-3.713300 0.000000
-3.679500 0.000000
-3.645700 0.000000
-3.611900 0.000000
-3.578200 0.000000
-3.544400 0.000000
-3.510600 0.000000
-3.476800 0.000000
-3.443000 0.000000
-3.409200 0.000000
-3.375400 0.000000
-3.341700 0.000000
-3.307900 0.000000
-3.274100 0.000000
-3.240300 0.000000
-3.206500 0.000000
-3.172700 0.000000
-3.138900 0.000000
-3.105200 0.000000
-3.071400 0.000000
-3.037600 0.000000
-3.003800 0.000000
-2.970000 0.000000
-2.936200 0.000000
-2.902400 0.000000
-2.868700 0.000000
-2.834900 0.000000
-2.801100 0.000000
-2.767300 0.000000
-2.733500 0.000000
-2.699700 0.000000
-2.665900 0.000000
-2.632200 0.000000
-2.598400 0.000000
-2.564600 0.000000
-2.530800 0.000000
-2.497000 0.000000
-2.463200 0.000000
-2.429500 0.000000
-2.395700 0.000000
-2.361900 0.000000
-2.328100 0.000000
-2.294300 0.000000
-2.260500 0.000000
-2.226700 0.000000
-2.193000 0.000000
-2.159200 0.000000
-2.125400 0.000000
-2.091600 0.000000
-2.057800 0.000000
-2.024000 0.000000
-1.990200 0.000000
-1.956500 0.000000
-1.922700 0.000000
-1.888900 0.000000
-1.855100 0.000000
-1.821300 0.000000
-1.787500 0.000000
-1.753700 0.000000
-1.720000 0.000000
-1.686200 0.000000
-1.652400 0.000000
-1.618600 0.000000
-1.584800 0.000000
-1.551000 0.000000
-1.517200 0.000000
-1.483500 0.000000
-1.449700 0.000000
-1.415900 0.000000
-1.382100 0.000000
-1.348300 0.000000
-1.314500 0.000500
-1.280700 0.005700
-1.247000 0.027900
-1.213200 0.074800
-1.179400 0.162600
-1.145600 0.312800
-1.111800 0.423600
-1.078000 0.433200
-1.044200 0.491600
-1.010500 0.566300
-0.976700 0.605100
-0.942900 0.777600
-0.909100 0.996800
-0.875300 1.010200
-0.841500 1.031300
-0.807800 1.236800
-0.774000 1.356100
-0.740200 1.539500
-0.706400 1.786700
-0.672600 1.749100
-0.638800 1.794000
-0.605000 2.252100
-0.571300 2.476800
-0.537500 2.411600
-0.503700 2.404800
-0.469900 2.395700
-0.436100 2.527600
-0.402300 3.066500
-0.368500 3.735200
-0.334800 3.917900
-0.301000 3.813400
-0.267200 3.870200
-0.233400 4.187200
-0.199600 4.692000
-0.165800 4.839600
-0.132000 4.590900
-0.098300 4.714400
-0.064500 4.961000
-0.030700 4.774600
0.003100 4.360900
0.036900 4.370800
0.070700 4.779400
0.104500 5.012800
0.138200 5.411300
0.172000 5.552400
0.205800 5.168600
0.239600 5.019900
0.273400 5.040200
0.307200 4.822500
0.341000 4.568400
0.374700 4.843000
0.408500 5.645400
0.442300 6.247700
0.476100 6.315300
0.509900 6.472600
0.543700 6.949500
0.577500 7.046800
0.611200 7.296000
0.645000 8.009800
0.678800 8.296300
0.712600 8.153800
0.746400 8.398900
0.780200 8.602400
0.813900 8.220800
0.847700 8.311300
0.881500 9.266900
0.915300 10.249500
0.949100 10.956600
0.982900 10.935900
1.016700 10.410000
1.050400 10.417600
1.084200 10.823700
1.118000 10.287500
1.151800 9.386600
1.185600 8.890300
1.219400 8.556800
1.253200 8.995300
1.286900 9.351800
1.320700 8.900900
1.354500 8.148600
1.388300 6.999100
1.422100 6.082500
1.455900 5.975200
1.489700 6.571500
1.523400 7.193600
1.557200 7.186400
1.591000 6.407000
1.624800 5.712500
1.658600 5.700400
1.692400 6.088700
1.726200 6.196200
1.759900 5.836800
1.793700 5.333200
1.827500 5.034200
1.861300 5.059100
1.895100 5.180200
1.928900 5.457700
1.962700 6.108100
1.996400 6.745900
2.030200 6.882200
2.064000 6.271100
2.097800 5.159600
2.131600 4.146500
2.165400 3.996400
2.199200 4.492400
2.232900 5.050900
2.266700 5.084500
2.300500 4.155700
2.334300 3.379100
2.368100 3.500000
2.401900 3.647000
2.435600 3.311600
2.469400 2.990200
2.503200 2.893700
2.537000 2.560500
2.570800 2.283100
2.604600 2.410100
2.638400 2.415100
2.672100 2.375500
2.705900 2.764900
2.739700 3.134800
2.773500 3.177900
2.807300 3.187800
2.841100 3.328500
2.874900 3.628100
2.908600 4.141500
2.942400 4.713300
2.976200 4.675300
3.010000 4.321900
3.043800 4.011600
3.077600 3.538500
3.111400 3.164400
3.145100 2.581000
3.178900 1.926400
3.212700 1.905600
3.246500 1.906000
3.280300 1.393600
3.314100 1.192000
3.347900 1.621900
3.381600 1.823300
3.415400 1.782700
3.449200 2.322200
3.483000 3.193400
3.516800 3.842900
3.550600 4.493300
3.584400 5.264600
3.618100 6.028200
3.651900 6.499600
3.685700 6.191200
3.719500 4.897200
3.753300 3.325300
3.787100 2.546800
3.820900 2.496800
3.854600 2.154400
3.888400 1.381200
3.922200 0.941300
3.956000 1.214400
3.989800 1.578100
4.023600 1.348800
4.057300 0.922600
4.091100 0.924600
4.124900 1.051200
4.158700 0.841000
4.192500 0.431600
4.226300 0.141200
4.260100 0.027600
4.293800 0.002800
4.327600 0.000100
4.361400 0.000000
4.395200 0.000000
4.429000 0.000000
4.462800 0.000000
4.496600 0.000000
4.530300 0.000000
4.564100 0.000000
4.597900 0.000000
4.631700 0.000000
4.665500 0.000000
4.699300 0.000000
4.733100 0.000000
4.766800 0.000000
4.800600 0.000000
4.834400 0.000000
4.868200 0.000300
4.902000 0.003200
4.935800 0.015500
4.969600 0.036400
5.003300 0.046200
5.037100 0.040600
5.070900 0.046200
5.104700 0.091200
5.138500 0.176300
5.172300 0.222400
5.206100 0.207600
5.239800 0.234200
5.273600 0.361000
5.307400 0.435500
5.341200 0.393600
5.375000 0.401400
5.408800 0.499800
5.442600 0.599800
5.476300 0.615300
5.510100 0.560800
5.543900 0.526900
5.577700 0.538100
5.611500 0.588200
5.645300 0.825900
5.679000 1.117600
5.712800 1.096600
5.746600 0.882900
5.780400 0.777800
5.814200 0.798500
5.848000 0.884700
5.881800 1.002900
5.915500 1.178000
5.949300 1.253800
5.983100 1.196600
6.016900 1.160600
6.050700 0.981500
6.084500 0.800300
6.118300 0.926200
6.152000 1.152700
6.185800 1.449000
6.219600 1.890200
6.253400 1.947100
6.287200 1.568500
6.321000 1.218100
6.354800 1.187400
6.388500 1.534000
6.422300 1.994600
6.456100 2.299500
6.489900 2.460000
6.523700 2.487900
6.557500 2.268300
6.591300 1.953100
6.625000 2.071300
6.658800 2.514400
6.692600 2.401300
6.726400 1.854100
6.760200 1.642200
6.794000 1.758300
6.827800 2.330400
6.861500 2.992000
6.895300 2.880900
6.929100 2.635000
6.962900 2.726900
6.996700 2.736400
7.030500 2.774400
7.064300 2.714100
7.098000 2.388100
7.131800 2.199800
7.165600 2.329700
7.199400 2.484000
7.233200 2.313100
7.267000 1.827900
7.300700 1.506700
7.334500 1.616100
7.368300 1.826200
7.402100 1.940200
7.435900 1.933300
7.469700 1.947500
7.503500 2.148700
7.537200 2.328900
7.571000 2.358600
7.604800 2.544300
7.638600 2.824500
7.672400 2.964500
7.706200 2.865900
7.740000 2.469100
7.773700 2.089000
7.807500 2.016200
7.841300 2.129300
7.875100 2.324100
7.908900 2.533800
7.942700 2.918100
7.976500 3.576400
8.010200 4.078800
8.044000 4.128300
8.077800 4.352200
8.111600 5.196000
8.145400 6.103700
8.179200 6.713200
8.213000 7.017100
8.246700 6.913700
8.280500 6.727200
8.314300 6.514800
8.348100 6.513400
8.381900 6.772800
8.415700 6.894400
8.449500 6.576500
8.483200 6.022200
8.517000 5.865200
8.550800 6.481000
8.584600 7.727900
8.618400 8.416400
8.652200 8.716500
8.686000 9.611000
8.719700 9.628600
8.753500 8.838000
8.787300 8.639400
8.821100 8.638600
8.854900 8.523100
8.888700 8.717300
8.922400 9.881600
8.956200 10.948700
8.990000 10.661400
9.023800 10.109900
9.057600 10.695300
9.091400 12.840900
9.125200 15.003900
9.158900 13.882100
9.192700 10.065700
9.226500 7.638100
9.260300 7.215900
9.294100 8.182400
9.327900 9.833100
9.361700 10.666900
9.395400 10.445600
9.429200 9.158400
9.463000 7.901500
9.496800 8.266800
9.530600 9.337800
9.564400 10.096100
9.598200 10.564500
9.631900 10.903900
9.665700 11.116200
9.699500 10.341400
9.733300 8.062800
9.767100 5.656600
9.800900 4.558000
9.834700 4.368200
9.868400 4.233200
9.902200 4.174600
9.936000 4.519000
9.969800 5.054300
10.003600 5.526700
10.037400 5.254000
10.071200 4.631400
10.104900 4.865700
10.138700 5.328100
10.172500 5.292700
10.206300 4.999600
10.240100 4.668500
10.273900 4.412900
10.307700 4.273300
10.341400 4.127300
10.375200 4.256200
10.409000 4.796700
10.442800 5.099200
10.476600 5.167400
10.510400 5.298300
10.544100 5.160800
10.577900 4.937200
10.611700 4.755500
10.645500 4.494800
10.679300 4.671500
10.713100 5.343300
10.746900 5.419600
10.780600 5.555200
10.814400 6.606500
10.848200 7.168800
10.882000 6.599300
10.915800 5.827400
10.949600 4.722100
10.983400 3.654500
11.017100 3.211200
11.050900 3.056000
11.084700 2.860400
11.118500 3.144200
11.152300 3.862300
11.186100 3.864500
11.219900 3.334300
11.253600 3.241700
11.287400 3.353600
11.321200 3.467700
11.355000 3.958700
11.388800 4.635600
11.422600 4.991000
11.456400 4.945000
11.490100 4.840500
11.523900 4.321500
11.557700 3.532100
11.591500 3.317300
11.625300 3.281500
11.659100 2.491400
11.692900 1.924000
11.726600 2.508100
11.760400 3.534000
11.794200 3.766200
11.828000 3.033400
11.861800 2.728100
11.895600 3.027500
11.929400 2.588500
11.963100 2.143500
11.996900 2.586200
12.030700 3.060700
12.064500 2.722500
12.098300 2.078700
12.132100 1.871200
12.165900 1.804400
12.199600 1.820700
12.233400 1.908800
12.267200 1.757400
12.301000 1.205900
12.334800 0.640500
12.368600 0.385500
12.402300 0.325000
12.436100 0.352300
12.469900 0.433500
12.503700 0.419600
12.537500 0.324700
12.571300 0.257300
12.605100 0.171600
12.638800 0.165200
12.672600 0.337400
12.706400 0.442900
12.740200 0.315100
12.774000 0.159600
12.807800 0.119100
12.841600 0.207300
12.875300 0.293100
12.909100 0.264800
12.942900 0.187900
12.976700 0.181500
13.010500 0.356900
13.044300 0.632900
13.078100 0.717500
13.111800 0.569200
13.145600 0.481300
13.179400 0.604200
13.213200 0.719300
13.247000 0.650200
13.280800 0.505200
13.314600 0.300800
13.348300 0.151500
13.382100 0.241900
13.415900 0.490300
13.449700 0.683600
13.483500 0.732000
13.517300 0.625700
13.551100 0.468500
13.584800 0.393200
13.618600 0.395600
13.652400 0.481300
13.686200 0.516400
13.720000 0.405500
13.753800 0.238300
13.787600 0.148400
13.821300 0.314000
13.855100 0.740700
13.888900 1.108700
13.922700 1.249100
13.956500 1.202800
13.990300 1.017500
14.024000 0.886900
14.057800 0.747500
14.091600 0.632600
14.125400 1.017600
14.159200 1.438400
14.193000 1.407900
14.226800 1.460400
14.260500 1.449500
14.294300 1.155000
14.328100 1.050900
14.361900 1.206200
14.395700 1.254800
14.429500 1.099900
14.463300 0.967800
14.497000 1.014500
14.530800 1.196200
14.564600 1.239000
14.598400 0.996200
14.632200 1.006200
14.666000 1.661100
14.699800 2.564800
14.733500 2.601700
14.767300 1.814300
14.801100 1.133600
14.834900 0.876400
14.868700 0.986900
14.902500 1.252400
14.936300 1.275800
14.970000 1.073400
15.003800 1.073800
15.037600 1.268700
15.071400 1.513600
15.105200 1.748100
15.139000 1.714900
15.172800 1.323600
15.206500 0.970800
15.240300 0.918000
15.274100 1.070000
15.307900 1.501500
15.341700 1.991500
15.375500 1.942800
15.409300 1.526200
15.443000 1.350700
15.476800 1.516000
15.510600 1.846200
15.544400 2.188600
15.578200 2.358700
15.612000 2.188900
15.645700 1.699500
15.679500 1.398000
15.713300 1.418700
15.747100 1.445300
15.780900 1.549000
15.814700 1.811200
15.848500 1.798100
15.882200 1.426900
15.916000 1.040800
15.949800 0.733600
15.983600 0.680700
16.017400 0.868900
16.051200 1.264900
16.085000 1.761900
16.118700 2.147100
16.152500 2.436100
16.186300 2.548200
16.220100 2.414700
16.253900 1.949000
16.287700 1.345300
16.321500 1.106100
16.355200 1.203500
16.389000 1.425200
16.422800 1.692600
16.456600 1.819200
16.490400 1.753600
16.524200 1.418500
16.558000 1.038300
16.591700 1.036100
16.625500 1.353200
16.659300 1.743200
16.693100 1.976400
16.726900 2.001200
16.760700 1.956600
16.794500 1.741800
16.828200 1.455700
16.862000 1.424900
16.895800 1.609100
16.929600 1.544700
16.963400 1.320400
16.997200 1.463300
17.031000 1.762100
17.064700 1.852100
17.098500 1.898100
17.132300 1.986400
17.166100 2.107500
17.199900 2.044200
17.233700 1.852800
17.267400 1.648100
17.301200 1.251400
17.335000 0.956400
17.368800 1.035500
17.402600 1.202300
17.436400 1.102300
17.470200 1.046200
17.503900 1.456000
17.537700 1.958100
17.571500 2.264400
17.605300 2.299300
17.639100 1.822000
17.672900 1.252000
17.706700 1.338100
17.740400 1.930600
17.774200 2.050300
17.808000 1.520600
17.841800 1.019500
17.875600 0.724800
17.909400 0.629600
17.943200 0.756900
17.976900 0.850400
18.010700 0.830700
18.044500 1.076800
18.078300 1.627800
18.112100 1.727000
18.145900 1.464600
18.179700 1.427300
18.213400 1.702700
18.247200 2.008700
18.281000 1.774100
18.314800 1.167700
18.348600 0.990600
18.382400 1.217500
18.416200 1.607800
18.449900 2.082500
18.483700 2.156400
18.517500 1.710900
18.551300 1.323700
18.585100 1.420800
18.618900 1.697000
18.652700 1.813100
18.686400 1.909200
18.720200 1.964500
18.754000 1.811600
18.787800 1.556800
18.821600 1.471300
18.855400 1.624200
18.889100 1.695300
18.922900 1.806700
18.956700 1.988900
18.990500 1.845400
19.024300 2.019900
19.058100 2.756400
19.091900 3.389700
19.125600 4.405200
19.159400 6.168500
19.193200 7.430300
19.227000 7.151600
19.260800 5.852900
19.294600 4.689100
19.328400 3.969000
19.362100 3.566800
19.395900 3.257000
19.429700 3.009200
19.463500 2.981600
19.497300 2.880200
19.531100 2.406100
19.564900 2.127600
19.598600 2.466600
19.632400 3.129200
19.666200 3.413000
19.700000 3.275600
19.733800 3.405200
19.767600 3.746100
19.801400 3.840100
19.835100 3.501800
19.868900 3.074400
19.902700 2.829200
19.936500 2.980000
19.970300 3.311900
20.004100 3.593200
20.037900 3.652600
20.071600 3.163200
20.105400 2.472500
20.139200 2.150600
20.173000 2.111200
20.206800 1.968200
20.240600 1.816800
20.274400 2.013800
20.308100 2.506800
20.341900 3.144100
20.375700 3.450800
20.409500 3.149800
20.443300 2.755200
20.477100 2.622900
20.510800 2.619400
20.544600 2.894800
20.578400 3.235200
20.612200 3.144400
20.646000 3.116900
20.679800 3.415900
20.713600 4.181800
20.747300 5.141300
20.781100 5.371700
20.814900 5.021300
20.848700 4.397100
20.882500 3.506300
20.916300 2.825100
20.950100 2.550500
20.983800 2.402400
21.017600 2.439300
21.051400 2.571000
21.085200 2.315300
21.119000 1.796400
21.152800 1.728600
21.186600 2.151100
21.220300 2.342200
21.254100 2.217200
21.287900 1.945000
21.321700 1.637700
21.355500 1.603000
21.389300 1.864900
21.423100 2.188200
21.456800 2.405400
21.490600 2.322100
21.524400 2.030300
21.558200 2.111000
21.592000 2.695900
21.625800 3.341800
21.659600 3.824300
21.693300 4.256800
21.727100 4.772800
21.760900 4.831900
21.794700 4.200200
21.828500 3.719300
21.862300 3.431400
21.896100 3.093900
21.929800 2.881800
21.963600 3.148200
21.997400 3.702400
22.031200 3.956100
22.065000 3.597000
22.098800 2.875100
22.132500 2.308900
22.166300 1.980800
22.200100 1.871900
22.233900 1.973500
22.267700 2.175900
22.301500 2.446500
22.335300 2.854100
22.369000 3.028700
22.402800 2.588800
22.436600 2.254700
22.470400 2.140300
22.504200 1.851000
22.538000 2.067100
22.571800 2.890600
22.605500 3.128200
22.639300 2.277600
22.673100 1.461600
22.706900 1.254200
22.740700 1.465800
22.774500 2.013100
22.808300 2.496200
22.842000 2.343700
22.875800 1.982700
22.909600 2.123800
22.943400 2.301700
22.977200 2.035800
23.011000 1.705200
23.044800 1.641100
23.078500 1.788800
23.112300 1.756000
23.146100 1.498400
23.179900 1.476800
23.213700 1.963700
23.247500 2.685100
23.281300 2.842400
23.315000 2.244900
23.348800 1.638100
23.382600 1.226400
23.416400 0.979800
23.450200 1.203000
23.484000 1.553900
23.517800 1.437100
23.551500 1.141100
23.585300 1.139900
23.619100 1.529200
23.652900 1.966400
23.686700 2.050800
23.720500 1.945100
23.754200 1.887500
23.788000 1.905200
23.821800 1.715800
23.855600 1.128100
23.889400 0.736500
23.923200 0.803100
23.957000 0.854100
23.990700 0.826300
24.024500 1.165600
24.058300 1.523600
24.092100 1.299500
24.125900 0.864300
24.159700 0.745300
24.193500 0.804700
24.227200 0.749100
24.261000 0.739300
24.294800 1.086500
24.328600 1.547900
24.362400 1.802500
24.396200 1.781700
24.430000 1.618700
24.463700 1.633800
24.497500 1.852600
24.531300 1.917500
24.565100 1.564100
24.598900 1.159900
24.632700 1.275900
24.666500 1.699900
24.700200 1.824300
24.734000 1.719300
24.767800 1.640400
24.801600 1.622500
24.835400 2.100300
24.869200 2.485900
24.903000 2.196000
24.936700 1.981000
24.970500 2.166700
25.004300 2.322400
25.038100 2.379700
25.071900 2.496200
25.105700 2.514000
25.139500 2.403600
25.173200 2.477200
25.207000 2.775200
25.240800 2.767500
25.274600 2.522300
25.308400 2.660700
25.342200 3.084100
25.375900 3.570200
25.409700 3.851300
25.443500 3.954600
25.477300 3.703400
25.511100 2.996100
25.544900 2.704800
25.578700 3.334700
25.612400 3.780600
25.646200 3.400200
25.680000 2.789300
25.713800 2.270600
25.747600 2.297500
25.781400 2.736100
25.815200 2.829200
25.848900 2.575800
25.882700 2.648300
25.916500 3.186800
25.950300 3.452200
25.984100 3.450900
26.017900 3.889200
26.051700 4.149700
26.085400 3.938200
26.119200 3.967100
26.153000 4.340300
26.186800 4.606800
26.220600 4.424200
26.254400 4.322500
26.288200 4.309300
26.321900 4.245900
26.355700 4.340200
26.389500 4.220700
26.423300 3.683800
26.457100 3.110700
26.490900 2.988900
26.524700 3.341200
26.558400 3.889700
26.592200 4.285300
26.626000 4.671700
26.659800 4.805300
26.693600 4.545300
26.727400 4.414600
26.761200 4.295500
26.794900 3.923500
26.828700 3.699300
26.862500 3.720300
26.896300 3.608600
26.930100 3.237100
26.963900 2.600400
26.997600 2.235800
27.031400 2.592100
27.065200 2.980300
27.099000 2.931400
27.132800 2.866900
27.166600 3.241200
27.200400 3.780700
27.234100 3.880800
27.267900 3.714900
27.301700 3.389500
27.335500 2.905200
27.369300 2.493000
27.403100 2.289700
27.436900 2.667400
27.470600 3.297300
27.504400 3.137600
27.538200 2.326800
27.572000 1.649800
27.605800 1.257200
27.639600 1.307700
27.673400 1.704800
27.707100 1.927700
27.740900 1.964400
27.774700 2.142300
27.808500 2.363100
27.842300 2.490600
27.876100 2.572500
27.909900 2.571900
27.943600 2.443600
27.977400 2.180400
28.011200 2.003900
28.045000 1.985600
28.078800 1.853500
28.112600 1.567300
28.146400 1.320200
28.180100 1.276900
28.213900 1.444000
28.247700 1.648800
28.281500 1.811000
28.315300 3.587700
28.349100 14.010100
28.382900 36.473500
28.416600 44.235300
28.450400 24.643600
28.484200 10.624400
28.518000 15.698900
28.551800 23.261800
28.585600 16.738800
28.619300 6.398100
28.653100 2.603500
28.686900 1.982900
28.720700 1.653400
28.754500 1.218000
28.788300 1.041000
28.822100 1.457700
28.855800 2.017600
28.889600 2.159900
28.923400 2.038200
28.957200 2.119700
28.991000 2.260900
29.024800 2.327000
29.058600 2.440100
29.092300 2.205900
29.126100 1.687400
29.159900 1.514400
29.193700 1.937400
29.227500 2.626700
29.261300 3.279900
29.295100 3.355500
29.328800 2.812100
29.362600 2.411600
29.396400 2.297300
29.430200 2.308300
29.464000 2.518800
29.497800 2.791800
29.531600 2.592800
29.565300 1.987000
29.599100 1.704600
29.632900 1.803500
29.666700 1.839300
29.700500 1.769200
29.734300 1.881700
29.768100 2.059800
29.801800 1.894100
29.835600 1.428500
29.869400 1.234700
29.903200 1.525600
29.937000 2.103900
29.970800 2.606000
30.004600 2.855700
30.038300 2.927700
30.072100 3.021100
30.105900 3.080700
30.139700 2.967100
30.173500 2.765900
30.207300 2.382900
30.241100 2.108300
30.274800 2.155300
30.308600 2.138600
30.342400 2.016100
30.376200 2.112500
30.410000 2.320900
30.443800 2.211300
30.477500 1.702200
30.511300 1.378900
30.545100 1.633100
30.578900 2.288300
30.612700 2.805600
30.646500 2.828200
30.680300 2.579000
30.714000 2.293300
30.747800 1.978100
30.781600 1.976000
30.815400 2.142100
30.849200 2.120300
30.883000 2.271300
30.916800 2.495200
30.950500 2.200900
30.984300 1.682600
31.018100 1.562800
31.051900 1.918700
31.085700 2.348700
31.119500 2.499700
31.153300 2.431300
31.187000 2.069400
31.220800 1.471600
31.254600 1.349400
31.288400 1.905000
31.322200 2.157800
31.356000 1.917200
31.389800 1.900800
31.423500 1.808800
31.457300 1.497700
31.491100 1.304800
31.524900 1.125900
31.558700 1.150800
31.592500 1.507800
31.626300 1.779800
31.660000 1.804700
31.693800 1.846200
31.727600 1.927400
31.761400 1.785100
31.795200 1.315400
31.829000 0.853900
31.862800 0.800100
31.896500 0.944500
31.930300 1.165700
31.964100 1.434000
31.997900 1.551200
32.031700 1.353000
32.065500 1.081100
32.099200 1.064700
32.133000 1.087500
32.166800 1.204200
32.200600 1.544800
32.234400 1.770400
32.268200 1.711200
32.302000 1.581800
32.335700 1.588900
32.369500 1.481000
32.403300 1.193200
32.437100 0.979900
32.470900 1.031600
32.504700 1.176200
32.538500 1.229600
32.572200 1.280600
32.606000 1.308900
32.639800 1.109900
32.673600 0.646600
32.707400 0.309100
32.741200 0.285500
32.775000 0.337300
32.808700 0.281900
32.842500 0.292400
32.876300 0.499700
32.910100 0.632400
32.943900 0.530200
32.977700 0.409900
33.011500 0.313400
33.045200 0.148300
33.079000 0.059200
33.112800 0.145900
33.146600 0.332900
33.180400 0.357000
33.214200 0.184100
33.248000 0.059000
33.281700 0.061700
33.315500 0.106800
33.349300 0.117400
33.383100 0.137400
33.416900 0.176800
33.450700 0.183600
33.484500 0.143300
33.518200 0.117100
33.552000 0.107000
33.585800 0.059200
33.619600 0.028300
33.653400 0.060600
33.687200 0.109600
33.720900 0.097100
33.754700 0.046200
33.788500 0.012700
33.822300 0.001900
33.856100 0.000100
33.889900 0.000000
33.923700 0.000000
33.957400 0.000000
33.991200 0.000000
34.025000 0.000000
34.058800 0.000200
34.092600 0.002900
34.126400 0.017200
34.160200 0.043400
34.193900 0.046900
34.227700 0.021700
34.261500 0.004300
34.295300 0.000400
34.329100 0.000000
34.362900 0.000000
34.396700 0.000000
34.430400 0.000000
34.464200 0.000000
34.498000 0.000000
34.531800 0.000000
34.565600 0.000000
34.599400 0.000000
34.633200 0.000000
34.666900 0.000000
34.700700 0.000000
34.734500 0.000000
34.768300 0.000000
34.802100 0.000000
34.835900 0.000000
34.869700 0.000000
34.903400 0.000000
34.937200 0.000000
34.971000 0.000000
35.004800 0.000000
35.038600 0.000000
35.072400 0.000000
35.106200 0.000000
35.139900 0.000000
35.173700 0.000000
35.207500 0.000000
35.241300 0.000000
35.275100 0.000000
35.308900 0.000000
35.342600 0.000000
35.376400 0.000000
35.410200 0.000000
35.444000 0.000000
35.477800 0.000000
35.511600 0.000000
35.545400 0.000000
35.579100 0.000000
35.612900 0.000000
35.646700 0.000000
35.680500 0.000000
35.714300 0.000000
35.748100 0.000000
35.781900 0.000000
35.815600 0.000000
35.849400 0.000000
35.883200 0.000000
35.917000 0.000000
35.950800 0.000000
35.984600 0.000000
36.018400 0.000000
36.052100 0.000000
36.085900 0.000000
36.119700 0.000000
36.153500 0.000000
36.187300 0.000000
36.221100 0.000000
36.254900 0.000000
36.288600 0.000000
36.322400 0.000000
36.356200 0.000000
36.390000 0.000000
36.423800 0.000000
36.457600 0.000000
36.491400 0.000000
36.525100 0.000000
36.558900 0.000000
36.592700 0.000000
36.626500 0.000000
36.660300 0.000000
36.694100 0.000000
36.727900 0.000000
36.761600 0.000000
36.795400 0.000000
36.829200 0.000000
36.863000 0.000000
36.896800 0.000000
36.930600 0.000000
36.964300 0.000000
36.998100 0.000000
37.031900 0.000000
37.065700 0.000000
37.099500 0.000000
37.133300 0.000000
37.167100 0.000000
37.200800 0.000000
37.234600 0.000000
e
