set title 'mp-1238797 - Density of States'
set xlabel 'Energy (eV)'
set ylabel 'DOS (states/eV)'
set grid
set xrange [-10:10]
set yrange [0:7.068]
set xzeroaxis lt -1
set terminal png size 800,600
set output 'mp-1238797_dos_gnuplot.png'
plot '-' using 1:2 with lines title 'DOS'
-33.970400 0.000000
-33.931400 0.000000
-33.892400 0.000000
-33.853400 0.000000
-33.814400 0.000000
-33.775400 0.000000
-33.736400 0.000000
-33.697400 0.000000
-33.658400 0.000000
-33.619400 0.000000
-33.580400 0.000000
-33.541400 0.000000
-33.502400 0.000000
-33.463400 0.000000
-33.424400 0.000000
-33.385400 0.000000
-33.346400 0.000000
-33.307400 0.000000
-33.268400 0.000000
-33.229400 0.000000
-33.190400 0.000000
-33.151400 0.000000
-33.112400 0.000000
-33.073400 0.000000
-33.034400 0.000000
-32.995400 0.000000
-32.956400 0.000000
-32.917400 0.000000
-32.878400 0.000000
-32.839400 0.000000
-32.800400 0.000000
-32.761400 0.000000
-32.722400 0.000000
-32.683400 0.000000
-32.644400 0.000000
-32.605400 0.000000
-32.566400 0.000000
-32.527400 0.000000
-32.488400 0.000000
-32.449400 0.000000
-32.410400 0.000000
-32.371400 0.000000
-32.332400 0.000000
-32.293400 0.000000
-32.254400 0.000000
-32.215400 0.000000
-32.176400 0.000000
-32.137400 0.000000
-32.098400 0.000000
-32.059400 0.000000
-32.020400 0.000000
-31.981400 0.000000
-31.942400 0.000000
-31.903400 0.000000
-31.864400 0.000000
-31.825400 0.000000
-31.786400 0.000000
-31.747400 0.000000
-31.708400 0.000000
-31.669400 0.000000
-31.630500 0.000000
-31.591500 0.000000
-31.552500 0.000000
-31.513500 0.000000
-31.474500 0.000000
-31.435500 0.000000
-31.396500 0.000000
-31.357500 0.000000
-31.318500 0.000000
-31.279500 0.000000
-31.240500 0.000000
-31.201500 0.000000
-31.162500 0.000000
-31.123500 0.000000
-31.084500 0.000000
-31.045500 0.000000
-31.006500 0.000000
-30.967500 0.000000
-30.928500 0.000000
-30.889500 0.000000
-30.850500 0.000000
-30.811500 0.000000
-30.772500 0.000000
-30.733500 0.000000
-30.694500 0.000000
-30.655500 0.000000
-30.616500 0.000000
-30.577500 0.000000
-30.538500 0.000000
-30.499500 0.000000
-30.460500 0.000000
-30.421500 6.747300
-30.382500 13.131000
-30.343500 9.614800
-30.304500 4.841200
-30.265500 7.116600
-30.226500 9.434400
-30.187500 14.575000
-30.148500 17.305600
-30.109500 34.080000
-30.070500 24.823600
-30.031500 0.000000
-29.992500 0.000000
-29.953500 0.000000
-29.914500 0.000000
-29.875500 0.000000
-29.836500 0.000000
-29.797500 0.000000
-29.758500 0.000000
-29.719500 0.000000
-29.680500 0.000000
-29.641500 0.000000
-29.602500 0.000000
-29.563500 0.000000
-29.524500 0.000000
-29.485500 0.000000
-29.446500 0.000000
-29.407500 0.000000
-29.368500 0.000000
-29.329500 0.000000
-29.290500 0.000000
-29.251500 0.000000
-29.212500 0.000000
-29.173500 0.000000
-29.134500 0.000000
-29.095500 0.000000
-29.056500 0.000000
-29.017500 0.000000
-28.978500 0.000000
-28.939500 0.000000
-28.900500 0.000000
-28.861500 0.000000
-28.822500 0.000000
-28.783500 0.000000
-28.744500 0.000000
-28.705500 0.000000
-28.666600 0.000000
-28.627600 0.000000
-28.588600 0.000000
-28.549600 0.000000
-28.510600 0.000000
-28.471600 0.000000
-28.432600 0.000000
-28.393600 0.000000
-28.354600 0.000000
-28.315600 0.000000
-28.276600 0.000000
-28.237600 0.000000
-28.198600 0.000000
-28.159600 0.000000
-28.120600 0.000000
-28.081600 0.000000
-28.042600 0.000000
-28.003600 0.000000
-27.964600 0.000000
-27.925600 0.000000
-27.886600 0.000000
-27.847600 0.000000
-27.808600 0.000000
-27.769600 0.000000
-27.730600 0.000000
-27.691600 0.000000
-27.652600 0.000000
-27.613600 0.000000
-27.574600 0.000000
-27.535600 0.000000
-27.496600 0.000000
-27.457600 0.000000
-27.418600 0.000000
-27.379600 0.000000
-27.340600 0.000000
-27.301600 0.000000
-27.262600 0.000000
-27.223600 0.000000
-27.184600 0.000000
-27.145600 0.000000
-27.106600 0.000000
-27.067600 0.000000
-27.028600 0.000000
-26.989600 0.000000
-26.950600 0.000000
-26.911600 0.000000
-26.872600 0.000000
-26.833600 0.000000
-26.794600 0.000000
-26.755600 0.000000
-26.716600 0.000000
-26.677600 0.000000
-26.638600 0.000000
-26.599600 0.000000
-26.560600 0.000000
-26.521600 0.000000
-26.482600 0.000000
-26.443600 0.000000
-26.404600 0.000000
-26.365600 0.000000
-26.326600 0.000000
-26.287600 0.000000
-26.248600 0.000000
-26.209600 0.000000
-26.170600 0.000000
-26.131600 0.000000
-26.092600 0.000000
-26.053600 0.000000
-26.014600 0.000000
-25.975600 0.000000
-25.936600 0.000000
-25.897600 0.000000
-25.858600 0.000000
-25.819600 0.000000
-25.780600 0.000000
-25.741600 0.000000
-25.702700 0.000000
-25.663700 0.000000
-25.624700 0.000000
-25.585700 0.000000
-25.546700 0.000000
-25.507700 0.000000
-25.468700 0.000000
-25.429700 0.000000
-25.390700 0.000000
-25.351700 0.000000
-25.312700 0.000000
-25.273700 0.000000
-25.234700 0.000000
-25.195700 0.000000
-25.156700 0.000000
-25.117700 0.000000
-25.078700 0.000000
-25.039700 0.000000
-25.000700 0.000000
-24.961700 0.000000
-24.922700 0.000000
-24.883700 0.000000
-24.844700 0.000000
-24.805700 0.000000
-24.766700 0.000000
-24.727700 0.000000
-24.688700 0.000000
-24.649700 0.000000
-24.610700 0.000000
-24.571700 0.000000
-24.532700 0.000000
-24.493700 0.000000
-24.454700 0.000000
-24.415700 0.000000
-24.376700 0.000000
-24.337700 0.000000
-24.298700 0.000000
-24.259700 0.000000
-24.220700 0.000000
-24.181700 0.000000
-24.142700 0.000000
-24.103700 0.000000
-24.064700 0.000000
-24.025700 0.000000
-23.986700 0.000000
-23.947700 0.000000
-23.908700 0.000000
-23.869700 0.000000
-23.830700 0.000000
-23.791700 0.000000
-23.752700 0.000000
-23.713700 0.000000
-23.674700 0.000000
-23.635700 0.000000
-23.596700 0.000000
-23.557700 0.000000
-23.518700 0.000000
-23.479700 0.000000
-23.440700 0.000000
-23.401700 0.000000
-23.362700 0.000000
-23.323700 0.000000
-23.284700 0.000000
-23.245700 0.000000
-23.206700 0.000000
-23.167700 0.000000
-23.128700 0.000000
-23.089700 0.000000
-23.050700 0.000000
-23.011700 0.000000
-22.972700 0.000000
-22.933700 0.000000
-22.894700 0.000000
-22.855700 0.000000
-22.816700 0.000000
-22.777700 0.000000
-22.738800 0.000000
-22.699800 0.000000
-22.660800 0.000000
-22.621800 0.000000
-22.582800 0.000000
-22.543800 0.000000
-22.504800 0.000000
-22.465800 0.000000
-22.426800 0.000000
-22.387800 0.000000
-22.348800 0.000000
-22.309800 0.000000
-22.270800 0.000000
-22.231800 0.000000
-22.192800 0.000000
-22.153800 0.000000
-22.114800 0.000000
-22.075800 0.000000
-22.036800 0.000000
-21.997800 0.000000
-21.958800 0.000000
-21.919800 0.000000
-21.880800 0.000000
-21.841800 0.000000
-21.802800 0.000000
-21.763800 0.000000
-21.724800 0.000000
-21.685800 0.000000
-21.646800 0.000000
-21.607800 0.000000
-21.568800 0.000000
-21.529800 0.000000
-21.490800 0.000000
-21.451800 0.000000
-21.412800 0.000000
-21.373800 0.000000
-21.334800 0.000000
-21.295800 0.000000
-21.256800 0.000000
-21.217800 0.000000
-21.178800 0.000000
-21.139800 0.000000
-21.100800 0.000000
-21.061800 0.000000
-21.022800 0.000000
-20.983800 0.000000
-20.944800 0.000000
-20.905800 0.000000
-20.866800 0.000000
-20.827800 0.000000
-20.788800 0.000000
-20.749800 0.000000
-20.710800 0.000000
-20.671800 0.000000
-20.632800 0.000000
-20.593800 0.000000
-20.554800 0.000000
-20.515800 0.000000
-20.476800 0.000000
-20.437800 0.000000
-20.398800 0.000000
-20.359800 0.000000
-20.320800 0.000000
-20.281800 0.000000
-20.242800 0.000000
-20.203800 0.000000
-20.164800 0.000000
-20.125800 0.000000
-20.086800 0.000000
-20.047800 0.000000
-20.008800 0.000000
-19.969800 0.000000
-19.930800 0.000000
-19.891800 0.000000
-19.852800 0.000000
-19.813900 0.000000
-19.774900 0.000000
-19.735900 0.000000
-19.696900 0.000000
-19.657900 0.000000
-19.618900 0.000000
-19.579900 0.000000
-19.540900 0.000000
-19.501900 0.000000
-19.462900 0.000000
-19.423900 0.000000
-19.384900 0.000000
-19.345900 0.000000
-19.306900 0.000000
-19.267900 0.000000
-19.228900 0.000000
-19.189900 0.000000
-19.150900 0.000000
-19.111900 0.000000
-19.072900 0.000000
-19.033900 0.000000
-18.994900 0.000000
-18.955900 0.000000
-18.916900 0.000000
-18.877900 0.000000
-18.838900 0.000000
-18.799900 0.000000
-18.760900 0.000000
-18.721900 0.000000
-18.682900 0.000000
-18.643900 0.000000
-18.604900 0.000000
-18.565900 0.000000
-18.526900 0.000000
-18.487900 0.000000
-18.448900 0.000000
-18.409900 0.000000
-18.370900 0.000000
-18.331900 0.000000
-18.292900 0.000000
-18.253900 0.000000
-18.214900 0.000000
-18.175900 0.000000
-18.136900 0.000000
-18.097900 0.000000
-18.058900 0.000000
-18.019900 0.000000
-17.980900 0.000000
-17.941900 0.000000
-17.902900 0.000000
-17.863900 0.000000
-17.824900 0.000000
-17.785900 0.000000
-17.746900 0.000000
-17.707900 0.000000
-17.668900 0.000000
-17.629900 0.000000
-17.590900 0.000000
-17.551900 0.000000
-17.512900 0.000000
-17.473900 0.000000
-17.434900 0.000000
-17.395900 0.000000
-17.356900 0.000000
-17.317900 0.000000
-17.278900 0.000000
-17.239900 0.000000
-17.200900 0.000000
-17.161900 0.000000
-17.122900 0.000000
-17.083900 0.000000
-17.044900 0.000000
-17.005900 0.000000
-16.966900 0.000000
-16.927900 0.000000
-16.888900 0.000000
-16.850000 0.000000
-16.811000 0.000000
-16.772000 0.000000
-16.733000 0.000000
-16.694000 0.000000
-16.655000 0.000000
-16.616000 0.000000
-16.577000 0.000000
-16.538000 0.000000
-16.499000 0.000000
-16.460000 0.000000
-16.421000 0.000000
-16.382000 0.000000
-16.343000 0.000000
-16.304000 0.000000
-16.265000 0.000000
-16.226000 0.000000
-16.187000 0.000000
-16.148000 0.000000
-16.109000 0.000000
-16.070000 0.000000
-16.031000 0.000000
-15.992000 0.000000
-15.953000 0.000000
-15.914000 0.000000
-15.875000 0.000000
-15.836000 0.000000
-15.797000 0.000000
-15.758000 0.000000
-15.719000 0.000000
-15.680000 0.000000
-15.641000 0.000000
-15.602000 0.000000
-15.563000 0.000000
-15.524000 0.000000
-15.485000 0.000000
-15.446000 0.000000
-15.407000 0.000000
-15.368000 0.000000
-15.329000 0.000000
-15.290000 0.000000
-15.251000 0.000000
-15.212000 0.000000
-15.173000 0.000000
-15.134000 0.000000
-15.095000 0.000000
-15.056000 0.000000
-15.017000 0.000000
-14.978000 0.000000
-14.939000 0.000000
-14.900000 0.000000
-14.861000 0.000000
-14.822000 0.000000
-14.783000 0.000000
-14.744000 0.000000
-14.705000 0.000000
-14.666000 0.000000
-14.627000 0.000000
-14.588000 0.000000
-14.549000 0.000000
-14.510000 0.000000
-14.471000 0.000000
-14.432000 0.000000
-14.393000 0.000000
-14.354000 0.000000
-14.315000 0.000000
-14.276000 0.000000
-14.237000 0.000000
-14.198000 0.000000
-14.159000 0.000000
-14.120000 0.000000
-14.081000 0.000000
-14.042000 0.000000
-14.003000 0.000000
-13.964000 0.000000
-13.925000 0.000000
-13.886100 0.000000
-13.847100 0.000000
-13.808100 0.000000
-13.769100 0.000000
-13.730100 0.000000
-13.691100 0.000000
-13.652100 0.000000
-13.613100 0.000000
-13.574100 0.000000
-13.535100 0.000000
-13.496100 0.000000
-13.457100 0.000000
-13.418100 0.000000
-13.379100 0.000000
-13.340100 0.000000
-13.301100 0.000000
-13.262100 0.000000
-13.223100 0.000000
-13.184100 0.000000
-13.145100 0.000000
-13.106100 0.000000
-13.067100 0.000000
-13.028100 0.000000
-12.989100 0.000000
-12.950100 0.000000
-12.911100 0.000000
-12.872100 0.000000
-12.833100 0.000000
-12.794100 0.000000
-12.755100 0.000000
-12.716100 0.000000
-12.677100 0.000000
-12.638100 0.000000
-12.599100 0.000000
-12.560100 0.000000
-12.521100 0.000000
-12.482100 0.000000
-12.443100 0.000000
-12.404100 0.000000
-12.365100 0.000000
-12.326100 0.000000
-12.287100 0.000000
-12.248100 0.000000
-12.209100 0.000000
-12.170100 0.000000
-12.131100 0.000000
-12.092100 0.000000
-12.053100 0.000000
-12.014100 0.000000
-11.975100 0.000000
-11.936100 0.000000
-11.897100 0.000000
-11.858100 0.000000
-11.819100 0.000000
-11.780100 0.000000
-11.741100 0.000000
-11.702100 0.000000
-11.663100 0.000000
-11.624100 0.000000
-11.585100 0.000000
-11.546100 0.000000
-11.507100 0.000000
-11.468100 0.000000
-11.429100 0.000000
-11.390100 0.000000
-11.351100 0.000000
-11.312100 0.000000
-11.273100 0.000000
-11.234100 0.000000
-11.195100 0.000000
-11.156100 0.000000
-11.117100 0.000000
-11.078100 0.000000
-11.039100 0.000000
-11.000100 0.000000
-10.961100 0.000000
-10.922200 0.000000
-10.883200 0.000000
-10.844200 0.000000
-10.805200 0.000000
-10.766200 0.000000
-10.727200 0.000000
-10.688200 0.000000
-10.649200 0.000000
-10.610200 0.000000
-10.571200 0.000000
-10.532200 0.000000
-10.493200 0.000000
-10.454200 0.000000
-10.415200 0.000000
-10.376200 0.000000
-10.337200 0.000000
-10.298200 0.000000
-10.259200 0.000000
-10.220200 0.000000
-10.181200 0.000000
-10.142200 0.000000
-10.103200 0.000000
-10.064200 0.000000
-10.025200 0.000000
-9.986200 0.000000
-9.947200 0.000000
-9.908200 0.000000
-9.869200 0.000000
-9.830200 0.000000
-9.791200 0.000000
-9.752200 0.000000
-9.713200 0.000000
-9.674200 0.000000
-9.635200 0.000000
-9.596200 0.000000
-9.557200 0.000000
-9.518200 0.000000
-9.479200 0.000000
-9.440200 0.000000
-9.401200 0.000000
-9.362200 0.000000
-9.323200 0.000000
-9.284200 0.000000
-9.245200 0.000000
-9.206200 0.000000
-9.167200 0.000000
-9.128200 0.000000
-9.089200 0.011000
-9.050200 0.162900
-9.011200 0.239500
-8.972200 0.321500
-8.933200 0.455400
-8.894200 0.496600
-8.855200 0.482100
-8.816200 0.493900
-8.777200 0.501400
-8.738200 0.499400
-8.699200 0.512400
-8.660200 0.518500
-8.621200 0.524900
-8.582200 0.529300
-8.543200 0.528800
-8.504200 0.536900
-8.465200 0.546800
-8.426200 0.559000
-8.387200 0.568300
-8.348200 0.576400
-8.309200 0.585700
-8.270200 0.593400
-8.231200 0.603500
-8.192200 0.617100
-8.153200 0.631600
-8.114200 0.646900
-8.075200 0.664400
-8.036200 0.685000
-7.997200 0.854700
-7.958300 1.123700
-7.919300 1.330300
-7.880300 1.547000
-7.841300 1.786500
-7.802300 2.057300
-7.763300 2.526600
-7.724300 2.660900
-7.685300 2.850500
-7.646300 3.067600
-7.607300 3.352100
-7.568300 3.570100
-7.529300 4.340000
-7.490300 5.290000
-7.451300 4.319000
-7.412300 3.863600
-7.373300 3.405300
-7.334300 3.216000
-7.295300 3.055300
-7.256300 2.806500
-7.217300 2.695200
-7.178300 2.634000
-7.139300 2.497100
-7.100300 2.380400
-7.061300 2.311000
-7.022300 2.435400
-6.983300 1.939200
-6.944300 2.729900
-6.905300 3.891000
-6.866300 3.483400
-6.827300 2.948100
-6.788300 1.391700
-6.749300 0.001200
-6.710300 0.000000
-6.671300 0.000000
-6.632300 0.000000
-6.593300 0.000000
-6.554300 0.000000
-6.515300 0.000000
-6.476300 0.000000
-6.437300 0.000000
-6.398300 0.000000
-6.359300 0.000000
-6.320300 0.000000
-6.281300 0.000000
-6.242300 0.000000
-6.203300 0.000000
-6.164300 0.000000
-6.125300 0.000000
-6.086300 0.000000
-6.047300 0.000000
-6.008300 0.000000
-5.969300 0.000000
-5.930300 0.000000
-5.891300 0.000000
-5.852300 0.000000
-5.813300 0.000000
-5.774300 0.000000
-5.735300 0.000000
-5.696300 0.000000
-5.657300 0.000000
-5.618300 0.000000
-5.579300 0.000000
-5.540300 0.000000
-5.501300 0.000000
-5.462300 0.000000
-5.423300 0.000000
-5.384300 0.000000
-5.345300 0.000000
-5.306300 0.000000
-5.267300 0.000000
-5.228300 0.000000
-5.189300 0.000000
-5.150300 0.000000
-5.111300 0.000000
-5.072300 0.000000
-5.033300 0.000000
-4.994400 0.000000
-4.955400 0.000000
-4.916400 0.000000
-4.877400 0.000000
-4.838400 0.000000
-4.799400 0.000000
-4.760400 0.000000
-4.721400 0.000000
-4.682400 0.000000
-4.643400 0.000000
-4.604400 0.000000
-4.565400 0.000000
-4.526400 0.000000
-4.487400 0.000000
-4.448400 0.000000
-4.409400 0.000000
-4.370400 0.000000
-4.331400 0.000000
-4.292400 0.000000
-4.253400 0.000000
-4.214400 0.000000
-4.175400 0.000000
-4.136400 0.000000
-4.097400 0.000000
-4.058400 0.000000
-4.019400 0.000000
-3.980400 0.000000
-3.941400 0.000000
-3.902400 0.000000
-3.863400 0.000000
-3.824400 0.000000
-3.785400 0.000000
-3.746400 0.000000
-3.707400 0.000000
-3.668400 0.000000
-3.629400 0.000000
-3.590400 0.000000
-3.551400 0.000000
-3.512400 0.000000
-3.473400 0.000000
-3.434400 0.000000
-3.395400 0.000000
-3.356400 0.000000
-3.317400 0.000000
-3.278400 0.000000
-3.239400 0.000000
-3.200400 0.000000
-3.161400 0.000000
-3.122400 0.000000
-3.083400 0.000000
-3.044400 0.000000
-3.005400 0.000000
-2.966400 0.000000
-2.927400 0.000000
-2.888400 0.000000
-2.849400 0.000000
-2.810400 0.000000
-2.771400 0.000000
-2.732400 0.000000
-2.693400 0.000000
-2.654400 0.000000
-2.615400 0.000000
-2.576400 0.000000
-2.537400 0.000000
-2.498400 0.000000
-2.459400 0.000000
-2.420400 0.000000
-2.381400 0.000000
-2.342400 0.000000
-2.303400 0.000000
-2.264400 0.000000
-2.225400 0.000000
-2.186400 0.000000
-2.147400 0.000000
-2.108400 0.000000
-2.069500 0.000000
-2.030500 0.000000
-1.991500 0.000000
-1.952500 0.000000
-1.913500 0.000000
-1.874500 0.000000
-1.835500 0.000000
-1.796500 0.000000
-1.757500 0.000000
-1.718500 0.000000
-1.679500 0.000000
-1.640500 0.000000
-1.601500 0.000000
-1.562500 0.000000
-1.523500 0.000000
-1.484500 0.000000
-1.445500 0.000000
-1.406500 0.000000
-1.367500 0.000000
-1.328500 0.000000
-1.289500 0.000000
-1.250500 0.000000
-1.211500 0.000000
-1.172500 0.000000
-1.133500 0.000000
-1.094500 0.003800
-1.055500 0.309200
-1.016500 0.660100
-0.977500 0.866600
-0.938500 0.774500
-0.899500 0.698400
-0.860500 0.723500
-0.821500 0.819500
-0.782500 0.886300
-0.743500 0.939500
-0.704500 1.002200
-0.665500 1.017000
-0.626500 1.024400
-0.587500 1.047700
-0.548500 1.084200
-0.509500 1.137800
-0.470500 1.192200
-0.431500 1.247000
-0.392500 1.305700
-0.353500 1.366500
-0.314500 1.452200
-0.275500 1.639500
-0.236500 2.040900
-0.197500 2.297000
-0.158500 2.048100
-0.119500 1.838400
-0.080500 1.822900
-0.041500 1.898500
-0.002500 2.331400
0.036500 2.037700
0.075500 1.952400
0.114500 2.102800
0.153500 2.136400
0.192500 3.210400
0.231500 6.283600
0.270500 5.496300
0.309500 5.087100
0.348500 4.500200
0.387500 3.873800
0.426500 3.024900
0.465500 2.541500
0.504500 2.314900
0.543500 1.665700
0.582500 1.669400
0.621500 1.879200
0.660500 1.889100
0.699500 1.918700
0.738500 1.707600
0.777500 1.564500
0.816500 1.584900
0.855500 1.565500
0.894400 1.657800
0.933400 1.522500
0.972400 1.252800
1.011400 1.527000
1.050400 2.210000
1.089400 2.647400
1.128400 2.891900
1.167400 3.378200
1.206400 4.054800
1.245400 4.619700
1.284400 4.202100
1.323400 3.782900
1.362400 3.649600
1.401400 3.180600
1.440400 2.611700
1.479400 1.941900
1.518400 1.710900
1.557400 2.077600
1.596400 2.851700
1.635400 5.371300
1.674400 5.711800
1.713400 6.425800
1.752400 4.620900
1.791400 3.171200
1.830400 3.773400
1.869400 4.006200
1.908400 3.792700
1.947400 3.952800
1.986400 3.478600
2.025400 3.647700
2.064400 4.398900
2.103400 2.289400
2.142400 1.540300
2.181400 1.568200
2.220400 1.604400
2.259400 1.540200
2.298400 1.413200
2.337400 1.397100
2.376400 1.421900
2.415400 1.456800
2.454400 1.547900
2.493400 1.765000
2.532400 1.949100
2.571400 2.254400
2.610400 3.353100
2.649400 3.060100
2.688400 3.230000
2.727400 3.176600
2.766400 3.027700
2.805400 2.813800
2.844400 2.797200
2.883400 2.852400
2.922400 2.740900
2.961400 2.527800
3.000400 2.452400
3.039400 2.430900
3.078400 2.476100
3.117400 2.513300
3.156400 2.337400
3.195400 2.220500
3.234400 2.124100
3.273400 2.058800
3.312400 1.967700
3.351400 1.924700
3.390400 1.899800
3.429400 1.830700
3.468400 1.774900
3.507400 1.782500
3.546400 1.819600
3.585400 1.850500
3.624400 1.844800
3.663400 1.822200
3.702400 1.827500
3.741400 1.846800
3.780400 1.869800
3.819400 1.872400
3.858300 1.673500
3.897300 1.310500
3.936300 1.032700
3.975300 0.912300
4.014300 0.873700
4.053300 0.907900
4.092300 1.020000
4.131300 1.167600
4.170300 1.286800
4.209300 1.384300
4.248300 1.364700
4.287300 1.306200
4.326300 1.325400
4.365300 1.362600
4.404300 1.421900
4.443300 1.416100
4.482300 1.446100
4.521300 1.520200
4.560300 1.642000
4.599300 1.921500
4.638300 1.964100
4.677300 1.971400
4.716300 1.962100
4.755300 1.911400
4.794300 1.869000
4.833300 1.829500
4.872300 1.814300
4.911300 1.827900
4.950300 1.843900
4.989300 1.845200
5.028300 2.003500
5.067300 1.600400
5.106300 1.299300
5.145300 1.136200
5.184300 0.958300
5.223300 0.890600
5.262300 0.851500
5.301300 0.820200
5.340300 0.756100
5.379300 0.708300
5.418300 0.678800
5.457300 0.680300
5.496300 0.649600
5.535300 0.612600
5.574300 0.709200
5.613300 0.781400
5.652300 0.742600
5.691300 0.789700
5.730300 0.956700
5.769300 1.189300
5.808300 1.427400
5.847300 1.662000
5.886300 1.817200
5.925300 2.126800
5.964300 2.682800
6.003300 3.174600
6.042300 3.212000
6.081300 3.297900
6.120300 3.038500
6.159300 2.684800
6.198300 2.610900
6.237300 2.590600
6.276300 2.543800
6.315300 2.567300
6.354300 2.401300
6.393300 2.385800
6.432300 2.469500
6.471300 2.445000
6.510300 2.522200
6.549300 2.653500
6.588300 2.722500
6.627300 2.805900
6.666300 3.037800
6.705300 3.162700
6.744300 4.113900
6.783300 1.195000
6.822200 1.189800
6.861200 1.190800
6.900200 1.240200
6.939200 1.316100
6.978200 1.391000
7.017200 1.482000
7.056200 1.572800
7.095200 1.659200
7.134200 1.874700
7.173200 2.214700
7.212200 2.703000
7.251200 3.296500
7.290200 4.380300
7.329200 4.761200
7.368200 1.958200
7.407200 1.321800
7.446200 1.036900
7.485200 0.427400
7.524200 0.000000
7.563200 0.000000
7.602200 0.000000
7.641200 0.000000
7.680200 0.000000
7.719200 0.000000
7.758200 0.000000
7.797200 0.000000
7.836200 0.097800
7.875200 0.506900
7.914200 0.755000
7.953200 0.953500
7.992200 1.372700
8.031200 1.648900
8.070200 1.938100
8.109200 2.255500
8.148200 2.414300
8.187200 2.545300
8.226200 2.770300
8.265200 2.754300
8.304200 2.839400
8.343200 2.963300
8.382200 3.327900
8.421200 2.752400
8.460200 2.196600
8.499200 1.821300
8.538200 1.747700
8.577200 1.733700
8.616200 2.018100
8.655200 2.523300
8.694200 3.096900
8.733200 3.203600
8.772200 3.338500
8.811200 3.224400
8.850200 2.730800
8.889200 2.250700
8.928200 1.829300
8.967200 1.537900
9.006200 1.364400
9.045200 1.222100
9.084200 1.102000
9.123200 1.002100
9.162200 0.914300
9.201200 0.863400
9.240200 0.904600
9.279200 0.956100
9.318200 1.017600
9.357200 1.104500
9.396200 1.246400
9.435200 1.453200
9.474200 1.749500
9.513200 2.088300
9.552200 2.072300
9.591200 1.922400
9.630200 1.847800
9.669200 1.824300
9.708200 1.869600
9.747200 1.807700
9.786100 1.633400
9.825100 1.343600
9.864100 1.111900
9.903100 0.950000
9.942100 0.811500
9.981100 0.685600
10.020100 0.642000
10.059100 0.576200
10.098100 0.440800
10.137100 0.326800
10.176100 0.241900
10.215100 0.147000
10.254100 0.051600
10.293100 0.012500
10.332100 0.000600
10.371100 0.000100
10.410100 0.001600
10.449100 0.004700
10.488100 0.009600
10.527100 0.016100
10.566100 0.024300
10.605100 0.034100
10.644100 0.045700
10.683100 0.062500
10.722100 0.107200
10.761100 0.127900
10.800100 0.125600
10.839100 0.140100
10.878100 0.154300
10.917100 0.168100
10.956100 0.183200
10.995100 0.199500
11.034100 0.217200
11.073100 0.235900
11.112100 0.255300
11.151100 0.275100
11.190100 0.295500
11.229100 0.317000
11.268100 0.342000
11.307100 0.369300
11.346100 0.399200
11.385100 0.425300
11.424100 0.449000
11.463100 0.469500
11.502100 0.482900
11.541100 0.488500
11.580100 0.493600
11.619100 0.498500
11.658100 0.529200
11.697100 0.570100
11.736100 0.638000
11.775100 0.730100
11.814100 0.814700
11.853100 0.888900
11.892100 0.955800
11.931100 1.020900
11.970100 1.112100
12.009100 1.231200
12.048100 1.340900
12.087100 1.452800
12.126100 1.559700
12.165100 1.616900
12.204100 1.625300
12.243100 1.607800
12.282100 1.589100
12.321100 1.599400
12.360100 1.632400
12.399100 1.690300
12.438100 1.769200
12.477100 1.874200
12.516100 1.938000
12.555100 1.970100
12.594100 1.881800
12.633100 1.896600
12.672100 1.952300
12.711000 1.929700
12.750000 1.881400
12.789000 1.804900
12.828000 1.808400
12.867000 1.850600
12.906000 1.918600
12.945000 2.004200
12.984000 2.115700
13.023000 2.287200
13.062000 2.445300
13.101000 2.552800
13.140000 2.580600
13.179000 2.597300
13.218000 2.531400
13.257000 2.483600
13.296000 2.417700
13.335000 2.411200
13.374000 2.181600
13.413000 1.994100
13.452000 1.890800
13.491000 1.871500
13.530000 1.803200
13.569000 1.772200
13.608000 1.755700
13.647000 1.751100
13.686000 1.715900
13.725000 1.824900
13.764000 1.950500
13.803000 2.066900
13.842000 2.130200
13.881000 2.136800
13.920000 2.110200
13.959000 2.078200
13.998000 1.996300
14.037000 1.895100
14.076000 1.916000
14.115000 1.968100
14.154000 1.858000
14.193000 1.746400
14.232000 1.825600
14.271000 1.862700
14.310000 1.900800
14.349000 1.960500
14.388000 2.042000
14.427000 2.170300
14.466000 2.344000
14.505000 2.598100
14.544000 2.674400
14.583000 2.606400
14.622000 2.234700
14.661000 2.073700
14.700000 1.864200
14.739000 1.723600
14.778000 1.714600
14.817000 1.878400
14.856000 1.874000
14.895000 1.898400
14.934000 1.985200
14.973000 2.016900
15.012000 2.072900
15.051000 2.046600
15.090000 2.017400
15.129000 2.044200
15.168000 2.139800
15.207000 2.245800
15.246000 2.382400
15.285000 2.342900
15.324000 2.299200
15.363000 2.254000
15.402000 2.261900
15.441000 2.304400
15.480000 2.378400
15.519000 2.488300
15.558000 2.633500
15.597000 2.802100
15.636000 2.894000
15.674900 2.901300
15.713900 2.818100
15.752900 2.866700
15.791900 2.995200
15.830900 3.160600
15.869900 3.174200
15.908900 3.187900
15.947900 3.286100
15.986900 3.134700
16.025900 3.113500
16.064900 3.015700
16.103900 2.886100
16.142900 2.752600
16.181900 2.708500
16.220900 2.784300
16.259900 2.866400
16.298900 2.763500
16.337900 2.920800
16.376900 3.022700
16.415900 2.771300
16.454900 2.417200
16.493900 2.218800
16.532900 2.103000
16.571900 2.071100
16.610900 2.112600
16.649900 2.133000
16.688900 2.213900
16.727900 2.394000
16.766900 2.673400
16.805900 2.560200
16.844900 2.441300
16.883900 2.474700
16.922900 2.374100
16.961900 1.768600
17.000900 1.730400
17.039900 1.765200
17.078900 1.718100
17.117900 1.697200
17.156900 1.588300
17.195900 1.728500
17.234900 2.000900
17.273900 2.201200
17.312900 2.334000
17.351900 2.243400
17.390900 2.211100
17.429900 2.117100
17.468900 2.064800
17.507900 2.120000
17.546900 2.139500
17.585900 2.067900
17.624900 1.951300
17.663900 1.786700
17.702900 1.628300
17.741900 1.503200
17.780900 1.323100
17.819900 1.291600
17.858900 1.386300
17.897900 1.573900
17.936900 1.744000
17.975900 1.892000
18.014900 2.007500
18.053900 2.212600
18.092900 2.404500
18.131900 2.747300
18.170900 3.062100
18.209900 3.113400
18.248900 3.146300
18.287900 3.181300
18.326900 3.285600
18.365900 3.202500
18.404900 2.923400
18.443900 2.739800
18.482900 2.514300
18.521900 2.325300
18.560900 2.171300
18.599900 2.108100
18.638800 2.179000
18.677800 2.041400
18.716800 2.106900
18.755800 2.247500
18.794800 2.329100
18.833800 2.402300
18.872800 2.447700
18.911800 2.437900
18.950800 2.406000
18.989800 2.379500
19.028800 2.362000
19.067800 2.330000
19.106800 2.186400
19.145800 1.875800
19.184800 1.771400
19.223800 1.719500
19.262800 1.720400
19.301800 1.718700
19.340800 1.729500
19.379800 1.769700
19.418800 1.857600
19.457800 2.086300
19.496800 2.278900
19.535800 2.386000
19.574800 2.491400
19.613800 2.566200
19.652800 2.525600
19.691800 2.516500
19.730800 2.492500
19.769800 2.388900
19.808800 2.311900
19.847800 2.149900
19.886800 2.051700
19.925800 1.995800
19.964800 1.968200
20.003800 1.940600
20.042800 1.924200
20.081800 1.912300
20.120800 1.905700
20.159800 1.997600
20.198800 2.000700
20.237800 2.018900
20.276800 2.015300
20.315800 2.046600
20.354800 2.076200
20.393800 2.112700
20.432800 2.183500
20.471800 2.090700
20.510800 1.914600
20.549800 1.831000
20.588800 1.779700
20.627800 1.742800
20.666800 1.705900
20.705800 1.678800
20.744800 1.663700
20.783800 1.618300
20.822800 1.603300
20.861800 1.591400
20.900800 1.568200
20.939800 1.513400
20.978800 1.377800
21.017800 1.290200
21.056800 1.232400
21.095800 1.191600
21.134800 1.153600
21.173800 1.126100
21.212800 1.103500
21.251800 1.084200
21.290800 1.089300
21.329800 1.117700
21.368800 1.161800
21.407800 1.218500
21.446800 1.287700
21.485800 1.357700
21.524800 1.430800
21.563800 1.508000
21.602700 1.589500
21.641700 1.614700
21.680700 1.709300
21.719700 1.872800
21.758700 2.202400
21.797700 2.825000
21.836700 4.014500
21.875700 7.368600
21.914700 7.125900
21.953700 4.431500
21.992700 3.840200
22.031700 3.373400
22.070700 3.095600
22.109700 2.960000
22.148700 2.926400
22.187700 3.039600
22.226700 3.302900
22.265700 3.347400
22.304700 3.105200
22.343700 2.790900
22.382700 2.401600
22.421700 2.144400
22.460700 1.927200
22.499700 1.728200
22.538700 1.641000
22.577700 1.575700
22.616700 1.502600
22.655700 1.462300
22.694700 1.449800
22.733700 1.473700
22.772700 1.478900
22.811700 1.458400
22.850700 1.480900
22.889700 1.546500
22.928700 1.603900
22.967700 1.659600
23.006700 1.704300
23.045700 1.817800
23.084700 1.930300
23.123700 1.992500
23.162700 2.013000
23.201700 2.036700
23.240700 2.112700
23.279700 2.148000
23.318700 2.193000
23.357700 2.245000
23.396700 2.271100
23.435700 2.329500
23.474700 2.350500
23.513700 2.296400
23.552700 2.153100
23.591700 1.850400
23.630700 1.643400
23.669700 1.521600
23.708700 1.493400
23.747700 1.457500
23.786700 1.438600
23.825700 1.436100
23.864700 1.456200
23.903700 1.431300
23.942700 1.446700
23.981700 1.483000
24.020700 1.522100
24.059700 1.557300
24.098700 1.552700
24.137700 1.464300
24.176700 1.488800
24.215700 1.535000
24.254700 1.595200
24.293700 1.682100
24.332700 1.819100
24.371700 1.945300
24.410700 2.091100
24.449700 2.123600
24.488700 2.158900
24.527700 2.199000
24.566600 2.226100
24.605600 2.264700
24.644600 2.319600
24.683600 2.363600
24.722600 2.430500
24.761600 2.380600
24.800600 2.406900
24.839600 2.430000
24.878600 2.411900
24.917600 2.354400
24.956600 2.307800
24.995600 2.162100
25.034600 1.974900
25.073600 1.765100
25.112600 1.572900
25.151600 1.459200
25.190600 1.369600
25.229600 1.247800
25.268600 1.238100
25.307600 1.270100
25.346600 1.346900
25.385600 1.455000
25.424600 1.587600
25.463600 1.709100
25.502600 1.834300
25.541600 1.960200
25.580600 2.104900
25.619600 2.266300
25.658600 2.431000
25.697600 2.669200
25.736600 2.841700
25.775600 2.782700
25.814600 2.707300
25.853600 2.545100
25.892600 2.404700
25.931600 2.319000
25.970600 2.338800
26.009600 2.380000
26.048600 2.412900
26.087600 2.412600
26.126600 2.489500
26.165600 2.543500
26.204600 2.575000
26.243600 2.620300
26.282600 2.637000
26.321600 2.657900
26.360600 2.665600
26.399600 2.509200
26.438600 2.407000
26.477600 2.259500
26.516600 2.123100
26.555600 2.043600
26.594600 2.056300
26.633600 2.116300
26.672600 2.216500
26.711600 2.240400
26.750600 2.314700
26.789600 2.523300
26.828600 2.639500
26.867600 2.507300
26.906600 2.487600
26.945600 2.451500
26.984600 2.411000
27.023600 2.373400
27.062600 2.356100
27.101600 2.293300
27.140600 2.211500
27.179600 2.160900
27.218600 2.125200
27.257600 2.065800
27.296600 1.924900
27.335600 1.836500
27.374600 1.792900
27.413600 1.809400
27.452600 1.892500
27.491500 1.980800
27.530500 2.107600
27.569500 2.319800
27.608500 2.222000
27.647500 2.005200
27.686500 1.913400
27.725500 1.925700
27.764500 1.961900
27.803500 2.064600
27.842500 2.209800
27.881500 2.461400
27.920500 2.730800
27.959500 2.985700
27.998500 3.008600
28.037500 2.902700
28.076500 2.647100
28.115500 2.467100
28.154500 2.250500
28.193500 2.083400
28.232500 2.097400
28.271500 2.230800
28.310500 2.192700
28.349500 1.990100
28.388500 2.022800
28.427500 2.057100
28.466500 2.209000
28.505500 2.330600
28.544500 2.509000
28.583500 2.334900
28.622500 2.076400
28.661500 1.985000
28.700500 1.949200
28.739500 1.927400
28.778500 2.022300
28.817500 2.113500
28.856500 2.137200
28.895500 2.191700
28.934500 2.254300
28.973500 2.392800
29.012500 2.407000
29.051500 2.476500
29.090500 2.550300
29.129500 2.782400
29.168500 2.733300
29.207500 2.712800
29.246500 2.717600
29.285500 2.646200
29.324500 2.569600
29.363500 2.519100
29.402500 2.512200
29.441500 2.464200
29.480500 2.333400
29.519500 2.281300
29.558500 2.237200
29.597500 2.202700
29.636500 2.170000
29.675500 2.185800
29.714500 2.304500
29.753500 2.555500
29.792500 2.759100
29.831500 2.771800
29.870500 2.721300
29.909500 3.059900
29.948500 2.997200
29.987500 2.840600
30.026500 2.673600
30.065500 2.558200
30.104500 2.509000
30.143500 2.476800
30.182500 2.475800
30.221500 2.498800
30.260500 2.425700
30.299500 2.358700
30.338500 2.315000
30.377500 2.349100
30.416500 2.480500
30.455400 2.576500
30.494400 2.713100
30.533400 2.804700
30.572400 2.844500
30.611400 2.855200
30.650400 2.870400
30.689400 2.897800
30.728400 2.827700
30.767400 2.669800
30.806400 2.653100
30.845400 2.571300
30.884400 2.488800
30.923400 2.397200
30.962400 2.356900
31.001400 2.271400
31.040400 2.182800
31.079400 2.243800
31.118400 2.264900
31.157400 2.296900
31.196400 2.357700
31.235400 2.323600
31.274400 2.284400
31.313400 2.180600
31.352400 2.269300
31.391400 2.142800
31.430400 2.152900
31.469400 2.209500
31.508400 2.066600
31.547400 1.936000
31.586400 1.997800
31.625400 2.072700
31.664400 2.311600
31.703400 2.323600
31.742400 2.447000
31.781400 2.592000
31.820400 2.571800
31.859400 2.594000
31.898400 2.599100
31.937400 2.588900
31.976400 2.597200
32.015400 2.816500
32.054400 3.040400
32.093400 3.157200
32.132400 3.071300
32.171400 3.037000
32.210400 3.007600
32.249400 2.975600
32.288400 2.846600
32.327400 2.708300
32.366400 2.587900
32.405400 2.562700
32.444400 2.624400
32.483400 2.899900
32.522400 2.814100
32.561400 2.940100
32.600400 2.888000
32.639400 2.652200
32.678400 2.627900
32.717400 2.650400
32.756400 2.677200
32.795400 2.595300
32.834400 2.385500
32.873400 2.214200
32.912400 2.036400
32.951400 1.957400
32.990400 1.893900
33.029400 1.875900
33.068400 2.157500
33.107400 2.367100
33.146400 2.367600
33.185400 2.361700
33.224400 2.465300
33.263400 2.568000
33.302400 2.667800
33.341400 2.750700
33.380400 2.779700
33.419300 2.801600
33.458300 2.722100
33.497300 2.761100
33.536300 2.647800
33.575300 2.596300
33.614300 2.572000
33.653300 2.655700
33.692300 2.622400
33.731300 2.439500
33.770300 2.301800
33.809300 2.187800
33.848300 2.083200
33.887300 2.099700
33.926300 2.058300
33.965300 2.178200
34.004300 2.151300
34.043300 2.126900
34.082300 2.106600
34.121300 2.131100
34.160300 2.209000
34.199300 2.195400
34.238300 2.241000
34.277300 2.288300
34.316300 2.418500
34.355300 2.604100
34.394300 2.633600
34.433300 2.432100
34.472300 2.299000
34.511300 2.246000
34.550300 2.278600
34.589300 2.372000
34.628300 2.446400
34.667300 2.511100
34.706300 2.578100
34.745300 2.478200
34.784300 2.328100
34.823300 2.162300
34.862300 2.102000
34.901300 2.102100
34.940300 2.093300
34.979300 1.773600
35.018300 1.675900
35.057300 1.653000
35.096300 1.637100
35.135300 1.633000
35.174300 1.686200
35.213300 1.664900
35.252300 1.724400
35.291300 1.828100
35.330300 1.929600
35.369300 2.098000
35.408300 2.283000
35.447300 2.511600
35.486300 2.706900
35.525300 2.769500
35.564300 2.798800
35.603300 2.865700
35.642300 2.913000
35.681300 2.857100
35.720300 2.833700
35.759300 2.813000
35.798300 2.684300
35.837300 2.591900
35.876300 2.645300
35.915300 2.686700
35.954300 2.669500
35.993300 2.649600
36.032300 2.635100
36.071300 2.611100
36.110300 2.584100
36.149300 2.447000
36.188300 2.407600
36.227300 2.387900
36.266300 2.401900
36.305300 2.533600
36.344300 2.581300
36.383200 2.571800
36.422200 2.332800
36.461200 2.363300
36.500200 2.423200
36.539200 2.414600
36.578200 2.446100
36.617200 2.476100
36.656200 2.482000
36.695200 2.606500
36.734200 2.853900
36.773200 2.844600
36.812200 2.611200
36.851200 2.555200
36.890200 2.450800
36.929200 2.300700
36.968200 2.305900
37.007200 2.349700
37.046200 2.394600
37.085200 2.418700
37.124200 2.381800
37.163200 2.355500
37.202200 2.644000
37.241200 2.436800
37.280200 2.441100
37.319200 2.410400
37.358200 2.454900
37.397200 2.571200
37.436200 2.679400
37.475200 2.598100
37.514200 2.596500
37.553200 2.676900
37.592200 2.867100
37.631200 3.027800
37.670200 3.013500
37.709200 2.997700
37.748200 2.983500
37.787200 2.894400
37.826200 2.875100
37.865200 2.944900
37.904200 3.081800
37.943200 3.262800
37.982200 3.226800
38.021200 3.186000
38.060200 3.121800
38.099200 3.000700
38.138200 2.909400
38.177200 2.716100
38.216200 2.599500
38.255200 2.544000
38.294200 2.431800
38.333200 2.460200
38.372200 2.476800
38.411200 2.508000
38.450200 2.517200
38.489200 2.479200
38.528200 2.411800
38.567200 2.336500
38.606200 2.255400
38.645200 2.194300
38.684200 2.242500
38.723200 2.374000
38.762200 2.407700
38.801200 2.415200
38.840200 2.410400
38.879200 2.493600
38.918200 2.547000
38.957200 2.628300
38.996200 2.582600
39.035200 2.381700
39.074200 2.217900
39.113200 2.116600
39.152200 2.011200
39.191200 1.809800
39.230200 1.579400
39.269200 1.413800
39.308200 1.299400
39.347100 1.170100
39.386100 1.072700
39.425100 0.980000
39.464100 0.847500
39.503100 0.713100
39.542100 0.612800
39.581100 0.551000
39.620100 0.505900
39.659100 0.470600
39.698100 0.441900
39.737100 0.418700
39.776100 0.394800
39.815100 0.372900
39.854100 0.350500
39.893100 0.326900
39.932100 0.303900
39.971100 0.279500
40.010100 0.245300
40.049100 0.223900
40.088100 0.212200
40.127100 0.209600
40.166100 0.186900
40.205100 0.114500
40.244100 0.084600
40.283100 0.062600
40.322100 0.040800
40.361100 0.020700
40.400100 0.006800
40.439100 0.001000
40.478100 0.000000
40.517100 0.000000
40.556100 0.000000
40.595100 0.000000
40.634100 0.000000
40.673100 0.000000
40.712100 0.000000
40.751100 0.000000
40.790100 0.000000
40.829100 0.000000
40.868100 0.000000
40.907100 0.000000
40.946100 0.000000
40.985100 0.000000
41.024100 0.000000
41.063100 0.000000
41.102100 0.000000
41.141100 0.000000
41.180100 0.000000
41.219100 0.000000
41.258100 0.000000
41.297100 0.000000
41.336100 0.000000
41.375100 0.000000
41.414100 0.000000
41.453100 0.000000
41.492100 0.000000
41.531100 0.000000
41.570100 0.000000
41.609100 0.000000
41.648100 0.000000
41.687100 0.000000
41.726100 0.000000
41.765100 0.000000
41.804100 0.000000
41.843100 0.000000
41.882100 0.000000
41.921100 0.000000
41.960100 0.000000
41.999100 0.000000
42.038100 0.000000
42.077100 0.000000
42.116100 0.000000
42.155100 0.000000
42.194100 0.000000
42.233100 0.000000
42.272100 0.000000
42.311000 0.000000
42.350000 0.000000
42.389000 0.000000
42.428000 0.000000
42.467000 0.000000
42.506000 0.000000
42.545000 0.000000
42.584000 0.000000
42.623000 0.000000
42.662000 0.000000
42.701000 0.000000
42.740000 0.000000
42.779000 0.000000
42.818000 0.000000
42.857000 0.000000
42.896000 0.000000
42.935000 0.000000
42.974000 0.000000
43.013000 0.000000
43.052000 0.000000
43.091000 0.000000
43.130000 0.000000
43.169000 0.000000
43.208000 0.000000
43.247000 0.000000
43.286000 0.000000
43.325000 0.000000
43.364000 0.000000
43.403000 0.000000
43.442000 0.000000
43.481000 0.000000
43.520000 0.000000
43.559000 0.000000
43.598000 0.000000
43.637000 0.000000
43.676000 0.000000
43.715000 0.000000
43.754000 0.000000
43.793000 0.000000
43.832000 0.000000
43.871000 0.000000
43.910000 0.000000
43.949000 0.000000
43.988000 0.000000
44.027000 0.000000
e
