set title 'mp-1080242 - Density of States'
set xlabel 'Energy (eV)'
set ylabel 'DOS (states/eV)'
set grid
set xrange [-10:10]
set yrange [0:20.888]
set xzeroaxis lt -1
set terminal png size 800,600
set output 'mp-1080242_dos_gnuplot.png'
plot '-' using 1:2 with lines title 'DOS'
-20.444400 0.000000
-20.421200 0.000000
-20.398000 0.000000
-20.374900 0.000000
-20.351700 0.000000
-20.328500 0.000000
-20.305300 0.000000
-20.282200 0.000000
-20.259000 0.000000
-20.235800 0.000000
-20.212700 0.000000
-20.189500 0.000000
-20.166300 0.000000
-20.143200 0.000000
-20.120000 0.000000
-20.096800 0.000000
-20.073600 0.000000
-20.050500 0.000000
-20.027300 0.000000
-20.004100 0.000000
-19.981000 0.000000
-19.957800 0.000000
-19.934600 0.000000
-19.911500 0.000000
-19.888300 0.000000
-19.865100 0.000000
-19.842000 0.000000
-19.818800 0.000000
-19.795600 0.000000
-19.772400 0.000000
-19.749300 0.000000
-19.726100 0.000000
-19.702900 0.000000
-19.679800 0.000000
-19.656600 0.000000
-19.633400 0.000000
-19.610300 0.000000
-19.587100 0.000000
-19.563900 0.000000
-19.540700 0.000000
-19.517600 0.000000
-19.494400 0.000000
-19.471200 0.000000
-19.448100 0.000000
-19.424900 0.000000
-19.401700 0.000000
-19.378600 0.000000
-19.355400 0.000000
-19.332200 0.000000
-19.309000 0.000000
-19.285900 0.000000
-19.262700 0.000000
-19.239500 0.000000
-19.216400 0.000000
-19.193200 0.000000
-19.170000 0.000000
-19.146900 0.000000
-19.123700 0.000000
-19.100500 0.000000
-19.077400 0.000000
-19.054200 0.000000
-19.031000 0.000000
-19.007800 0.000000
-18.984700 0.000000
-18.961500 0.000000
-18.938300 0.000000
-18.915200 0.000000
-18.892000 0.000000
-18.868800 0.000000
-18.845700 0.000000
-18.822500 0.000000
-18.799300 0.000000
-18.776100 0.000000
-18.753000 0.000000
-18.729800 0.000000
-18.706600 0.000000
-18.683500 0.000000
-18.660300 0.000000
-18.637100 0.000000
-18.614000 0.000000
-18.590800 0.000000
-18.567600 0.000000
-18.544400 0.000000
-18.521300 0.000000
-18.498100 0.000000
-18.474900 0.000000
-18.451800 0.000000
-18.428600 0.000000
-18.405400 0.000000
-18.382300 0.000000
-18.359100 0.000000
-18.335900 48.969200
-18.312700 0.000000
-18.289600 0.000000
-18.266400 0.000000
-18.243200 0.000000
-18.220100 0.000000
-18.196900 0.000000
-18.173700 0.000000
-18.150600 0.000000
-18.127400 0.000000
-18.104200 0.000000
-18.081100 0.000000
-18.057900 0.000000
-18.034700 0.000000
-18.011500 0.000000
-17.988400 0.000000
-17.965200 0.000000
-17.942000 0.000000
-17.918900 0.000000
-17.895700 0.000000
-17.872500 0.000000
-17.849400 0.000000
-17.826200 0.000000
-17.803000 0.000000
-17.779800 0.000000
-17.756700 0.000000
-17.733500 0.000000
-17.710300 0.000000
-17.687200 0.000000
-17.664000 0.000000
-17.640800 0.000000
-17.617700 0.000000
-17.594500 0.000000
-17.571300 0.000000
-17.548100 0.000000
-17.525000 0.000000
-17.501800 0.000000
-17.478600 0.000000
-17.455500 0.000000
-17.432300 0.000000
-17.409100 0.000000
-17.386000 0.000000
-17.362800 0.000000
-17.339600 0.000000
-17.316500 0.000000
-17.293300 0.000000
-17.270100 0.000000
-17.246900 0.000000
-17.223800 0.000000
-17.200600 0.000000
-17.177400 0.000000
-17.154300 0.000000
-17.131100 0.000000
-17.107900 0.000000
-17.084800 0.000000
-17.061600 0.000000
-17.038400 0.000000
-17.015200 0.000000
-16.992100 0.000000
-16.968900 0.000000
-16.945700 0.000000
-16.922600 0.000000
-16.899400 0.000000
-16.876200 0.000000
-16.853100 0.000000
-16.829900 0.000000
-16.806700 0.000000
-16.783500 0.000000
-16.760400 0.000000
-16.737200 0.000000
-16.714000 0.000000
-16.690900 0.000000
-16.667700 0.000000
-16.644500 0.000000
-16.621400 0.000000
-16.598200 0.000000
-16.575000 0.000000
-16.551900 0.000000
-16.528700 0.000000
-16.505500 0.000000
-16.482300 0.000000
-16.459200 0.000000
-16.436000 0.000000
-16.412800 0.000000
-16.389700 0.000000
-16.366500 0.000000
-16.343300 0.000000
-16.320200 0.000000
-16.297000 0.000000
-16.273800 0.000000
-16.250600 0.000000
-16.227500 0.000000
-16.204300 0.000000
-16.181100 0.000000
-16.158000 0.000000
-16.134800 0.000000
-16.111600 0.000000
-16.088500 0.000000
-16.065300 0.000000
-16.042100 0.000000
-16.018900 0.000000
-15.995800 0.000000
-15.972600 0.000000
-15.949400 0.000000
-15.926300 0.000000
-15.903100 0.000000
-15.879900 0.000000
-15.856800 0.000000
-15.833600 0.000000
-15.810400 0.000000
-15.787300 0.000000
-15.764100 0.000000
-15.740900 0.000000
-15.717700 0.000000
-15.694600 0.000000
-15.671400 0.000000
-15.648200 0.000000
-15.625100 0.000000
-15.601900 0.000000
-15.578700 0.000000
-15.555600 0.000000
-15.532400 0.000000
-15.509200 0.000000
-15.486000 0.000000
-15.462900 0.000000
-15.439700 0.000000
-15.416500 0.000000
-15.393400 0.000000
-15.370200 0.000000
-15.347000 0.000000
-15.323900 0.000000
-15.300700 0.000000
-15.277500 0.000000
-15.254300 0.000000
-15.231200 0.000000
-15.208000 0.000000
-15.184800 0.000000
-15.161700 0.000000
-15.138500 0.000000
-15.115300 0.000000
-15.092200 0.000000
-15.069000 0.000000
-15.045800 0.000000
-15.022700 0.000000
-14.999500 0.000000
-14.976300 0.000000
-14.953100 0.000000
-14.930000 0.000000
-14.906800 0.000000
-14.883600 0.000000
-14.860500 0.000000
-14.837300 0.000000
-14.814100 0.000000
-14.791000 0.000000
-14.767800 0.000000
-14.744600 0.000000
-14.721400 0.000000
-14.698300 0.000000
-14.675100 0.000000
-14.651900 0.000000
-14.628800 0.000000
-14.605600 0.000000
-14.582400 0.000000
-14.559300 0.000000
-14.536100 0.000000
-14.512900 0.000000
-14.489700 0.000000
-14.466600 0.000000
-14.443400 0.000000
-14.420200 0.000000
-14.397100 0.000000
-14.373900 0.000000
-14.350700 0.000000
-14.327600 0.000000
-14.304400 0.000000
-14.281200 0.000000
-14.258000 0.000000
-14.234900 0.000000
-14.211700 0.000000
-14.188500 0.000000
-14.165400 0.000000
-14.142200 0.000000
-14.119000 0.000000
-14.095900 0.000000
-14.072700 0.000000
-14.049500 0.000000
-14.026400 0.000000
-14.003200 0.000000
-13.980000 0.000000
-13.956800 0.000000
-13.933700 0.000000
-13.910500 0.000000
-13.887300 0.000000
-13.864200 0.000000
-13.841000 0.000000
-13.817800 0.000000
-13.794700 0.000000
-13.771500 0.000000
-13.748300 0.000000
-13.725100 0.000000
-13.702000 0.000000
-13.678800 0.000000
-13.655600 0.000000
-13.632500 0.000000
-13.609300 0.000000
-13.586100 0.000000
-13.563000 0.000000
-13.539800 0.000000
-13.516600 0.000000
-13.493400 0.000000
-13.470300 0.000000
-13.447100 0.000000
-13.423900 0.000000
-13.400800 0.000000
-13.377600 0.000000
-13.354400 0.000000
-13.331300 0.000000
-13.308100 0.000000
-13.284900 0.000000
-13.261800 0.000000
-13.238600 0.000000
-13.215400 0.000000
-13.192200 0.000000
-13.169100 0.000000
-13.145900 0.000000
-13.122700 0.000000
-13.099600 0.000000
-13.076400 0.000000
-13.053200 0.000000
-13.030100 0.000000
-13.006900 0.000000
-12.983700 0.000000
-12.960500 0.000000
-12.937400 0.000000
-12.914200 0.000000
-12.891000 0.000000
-12.867900 0.000000
-12.844700 0.000000
-12.821500 0.000000
-12.798400 0.000000
-12.775200 0.000000
-12.752000 0.000000
-12.728800 0.000000
-12.705700 0.000000
-12.682500 0.000000
-12.659300 0.000000
-12.636200 0.000000
-12.613000 0.000000
-12.589800 0.000000
-12.566700 0.000000
-12.543500 0.000000
-12.520300 0.000000
-12.497200 0.000000
-12.474000 0.000000
-12.450800 160.816700
-12.427600 86.101200
-12.404500 0.000000
-12.381300 0.000000
-12.358100 0.000000
-12.335000 0.000000
-12.311800 0.000000
-12.288600 0.000000
-12.265500 0.000000
-12.242300 0.000000
-12.219100 0.000000
-12.195900 0.000000
-12.172800 0.000000
-12.149600 0.000000
-12.126400 0.000000
-12.103300 0.000000
-12.080100 0.000000
-12.056900 53.144600
-12.033800 32.212200
-12.010600 30.642700
-11.987400 42.541700
-11.964200 48.488200
-11.941100 90.426500
-11.917900 99.723700
-11.894700 130.817700
-11.871600 126.350400
-11.848400 115.035900
-11.825200 119.601900
-11.802100 130.577100
-11.778900 69.357600
-11.755700 73.973400
-11.732600 5.609800
-11.709400 0.000000
-11.686200 0.000000
-11.663000 0.000000
-11.639900 0.000000
-11.616700 0.000000
-11.593500 0.000000
-11.570400 0.000000
-11.547200 0.000000
-11.524000 0.000000
-11.500900 0.000000
-11.477700 0.000000
-11.454500 0.000000
-11.431300 0.000000
-11.408200 0.000000
-11.385000 0.000000
-11.361800 0.000000
-11.338700 0.000000
-11.315500 0.000000
-11.292300 0.000000
-11.269200 0.000000
-11.246000 0.000000
-11.222800 0.000000
-11.199600 0.000000
-11.176500 0.000000
-11.153300 0.000000
-11.130100 0.000000
-11.107000 0.000000
-11.083800 48.476200
-11.060600 25.651700
-11.037500 25.832800
-11.014300 29.214300
-10.991100 29.099200
-10.967900 0.000000
-10.944800 0.000000
-10.921600 0.000000
-10.898400 0.000000
-10.875300 0.000000
-10.852100 0.000000
-10.828900 0.000000
-10.805800 0.000000
-10.782600 0.000000
-10.759400 0.000000
-10.736300 0.000000
-10.713100 0.000000
-10.689900 0.000000
-10.666700 0.000000
-10.643600 0.000000
-10.620400 0.000000
-10.597200 0.000000
-10.574100 0.000000
-10.550900 0.000000
-10.527700 0.000000
-10.504600 0.000000
-10.481400 0.000000
-10.458200 0.000000
-10.435000 0.000000
-10.411900 0.000000
-10.388700 0.000000
-10.365500 0.000000
-10.342400 0.000000
-10.319200 0.000000
-10.296000 0.000000
-10.272900 0.000000
-10.249700 0.000000
-10.226500 0.000000
-10.203300 0.000000
-10.180200 0.000000
-10.157000 0.000000
-10.133800 0.000000
-10.110700 0.000000
-10.087500 0.000000
-10.064300 0.000000
-10.041200 0.000000
-10.018000 0.000000
-9.994800 0.000000
-9.971700 0.000000
-9.948500 0.000000
-9.925300 0.000000
-9.902100 0.000000
-9.879000 0.000000
-9.855800 0.000000
-9.832600 0.000000
-9.809500 0.000000
-9.786300 0.000000
-9.763100 0.000000
-9.740000 0.000000
-9.716800 0.000000
-9.693600 0.000000
-9.670400 0.000000
-9.647300 0.000000
-9.624100 0.000000
-9.600900 0.000000
-9.577800 0.000000
-9.554600 0.000000
-9.531400 0.000000
-9.508300 0.000000
-9.485100 0.000000
-9.461900 0.000000
-9.438700 0.000000
-9.415600 0.000000
-9.392400 0.000000
-9.369200 0.000000
-9.346100 0.000000
-9.322900 0.000000
-9.299700 0.000000
-9.276600 0.000000
-9.253400 0.000000
-9.230200 0.000000
-9.207100 0.000000
-9.183900 0.000000
-9.160700 0.000000
-9.137500 0.000000
-9.114400 0.000000
-9.091200 0.000000
-9.068000 0.000000
-9.044900 0.000000
-9.021700 0.000000
-8.998500 0.000000
-8.975400 0.000000
-8.952200 0.000000
-8.929000 0.000000
-8.905800 0.000000
-8.882700 0.000000
-8.859500 0.000000
-8.836300 0.000000
-8.813200 0.000000
-8.790000 0.000000
-8.766800 0.000000
-8.743700 0.000000
-8.720500 0.000000
-8.697300 0.000000
-8.674100 0.000000
-8.651000 0.000000
-8.627800 0.000000
-8.604600 0.000000
-8.581500 0.000000
-8.558300 0.000000
-8.535100 0.000000
-8.512000 0.000000
-8.488800 0.000000
-8.465600 0.000000
-8.442500 0.000000
-8.419300 0.000000
-8.396100 0.000000
-8.372900 0.000000
-8.349800 0.000000
-8.326600 0.000000
-8.303400 0.000000
-8.280300 0.000000
-8.257100 0.000000
-8.233900 0.000000
-8.210800 0.000000
-8.187600 0.000000
-8.164400 0.000000
-8.141200 0.000000
-8.118100 0.000000
-8.094900 0.000000
-8.071700 0.000000
-8.048600 0.000000
-8.025400 0.000000
-8.002200 0.000000
-7.979100 0.000000
-7.955900 0.000000
-7.932700 0.000000
-7.909500 0.000000
-7.886400 0.000000
-7.863200 0.000000
-7.840000 0.000000
-7.816900 0.000000
-7.793700 0.000000
-7.770500 0.000000
-7.747400 0.000000
-7.724200 0.000000
-7.701000 0.000000
-7.677900 0.000000
-7.654700 0.000000
-7.631500 0.000000
-7.608300 0.000000
-7.585200 0.000000
-7.562000 0.000000
-7.538800 0.000000
-7.515700 0.000000
-7.492500 0.000000
-7.469300 0.000000
-7.446200 0.000000
-7.423000 0.000000
-7.399800 0.000000
-7.376600 0.000000
-7.353500 0.000000
-7.330300 0.000000
-7.307100 0.000000
-7.284000 0.000000
-7.260800 0.000000
-7.237600 0.000000
-7.214500 0.000000
-7.191300 0.000000
-7.168100 0.000000
-7.144900 0.000000
-7.121800 0.000000
-7.098600 0.000000
-7.075400 0.000000
-7.052300 0.000000
-7.029100 0.000000
-7.005900 0.000000
-6.982800 0.000000
-6.959600 0.000000
-6.936400 0.000000
-6.913200 0.000000
-6.890100 0.000000
-6.866900 0.000000
-6.843700 0.000000
-6.820600 0.000000
-6.797400 0.000000
-6.774200 0.000000
-6.751100 0.000000
-6.727900 0.000000
-6.704700 0.000000
-6.681600 0.000000
-6.658400 0.000000
-6.635200 0.000000
-6.612000 0.000000
-6.588900 0.000000
-6.565700 0.000000
-6.542500 0.000000
-6.519400 0.000000
-6.496200 0.000000
-6.473000 0.000000
-6.449900 0.000000
-6.426700 0.000000
-6.403500 0.000000
-6.380300 0.000000
-6.357200 0.000000
-6.334000 0.000000
-6.310800 0.000000
-6.287700 0.000000
-6.264500 0.000000
-6.241300 0.000000
-6.218200 0.000000
-6.195000 0.000000
-6.171800 0.000000
-6.148600 0.000000
-6.125500 0.000000
-6.102300 0.000000
-6.079100 0.000000
-6.056000 0.000000
-6.032800 0.000000
-6.009600 0.000000
-5.986500 0.000000
-5.963300 0.000000
-5.940100 0.000000
-5.917000 0.000000
-5.893800 0.013500
-5.870600 0.082700
-5.847400 0.209700
-5.824300 0.324000
-5.801100 0.380300
-5.777900 0.393900
-5.754800 0.422000
-5.731600 0.470300
-5.708400 0.527600
-5.685300 0.587700
-5.662100 0.642200
-5.638900 0.677500
-5.615700 0.696800
-5.592600 0.721800
-5.569400 0.756600
-5.546200 0.794900
-5.523100 0.833300
-5.499900 0.871700
-5.476700 0.910200
-5.453600 0.948900
-5.430400 0.990700
-5.407200 1.036800
-5.384000 1.086500
-5.360900 1.138400
-5.337700 1.190400
-5.314500 1.242300
-5.291400 1.295200
-5.268200 1.349300
-5.245000 1.404700
-5.221900 1.461000
-5.198700 1.520300
-5.175500 1.701700
-5.152400 1.985400
-5.129200 2.160000
-5.106000 2.028500
-5.082800 1.922700
-5.059700 1.919800
-5.036500 1.926700
-5.013300 1.927700
-4.990200 1.922700
-4.967000 1.878700
-4.943800 1.811100
-4.920700 1.778400
-4.897500 1.759800
-4.874300 1.740300
-4.851100 1.719600
-4.828000 1.697800
-4.804800 1.675300
-4.781600 1.654100
-4.758500 1.632300
-4.735300 1.611600
-4.712100 1.587700
-4.689000 1.559700
-4.665800 1.527800
-4.642600 1.493400
-4.619400 1.456600
-4.596300 1.420500
-4.573100 1.379100
-4.549900 1.338200
-4.526800 1.295000
-4.503600 1.517900
-4.480400 1.164600
-4.457300 0.981400
-4.434100 0.901200
-4.410900 0.827500
-4.387800 0.754400
-4.364600 0.669100
-4.341400 0.606700
-4.318200 0.559600
-4.295100 0.512400
-4.271900 0.467200
-4.248700 0.424300
-4.225600 0.384500
-4.202400 0.346400
-4.179200 0.308700
-4.156100 0.272900
-4.132900 0.236700
-4.109700 0.202300
-4.086500 0.170300
-4.063400 0.140600
-4.040200 0.113300
-4.017000 0.062600
-3.993900 0.002900
-3.970700 0.000000
-3.947500 0.000000
-3.924400 0.562700
-3.901200 1.363400
-3.878000 1.336300
-3.854800 1.690600
-3.831700 1.958000
-3.808500 2.265700
-3.785300 2.645900
-3.762200 4.077000
-3.739000 4.882000
-3.715800 5.510000
-3.692700 6.087700
-3.669500 10.905700
-3.646300 4.829600
-3.623200 3.456200
-3.600000 3.408700
-3.576800 3.611500
-3.553600 3.642700
-3.530500 3.644200
-3.507300 3.647400
-3.484100 3.337900
-3.461000 3.017800
-3.437800 3.471600
-3.414600 2.866300
-3.391500 2.610900
-3.368300 2.635300
-3.345100 2.713500
-3.321900 2.727700
-3.298800 2.836700
-3.275600 2.678700
-3.252400 2.361700
-3.229300 2.318600
-3.206100 2.278500
-3.182900 2.262400
-3.159800 2.237900
-3.136600 2.214700
-3.113400 2.187200
-3.090200 2.169400
-3.067100 2.157700
-3.043900 2.150500
-3.020700 2.163300
-2.997600 2.224200
-2.974400 2.710900
-2.951200 2.135200
-2.928100 2.161100
-2.904900 2.222600
-2.881700 2.133200
-2.858500 2.034500
-2.835400 2.001700
-2.812200 1.976300
-2.789000 1.954900
-2.765900 1.980100
-2.742700 1.924200
-2.719500 1.870100
-2.696400 1.838400
-2.673200 1.864600
-2.650000 1.869100
-2.626900 2.302500
-2.603700 9.902600
-2.580500 13.437700
-2.557300 11.275000
-2.534200 9.908400
-2.511000 10.747600
-2.487800 9.162500
-2.464700 7.929600
-2.441500 6.549500
-2.418300 5.372300
-2.395200 5.072600
-2.372000 2.742500
-2.348800 2.092600
-2.325600 1.581200
-2.302500 1.219000
-2.279300 0.999700
-2.256100 0.816200
-2.233000 0.687200
-2.209800 0.571400
-2.186600 0.474200
-2.163500 0.392300
-2.140300 0.320400
-2.117100 0.258300
-2.093900 0.209400
-2.070800 0.191700
-2.047600 0.144400
-2.024400 0.058900
-2.001300 0.011100
-1.978100 0.000000
-1.954900 0.000000
-1.931800 0.000000
-1.908600 0.000000
-1.885400 0.000000
-1.862300 0.000000
-1.839100 0.000000
-1.815900 0.000000
-1.792700 0.000000
-1.769600 0.000000
-1.746400 0.000000
-1.723200 0.000000
-1.700100 0.000000
-1.676900 0.000000
-1.653700 3.155400
-1.630600 5.935800
-1.607400 6.700900
-1.584200 7.310700
-1.561000 8.645300
-1.537900 10.976900
-1.514700 12.207700
-1.491500 12.942600
-1.468400 14.155800
-1.445200 14.827700
-1.422000 16.906400
-1.398900 18.989500
-1.375700 18.503600
-1.352500 10.453700
-1.329300 6.359600
-1.306200 4.294400
-1.283000 3.227000
-1.259800 1.914700
-1.236700 1.260200
-1.213500 1.405900
-1.190300 1.617200
-1.167200 1.763700
-1.144000 1.787200
-1.120800 1.717000
-1.097700 1.754400
-1.074500 1.739100
-1.051300 1.837700
-1.028100 1.927900
-1.005000 2.025800
-0.981800 2.145000
-0.958600 2.288100
-0.935500 2.456500
-0.912300 2.610600
-0.889100 2.802000
-0.866000 3.015100
-0.842800 3.238700
-0.819600 3.465100
-0.796400 3.486900
-0.773300 3.714300
-0.750100 3.945400
-0.726900 4.116400
-0.703800 4.432000
-0.680600 3.706100
-0.657400 2.910000
-0.634300 2.614800
-0.611100 2.425200
-0.587900 2.423100
-0.564700 2.365200
-0.541600 2.271300
-0.518400 0.370700
-0.495200 0.000000
-0.472100 0.000000
-0.448900 0.000000
-0.425700 0.000000
-0.402600 0.000000
-0.379400 0.000000
-0.356200 0.000000
-0.333100 0.000000
-0.309900 0.000000
-0.286700 0.000000
-0.263500 0.000000
-0.240400 0.000000
-0.217200 0.000000
-0.194000 0.000000
-0.170900 0.000000
-0.147700 0.000000
-0.124500 0.000000
-0.101400 0.000000
-0.078200 0.000000
-0.055000 0.000000
-0.031800 0.000000
-0.008700 0.000000
0.014500 0.000000
0.037700 0.000000
0.060800 0.000000
0.084000 0.000000
0.107200 0.000000
0.130300 0.000000
0.153500 0.000000
0.176700 0.000000
0.199900 0.000000
0.223000 0.000000
0.246200 0.000000
0.269400 0.000000
0.292500 0.000000
0.315700 0.000000
0.338900 0.000000
0.362000 0.000000
0.385200 0.000000
0.408400 0.000000
0.431500 0.000000
0.454700 0.000000
0.477900 0.000000
0.501100 0.000000
0.524200 0.000000
0.547400 0.000000
0.570600 0.000000
0.593700 0.000000
0.616900 0.000000
0.640100 0.000000
0.663200 0.000000
0.686400 0.000000
0.709600 0.000000
0.732800 0.000000
0.755900 0.000000
0.779100 0.000000
0.802300 0.000000
0.825400 0.000000
0.848600 0.000000
0.871800 0.000000
0.894900 0.000000
0.918100 0.000000
0.941300 0.000000
0.964500 0.000000
0.987600 0.000000
1.010800 0.000000
1.034000 0.000000
1.057100 0.000000
1.080300 0.000000
1.103500 0.000000
1.126600 0.000000
1.149800 0.000000
1.173000 0.000000
1.196200 0.000000
1.219300 0.000000
1.242500 0.000000
1.265700 0.000000
1.288800 0.000000
1.312000 0.000000
1.335200 0.000000
1.358300 0.000000
1.381500 0.000000
1.404700 0.000000
1.427800 0.000000
1.451000 0.000000
1.474200 0.000000
1.497400 0.000000
1.520500 0.000000
1.543700 0.000000
1.566900 0.000000
1.590000 0.000000
1.613200 0.000000
1.636400 0.000000
1.659500 0.000000
1.682700 0.000000
1.705900 0.000000
1.729100 0.000000
1.752200 0.000000
1.775400 0.000000
1.798600 0.000000
1.821700 0.000000
1.844900 0.000000
1.868100 0.374800
1.891200 0.342300
1.914400 0.517600
1.937600 0.766500
1.960800 1.093400
1.983900 2.170700
2.007100 4.621100
2.030300 6.343600
2.053400 6.969500
2.076600 7.546800
2.099800 7.103400
2.122900 6.197100
2.146100 4.844700
2.169300 4.098000
2.192400 3.740500
2.215600 3.524100
2.238800 3.896300
2.262000 4.659500
2.285100 5.324600
2.308300 5.076200
2.331500 4.893300
2.354600 4.787600
2.377800 4.924400
2.401000 4.964300
2.424100 5.137900
2.447300 5.480700
2.470500 5.890400
2.493700 6.794200
2.516800 7.513800
2.540000 9.551900
2.563200 12.892500
2.586300 8.758900
2.609500 6.336900
2.632700 6.163100
2.655800 4.274600
2.679000 4.317800
2.702200 4.624900
2.725400 4.777300
2.748500 5.227700
2.771700 5.102200
2.794900 4.447500
2.818000 4.032700
2.841200 3.639100
2.864400 3.259700
2.887500 3.081600
2.910700 2.957300
2.933900 2.974800
2.957000 2.776600
2.980200 2.938200
3.003400 3.897400
3.026600 4.074200
3.049700 4.000200
3.072900 4.088100
3.096100 4.349000
3.119200 5.302100
3.142400 5.721100
3.165600 4.865800
3.188700 4.436800
3.211900 4.327300
3.235100 4.552800
3.258300 5.384400
3.281400 7.030600
3.304600 6.295100
3.327800 6.299700
3.350900 5.870300
3.374100 5.421500
3.397300 5.175600
3.420400 6.141500
3.443600 7.434600
3.466800 5.944200
3.490000 5.656500
3.513100 5.058500
3.536300 4.768600
3.559500 4.624000
3.582600 4.331000
3.605800 4.127100
3.629000 3.913800
3.652100 3.661200
3.675300 3.534300
3.698500 3.566600
3.721600 4.039900
3.744800 4.483300
3.768000 5.450500
3.791200 5.045100
3.814300 3.575600
3.837500 3.010000
3.860700 2.576400
3.883800 2.460700
3.907000 2.410300
3.930200 2.238600
3.953300 1.912600
3.976500 1.651500
3.999700 1.461000
4.022900 1.427600
4.046000 1.745500
4.069200 1.611100
4.092400 1.725700
4.115500 2.028800
4.138700 2.331900
4.161900 2.602400
4.185000 3.158600
4.208200 3.958300
4.231400 5.034100
4.254600 4.876200
4.277700 3.615000
4.300900 3.201800
4.324100 2.848700
4.347200 2.505600
4.370400 1.911500
4.393600 1.794200
4.416700 1.691000
4.439900 1.629500
4.463100 1.577800
4.486300 1.575400
4.509400 1.495400
4.532600 1.429000
4.555800 1.381400
4.578900 1.344100
4.602100 1.313400
4.625300 1.288500
4.648400 1.267300
4.671600 1.248300
4.694800 1.230700
4.717900 1.215000
4.741100 1.200800
4.764300 1.188300
4.787500 1.177000
4.810600 1.166800
4.833800 1.157700
4.857000 1.149900
4.880100 1.137200
4.903300 1.120700
4.926500 1.167000
4.949600 1.181400
4.972800 1.172600
4.996000 1.160800
5.019200 1.139000
5.042300 1.137100
5.065500 1.068200
5.088700 0.996700
5.111800 0.922600
5.135000 0.845100
5.158200 0.763500
5.181300 0.688400
5.204500 0.620600
5.227700 0.558400
5.250900 0.495100
5.274000 0.426800
5.297200 0.314900
5.320400 0.140000
5.343500 0.069700
5.366700 0.242900
5.389900 0.298900
5.413000 0.365700
5.436200 0.434100
5.459400 0.516100
5.482500 0.713800
5.505700 0.927600
5.528900 1.014900
5.552100 1.169400
5.575200 1.313000
5.598400 1.450200
5.621600 1.605700
5.644700 1.798300
5.667900 2.134700
5.691100 2.387100
5.714200 2.723200
5.737400 2.870500
5.760600 3.131900
5.783800 3.477300
5.806900 3.868500
5.830100 4.020100
5.853300 4.028600
5.876400 3.972100
5.899600 3.941200
5.922800 3.981600
5.945900 4.000000
5.969100 4.027600
5.992300 3.974300
6.015500 3.674300
6.038600 3.378900
6.061800 2.997400
6.085000 2.653400
6.108100 2.467800
6.131300 2.257800
6.154500 2.182800
6.177600 2.195900
6.200800 2.352100
6.224000 2.303200
6.247100 2.057000
6.270300 2.014900
6.293500 1.976700
6.316700 1.834700
6.339800 1.569100
6.363000 1.397200
6.386200 1.450000
6.409300 1.743500
6.432500 1.546300
6.455700 1.617200
6.478800 1.701100
6.502000 1.816100
6.525200 2.025000
6.548400 2.384200
6.571500 2.573500
6.594700 3.342700
6.617900 2.841400
6.641000 2.834700
6.664200 2.845000
6.687400 2.944300
6.710500 3.096000
6.733700 2.982000
6.756900 2.963000
6.780100 3.081800
6.803200 3.226500
6.826400 3.358400
6.849600 3.459200
6.872700 3.460900
6.895900 3.142700
6.919100 3.092200
6.942200 3.028800
6.965400 3.022900
6.988600 3.123200
7.011700 3.162100
7.034900 3.202200
7.058100 3.212000
7.081300 3.133100
7.104400 2.961600
7.127600 2.973500
7.150800 2.826800
7.173900 3.181300
7.197100 3.171000
7.220300 3.688900
7.243400 3.299600
7.266600 3.311800
7.289800 3.382600
7.313000 3.492600
7.336100 3.723400
7.359300 4.361300
7.382500 4.656200
7.405600 4.099000
7.428800 3.039500
7.452000 2.293000
7.475100 1.732600
7.498300 1.360400
7.521500 1.293000
7.544700 1.463300
7.567800 1.644000
7.591000 1.815000
7.614200 1.949600
7.637300 2.064900
7.660500 2.215500
7.683700 2.400000
7.706800 2.784700
7.730000 2.847200
7.753200 2.881700
7.776300 2.886600
7.799500 2.910900
7.822700 2.994100
7.845900 3.149500
7.869000 3.240000
7.892200 3.308200
7.915400 3.331900
7.938500 3.311700
7.961700 3.218000
7.984900 3.170600
8.008000 3.221700
8.031200 3.083500
8.054400 3.195600
8.077600 3.333600
8.100700 3.531000
8.123900 4.159400
8.147100 4.392300
8.170200 4.576000
8.193400 4.788800
8.216600 4.873000
8.239700 4.909800
8.262900 4.693300
8.286100 4.369000
8.309300 4.152800
8.332400 4.025600
8.355600 4.021000
8.378800 4.195000
8.401900 4.507200
8.425100 4.721700
8.448300 4.661600
8.471400 4.464500
8.494600 4.012500
8.517800 3.705800
8.541000 3.435400
8.564100 3.427100
8.587300 3.268100
8.610500 2.953800
8.633600 2.947000
8.656800 3.067900
8.680000 3.056600
8.703100 3.367600
8.726300 4.170100
8.749500 4.489300
8.772600 4.666400
8.795800 4.672300
8.819000 4.600000
8.842200 4.319900
8.865300 3.829900
8.888500 3.653300
8.911700 3.678300
8.934800 3.690400
8.958000 3.267100
8.981200 3.317200
9.004300 3.377000
9.027500 3.663100
9.050700 3.803500
9.073900 3.724000
9.097000 3.627500
9.120200 3.508200
9.143400 3.305900
9.166500 3.216500
9.189700 3.158800
9.212900 3.213400
9.236000 3.175500
9.259200 2.958300
9.282400 2.812100
9.305600 2.676800
9.328700 2.513100
9.351900 2.321800
9.375100 2.190000
9.398200 2.131000
9.421400 2.090600
9.444600 2.073300
9.467700 2.119500
9.490900 2.122100
9.514100 1.987900
9.537200 2.162300
9.560400 2.163500
9.583600 2.013900
9.606800 1.996900
9.629900 1.938200
9.653100 1.831900
9.676300 1.796900
9.699400 1.793900
9.722600 1.791500
9.745800 1.875100
9.768900 2.293800
9.792100 2.713800
9.815300 3.410800
9.838500 3.598700
9.861600 4.033100
9.884800 3.874600
9.908000 3.019600
9.931100 2.592100
9.954300 2.330500
9.977500 2.258500
10.000600 2.420300
10.023800 2.300900
10.047000 2.138000
10.070200 2.204300
10.093300 2.292500
10.116500 2.410100
10.139700 2.570800
10.162800 2.699400
10.186000 2.879800
10.209200 3.494400
10.232300 3.022000
10.255500 3.177200
10.278700 3.393700
10.301800 3.834100
10.325000 4.551000
10.348200 5.269900
10.371400 5.052800
10.394500 4.688300
10.417700 4.364700
10.440900 3.821500
10.464000 3.736400
10.487200 3.536000
10.510400 3.287100
10.533500 3.087500
10.556700 2.985900
10.579900 2.998400
10.603100 2.993100
10.626200 2.951900
10.649400 2.941200
10.672600 2.936800
10.695700 3.005000
10.718900 3.121000
10.742100 2.923800
10.765200 2.835200
10.788400 2.782400
10.811600 2.778400
10.834800 2.758900
10.857900 2.714100
10.881100 2.694700
10.904300 2.845400
10.927400 3.056800
10.950600 3.281100
10.973800 3.469400
10.996900 3.669700
11.020100 3.857400
11.043300 4.122200
11.066400 4.008300
11.089600 3.520600
11.112800 3.143900
11.136000 3.045400
11.159100 2.805000
11.182300 2.609000
11.205500 2.451600
11.228600 2.320900
11.251800 2.007100
11.275000 1.874600
11.298100 1.808000
11.321300 1.760600
11.344500 1.749000
11.367700 1.884400
11.390800 2.020900
11.414000 2.004900
11.437200 1.967700
11.460300 1.880100
11.483500 1.814200
11.506700 1.805100
11.529800 1.610500
11.553000 1.216300
11.576200 1.112800
11.599400 1.029800
11.622500 0.977000
11.645700 1.005400
11.668900 1.105500
11.692000 1.301000
11.715200 1.515000
11.738400 1.703400
11.761500 1.966900
11.784700 2.232300
11.807900 2.242500
11.831000 2.375000
11.854200 2.506900
11.877400 2.594200
11.900600 2.642000
11.923700 2.655500
11.946900 2.508300
11.970100 2.415900
11.993200 2.409300
12.016400 2.449300
12.039600 2.494800
12.062700 2.653100
12.085900 2.639100
12.109100 2.684800
12.132300 2.748500
12.155400 2.743900
12.178600 2.760200
12.201800 2.880000
12.224900 3.048800
12.248100 3.011600
12.271300 2.841700
12.294400 2.483700
12.317600 2.217200
12.340800 2.098000
12.364000 1.958200
12.387100 1.490200
12.410300 1.044200
12.433500 0.784000
12.456600 0.558500
12.479800 0.464300
12.503000 0.526600
12.526100 0.608100
12.549300 1.105700
12.572500 1.603100
12.595700 2.206100
12.618800 3.092700
12.642000 3.795900
12.665200 3.910600
12.688300 4.122700
12.711500 4.594500
12.734700 4.990300
12.757800 5.335000
12.781000 5.494100
12.804200 5.440200
12.827300 5.151500
12.850500 4.677400
12.873700 3.480200
12.896900 2.955000
12.920000 2.633800
12.943200 2.280100
12.966400 2.003000
12.989500 1.821900
13.012700 1.675300
13.035900 1.722000
13.059000 1.747200
13.082200 1.503800
13.105400 1.555500
13.128600 1.189000
13.151700 0.839400
13.174900 0.690000
13.198100 0.618000
13.221200 0.604800
13.244400 0.576800
13.267600 0.417400
13.290700 0.353800
13.313900 0.295200
13.337100 0.302800
13.360300 0.454300
13.383400 0.766300
13.406600 1.442400
13.429800 2.042100
13.452900 2.534700
13.476100 2.588900
13.499300 2.899100
13.522400 3.809200
13.545600 5.508700
13.568800 6.458400
13.591900 6.341900
13.615100 6.350900
13.638300 6.002300
13.661500 5.736100
13.684600 5.599100
13.707800 5.247400
13.731000 4.765600
13.754100 4.343400
13.777300 3.698600
13.800500 3.307200
13.823600 3.295900
13.846800 3.522000
13.870000 3.740100
13.893200 3.594000
13.916300 3.740300
13.939500 3.652200
13.962700 3.722900
13.985800 3.904500
14.009000 3.326100
14.032200 3.095100
14.055300 2.834100
14.078500 2.611600
14.101700 2.353100
14.124900 2.267000
14.148000 2.305400
14.171200 2.351800
14.194400 2.485100
14.217500 2.374200
14.240700 2.390200
14.263900 2.426200
14.287000 2.494000
14.310200 2.605400
14.333400 2.688600
14.356500 2.780400
14.379700 2.877200
14.402900 2.882500
14.426100 2.899500
14.449200 2.963300
14.472400 3.064700
14.495600 3.143500
14.518700 3.256400
14.541900 3.384800
14.565100 3.506100
14.588200 3.670300
14.611400 3.892800
14.634600 4.259200
14.657800 4.387100
14.680900 4.406200
14.704100 4.383300
14.727300 4.342600
14.750400 4.434300
14.773600 4.231200
14.796800 4.077100
14.819900 4.059300
14.843100 3.694700
14.866300 3.497800
14.889500 3.276000
14.912600 3.087800
14.935800 2.930100
14.959000 2.841500
14.982100 2.943400
15.005300 2.991200
15.028500 3.012300
15.051600 3.068100
15.074800 3.190100
15.098000 3.273200
15.121100 3.769500
15.144300 3.570400
15.167500 2.751200
15.190700 2.097100
15.213800 1.798000
15.237000 2.080300
15.260200 2.494200
15.283300 2.878600
15.306500 3.187800
15.329700 3.479300
15.352800 3.741900
15.376000 4.009000
15.399200 4.280400
15.422400 5.018000
15.445500 5.584000
15.468700 5.863200
15.491900 5.559300
15.515000 5.090200
15.538200 4.516100
15.561400 4.381900
15.584500 3.971000
15.607700 2.712200
15.630900 2.117200
15.654100 1.943100
15.677200 1.939400
15.700400 1.921400
15.723600 1.947400
15.746700 1.989000
15.769900 2.031800
15.793100 2.135200
15.816200 2.320900
15.839400 2.672400
15.862600 3.266500
15.885800 3.900300
15.908900 4.494400
15.932100 4.994900
15.955300 5.318300
15.978400 5.481400
16.001600 5.484000
16.024800 5.433700
16.047900 5.209500
16.071100 4.888100
16.094300 3.502700
16.117400 3.258900
16.140600 3.294500
16.163800 3.746600
16.187000 4.828000
16.210100 5.748000
16.233300 6.832900
16.256500 9.250000
16.279600 12.070200
16.302800 11.663900
16.326000 10.737200
16.349100 7.649300
16.372300 6.360600
16.395500 5.421900
16.418700 4.575900
16.441800 3.794800
16.465000 3.955100
16.488200 4.070700
16.511300 4.184000
16.534500 4.747100
16.557700 5.290000
16.580800 5.203800
16.604000 5.550400
16.627200 5.474300
16.650400 5.315400
16.673500 5.094700
16.696700 4.539700
16.719900 4.102000
16.743000 3.772300
16.766200 3.478900
16.789400 3.125400
16.812500 3.152200
16.835700 3.245300
16.858900 3.458300
16.882000 3.883000
16.905200 4.143200
16.928400 4.622900
16.951600 4.436500
16.974700 4.528600
16.997900 5.129900
17.021100 5.974200
17.044200 6.337400
17.067400 6.753100
17.090600 7.009100
17.113700 7.373300
17.136900 7.279000
17.160100 7.084300
17.183300 6.563800
17.206400 5.861900
17.229600 5.170400
17.252800 4.605700
17.275900 4.340600
17.299100 3.959000
17.322300 3.714700
17.345400 3.008500
17.368600 2.967500
17.391800 3.124900
17.415000 3.554100
17.438100 3.185900
17.461300 3.208400
17.484500 3.399700
17.507600 3.692100
17.530800 4.086700
17.554000 4.468700
17.577100 4.933300
17.600300 5.331500
17.623500 5.552700
17.646600 5.880700
17.669800 6.022500
17.693000 5.965000
17.716200 5.908600
17.739300 5.622200
17.762500 4.983400
17.785700 4.892300
17.808800 4.892200
17.832000 5.227200
17.855200 5.455100
17.878300 6.114200
17.901500 6.657300
17.924700 7.272200
17.947900 7.803100
17.971000 8.002500
17.994200 7.813200
18.017400 6.650200
18.040500 5.052900
18.063700 4.805600
18.086900 4.710800
18.110000 4.864800
18.133200 5.313500
18.156400 5.716500
18.179600 5.528000
18.202700 5.357500
18.225900 4.974900
18.249100 5.035800
18.272200 5.213700
18.295400 5.452700
18.318600 5.521500
18.341700 5.860300
18.364900 5.910200
18.388100 5.810700
18.411200 5.655100
18.434400 5.629000
18.457600 6.035300
18.480800 6.063900
18.503900 6.149200
18.527100 5.743100
18.550300 5.247900
18.573400 4.811900
18.596600 4.404700
18.619800 4.166500
18.642900 4.033500
18.666100 4.005000
18.689300 4.165400
18.712500 4.344600
18.735600 4.275500
18.758800 4.216800
18.782000 4.183300
18.805100 4.155000
18.828300 4.297900
18.851500 4.249700
18.874600 4.368200
18.897800 4.700900
18.921000 4.978300
18.944200 5.293900
18.967300 5.527400
18.990500 5.738300
19.013700 5.955700
19.036800 5.422000
19.060000 5.268800
19.083200 4.876100
19.106300 4.617100
19.129500 4.483600
19.152700 4.389700
19.175800 4.317200
19.199000 4.221100
19.222200 4.195100
19.245400 4.373300
19.268500 4.582600
19.291700 4.784900
19.314900 5.126700
19.338000 5.458300
19.361200 5.446900
19.384400 5.392300
19.407500 5.373700
19.430700 5.297900
19.453900 5.347100
19.477100 5.542900
19.500200 5.646500
19.523400 5.598700
19.546600 5.428600
19.569700 5.235800
19.592900 5.021700
19.616100 4.759600
19.639200 4.678100
19.662400 4.707400
19.685600 4.743000
19.708800 4.669700
19.731900 4.556700
19.755100 4.518800
19.778300 4.493800
19.801400 4.554900
19.824600 4.742500
19.847800 4.905100
19.870900 4.973300
19.894100 4.875600
19.917300 5.085700
19.940500 5.106500
19.963600 5.122500
19.986800 5.300600
20.010000 5.346700
20.033100 5.340300
20.056300 5.338200
20.079500 5.542500
20.102600 5.529500
20.125800 5.537400
20.149000 5.394500
20.172100 5.232700
20.195300 5.198300
20.218500 5.564600
20.241700 5.225600
20.264800 5.058100
20.288000 4.816200
20.311200 4.719700
20.334300 4.878000
20.357500 5.926400
20.380700 7.212900
20.403800 7.310100
20.427000 9.223000
20.450200 8.234900
20.473400 6.445900
20.496500 4.992100
20.519700 4.135400
20.542900 3.830500
20.566000 3.943600
20.589200 4.376200
20.612400 4.653800
20.635500 4.705500
20.658700 4.867600
20.681900 4.852700
20.705100 4.759400
20.728200 4.749800
20.751400 4.735500
20.774600 4.749500
20.797700 4.780100
20.820900 5.212400
20.844100 4.605500
20.867200 4.328300
20.890400 4.100800
20.913600 4.025500
20.936700 3.981200
20.959900 3.936900
20.983100 3.873900
21.006300 3.848400
21.029400 3.885800
21.052600 3.951600
21.075800 4.401800
21.098900 5.908900
21.122100 6.355900
21.145300 6.327100
21.168400 6.486600
21.191600 6.199700
21.214800 6.061100
21.238000 5.596100
21.261100 4.598400
21.284300 3.811800
21.307500 3.517300
21.330600 3.240200
21.353800 2.972000
21.377000 2.840700
21.400100 2.765300
21.423300 2.887900
21.446500 3.090200
21.469700 3.206400
21.492800 3.351800
21.516000 3.619100
21.539200 3.669700
21.562300 3.684300
21.585500 3.731100
21.608700 3.776700
21.631800 3.985300
21.655000 4.072100
21.678200 3.858500
21.701300 4.071800
21.724500 4.380300
21.747700 4.849100
21.770900 5.491600
21.794000 5.168900
21.817200 5.236300
21.840400 5.571100
21.863500 5.570100
21.886700 5.080700
21.909900 4.692600
21.933000 4.648900
21.956200 5.585900
21.979400 5.886100
22.002600 6.074000
22.025700 5.238700
22.048900 4.817700
22.072100 4.725500
22.095200 4.735100
22.118400 4.822000
22.141600 4.788300
22.164700 4.723100
22.187900 4.579000
22.211100 4.466200
22.234300 4.392200
22.257400 4.445300
22.280600 4.166900
22.303800 3.988700
22.326900 3.930900
22.350100 3.083900
22.373300 2.980100
22.396400 3.565900
22.419600 3.662000
22.442800 3.771700
22.465900 4.038900
22.489100 4.709200
22.512300 4.820900
22.535500 5.233900
22.558600 5.780300
22.581800 6.114200
22.605000 6.721900
22.628100 7.153300
22.651300 7.357900
22.674500 6.451500
22.697600 5.409300
22.720800 4.631900
22.744000 3.909800
22.767200 3.463500
22.790300 3.332800
22.813500 3.070200
22.836700 2.954400
22.859800 3.151300
22.883000 2.885200
22.906200 2.701800
22.929300 2.345900
22.952500 2.065700
22.975700 1.808100
22.998900 1.497000
23.022000 1.138800
23.045200 0.841000
23.068400 0.784000
23.091500 0.735500
23.114700 0.690700
23.137900 0.666700
23.161000 0.667300
23.184200 0.527500
23.207400 0.503900
23.230500 0.481800
23.253700 0.461200
23.276900 0.442100
23.300100 0.425700
23.323200 0.422300
23.346400 0.446800
23.369600 0.518300
23.392700 0.637100
23.415900 0.710500
23.439100 0.579900
23.462200 0.428600
23.485400 0.252300
23.508600 0.077100
23.531800 0.033900
23.554900 0.028100
23.578100 0.022800
23.601300 0.018100
23.624400 0.013900
23.647600 0.010200
23.670800 0.007200
23.693900 0.004600
23.717100 0.002600
23.740300 0.001200
23.763500 0.000300
23.786600 0.000000
23.809800 0.000000
23.833000 0.000000
23.856100 0.000000
23.879300 0.000000
23.902500 0.000000
23.925600 0.000000
23.948800 0.000000
23.972000 0.000000
23.995200 0.000000
24.018300 0.000000
24.041500 0.000000
24.064700 0.000000
24.087800 0.000000
24.111000 0.000000
24.134200 0.000000
24.157300 0.000000
24.180500 0.000000
24.203700 0.000000
24.226800 0.000000
24.250000 0.000000
24.273200 0.000000
24.296400 0.000000
24.319500 0.000000
24.342700 0.000000
24.365900 0.000000
24.389000 0.000000
24.412200 0.000000
24.435400 0.000000
24.458500 0.000000
24.481700 0.000000
24.504900 0.000000
24.528100 0.000000
24.551200 0.000000
24.574400 0.000000
24.597600 0.000000
24.620700 0.000000
24.643900 0.000000
24.667100 0.000000
24.690200 0.000000
24.713400 0.000000
24.736600 0.000000
24.759800 0.000000
24.782900 0.000000
24.806100 0.000000
24.829300 0.000000
24.852400 0.000000
24.875600 0.000000
24.898800 0.000000
24.921900 0.000000
24.945100 0.000000
24.968300 0.000000
24.991400 0.000000
25.014600 0.000000
25.037800 0.000000
25.061000 0.000000
25.084100 0.000000
25.107300 0.000000
25.130500 0.000000
25.153600 0.000000
25.176800 0.000000
25.200000 0.000000
25.223100 0.000000
25.246300 0.000000
25.269500 0.000000
25.292700 0.000000
25.315800 0.000000
25.339000 0.000000
25.362200 0.000000
25.385300 0.000000
25.408500 0.000000
25.431700 0.000000
25.454800 0.000000
25.478000 0.000000
25.501200 0.000000
25.524400 0.000000
25.547500 0.000000
25.570700 0.000000
25.593900 0.000000
25.617000 0.000000
25.640200 0.000000
25.663400 0.000000
25.686500 0.000000
25.709700 0.000000
25.732900 0.000000
25.756000 0.000000
25.779200 0.000000
25.802400 0.000000
25.825600 0.000000
25.848700 0.000000
25.871900 0.000000
25.895100 0.000000
e
