set title 'mp-1102442 - Density of States'
set xlabel 'Energy (eV)'
set ylabel 'DOS (states/eV)'
set grid
set xrange [-10:10]
set yrange [0:23.721]
set xzeroaxis lt -1
set terminal png size 800,600
set output 'mp-1102442_dos_gnuplot.png'
plot '-' using 1:2 with lines title 'DOS'
-29.176600 0.000000
-29.145200 0.000000
-29.113800 0.000000
-29.082500 0.000000
-29.051100 0.000000
-29.019700 0.000000
-28.988300 0.000000
-28.956900 0.000000
-28.925500 0.000000
-28.894100 0.000000
-28.862700 0.000000
-28.831400 0.000000
-28.800000 0.000000
-28.768600 0.000000
-28.737200 0.000000
-28.705800 0.000000
-28.674400 0.000000
-28.643000 0.000000
-28.611600 0.000000
-28.580200 0.000000
-28.548900 0.000000
-28.517500 0.000000
-28.486100 0.000000
-28.454700 0.000000
-28.423300 0.000000
-28.391900 0.000000
-28.360500 0.000000
-28.329100 0.000000
-28.297700 0.000000
-28.266400 0.000000
-28.235000 0.000000
-28.203600 0.000000
-28.172200 0.000000
-28.140800 0.000000
-28.109400 0.000000
-28.078000 0.000000
-28.046600 0.000000
-28.015200 0.000000
-27.983900 0.000000
-27.952500 0.000000
-27.921100 0.000000
-27.889700 0.000000
-27.858300 0.000000
-27.826900 0.000000
-27.795500 0.000000
-27.764100 0.000000
-27.732700 0.000000
-27.701400 0.000000
-27.670000 0.000000
-27.638600 0.000000
-27.607200 0.000000
-27.575800 0.000000
-27.544400 0.000000
-27.513000 0.000000
-27.481600 0.000000
-27.450200 0.000000
-27.418900 0.000000
-27.387500 0.000000
-27.356100 0.000000
-27.324700 0.000000
-27.293300 0.000000
-27.261900 0.000000
-27.230500 0.000000
-27.199100 0.000000
-27.167800 0.000000
-27.136400 0.000000
-27.105000 0.000000
-27.073600 0.000000
-27.042200 0.000000
-27.010800 0.000000
-26.979400 0.000000
-26.948000 0.000000
-26.916600 0.000000
-26.885300 0.000000
-26.853900 0.000000
-26.822500 0.000000
-26.791100 0.000000
-26.759700 0.000000
-26.728300 0.000000
-26.696900 0.000000
-26.665500 0.000000
-26.634100 0.000000
-26.602800 0.000000
-26.571400 0.000000
-26.540000 0.000000
-26.508600 0.000000
-26.477200 0.000000
-26.445800 0.000000
-26.414400 0.000000
-26.383000 0.000000
-26.351600 0.000000
-26.320300 0.007500
-26.288900 1.067900
-26.257500 2.503900
-26.226100 3.271000
-26.194700 4.277100
-26.163300 5.281600
-26.131900 6.518700
-26.100500 8.755900
-26.069100 12.648100
-26.037800 12.046000
-26.006400 11.870100
-25.975000 11.802700
-25.943600 11.970700
-25.912200 23.831300
-25.880800 12.511800
-25.849400 12.359300
-25.818000 0.000000
-25.786600 8.546100
-25.755300 10.965600
-25.723900 11.700200
-25.692500 12.190300
-25.661100 12.925200
-25.629700 15.336000
-25.598300 16.898200
-25.566900 24.889100
-25.535500 1.796300
-25.504200 0.000000
-25.472800 0.000000
-25.441400 0.000000
-25.410000 0.000000
-25.378600 0.000000
-25.347200 0.000000
-25.315800 0.000000
-25.284400 0.000000
-25.253000 0.000000
-25.221700 0.000000
-25.190300 0.000000
-25.158900 0.000000
-25.127500 0.000000
-25.096100 0.000000
-25.064700 0.000000
-25.033300 0.000000
-25.001900 0.000000
-24.970500 0.000000
-24.939200 0.000000
-24.907800 0.000000
-24.876400 0.000000
-24.845000 0.000000
-24.813600 0.000000
-24.782200 0.000000
-24.750800 0.000000
-24.719400 0.000000
-24.688000 0.000000
-24.656700 0.000000
-24.625300 0.000000
-24.593900 0.000000
-24.562500 0.000000
-24.531100 0.000000
-24.499700 0.000000
-24.468300 0.000000
-24.436900 0.000000
-24.405500 0.000000
-24.374200 0.000000
-24.342800 0.000000
-24.311400 0.000000
-24.280000 0.000000
-24.248600 0.000000
-24.217200 0.000000
-24.185800 0.000000
-24.154400 0.000000
-24.123000 0.000000
-24.091700 0.000000
-24.060300 0.000000
-24.028900 0.000000
-23.997500 0.000000
-23.966100 0.000000
-23.934700 0.000000
-23.903300 0.000000
-23.871900 0.000000
-23.840500 0.000000
-23.809200 0.000000
-23.777800 0.000000
-23.746400 0.000000
-23.715000 0.000000
-23.683600 0.000000
-23.652200 0.000000
-23.620800 0.000000
-23.589400 0.000000
-23.558100 0.000000
-23.526700 0.000000
-23.495300 0.000000
-23.463900 0.000000
-23.432500 0.000000
-23.401100 0.000000
-23.369700 0.000000
-23.338300 0.000000
-23.306900 0.000000
-23.275600 0.000000
-23.244200 0.000000
-23.212800 0.000000
-23.181400 0.000000
-23.150000 0.000000
-23.118600 0.000000
-23.087200 0.000000
-23.055800 0.000000
-23.024400 0.000000
-22.993100 0.000000
-22.961700 0.000000
-22.930300 0.000000
-22.898900 0.000000
-22.867500 0.000000
-22.836100 0.000000
-22.804700 0.000000
-22.773300 0.000000
-22.741900 0.000000
-22.710600 0.000000
-22.679200 0.000000
-22.647800 0.000000
-22.616400 0.000000
-22.585000 0.000000
-22.553600 0.000000
-22.522200 0.000000
-22.490800 0.000000
-22.459400 0.000000
-22.428100 0.000000
-22.396700 0.000000
-22.365300 0.000000
-22.333900 0.000000
-22.302500 0.000000
-22.271100 0.000000
-22.239700 0.000000
-22.208300 0.000000
-22.176900 0.000000
-22.145600 0.000000
-22.114200 0.000000
-22.082800 0.000000
-22.051400 0.000000
-22.020000 0.000000
-21.988600 0.000000
-21.957200 0.000000
-21.925800 0.000000
-21.894500 0.000000
-21.863100 0.000000
-21.831700 0.000000
-21.800300 0.000000
-21.768900 0.000000
-21.737500 0.000000
-21.706100 0.000000
-21.674700 0.000000
-21.643300 0.000000
-21.612000 0.000000
-21.580600 0.000000
-21.549200 0.000000
-21.517800 0.000000
-21.486400 0.000000
-21.455000 0.000000
-21.423600 0.000000
-21.392200 0.000000
-21.360800 0.000000
-21.329500 0.000000
-21.298100 0.000000
-21.266700 0.000000
-21.235300 0.000000
-21.203900 0.000000
-21.172500 0.000000
-21.141100 0.000000
-21.109700 0.000000
-21.078300 0.000000
-21.047000 0.000000
-21.015600 0.000000
-20.984200 0.000000
-20.952800 0.000000
-20.921400 0.000000
-20.890000 0.000000
-20.858600 0.000000
-20.827200 0.000000
-20.795800 0.000000
-20.764500 0.000000
-20.733100 0.000000
-20.701700 0.000000
-20.670300 0.000000
-20.638900 0.000000
-20.607500 0.000000
-20.576100 0.000000
-20.544700 0.000000
-20.513300 0.000000
-20.482000 0.000000
-20.450600 0.000000
-20.419200 0.000000
-20.387800 0.000000
-20.356400 0.000000
-20.325000 0.000000
-20.293600 0.000000
-20.262200 0.000000
-20.230900 0.000000
-20.199500 0.000000
-20.168100 0.000000
-20.136700 0.000000
-20.105300 0.000000
-20.073900 0.000000
-20.042500 0.000000
-20.011100 0.000000
-19.979700 0.000000
-19.948400 0.000000
-19.917000 0.000000
-19.885600 0.000000
-19.854200 0.000000
-19.822800 0.000000
-19.791400 0.000000
-19.760000 0.000000
-19.728600 0.000000
-19.697200 0.000000
-19.665900 0.000000
-19.634500 0.000000
-19.603100 0.000000
-19.571700 0.000000
-19.540300 0.000000
-19.508900 0.000000
-19.477500 11.184200
-19.446100 28.960200
-19.414700 22.492500
-19.383400 19.205500
-19.352000 34.605500
-19.320600 11.502700
-19.289200 3.720200
-19.257800 0.762600
-19.226400 0.000000
-19.195000 0.063800
-19.163600 3.142100
-19.132200 14.782700
-19.100900 17.191100
-19.069500 18.676600
-19.038100 21.343000
-19.006700 17.186200
-18.975300 12.403200
-18.943900 8.760800
-18.912500 6.594900
-18.881100 4.497700
-18.849700 1.554200
-18.818400 0.000000
-18.787000 0.000000
-18.755600 0.000000
-18.724200 0.000000
-18.692800 0.000000
-18.661400 0.000000
-18.630000 0.000000
-18.598600 0.000000
-18.567300 0.000000
-18.535900 0.000000
-18.504500 0.000000
-18.473100 0.000000
-18.441700 0.000000
-18.410300 0.000000
-18.378900 0.000000
-18.347500 0.000000
-18.316100 0.000000
-18.284800 0.000000
-18.253400 0.000000
-18.222000 0.000000
-18.190600 0.000000
-18.159200 0.000000
-18.127800 0.000000
-18.096400 0.000000
-18.065000 0.000000
-18.033600 0.000000
-18.002300 0.000000
-17.970900 0.000000
-17.939500 0.000000
-17.908100 0.000000
-17.876700 0.000000
-17.845300 0.000000
-17.813900 0.000000
-17.782500 0.000000
-17.751100 0.000000
-17.719800 0.000000
-17.688400 0.000000
-17.657000 0.000000
-17.625600 0.000000
-17.594200 0.000000
-17.562800 0.000000
-17.531400 0.000000
-17.500000 0.000000
-17.468600 0.000000
-17.437300 0.000000
-17.405900 0.000000
-17.374500 0.000000
-17.343100 0.000000
-17.311700 0.000000
-17.280300 0.000000
-17.248900 0.000000
-17.217500 0.000000
-17.186100 0.000000
-17.154800 0.000000
-17.123400 0.000000
-17.092000 0.000000
-17.060600 0.000000
-17.029200 0.000000
-16.997800 0.000000
-16.966400 0.000000
-16.935000 0.000000
-16.903600 0.000000
-16.872300 0.000000
-16.840900 0.000000
-16.809500 0.000000
-16.778100 0.000000
-16.746700 0.000000
-16.715300 0.000000
-16.683900 0.000000
-16.652500 0.000000
-16.621200 0.000000
-16.589800 0.000000
-16.558400 0.000000
-16.527000 0.000000
-16.495600 0.000000
-16.464200 0.000000
-16.432800 0.000000
-16.401400 0.000000
-16.370000 0.000000
-16.338700 0.000000
-16.307300 0.000000
-16.275900 0.000000
-16.244500 0.000000
-16.213100 0.000000
-16.181700 0.000000
-16.150300 0.000000
-16.118900 0.000000
-16.087500 0.000000
-16.056200 0.000000
-16.024800 0.000000
-15.993400 0.000000
-15.962000 0.000000
-15.930600 0.000000
-15.899200 0.000000
-15.867800 0.000000
-15.836400 0.000000
-15.805000 0.000000
-15.773700 0.000000
-15.742300 0.000000
-15.710900 0.000000
-15.679500 0.000000
-15.648100 0.000000
-15.616700 0.000000
-15.585300 0.000000
-15.553900 0.000000
-15.522500 0.000000
-15.491200 0.000000
-15.459800 0.000000
-15.428400 0.000000
-15.397000 0.000000
-15.365600 0.000000
-15.334200 0.000000
-15.302800 0.000000
-15.271400 0.000000
-15.240000 0.000000
-15.208700 0.000000
-15.177300 0.000000
-15.145900 0.000000
-15.114500 0.000000
-15.083100 0.000000
-15.051700 0.000000
-15.020300 0.000000
-14.988900 0.000000
-14.957600 0.000000
-14.926200 0.000000
-14.894800 0.000000
-14.863400 0.000000
-14.832000 0.000000
-14.800600 0.000000
-14.769200 0.000000
-14.737800 0.000000
-14.706400 0.000000
-14.675100 0.000000
-14.643700 0.000000
-14.612300 0.000000
-14.580900 0.000000
-14.549500 0.000000
-14.518100 0.000000
-14.486700 0.000000
-14.455300 0.000000
-14.423900 0.000000
-14.392600 0.000000
-14.361200 0.000000
-14.329800 0.000000
-14.298400 0.000000
-14.267000 0.000000
-14.235600 0.000000
-14.204200 0.000000
-14.172800 0.000000
-14.141400 0.000000
-14.110100 0.000000
-14.078700 0.000000
-14.047300 0.000000
-14.015900 0.000000
-13.984500 0.000000
-13.953100 0.000000
-13.921700 0.000000
-13.890300 0.000000
-13.858900 0.000000
-13.827600 0.000000
-13.796200 0.000000
-13.764800 0.000000
-13.733400 0.000000
-13.702000 0.000000
-13.670600 0.000000
-13.639200 0.000000
-13.607800 0.000000
-13.576400 0.000000
-13.545100 0.000000
-13.513700 0.000000
-13.482300 0.000000
-13.450900 0.000000
-13.419500 0.000000
-13.388100 0.000000
-13.356700 0.000000
-13.325300 0.000000
-13.294000 0.000000
-13.262600 0.000000
-13.231200 0.000000
-13.199800 0.000000
-13.168400 0.000000
-13.137000 0.000000
-13.105600 0.000000
-13.074200 0.000000
-13.042800 0.000000
-13.011500 0.000000
-12.980100 0.000000
-12.948700 0.000000
-12.917300 0.000000
-12.885900 0.000000
-12.854500 0.000000
-12.823100 0.000000
-12.791700 0.000000
-12.760300 0.000000
-12.729000 0.000000
-12.697600 0.000000
-12.666200 0.000000
-12.634800 0.000000
-12.603400 0.000000
-12.572000 0.000000
-12.540600 0.000000
-12.509200 0.000000
-12.477800 0.000000
-12.446500 0.000000
-12.415100 0.000000
-12.383700 0.000000
-12.352300 0.000000
-12.320900 0.000000
-12.289500 0.000000
-12.258100 0.000000
-12.226700 4.059100
-12.195300 7.099400
-12.164000 9.198400
-12.132600 10.081700
-12.101200 10.347400
-12.069800 8.808000
-12.038400 8.139800
-12.007000 7.301500
-11.975600 7.000900
-11.944200 6.870500
-11.912800 6.636700
-11.881500 6.587700
-11.850100 7.032000
-11.818700 5.587900
-11.787300 4.842900
-11.755900 4.335400
-11.724500 3.800800
-11.693100 2.977700
-11.661700 2.327000
-11.630300 1.760100
-11.599000 1.236200
-11.567600 0.748500
-11.536200 0.253700
-11.504800 0.014300
-11.473400 0.022700
-11.442000 0.163200
-11.410600 0.600700
-11.379200 1.012900
-11.347900 1.441900
-11.316500 1.887000
-11.285100 2.350800
-11.253700 2.893600
-11.222300 3.583000
-11.190900 3.952800
-11.159500 4.466100
-11.128100 5.022400
-11.096700 5.485600
-11.065400 6.090000
-11.034000 5.820700
-11.002600 5.897300
-10.971200 5.978200
-10.939800 5.942000
-10.908400 6.540600
-10.877000 7.261400
-10.845600 7.942000
-10.814200 9.284500
-10.782900 9.324800
-10.751500 8.220500
-10.720100 6.514600
-10.688700 5.568800
-10.657300 3.354500
-10.625900 0.000000
-10.594500 0.000000
-10.563100 0.000000
-10.531700 0.000000
-10.500400 0.000000
-10.469000 0.000000
-10.437600 0.000000
-10.406200 0.000000
-10.374800 0.000000
-10.343400 0.000000
-10.312000 0.000000
-10.280600 0.000000
-10.249200 0.000000
-10.217900 0.000000
-10.186500 0.000000
-10.155100 0.000000
-10.123700 0.000000
-10.092300 0.000000
-10.060900 0.000000
-10.029500 0.000000
-9.998100 0.000000
-9.966700 0.000000
-9.935400 0.000000
-9.904000 0.000000
-9.872600 0.000000
-9.841200 0.000000
-9.809800 0.000000
-9.778400 0.000000
-9.747000 0.000000
-9.715600 0.000000
-9.684300 0.000000
-9.652900 0.000000
-9.621500 0.000000
-9.590100 0.000000
-9.558700 0.000000
-9.527300 0.000000
-9.495900 0.000000
-9.464500 0.000000
-9.433100 0.000000
-9.401800 0.000000
-9.370400 0.000000
-9.339000 0.000000
-9.307600 0.000000
-9.276200 0.000000
-9.244800 0.000000
-9.213400 0.000000
-9.182000 0.000000
-9.150600 0.000000
-9.119300 0.000000
-9.087900 0.000000
-9.056500 0.000000
-9.025100 0.000000
-8.993700 0.000000
-8.962300 0.000000
-8.930900 0.000000
-8.899500 0.000000
-8.868100 0.000000
-8.836800 0.000000
-8.805400 0.000000
-8.774000 0.000000
-8.742600 0.000000
-8.711200 0.000000
-8.679800 0.000000
-8.648400 0.000000
-8.617000 0.000000
-8.585600 0.000000
-8.554300 0.000000
-8.522900 0.000000
-8.491500 0.000000
-8.460100 0.000000
-8.428700 0.000000
-8.397300 0.000000
-8.365900 0.000000
-8.334500 0.000000
-8.303100 0.000000
-8.271800 0.000000
-8.240400 0.000000
-8.209000 0.036100
-8.177600 1.253800
-8.146200 2.290800
-8.114800 2.993000
-8.083400 3.650600
-8.052000 4.222800
-8.020700 4.560200
-7.989300 6.177800
-7.957900 7.248500
-7.926500 7.030500
-7.895100 6.796600
-7.863700 6.545400
-7.832300 6.215000
-7.800900 7.402400
-7.769500 5.677400
-7.738200 5.317300
-7.706800 5.235100
-7.675400 5.089800
-7.644000 4.948800
-7.612600 4.691700
-7.581200 4.531600
-7.549800 4.449300
-7.518400 4.402000
-7.487000 5.284500
-7.455700 4.545600
-7.424300 3.654400
-7.392900 3.145200
-7.361500 2.884700
-7.330100 2.684300
-7.298700 3.034500
-7.267300 1.421500
-7.235900 1.624100
-7.204500 1.845400
-7.173200 2.085200
-7.141800 3.024700
-7.110400 8.576000
-7.079000 7.373400
-7.047600 6.669700
-7.016200 10.172500
-6.984800 20.564100
-6.953400 17.186100
-6.922000 12.455200
-6.890700 9.960900
-6.859300 8.842400
-6.827900 8.576600
-6.796500 5.410700
-6.765100 6.232800
-6.733700 7.469500
-6.702300 10.198200
-6.670900 12.152000
-6.639500 13.746200
-6.608200 13.655300
-6.576800 12.624400
-6.545400 10.200800
-6.514000 8.544900
-6.482600 7.219900
-6.451200 7.093700
-6.419800 8.275100
-6.388400 0.115900
-6.357000 0.000000
-6.325700 0.000000
-6.294300 0.081800
-6.262900 0.234200
-6.231500 0.416600
-6.200100 0.629000
-6.168700 1.914200
-6.137300 3.949600
-6.105900 6.231400
-6.074600 14.790000
-6.043200 12.203600
-6.011800 12.530800
-5.980400 12.072500
-5.949000 11.324000
-5.917600 9.906500
-5.886200 7.620600
-5.854800 6.723500
-5.823400 4.281900
-5.792100 3.389600
-5.760700 5.318300
-5.729300 6.573900
-5.697900 7.443600
-5.666500 9.561100
-5.635100 10.729900
-5.603700 7.691900
-5.572300 8.788800
-5.540900 9.294800
-5.509600 9.090400
-5.478200 7.887300
-5.446800 8.754400
-5.415400 8.756300
-5.384000 9.451300
-5.352600 9.778600
-5.321200 9.269900
-5.289800 8.354300
-5.258400 8.868500
-5.227100 11.648600
-5.195700 13.833200
-5.164300 10.910500
-5.132900 12.273800
-5.101500 11.616000
-5.070100 8.847300
-5.038700 7.410600
-5.007300 6.899200
-4.975900 6.398300
-4.944600 5.956900
-4.913200 5.551000
-4.881800 5.117000
-4.850400 4.703000
-4.819000 4.268300
-4.787600 3.792400
-4.756200 3.186200
-4.724800 2.360400
-4.693400 1.833300
-4.662100 1.404900
-4.630700 1.016000
-4.599300 0.683300
-4.567900 0.415100
-4.536500 0.099800
-4.505100 0.000000
-4.473700 0.000000
-4.442300 0.000000
-4.411000 0.000000
-4.379600 0.000000
-4.348200 0.000000
-4.316800 0.000000
-4.285400 0.000000
-4.254000 0.000000
-4.222600 0.000000
-4.191200 0.000000
-4.159800 0.000000
-4.128500 0.000000
-4.097100 0.000000
-4.065700 0.000000
-4.034300 0.000000
-4.002900 0.000000
-3.971500 0.000000
-3.940100 0.000000
-3.908700 0.000000
-3.877300 0.000000
-3.846000 0.000000
-3.814600 0.000000
-3.783200 0.000000
-3.751800 0.000000
-3.720400 0.000000
-3.689000 0.000000
-3.657600 0.000000
-3.626200 0.000000
-3.594800 0.000000
-3.563500 0.000000
-3.532100 0.000000
-3.500700 0.000000
-3.469300 0.000000
-3.437900 0.000000
-3.406500 0.000000
-3.375100 0.000000
-3.343700 0.000000
-3.312300 0.000000
-3.281000 0.000000
-3.249600 0.000000
-3.218200 0.000000
-3.186800 0.000000
-3.155400 0.000000
-3.124000 0.000000
-3.092600 0.000000
-3.061200 0.000000
-3.029800 0.000000
-2.998500 0.000000
-2.967100 0.000000
-2.935700 0.000000
-2.904300 0.000000
-2.872900 0.000000
-2.841500 0.000000
-2.810100 0.000000
-2.778700 0.000000
-2.747400 0.000000
-2.716000 0.000000
-2.684600 0.000000
-2.653200 0.000000
-2.621800 0.000000
-2.590400 0.000000
-2.559000 0.000000
-2.527600 0.000000
-2.496200 0.000000
-2.464900 0.000000
-2.433500 0.000000
-2.402100 0.000000
-2.370700 0.000000
-2.339300 0.034600
-2.307900 0.677200
-2.276500 1.679100
-2.245100 2.920900
-2.213700 3.815900
-2.182400 4.414700
-2.151000 4.543400
-2.119600 4.458300
-2.088200 4.611800
-2.056800 4.849000
-2.025400 5.022500
-1.994000 5.144800
-1.962600 5.154100
-1.931200 5.240700
-1.899900 5.139900
-1.868500 5.057900
-1.837100 5.240400
-1.805700 6.877200
-1.774300 7.234300
-1.742900 5.738500
-1.711500 5.225900
-1.680100 4.734000
-1.648700 4.353900
-1.617400 3.975100
-1.586000 4.296800
-1.554600 3.653000
-1.523200 3.386300
-1.491800 2.626500
-1.460400 1.988400
-1.429000 1.491100
-1.397600 1.221500
-1.366200 1.438100
-1.334900 3.779800
-1.303500 4.033100
-1.272100 3.773700
-1.240700 3.338900
-1.209300 3.493100
-1.177900 3.684500
-1.146500 3.905100
-1.115100 4.112200
-1.083700 4.313700
-1.052400 5.431000
-1.021000 6.053600
-0.989600 6.467400
-0.958200 6.660400
-0.926800 6.011800
-0.895400 5.624800
-0.864000 5.231500
-0.832600 4.829400
-0.801300 4.811800
-0.769900 4.512100
-0.738500 4.207300
-0.707100 3.896300
-0.675700 3.842600
-0.644300 3.880300
-0.612900 3.911700
-0.581500 4.267200
-0.550100 6.461100
-0.518800 4.783600
-0.487400 3.859200
-0.456000 3.657900
-0.424600 3.670800
-0.393200 5.228600
-0.361800 8.200900
-0.330400 8.270700
-0.299000 8.095500
-0.267600 8.117500
-0.236300 8.903400
-0.204900 9.390900
-0.173500 11.035700
-0.142100 12.439600
-0.110700 11.251300
-0.079300 10.479100
-0.047900 11.983100
-0.016500 12.623900
0.014900 13.831400
0.046200 11.741300
0.077600 12.704500
0.109000 14.062700
0.140400 17.765300
0.171800 20.225300
0.203200 21.564800
0.234600 9.468400
0.266000 0.750500
0.297400 1.312900
0.328700 2.133900
0.360100 3.772200
0.391500 4.827800
0.422900 7.896600
0.454300 10.061700
0.485700 11.371100
0.517100 11.565100
0.548500 10.520800
0.579900 10.488100
0.611200 9.895500
0.642600 9.946200
0.674000 10.198400
0.705400 10.372500
0.736800 11.146500
0.768200 10.918000
0.799600 11.264000
0.831000 11.690100
0.862300 11.768200
0.893700 11.175300
0.925100 10.496400
0.956500 10.400300
0.987900 11.877800
1.019300 13.706900
1.050700 12.271700
1.082100 7.960100
1.113500 2.985100
1.144800 0.568500
1.176200 0.000000
1.207600 0.000000
1.239000 0.000000
1.270400 0.000000
1.301800 0.000000
1.333200 0.000000
1.364600 0.000000
1.396000 0.000000
1.427300 0.000000
1.458700 0.000000
1.490100 0.000000
1.521500 0.000000
1.552900 0.000000
1.584300 0.000000
1.615700 0.000000
1.647100 0.000000
1.678500 0.000000
1.709800 0.000000
1.741200 0.000000
1.772600 0.000000
1.804000 0.000000
1.835400 0.000000
1.866800 0.000000
1.898200 0.000000
1.929600 0.000000
1.961000 0.052100
1.992300 1.483600
2.023700 4.259900
2.055100 7.286200
2.086500 10.538200
2.117900 14.313800
2.149300 13.621500
2.180700 14.395100
2.212100 13.539900
2.243500 10.211700
2.274800 6.719100
2.306200 5.534100
2.337600 5.029900
2.369000 5.050000
2.400400 5.722400
2.431800 7.928000
2.463200 8.946300
2.494600 8.992800
2.525900 9.498600
2.557300 11.091400
2.588700 12.919200
2.620100 11.627900
2.651500 12.188300
2.682900 15.586900
2.714300 7.768700
2.745700 8.049200
2.777100 6.936900
2.808400 4.681700
2.839800 3.139900
2.871200 2.954400
2.902600 0.768300
2.934000 0.090400
2.965400 0.000000
2.996800 0.000000
3.028200 0.000000
3.059600 0.000000
3.090900 0.000000
3.122300 0.000000
3.153700 0.000000
3.185100 0.000000
3.216500 0.000000
3.247900 0.000000
3.279300 0.000000
3.310700 0.000000
3.342100 0.000000
3.373400 0.000000
3.404800 0.000000
3.436200 0.000000
3.467600 0.000000
3.499000 0.000000
3.530400 0.000000
3.561800 0.000000
3.593200 0.000000
3.624600 0.000000
3.655900 0.000000
3.687300 0.000000
3.718700 0.000000
3.750100 0.000000
3.781500 0.000000
3.812900 0.000000
3.844300 0.000000
3.875700 0.000000
3.907100 0.000000
3.938400 0.000000
3.969800 0.000000
4.001200 0.000000
4.032600 0.000000
4.064000 0.000000
4.095400 0.000000
4.126800 0.000000
4.158200 0.000000
4.189600 0.000000
4.220900 0.000000
4.252300 0.000000
4.283700 0.000000
4.315100 0.000000
4.346500 0.000000
4.377900 0.000000
4.409300 0.000000
4.440700 0.000000
4.472000 0.000000
4.503400 0.000000
4.534800 0.000000
4.566200 0.000000
4.597600 0.000000
4.629000 0.000000
4.660400 0.000000
4.691800 0.000000
4.723200 0.000000
4.754500 0.000000
4.785900 0.000000
4.817300 0.000000
4.848700 0.000000
4.880100 0.000000
4.911500 0.000000
4.942900 0.000000
4.974300 0.000000
5.005700 0.000000
5.037000 0.000000
5.068400 0.000000
5.099800 0.000000
5.131200 0.000000
5.162600 0.000000
5.194000 0.000000
5.225400 0.000000
5.256800 0.000000
5.288200 0.000000
5.319500 0.000000
5.350900 0.000000
5.382300 0.000000
5.413700 0.000000
5.445100 0.000000
5.476500 0.000000
5.507900 0.000000
5.539300 0.000000
5.570700 0.000000
5.602000 0.000000
5.633400 0.000000
5.664800 0.000000
5.696200 0.000000
5.727600 0.000000
5.759000 0.000000
5.790400 0.000000
5.821800 0.000000
5.853200 0.000000
5.884500 0.000000
5.915900 0.000000
5.947300 0.000000
5.978700 0.000000
6.010100 0.000000
6.041500 0.000000
6.072900 0.000000
6.104300 0.000000
6.135600 0.000000
6.167000 0.000000
6.198400 0.000000
6.229800 0.000000
6.261200 0.000000
6.292600 0.000000
6.324000 0.000000
6.355400 0.000000
6.386800 0.000000
6.418100 0.000000
6.449500 0.000000
6.480900 0.000000
6.512300 0.000000
6.543700 0.000000
6.575100 0.000000
6.606500 0.000000
6.637900 0.000000
6.669300 0.000000
6.700600 0.000000
6.732000 0.000000
6.763400 0.000000
6.794800 0.000000
6.826200 0.000000
6.857600 0.000000
6.889000 0.000000
6.920400 0.000000
6.951800 0.000000
6.983100 0.000000
7.014500 0.000000
7.045900 0.000000
7.077300 0.000000
7.108700 0.000000
7.140100 0.000000
7.171500 0.000000
7.202900 0.000000
7.234300 0.000000
7.265600 0.000000
7.297000 0.000000
7.328400 0.000000
7.359800 0.000000
7.391200 0.000000
7.422600 0.000000
7.454000 0.000000
7.485400 0.000000
7.516800 0.000000
7.548100 0.000000
7.579500 0.000000
7.610900 0.000000
7.642300 0.000000
7.673700 0.000000
7.705100 0.000000
7.736500 0.000000
7.767900 0.000000
7.799200 0.000000
7.830600 2.750100
7.862000 2.994900
7.893400 3.942300
7.924800 5.590800
7.956200 7.121800
7.987600 6.573700
8.019000 7.331800
8.050400 9.493400
8.081700 11.939100
8.113100 13.299300
8.144500 14.925000
8.175900 15.465200
8.207300 14.601800
8.238700 11.841300
8.270100 9.680800
8.301500 8.370300
8.332900 7.144100
8.364200 5.707700
8.395600 6.438000
8.427000 8.545700
8.458400 11.699800
8.489800 11.462500
8.521200 8.777000
8.552600 7.306800
8.584000 5.866300
8.615400 4.955600
8.646700 4.284400
8.678100 3.695700
8.709500 3.297000
8.740900 2.998200
8.772300 2.516800
8.803700 1.914600
8.835100 1.755100
8.866500 1.799200
8.897900 1.884100
8.929200 1.742700
8.960600 1.475400
8.992000 1.102600
9.023400 0.713900
9.054800 0.377500
9.086200 0.117900
9.117600 0.000000
9.149000 0.000000
9.180400 0.000000
9.211700 0.000000
9.243100 0.000000
9.274500 0.000000
9.305900 0.000000
9.337300 0.000000
9.368700 0.000000
9.400100 0.000000
9.431500 0.000000
9.462900 0.000000
9.494200 0.000000
9.525600 0.000000
9.557000 0.000000
9.588400 0.000000
9.619800 0.000000
9.651200 0.000000
9.682600 0.000000
9.714000 0.000000
9.745300 0.000000
9.776700 0.000000
9.808100 0.000000
9.839500 0.000000
9.870900 0.000000
9.902300 0.000000
9.933700 0.000000
9.965100 0.000000
9.996500 0.000000
10.027800 0.553700
10.059200 3.520700
10.090600 11.929800
10.122000 12.939400
10.153400 13.939100
10.184800 11.951700
10.216200 10.803500
10.247600 13.101700
10.279000 9.656700
10.310300 8.389400
10.341700 6.624700
10.373100 4.758100
10.404500 3.812800
10.435900 3.445400
10.467300 3.491700
10.498700 3.672000
10.530100 3.772600
10.561500 4.255000
10.592800 5.181400
10.624200 6.835700
10.655600 5.769900
10.687000 6.292300
10.718400 7.076300
10.749800 8.984500
10.781200 10.973300
10.812600 14.907000
10.844000 18.129100
10.875300 19.502900
10.906700 17.346800
10.938100 1.015200
10.969500 0.000000
11.000900 0.000000
11.032300 0.000000
11.063700 0.000000
11.095100 0.000000
11.126500 0.000000
11.157800 0.000000
11.189200 0.000000
11.220600 0.000000
11.252000 0.000000
11.283400 0.000000
11.314800 0.000000
11.346200 0.000000
11.377600 0.000000
11.408900 0.000000
11.440300 0.000000
11.471700 0.000000
11.503100 0.000000
11.534500 0.000000
11.565900 0.000000
11.597300 0.000000
11.628700 0.000000
11.660100 0.000000
11.691400 0.000000
11.722800 0.000000
11.754200 0.000000
11.785600 0.000000
11.817000 0.000000
11.848400 0.000000
11.879800 0.000000
11.911200 0.000000
11.942600 0.000000
11.973900 0.000000
12.005300 0.000000
12.036700 0.000000
12.068100 0.000000
12.099500 0.000000
12.130900 0.000000
12.162300 0.000000
12.193700 0.000000
12.225100 0.000000
12.256400 0.000000
12.287800 0.000000
12.319200 0.000000
12.350600 0.000000
12.382000 0.000000
12.413400 0.000000
12.444800 0.000000
12.476200 0.000000
12.507600 0.000000
12.538900 0.000000
12.570300 0.000000
12.601700 0.000000
12.633100 0.000600
12.664500 0.006600
12.695900 0.019100
12.727300 0.038100
12.758700 0.063500
12.790100 0.095300
12.821400 0.133600
12.852800 0.178400
12.884200 0.231000
12.915600 0.281400
12.947000 0.326100
12.978400 0.365100
13.009800 0.398300
13.041200 0.425700
13.072500 0.448000
13.103900 0.467400
13.135300 0.484700
13.166700 0.504900
13.198100 0.528000
13.229500 0.554200
13.260900 0.583300
13.292300 0.615500
13.323700 0.650000
13.355000 0.685200
13.386400 0.720800
13.417800 0.756000
13.449200 0.790700
13.480600 0.824800
13.512000 0.858500
13.543400 0.912300
13.574800 0.987100
13.606200 1.057900
13.637500 1.125400
13.668900 1.190700
13.700300 1.254100
13.731700 1.293900
13.763100 1.305000
13.794500 1.316200
13.825900 1.328400
13.857300 1.341700
13.888700 1.357700
13.920000 1.391000
13.951400 1.426400
13.982800 1.466500
14.014200 1.511100
14.045600 1.560200
14.077000 1.612100
14.108400 1.665800
14.139800 1.721500
14.171200 1.779200
14.202500 1.846000
14.233900 1.917300
14.265300 2.039600
14.296700 2.235100
14.328100 2.466900
14.359500 2.736200
14.390900 2.927600
14.422300 3.140500
14.453700 3.405000
14.485000 3.736600
14.516400 4.092700
14.547800 4.465900
14.579200 4.851900
14.610600 5.366700
14.642000 6.284100
14.673400 6.572300
14.704800 6.196900
14.736100 5.584400
14.767500 3.981200
14.798900 3.578300
14.830300 3.764300
14.861700 4.270500
14.893100 5.180800
14.924500 5.748700
14.955900 6.059300
14.987300 5.629300
15.018600 5.272800
15.050000 5.332000
15.081400 5.474900
15.112800 5.484400
15.144200 5.477900
15.175600 5.458500
15.207000 5.422500
15.238400 5.339100
15.269800 6.797900
15.301100 7.868400
15.332500 5.040700
15.363900 4.416500
15.395300 3.967100
15.426700 3.516300
15.458100 3.281800
15.489500 3.163200
15.520900 3.047000
15.552300 2.933400
15.583600 3.052300
15.615000 2.632900
15.646400 2.466800
15.677800 2.308800
15.709200 2.491500
15.740600 2.558600
15.772000 2.161400
15.803400 1.797800
15.834800 0.689200
15.866100 0.727700
15.897500 0.749400
15.928900 0.849300
15.960300 0.970100
15.991700 1.102300
16.023100 1.246000
16.054500 1.386600
16.085900 1.486300
16.117300 1.598600
16.148600 1.711400
16.180000 1.830100
16.211400 1.954600
16.242800 2.085100
16.274200 2.221600
16.305600 2.388000
16.337000 2.620600
16.368400 2.915300
16.399800 3.245500
16.431100 3.603700
16.462500 4.119300
16.493900 5.173600
16.525300 6.161900
16.556700 8.339900
16.588100 12.167400
16.619500 11.256100
16.650900 10.050200
16.682200 7.574300
16.713600 5.884200
16.745000 4.833500
16.776400 4.118900
16.807800 4.858200
16.839200 0.610200
16.870600 0.389400
16.902000 0.210500
16.933400 0.093500
16.964700 0.036100
16.996100 0.008300
17.027500 0.000100
17.058900 0.011900
17.090300 0.044200
17.121700 0.096900
17.153100 0.189500
17.184500 0.263300
17.215900 0.303100
17.247200 0.343900
17.278600 0.385800
17.310000 0.428700
17.341400 0.472600
17.372800 0.517600
17.404200 0.563600
17.435600 0.610600
17.467000 0.662700
17.498400 0.748200
17.529700 0.873000
17.561100 1.016800
17.592500 1.108500
17.623900 1.203400
17.655300 1.302600
17.686700 1.406100
17.718100 1.546300
17.749500 2.110000
17.780900 2.662800
17.812200 3.262700
17.843600 3.850500
17.875000 4.331700
17.906400 5.011400
17.937800 7.209800
17.969200 5.175600
18.000600 5.330500
18.032000 4.758000
18.063400 3.955800
18.094700 3.979700
18.126100 3.951300
18.157500 3.902000
18.188900 3.646900
18.220300 3.425600
18.251700 3.244100
18.283100 3.214000
18.314500 3.176200
18.345800 3.111800
18.377200 3.011500
18.408600 2.856100
18.440000 2.643200
18.471400 3.363900
18.502800 2.444100
18.534200 2.257300
18.565600 2.130200
18.597000 2.062800
18.628300 2.013900
18.659700 1.973600
18.691100 1.935200
18.722500 1.908700
18.753900 1.891600
18.785300 1.878900
18.816700 1.870600
18.848100 1.968200
18.879500 1.904200
18.910800 1.918200
18.942200 1.930000
18.973600 1.948300
19.005000 2.115400
19.036400 2.507600
19.067800 2.981200
19.099200 3.420000
19.130600 3.664700
19.162000 4.154300
19.193300 3.235900
19.224700 2.962600
19.256100 2.985300
19.287500 3.100500
19.318900 3.220400
19.350300 3.436100
19.381700 4.178600
19.413100 4.541500
19.444500 4.834900
19.475800 4.782300
19.507200 4.596500
19.538600 4.404700
19.570000 4.207000
19.601400 4.003400
19.632800 3.744000
19.664200 3.275000
19.695600 3.000200
19.727000 2.816200
19.758300 2.703600
19.789700 2.720800
19.821100 2.705400
19.852500 2.667200
19.883900 2.609900
19.915300 2.562300
19.946700 2.529300
19.978100 2.500200
20.009400 2.977800
20.040800 3.373600
20.072200 3.968000
20.103600 3.702700
20.135000 3.734500
20.166400 3.778900
20.197800 4.088400
20.229200 6.039900
20.260600 5.913700
20.291900 6.347300
20.323300 8.521200
20.354700 7.840600
20.386100 7.167200
20.417500 7.548100
20.448900 6.275100
20.480300 6.429100
20.511700 6.325400
20.543100 6.024200
20.574400 6.763900
20.605800 8.426300
20.637200 5.957300
20.668600 5.587200
20.700000 5.855200
20.731400 6.668400
20.762800 6.031900
20.794200 6.208200
20.825600 7.262000
20.856900 9.075900
20.888300 6.985500
20.919700 5.211100
20.951100 4.945500
20.982500 4.863700
21.013900 5.019700
21.045300 5.320400
21.076700 5.860500
21.108100 6.965400
21.139400 6.647000
21.170800 6.790100
21.202200 6.002000
21.233600 5.658300
21.265000 5.786900
21.296400 5.898000
21.327800 6.954700
21.359200 7.576600
21.390600 8.054700
21.421900 7.469300
21.453300 7.034900
21.484700 6.430900
21.516100 5.895800
21.547500 6.156900
21.578900 6.864500
21.610300 7.009100
21.641700 6.790900
21.673100 6.681800
21.704400 6.924700
21.735800 7.814600
21.767200 5.230300
21.798600 4.048300
21.830000 3.404200
21.861400 2.985200
21.892800 2.671900
21.924200 2.847100
21.955500 2.415600
21.986900 2.178300
22.018300 1.989500
22.049700 1.850600
22.081100 1.663100
22.112500 1.442200
22.143900 1.249600
22.175300 1.085500
22.206700 0.947900
22.238000 0.837100
22.269400 0.749900
22.300800 0.670800
22.332200 0.598000
22.363600 0.535400
22.395000 0.508200
22.426400 0.521100
22.457800 0.579700
22.489200 0.737000
22.520500 0.845500
22.551900 0.954400
22.583300 1.076900
22.614700 1.262100
22.646100 1.466500
22.677500 1.677100
22.708900 1.892600
22.740300 2.054700
22.771700 2.205200
22.803000 2.444700
22.834400 2.567000
22.865800 2.593300
22.897200 2.467200
22.928600 2.687300
22.960000 2.867300
22.991400 3.043300
23.022800 3.214400
23.054200 3.364000
23.085500 3.486800
23.116900 3.606200
23.148300 3.727600
23.179700 3.900700
23.211100 3.950000
23.242500 7.294300
23.273900 5.138800
23.305300 4.541200
23.336700 3.672000
23.368000 3.620000
23.399400 3.608600
23.430800 3.609000
23.462200 3.621500
23.493600 3.650100
23.525000 4.946500
23.556400 4.434600
23.587800 5.050400
23.619100 6.073500
23.650500 7.335500
23.681900 3.485800
23.713300 1.715900
23.744700 1.953400
23.776100 2.220300
23.807500 2.516500
23.838900 2.837900
23.870300 2.825500
23.901600 3.173400
23.933000 3.422600
23.964400 3.500700
23.995800 3.497200
24.027200 3.468300
24.058600 3.594300
24.090000 4.145000
24.121400 4.222700
24.152800 4.654800
24.184100 5.090200
24.215500 5.566400
24.246900 6.041100
24.278300 6.515400
24.309700 6.035300
24.341100 7.121200
24.372500 6.186300
24.403900 5.919400
24.435300 5.734100
24.466600 5.625500
24.498000 5.004900
24.529400 5.022800
24.560800 4.769000
24.592200 4.947100
24.623600 4.614100
24.655000 4.744800
24.686400 4.846700
24.717800 4.876900
24.749100 4.846800
24.780500 4.781300
24.811900 4.705100
24.843300 4.996500
24.874700 5.593800
24.906100 6.391300
24.937500 6.118400
24.968900 6.240100
25.000300 6.289900
25.031600 5.532000
25.063000 4.931300
25.094400 4.276800
25.125800 3.842800
25.157200 3.648600
25.188600 4.354200
25.220000 3.832900
25.251400 3.412800
25.282700 3.051100
25.314100 2.775900
25.345500 2.605700
25.376900 2.497400
25.408300 2.455600
25.439700 2.339400
25.471100 2.288200
25.502500 2.334700
25.533900 2.466300
25.565200 2.657200
25.596600 2.929800
25.628000 3.280900
25.659400 3.819000
25.690800 4.563200
25.722200 7.352100
25.753600 6.497500
25.785000 5.921700
25.816400 5.541600
25.847700 5.599100
25.879100 5.428400
25.910500 5.133500
25.941900 4.873200
25.973300 4.649700
26.004700 4.046300
26.036100 3.507800
26.067500 3.267900
26.098900 3.233900
26.130200 3.278000
26.161600 3.374500
26.193000 3.574600
26.224400 3.695300
26.255800 3.720300
26.287200 3.746900
26.318600 3.952200
26.350000 4.726300
26.381400 5.331700
26.412700 3.735100
26.444100 3.480900
26.475500 3.496000
26.506900 4.380700
26.538300 5.435700
26.569700 6.668200
26.601100 8.145300
26.632500 10.419900
26.663900 8.994500
26.695200 7.849300
26.726600 6.047700
26.758000 4.959900
26.789400 4.285100
26.820800 3.948700
26.852200 3.679300
26.883600 3.470800
26.915000 4.190100
26.946400 3.308900
26.977700 3.103000
27.009100 2.970600
27.040500 2.779500
27.071900 2.657000
27.103300 2.762100
27.134700 3.807800
27.166100 3.848200
27.197500 4.551300
27.228800 5.394200
27.260200 6.686200
27.291600 6.797100
27.323000 6.689800
27.354400 6.494800
27.385800 6.257200
27.417200 6.014800
27.448600 5.766700
27.480000 5.618600
27.511300 5.486400
27.542700 5.151200
27.574100 4.946700
27.605500 4.730700
27.636900 4.533800
27.668300 4.247400
27.699700 3.919000
27.731100 4.304300
27.762500 5.837000
27.793800 5.222300
27.825200 4.972400
27.856600 4.839500
27.888000 4.698900
27.919400 3.889700
27.950800 3.428400
27.982200 3.818500
28.013600 4.297100
28.045000 5.304500
28.076300 7.885300
28.107700 5.429700
28.139100 8.704100
28.170500 9.143600
28.201900 8.612100
28.233300 6.824700
28.264700 5.898300
28.296100 5.362500
28.327500 4.869900
28.358800 4.565200
28.390200 4.113800
28.421600 3.810900
28.453000 3.523000
28.484400 3.250000
28.515800 3.025000
28.547200 2.821500
28.578600 2.624500
28.610000 2.513300
28.641300 2.562100
28.672700 2.600100
28.704100 2.554800
28.735500 2.347900
28.766900 2.014800
28.798300 1.799600
28.829700 1.606000
28.861100 1.444600
28.892400 1.169900
28.923800 1.046600
28.955200 0.962100
28.986600 1.060100
29.018000 1.481500
29.049400 2.069900
29.080800 2.621200
29.112200 3.127200
29.143600 3.948000
29.174900 4.900400
29.206300 5.436800
29.237700 5.804000
29.269100 7.241700
29.300500 6.236200
29.331900 4.848400
29.363300 4.875000
29.394700 5.525000
29.426100 5.613000
29.457400 5.786900
29.488800 6.264300
29.520200 5.968900
29.551600 5.705400
29.583000 5.404800
29.614400 4.406300
29.645800 4.028900
29.677200 3.662100
29.708600 3.363400
29.739900 3.099400
29.771300 2.868600
29.802700 2.667200
29.834100 2.481300
29.865500 2.335800
29.896900 2.433200
29.928300 2.285100
29.959700 1.980200
29.991100 1.533800
30.022400 1.268800
30.053800 1.041900
30.085200 0.851800
30.116600 0.698600
30.148000 0.586500
30.179400 0.536400
30.210800 0.493700
30.242200 0.452800
30.273600 0.413700
30.304900 0.375800
30.336300 0.339200
30.367700 0.303800
30.399100 0.269700
30.430500 0.236600
30.461900 0.204700
30.493300 0.174500
30.524700 0.134300
30.556000 0.099100
30.587400 0.069200
30.618800 0.044600
30.650200 0.025500
30.681600 0.011600
30.713000 0.003100
30.744400 0.000000
30.775800 0.000000
30.807200 0.000000
30.838500 0.000000
30.869900 0.000000
30.901300 0.000000
30.932700 0.000000
30.964100 0.000000
30.995500 0.000000
31.026900 0.000000
31.058300 0.000000
31.089700 0.000000
31.121000 0.000000
31.152400 0.000000
31.183800 0.000000
31.215200 0.000000
31.246600 0.000000
31.278000 0.000000
31.309400 0.000000
31.340800 0.000000
31.372200 0.000000
31.403500 0.000000
31.434900 0.000000
31.466300 0.000000
31.497700 0.000000
31.529100 0.000000
31.560500 0.000000
31.591900 0.000000
31.623300 0.000000
31.654700 0.000000
31.686000 0.000000
31.717400 0.000000
31.748800 0.000000
31.780200 0.000000
31.811600 0.000000
31.843000 0.000000
31.874400 0.000000
31.905800 0.000000
31.937200 0.000000
31.968500 0.000000
31.999900 0.000000
32.031300 0.000000
32.062700 0.000000
32.094100 0.000000
32.125500 0.000000
32.156900 0.000000
32.188300 0.000000
32.219700 0.000000
32.251000 0.000000
32.282400 0.000000
32.313800 0.000000
32.345200 0.000000
32.376600 0.000000
32.408000 0.000000
32.439400 0.000000
32.470800 0.000000
32.502100 0.000000
32.533500 0.000000
32.564900 0.000000
32.596300 0.000000
32.627700 0.000000
32.659100 0.000000
32.690500 0.000000
32.721900 0.000000
32.753300 0.000000
32.784600 0.000000
32.816000 0.000000
32.847400 0.000000
32.878800 0.000000
32.910200 0.000000
32.941600 0.000000
32.973000 0.000000
33.004400 0.000000
33.035800 0.000000
33.067100 0.000000
33.098500 0.000000
33.129900 0.000000
33.161300 0.000000
33.192700 0.000000
33.224100 0.000000
33.255500 0.000000
33.286900 0.000000
33.318300 0.000000
33.349600 0.000000
33.381000 0.000000
33.412400 0.000000
33.443800 0.000000
33.475200 0.000000
33.506600 0.000000
33.538000 0.000000
33.569400 0.000000
33.600800 0.000000
e
