set title 'mp-556985 - Density of States'
set xlabel 'Energy (eV)'
set ylabel 'DOS (states/eV)'
set grid
set xrange [-10:10]
set yrange [0:49.829]
set xzeroaxis lt -1
set terminal png size 800,600
set output 'mp-556985_dos_gnuplot.png'
plot '-' using 1:2 with lines title 'DOS'
-22.441700 0.000000
-22.421300 0.000000
-22.401000 0.000000
-22.380600 0.000000
-22.360300 0.000000
-22.339900 0.000000
-22.319500 0.000000
-22.299200 0.000000
-22.278800 0.000000
-22.258500 0.000000
-22.238100 0.000000
-22.217800 0.000000
-22.197400 0.000000
-22.177100 0.000000
-22.156700 0.000000
-22.136400 0.000000
-22.116000 0.000000
-22.095700 0.000000
-22.075300 0.000000
-22.055000 0.000000
-22.034600 0.000000
-22.014200 0.000000
-21.993900 0.000000
-21.973500 0.000000
-21.953200 0.000000
-21.932800 0.000000
-21.912500 0.000000
-21.892100 0.000000
-21.871800 0.000000
-21.851400 0.000000
-21.831100 0.000000
-21.810700 0.000000
-21.790400 0.000000
-21.770000 0.000000
-21.749600 0.000000
-21.729300 0.000000
-21.708900 0.000000
-21.688600 0.000000
-21.668200 0.000000
-21.647900 0.000000
-21.627500 0.000000
-21.607200 0.000000
-21.586800 0.000000
-21.566500 0.000000
-21.546100 0.000000
-21.525800 0.000000
-21.505400 0.000000
-21.485100 0.000000
-21.464700 0.000000
-21.444300 0.000000
-21.424000 0.000000
-21.403600 0.000000
-21.383300 0.000000
-21.362900 0.000000
-21.342600 0.000000
-21.322200 0.000000
-21.301900 0.000000
-21.281500 0.000000
-21.261200 0.000000
-21.240800 0.000000
-21.220500 0.000000
-21.200100 0.000000
-21.179800 0.000000
-21.159400 0.000000
-21.139000 0.000000
-21.118700 0.000000
-21.098300 0.000000
-21.078000 0.000000
-21.057600 0.000000
-21.037300 0.000000
-21.016900 0.000000
-20.996600 0.000000
-20.976200 0.000000
-20.955900 0.000000
-20.935500 0.000000
-20.915200 0.000000
-20.894800 0.000000
-20.874500 0.000000
-20.854100 0.000000
-20.833700 0.000000
-20.813400 0.000000
-20.793000 0.000000
-20.772700 0.000000
-20.752300 0.000000
-20.732000 0.000000
-20.711600 0.000000
-20.691300 0.000000
-20.670900 0.000000
-20.650600 0.000000
-20.630200 0.000000
-20.609900 0.000000
-20.589500 1.385400
-20.569100 1.499000
-20.548800 2.033200
-20.528400 2.487900
-20.508100 3.108300
-20.487700 3.979400
-20.467400 5.842400
-20.447000 6.580700
-20.426700 6.552700
-20.406300 6.385000
-20.386000 5.628200
-20.365600 4.908800
-20.345300 4.639400
-20.324900 4.290200
-20.304600 4.155000
-20.284200 4.179200
-20.263800 4.584500
-20.243500 5.494000
-20.223100 5.957700
-20.202800 5.887200
-20.182400 4.684100
-20.162100 3.475000
-20.141700 0.929300
-20.121400 1.187700
-20.101000 1.956400
-20.080700 2.483400
-20.060300 3.568000
-20.040000 4.550600
-20.019600 5.369800
-19.999300 6.928500
-19.978900 9.131300
-19.958500 7.956300
-19.938200 7.092800
-19.917800 6.474400
-19.897500 6.069400
-19.877100 5.301300
-19.856800 5.128000
-19.836400 4.706700
-19.816100 4.297500
-19.795700 3.915000
-19.775400 3.852300
-19.755000 3.506500
-19.734700 1.683700
-19.714300 0.917900
-19.694000 0.635100
-19.673600 0.427500
-19.653200 0.260800
-19.632900 0.135100
-19.612500 0.050400
-19.592200 0.954600
-19.571800 2.763600
-19.551500 3.090400
-19.531100 3.188800
-19.510800 3.556900
-19.490400 4.267800
-19.470100 5.050800
-19.449700 5.562800
-19.429400 6.401100
-19.409000 7.076000
-19.388600 7.838700
-19.368300 6.900800
-19.347900 6.796300
-19.327600 7.572100
-19.307200 8.307800
-19.286900 6.133600
-19.266500 4.836800
-19.246200 3.359800
-19.225800 5.120600
-19.205500 5.157600
-19.185100 5.439100
-19.164800 5.461200
-19.144400 5.835400
-19.124100 5.202400
-19.103700 5.225800
-19.083300 5.878700
-19.063000 5.376500
-19.042600 5.172300
-19.022300 5.006800
-19.001900 4.673800
-18.981600 4.381200
-18.961200 4.204300
-18.940900 4.298300
-18.920500 3.992200
-18.900200 3.698100
-18.879800 3.436700
-18.859500 3.232400
-18.839100 3.564900
-18.818800 2.785900
-18.798400 2.178900
-18.778000 1.425000
-18.757700 0.702100
-18.737300 0.116200
-18.717000 0.000000
-18.696600 28.089600
-18.676300 28.636100
-18.655900 25.143600
-18.635600 26.881600
-18.615200 79.313600
-18.594900 14.600500
-18.574500 0.000000
-18.554200 0.000000
-18.533800 7.270800
-18.513400 13.726600
-18.493100 68.831900
-18.472700 23.621700
-18.452400 0.000000
-18.432000 224.753700
-18.411700 0.000000
-18.391300 0.000000
-18.371000 0.000000
-18.350600 0.000000
-18.330300 0.000000
-18.309900 0.000000
-18.289600 0.000000
-18.269200 0.000000
-18.248900 0.000000
-18.228500 0.000000
-18.208100 0.000000
-18.187800 0.000000
-18.167400 0.000000
-18.147100 0.000000
-18.126700 0.000000
-18.106400 0.000000
-18.086000 0.000000
-18.065700 0.000000
-18.045300 0.000000
-18.025000 0.000000
-18.004600 0.000000
-17.984300 0.000000
-17.963900 0.000000
-17.943600 0.000000
-17.923200 0.000000
-17.902800 0.000000
-17.882500 0.000000
-17.862100 0.000000
-17.841800 0.000000
-17.821400 0.000000
-17.801100 0.000000
-17.780700 0.000000
-17.760400 0.000000
-17.740000 0.000000
-17.719700 0.000000
-17.699300 0.000000
-17.679000 0.000000
-17.658600 0.000000
-17.638300 0.000000
-17.617900 0.000000
-17.597500 0.000000
-17.577200 0.000000
-17.556800 0.000000
-17.536500 0.000000
-17.516100 0.000000
-17.495800 0.000000
-17.475400 0.000000
-17.455100 0.000000
-17.434700 0.000000
-17.414400 0.000000
-17.394000 0.000000
-17.373700 0.000000
-17.353300 0.000000
-17.332900 0.000000
-17.312600 0.000000
-17.292200 0.000000
-17.271900 0.000000
-17.251500 0.000000
-17.231200 0.000000
-17.210800 0.000000
-17.190500 0.000000
-17.170100 0.000000
-17.149800 0.000000
-17.129400 0.000000
-17.109100 0.000000
-17.088700 0.000000
-17.068400 0.000000
-17.048000 0.000000
-17.027600 0.000000
-17.007300 0.000000
-16.986900 0.000000
-16.966600 0.000000
-16.946200 0.000000
-16.925900 0.000000
-16.905500 0.000000
-16.885200 0.000000
-16.864800 0.000000
-16.844500 0.000000
-16.824100 0.000000
-16.803800 0.000000
-16.783400 0.000000
-16.763100 0.000000
-16.742700 0.000000
-16.722300 0.000000
-16.702000 0.000000
-16.681600 0.000000
-16.661300 0.000000
-16.640900 0.000000
-16.620600 0.000000
-16.600200 0.000000
-16.579900 0.000000
-16.559500 0.000000
-16.539200 0.000000
-16.518800 0.000000
-16.498500 0.000000
-16.478100 0.000000
-16.457800 0.000000
-16.437400 0.000000
-16.417000 0.000000
-16.396700 0.000000
-16.376300 0.000000
-16.356000 0.000000
-16.335600 0.000000
-16.315300 0.000000
-16.294900 0.000000
-16.274600 0.000000
-16.254200 0.000000
-16.233900 0.000000
-16.213500 0.000000
-16.193200 0.000000
-16.172800 0.000000
-16.152400 0.000000
-16.132100 0.000000
-16.111700 0.000000
-16.091400 0.000000
-16.071000 0.000000
-16.050700 0.000000
-16.030300 0.000000
-16.010000 0.000000
-15.989600 0.000000
-15.969300 0.000000
-15.948900 0.000000
-15.928600 0.000000
-15.908200 0.000000
-15.887900 0.000000
-15.867500 0.000000
-15.847100 0.000000
-15.826800 0.000000
-15.806400 0.000000
-15.786100 0.000000
-15.765700 0.000000
-15.745400 0.000000
-15.725000 0.000000
-15.704700 0.000000
-15.684300 0.000000
-15.664000 0.000000
-15.643600 0.000000
-15.623300 0.000000
-15.602900 0.000000
-15.582600 0.000000
-15.562200 0.000000
-15.541800 0.000000
-15.521500 0.000000
-15.501100 0.000000
-15.480800 0.000000
-15.460400 0.000000
-15.440100 0.000000
-15.419700 0.000000
-15.399400 0.000000
-15.379000 0.000000
-15.358700 0.000000
-15.338300 0.000000
-15.318000 0.000000
-15.297600 0.000000
-15.277300 0.000000
-15.256900 0.000000
-15.236500 0.000000
-15.216200 0.000000
-15.195800 0.000000
-15.175500 0.000000
-15.155100 0.000000
-15.134800 0.000000
-15.114400 0.000000
-15.094100 0.000000
-15.073700 0.000000
-15.053400 0.000000
-15.033000 0.000000
-15.012700 0.000000
-14.992300 0.000000
-14.971900 0.000000
-14.951600 0.000000
-14.931200 0.000000
-14.910900 0.000000
-14.890500 0.000000
-14.870200 0.000000
-14.849800 0.000000
-14.829500 0.000000
-14.809100 0.000000
-14.788800 0.000000
-14.768400 0.000000
-14.748100 0.000000
-14.727700 0.000000
-14.707400 0.000000
-14.687000 0.000000
-14.666600 0.000000
-14.646300 0.000000
-14.625900 0.000000
-14.605600 0.000000
-14.585200 0.000000
-14.564900 0.000000
-14.544500 0.000000
-14.524200 0.000000
-14.503800 0.000000
-14.483500 0.000000
-14.463100 0.000000
-14.442800 0.000000
-14.422400 0.000000
-14.402100 0.000000
-14.381700 0.000000
-14.361300 0.000000
-14.341000 0.000000
-14.320600 0.000000
-14.300300 0.000000
-14.279900 0.000000
-14.259600 0.000000
-14.239200 0.000000
-14.218900 0.000000
-14.198500 0.000000
-14.178200 0.000000
-14.157800 0.000000
-14.137500 0.000000
-14.117100 0.000000
-14.096700 0.000000
-14.076400 0.000000
-14.056000 0.000000
-14.035700 0.000000
-14.015300 0.000000
-13.995000 0.000000
-13.974600 0.000000
-13.954300 0.000000
-13.933900 0.000000
-13.913600 0.000000
-13.893200 0.000000
-13.872900 0.000000
-13.852500 0.000000
-13.832200 0.000000
-13.811800 0.000000
-13.791400 0.000000
-13.771100 0.000000
-13.750700 0.000000
-13.730400 0.000000
-13.710000 0.000000
-13.689700 0.000000
-13.669300 0.000000
-13.649000 0.000000
-13.628600 0.000000
-13.608300 0.000000
-13.587900 0.000000
-13.567600 0.000000
-13.547200 0.000000
-13.526900 0.000000
-13.506500 0.000000
-13.486100 0.000000
-13.465800 0.000000
-13.445400 0.000000
-13.425100 0.000000
-13.404700 0.000000
-13.384400 0.000000
-13.364000 0.000000
-13.343700 0.000000
-13.323300 0.000000
-13.303000 0.000000
-13.282600 0.000000
-13.262300 0.000000
-13.241900 0.000000
-13.221600 0.000000
-13.201200 0.000000
-13.180800 0.000000
-13.160500 0.000000
-13.140100 0.000000
-13.119800 0.000000
-13.099400 0.000000
-13.079100 0.000000
-13.058700 0.000000
-13.038400 0.000000
-13.018000 0.000000
-12.997700 0.000000
-12.977300 0.000000
-12.957000 0.000000
-12.936600 0.000000
-12.916200 0.000000
-12.895900 0.000000
-12.875500 0.000000
-12.855200 0.000000
-12.834800 0.000000
-12.814500 0.000000
-12.794100 0.000000
-12.773800 0.000000
-12.753400 0.000000
-12.733100 0.000000
-12.712700 0.000000
-12.692400 0.000000
-12.672000 0.000000
-12.651700 0.000000
-12.631300 0.000000
-12.610900 0.000000
-12.590600 0.000000
-12.570200 0.000000
-12.549900 0.000000
-12.529500 0.000000
-12.509200 0.000000
-12.488800 0.000000
-12.468500 0.000000
-12.448100 0.000000
-12.427800 0.000000
-12.407400 0.000000
-12.387100 0.000000
-12.366700 0.000000
-12.346400 0.000000
-12.326000 0.000000
-12.305600 0.000000
-12.285300 0.000000
-12.264900 0.000000
-12.244600 0.000000
-12.224200 0.000000
-12.203900 0.000000
-12.183500 0.000000
-12.163200 0.000000
-12.142800 0.000000
-12.122500 0.000000
-12.102100 0.000000
-12.081800 0.000000
-12.061400 0.000000
-12.041100 0.000000
-12.020700 0.000000
-12.000300 0.000000
-11.980000 0.000000
-11.959600 0.000000
-11.939300 0.000000
-11.918900 0.000000
-11.898600 0.000000
-11.878200 0.000000
-11.857900 0.000000
-11.837500 0.000000
-11.817200 0.000000
-11.796800 0.000000
-11.776500 0.000000
-11.756100 0.000000
-11.735700 0.000000
-11.715400 0.000000
-11.695000 0.000000
-11.674700 0.000000
-11.654300 0.000000
-11.634000 0.000000
-11.613600 0.000000
-11.593300 0.000000
-11.572900 0.000000
-11.552600 0.000000
-11.532200 0.000000
-11.511900 0.000000
-11.491500 0.000000
-11.471200 0.000000
-11.450800 0.000000
-11.430400 0.000000
-11.410100 0.000000
-11.389700 0.000000
-11.369400 0.000000
-11.349000 0.000000
-11.328700 0.000000
-11.308300 0.000000
-11.288000 0.000000
-11.267600 0.000000
-11.247300 0.000000
-11.226900 0.000000
-11.206600 0.000000
-11.186200 0.000000
-11.165900 0.000000
-11.145500 0.000000
-11.125100 0.000000
-11.104800 0.000000
-11.084400 0.000000
-11.064100 0.000000
-11.043700 0.000000
-11.023400 0.000000
-11.003000 0.000000
-10.982700 0.000000
-10.962300 0.000000
-10.942000 0.000000
-10.921600 0.000000
-10.901300 0.000000
-10.880900 0.000000
-10.860600 0.000000
-10.840200 0.000000
-10.819800 0.000000
-10.799500 0.000000
-10.779100 0.000000
-10.758800 0.000000
-10.738400 0.000000
-10.718100 0.000000
-10.697700 0.000000
-10.677400 0.000000
-10.657000 0.000000
-10.636700 0.000000
-10.616300 0.000000
-10.596000 0.000000
-10.575600 0.000000
-10.555200 0.000000
-10.534900 0.000000
-10.514500 0.000000
-10.494200 0.000000
-10.473800 0.000000
-10.453500 0.000000
-10.433100 0.000000
-10.412800 0.000000
-10.392400 0.000000
-10.372100 0.000000
-10.351700 0.000000
-10.331400 0.000000
-10.311000 0.000000
-10.290700 0.000000
-10.270300 0.000000
-10.249900 0.000000
-10.229600 0.000000
-10.209200 0.000000
-10.188900 0.000000
-10.168500 0.266000
-10.148200 0.704600
-10.127800 1.125000
-10.107500 1.527200
-10.087100 1.911000
-10.066800 2.259300
-10.046400 2.468200
-10.026100 2.294600
-10.005700 2.284500
-9.985400 2.336500
-9.965000 2.421000
-9.944600 2.528700
-9.924300 2.647200
-9.903900 2.778100
-9.883600 2.940500
-9.863200 2.902300
-9.842900 2.878400
-9.822500 2.896700
-9.802200 2.961500
-9.781800 3.090600
-9.761500 3.210900
-9.741100 3.450600
-9.720800 3.581900
-9.700400 3.693100
-9.680100 3.690300
-9.659700 3.585900
-9.639300 3.373600
-9.619000 3.232400
-9.598600 3.163300
-9.578300 3.110600
-9.557900 2.821900
-9.537600 2.530400
-9.517200 2.263100
-9.496900 2.024900
-9.476500 1.815400
-9.456200 1.634600
-9.435800 1.592200
-9.415500 1.777100
-9.395100 1.739900
-9.374700 1.467900
-9.354400 1.109900
-9.334000 1.000000
-9.313700 1.000800
-9.293300 1.111200
-9.273000 1.590300
-9.252600 1.776400
-9.232300 1.838000
-9.211900 1.994100
-9.191600 2.181900
-9.171200 2.341800
-9.150900 2.503400
-9.130500 2.698600
-9.110200 2.891200
-9.089800 3.120600
-9.069400 3.511200
-9.049100 3.948100
-9.028700 4.124300
-9.008400 4.152400
-8.988000 4.050500
-8.967700 3.755000
-8.947300 3.357200
-8.927000 3.026700
-8.906600 2.780700
-8.886300 2.617600
-8.865900 2.491300
-8.845600 2.408600
-8.825200 2.335700
-8.804900 2.270700
-8.784500 2.215500
-8.764100 2.168900
-8.743800 2.127300
-8.723400 2.084100
-8.703100 2.001600
-8.682700 1.880900
-8.662400 1.728900
-8.642000 1.568900
-8.621700 1.432200
-8.601300 1.323500
-8.581000 1.210900
-8.560600 1.114200
-8.540300 1.018000
-8.519900 0.922400
-8.499500 0.827300
-8.479200 0.718200
-8.458800 0.575000
-8.438500 0.397600
-8.418100 0.186100
-8.397800 0.017500
-8.377400 0.094700
-8.357100 0.209300
-8.336700 0.350800
-8.316400 0.519200
-8.296000 0.714500
-8.275700 0.936700
-8.255300 1.196100
-8.235000 1.587500
-8.214600 2.196700
-8.194200 2.443100
-8.173900 2.694600
-8.153500 2.951000
-8.133200 3.571200
-8.112800 3.736000
-8.092500 3.713600
-8.072100 3.707400
-8.051800 3.702000
-8.031400 3.725800
-8.011100 3.793300
-7.990700 3.821600
-7.970400 4.152300
-7.950000 3.868800
-7.929700 3.537900
-7.909300 3.186600
-7.888900 3.095500
-7.868600 2.924900
-7.848200 2.755600
-7.827900 2.591600
-7.807500 2.440700
-7.787200 2.521800
-7.766800 2.408700
-7.746500 2.218500
-7.726100 2.050200
-7.705800 1.970200
-7.685400 1.924300
-7.665100 1.890300
-7.644700 1.855000
-7.624400 1.877500
-7.604000 2.021400
-7.583600 2.331100
-7.563300 2.578100
-7.542900 2.682800
-7.522600 2.673900
-7.502200 2.706700
-7.481900 2.727200
-7.461500 2.736300
-7.441200 2.741400
-7.420800 2.765300
-7.400500 2.455100
-7.380100 2.413200
-7.359800 2.411100
-7.339400 2.417200
-7.319000 2.443400
-7.298700 2.493300
-7.278300 2.551900
-7.258000 2.619100
-7.237600 2.689000
-7.217300 2.510400
-7.196900 2.539900
-7.176600 2.572600
-7.156200 2.611900
-7.135900 2.693500
-7.115500 2.844500
-7.095200 3.060000
-7.074800 3.337100
-7.054500 4.054200
-7.034100 3.992500
-7.013700 3.510000
-6.993400 3.250100
-6.973000 3.189100
-6.952700 3.126500
-6.932300 3.001100
-6.912000 2.967200
-6.891600 2.996700
-6.871300 2.456400
-6.850900 0.290200
-6.830600 0.000000
-6.810200 0.000000
-6.789900 0.000000
-6.769500 0.104700
-6.749200 0.762700
-6.728800 1.877100
-6.708400 7.175200
-6.688100 9.475100
-6.667700 12.700700
-6.647400 12.352600
-6.627000 12.847100
-6.606700 10.938800
-6.586300 8.505900
-6.566000 6.884600
-6.545600 6.075400
-6.525300 5.504400
-6.504900 2.953300
-6.484600 0.000000
-6.464200 0.000000
-6.443900 0.430400
-6.423500 0.888300
-6.403100 2.169400
-6.382800 4.471400
-6.362400 6.767500
-6.342100 9.332300
-6.321700 14.507100
-6.301400 15.624200
-6.281000 15.244900
-6.260700 15.000100
-6.240300 9.156600
-6.220000 4.093300
-6.199600 0.350100
-6.179300 0.622800
-6.158900 12.024300
-6.138500 9.482000
-6.118200 10.600600
-6.097800 10.737200
-6.077500 7.862700
-6.057100 7.566200
-6.036800 8.085000
-6.016400 8.660800
-5.996100 9.163400
-5.975700 10.291200
-5.955400 11.089000
-5.935000 7.725900
-5.914700 11.059900
-5.894300 14.899800
-5.874000 20.146200
-5.853600 14.603000
-5.833200 11.301300
-5.812900 6.820000
-5.792500 4.002000
-5.772200 2.982700
-5.751800 1.074400
-5.731500 0.000000
-5.711100 0.000000
-5.690800 0.000000
-5.670400 0.000000
-5.650100 0.000000
-5.629700 0.000000
-5.609400 0.000000
-5.589000 0.000000
-5.568700 0.000000
-5.548300 0.000000
-5.527900 0.000000
-5.507600 0.000000
-5.487200 0.000000
-5.466900 0.000000
-5.446500 0.000000
-5.426200 0.000000
-5.405800 0.000000
-5.385500 0.000000
-5.365100 0.000000
-5.344800 0.000000
-5.324400 0.000000
-5.304100 0.000000
-5.283700 0.000000
-5.263400 0.000000
-5.243000 0.000000
-5.222600 0.000000
-5.202300 0.000000
-5.181900 0.000000
-5.161600 0.000000
-5.141200 0.000000
-5.120900 0.000000
-5.100500 0.000000
-5.080200 0.000000
-5.059800 5.274300
-5.039500 45.298800
-5.019100 26.988900
-4.998800 17.063000
-4.978400 5.099600
-4.958000 0.000000
-4.937700 0.000000
-4.917300 0.000000
-4.897000 0.000000
-4.876600 0.000000
-4.856300 0.000000
-4.835900 0.000000
-4.815600 0.000000
-4.795200 0.000000
-4.774900 0.000000
-4.754500 0.000000
-4.734200 0.000000
-4.713800 0.000000
-4.693500 0.000000
-4.673100 0.000000
-4.652700 0.000000
-4.632400 0.000000
-4.612000 0.000000
-4.591700 0.000000
-4.571300 0.000000
-4.551000 0.000000
-4.530600 0.000000
-4.510300 0.000000
-4.489900 0.000000
-4.469600 0.000000
-4.449200 13.998100
-4.428900 8.691700
-4.408500 5.073800
-4.388200 5.050800
-4.367800 5.038300
-4.347400 4.763000
-4.327100 4.327500
-4.306700 3.946200
-4.286400 3.548200
-4.266000 3.450700
-4.245700 3.444600
-4.225300 3.440800
-4.205000 3.439200
-4.184600 3.439900
-4.164300 3.462500
-4.143900 6.418300
-4.123600 9.191800
-4.103200 4.715000
-4.082800 5.768900
-4.062500 2.921600
-4.042100 4.514700
-4.021800 7.480200
-4.001400 8.453600
-3.981100 10.881700
-3.960700 7.523400
-3.940400 7.090200
-3.920000 7.558100
-3.899700 8.048000
-3.879300 9.146100
-3.859000 14.708700
-3.838600 11.748200
-3.818300 5.856000
-3.797900 5.551100
-3.777500 8.450300
-3.757200 12.756000
-3.736800 17.604600
-3.716500 21.410300
-3.696100 13.373700
-3.675800 6.126900
-3.655400 2.346700
-3.635100 0.713200
-3.614700 2.033800
-3.594400 3.512200
-3.574000 5.946300
-3.553700 12.217400
-3.533300 16.111700
-3.513000 13.582000
-3.492600 12.324400
-3.472200 17.078100
-3.451900 6.249800
-3.431500 2.992900
-3.411200 2.311800
-3.390800 1.911200
-3.370500 3.552300
-3.350100 6.694700
-3.329800 12.652900
-3.309400 28.347600
-3.289100 36.384900
-3.268700 14.714500
-3.248400 3.647500
-3.228000 5.507800
-3.207700 5.127100
-3.187300 6.629200
-3.166900 10.004200
-3.146600 13.578200
-3.126200 9.669200
-3.105900 9.203600
-3.085500 10.072700
-3.065200 12.379600
-3.044800 23.131900
-3.024500 19.855700
-3.004100 12.871000
-2.983800 11.397300
-2.963400 11.478200
-2.943100 12.628200
-2.922700 13.508500
-2.902300 13.786100
-2.882000 8.439300
-2.861600 8.659700
-2.841300 10.915400
-2.820900 12.761500
-2.800600 11.556500
-2.780200 12.119800
-2.759900 12.659900
-2.739500 11.000600
-2.719200 4.802000
-2.698800 1.547500
-2.678500 1.712200
-2.658100 10.220100
-2.637800 15.522200
-2.617400 21.176900
-2.597000 15.690300
-2.576700 10.041000
-2.556300 7.923400
-2.536000 7.864200
-2.515600 7.872100
-2.495300 8.021200
-2.474900 7.240600
-2.454600 7.784100
-2.434200 9.939100
-2.413900 11.110400
-2.393500 13.262000
-2.373200 12.757800
-2.352800 10.770200
-2.332500 8.502400
-2.312100 9.324300
-2.291700 15.319800
-2.271400 19.273400
-2.251000 19.995400
-2.230700 19.850400
-2.210300 14.671900
-2.190000 7.074300
-2.169600 0.720400
-2.149300 5.674800
-2.128900 22.705800
-2.108600 20.977100
-2.088200 17.538400
-2.067900 15.678100
-2.047500 8.795800
-2.027200 5.893000
-2.006800 3.392600
-1.986400 5.311100
-1.966100 8.257200
-1.945700 11.748200
-1.925400 8.598900
-1.905000 7.030500
-1.884700 7.838100
-1.864300 7.853100
-1.844000 9.547500
-1.823600 10.411600
-1.803300 10.582500
-1.782900 7.218800
-1.762600 4.454600
-1.742200 10.445700
-1.721800 16.403100
-1.701500 19.754300
-1.681100 13.871900
-1.660800 9.900000
-1.640400 8.518700
-1.620100 8.390700
-1.599700 7.436400
-1.579400 3.498400
-1.559000 1.657900
-1.538700 7.243400
-1.518300 13.661500
-1.498000 14.748300
-1.477600 9.477500
-1.457300 7.678800
-1.436900 7.119200
-1.416500 6.978900
-1.396200 7.056900
-1.375800 20.965900
-1.355500 5.892800
-1.335100 0.000000
-1.314800 0.000000
-1.294400 0.000000
-1.274100 0.000000
-1.253700 0.000000
-1.233400 0.000000
-1.213000 0.000000
-1.192700 0.000000
-1.172300 0.000000
-1.152000 0.000000
-1.131600 0.000000
-1.111200 0.000000
-1.090900 0.000000
-1.070500 0.000000
-1.050200 0.000000
-1.029800 0.000000
-1.009500 0.000000
-0.989100 0.000000
-0.968800 0.000000
-0.948400 0.000000
-0.928100 0.000000
-0.907700 0.000000
-0.887400 0.000000
-0.867000 0.000000
-0.846700 0.000000
-0.826300 0.000000
-0.805900 0.000000
-0.785600 0.000000
-0.765200 0.000000
-0.744900 0.000000
-0.724500 0.000000
-0.704200 0.000000
-0.683800 0.000000
-0.663500 0.000000
-0.643100 0.000000
-0.622800 0.000000
-0.602400 0.000000
-0.582100 0.000000
-0.561700 0.000000
-0.541300 0.000000
-0.521000 0.000000
-0.500600 0.000000
-0.480300 0.000000
-0.459900 0.000000
-0.439600 0.000000
-0.419200 0.000000
-0.398900 0.000000
-0.378500 0.000000
-0.358200 0.000000
-0.337800 0.000000
-0.317500 0.000000
-0.297100 0.000000
-0.276800 0.000000
-0.256400 0.000000
-0.236000 0.000000
-0.215700 0.000000
-0.195300 0.000000
-0.175000 0.000000
-0.154600 0.000000
-0.134300 0.000000
-0.113900 0.000000
-0.093600 0.000000
-0.073200 0.000000
-0.052900 0.000000
-0.032500 0.000000
-0.012200 0.000000
0.008200 0.000000
0.028500 0.000000
0.048900 0.000000
0.069300 0.000000
0.089600 0.000000
0.110000 0.000000
0.130300 0.000000
0.150700 0.000000
0.171000 0.000000
0.191400 0.000000
0.211700 0.000000
0.232100 0.000000
0.252400 0.000000
0.272800 0.000000
0.293100 0.000000
0.313500 0.000000
0.333900 0.000000
0.354200 0.000000
0.374600 0.000000
0.394900 0.000000
0.415300 0.000000
0.435600 0.000000
0.456000 0.000000
0.476300 0.000000
0.496700 0.000000
0.517000 0.000000
0.537400 0.000000
0.557700 0.000000
0.578100 0.000000
0.598400 0.000000
0.618800 0.000000
0.639200 0.000000
0.659500 0.000000
0.679900 0.000000
0.700200 0.000000
0.720600 0.000000
0.740900 0.000000
0.761300 0.000000
0.781600 0.000000
0.802000 0.000000
0.822300 0.000000
0.842700 0.000000
0.863000 0.000000
0.883400 0.000000
0.903700 0.000000
0.924100 0.000000
0.944500 0.000000
0.964800 0.000000
0.985200 0.000000
1.005500 0.000000
1.025900 0.000000
1.046200 0.000000
1.066600 0.000000
1.086900 0.000000
1.107300 0.000000
1.127600 0.000000
1.148000 0.000000
1.168300 0.000000
1.188700 0.000000
1.209000 0.000000
1.229400 0.000000
1.249800 0.000000
1.270100 0.000000
1.290500 0.000000
1.310800 0.000000
1.331200 0.000000
1.351500 0.000000
1.371900 0.000000
1.392200 0.000000
1.412600 0.000000
1.432900 0.000000
1.453300 0.000000
1.473600 0.000000
1.494000 0.000000
1.514400 0.000000
1.534700 0.000000
1.555100 0.000000
1.575400 0.000000
1.595800 0.000000
1.616100 0.000000
1.636500 0.000000
1.656800 0.000000
1.677200 0.000000
1.697500 0.000000
1.717900 0.000000
1.738200 0.000000
1.758600 0.000000
1.778900 0.000000
1.799300 0.000000
1.819700 0.000000
1.840000 0.000000
1.860400 0.000000
1.880700 0.000000
1.901100 0.000000
1.921400 0.000000
1.941800 0.000000
1.962100 0.000000
1.982500 0.000000
2.002800 0.000000
2.023200 0.000000
2.043500 0.000000
2.063900 0.000000
2.084200 0.000000
2.104600 0.000000
2.125000 0.000000
2.145300 0.000000
2.165700 0.000000
2.186000 0.000000
2.206400 0.000000
2.226700 0.000000
2.247100 0.000000
2.267400 0.000000
2.287800 0.000000
2.308100 0.000000
2.328500 0.000000
2.348800 0.000000
2.369200 0.000000
2.389500 0.000000
2.409900 0.000000
2.430300 0.000000
2.450600 0.000000
2.471000 0.000000
2.491300 0.000000
2.511700 0.000000
2.532000 0.000000
2.552400 0.000000
2.572700 0.000000
2.593100 0.000000
2.613400 0.000000
2.633800 0.000000
2.654100 0.000000
2.674500 0.000000
2.694900 0.000000
2.715200 0.000000
2.735600 0.000000
2.755900 0.000000
2.776300 0.000000
2.796600 0.000000
2.817000 0.000000
2.837300 0.000000
2.857700 0.000000
2.878000 0.000000
2.898400 0.000000
2.918700 0.000000
2.939100 0.000000
2.959400 0.000000
2.979800 0.000000
3.000200 0.000000
3.020500 0.000000
3.040900 0.000000
3.061200 0.000000
3.081600 0.000000
3.101900 0.000000
3.122300 0.000000
3.142600 0.000000
3.163000 0.000000
3.183300 0.000000
3.203700 0.000000
3.224000 0.000000
3.244400 0.000000
3.264700 0.000000
3.285100 0.000000
3.305500 0.000000
3.325800 0.000000
3.346200 0.000000
3.366500 0.000000
3.386900 0.000000
3.407200 0.000000
3.427600 0.000000
3.447900 0.000000
3.468300 0.000000
3.488600 0.000000
3.509000 0.000000
3.529300 0.000000
3.549700 0.000000
3.570000 0.000000
3.590400 0.000000
3.610800 0.000000
3.631100 0.000000
3.651500 0.000000
3.671800 0.000000
3.692200 0.000000
3.712500 0.000000
3.732900 0.000000
3.753200 0.000000
3.773600 0.000000
3.793900 0.000000
3.814300 0.000000
3.834600 0.000000
3.855000 0.000000
3.875400 0.000000
3.895700 0.000000
3.916100 0.000000
3.936400 0.000000
3.956800 0.000000
3.977100 0.000000
3.997500 0.000000
4.017800 0.000000
4.038200 0.000000
4.058500 0.000000
4.078900 0.000000
4.099200 0.000000
4.119600 0.000000
4.139900 0.000000
4.160300 0.000000
4.180700 0.000000
4.201000 0.000000
4.221400 0.000000
4.241700 0.000000
4.262100 0.000000
4.282400 0.000000
4.302800 0.000000
4.323100 0.000000
4.343500 0.000000
4.363800 0.000000
4.384200 0.000000
4.404500 0.000000
4.424900 0.000000
4.445200 0.000000
4.465600 0.000000
4.486000 0.364900
4.506300 0.280300
4.526700 0.234500
4.547000 0.227300
4.567400 0.245600
4.587700 0.264300
4.608100 0.282700
4.628400 0.300900
4.648800 0.318800
4.669100 0.336500
4.689500 0.354000
4.709800 0.371200
4.730200 0.388200
4.750500 0.404900
4.770900 0.421400
4.791300 0.437700
4.811600 0.453700
4.832000 0.469800
4.852300 0.486600
4.872700 0.504000
4.893000 0.522100
4.913400 0.540700
4.933700 0.560000
4.954100 0.579900
4.974400 0.608400
4.994800 0.638900
5.015100 0.669100
5.035500 0.698800
5.055900 0.728100
5.076200 0.757000
5.096600 0.785500
5.116900 0.813500
5.137300 0.841400
5.157600 0.870000
5.178000 0.900800
5.198300 0.933700
5.218700 1.041100
5.239000 1.074800
5.259400 1.111000
5.279700 1.149700
5.300100 1.189000
5.320400 1.227400
5.340800 1.264600
5.361200 1.299700
5.381500 1.324300
5.401900 1.341500
5.422200 1.351200
5.442600 1.353600
5.462900 1.351700
5.483300 1.347000
5.503600 1.339800
5.524000 1.330100
5.544300 1.317900
5.564700 1.303100
5.585000 1.298200
5.605400 1.295800
5.625700 1.293400
5.646100 1.290900
5.666500 1.288300
5.686800 1.285700
5.707200 1.277400
5.727500 1.258900
5.747900 1.231800
5.768200 1.202600
5.788600 1.177900
5.808900 1.158500
5.829300 1.144300
5.849600 1.134800
5.870000 1.122200
5.890300 1.105600
5.910700 1.090500
5.931100 1.078700
5.951400 1.070200
5.971800 1.065000
5.992100 1.063100
6.012500 1.064500
6.032800 1.070400
6.053200 1.117300
6.073500 1.195300
6.093900 1.248700
6.114200 1.370300
6.134600 1.392100
6.154900 1.430600
6.175300 1.478500
6.195600 1.535100
6.216000 1.610100
6.236400 1.684300
6.256700 1.755100
6.277100 1.823900
6.297400 1.892400
6.317800 1.960500
6.338100 2.028100
6.358500 2.095400
6.378800 2.163800
6.399200 2.227200
6.419500 2.295500
6.439900 2.370100
6.460200 2.451200
6.480600 2.487800
6.500900 2.496000
6.521300 2.375700
6.541700 2.024800
6.562000 1.859200
6.582400 1.755300
6.602700 1.700000
6.623100 1.700600
6.643400 1.739400
6.663800 1.789300
6.684100 1.845700
6.704500 1.908400
6.724800 1.977400
6.745200 2.052600
6.765500 2.134100
6.785900 2.220600
6.806200 2.323200
6.826600 2.465000
6.847000 2.648500
6.867300 2.837900
6.887700 3.002300
6.908000 3.242200
6.928400 3.411700
6.948700 3.502100
6.969100 3.539800
6.989400 3.645200
7.009800 3.771600
7.030100 3.878500
7.050500 3.998200
7.070800 4.211900
7.091200 4.449800
7.111600 4.642400
7.131900 4.857500
7.152300 5.176400
7.172600 5.247400
7.193000 5.388800
7.213300 5.909500
7.233700 6.095800
7.254000 5.733200
7.274400 6.062200
7.294700 7.426100
7.315100 5.835900
7.335400 5.398200
7.355800 5.065200
7.376100 4.698100
7.396500 4.347900
7.416900 4.158500
7.437200 3.914900
7.457600 3.517200
7.477900 3.102200
7.498300 3.051300
7.518600 4.432800
7.539000 4.539700
7.559300 4.348500
7.579700 4.433800
7.600000 4.383600
7.620400 4.634800
7.640700 5.337300
7.661100 6.766600
7.681400 8.436100
7.701800 9.784300
7.722200 10.014700
7.742500 10.466200
7.762900 8.950000
7.783200 7.311900
7.803600 4.285400
7.823900 2.699900
7.844300 2.549700
7.864600 2.545900
7.885000 5.475900
7.905300 11.994000
7.925700 13.831500
7.946000 13.787300
7.966400 13.054800
7.986700 11.222100
8.007100 10.561600
8.027500 7.378800
8.047800 5.875100
8.068200 2.442800
8.088500 1.261500
8.108900 2.421100
8.129200 6.165400
8.149600 9.359800
8.169900 10.619600
8.190300 10.057500
8.210600 11.139400
8.231000 12.913600
8.251300 14.068500
8.271700 10.898600
8.292100 6.660900
8.312400 4.020000
8.332800 3.283100
8.353100 3.992100
8.373500 4.908300
8.393800 6.691100
8.414200 8.108800
8.434500 10.557000
8.454900 13.427500
8.475200 12.855900
8.495600 11.499800
8.515900 11.636500
8.536300 7.043700
8.556600 6.622000
8.577000 7.433600
8.597400 8.665200
8.617700 11.174800
8.638100 9.893900
8.658400 8.621000
8.678800 8.274400
8.699100 8.316600
8.719500 8.040000
8.739800 6.735900
8.760200 5.839700
8.780500 5.202500
8.800900 5.283400
8.821200 5.784000
8.841600 7.905100
8.861900 8.908800
8.882300 9.790300
8.902700 12.140700
8.923000 10.114800
8.943400 8.567100
8.963700 7.347400
8.984100 5.892200
9.004400 5.178500
9.024800 5.771900
9.045100 5.810500
9.065500 6.363600
9.085800 6.578600
9.106200 6.825100
9.126500 7.702900
9.146900 8.315300
9.167200 7.275100
9.187600 6.089000
9.208000 5.776000
9.228300 5.734700
9.248700 5.827900
9.269000 6.687600
9.289400 7.690700
9.309700 7.991300
9.330100 8.424000
9.350400 7.945000
9.370800 6.718200
9.391100 6.202400
9.411500 6.438700
9.431800 6.342100
9.452200 6.458500
9.472600 6.722600
9.492900 7.052500
9.513300 7.445000
9.533600 7.949700
9.554000 9.202700
9.574300 9.173300
9.594700 9.532100
9.615000 11.291000
9.635400 11.722800
9.655700 9.658500
9.676100 7.468000
9.696400 6.418800
9.716800 5.969100
9.737100 5.734600
9.757500 5.415800
9.777900 5.157600
9.798200 4.847800
9.818600 4.519800
9.838900 4.293300
9.859300 4.151500
9.879600 4.011900
9.900000 4.042200
9.920300 4.999900
9.940700 6.062700
9.961000 6.672800
9.981400 6.840900
10.001700 6.638700
10.022100 6.107200
10.042400 5.926200
10.062800 5.363400
10.083200 5.150600
10.103500 5.516000
10.123900 5.464000
10.144200 5.126100
10.164600 5.175600
10.184900 5.928700
10.205300 8.267700
10.225600 11.033100
10.246000 10.070700
10.266300 9.618600
10.286700 9.934700
10.307000 9.540600
10.327400 7.107200
10.347800 5.728800
10.368100 4.701000
10.388500 4.434800
10.408800 4.316700
10.429200 4.475400
10.449500 4.873600
10.469900 5.647400
10.490200 6.732100
10.510600 7.464700
10.530900 7.427200
10.551300 7.550000
10.571600 9.921600
10.592000 8.671000
10.612300 7.458300
10.632700 6.272000
10.653100 5.831200
10.673400 6.184200
10.693800 6.550500
10.714100 7.376300
10.734500 7.387700
10.754800 7.644300
10.775200 7.934000
10.795500 7.873000
10.815900 7.659600
10.836200 7.432800
10.856600 7.246500
10.876900 7.401600
10.897300 6.636600
10.917600 6.175700
10.938000 4.997300
10.958400 4.752200
10.978700 6.065300
10.999100 7.595300
11.019400 9.546400
11.039800 12.726400
11.060100 11.512800
11.080500 12.731300
11.100800 8.763200
11.121200 7.813400
11.141500 7.341700
11.161900 6.014100
11.182200 5.451700
11.202600 4.902400
11.222900 4.675300
11.243300 4.427000
11.263700 4.115400
11.284000 3.921100
11.304400 4.083100
11.324700 4.640300
11.345100 5.325900
11.365400 6.817400
11.385800 7.996600
11.406100 8.798600
11.426500 8.501200
11.446800 6.947600
11.467200 6.927100
11.487500 7.195900
11.507900 7.384100
11.528300 5.494600
11.548600 4.946100
11.569000 5.914600
11.589300 5.564700
11.609700 5.352300
11.630000 5.419100
11.650400 6.147800
11.670700 7.390700
11.691100 7.798900
11.711400 7.797000
11.731800 8.089300
11.752100 7.960500
11.772500 7.423300
11.792800 7.099000
11.813200 6.851500
11.833600 6.473900
11.853900 5.539100
11.874300 5.004700
11.894600 4.694300
11.915000 4.251600
11.935300 3.994700
11.955700 4.263600
11.976000 6.182200
11.996400 7.005400
12.016700 6.712900
12.037100 6.929400
12.057400 9.279600
12.077800 8.387200
12.098100 8.227900
12.118500 8.719300
12.138900 8.856500
12.159200 8.516900
12.179600 7.276900
12.199900 5.869100
12.220300 5.672400
12.240600 6.035300
12.261000 5.885800
12.281300 5.832900
12.301700 5.505900
12.322000 5.853800
12.342400 7.346400
12.362700 8.280500
12.383100 6.599700
12.403400 6.280300
12.423800 6.631100
12.444200 6.637200
12.464500 8.309900
12.484900 7.208800
12.505200 7.984100
12.525600 8.149900
12.545900 7.979700
12.566300 7.096100
12.586600 6.350500
12.607000 6.016800
12.627300 5.873500
12.647700 5.784400
12.668000 5.805800
12.688400 5.847200
12.708800 6.101300
12.729100 5.933500
12.749500 5.262600
12.769800 4.936600
12.790200 4.865900
12.810500 4.849600
12.830900 4.818000
12.851200 4.976300
12.871600 5.445900
12.891900 5.319600
12.912300 5.562300
12.932600 5.443000
12.953000 5.368000
12.973300 5.168000
12.993700 5.453100
13.014100 7.030800
13.034400 8.201500
13.054800 8.121900
13.075100 8.055100
13.095500 8.396400
13.115800 9.498700
13.136200 8.964900
13.156500 7.389500
13.176900 6.332800
13.197200 5.041100
13.217600 4.378700
13.237900 3.601100
13.258300 3.032300
13.278600 2.700200
13.299000 3.555300
13.319400 5.075300
13.339700 9.285100
13.360100 13.030100
13.380400 11.814300
13.400800 10.749200
13.421100 8.879300
13.441500 8.250700
13.461800 6.979300
13.482200 5.517100
13.502500 4.162900
13.522900 3.296400
13.543200 2.714700
13.563600 3.986500
13.583900 6.960700
13.604300 7.530100
13.624700 8.530000
13.645000 9.820700
13.665400 11.091900
13.685700 9.192700
13.706100 5.835100
13.726400 5.029200
13.746800 4.909900
13.767100 4.852300
13.787500 4.607700
13.807800 4.152300
13.828200 4.050300
13.848500 3.996200
13.868900 3.948500
13.889300 3.974100
13.909600 4.102600
13.930000 4.601700
13.950300 4.496900
13.970700 4.464500
13.991000 5.017500
14.011400 4.538900
14.031700 4.395000
14.052100 4.327000
14.072400 4.236200
14.092800 4.106100
14.113100 4.263400
14.133500 4.418400
14.153800 4.531100
14.174200 4.629600
14.194600 5.193400
14.214900 4.996800
14.235300 5.299300
14.255600 5.587900
14.276000 6.472600
14.296300 7.376700
14.316700 6.513800
14.337000 6.068600
14.357400 6.708400
14.377700 7.354300
14.398100 7.520100
14.418400 7.370600
14.438800 7.205600
14.459100 6.151200
14.479500 5.804200
14.499900 5.806000
14.520200 5.539600
14.540600 5.573000
14.560900 5.504100
14.581300 5.148100
14.601600 4.796700
14.622000 4.371700
14.642300 4.112700
14.662700 4.169900
14.683000 5.085800
14.703400 5.747000
14.723700 5.844700
14.744100 5.880900
14.764500 5.932700
14.784800 5.683000
14.805200 6.491800
14.825500 6.285300
14.845900 5.334600
14.866200 5.409300
14.886600 5.866600
14.906900 5.703100
14.927300 6.561100
14.947600 7.625700
14.968000 9.330300
14.988300 7.410300
15.008700 5.712500
15.029000 5.140500
15.049400 4.425000
15.069800 4.050100
15.090100 3.902400
15.110500 4.199800
15.130800 4.805300
15.151200 5.133500
15.171500 5.279500
15.191900 5.473200
15.212200 5.781500
15.232600 6.359800
15.252900 6.817900
15.273300 7.447700
15.293600 8.174000
15.314000 8.765700
15.334300 7.876800
15.354700 6.138100
15.375100 5.135400
15.395400 4.517100
15.415800 4.843200
15.436100 5.704600
15.456500 6.846800
15.476800 6.264300
15.497200 6.280600
15.517500 6.769700
15.537900 9.205200
15.558200 9.705800
15.578600 8.832400
15.598900 7.975500
15.619300 7.368900
15.639600 6.659800
15.660000 7.623400
15.680400 5.657200
15.700700 5.691600
15.721100 5.692500
15.741400 5.911800
15.761800 6.487800
15.782100 7.162400
15.802500 8.030900
15.822800 8.893700
15.843200 9.178000
15.863500 9.151600
15.883900 9.459600
15.904200 8.880000
15.924600 8.937300
15.945000 8.494300
15.965300 6.346200
15.985700 5.351900
16.006000 4.415400
16.026400 3.756000
16.046700 3.506300
16.067100 3.305900
16.087400 3.397200
16.107800 3.496600
16.128100 3.829300
16.148500 4.288400
16.168800 4.356800
16.189200 4.136200
16.209500 3.142000
16.229900 2.721600
16.250300 1.684200
16.270600 0.988400
16.291000 0.590100
16.311300 0.391700
16.331700 0.253000
16.352000 0.144400
16.372400 0.066100
16.392700 0.018000
16.413100 0.000100
16.433400 0.000000
16.453800 0.000000
16.474100 0.000000
16.494500 0.000000
16.514800 0.000000
16.535200 0.000000
16.555600 0.000000
16.575900 0.000000
16.596300 0.000000
16.616600 0.000000
16.637000 0.000000
16.657300 0.000000
16.677700 0.000000
16.698000 0.000000
16.718400 0.000000
16.738700 0.000000
16.759100 0.000000
16.779400 0.000000
16.799800 0.000000
16.820100 0.000000
16.840500 0.000000
16.860900 0.000000
16.881200 0.000000
16.901600 0.000000
16.921900 0.000000
16.942300 0.000000
16.962600 0.000000
16.983000 0.000000
17.003300 0.000000
17.023700 0.000000
17.044000 0.000000
17.064400 0.000000
17.084700 0.000000
17.105100 0.000000
17.125500 0.000000
17.145800 0.000000
17.166200 0.000000
17.186500 0.000000
17.206900 0.000000
17.227200 0.000000
17.247600 0.000000
17.267900 0.000000
17.288300 0.000000
17.308600 0.000000
17.329000 0.000000
17.349300 0.000000
17.369700 0.000000
17.390000 0.000000
17.410400 0.000000
17.430800 0.000000
17.451100 0.000000
17.471500 0.000000
17.491800 0.000000
17.512200 0.000000
17.532500 0.000000
17.552900 0.000000
17.573200 0.000000
17.593600 0.000000
17.613900 0.000000
17.634300 0.000000
17.654600 0.000000
17.675000 0.000000
17.695300 0.000000
17.715700 0.000000
17.736100 0.000000
17.756400 0.000000
17.776800 0.000000
17.797100 0.000000
17.817500 0.000000
17.837800 0.000000
17.858200 0.000000
17.878500 0.000000
17.898900 0.000000
17.919200 0.000000
17.939600 0.000000
17.959900 0.000000
17.980300 0.000000
18.000600 0.000000
18.021000 0.000000
18.041400 0.000000
18.061700 0.000000
18.082100 0.000000
18.102400 0.000000
18.122800 0.000000
18.143100 0.000000
18.163500 0.000000
18.183800 0.000000
18.204200 0.000000
18.224500 0.000000
18.244900 0.000000
18.265200 0.000000
e
