set title 'mp-1105780 - Density of States'
set xlabel 'Energy (eV)'
set ylabel 'DOS (states/eV)'
set grid
set xrange [-10:10]
set yrange [0:58.210]
set xzeroaxis lt -1
set terminal png size 800,600
set output 'mp-1105780_dos_gnuplot.png'
plot '-' using 1:2 with lines title 'DOS'
-15.257100 0.000000
-15.236900 0.000000
-15.216700 0.000000
-15.196500 0.000000
-15.176300 0.000000
-15.156100 0.000000
-15.135900 0.000000
-15.115700 0.000000
-15.095400 0.000000
-15.075200 0.000000
-15.055000 0.000000
-15.034800 0.000000
-15.014600 0.000000
-14.994400 0.000000
-14.974200 0.000000
-14.954000 0.000000
-14.933800 0.000000
-14.913600 0.000000
-14.893400 0.000000
-14.873200 0.000000
-14.852900 0.000000
-14.832700 0.000000
-14.812500 0.000000
-14.792300 0.000000
-14.772100 0.000000
-14.751900 0.000000
-14.731700 0.000000
-14.711500 0.000000
-14.691300 0.000000
-14.671100 0.000000
-14.650900 0.000000
-14.630700 0.000000
-14.610400 0.000000
-14.590200 0.000000
-14.570000 0.000000
-14.549800 0.000000
-14.529600 0.000000
-14.509400 0.000000
-14.489200 0.000000
-14.469000 0.000000
-14.448800 0.000000
-14.428600 0.000000
-14.408400 0.000000
-14.388200 0.000000
-14.367900 0.000000
-14.347700 0.000000
-14.327500 0.000000
-14.307300 0.000000
-14.287100 0.000000
-14.266900 0.000000
-14.246700 0.000000
-14.226500 0.000000
-14.206300 0.000000
-14.186100 0.000000
-14.165900 0.000000
-14.145700 0.000000
-14.125400 0.000000
-14.105200 0.000000
-14.085000 0.000000
-14.064800 0.000000
-14.044600 0.000000
-14.024400 0.000000
-14.004200 0.000000
-13.984000 0.000000
-13.963800 0.000000
-13.943600 0.000000
-13.923400 0.000000
-13.903200 0.000000
-13.882900 0.000000
-13.862700 0.000000
-13.842500 0.000000
-13.822300 0.000000
-13.802100 0.000000
-13.781900 0.000000
-13.761700 0.000000
-13.741500 0.000000
-13.721300 0.000000
-13.701100 0.000000
-13.680900 0.000000
-13.660700 0.000000
-13.640400 0.000000
-13.620200 0.000000
-13.600000 0.000000
-13.579800 0.000000
-13.559600 0.000000
-13.539400 0.000000
-13.519200 0.000000
-13.499000 0.000000
-13.478800 0.000000
-13.458600 0.000000
-13.438400 0.000000
-13.418200 0.000400
-13.397900 0.061500
-13.377700 0.225900
-13.357500 0.493700
-13.337300 0.864800
-13.317100 1.339200
-13.296900 1.915500
-13.276700 2.573900
-13.256500 3.636500
-13.236300 4.758300
-13.216100 5.615100
-13.195900 6.206800
-13.175700 6.533400
-13.155400 6.547000
-13.135200 6.060200
-13.115000 5.477400
-13.094800 4.839300
-13.074600 4.311300
-13.054400 3.911300
-13.034200 3.639300
-13.014000 3.495300
-12.993800 3.470200
-12.973600 3.478900
-12.953400 3.507000
-12.933200 3.554700
-12.912900 3.622300
-12.892700 3.709600
-12.872500 3.816700
-12.852300 4.968600
-12.832100 7.625900
-12.811900 12.276500
-12.791700 16.527600
-12.771500 17.858000
-12.751300 17.383200
-12.731100 14.277600
-12.710900 6.444700
-12.690700 6.595200
-12.670400 6.924800
-12.650200 7.433600
-12.630000 8.166600
-12.609800 9.160000
-12.589600 10.376400
-12.569400 11.309900
-12.549200 11.794900
-12.529000 11.263100
-12.508800 10.491000
-12.488600 9.504800
-12.468400 9.725400
-12.448200 11.910600
-12.427900 14.055000
-12.407700 9.907000
-12.387500 8.702300
-12.367300 8.144200
-12.347100 7.657900
-12.326900 7.243300
-12.306700 6.900400
-12.286500 6.771000
-12.266300 8.753600
-12.246100 11.593800
-12.225900 17.602800
-12.205700 19.385700
-12.185400 23.851600
-12.165200 21.617700
-12.145000 15.127700
-12.124800 11.522900
-12.104600 8.969400
-12.084400 7.582500
-12.064200 8.151600
-12.044000 10.416500
-12.023800 12.368900
-12.003600 13.309600
-11.983400 13.550300
-11.963200 10.910700
-11.942900 11.623200
-11.922700 18.705400
-11.902500 39.929200
-11.882300 50.457000
-11.862100 53.441800
-11.841900 13.059900
-11.821700 2.979000
-11.801500 0.000000
-11.781300 0.000000
-11.761100 0.000000
-11.740900 0.000000
-11.720700 0.000000
-11.700400 0.000000
-11.680200 0.000000
-11.660000 0.672600
-11.639800 3.602400
-11.619600 9.069400
-11.599400 17.557500
-11.579200 64.805800
-11.559000 24.836700
-11.538800 32.464900
-11.518600 39.674500
-11.498400 63.360200
-11.478200 80.331100
-11.457900 21.978300
-11.437700 0.000000
-11.417500 0.000000
-11.397300 0.000000
-11.377100 0.000000
-11.356900 0.000000
-11.336700 0.000000
-11.316500 0.000000
-11.296300 0.000000
-11.276100 0.000000
-11.255900 0.000000
-11.235600 0.000000
-11.215400 0.000000
-11.195200 0.000000
-11.175000 0.000000
-11.154800 0.000000
-11.134600 0.000000
-11.114400 0.000000
-11.094200 0.000000
-11.074000 0.000000
-11.053800 0.000000
-11.033600 0.000000
-11.013400 0.000000
-10.993100 0.000000
-10.972900 0.000000
-10.952700 0.000000
-10.932500 0.000000
-10.912300 0.000000
-10.892100 0.000000
-10.871900 0.000000
-10.851700 0.000000
-10.831500 0.000000
-10.811300 0.000000
-10.791100 0.000000
-10.770900 0.000000
-10.750600 0.000000
-10.730400 0.000000
-10.710200 0.000000
-10.690000 0.000000
-10.669800 0.000000
-10.649600 0.000000
-10.629400 0.000000
-10.609200 0.000000
-10.589000 0.000000
-10.568800 0.000000
-10.548600 0.000000
-10.528400 0.000000
-10.508100 0.000000
-10.487900 0.000000
-10.467700 0.000000
-10.447500 0.000000
-10.427300 0.000000
-10.407100 0.000000
-10.386900 0.000000
-10.366700 0.000000
-10.346500 0.000000
-10.326300 0.000000
-10.306100 0.000000
-10.285900 0.000000
-10.265600 0.000000
-10.245400 0.000000
-10.225200 0.000000
-10.205000 0.000000
-10.184800 0.000000
-10.164600 0.000000
-10.144400 0.000000
-10.124200 0.000000
-10.104000 0.000000
-10.083800 0.000000
-10.063600 0.000000
-10.043400 0.000000
-10.023100 0.000000
-10.002900 0.000000
-9.982700 0.000000
-9.962500 0.000000
-9.942300 0.000000
-9.922100 0.000000
-9.901900 0.000000
-9.881700 0.000000
-9.861500 0.000000
-9.841300 0.000000
-9.821100 0.000000
-9.800900 0.000000
-9.780600 0.000000
-9.760400 0.000000
-9.740200 0.000000
-9.720000 0.000000
-9.699800 0.000000
-9.679600 0.000000
-9.659400 0.000000
-9.639200 0.000000
-9.619000 0.000000
-9.598800 0.000000
-9.578600 0.000000
-9.558400 0.000000
-9.538100 0.000000
-9.517900 0.000000
-9.497700 0.000000
-9.477500 0.000000
-9.457300 0.000000
-9.437100 0.000000
-9.416900 0.000000
-9.396700 0.000000
-9.376500 0.000000
-9.356300 0.000000
-9.336100 0.000000
-9.315900 0.000000
-9.295600 0.000000
-9.275400 0.000000
-9.255200 0.000000
-9.235000 0.000000
-9.214800 0.000000
-9.194600 0.000000
-9.174400 0.000000
-9.154200 0.000000
-9.134000 0.000000
-9.113800 0.000000
-9.093600 0.000000
-9.073400 0.000000
-9.053100 0.000000
-9.032900 0.000000
-9.012700 0.000000
-8.992500 0.000000
-8.972300 0.000000
-8.952100 0.000000
-8.931900 0.000000
-8.911700 0.000000
-8.891500 0.000000
-8.871300 0.000000
-8.851100 0.000000
-8.830900 0.000000
-8.810600 0.000000
-8.790400 0.000000
-8.770200 0.000000
-8.750000 0.000000
-8.729800 0.000000
-8.709600 0.000000
-8.689400 0.000000
-8.669200 0.000000
-8.649000 0.000000
-8.628800 0.000000
-8.608600 0.000000
-8.588400 0.000000
-8.568100 0.000000
-8.547900 0.000000
-8.527700 0.000000
-8.507500 0.000000
-8.487300 0.000000
-8.467100 0.000000
-8.446900 0.000000
-8.426700 0.000000
-8.406500 0.000000
-8.386300 0.000000
-8.366100 0.000000
-8.345900 0.000000
-8.325600 0.000000
-8.305400 0.000000
-8.285200 0.000000
-8.265000 0.000000
-8.244800 0.000000
-8.224600 0.000000
-8.204400 0.000000
-8.184200 0.000000
-8.164000 0.000000
-8.143800 0.000000
-8.123600 0.000000
-8.103400 0.000000
-8.083100 0.000000
-8.062900 0.000000
-8.042700 0.000000
-8.022500 0.000000
-8.002300 0.000000
-7.982100 0.000000
-7.961900 0.000000
-7.941700 0.000000
-7.921500 0.000000
-7.901300 0.000000
-7.881100 0.000000
-7.860900 0.000000
-7.840600 0.000000
-7.820400 0.000000
-7.800200 0.000000
-7.780000 0.000000
-7.759800 0.000000
-7.739600 0.000000
-7.719400 0.000000
-7.699200 0.000000
-7.679000 0.000000
-7.658800 0.000000
-7.638600 0.000000
-7.618400 0.000000
-7.598100 0.000000
-7.577900 0.000000
-7.557700 0.000000
-7.537500 0.000000
-7.517300 0.000000
-7.497100 0.000000
-7.476900 0.000000
-7.456700 0.000000
-7.436500 0.000000
-7.416300 0.000000
-7.396100 0.000000
-7.375900 0.000000
-7.355600 0.000000
-7.335400 0.000000
-7.315200 0.000000
-7.295000 0.000000
-7.274800 0.000000
-7.254600 0.000000
-7.234400 0.000000
-7.214200 0.000000
-7.194000 0.000000
-7.173800 0.000000
-7.153600 0.000000
-7.133400 0.000000
-7.113100 0.000000
-7.092900 0.000000
-7.072700 0.000000
-7.052500 0.000000
-7.032300 0.000000
-7.012100 0.000000
-6.991900 0.000000
-6.971700 0.000000
-6.951500 0.000000
-6.931300 0.000000
-6.911100 0.000000
-6.890900 0.000000
-6.870600 0.000000
-6.850400 0.000000
-6.830200 0.000000
-6.810000 0.000000
-6.789800 0.000000
-6.769600 0.000000
-6.749400 0.000000
-6.729200 0.000000
-6.709000 0.000000
-6.688800 0.000000
-6.668600 0.000000
-6.648300 0.000000
-6.628100 0.000000
-6.607900 0.000000
-6.587700 0.000000
-6.567500 0.000000
-6.547300 0.000000
-6.527100 0.000000
-6.506900 0.000000
-6.486700 0.000000
-6.466500 0.000000
-6.446300 0.000000
-6.426100 0.000000
-6.405800 0.000000
-6.385600 0.000000
-6.365400 0.000000
-6.345200 0.000000
-6.325000 0.000000
-6.304800 0.000000
-6.284600 0.000000
-6.264400 0.000000
-6.244200 0.000000
-6.224000 0.000000
-6.203800 0.000000
-6.183600 0.000000
-6.163300 0.000000
-6.143100 0.000000
-6.122900 0.000000
-6.102700 0.000000
-6.082500 0.000000
-6.062300 0.000000
-6.042100 0.000000
-6.021900 0.000000
-6.001700 0.000000
-5.981500 0.000000
-5.961300 0.000000
-5.941100 0.000000
-5.920800 0.000000
-5.900600 0.000000
-5.880400 0.000000
-5.860200 0.000000
-5.840000 0.000000
-5.819800 0.000000
-5.799600 0.000000
-5.779400 0.000000
-5.759200 0.000000
-5.739000 0.000000
-5.718800 0.000000
-5.698600 0.000000
-5.678300 0.000000
-5.658100 0.000000
-5.637900 0.000000
-5.617700 0.000000
-5.597500 0.000000
-5.577300 0.000000
-5.557100 0.000000
-5.536900 0.000000
-5.516700 0.000000
-5.496500 0.000000
-5.476300 0.000000
-5.456100 0.000000
-5.435800 0.000000
-5.415600 0.000000
-5.395400 0.000000
-5.375200 0.000000
-5.355000 0.000000
-5.334800 0.000000
-5.314600 34.082000
-5.294400 13.697300
-5.274200 12.568000
-5.254000 12.034800
-5.233800 12.876900
-5.213600 13.513200
-5.193300 11.244100
-5.173100 9.412600
-5.152900 9.316800
-5.132700 9.421300
-5.112500 9.455100
-5.092300 9.417100
-5.072100 8.729100
-5.051900 7.542400
-5.031700 5.999100
-5.011500 4.945100
-4.991300 4.205400
-4.971100 3.458200
-4.950800 2.703300
-4.930600 1.940700
-4.910400 1.219600
-4.890200 2.131800
-4.870000 7.124600
-4.849800 11.456900
-4.829600 13.504100
-4.809400 14.516400
-4.789200 14.494000
-4.769000 15.752200
-4.748800 13.687400
-4.728600 10.795200
-4.708300 9.516700
-4.688100 8.771000
-4.667900 8.344700
-4.647700 12.100600
-4.627500 13.121100
-4.607300 12.681400
-4.587100 11.760300
-4.566900 9.926900
-4.546700 7.181100
-4.526500 3.301800
-4.506300 3.175700
-4.486100 4.609200
-4.465800 15.841700
-4.445600 7.992700
-4.425400 7.164900
-4.405200 6.503300
-4.385000 5.988600
-4.364800 5.583800
-4.344600 5.280200
-4.324400 5.077600
-4.304200 4.976100
-4.284000 4.975700
-4.263800 5.049000
-4.243600 5.149000
-4.223300 5.258000
-4.203100 5.345800
-4.182900 5.658900
-4.162700 6.542900
-4.142500 7.870100
-4.122300 9.051000
-4.102100 10.085400
-4.081900 9.485300
-4.061700 8.644500
-4.041500 7.824500
-4.021300 7.025400
-4.001100 6.247000
-3.980800 5.489500
-3.960600 4.752800
-3.940400 4.036900
-3.920200 4.145500
-3.900000 5.928300
-3.879800 8.538200
-3.859600 11.940300
-3.839400 20.193800
-3.819200 3.956900
-3.799000 3.676100
-3.778800 3.496400
-3.758600 3.414600
-3.738300 3.397900
-3.718100 3.344700
-3.697900 3.247900
-3.677700 3.129600
-3.657500 3.011200
-3.637300 2.892400
-3.617100 2.773400
-3.596900 2.654200
-3.576700 2.534700
-3.556500 2.415000
-3.536300 2.295000
-3.516100 2.237800
-3.495800 2.200800
-3.475600 2.178600
-3.455400 2.171100
-3.435200 2.172600
-3.415000 2.174100
-3.394800 2.175500
-3.374600 2.176900
-3.354400 2.178300
-3.334200 2.179700
-3.314000 2.181000
-3.293800 2.182200
-3.273600 2.183500
-3.253300 2.184600
-3.233100 2.185800
-3.212900 2.186900
-3.192700 2.189500
-3.172500 2.241600
-3.152300 2.402900
-3.132100 2.806100
-3.111900 3.463100
-3.091700 4.144200
-3.071500 4.477900
-3.051300 4.759900
-3.031100 4.990300
-3.010800 5.169100
-2.990600 5.296300
-2.970400 5.371800
-2.950200 5.415600
-2.930000 4.466000
-2.909800 1.804400
-2.889600 0.981700
-2.869400 0.407500
-2.849200 0.081700
-2.829000 0.000000
-2.808800 0.000000
-2.788600 0.000000
-2.768300 0.000000
-2.748100 0.000000
-2.727900 0.000000
-2.707700 0.000000
-2.687500 0.000000
-2.667300 0.000000
-2.647100 0.000000
-2.626900 0.000000
-2.606700 0.000000
-2.586500 0.000000
-2.566300 0.000000
-2.546100 0.000000
-2.525800 0.000000
-2.505600 0.000000
-2.485400 0.000000
-2.465200 0.000000
-2.445000 0.000000
-2.424800 0.000000
-2.404600 0.000000
-2.384400 0.000000
-2.364200 0.000000
-2.344000 0.000000
-2.323800 0.000000
-2.303600 0.000000
-2.283300 0.000000
-2.263100 0.000000
-2.242900 0.000000
-2.222700 0.000000
-2.202500 0.000000
-2.182300 0.000000
-2.162100 0.000000
-2.141900 0.000000
-2.121700 0.000000
-2.101500 0.000000
-2.081300 0.000000
-2.061000 0.000000
-2.040800 0.000000
-2.020600 0.000000
-2.000400 0.000000
-1.980200 0.000000
-1.960000 0.000000
-1.939800 0.000000
-1.919600 0.000000
-1.899400 0.000000
-1.879200 0.000000
-1.859000 0.000000
-1.838800 0.000000
-1.818500 0.000000
-1.798300 0.000000
-1.778100 0.000000
-1.757900 0.000000
-1.737700 0.000000
-1.717500 0.000000
-1.697300 0.000000
-1.677100 0.000000
-1.656900 0.000000
-1.636700 0.000000
-1.616500 0.000000
-1.596300 0.000000
-1.576000 0.000000
-1.555800 0.000000
-1.535600 0.000000
-1.515400 0.000000
-1.495200 0.000000
-1.475000 0.000000
-1.454800 0.000000
-1.434600 0.000000
-1.414400 0.000000
-1.394200 0.000000
-1.374000 0.000000
-1.353800 0.000000
-1.333500 0.000000
-1.313300 0.000000
-1.293100 0.000000
-1.272900 0.000000
-1.252700 0.000000
-1.232500 0.000000
-1.212300 0.000000
-1.192100 0.000000
-1.171900 0.000000
-1.151700 0.000000
-1.131500 0.000000
-1.111300 0.000000
-1.091000 0.000000
-1.070800 0.000000
-1.050600 0.000000
-1.030400 0.000000
-1.010200 0.000000
-0.990000 0.000000
-0.969800 0.000000
-0.949600 0.000000
-0.929400 0.000000
-0.909200 0.000000
-0.889000 0.000000
-0.868800 0.000000
-0.848500 0.000000
-0.828300 0.000000
-0.808100 0.000000
-0.787900 0.000000
-0.767700 0.000000
-0.747500 0.000000
-0.727300 0.000000
-0.707100 0.000000
-0.686900 0.000000
-0.666700 0.000000
-0.646500 0.000000
-0.626300 0.000000
-0.606000 0.000000
-0.585800 0.000000
-0.565600 0.000000
-0.545400 0.000000
-0.525200 0.000000
-0.505000 0.000000
-0.484800 0.000000
-0.464600 0.000000
-0.444400 0.000000
-0.424200 0.000000
-0.404000 0.000000
-0.383800 0.000000
-0.363500 0.000000
-0.343300 0.000000
-0.323100 0.000000
-0.302900 0.000000
-0.282700 0.000000
-0.262500 0.000000
-0.242300 0.000000
-0.222100 0.000000
-0.201900 0.000000
-0.181700 0.000000
-0.161500 0.000000
-0.141300 0.000000
-0.121000 0.000000
-0.100800 0.000000
-0.080600 0.000000
-0.060400 0.000000
-0.040200 0.000000
-0.020000 1.498200
0.000200 3.735100
0.020400 5.287400
0.040600 6.155000
0.060800 6.482000
0.081000 6.768300
0.101200 7.056400
0.121500 8.821200
0.141700 9.815300
0.161900 11.798400
0.182100 15.868300
0.202300 19.288700
0.222500 22.910000
0.242700 21.991800
0.262900 19.449800
0.283100 13.166000
0.303300 6.978200
0.323500 6.882300
0.343700 8.373700
0.364000 10.291200
0.384200 12.634800
0.404400 15.594100
0.424600 16.568100
0.444800 13.497900
0.465000 10.028800
0.485200 7.730400
0.505400 8.302700
0.525600 9.103600
0.545800 26.224200
0.566000 26.284600
0.586200 11.047300
0.606500 8.693700
0.626700 6.618300
0.646900 6.229400
0.667100 10.388400
0.687300 11.487800
0.707500 12.483900
0.727700 13.127500
0.747900 10.954300
0.768100 9.643900
0.788300 9.580400
0.808500 11.573600
0.828700 22.153400
0.849000 22.332900
0.869200 22.010400
0.889400 21.185900
0.909600 20.856500
0.929800 20.549400
0.950000 17.515500
0.970200 5.776200
0.990400 6.619000
1.010600 10.676800
1.030800 10.721800
1.051000 11.498400
1.071200 11.467100
1.091500 11.202900
1.111700 11.381000
1.131900 11.389200
1.152100 12.101500
1.172300 12.939500
1.192500 13.559100
1.212700 14.069700
1.232900 14.652900
1.253100 15.266200
1.273300 14.678600
1.293500 10.065300
1.313700 11.044100
1.334000 13.741600
1.354200 18.698300
1.374400 24.277200
1.394600 21.429300
1.414800 16.726100
1.435000 12.304800
1.455200 10.858300
1.475400 10.967200
1.495600 11.136000
1.515800 8.479900
1.536000 3.888000
1.556200 2.107000
1.576500 2.156200
1.596700 2.271000
1.616900 2.451500
1.637100 2.697600
1.657300 3.009500
1.677500 3.387000
1.697700 33.456900
1.717900 31.835200
1.738100 23.429400
1.758300 17.356600
1.778500 13.629400
1.798700 14.265200
1.819000 20.369400
1.839200 18.142800
1.859400 11.556500
1.879600 2.785800
1.899800 13.188800
1.920000 24.160900
1.940200 25.207100
1.960400 24.113400
1.980600 15.749800
2.000800 11.025100
2.021000 8.956200
2.041200 11.344300
2.061500 15.816300
2.081700 13.608200
2.101900 10.580100
2.122100 7.999700
2.142300 7.741400
2.162500 12.070700
2.182700 14.697800
2.202900 17.935500
2.223100 21.730200
2.243300 25.916000
2.263500 30.468800
2.283800 21.111700
2.304000 12.292100
2.324200 11.247600
2.344400 9.897800
2.364600 8.484200
2.384800 7.010800
2.405000 5.471000
2.425200 3.203100
2.445400 1.214400
2.465600 1.871200
2.485800 3.065200
2.506000 4.796300
2.526300 13.136500
2.546500 28.178300
2.566700 48.192000
2.586900 17.822600
2.607100 16.243700
2.627300 15.393000
2.647500 15.270500
2.667700 15.880500
2.687900 22.231600
2.708100 22.293800
2.728300 5.697500
2.748500 3.800300
2.768800 3.516800
2.789000 5.325200
2.809200 22.115800
2.829400 13.518200
2.849600 8.735600
2.869800 11.251900
2.890000 15.075400
2.910200 20.167500
2.930400 26.528000
2.950600 29.353000
2.970800 19.290700
2.991000 4.256700
3.011300 0.905600
3.031500 0.279700
3.051700 0.950700
3.071900 2.425100
3.092100 5.270800
3.112300 11.180000
3.132500 17.004100
3.152700 18.987500
3.172900 20.158400
3.193100 22.022900
3.213300 25.469500
3.233500 24.773300
3.253800 31.946200
3.274000 17.270600
3.294200 14.012700
3.314400 21.033900
3.334600 17.600000
3.354800 18.725000
3.375000 19.226100
3.395200 15.587900
3.415400 14.167000
3.435600 20.080900
3.455800 19.798700
3.476000 18.639100
3.496300 20.975700
3.516500 25.715500
3.536700 20.480400
3.556900 21.375500
3.577100 22.659600
3.597300 20.924900
3.617500 18.822600
3.637700 19.391100
3.657900 13.050000
3.678100 1.389400
3.698300 3.580700
3.718500 16.976100
3.738800 29.395500
3.759000 52.918200
3.779200 38.442700
3.799400 42.537000
3.819600 19.986200
3.839800 13.038000
3.860000 19.389500
3.880200 24.210100
3.900400 19.132100
3.920600 18.756500
3.940800 38.035500
3.961000 28.970900
3.981300 15.293800
4.001500 9.462300
4.021700 15.877600
4.041900 21.829800
4.062100 38.588700
4.082300 28.471800
4.102500 38.751900
4.122700 33.698600
4.142900 13.971600
4.163100 12.660300
4.183300 31.031900
4.203500 24.449400
4.223800 17.544400
4.244000 16.837500
4.264200 17.267600
4.284400 18.985300
4.304600 22.611000
4.324800 48.507800
4.345000 9.180200
4.365200 11.271400
4.385400 14.810700
4.405600 16.127900
4.425800 15.795200
4.446000 16.291700
4.466300 16.434700
4.486500 15.508400
4.506700 13.923000
4.526900 11.930300
4.547100 10.330900
4.567300 9.598800
4.587500 8.888200
4.607700 8.199000
4.627900 7.531400
4.648100 7.105100
4.668300 6.782500
4.688500 1.250000
4.708800 0.485900
4.729000 0.076200
4.749200 0.000000
4.769400 0.000000
4.789600 0.000000
4.809800 0.000000
4.830000 0.000000
4.850200 0.000000
4.870400 0.000000
4.890600 0.000000
4.910800 0.000000
4.931000 0.000000
4.951300 0.000000
4.971500 0.000000
4.991700 0.000000
5.011900 0.000000
5.032100 0.000000
5.052300 0.000000
5.072500 0.000000
5.092700 0.000000
5.112900 0.000000
5.133100 0.000000
5.153300 0.000000
5.173500 0.000000
5.193800 0.000000
5.214000 0.000000
5.234200 0.000000
5.254400 0.000000
5.274600 0.000000
5.294800 0.000000
5.315000 0.000000
5.335200 0.000000
5.355400 0.000000
5.375600 0.000000
5.395800 0.000000
5.416000 0.000000
5.436300 0.000000
5.456500 0.000000
5.476700 0.000000
5.496900 0.000000
5.517100 0.000000
5.537300 0.000000
5.557500 0.000000
5.577700 0.000000
5.597900 0.000000
5.618100 0.000000
5.638300 0.000000
5.658500 0.000000
5.678800 0.000000
5.699000 0.000000
5.719200 0.000000
5.739400 0.000000
5.759600 0.000000
5.779800 0.000000
5.800000 0.000000
5.820200 0.000000
5.840400 0.000000
5.860600 0.000000
5.880800 0.000000
5.901000 0.000000
5.921300 0.000000
5.941500 0.000000
5.961700 0.000000
5.981900 0.000000
6.002100 0.000000
6.022300 0.000000
6.042500 0.000000
6.062700 0.000000
6.082900 0.000000
6.103100 0.000000
6.123300 0.000000
6.143500 0.000000
6.163800 0.000000
6.184000 0.000000
6.204200 0.000000
6.224400 0.000000
6.244600 0.000300
6.264800 0.001500
6.285000 0.003800
6.305200 0.007200
6.325400 0.011500
6.345600 0.016900
6.365800 0.023300
6.386000 0.030700
6.406300 0.039200
6.426500 0.048600
6.446700 0.059100
6.466900 0.070700
6.487100 0.083200
6.507300 0.096800
6.527500 0.111400
6.547700 0.127000
6.567900 0.143700
6.588100 0.161400
6.608300 0.180100
6.628500 0.199800
6.648800 0.220600
6.669000 0.242400
6.689200 0.265200
6.709400 0.289000
6.729600 0.313900
6.749800 0.339700
6.770000 0.368300
6.790200 0.416700
6.810400 0.491200
6.830600 0.592000
6.850800 0.718900
6.871100 0.869600
6.891300 1.042900
6.911500 1.238800
6.931700 1.457400
6.951900 1.698700
6.972100 1.962600
6.992300 2.249100
7.012500 2.558300
7.032700 2.890100
7.052900 3.244600
7.073100 3.621700
7.093300 4.021500
7.113600 4.443900
7.133800 12.019900
7.154000 13.927400
7.174200 15.988200
7.194400 18.251400
7.214600 22.842500
7.234800 15.332100
7.255000 12.631700
7.275200 10.761800
7.295400 9.002400
7.315600 6.127600
7.335800 3.817200
7.356100 3.380400
7.376300 2.972300
7.396500 2.590400
7.416700 2.234800
7.436900 1.905400
7.457100 1.602200
7.477300 1.325300
7.497500 1.074700
7.517700 0.850300
7.537900 0.652100
7.558100 0.480200
7.578300 0.334600
7.598600 0.215200
7.618800 0.122000
7.639000 0.055100
7.659200 0.014400
7.679400 0.010400
7.699600 0.061400
7.719800 0.155000
7.740000 0.291300
7.760200 0.470300
7.780400 0.691900
7.800600 0.956100
7.820800 1.263000
7.841100 1.647200
7.861300 2.154700
7.881500 2.785700
7.901700 3.540200
7.921900 4.418300
7.942100 6.357200
7.962300 7.984800
7.982500 7.853100
8.002700 7.723600
8.022900 7.596200
8.043100 7.471000
8.063300 7.354100
8.083600 7.258000
8.103800 7.182900
8.124000 7.128900
8.144200 7.095900
8.164400 7.084100
8.184600 7.093200
8.204800 11.381100
8.225000 12.291600
8.245200 11.877500
8.265400 9.884000
8.285600 8.189000
8.305800 6.792600
8.326100 5.694800
8.346300 4.895500
8.366500 4.391700
8.386700 4.148200
8.406900 4.154500
8.427100 6.202800
8.447300 12.219800
8.467500 12.427400
8.487700 12.879100
8.507900 13.575100
8.528100 14.515300
8.548300 22.417200
8.568600 12.340200
8.588800 8.938300
8.609000 6.590200
8.629200 5.336300
8.649400 4.998200
8.669600 4.847800
8.689800 4.814000
8.710000 4.903500
8.730200 6.562400
8.750400 8.031500
8.770600 7.983600
8.790800 7.113300
8.811100 6.097200
8.831300 6.647500
8.851500 6.979200
8.871700 6.860800
8.891900 6.979800
8.912100 7.761100
8.932300 8.616100
8.952500 9.680600
8.972700 10.954600
8.992900 12.440500
9.013100 14.457700
9.033300 17.169400
9.053600 16.920800
9.073800 12.722100
9.094000 7.570800
9.114200 5.046200
9.134400 5.160900
9.154600 6.361700
9.174800 5.087400
9.195000 4.866100
9.215200 5.056000
9.235400 5.474400
9.255600 6.119700
9.275800 6.989000
9.296100 8.079400
9.316300 9.303700
9.336500 9.404900
9.356700 8.606500
9.376900 7.254800
9.397100 6.613900
9.417300 6.141500
9.437500 5.837300
9.457700 5.694800
9.477900 5.749100
9.498100 5.953300
9.518300 6.088000
9.538600 6.128300
9.558800 6.074200
9.579000 5.916400
9.599200 5.858400
9.619400 6.935900
9.639600 9.863100
9.659800 13.627300
9.680000 17.760100
9.700200 22.290800
9.720400 27.229300
9.740600 19.694600
9.760800 12.221200
9.781100 9.566300
9.801300 7.990900
9.821500 7.538900
9.841700 8.825700
9.861900 12.288800
9.882100 17.968400
9.902300 12.238900
9.922500 8.423400
9.942700 7.978100
9.962900 7.572600
9.983100 7.328200
10.003300 7.628300
10.023600 8.435000
10.043800 9.625200
10.064000 11.196300
10.084200 12.758300
10.104400 8.094200
10.124600 6.149400
10.144800 4.656600
10.165000 3.620500
10.185200 3.041900
10.205400 2.926600
10.225600 3.275700
10.245800 4.025300
10.266100 5.780100
10.286300 9.067800
10.306500 13.382600
10.326700 21.483000
10.346900 19.091200
10.367100 16.982000
10.387300 21.291600
10.407500 25.102300
10.427700 25.888900
10.447900 23.651400
10.468100 24.225800
10.488300 40.802700
10.508600 23.768600
10.528800 18.951900
10.549000 17.303500
10.569200 17.600200
10.589400 15.400500
10.609600 9.159700
10.629800 7.622800
10.650000 6.343000
10.670200 5.175800
10.690400 4.729000
10.710600 5.619400
10.730800 27.924700
10.751100 31.249800
10.771300 27.046400
10.791500 25.301500
10.811700 27.007300
10.831900 17.724400
10.852100 5.875100
10.872300 5.766600
10.892500 5.602000
10.912700 5.350400
10.932900 5.011700
10.953100 4.585900
10.973300 4.044500
10.993600 3.206400
11.013800 2.039800
11.034000 0.544800
11.054200 0.000000
11.074400 0.000000
11.094600 15.380000
11.114800 25.738700
11.135000 21.252300
11.155200 23.688600
11.175400 24.608000
11.195600 21.444800
11.215900 19.264500
11.236100 16.117100
11.256300 9.399400
11.276500 4.951800
11.296700 5.437400
11.316900 8.611600
11.337100 14.603600
11.357300 18.294200
11.377500 16.975000
11.397700 15.428300
11.417900 13.654200
11.438100 13.070300
11.458400 12.915300
11.478600 12.673600
11.498800 14.989200
11.519000 18.150500
11.539200 12.850100
11.559400 8.839000
11.579600 25.540300
11.599800 29.108700
11.620000 13.720800
11.640200 14.584400
11.660400 16.096300
11.680600 17.565300
11.700900 18.930700
11.721100 20.192400
11.741300 24.582300
11.761500 8.320800
11.781700 5.894000
11.801900 4.361000
11.822100 3.109100
11.842300 2.138300
11.862500 1.448700
11.882700 1.040200
11.902900 0.821700
11.923100 0.631500
11.943400 0.466200
11.963600 0.325900
11.983800 0.210700
12.004000 0.120500
12.024200 0.055400
12.044400 0.015200
12.064600 0.000100
12.084800 0.000000
12.105000 0.000000
12.125200 0.000000
12.145400 0.000000
12.165600 0.000000
12.185900 0.000000
12.206100 0.000000
12.226300 0.000000
12.246500 0.000000
12.266700 0.000000
12.286900 0.000000
12.307100 0.000000
12.327300 0.000000
12.347500 0.000000
12.367700 0.000000
12.387900 0.000000
12.408100 0.000000
12.428400 0.000000
12.448600 0.000000
12.468800 0.000000
12.489000 0.000000
12.509200 0.000000
12.529400 0.000000
12.549600 0.000000
12.569800 0.000000
12.590000 0.000000
12.610200 0.000000
12.630400 0.000000
12.650600 0.000000
12.670900 0.000000
12.691100 0.000000
12.711300 0.000000
12.731500 0.000000
12.751700 0.000000
12.771900 0.000000
12.792100 0.000000
12.812300 0.000000
12.832500 0.000000
12.852700 0.000000
12.872900 0.000000
12.893100 0.000000
12.913400 0.000000
12.933600 0.000000
12.953800 0.000000
12.974000 0.000000
12.994200 0.000000
13.014400 0.000000
13.034600 0.000000
13.054800 0.000000
13.075000 0.000000
13.095200 0.000000
13.115400 0.000000
13.135600 0.000000
13.155900 0.000000
13.176100 0.000000
13.196300 0.000000
13.216500 0.000000
13.236700 0.000000
13.256900 0.000000
13.277100 0.000000
13.297300 0.016400
13.317500 0.044000
13.337700 0.075100
13.357900 0.109700
13.378100 0.147800
13.398400 0.189500
13.418600 0.234700
13.438800 0.283300
13.459000 0.335400
13.479200 0.389800
13.499400 0.446300
13.519600 0.504800
13.539800 0.565500
13.560000 0.628300
13.580200 0.693200
13.600400 0.760200
13.620600 0.829300
13.640900 0.900500
13.661100 0.973800
13.681300 1.049200
13.701500 1.127300
13.721700 1.211700
13.741900 1.303000
13.762100 1.401200
13.782300 1.506300
13.802500 1.618200
13.822700 1.737000
13.842900 1.862700
13.863100 1.995200
13.883400 2.134700
13.903600 2.279500
13.923800 2.427800
13.944000 2.579600
13.964200 2.735000
13.984400 2.893800
14.004600 3.056100
14.024800 3.558000
14.045000 4.369500
14.065200 5.874500
14.085400 5.917100
14.105600 5.948500
14.125900 5.968500
14.146100 5.977400
14.166300 5.974900
14.186500 5.961200
14.206700 5.936300
14.226900 5.900000
14.247100 5.852500
14.267300 5.793700
14.287500 5.847300
14.307700 6.294000
14.327900 6.656000
14.348100 6.933300
14.368400 6.540200
14.388600 6.114800
14.408800 5.690800
14.429000 5.268100
14.449200 4.846700
14.469400 4.426700
14.489600 4.010000
14.509800 3.606400
14.530000 3.217600
14.550200 2.843500
14.570400 2.484200
14.590600 2.139600
14.610900 1.809600
14.631100 1.494500
14.651300 1.194000
14.671500 0.908200
14.691700 0.637200
14.711900 0.384000
14.732100 0.189800
14.752300 0.067500
14.772500 0.014700
14.792700 0.000000
14.812900 1.255500
14.833100 3.904900
14.853400 7.256300
14.873600 14.262200
14.893800 18.033500
14.914000 17.786000
14.934200 15.582000
14.954400 11.551300
14.974600 10.768800
14.994800 10.148800
15.015000 9.691400
15.035200 9.396500
15.055400 9.519300
15.075600 10.025500
15.095900 19.303500
15.116100 15.618400
15.136300 8.878900
15.156500 4.195100
15.176700 4.141700
15.196900 5.251400
15.217100 6.585900
15.237300 8.127300
15.257500 9.780200
15.277700 15.171200
15.297900 16.884200
15.318100 17.771100
15.338400 18.864400
15.358600 17.528900
15.378800 13.184500
15.399000 9.691900
15.419200 9.467400
15.439400 9.138600
15.459600 8.705500
15.479800 8.168100
15.500000 7.526300
15.520200 6.889900
15.540400 6.696100
15.560600 6.480100
15.580900 6.242000
15.601100 7.158900
15.621300 9.573700
15.641500 11.458200
15.661700 12.853300
15.681900 14.434800
15.702100 15.053000
15.722300 17.039300
15.742500 17.936000
15.762700 14.703400
15.782900 12.208400
15.803200 6.453400
15.823400 5.917500
15.843600 5.497600
15.863800 5.260600
15.884000 5.441300
15.904200 5.984000
15.924400 6.076000
15.944600 6.312000
15.964800 7.906400
15.985000 10.992900
16.005200 15.757200
16.025400 14.642100
16.045700 14.993100
16.065900 14.751900
16.086100 12.600300
16.106300 10.683300
16.126500 9.107400
16.146700 7.872400
16.166900 6.974300
16.187100 6.388700
16.207300 6.111700
16.227500 6.143100
16.247700 6.483100
16.267900 7.061100
16.288200 8.067900
16.308400 10.082100
16.328600 11.244300
16.348800 8.986000
16.369000 5.263400
16.389200 2.912900
16.409400 1.818900
16.429600 1.889700
16.449800 2.324900
16.470000 2.938600
16.490200 3.746200
16.510400 5.245800
16.530700 10.930600
16.550900 11.584900
16.571100 12.220900
16.591300 13.135000
16.611500 13.958600
16.631700 14.603800
16.651900 14.959700
16.672100 15.216800
16.692300 15.436100
16.712500 15.617700
16.732700 11.640400
16.752900 5.917700
16.773200 5.161700
16.793400 4.523100
16.813600 4.546300
16.833800 6.468900
16.854000 10.927700
16.874200 11.772100
16.894400 12.327000
16.914600 12.718200
16.934800 12.906500
16.955000 12.870200
16.975200 12.480800
16.995400 11.753000
17.015700 10.887800
17.035900 10.066300
17.056100 9.340200
17.076300 8.709600
17.096500 9.079600
17.116700 10.398500
17.136900 11.449500
17.157100 10.741300
17.177300 7.517000
17.197500 4.439200
17.217700 10.980600
17.237900 26.300500
17.258200 23.173100
17.278400 16.194400
17.298600 14.129700
17.318800 13.100700
17.339000 11.417300
17.359200 10.957200
17.379400 11.193300
17.399600 11.186000
17.419800 10.945000
17.440000 10.511800
17.460200 9.163700
17.480400 6.390100
17.500700 5.953100
17.520900 6.884300
17.541100 8.629000
17.561300 13.453900
17.581500 17.636300
17.601700 15.391200
17.621900 14.487200
17.642100 13.464600
17.662300 12.323500
17.682500 11.048100
17.702700 9.632200
17.722900 8.864300
17.743200 8.699600
17.763400 8.978900
17.783600 10.008100
17.803800 12.497400
17.824000 19.518700
17.844200 12.824900
17.864400 3.423000
17.884600 4.031200
17.904800 4.824600
17.925000 6.512000
17.945200 10.775900
17.965400 17.441600
17.985700 20.099000
18.005900 16.080500
18.026100 14.862700
18.046300 14.044800
18.066500 13.252700
18.086700 13.295900
18.106900 15.798300
18.127100 17.492800
18.147300 9.675100
18.167500 4.292200
18.187700 3.003700
18.207900 2.458900
18.228200 2.644600
18.248400 3.561000
18.268600 5.193400
18.288800 7.986600
18.309000 14.665600
18.329200 22.927300
18.349400 14.816300
18.369600 9.521700
18.389800 9.493400
18.410000 10.459000
18.430200 10.702600
18.450400 10.643400
18.470700 10.462000
18.490900 10.158400
18.511100 10.359000
18.531300 10.077100
18.551500 8.146700
18.571700 5.458600
18.591900 4.343200
18.612100 6.787800
18.632300 17.287600
18.652500 13.302000
18.672700 10.466100
18.692900 8.783700
18.713200 8.177300
18.733400 8.615200
18.753600 9.816100
18.773800 11.316900
18.794000 12.890200
18.814200 13.591700
18.834400 14.594200
18.854600 16.098400
18.874800 11.344300
18.895000 9.582400
18.915200 9.040600
18.935400 8.477900
18.955700 7.931100
18.975900 7.400200
18.996100 8.213300
19.016300 8.535700
19.036500 8.379900
19.056700 8.164500
19.076900 8.034400
19.097100 7.989700
19.117300 8.039900
19.137500 8.274400
19.157700 8.586400
19.177900 8.952500
19.198200 9.347200
19.218400 9.797300
19.238600 10.304000
19.258800 10.867300
19.279000 11.419400
19.299200 21.138500
19.319400 14.354400
19.339600 12.779000
19.359800 11.473300
19.380000 10.437400
19.400200 9.671200
19.420400 9.651300
19.440700 12.986100
19.460900 15.825100
19.481100 17.550200
19.501300 18.161300
19.521500 19.944400
19.541700 17.791800
19.561900 14.083000
19.582100 12.679500
19.602300 11.771400
19.622500 10.024500
19.642700 8.700500
19.662900 7.803400
19.683200 7.217900
19.703400 6.887900
19.723600 6.906200
19.743800 6.915900
19.764000 6.886200
19.784200 7.233900
19.804400 7.800100
19.824600 8.412300
19.844800 9.070500
19.865000 9.774800
19.885200 11.251500
19.905400 19.205100
19.925700 26.136900
19.945900 26.161300
19.966100 18.372600
19.986300 9.154700
20.006500 9.315700
20.026700 9.549100
20.046900 9.855300
20.067100 10.244600
20.087300 10.741100
20.107500 11.350400
20.127700 12.072400
20.148000 13.503900
20.168200 13.676100
20.188400 12.440000
20.208600 11.576200
20.228800 11.632400
20.249000 11.604300
20.269200 11.491800
20.289400 11.301700
20.309600 11.085400
20.329800 10.849200
20.350000 10.587300
20.370200 10.307500
20.390500 10.210400
20.410700 10.216300
20.430900 9.175000
20.451100 9.708100
20.471300 9.613900
20.491500 8.818900
20.511700 8.047100
20.531900 7.786600
20.552100 8.293700
20.572300 9.558600
20.592500 11.690600
20.612700 14.639100
20.633000 16.549000
20.653200 18.561700
20.673400 20.704200
20.693600 16.509200
20.713800 7.518300
20.734000 8.989400
20.754200 12.562600
20.774400 14.431800
20.794600 14.894700
20.814800 9.539900
20.835000 7.389800
20.855200 7.430700
20.875500 8.173000
20.895700 9.616800
20.915900 25.722500
20.936100 26.013100
20.956300 17.182700
20.976500 11.579500
20.996700 9.300700
21.016900 8.879700
21.037100 8.548100
21.057300 8.948400
21.077500 10.527400
21.097700 15.226700
21.118000 15.061900
21.138200 8.089100
21.158400 8.632600
21.178600 9.348600
21.198800 10.602400
21.219000 12.393900
21.239200 14.723300
21.259400 20.771600
21.279600 21.213600
21.299800 18.866400
21.320000 14.379900
21.340200 14.404200
21.360500 24.065200
21.380700 9.490000
21.400900 8.079700
21.421100 6.686800
21.441300 6.403700
21.461500 6.741500
21.481700 7.170500
21.501900 8.116600
21.522100 9.781000
21.542300 11.977900
21.562500 14.123000
21.582700 13.478100
21.603000 10.628800
21.623200 10.120300
21.643400 11.425000
21.663600 13.248800
21.683800 15.583100
21.704000 16.072600
21.724200 15.219000
21.744400 14.196400
21.764600 12.999700
21.784800 12.826800
21.805000 13.227300
21.825200 19.294000
21.845500 11.149800
21.865700 10.282900
21.885900 10.257400
21.906100 10.644800
21.926300 11.397700
21.946500 12.510900
21.966700 13.929400
21.986900 14.740500
22.007100 15.444300
22.027300 16.030000
22.047500 16.137700
22.067700 14.400600
22.088000 11.910800
22.108200 10.021200
22.128400 9.868500
22.148600 13.304300
22.168800 13.873000
22.189000 13.854300
22.209200 13.248100
22.229400 12.054500
22.249600 9.144000
22.269800 9.379000
22.290000 9.779000
22.310200 10.547400
22.330500 10.565600
22.350700 9.833800
22.370900 8.351800
22.391100 7.102900
22.411300 7.397700
22.431500 7.753900
22.451700 10.217200
22.471900 15.077300
22.492100 17.822900
22.512300 15.556600
22.532500 13.879400
22.552700 11.888000
22.573000 9.622000
22.593200 9.471300
22.613400 9.676000
22.633600 10.144300
22.653800 10.876000
22.674000 11.871200
22.694200 15.669800
22.714400 15.786000
22.734600 11.193700
22.754800 8.646200
22.775000 6.897900
22.795200 5.908900
22.815500 5.619800
22.835700 6.075400
22.855900 8.798800
22.876100 21.345300
22.896300 25.862700
22.916500 16.704700
22.936700 13.026100
22.956900 8.792600
22.977100 6.734600
22.997300 5.520900
23.017500 4.697900
23.037700 3.862300
23.058000 2.949200
23.078200 2.047300
23.098400 1.361100
23.118600 0.890600
23.138800 0.635800
23.159000 0.496500
23.179200 0.374500
23.199400 0.269800
23.219600 0.182500
23.239800 0.112500
23.260000 0.059900
23.280200 0.024600
23.300500 0.006300
23.320700 0.000000
23.340900 0.000000
23.361100 0.000000
23.381300 0.000000
23.401500 0.000000
23.421700 0.000000
23.441900 0.000000
23.462100 0.000000
23.482300 0.000000
23.502500 0.000000
23.522700 0.000000
23.543000 0.000000
23.563200 0.000000
23.583400 0.000000
23.603600 0.000000
23.623800 0.000000
23.644000 0.000000
23.664200 0.000000
23.684400 0.000000
23.704600 0.000000
23.724800 0.000000
23.745000 0.000000
23.765200 0.000000
23.785500 0.000000
23.805700 0.000000
23.825900 0.000000
23.846100 0.000000
23.866300 0.000000
23.886500 0.000000
23.906700 0.000000
23.926900 0.000000
23.947100 0.000000
23.967300 0.000000
23.987500 0.000000
24.007700 0.000000
24.028000 0.000000
24.048200 0.000000
24.068400 0.000000
24.088600 0.000000
24.108800 0.000000
24.129000 0.000000
24.149200 0.000000
24.169400 0.000000
24.189600 0.000000
24.209800 0.000000
24.230000 0.000000
24.250200 0.000000
24.270500 0.000000
24.290700 0.000000
24.310900 0.000000
24.331100 0.000000
24.351300 0.000000
24.371500 0.000000
24.391700 0.000000
24.411900 0.000000
24.432100 0.000000
24.452300 0.000000
24.472500 0.000000
24.492700 0.000000
24.513000 0.000000
24.533200 0.000000
24.553400 0.000000
24.573600 0.000000
24.593800 0.000000
24.614000 0.000000
24.634200 0.000000
24.654400 0.000000
24.674600 0.000000
24.694800 0.000000
24.715000 0.000000
24.735300 0.000000
24.755500 0.000000
24.775700 0.000000
24.795900 0.000000
24.816100 0.000000
24.836300 0.000000
24.856500 0.000000
24.876700 0.000000
24.896900 0.000000
24.917100 0.000000
24.937300 0.000000
24.957500 0.000000
24.977800 0.000000
24.998000 0.000000
25.018200 0.000000
25.038400 0.000000
25.058600 0.000000
25.078800 0.000000
25.099000 0.000000
25.119200 0.000000
25.139400 0.000000
25.159600 0.000000
e
