set title 'mp-1217152 - Density of States'
set xlabel 'Energy (eV)'
set ylabel 'DOS (states/eV)'
set grid
set xrange [-10:10]
set yrange [0:23.180]
set xzeroaxis lt -1
set terminal png size 800,600
set output 'mp-1217152_dos_gnuplot.png'
plot '-' using 1:2 with lines title 'DOS'
-29.585400 0.000000
-29.557000 0.000000
-29.528600 0.000000
-29.500200 0.000000
-29.471800 0.000000
-29.443500 0.000000
-29.415100 0.000000
-29.386700 0.000000
-29.358300 0.000000
-29.329900 0.000000
-29.301500 0.000000
-29.273200 0.000000
-29.244800 0.000000
-29.216400 0.000000
-29.188000 0.000000
-29.159600 0.000000
-29.131200 0.000000
-29.102900 0.000000
-29.074500 0.000000
-29.046100 0.000000
-29.017700 0.000000
-28.989300 0.000000
-28.960900 0.000000
-28.932600 0.000000
-28.904200 0.000000
-28.875800 0.000000
-28.847400 0.000000
-28.819000 0.000000
-28.790700 0.000000
-28.762300 0.000000
-28.733900 0.000000
-28.705500 0.000000
-28.677100 0.000000
-28.648700 0.000000
-28.620400 0.000000
-28.592000 0.000000
-28.563600 0.000000
-28.535200 0.000000
-28.506800 0.000000
-28.478400 0.000000
-28.450100 0.000000
-28.421700 0.000000
-28.393300 0.000000
-28.364900 0.000000
-28.336500 0.000000
-28.308100 0.000000
-28.279800 0.000000
-28.251400 0.000000
-28.223000 0.000000
-28.194600 0.000000
-28.166200 0.000000
-28.137900 0.000000
-28.109500 0.000000
-28.081100 0.000000
-28.052700 0.000000
-28.024300 0.000000
-27.995900 0.000000
-27.967600 0.000000
-27.939200 0.000000
-27.910800 0.000000
-27.882400 0.000000
-27.854000 0.000000
-27.825600 0.000000
-27.797300 0.000000
-27.768900 0.000000
-27.740500 0.000000
-27.712100 0.000000
-27.683700 0.000000
-27.655300 0.000000
-27.627000 0.000000
-27.598600 0.000000
-27.570200 0.000000
-27.541800 0.000000
-27.513400 0.000000
-27.485000 0.000000
-27.456700 0.000000
-27.428300 0.000000
-27.399900 0.000000
-27.371500 0.000000
-27.343100 0.000000
-27.314800 0.000000
-27.286400 0.000000
-27.258000 0.000000
-27.229600 0.000000
-27.201200 0.000000
-27.172800 0.000000
-27.144500 0.000000
-27.116100 0.000000
-27.087700 0.000000
-27.059300 0.000000
-27.030900 0.000000
-27.002500 11.322500
-26.974200 7.687000
-26.945800 4.153000
-26.917400 11.993300
-26.889000 27.393200
-26.860600 17.843000
-26.832200 36.706500
-26.803900 10.664800
-26.775500 25.936900
-26.747100 23.036100
-26.718700 26.891500
-26.690300 25.285800
-26.661900 13.594500
-26.633600 31.408500
-26.605200 36.576500
-26.576800 17.557000
-26.548400 28.031500
-26.520000 55.784700
-26.491700 44.017700
-26.463300 45.048100
-26.434900 37.753100
-26.406500 8.943000
-26.378100 29.261000
-26.349700 56.026200
-26.321400 38.034600
-26.293000 28.166000
-26.264600 59.057200
-26.236200 45.416000
-26.207800 42.880400
-26.179400 38.852600
-26.151100 43.170200
-26.122700 30.925900
-26.094300 31.955900
-26.065900 41.074400
-26.037500 43.413700
-26.009100 24.697600
-25.980800 64.983900
-25.952400 11.633300
-25.924000 7.841500
-25.895600 10.628200
-25.867200 6.782300
-25.838900 0.000000
-25.810500 7.618100
-25.782100 6.831500
-25.753700 7.401300
-25.725300 8.021200
-25.696900 10.143500
-25.668600 16.246400
-25.640200 0.000000
-25.611800 0.000000
-25.583400 0.000000
-25.555000 0.000000
-25.526600 0.000000
-25.498300 0.000000
-25.469900 0.000000
-25.441500 0.000000
-25.413100 0.000000
-25.384700 0.000000
-25.356300 0.000000
-25.328000 0.000000
-25.299600 0.000000
-25.271200 0.000000
-25.242800 0.000000
-25.214400 0.000000
-25.186000 0.000000
-25.157700 0.000000
-25.129300 0.000000
-25.100900 0.000000
-25.072500 0.000000
-25.044100 0.000000
-25.015800 0.000000
-24.987400 0.000000
-24.959000 0.000000
-24.930600 0.000000
-24.902200 0.000000
-24.873800 0.000000
-24.845500 0.000000
-24.817100 0.000000
-24.788700 0.000000
-24.760300 0.000000
-24.731900 0.000000
-24.703500 0.000000
-24.675200 0.000000
-24.646800 0.000000
-24.618400 0.000000
-24.590000 0.000000
-24.561600 0.000000
-24.533200 0.000000
-24.504900 0.000000
-24.476500 0.000000
-24.448100 0.000000
-24.419700 0.000000
-24.391300 0.000000
-24.362900 0.000000
-24.334600 0.000000
-24.306200 0.000000
-24.277800 0.000000
-24.249400 0.000000
-24.221000 0.000000
-24.192700 0.000000
-24.164300 0.000000
-24.135900 0.000000
-24.107500 0.000000
-24.079100 0.000000
-24.050700 0.000000
-24.022400 0.000000
-23.994000 0.000000
-23.965600 0.000000
-23.937200 0.000000
-23.908800 0.000000
-23.880400 0.000000
-23.852100 0.000000
-23.823700 0.000000
-23.795300 0.000000
-23.766900 0.000000
-23.738500 0.000000
-23.710100 0.000000
-23.681800 0.000000
-23.653400 0.000000
-23.625000 0.000000
-23.596600 0.000000
-23.568200 0.000000
-23.539900 0.000000
-23.511500 0.000000
-23.483100 0.000000
-23.454700 0.000000
-23.426300 0.000000
-23.397900 0.000000
-23.369600 0.000000
-23.341200 0.000000
-23.312800 0.000000
-23.284400 0.000000
-23.256000 0.000000
-23.227600 0.000000
-23.199300 0.000000
-23.170900 0.000000
-23.142500 0.000000
-23.114100 0.000000
-23.085700 0.000000
-23.057300 0.000000
-23.029000 0.000000
-23.000600 0.000000
-22.972200 0.000000
-22.943800 0.000000
-22.915400 0.000000
-22.887000 0.000000
-22.858700 0.000000
-22.830300 0.000000
-22.801900 0.000000
-22.773500 0.000000
-22.745100 0.000000
-22.716800 0.000000
-22.688400 0.000000
-22.660000 0.000000
-22.631600 0.000000
-22.603200 0.000000
-22.574800 0.000000
-22.546500 0.000000
-22.518100 0.000000
-22.489700 0.000000
-22.461300 0.000000
-22.432900 0.000000
-22.404500 0.000000
-22.376200 0.000000
-22.347800 0.000000
-22.319400 0.000000
-22.291000 0.000000
-22.262600 0.000000
-22.234200 0.000000
-22.205900 0.000000
-22.177500 0.000000
-22.149100 0.000000
-22.120700 0.000000
-22.092300 0.000000
-22.063900 0.000000
-22.035600 0.000000
-22.007200 0.000000
-21.978800 0.000000
-21.950400 0.000000
-21.922000 0.000000
-21.893700 0.000000
-21.865300 0.000000
-21.836900 0.000000
-21.808500 0.000000
-21.780100 0.000000
-21.751700 0.000000
-21.723400 0.000000
-21.695000 0.000000
-21.666600 0.000000
-21.638200 0.000000
-21.609800 0.000000
-21.581400 0.000000
-21.553100 0.000000
-21.524700 0.000000
-21.496300 0.000000
-21.467900 0.000000
-21.439500 0.000000
-21.411100 0.000000
-21.382800 0.000000
-21.354400 0.000000
-21.326000 0.000000
-21.297600 0.000000
-21.269200 0.000000
-21.240900 0.000000
-21.212500 0.000000
-21.184100 0.000000
-21.155700 0.000000
-21.127300 0.000000
-21.098900 0.000000
-21.070600 0.000000
-21.042200 0.000000
-21.013800 0.000000
-20.985400 0.000000
-20.957000 0.000000
-20.928600 0.000000
-20.900300 0.000000
-20.871900 0.000000
-20.843500 0.000000
-20.815100 0.000000
-20.786700 0.000000
-20.758300 0.000000
-20.730000 0.000000
-20.701600 0.000000
-20.673200 0.000000
-20.644800 0.000000
-20.616400 0.000000
-20.588000 0.000000
-20.559700 0.000000
-20.531300 0.000000
-20.502900 0.000000
-20.474500 0.000000
-20.446100 0.000000
-20.417800 0.000000
-20.389400 0.000000
-20.361000 0.000000
-20.332600 0.000000
-20.304200 0.000000
-20.275800 0.000000
-20.247500 0.000000
-20.219100 0.000000
-20.190700 0.000000
-20.162300 0.000000
-20.133900 0.000000
-20.105500 0.000000
-20.077200 0.000000
-20.048800 0.000000
-20.020400 0.000000
-19.992000 0.000000
-19.963600 0.000000
-19.935200 0.000000
-19.906900 0.000000
-19.878500 0.000000
-19.850100 0.000000
-19.821700 0.000000
-19.793300 0.000000
-19.764900 0.000000
-19.736600 0.000000
-19.708200 0.000000
-19.679800 0.000000
-19.651400 0.000000
-19.623000 0.000000
-19.594700 0.000000
-19.566300 0.000000
-19.537900 0.000000
-19.509500 0.000000
-19.481100 0.000000
-19.452700 0.000000
-19.424400 0.000000
-19.396000 0.000000
-19.367600 0.000000
-19.339200 0.000000
-19.310800 0.000000
-19.282400 0.000000
-19.254100 0.000000
-19.225700 0.000000
-19.197300 0.000000
-19.168900 0.000000
-19.140500 0.000000
-19.112100 0.000000
-19.083800 0.000000
-19.055400 0.000000
-19.027000 0.000000
-18.998600 0.000000
-18.970200 0.000000
-18.941900 0.000000
-18.913500 0.000000
-18.885100 0.000000
-18.856700 0.000000
-18.828300 0.000000
-18.799900 0.000000
-18.771600 0.000000
-18.743200 0.000000
-18.714800 0.000000
-18.686400 0.000000
-18.658000 0.000000
-18.629600 0.000000
-18.601300 0.000000
-18.572900 0.000000
-18.544500 0.000000
-18.516100 0.000000
-18.487700 0.000000
-18.459300 0.000000
-18.431000 0.000000
-18.402600 0.000000
-18.374200 0.000000
-18.345800 0.000000
-18.317400 0.000000
-18.289000 0.000000
-18.260700 0.000000
-18.232300 0.000000
-18.203900 0.000000
-18.175500 0.000000
-18.147100 0.000000
-18.118800 0.000000
-18.090400 0.000000
-18.062000 0.000000
-18.033600 0.000000
-18.005200 0.000000
-17.976800 0.000000
-17.948500 0.000000
-17.920100 0.000000
-17.891700 0.000000
-17.863300 0.000000
-17.834900 0.000000
-17.806500 0.000000
-17.778200 0.000000
-17.749800 0.000000
-17.721400 0.000000
-17.693000 0.000000
-17.664600 0.000000
-17.636200 0.000000
-17.607900 0.000000
-17.579500 0.000000
-17.551100 0.000000
-17.522700 0.000000
-17.494300 0.000000
-17.465900 0.000000
-17.437600 0.000000
-17.409200 0.000000
-17.380800 0.000000
-17.352400 0.000000
-17.324000 0.000000
-17.295700 0.000000
-17.267300 0.000000
-17.238900 0.000000
-17.210500 0.000000
-17.182100 0.000000
-17.153700 0.000000
-17.125400 0.000000
-17.097000 0.000000
-17.068600 0.000000
-17.040200 0.000000
-17.011800 0.000000
-16.983400 0.000000
-16.955100 0.000000
-16.926700 0.000000
-16.898300 0.000000
-16.869900 0.000000
-16.841500 0.000000
-16.813100 0.000000
-16.784800 0.000000
-16.756400 0.000000
-16.728000 0.000000
-16.699600 0.000000
-16.671200 0.000000
-16.642900 0.000000
-16.614500 0.000000
-16.586100 0.000000
-16.557700 0.000000
-16.529300 0.000000
-16.500900 0.000000
-16.472600 0.000000
-16.444200 0.000000
-16.415800 0.000000
-16.387400 0.000000
-16.359000 0.000000
-16.330600 0.000000
-16.302300 0.000000
-16.273900 0.000000
-16.245500 0.000000
-16.217100 0.000000
-16.188700 0.000000
-16.160300 0.000000
-16.132000 0.000000
-16.103600 0.000000
-16.075200 0.000000
-16.046800 0.000000
-16.018400 0.000000
-15.990000 0.000000
-15.961700 0.000000
-15.933300 0.000000
-15.904900 0.000000
-15.876500 0.000000
-15.848100 0.000000
-15.819800 0.000000
-15.791400 0.000000
-15.763000 0.000000
-15.734600 0.000000
-15.706200 0.000000
-15.677800 0.000000
-15.649500 0.000000
-15.621100 0.000000
-15.592700 0.000000
-15.564300 0.000000
-15.535900 0.000000
-15.507500 0.000000
-15.479200 0.000000
-15.450800 0.000000
-15.422400 0.000000
-15.394000 0.000000
-15.365600 0.000000
-15.337200 0.000000
-15.308900 0.000000
-15.280500 0.000000
-15.252100 0.000000
-15.223700 0.000000
-15.195300 0.000000
-15.166900 0.000000
-15.138600 0.000000
-15.110200 0.000000
-15.081800 0.000000
-15.053400 0.000000
-15.025000 0.000000
-14.996700 0.000000
-14.968300 0.000000
-14.939900 0.000000
-14.911500 0.000000
-14.883100 0.000000
-14.854700 0.000000
-14.826400 0.000000
-14.798000 0.000000
-14.769600 0.000000
-14.741200 0.000000
-14.712800 0.000000
-14.684400 0.000000
-14.656100 0.000000
-14.627700 0.000000
-14.599300 0.000000
-14.570900 0.000000
-14.542500 0.000000
-14.514100 0.000000
-14.485800 0.000000
-14.457400 0.000000
-14.429000 0.000000
-14.400600 0.000000
-14.372200 0.000000
-14.343900 0.000000
-14.315500 0.000000
-14.287100 0.000000
-14.258700 0.000000
-14.230300 0.000000
-14.201900 0.000000
-14.173600 0.000000
-14.145200 0.000000
-14.116800 0.000000
-14.088400 2.191100
-14.060000 2.561200
-14.031600 2.634400
-14.003300 2.993700
-13.974900 3.998500
-13.946500 3.452100
-13.918100 2.636700
-13.889700 2.543900
-13.861300 2.444000
-13.833000 2.222900
-13.804600 2.201100
-13.776200 2.182100
-13.747800 2.162900
-13.719400 2.185300
-13.691000 2.238500
-13.662700 2.297100
-13.634300 6.708200
-13.605900 7.979100
-13.577500 9.409100
-13.549100 12.991100
-13.520800 46.847000
-13.492400 8.379200
-13.464000 12.432000
-13.435600 12.211100
-13.407200 14.332600
-13.378800 17.455500
-13.350500 7.682200
-13.322100 4.928100
-13.293700 5.274900
-13.265300 5.570000
-13.236900 6.968300
-13.208500 17.457000
-13.180200 0.000000
-13.151800 0.000000
-13.123400 0.000000
-13.095000 0.000000
-13.066600 0.000000
-13.038200 0.000000
-13.009900 0.000000
-12.981500 0.000000
-12.953100 0.000000
-12.924700 0.000000
-12.896300 0.000000
-12.868000 0.000000
-12.839600 0.000000
-12.811200 0.000000
-12.782800 0.000000
-12.754400 0.000000
-12.726000 0.000000
-12.697700 0.000000
-12.669300 0.000000
-12.640900 0.000000
-12.612500 0.000000
-12.584100 0.000000
-12.555700 0.000000
-12.527400 0.000000
-12.499000 0.000000
-12.470600 0.000000
-12.442200 0.000000
-12.413800 0.000000
-12.385400 0.000000
-12.357100 0.000000
-12.328700 0.000000
-12.300300 0.000000
-12.271900 0.000000
-12.243500 0.000000
-12.215100 0.000000
-12.186800 0.000000
-12.158400 0.000000
-12.130000 0.000000
-12.101600 0.000000
-12.073200 0.000000
-12.044900 0.000000
-12.016500 0.000000
-11.988100 0.000000
-11.959700 0.000000
-11.931300 0.000000
-11.902900 0.000000
-11.874600 0.000000
-11.846200 0.000000
-11.817800 0.000000
-11.789400 0.000000
-11.761000 0.000000
-11.732600 0.000000
-11.704300 0.000000
-11.675900 0.000000
-11.647500 0.000000
-11.619100 0.000000
-11.590700 0.000000
-11.562300 0.000000
-11.534000 0.000000
-11.505600 0.000000
-11.477200 0.000000
-11.448800 0.000000
-11.420400 0.000000
-11.392000 0.000000
-11.363700 0.000000
-11.335300 0.000000
-11.306900 0.000000
-11.278500 0.000000
-11.250100 0.000000
-11.221800 0.000000
-11.193400 0.000000
-11.165000 0.000000
-11.136600 0.000000
-11.108200 0.000000
-11.079800 0.000000
-11.051500 0.000000
-11.023100 0.000000
-10.994700 0.000000
-10.966300 0.000000
-10.937900 0.000000
-10.909500 0.000000
-10.881200 0.000000
-10.852800 0.000000
-10.824400 0.000000
-10.796000 0.000000
-10.767600 0.000000
-10.739200 0.000000
-10.710900 0.000000
-10.682500 0.000000
-10.654100 0.000000
-10.625700 0.000000
-10.597300 0.000000
-10.569000 0.000000
-10.540600 0.000000
-10.512200 0.000000
-10.483800 0.000000
-10.455400 0.000000
-10.427000 0.000000
-10.398700 0.000000
-10.370300 0.000000
-10.341900 0.000000
-10.313500 0.000000
-10.285100 0.000000
-10.256700 0.000000
-10.228400 0.000000
-10.200000 0.000000
-10.171600 0.000000
-10.143200 0.000000
-10.114800 0.000000
-10.086400 0.000000
-10.058100 0.000000
-10.029700 0.000000
-10.001300 0.000000
-9.972900 0.000000
-9.944500 0.000000
-9.916100 0.000000
-9.887800 0.000000
-9.859400 0.000000
-9.831000 0.000000
-9.802600 0.000000
-9.774200 0.000000
-9.745900 0.000000
-9.717500 0.000000
-9.689100 0.000000
-9.660700 0.000000
-9.632300 0.000000
-9.603900 0.000000
-9.575600 0.000000
-9.547200 0.000000
-9.518800 0.000000
-9.490400 0.000000
-9.462000 0.000000
-9.433600 0.000000
-9.405300 0.000000
-9.376900 0.000000
-9.348500 0.000000
-9.320100 0.000000
-9.291700 0.000000
-9.263300 0.000000
-9.235000 0.000000
-9.206600 0.000000
-9.178200 0.000000
-9.149800 0.000000
-9.121400 0.000000
-9.093000 0.000000
-9.064700 0.000000
-9.036300 0.000000
-9.007900 0.000000
-8.979500 0.000000
-8.951100 0.000000
-8.922800 0.000000
-8.894400 0.000000
-8.866000 0.000000
-8.837600 0.000000
-8.809200 0.000000
-8.780800 0.000000
-8.752500 0.000000
-8.724100 0.000000
-8.695700 0.000000
-8.667300 0.000000
-8.638900 0.000000
-8.610500 0.000000
-8.582200 0.000000
-8.553800 0.000000
-8.525400 0.000000
-8.497000 0.000000
-8.468600 0.000000
-8.440200 0.000000
-8.411900 0.000000
-8.383500 0.000000
-8.355100 0.000000
-8.326700 0.000000
-8.298300 0.000000
-8.270000 0.000000
-8.241600 0.000000
-8.213200 0.000000
-8.184800 0.000000
-8.156400 0.000000
-8.128000 0.000000
-8.099700 0.000000
-8.071300 0.000000
-8.042900 0.000000
-8.014500 0.000000
-7.986100 0.000000
-7.957700 0.000000
-7.929400 0.000000
-7.901000 0.000000
-7.872600 0.000000
-7.844200 0.000000
-7.815800 0.000000
-7.787400 0.000000
-7.759100 0.000000
-7.730700 0.000000
-7.702300 0.000000
-7.673900 0.000000
-7.645500 0.000000
-7.617100 0.000000
-7.588800 0.000000
-7.560400 0.000000
-7.532000 0.000000
-7.503600 0.000000
-7.475200 0.000000
-7.446900 0.000000
-7.418500 0.000000
-7.390100 0.000000
-7.361700 0.000000
-7.333300 0.000000
-7.304900 0.000000
-7.276600 0.000000
-7.248200 0.000000
-7.219800 0.000000
-7.191400 0.000000
-7.163000 0.000000
-7.134600 0.000000
-7.106300 0.000000
-7.077900 0.000000
-7.049500 0.000000
-7.021100 0.000000
-6.992700 0.000000
-6.964300 0.000000
-6.936000 0.000000
-6.907600 0.000000
-6.879200 0.000000
-6.850800 0.000000
-6.822400 0.000000
-6.794000 0.000000
-6.765700 0.000000
-6.737300 0.000000
-6.708900 0.000000
-6.680500 0.000000
-6.652100 0.000000
-6.623800 0.000000
-6.595400 0.000000
-6.567000 0.000000
-6.538600 0.000000
-6.510200 0.000000
-6.481800 0.000000
-6.453500 0.000000
-6.425100 0.000000
-6.396700 0.000000
-6.368300 0.000000
-6.339900 0.000000
-6.311500 0.000000
-6.283200 0.000000
-6.254800 0.000000
-6.226400 0.000000
-6.198000 0.000000
-6.169600 0.000000
-6.141200 0.000000
-6.112900 0.000000
-6.084500 0.000000
-6.056100 0.000000
-6.027700 0.000000
-5.999300 0.000000
-5.971000 0.000000
-5.942600 0.000000
-5.914200 0.000000
-5.885800 0.000000
-5.857400 0.000000
-5.829000 0.000000
-5.800700 0.000000
-5.772300 0.000000
-5.743900 0.000000
-5.715500 0.000000
-5.687100 0.000000
-5.658700 0.000000
-5.630400 0.000000
-5.602000 0.000000
-5.573600 0.000000
-5.545200 0.000000
-5.516800 0.000000
-5.488400 0.000000
-5.460100 0.000000
-5.431700 0.000000
-5.403300 0.000000
-5.374900 0.000000
-5.346500 0.000000
-5.318100 0.000000
-5.289800 0.000000
-5.261400 0.000000
-5.233000 0.000000
-5.204600 0.000000
-5.176200 0.000000
-5.147900 0.000000
-5.119500 0.000000
-5.091100 0.000000
-5.062700 0.000000
-5.034300 0.000000
-5.005900 0.000000
-4.977600 0.000000
-4.949200 0.000000
-4.920800 0.000000
-4.892400 0.000000
-4.864000 0.000000
-4.835600 0.000000
-4.807300 0.000000
-4.778900 0.000000
-4.750500 0.000000
-4.722100 0.000000
-4.693700 0.000000
-4.665300 0.000000
-4.637000 0.000000
-4.608600 0.000000
-4.580200 0.000000
-4.551800 0.000000
-4.523400 0.000000
-4.495000 0.000000
-4.466700 0.000000
-4.438300 0.000000
-4.409900 0.000000
-4.381500 0.000000
-4.353100 0.000000
-4.324800 0.000000
-4.296400 0.000000
-4.268000 0.000000
-4.239600 0.000000
-4.211200 0.000000
-4.182800 0.000000
-4.154500 0.000000
-4.126100 0.000000
-4.097700 0.000000
-4.069300 0.000000
-4.040900 0.000000
-4.012500 0.000000
-3.984200 0.000000
-3.955800 0.000000
-3.927400 0.000000
-3.899000 0.000000
-3.870600 0.000000
-3.842200 0.000000
-3.813900 0.000000
-3.785500 0.000000
-3.757100 0.000000
-3.728700 0.000000
-3.700300 0.000000
-3.672000 0.000000
-3.643600 0.000000
-3.615200 0.000000
-3.586800 0.000000
-3.558400 0.000000
-3.530000 0.000000
-3.501700 0.000000
-3.473300 0.000000
-3.444900 0.000000
-3.416500 0.000000
-3.388100 0.000000
-3.359700 0.000000
-3.331400 0.000000
-3.303000 0.000000
-3.274600 0.000000
-3.246200 0.000000
-3.217800 0.000000
-3.189400 0.000000
-3.161100 0.000000
-3.132700 0.000000
-3.104300 0.000000
-3.075900 0.000000
-3.047500 0.000000
-3.019100 0.000000
-2.990800 0.000000
-2.962400 0.000000
-2.934000 0.000000
-2.905600 0.000000
-2.877200 0.000000
-2.848900 0.000000
-2.820500 0.000000
-2.792100 0.000000
-2.763700 0.000000
-2.735300 0.000000
-2.706900 0.000000
-2.678600 0.000000
-2.650200 0.000000
-2.621800 0.000000
-2.593400 0.000000
-2.565000 0.000000
-2.536600 0.000000
-2.508300 0.000000
-2.479900 0.000000
-2.451500 0.000000
-2.423100 0.000000
-2.394700 0.000000
-2.366300 0.000000
-2.338000 0.000000
-2.309600 0.000000
-2.281200 0.000000
-2.252800 0.000000
-2.224400 0.000000
-2.196000 0.000000
-2.167700 0.000000
-2.139300 0.000000
-2.110900 0.000000
-2.082500 0.000000
-2.054100 0.000000
-2.025800 0.000000
-1.997400 0.000000
-1.969000 0.000000
-1.940600 0.000000
-1.912200 0.000000
-1.883800 0.000000
-1.855500 0.000000
-1.827100 0.000000
-1.798700 0.000000
-1.770300 0.000000
-1.741900 0.000000
-1.713500 0.000000
-1.685200 0.000000
-1.656800 0.000000
-1.628400 0.000000
-1.600000 0.000000
-1.571600 0.000000
-1.543200 0.000000
-1.514900 0.000000
-1.486500 0.000000
-1.458100 0.000000
-1.429700 0.513800
-1.401300 1.073400
-1.373000 1.149500
-1.344600 1.212900
-1.316200 1.222500
-1.287800 1.280300
-1.259400 1.336900
-1.231000 1.436600
-1.202700 1.528600
-1.174300 1.634400
-1.145900 1.794900
-1.117500 2.351000
-1.089100 2.140800
-1.060700 2.149300
-1.032400 2.029500
-1.004000 1.935000
-0.975600 1.868400
-0.947200 3.169700
-0.918800 5.850000
-0.890400 4.905700
-0.862100 5.697600
-0.833700 5.353600
-0.805300 6.236100
-0.776900 4.765500
-0.748500 4.754200
-0.720100 4.731800
-0.691800 4.635100
-0.663400 4.851500
-0.635000 4.678200
-0.606600 4.882800
-0.578200 4.765600
-0.549900 5.236200
-0.521500 8.735900
-0.493100 8.026400
-0.464700 7.639800
-0.436300 10.779400
-0.407900 7.583700
-0.379600 6.834600
-0.351200 7.355400
-0.322800 8.230700
-0.294400 7.025600
-0.266000 6.826500
-0.237600 5.640300
-0.209300 4.397300
-0.180900 6.483300
-0.152500 3.880700
-0.124100 7.935800
-0.095700 17.128400
-0.067300 14.724500
-0.039000 7.970500
-0.010600 7.404100
0.017800 6.164400
0.046200 4.580100
0.074600 4.328600
0.103000 5.421500
0.131300 5.767000
0.159700 9.176700
0.188100 9.385100
0.216500 9.756300
0.244900 9.639000
0.273200 9.606700
0.301600 9.834300
0.330000 19.834700
0.358400 17.207000
0.386800 17.440000
0.415200 16.986100
0.443500 19.714400
0.471900 10.487400
0.500300 12.167500
0.528700 10.294400
0.557100 7.779000
0.585500 8.995800
0.613800 9.407800
0.642200 12.288000
0.670600 11.639300
0.699000 5.503300
0.727400 6.083100
0.755800 4.208300
0.784100 3.116600
0.812500 2.411200
0.840900 2.106700
0.869300 1.459200
0.897700 1.455300
0.926000 1.455600
0.954400 1.456500
0.982800 1.457500
1.011200 3.776600
1.039600 2.162600
1.068000 0.000000
1.096300 0.000000
1.124700 0.000000
1.153100 0.000000
1.181500 0.000000
1.209900 0.000000
1.238300 0.000000
1.266600 0.000000
1.295000 0.000000
1.323400 0.000000
1.351800 0.988300
1.380200 3.172700
1.408600 6.032300
1.436900 7.993800
1.465300 8.295900
1.493700 9.043400
1.522100 11.661700
1.550500 9.938600
1.578900 7.780800
1.607200 3.280000
1.635600 1.945300
1.664000 0.648700
1.692400 0.000000
1.720800 0.000000
1.749100 0.000000
1.777500 0.000000
1.805900 0.000000
1.834300 0.000000
1.862700 0.000000
1.891100 0.000000
1.919400 0.000000
1.947800 0.000000
1.976200 0.000000
2.004600 0.000000
2.033000 0.000000
2.061400 0.000000
2.089700 0.000000
2.118100 0.000000
2.146500 0.000000
2.174900 0.000000
2.203300 0.000000
2.231700 0.000000
2.260000 0.000000
2.288400 0.000000
2.316800 0.000000
2.345200 0.000000
2.373600 0.000000
2.402000 0.000000
2.430300 0.000000
2.458700 0.000000
2.487100 0.000000
2.515500 0.000000
2.543900 0.000000
2.572200 0.000000
2.600600 0.000000
2.629000 0.000000
2.657400 0.000000
2.685800 0.000000
2.714200 0.000000
2.742500 0.000000
2.770900 0.000000
2.799300 0.000000
2.827700 0.000000
2.856100 0.000000
2.884500 0.000000
2.912800 0.000000
2.941200 0.000000
2.969600 0.000000
2.998000 0.000000
3.026400 0.000000
3.054800 0.000000
3.083100 0.069000
3.111500 0.088900
3.139900 0.110700
3.168300 0.134300
3.196700 0.159700
3.225000 0.186800
3.253400 0.206400
3.281800 0.235100
3.310200 0.250800
3.338600 0.270700
3.367000 0.290100
3.395300 0.309300
3.423700 0.328400
3.452100 0.350200
3.480500 0.375000
3.508900 0.515700
3.537300 0.459300
3.565600 0.481600
3.594000 0.503100
3.622400 0.523200
3.650800 0.531900
3.679200 0.536700
3.707600 0.544300
3.735900 0.555500
3.764300 0.566000
3.792700 0.577000
3.821100 0.590200
3.849500 0.705600
3.877900 0.719400
3.906200 0.749400
3.934600 0.780200
3.963000 0.813800
3.991400 0.844400
4.019800 0.870000
4.048100 0.901800
4.076500 0.935000
4.104900 0.971000
4.133300 1.009800
4.161700 1.047400
4.190100 1.088900
4.218400 1.131800
4.246800 1.175700
4.275200 1.220400
4.303600 1.268600
4.332000 1.319000
4.360400 1.376400
4.388700 1.431800
4.417100 1.491500
4.445500 1.554300
4.473900 1.617100
4.502300 1.778400
4.530700 1.932100
4.559000 2.139700
4.587400 2.137600
4.615800 2.184300
4.644200 2.228100
4.672600 2.258800
4.701000 2.318400
4.729300 2.402300
4.757700 3.647000
4.786100 3.025000
4.814500 3.191000
4.842900 3.665200
4.871200 3.651600
4.899600 3.593100
4.928000 3.691300
4.956400 3.714900
4.984800 3.795000
5.013200 3.942700
5.041500 4.372700
5.069900 4.731200
5.098300 4.916500
5.126700 4.912700
5.155100 4.955400
5.183500 5.178000
5.211800 4.602300
5.240200 4.797100
5.268600 4.886600
5.297000 5.088300
5.325400 5.238500
5.353800 6.165600
5.382100 9.363200
5.410500 10.189800
5.438900 11.855800
5.467300 11.710700
5.495700 13.021200
5.524000 13.561900
5.552400 13.247500
5.580800 12.461300
5.609200 10.623700
5.637600 10.601200
5.666000 11.908600
5.694300 11.133100
5.722700 6.542100
5.751100 4.927000
5.779500 3.961900
5.807900 5.732200
5.836300 8.184800
5.864600 8.598700
5.893000 10.301800
5.921400 9.117300
5.949800 8.464900
5.978200 8.454900
6.006600 7.834800
6.034900 9.859800
6.063300 10.070800
6.091700 10.047400
6.120100 10.580300
6.148500 12.187000
6.176900 12.038500
6.205200 10.712400
6.233600 10.543200
6.262000 10.027000
6.290400 10.861900
6.318800 9.349400
6.347100 7.497400
6.375500 7.103600
6.403900 6.907500
6.432300 6.917500
6.460700 6.797200
6.489100 6.486600
6.517400 6.347900
6.545800 5.732400
6.574200 5.684300
6.602600 5.985700
6.631000 7.026200
6.659400 7.345900
6.687700 6.003200
6.716100 5.356200
6.744500 4.612300
6.772900 4.123600
6.801300 3.542000
6.829700 3.370100
6.858000 3.415700
6.886400 3.494400
6.914800 3.470900
6.943200 3.382200
6.971600 3.099700
7.000000 2.964100
7.028300 2.935000
7.056700 3.294700
7.085100 3.771500
7.113500 4.472300
7.141900 4.791700
7.170200 4.542600
7.198600 4.634500
7.227000 4.214300
7.255400 4.091400
7.283800 4.229800
7.312200 4.910200
7.340500 5.012400
7.368900 5.476400
7.397300 5.314400
7.425700 4.652300
7.454100 4.837100
7.482500 4.203100
7.510800 4.338700
7.539200 4.894400
7.567600 5.060800
7.596000 5.613900
7.624400 5.362600
7.652800 5.696300
7.681100 6.768400
7.709500 7.375500
7.737900 8.371400
7.766300 9.064600
7.794700 10.066200
7.823000 10.554300
7.851400 8.699000
7.879800 8.446200
7.908200 8.043200
7.936600 7.833500
7.965000 8.283600
7.993300 10.032700
8.021700 11.161400
8.050100 13.097100
8.078500 10.794100
8.106900 10.480100
8.135300 9.114300
8.163600 10.117400
8.192000 9.767700
8.220400 9.846000
8.248800 9.435100
8.277200 9.372400
8.305600 9.582200
8.333900 10.865000
8.362300 12.288700
8.390700 12.144300
8.419100 9.895500
8.447500 9.934300
8.475900 9.761900
8.504200 10.041700
8.532600 10.523500
8.561000 12.549500
8.589400 12.300400
8.617800 12.310500
8.646100 10.938400
8.674500 10.525900
8.702900 10.433700
8.731300 11.340000
8.759700 11.108200
8.788100 11.296100
8.816400 12.059700
8.844800 13.507900
8.873200 13.107300
8.901600 14.040300
8.930000 13.544000
8.958400 13.508500
8.986700 12.247300
9.015100 11.941900
9.043500 12.329200
9.071900 12.050700
9.100300 14.203400
9.128700 16.205400
9.157000 15.210400
9.185400 15.808900
9.213800 15.935700
9.242200 14.405300
9.270600 15.780400
9.298900 17.107700
9.327300 17.248900
9.355700 17.538700
9.384100 17.515100
9.412500 21.072700
9.440900 18.807100
9.469200 20.648100
9.497600 17.132100
9.526000 15.289300
9.554400 16.652900
9.582800 20.381800
9.611200 20.128500
9.639500 16.528900
9.667900 15.867300
9.696300 19.471800
9.724700 17.078800
9.753100 18.550700
9.781500 17.534900
9.809800 18.358000
9.838200 16.623900
9.866600 15.817500
9.895000 16.482000
9.923400 13.990100
9.951800 13.628200
9.980100 15.422700
10.008500 12.857500
10.036900 10.089100
10.065300 11.954500
10.093700 15.256200
10.122000 14.012800
10.150400 14.305500
10.178800 13.320800
10.207200 13.714600
10.235600 13.557000
10.264000 14.953000
10.292300 18.979700
10.320700 17.010100
10.349100 15.637200
10.377500 12.955900
10.405900 9.808200
10.434300 9.688400
10.462600 11.316000
10.491000 11.321600
10.519400 9.014300
10.547800 8.223400
10.576200 8.241900
10.604600 7.617500
10.632900 7.112700
10.661300 6.739400
10.689700 7.811400
10.718100 7.722100
10.746500 8.691100
10.774900 7.579000
10.803200 7.635400
10.831600 7.182400
10.860000 7.839100
10.888400 6.095400
10.916800 6.306500
10.945100 7.043800
10.973500 9.658600
11.001900 5.523200
11.030300 4.356000
11.058700 4.436700
11.087100 4.407200
11.115400 4.342100
11.143800 4.867200
11.172200 5.203800
11.200600 5.043800
11.229000 4.207300
11.257400 3.952100
11.285700 3.667600
11.314100 3.362700
11.342500 3.328200
11.370900 3.271900
11.399300 3.540700
11.427700 3.942600
11.456000 3.876800
11.484400 3.520400
11.512800 3.002200
11.541200 2.895800
11.569600 2.950900
11.597900 2.909100
11.626300 2.842000
11.654700 2.836900
11.683100 2.856600
11.711500 2.874400
11.739900 2.785600
11.768200 2.825000
11.796600 2.904500
11.825000 2.951200
11.853400 2.479200
11.881800 2.293800
11.910200 2.094500
11.938500 2.110500
11.966900 2.034900
11.995300 1.957400
12.023700 1.924400
12.052100 1.901600
12.080500 1.920300
12.108800 1.915400
12.137200 1.901700
12.165600 1.893300
12.194000 1.873500
12.222400 1.852200
12.250800 1.855800
12.279100 1.869100
12.307500 1.874500
12.335900 1.807100
12.364300 1.794600
12.392700 1.787200
12.421000 1.774200
12.449400 1.783000
12.477800 1.791000
12.506200 1.802400
12.534600 1.804600
12.563000 1.791800
12.591300 1.769700
12.619700 1.804700
12.648100 1.670000
12.676500 1.726100
12.704900 1.751500
12.733300 1.779700
12.761600 1.810500
12.790000 1.824100
12.818400 1.857900
12.846800 1.877500
12.875200 1.906700
12.903600 1.943000
12.931900 1.997600
12.960300 2.056500
12.988700 2.128400
13.017100 2.192100
13.045500 2.383600
13.073900 2.463400
13.102200 2.518300
13.130600 2.478000
13.159000 2.443600
13.187400 2.392000
13.215800 2.364700
13.244100 2.327300
13.272500 2.278100
13.300900 2.232000
13.329300 2.205100
13.357700 2.167400
13.386100 2.123900
13.414400 2.065900
13.442800 1.988000
13.471200 1.929400
13.499600 1.873300
13.528000 1.849500
13.556400 1.845800
13.584700 1.864200
13.613100 1.921100
13.641500 2.019400
13.669900 2.140900
13.698300 2.655200
13.726700 2.829400
13.755000 2.963400
13.783400 3.037600
13.811800 2.805000
13.840200 2.656200
13.868600 2.512300
13.896900 2.381200
13.925300 2.323000
13.953700 2.174900
13.982100 2.114700
14.010500 2.137200
14.038900 1.960300
14.067200 1.642500
14.095600 1.535300
14.124000 1.448500
14.152400 1.369100
14.180800 1.495500
14.209200 1.494500
14.237500 1.139900
14.265900 1.183100
14.294300 1.235100
14.322700 1.363700
14.351100 1.542500
14.379500 1.773700
14.407800 1.964400
14.436200 2.141700
14.464600 2.320700
14.493000 2.496700
14.521400 2.521000
14.549800 2.546300
14.578100 2.463200
14.606500 2.275400
14.634900 2.105500
14.663300 1.946000
14.691700 1.710900
14.720000 1.570300
14.748400 1.540500
14.776800 1.532600
14.805200 1.566800
14.833600 1.589900
14.862000 1.604800
14.890300 1.851100
14.918700 1.845400
14.947100 1.955700
14.975500 2.134500
15.003900 2.087900
15.032300 2.050600
15.060600 2.317500
15.089000 2.315000
15.117400 2.192700
15.145800 2.154500
15.174200 2.167200
15.202600 2.360000
15.230900 2.434500
15.259300 2.854900
15.287700 2.376700
15.316100 2.139200
15.344500 2.192200
15.372900 1.821100
15.401200 1.823900
15.429600 1.806300
15.458000 2.023900
15.486400 2.209200
15.514800 2.234300
15.543100 2.344200
15.571500 2.069300
15.599900 2.022400
15.628300 2.063300
15.656700 2.160700
15.685100 2.238400
15.713400 2.334400
15.741800 2.434800
15.770200 2.689400
15.798600 2.745100
15.827000 2.683900
15.855400 2.623500
15.883700 2.502600
15.912100 2.447300
15.940500 2.458200
15.968900 2.442500
15.997300 2.527600
16.025700 2.297400
16.054000 2.239000
16.082400 2.202300
16.110800 2.171700
16.139200 2.196300
16.167600 2.222200
16.195900 2.268700
16.224300 2.263800
16.252700 2.323900
16.281100 2.315300
16.309500 2.337100
16.337900 2.333200
16.366200 2.435000
16.394600 2.479000
16.423000 2.493200
16.451400 2.536400
16.479800 2.543400
16.508200 2.497500
16.536500 2.516000
16.564900 2.515700
16.593300 2.550100
16.621700 2.641300
16.650100 2.644800
16.678500 2.744900
16.706800 2.761500
16.735200 2.793700
16.763600 2.823400
16.792000 2.945800
16.820400 3.086000
16.848800 3.214200
16.877100 3.336800
16.905500 3.430500
16.933900 3.351300
16.962300 3.251800
16.990700 3.273500
17.019000 3.339100
17.047400 3.317600
17.075800 3.165500
17.104200 3.121500
17.132600 3.195200
17.161000 3.309500
17.189300 3.473000
17.217700 3.625400
17.246100 3.454500
17.274500 3.381800
17.302900 3.335900
17.331300 3.211000
17.359600 3.095800
17.388000 2.882100
17.416400 2.746800
17.444800 2.603500
17.473200 2.539800
17.501600 2.470200
17.529900 2.410300
17.558300 2.436000
17.586700 2.444400
17.615100 2.493200
17.643500 2.580200
17.671900 2.848700
17.700200 3.128600
17.728600 3.493500
17.757000 3.415400
17.785400 3.366700
17.813800 3.461200
17.842100 3.420000
17.870500 3.482600
17.898900 3.365900
17.927300 3.296800
17.955700 3.350100
17.984100 3.542500
18.012400 3.716900
18.040800 3.731800
18.069200 3.707700
18.097600 3.734900
18.126000 3.681200
18.154400 3.652100
18.182700 3.754100
18.211100 3.895100
18.239500 3.751300
18.267900 4.081100
18.296300 4.038100
18.324700 3.730000
18.353000 3.431400
18.381400 3.344000
18.409800 3.244400
18.438200 3.237900
18.466600 3.303000
18.494900 3.451700
18.523300 3.439100
18.551700 3.512500
18.580100 3.527200
18.608500 3.558600
18.636900 3.554400
18.665200 3.462600
18.693600 3.425600
18.722000 3.379300
18.750400 3.501400
18.778800 3.545700
18.807200 3.638200
18.835500 3.756400
18.863900 3.837400
18.892300 3.669100
18.920700 3.499900
18.949100 3.447600
18.977500 3.498700
19.005800 3.570200
19.034200 3.655500
19.062600 3.721400
19.091000 3.736400
19.119400 3.783200
19.147800 3.931100
19.176100 4.179500
19.204500 4.393400
19.232900 4.466700
19.261300 4.366000
19.289700 4.248300
19.318000 4.182800
19.346400 4.036800
19.374800 3.897100
19.403200 4.162300
19.431600 3.847500
19.460000 3.702000
19.488300 3.911300
19.516700 4.045500
19.545100 3.967300
19.573500 3.928100
19.601900 3.926600
19.630300 3.869300
19.658600 3.922000
19.687000 3.979100
19.715400 4.004800
19.743800 3.984700
19.772200 4.747600
19.800600 4.576800
19.828900 4.135600
19.857300 3.866200
19.885700 3.832500
19.914100 3.926700
19.942500 3.986000
19.970900 4.159100
19.999200 4.616300
20.027600 5.360900
20.056000 4.799600
20.084400 4.614600
20.112800 4.699300
20.141100 4.523500
20.169500 4.687900
20.197900 4.939700
20.226300 5.309900
20.254700 5.223300
20.283100 5.191200
20.311400 4.746200
20.339800 4.600000
20.368200 4.393800
20.396600 4.526000
20.425000 4.391900
20.453400 4.661500
20.481700 4.957800
20.510100 5.582400
20.538500 5.137600
20.566900 5.080100
20.595300 4.799100
20.623700 4.663300
20.652000 4.675900
20.680400 4.593200
20.708800 4.559800
20.737200 4.271600
20.765600 4.216000
20.793900 4.231800
20.822300 4.240100
20.850700 4.518100
20.879100 4.768800
20.907500 4.782300
20.935900 4.805700
20.964200 4.709800
20.992600 4.615600
21.021000 4.613100
21.049400 4.518800
21.077800 4.356500
21.106200 4.308500
21.134500 4.335000
21.162900 4.303200
21.191300 4.329100
21.219700 4.641500
21.248100 4.718000
21.276500 4.755300
21.304800 4.674900
21.333200 4.651700
21.361600 4.633600
21.390000 4.470800
21.418400 4.307700
21.446800 4.324600
21.475100 4.367500
21.503500 4.587400
21.531900 4.765600
21.560300 5.011600
21.588700 4.864000
21.617000 4.720600
21.645400 4.730700
21.673800 4.332000
21.702200 4.106200
21.730600 3.979400
21.759000 3.954000
21.787300 3.887800
21.815700 4.098700
21.844100 4.200500
21.872500 4.039700
21.900900 4.036300
21.929300 3.856700
21.957600 3.731200
21.986000 3.871800
22.014400 3.669200
22.042800 3.579300
22.071200 3.496800
22.099600 3.319900
22.127900 3.191100
22.156300 3.125500
22.184700 4.280500
22.213100 3.034700
22.241500 3.193100
22.269900 3.256500
22.298200 3.238300
22.326600 2.892200
22.355000 2.932700
22.383400 2.852500
22.411800 2.703700
22.440100 2.606800
22.468500 2.549700
22.496900 2.645800
22.525300 2.551000
22.553700 2.569100
22.582100 2.557900
22.610400 2.484600
22.638800 2.348900
22.667200 2.312800
22.695600 2.310100
22.724000 2.396900
22.752400 2.454600
22.780700 2.487500
22.809100 2.447900
22.837500 2.371600
22.865900 2.325700
22.894300 2.248800
22.922700 2.198100
22.951000 2.139300
22.979400 2.234900
23.007800 2.065100
23.036200 2.020100
23.064600 1.997100
23.092900 1.951600
23.121300 1.914300
23.149700 1.864400
23.178100 1.832000
23.206500 1.769300
23.234900 1.721400
23.263200 1.710900
23.291600 1.656200
23.320000 1.553600
23.348400 1.492100
23.376800 1.449200
23.405200 1.474800
23.433500 1.736900
23.461900 1.453200
23.490300 1.422400
23.518700 1.398900
23.547100 1.375200
23.575500 1.357100
23.603800 1.366900
23.632200 1.345700
23.660600 1.216300
23.689000 1.192200
23.717400 1.127000
23.745800 1.083900
23.774100 1.016400
23.802500 0.892200
23.830900 0.804300
23.859300 0.770100
23.887700 0.893400
23.916000 0.752800
23.944400 0.591800
23.972800 0.535300
24.001200 0.495500
24.029600 0.488200
24.058000 0.446600
24.086300 0.314600
24.114700 0.295300
24.143100 0.278700
24.171500 0.263100
24.199900 0.247800
24.228300 0.232000
24.256600 0.211700
24.285000 0.179700
24.313400 0.152600
24.341800 0.138100
24.370200 0.125300
24.398600 0.112900
24.426900 0.100800
24.455300 0.089500
24.483700 0.078700
24.512100 0.068500
24.540500 0.061100
24.568900 0.054600
24.597200 0.048800
24.625600 0.000000
24.654000 0.000000
24.682400 0.000000
24.710800 0.000000
24.739100 0.000000
24.767500 0.000000
24.795900 0.000000
24.824300 0.000000
24.852700 0.000000
24.881100 0.000000
24.909400 0.000000
24.937800 0.000000
24.966200 0.000000
24.994600 0.000000
25.023000 0.000000
25.051400 0.000000
25.079700 0.000000
25.108100 0.000000
25.136500 0.000000
25.164900 0.000000
25.193300 0.000000
25.221700 0.000000
25.250000 0.000000
25.278400 0.000000
25.306800 0.000000
25.335200 0.000000
25.363600 0.000000
25.391900 0.000000
25.420300 0.000000
25.448700 0.000000
25.477100 0.000000
25.505500 0.000000
25.533900 0.000000
25.562200 0.000000
25.590600 0.000000
25.619000 0.000000
25.647400 0.000000
25.675800 0.000000
25.704200 0.000000
25.732500 0.000000
25.760900 0.000000
25.789300 0.000000
25.817700 0.000000
25.846100 0.000000
25.874500 0.000000
25.902800 0.000000
25.931200 0.000000
25.959600 0.000000
25.988000 0.000000
26.016400 0.000000
26.044800 0.000000
26.073100 0.000000
26.101500 0.000000
26.129900 0.000000
26.158300 0.000000
26.186700 0.000000
26.215000 0.000000
26.243400 0.000000
26.271800 0.000000
26.300200 0.000000
26.328600 0.000000
26.357000 0.000000
26.385300 0.000000
26.413700 0.000000
26.442100 0.000000
26.470500 0.000000
26.498900 0.000000
26.527300 0.000000
26.555600 0.000000
26.584000 0.000000
26.612400 0.000000
26.640800 0.000000
26.669200 0.000000
26.697600 0.000000
26.725900 0.000000
26.754300 0.000000
26.782700 0.000000
26.811100 0.000000
26.839500 0.000000
26.867900 0.000000
26.896200 0.000000
26.924600 0.000000
26.953000 0.000000
26.981400 0.000000
27.009800 0.000000
27.038100 0.000000
27.066500 0.000000
27.094900 0.000000
27.123300 0.000000
27.151700 0.000000
27.180100 0.000000
e
