set title 'mp-1186049 - Density of States'
set xlabel 'Energy (eV)'
set ylabel 'DOS (states/eV)'
set grid
set xrange [-10:10]
set yrange [0:22.848]
set xzeroaxis lt -1
set terminal png size 800,600
set output 'mp-1186049_dos_gnuplot.png'
plot '-' using 1:2 with lines title 'DOS'
-24.572800 0.000000
-24.543900 0.000000
-24.515000 0.000000
-24.486200 0.000000
-24.457300 0.000000
-24.428400 0.000000
-24.399600 0.000000
-24.370700 0.000000
-24.341800 0.000000
-24.313000 0.000000
-24.284100 0.000000
-24.255200 0.000000
-24.226400 0.000000
-24.197500 0.000000
-24.168600 0.000000
-24.139800 0.000000
-24.110900 0.000000
-24.082000 0.000000
-24.053200 0.000000
-24.024300 0.000000
-23.995400 0.000000
-23.966600 0.000000
-23.937700 0.000000
-23.908800 0.000000
-23.880000 0.000000
-23.851100 0.000000
-23.822200 0.000000
-23.793400 0.000000
-23.764500 0.000000
-23.735600 0.000000
-23.706800 0.000000
-23.677900 0.000000
-23.649000 0.000000
-23.620200 0.000000
-23.591300 0.000000
-23.562400 0.000000
-23.533600 0.000000
-23.504700 0.000000
-23.475800 0.000000
-23.447000 0.000000
-23.418100 0.000000
-23.389200 0.000000
-23.360400 0.000000
-23.331500 0.000000
-23.302600 0.000000
-23.273800 0.000000
-23.244900 0.000000
-23.216000 0.000000
-23.187200 0.000000
-23.158300 0.000000
-23.129400 0.000000
-23.100600 0.000000
-23.071700 0.000000
-23.042800 0.000000
-23.013900 0.000000
-22.985100 0.000000
-22.956200 0.000000
-22.927300 0.000000
-22.898500 0.000000
-22.869600 0.000000
-22.840700 0.000000
-22.811900 0.000000
-22.783000 0.000000
-22.754100 0.000000
-22.725300 0.000000
-22.696400 0.000000
-22.667500 0.000000
-22.638700 0.000000
-22.609800 0.000000
-22.580900 0.000000
-22.552100 0.000000
-22.523200 0.000000
-22.494300 0.000000
-22.465500 0.000000
-22.436600 0.000000
-22.407700 0.000000
-22.378900 0.000000
-22.350000 0.000000
-22.321100 0.000000
-22.292300 0.000000
-22.263400 0.000000
-22.234500 0.000000
-22.205700 0.000000
-22.176800 0.000000
-22.147900 0.000000
-22.119100 0.000000
-22.090200 0.000000
-22.061300 0.000000
-22.032500 0.000000
-22.003600 0.000000
-21.974700 0.000000
-21.945900 62.179500
-21.917000 0.000000
-21.888100 0.000000
-21.859300 0.000000
-21.830400 136.294100
-21.801500 13.174300
-21.772700 103.463600
-21.743800 37.108600
-21.714900 81.748400
-21.686100 369.239700
-21.657200 0.000000
-21.628300 0.000000
-21.599400 0.000000
-21.570600 0.000000
-21.541700 0.000000
-21.512800 0.000000
-21.484000 0.000000
-21.455100 0.000000
-21.426200 0.000000
-21.397400 0.000000
-21.368500 0.000000
-21.339600 0.000000
-21.310800 0.000000
-21.281900 0.000000
-21.253000 0.000000
-21.224200 0.000000
-21.195300 0.000000
-21.166400 0.000000
-21.137600 0.000000
-21.108700 0.000000
-21.079800 0.000000
-21.051000 0.000000
-21.022100 0.000000
-20.993200 0.000000
-20.964400 0.000000
-20.935500 0.000000
-20.906600 0.000000
-20.877800 0.000000
-20.848900 0.000000
-20.820000 0.000000
-20.791200 0.000000
-20.762300 0.000000
-20.733400 0.000000
-20.704600 0.000000
-20.675700 0.000000
-20.646800 0.000000
-20.618000 0.000000
-20.589100 0.000000
-20.560200 0.000000
-20.531400 0.000000
-20.502500 0.000000
-20.473600 0.000000
-20.444800 0.000000
-20.415900 0.000000
-20.387000 0.000000
-20.358200 0.000000
-20.329300 0.000000
-20.300400 0.000000
-20.271600 0.000000
-20.242700 0.000000
-20.213800 0.000000
-20.184900 0.000000
-20.156100 0.000000
-20.127200 0.000000
-20.098300 0.000000
-20.069500 0.000000
-20.040600 0.000000
-20.011700 0.000000
-19.982900 0.000000
-19.954000 0.000000
-19.925100 0.000000
-19.896300 0.000000
-19.867400 0.000000
-19.838500 0.000000
-19.809700 0.000000
-19.780800 0.000000
-19.751900 0.000000
-19.723100 0.000000
-19.694200 0.000000
-19.665300 0.000000
-19.636500 0.000000
-19.607600 0.000000
-19.578700 0.000000
-19.549900 0.000000
-19.521000 0.000000
-19.492100 0.000000
-19.463300 0.000000
-19.434400 0.000000
-19.405500 0.000000
-19.376700 0.000000
-19.347800 0.000000
-19.318900 0.000000
-19.290100 0.000000
-19.261200 0.000000
-19.232300 0.000000
-19.203500 0.000000
-19.174600 0.000000
-19.145700 0.000000
-19.116900 0.000000
-19.088000 0.000000
-19.059100 0.000000
-19.030300 0.000000
-19.001400 0.000000
-18.972500 0.000000
-18.943700 0.000000
-18.914800 0.000000
-18.885900 0.000000
-18.857100 0.000000
-18.828200 0.000000
-18.799300 0.000000
-18.770400 0.000000
-18.741600 0.000000
-18.712700 0.000000
-18.683800 0.000000
-18.655000 0.000000
-18.626100 0.000000
-18.597200 0.000000
-18.568400 0.000000
-18.539500 0.000000
-18.510600 0.000000
-18.481800 0.000000
-18.452900 0.000000
-18.424000 0.000000
-18.395200 0.000000
-18.366300 0.000000
-18.337400 0.000000
-18.308600 0.000000
-18.279700 0.000000
-18.250800 0.000000
-18.222000 0.000000
-18.193100 0.000000
-18.164200 0.000000
-18.135400 0.000000
-18.106500 0.000000
-18.077600 0.000000
-18.048800 0.000000
-18.019900 0.000000
-17.991000 0.000000
-17.962200 0.000000
-17.933300 0.000000
-17.904400 0.000000
-17.875600 0.000000
-17.846700 0.000000
-17.817800 0.000000
-17.789000 0.000000
-17.760100 0.000000
-17.731200 0.000000
-17.702400 0.000000
-17.673500 0.000000
-17.644600 0.000000
-17.615800 0.000000
-17.586900 0.000000
-17.558000 0.000000
-17.529200 0.000000
-17.500300 0.000000
-17.471400 0.000000
-17.442600 0.000000
-17.413700 0.000000
-17.384800 0.000000
-17.355900 0.000000
-17.327100 0.000000
-17.298200 0.000000
-17.269300 0.000000
-17.240500 0.000000
-17.211600 0.000000
-17.182700 0.000000
-17.153900 0.000000
-17.125000 0.000000
-17.096100 0.000000
-17.067300 0.000000
-17.038400 0.000000
-17.009500 0.000000
-16.980700 0.000000
-16.951800 0.000000
-16.922900 0.000000
-16.894100 0.000000
-16.865200 0.000000
-16.836300 0.000000
-16.807500 0.000000
-16.778600 0.000000
-16.749700 0.000000
-16.720900 0.000000
-16.692000 0.000000
-16.663100 0.000000
-16.634300 0.000000
-16.605400 0.000000
-16.576500 0.000000
-16.547700 0.000000
-16.518800 0.000000
-16.489900 0.000000
-16.461100 0.000000
-16.432200 0.000000
-16.403300 0.000000
-16.374500 0.000000
-16.345600 0.000000
-16.316700 0.000000
-16.287900 0.000000
-16.259000 0.000000
-16.230100 0.000000
-16.201300 0.000000
-16.172400 0.000000
-16.143500 0.000000
-16.114700 0.000000
-16.085800 0.000000
-16.056900 0.000000
-16.028100 0.000000
-15.999200 0.000000
-15.970300 0.000000
-15.941500 0.000000
-15.912600 0.000000
-15.883700 0.000000
-15.854800 0.000000
-15.826000 0.000000
-15.797100 0.000000
-15.768200 0.000000
-15.739400 0.000000
-15.710500 0.000000
-15.681600 0.000000
-15.652800 0.000000
-15.623900 0.000000
-15.595000 0.000000
-15.566200 0.000000
-15.537300 0.000000
-15.508400 0.000000
-15.479600 0.000000
-15.450700 0.000000
-15.421800 0.000000
-15.393000 0.000000
-15.364100 0.000000
-15.335200 0.000000
-15.306400 0.000000
-15.277500 0.000000
-15.248600 0.000000
-15.219800 0.000000
-15.190900 0.000000
-15.162000 0.000000
-15.133200 0.000000
-15.104300 0.000000
-15.075400 0.000000
-15.046600 0.000000
-15.017700 0.000000
-14.988800 0.000000
-14.960000 0.000000
-14.931100 0.000000
-14.902200 0.000000
-14.873400 0.000000
-14.844500 0.000000
-14.815600 0.000000
-14.786800 0.000000
-14.757900 0.000000
-14.729000 0.000000
-14.700200 0.000000
-14.671300 0.000000
-14.642400 0.000000
-14.613600 0.000000
-14.584700 0.000000
-14.555800 0.000000
-14.527000 0.000000
-14.498100 0.000000
-14.469200 0.000000
-14.440300 0.000000
-14.411500 0.000000
-14.382600 0.000000
-14.353700 0.000000
-14.324900 0.000000
-14.296000 0.000000
-14.267100 0.000000
-14.238300 0.000000
-14.209400 0.000000
-14.180500 0.000000
-14.151700 0.000000
-14.122800 0.000000
-14.093900 0.000000
-14.065100 0.000000
-14.036200 0.000000
-14.007300 0.000000
-13.978500 0.000000
-13.949600 0.000000
-13.920700 0.000000
-13.891900 0.000000
-13.863000 0.000000
-13.834100 0.000000
-13.805300 0.000000
-13.776400 0.000000
-13.747500 0.000000
-13.718700 0.000000
-13.689800 0.000000
-13.660900 0.000000
-13.632100 0.000000
-13.603200 0.000000
-13.574300 0.000000
-13.545500 0.000000
-13.516600 0.000000
-13.487700 0.000000
-13.458900 0.000000
-13.430000 0.000000
-13.401100 0.000000
-13.372300 0.000000
-13.343400 0.000000
-13.314500 0.000000
-13.285700 0.000000
-13.256800 0.000000
-13.227900 0.000000
-13.199100 0.000000
-13.170200 0.000000
-13.141300 0.000000
-13.112500 0.000000
-13.083600 0.000000
-13.054700 0.000000
-13.025800 0.000000
-12.997000 0.000000
-12.968100 0.000000
-12.939200 0.000000
-12.910400 0.000000
-12.881500 0.000000
-12.852600 0.000000
-12.823800 0.000000
-12.794900 0.000000
-12.766000 0.000000
-12.737200 0.000000
-12.708300 0.000000
-12.679400 0.000000
-12.650600 0.000000
-12.621700 0.000000
-12.592800 0.000000
-12.564000 0.000000
-12.535100 0.000000
-12.506200 0.000000
-12.477400 0.000000
-12.448500 0.000000
-12.419600 0.000000
-12.390800 0.000000
-12.361900 0.000000
-12.333000 0.000000
-12.304200 0.000000
-12.275300 0.000000
-12.246400 0.000000
-12.217600 0.000000
-12.188700 0.000000
-12.159800 0.000000
-12.131000 0.000000
-12.102100 0.000000
-12.073200 0.000000
-12.044400 0.000000
-12.015500 0.000000
-11.986600 0.000000
-11.957800 0.000000
-11.928900 0.000000
-11.900000 0.000000
-11.871200 0.000000
-11.842300 0.000000
-11.813400 0.000000
-11.784600 0.000000
-11.755700 0.000000
-11.726800 0.000000
-11.698000 0.000000
-11.669100 0.000000
-11.640200 0.000000
-11.611300 0.000000
-11.582500 0.000000
-11.553600 0.000000
-11.524700 0.000000
-11.495900 0.000000
-11.467000 0.000000
-11.438100 0.000000
-11.409300 0.000000
-11.380400 0.000000
-11.351500 0.000000
-11.322700 0.000000
-11.293800 0.000000
-11.264900 0.000000
-11.236100 0.000000
-11.207200 0.000000
-11.178300 0.000000
-11.149500 0.000000
-11.120600 0.000000
-11.091700 0.000000
-11.062900 0.000000
-11.034000 0.000000
-11.005100 0.000000
-10.976300 0.000000
-10.947400 0.000000
-10.918500 0.000000
-10.889700 0.000000
-10.860800 0.000000
-10.831900 0.000000
-10.803100 0.000000
-10.774200 0.000000
-10.745300 0.000000
-10.716500 0.000000
-10.687600 0.000000
-10.658700 0.000000
-10.629900 0.000000
-10.601000 0.000000
-10.572100 0.000000
-10.543300 0.000000
-10.514400 0.000000
-10.485500 0.000000
-10.456700 0.000000
-10.427800 0.000000
-10.398900 0.000000
-10.370100 0.000000
-10.341200 0.000000
-10.312300 0.000000
-10.283500 0.000000
-10.254600 0.000000
-10.225700 0.000000
-10.196800 0.000000
-10.168000 0.000000
-10.139100 0.000000
-10.110200 0.000000
-10.081400 0.000000
-10.052500 0.000000
-10.023600 0.000000
-9.994800 0.000000
-9.965900 0.000000
-9.937000 0.000000
-9.908200 0.000000
-9.879300 0.000000
-9.850400 0.000000
-9.821600 0.000000
-9.792700 0.000000
-9.763800 0.000000
-9.735000 0.000000
-9.706100 0.000000
-9.677200 0.000000
-9.648400 0.000000
-9.619500 0.000000
-9.590600 0.000000
-9.561800 0.000000
-9.532900 0.000000
-9.504000 0.000000
-9.475200 0.000000
-9.446300 0.000000
-9.417400 0.000000
-9.388600 0.000000
-9.359700 0.000000
-9.330800 0.000000
-9.302000 0.000000
-9.273100 0.000000
-9.244200 0.000000
-9.215400 0.000000
-9.186500 0.000000
-9.157600 0.000000
-9.128800 0.000000
-9.099900 0.000000
-9.071000 0.000000
-9.042200 0.000000
-9.013300 0.000000
-8.984400 0.000000
-8.955600 0.000000
-8.926700 0.000000
-8.897800 0.000000
-8.869000 0.000000
-8.840100 0.000000
-8.811200 0.000000
-8.782400 0.000000
-8.753500 0.000000
-8.724600 0.000000
-8.695700 0.000000
-8.666900 0.000000
-8.638000 0.000000
-8.609100 0.000000
-8.580300 0.000000
-8.551400 0.000000
-8.522500 0.000000
-8.493700 0.000000
-8.464800 0.000000
-8.435900 0.000000
-8.407100 0.000000
-8.378200 0.000000
-8.349300 0.000000
-8.320500 0.000000
-8.291600 0.000000
-8.262700 0.000000
-8.233900 0.000000
-8.205000 0.000000
-8.176100 0.000000
-8.147300 0.000000
-8.118400 0.000000
-8.089500 0.000000
-8.060700 0.000000
-8.031800 0.000000
-8.002900 0.000000
-7.974100 0.000000
-7.945200 0.000000
-7.916300 0.000000
-7.887500 0.000000
-7.858600 0.000000
-7.829700 0.000000
-7.800900 0.000000
-7.772000 0.000000
-7.743100 0.000000
-7.714300 0.000000
-7.685400 0.000000
-7.656500 0.000000
-7.627700 0.000000
-7.598800 0.000000
-7.569900 0.000000
-7.541100 0.000000
-7.512200 0.000000
-7.483300 0.000000
-7.454500 0.000000
-7.425600 0.000000
-7.396700 0.000000
-7.367900 0.000000
-7.339000 0.000000
-7.310100 0.000000
-7.281200 0.000000
-7.252400 0.000000
-7.223500 0.000000
-7.194600 0.000000
-7.165800 0.000000
-7.136900 0.000000
-7.108000 0.000000
-7.079200 0.000000
-7.050300 0.000000
-7.021400 0.000000
-6.992600 0.000000
-6.963700 0.000000
-6.934800 0.000000
-6.906000 0.000000
-6.877100 0.000000
-6.848200 0.000000
-6.819400 0.000000
-6.790500 0.000000
-6.761600 0.000000
-6.732800 0.000000
-6.703900 0.000000
-6.675000 0.000000
-6.646200 0.000000
-6.617300 0.000000
-6.588400 0.000000
-6.559600 0.000000
-6.530700 0.000000
-6.501800 0.000000
-6.473000 0.000000
-6.444100 0.000000
-6.415200 0.000000
-6.386400 0.000000
-6.357500 0.000000
-6.328600 0.000000
-6.299800 0.000000
-6.270900 0.000000
-6.242000 0.000000
-6.213200 0.000000
-6.184300 0.000000
-6.155400 0.000000
-6.126600 0.000000
-6.097700 0.000000
-6.068800 0.000000
-6.040000 0.000000
-6.011100 0.000000
-5.982200 0.000000
-5.953400 0.000000
-5.924500 0.000000
-5.895600 0.000000
-5.866700 0.000000
-5.837900 0.000000
-5.809000 0.000000
-5.780100 0.000000
-5.751300 0.000000
-5.722400 0.000000
-5.693500 0.000000
-5.664700 0.000000
-5.635800 0.000000
-5.606900 0.000000
-5.578100 0.000000
-5.549200 0.000000
-5.520300 0.000000
-5.491500 0.000000
-5.462600 0.000000
-5.433700 0.000000
-5.404900 0.000000
-5.376000 0.000000
-5.347100 0.000000
-5.318300 0.000000
-5.289400 0.000000
-5.260500 0.000000
-5.231700 0.000000
-5.202800 0.000000
-5.173900 0.000000
-5.145100 0.000000
-5.116200 0.000000
-5.087300 0.000000
-5.058500 0.000000
-5.029600 0.000000
-5.000700 0.000000
-4.971900 0.000000
-4.943000 0.000000
-4.914100 0.000000
-4.885300 0.000000
-4.856400 0.000000
-4.827500 0.000000
-4.798700 0.000000
-4.769800 0.000000
-4.740900 0.000000
-4.712100 0.000000
-4.683200 0.000000
-4.654300 0.000000
-4.625500 0.000000
-4.596600 0.000000
-4.567700 0.000000
-4.538900 0.000000
-4.510000 0.000000
-4.481100 0.000000
-4.452200 0.000000
-4.423400 0.000000
-4.394500 0.000000
-4.365600 0.000000
-4.336800 0.000000
-4.307900 0.000000
-4.279000 0.000000
-4.250200 0.000000
-4.221300 0.000000
-4.192400 0.000000
-4.163600 0.000000
-4.134700 0.000000
-4.105800 0.000000
-4.077000 0.000000
-4.048100 0.000000
-4.019200 0.000000
-3.990400 0.000000
-3.961500 0.000000
-3.932600 0.000000
-3.903800 0.000000
-3.874900 0.000000
-3.846000 0.000000
-3.817200 0.000000
-3.788300 0.000000
-3.759400 0.000000
-3.730600 0.000000
-3.701700 0.000000
-3.672800 0.000000
-3.644000 0.000000
-3.615100 0.000000
-3.586200 0.000000
-3.557400 0.000000
-3.528500 0.000000
-3.499600 0.000000
-3.470800 0.000000
-3.441900 0.000000
-3.413000 0.000000
-3.384200 0.000000
-3.355300 0.000000
-3.326400 0.000000
-3.297600 0.000000
-3.268700 0.000000
-3.239800 0.000000
-3.211000 0.000000
-3.182100 0.000000
-3.153200 0.000000
-3.124400 0.000000
-3.095500 0.000000
-3.066600 0.000000
-3.037800 0.000000
-3.008900 0.000000
-2.980000 0.000000
-2.951100 0.000000
-2.922300 0.000000
-2.893400 0.000000
-2.864500 0.000000
-2.835700 0.000000
-2.806800 0.000000
-2.777900 0.000000
-2.749100 0.000000
-2.720200 0.000000
-2.691300 0.000000
-2.662500 0.000000
-2.633600 0.000000
-2.604700 0.000000
-2.575900 0.000000
-2.547000 0.000000
-2.518100 0.000000
-2.489300 0.000000
-2.460400 0.000000
-2.431500 0.000000
-2.402700 0.016500
-2.373800 0.067200
-2.344900 0.152400
-2.316100 0.154600
-2.287200 0.169300
-2.258300 0.190400
-2.229500 0.215500
-2.200600 0.234700
-2.171700 0.257600
-2.142900 0.279200
-2.114000 0.292600
-2.085100 0.297800
-2.056300 0.314200
-2.027400 0.330000
-1.998500 0.346100
-1.969700 0.360300
-1.940800 0.372500
-1.911900 0.383900
-1.883100 0.397600
-1.854200 0.413100
-1.825300 0.430000
-1.796500 0.442400
-1.767600 0.454500
-1.738700 0.466600
-1.709900 0.478400
-1.681000 0.491000
-1.652100 0.501900
-1.623300 0.513400
-1.594400 0.525300
-1.565500 0.537200
-1.536600 0.551500
-1.507800 0.565300
-1.478900 0.579500
-1.450000 0.594500
-1.421200 0.610100
-1.392300 0.625400
-1.363400 0.639400
-1.334600 0.652900
-1.305700 0.667800
-1.276800 0.682200
-1.248000 0.697300
-1.219100 0.713100
-1.190200 0.730200
-1.161400 0.749000
-1.132500 0.768700
-1.103600 0.789000
-1.074800 0.812200
-1.045900 0.837000
-1.017000 0.862800
-0.988200 0.890000
-0.959300 0.928900
-0.930400 0.961000
-0.901600 0.987500
-0.872700 1.009500
-0.843800 1.042900
-0.815000 1.076600
-0.786100 1.111300
-0.757200 1.146700
-0.728400 1.184100
-0.699500 1.286800
-0.670600 1.334000
-0.641800 1.372500
-0.612900 1.396800
-0.584000 1.374000
-0.555200 1.350800
-0.526300 1.319700
-0.497400 1.291700
-0.468600 1.305700
-0.439700 1.296900
-0.410800 1.291200
-0.382000 1.253400
-0.353100 1.207400
-0.324200 1.132700
-0.295400 1.033600
-0.266500 0.957000
-0.237600 0.899600
-0.208800 0.860900
-0.179900 0.828800
-0.151000 0.798800
-0.122100 0.767200
-0.093300 0.735100
-0.064400 0.707100
-0.035500 0.685900
-0.006700 0.669700
0.022200 0.661200
0.051100 0.652600
0.079900 0.644800
0.108800 0.635100
0.137700 0.622800
0.166500 0.610300
0.195400 0.597900
0.224300 0.620500
0.253100 0.680000
0.282000 0.825500
0.310900 0.668800
0.339700 0.484100
0.368600 0.331500
0.397500 0.207000
0.426300 0.136900
0.455200 0.094900
0.484100 0.060900
0.512900 0.000000
0.541800 0.000000
0.570700 0.000000
0.599500 0.024500
0.628400 0.237800
0.657300 0.614900
0.686100 0.682700
0.715000 1.109600
0.743900 1.570100
0.772700 2.625100
0.801600 4.787200
0.830500 5.687700
0.859300 5.568000
0.888200 5.981800
0.917100 7.154000
0.945900 8.003300
0.974800 8.715800
1.003700 10.370700
1.032500 11.277200
1.061400 12.169800
1.090300 11.401600
1.119100 11.616200
1.148000 11.162200
1.176900 8.627800
1.205700 4.933400
1.234600 3.130600
1.263500 2.867500
1.292400 3.679500
1.321200 6.298500
1.350100 9.628100
1.379000 10.607000
1.407800 17.619600
1.436700 15.704000
1.465600 16.738300
1.494400 20.698800
1.523300 20.771100
1.552200 18.034900
1.581000 14.501900
1.609900 12.655200
1.638800 6.822300
1.667600 3.901800
1.696500 3.474700
1.725400 3.301100
1.754200 3.111800
1.783100 3.093600
1.812000 3.561600
1.840800 3.107200
1.869700 4.098700
1.898600 2.800900
1.927400 1.729300
1.956300 0.268600
1.985200 1.113900
2.014000 1.065200
2.042900 1.078000
2.071800 1.155200
2.100600 1.163800
2.129500 1.268500
2.158400 1.429000
2.187200 1.603200
2.216100 1.758000
2.245000 1.770800
2.273800 1.780100
2.302700 1.706000
2.331600 1.613000
2.360400 1.554700
2.389300 1.523000
2.418200 1.499400
2.447000 1.543800
2.475900 1.575600
2.504800 1.607900
2.533600 1.615900
2.562500 1.634800
2.591400 1.640900
2.620200 1.735500
2.649100 1.775500
2.678000 1.770000
2.706900 1.778100
2.735700 1.547500
2.764600 1.419800
2.793500 1.330600
2.822300 1.253600
2.851200 1.194100
2.880100 1.132300
2.908900 1.068700
2.937800 1.001500
2.966700 0.922100
2.995500 0.848100
3.024400 0.821400
3.053300 0.825800
3.082100 0.866900
3.111000 0.884100
3.139900 0.891200
3.168700 0.925200
3.197600 0.967500
3.226500 1.007000
3.255300 1.041400
3.284200 1.071100
3.313100 1.096100
3.341900 1.115800
3.370800 1.150400
3.399700 1.190000
3.428500 1.224000
3.457400 1.252300
3.486300 1.303600
3.515100 1.331400
3.544000 1.320700
3.572900 1.333000
3.601700 1.337400
3.630600 1.334500
3.659500 1.322100
3.688300 1.299400
3.717200 1.275100
3.746100 1.257700
3.774900 1.649000
3.803800 1.492000
3.832700 1.488200
3.861500 1.528900
3.890400 1.569800
3.919300 1.606600
3.948100 1.704100
3.977000 1.741400
4.005900 1.645300
4.034700 1.642400
4.063600 1.646300
4.092500 1.663800
4.121300 1.678700
4.150200 1.674900
4.179100 1.672000
4.208000 1.663100
4.236800 1.663000
4.265700 1.675300
4.294600 1.696700
4.323400 1.715800
4.352300 1.733800
4.381200 1.752300
4.410000 1.793000
4.438900 1.823100
4.467800 1.814100
4.496600 1.765900
4.525500 1.669400
4.554400 1.601400
4.583200 1.541100
4.612100 1.484100
4.641000 1.443000
4.669800 1.399800
4.698700 1.365900
4.727600 1.333300
4.756400 1.296700
4.785300 1.261600
4.814200 1.278200
4.843000 1.239300
4.871900 1.208800
4.900800 1.231600
4.929600 1.184800
4.958500 1.163800
4.987400 1.140300
5.016200 1.117500
5.045100 1.095700
5.074000 1.082000
5.102800 1.090300
5.131700 1.100300
5.160600 1.109600
5.189400 1.102100
5.218300 1.093800
5.247200 1.083500
5.276000 1.082200
5.304900 1.083500
5.333800 1.087900
5.362600 1.094100
5.391500 1.106100
5.420400 1.110900
5.449200 1.095200
5.478100 1.077900
5.507000 1.074900
5.535800 1.052800
5.564700 1.035800
5.593600 1.017600
5.622500 0.995800
5.651300 0.970300
5.680200 0.955500
5.709100 0.941700
5.737900 0.928600
5.766800 0.963200
5.795700 0.945400
5.824500 0.935600
5.853400 0.948900
5.882300 0.978800
5.911100 0.982200
5.940000 0.992100
5.968900 1.003000
5.997700 1.014000
6.026600 1.025200
6.055500 1.039200
6.084300 1.062900
6.113200 1.102300
6.142100 1.135900
6.170900 1.171400
6.199800 1.222300
6.228700 1.365000
6.257500 1.553400
6.286400 1.979100
6.315300 2.576600
6.344100 2.886400
6.373000 2.168000
6.401900 2.125700
6.430700 2.041100
6.459600 1.910900
6.488500 1.887900
6.517300 1.867000
6.546200 1.841000
6.575100 1.919900
6.603900 1.878100
6.632800 1.845700
6.661700 1.800800
6.690500 1.732000
6.719400 1.696700
6.748300 1.633600
6.777100 1.629900
6.806000 1.647300
6.834900 1.670000
6.863700 1.620000
6.892600 1.645800
6.921500 1.631500
6.950300 1.534200
6.979200 1.460100
7.008100 1.360700
7.037000 1.270200
7.065800 1.200300
7.094700 1.137600
7.123600 1.087000
7.152400 1.040100
7.181300 0.997800
7.210200 0.962500
7.239000 1.047500
7.267900 1.251600
7.296800 1.285900
7.325600 1.370400
7.354500 1.421700
7.383400 1.516300
7.412200 1.581200
7.441100 1.664400
7.470000 1.745400
7.498800 1.826300
7.527700 1.950800
7.556600 2.058700
7.585400 1.962300
7.614300 1.887400
7.643200 1.783100
7.672000 1.647700
7.700900 1.560400
7.729800 1.531800
7.758600 1.513800
7.787500 1.527100
7.816400 1.563400
7.845200 1.571400
7.874100 1.583500
7.903000 1.617400
7.931800 1.668400
7.960700 1.720500
7.989600 1.769500
8.018400 1.876600
8.047300 2.123300
8.076200 1.976100
8.105000 1.940300
8.133900 1.848600
8.162800 1.828300
8.191600 1.816300
8.220500 1.808900
8.249400 1.807100
8.278200 1.805000
8.307100 1.801800
8.336000 1.803700
8.364800 1.802800
8.393700 1.804800
8.422600 1.815500
8.451500 1.824800
8.480300 1.826200
8.509200 1.891700
8.538100 1.909700
8.566900 1.927700
8.595800 1.950500
8.624700 1.940900
8.653500 1.922200
8.682400 1.889800
8.711300 1.843100
8.740100 1.830400
8.769000 1.616500
8.797900 1.530500
8.826700 1.492900
8.855600 1.466400
8.884500 1.447400
8.913300 1.387000
8.942200 1.344400
8.971100 1.312000
8.999900 1.289000
9.028800 1.275200
9.057700 1.277300
9.086500 1.279800
9.115400 1.235000
9.144300 1.236300
9.173100 1.219200
9.202000 1.214700
9.230900 1.211300
9.259700 1.204600
9.288600 1.201100
9.317500 1.203200
9.346300 1.213900
9.375200 1.232300
9.404100 1.262300
9.432900 1.295000
9.461800 1.415900
9.490700 1.625400
9.519500 1.626900
9.548400 1.700400
9.577300 1.774100
9.606100 1.837800
9.635000 1.888800
9.663900 1.933700
9.692700 2.016500
9.721600 2.093200
9.750500 2.150300
9.779300 2.230800
9.808200 2.328100
9.837100 2.368100
9.866000 2.396800
9.894800 2.425000
9.923700 2.542100
9.952600 2.625400
9.981400 2.522300
10.010300 2.413200
10.039200 2.331300
10.068000 2.305500
10.096900 2.305100
10.125800 2.324700
10.154600 2.366900
10.183500 2.372300
10.212400 2.453300
10.241200 2.646500
10.270100 2.989900
10.299000 3.379600
10.327800 3.575400
10.356700 3.527300
10.385600 3.411000
10.414400 3.397500
10.443300 3.386600
10.472200 3.352400
10.501000 3.252700
10.529900 3.128700
10.558800 3.008700
10.587600 2.802400
10.616500 2.549400
10.645400 2.291800
10.674200 2.223200
10.703100 1.920900
10.732000 1.753000
10.760800 1.596800
10.789700 1.494500
10.818600 1.470200
10.847400 1.475100
10.876300 1.508400
10.905200 1.557200
10.934000 1.621400
10.962900 1.724400
10.991800 2.035300
11.020600 2.139600
11.049500 2.254200
11.078400 2.424000
11.107200 2.560800
11.136100 2.666900
11.165000 2.737500
11.193800 2.775600
11.222700 2.720900
11.251600 2.546000
11.280400 2.291900
11.309300 2.046100
11.338200 1.934100
11.367100 2.158500
11.395900 1.882100
11.424800 1.853300
11.453700 1.831400
11.482500 1.822900
11.511400 1.834900
11.540300 1.845100
11.569100 1.865400
11.598000 1.910300
11.626900 1.990000
11.655700 2.096200
11.684600 2.273300
11.713500 2.326200
11.742300 2.444200
11.771200 2.536600
11.800100 2.696200
11.828900 2.857000
11.857800 2.941000
11.886700 3.045800
11.915500 3.260500
11.944400 3.188600
11.973300 3.064400
12.002100 2.917500
12.031000 2.789400
12.059900 2.668700
12.088700 2.578600
12.117600 2.431100
12.146500 2.329600
12.175300 2.253200
12.204200 2.180300
12.233100 2.091600
12.261900 2.020000
12.290800 1.952300
12.319700 1.836700
12.348500 1.768700
12.377400 1.734600
12.406300 1.713000
12.435100 1.699700
12.464000 1.972100
12.492900 1.753900
12.521700 1.766300
12.550600 1.785700
12.579500 1.816700
12.608300 1.855200
12.637200 1.891900
12.666100 1.947500
12.694900 2.016600
12.723800 2.073600
12.752700 2.149200
12.781600 2.243900
12.810400 2.300600
12.839300 2.359800
12.868200 2.383200
12.897000 2.407100
12.925900 2.409200
12.954800 2.387600
12.983600 2.351000
13.012500 2.298400
13.041400 2.297400
13.070200 2.242900
13.099100 2.217800
13.128000 2.229200
13.156800 2.255600
13.185700 2.221400
13.214600 2.097100
13.243400 1.976300
13.272300 1.924100
13.301200 1.908800
13.330000 1.919400
13.358900 1.943400
13.387800 1.974600
13.416600 2.020600
13.445500 2.065800
13.474400 2.106000
13.503200 2.133100
13.532100 2.158000
13.561000 2.159600
13.589800 2.145100
13.618700 2.078500
13.647600 2.061900
13.676400 2.136300
13.705300 2.260500
13.734200 2.577100
13.763000 2.706100
13.791900 2.730600
13.820800 3.068900
13.849600 2.853200
13.878500 2.774900
13.907400 2.814400
13.936200 2.900500
13.965100 2.994700
13.994000 3.064600
14.022800 3.152300
14.051700 3.128500
14.080600 3.496200
14.109400 3.590300
14.138300 3.752000
14.167200 3.879900
14.196100 3.836500
14.224900 3.751300
14.253800 3.638000
14.282700 3.493900
14.311500 3.331800
14.340400 3.226400
14.369300 2.928200
14.398100 2.857800
14.427000 2.801900
14.455900 2.734500
14.484700 2.681200
14.513600 2.670700
14.542500 2.612800
14.571300 2.556300
14.600200 2.564200
14.629100 2.599000
14.657900 2.654900
14.686800 2.743600
14.715700 2.782300
14.744500 2.797500
14.773400 2.828700
14.802300 2.853600
14.831100 2.870700
14.860000 2.901400
14.888900 3.078200
14.917700 2.996100
14.946600 2.863900
14.975500 2.819800
15.004300 2.783900
15.033200 2.766500
15.062100 2.804100
15.090900 2.717300
15.119800 2.572200
15.148700 2.536900
15.177500 2.496300
15.206400 2.517300
15.235300 2.536600
15.264100 2.528600
15.293000 2.442900
15.321900 2.394600
15.350700 2.354400
15.379600 2.287300
15.408500 2.250400
15.437300 2.239300
15.466200 2.229200
15.495100 2.210200
15.523900 2.162200
15.552800 2.126200
15.581700 2.097400
15.610600 2.072300
15.639400 2.050500
15.668300 2.031700
15.697200 2.042900
15.726000 2.057900
15.754900 2.093400
15.783800 2.083000
15.812600 2.078300
15.841500 2.179200
15.870400 2.188800
15.899200 2.153800
15.928100 2.157500
15.957000 2.163800
15.985800 2.182700
16.014700 2.124100
16.043600 2.064200
16.072400 2.065600
16.101300 2.080100
16.130200 2.093500
16.159000 2.099200
16.187900 2.106300
16.216800 2.121400
16.245600 2.184400
16.274500 2.240600
16.303400 2.236500
16.332200 2.239600
16.361100 2.319600
16.390000 2.416300
16.418800 2.427300
16.447700 2.461600
16.476600 2.475200
16.505400 2.441700
16.534300 2.348000
16.563200 2.254700
16.592000 2.190600
16.620900 2.138700
16.649800 2.098000
16.678600 2.078900
16.707500 2.079400
16.736400 2.080700
16.765200 2.036200
16.794100 1.940900
16.823000 1.878100
16.851800 1.891900
16.880700 1.967600
16.909600 2.042200
16.938400 2.088100
16.967300 2.204600
16.996200 2.535100
17.025000 2.484000
17.053900 2.589600
17.082800 2.677900
17.111700 2.765800
17.140500 3.013500
17.169400 2.917400
17.198300 2.810400
17.227100 2.781700
17.256000 2.688700
17.284900 2.602300
17.313700 2.590100
17.342600 2.580000
17.371500 2.551000
17.400300 2.619600
17.429200 2.342300
17.458100 2.307200
17.486900 2.303000
17.515800 2.298800
17.544700 2.345400
17.573500 2.340100
17.602400 2.367100
17.631300 2.417100
17.660100 2.481900
17.689000 2.565200
17.717900 2.659100
17.746700 2.793900
17.775600 2.889000
17.804500 3.204100
17.833300 3.600100
17.862200 3.434000
17.891100 3.233600
17.919900 2.889300
17.948800 2.867000
17.977700 2.968800
18.006500 2.784200
18.035400 2.732200
18.064300 2.703600
18.093100 2.741500
18.122000 2.793900
18.150900 2.894400
18.179700 3.017800
18.208600 3.153900
18.237500 3.412400
18.266300 3.895600
18.295200 3.822900
18.324100 3.645900
18.352900 3.500300
18.381800 3.409500
18.410700 3.260400
18.439500 3.089600
18.468400 2.956700
18.497300 2.974600
18.526200 3.034400
18.555000 2.978600
18.583900 3.136500
18.612800 3.750600
18.641600 3.071400
18.670500 2.932000
18.699400 2.907700
18.728200 2.921300
18.757100 2.911300
18.786000 3.017300
18.814800 3.129300
18.843700 3.322800
18.872600 3.505400
18.901400 3.656200
18.930300 3.779300
18.959200 3.915500
18.988000 3.757500
19.016900 3.557000
19.045800 3.353900
19.074600 3.317000
19.103500 3.242100
19.132400 3.158000
19.161200 3.056100
19.190100 2.987700
19.219000 2.937800
19.247800 2.908800
19.276700 2.904000
19.305600 2.909400
19.334400 2.920400
19.363300 2.951900
19.392200 2.897100
19.421000 2.801100
19.449900 2.678800
19.478800 2.584200
19.507600 2.528000
19.536500 2.454700
19.565400 2.401000
19.594200 2.360400
19.623100 2.416200
19.652000 2.405000
19.680800 2.438700
19.709700 2.512400
19.738600 2.655800
19.767400 2.777500
19.796300 2.850600
19.825200 2.860000
19.854000 2.892800
19.882900 2.977500
19.911800 3.273500
19.940700 3.278300
19.969500 3.187000
19.998400 3.110100
20.027300 3.056400
20.056100 2.982900
20.085000 2.966800
20.113900 2.902200
20.142700 2.634800
20.171600 2.508700
20.200500 2.534100
20.229300 2.567100
20.258200 2.700800
20.287100 2.861600
20.315900 2.958400
20.344800 2.970700
20.373700 2.921000
20.402500 2.866400
20.431400 2.857800
20.460300 2.885400
20.489100 2.888800
20.518000 2.911600
20.546900 3.119800
20.575700 3.252200
20.604600 3.266400
20.633500 3.258800
20.662300 3.231900
20.691200 3.201100
20.720100 3.206500
20.748900 3.590500
20.777800 3.018800
20.806700 2.994300
20.835500 3.007000
20.864400 3.073300
20.893300 3.012300
20.922100 3.010100
20.951000 2.996200
20.979900 2.936100
21.008700 2.877400
21.037600 2.842000
21.066500 2.817700
21.095300 2.791700
21.124200 2.756600
21.153100 2.711500
21.181900 2.641800
21.210800 2.621800
21.239700 2.608500
21.268500 2.597100
21.297400 2.623400
21.326300 2.671500
21.355200 2.743700
21.384000 2.921100
21.412900 2.956400
21.441800 3.089500
21.470600 3.253400
21.499500 3.439600
21.528400 3.550100
21.557200 3.702500
21.586100 3.808000
21.615000 3.904600
21.643800 3.868000
21.672700 3.770900
21.701600 3.680200
21.730400 3.573800
21.759300 3.421500
21.788200 3.323300
21.817000 3.240100
21.845900 3.177600
21.874800 3.177900
21.903600 3.145700
21.932500 3.098400
21.961400 3.043000
21.990200 3.030800
22.019100 3.020300
22.048000 3.043800
22.076800 3.120900
22.105700 3.017100
22.134600 3.101700
22.163400 3.147900
22.192300 3.002300
22.221200 3.019400
22.250000 3.093200
22.278900 3.293100
22.307800 3.454200
22.336600 3.470000
22.365500 3.501100
22.394400 3.533500
22.423200 3.561900
22.452100 3.941100
22.481000 3.453400
22.509800 3.369000
22.538700 3.347000
22.567600 3.294500
22.596400 3.237600
22.625300 3.300700
22.654200 3.228600
22.683000 3.226300
22.711900 3.116000
22.740800 3.015800
22.769700 2.924000
22.798500 2.798900
22.827400 2.813800
22.856300 2.893300
22.885100 3.066200
22.914000 3.334700
22.942900 3.474700
22.971700 3.536500
23.000600 3.178800
23.029500 3.128400
23.058300 3.099500
23.087200 3.130800
23.116100 3.038500
23.144900 3.059100
23.173800 3.067500
23.202700 3.045300
23.231500 3.014000
23.260400 2.964500
23.289300 2.958600
23.318100 2.920900
23.347000 2.916100
23.375900 2.927600
23.404700 2.921700
23.433600 2.933400
23.462500 3.003800
23.491300 3.055800
23.520200 3.076000
23.549100 3.050500
23.577900 3.097000
23.606800 3.298000
23.635700 3.450600
23.664500 3.687200
23.693400 3.755000
23.722300 3.623700
23.751100 3.662200
23.780000 3.524500
23.808900 3.397300
23.837700 3.339800
23.866600 3.314000
23.895500 3.460900
23.924300 3.422100
23.953200 3.406700
23.982100 3.430300
24.010900 3.507900
24.039800 3.467300
24.068700 3.304900
24.097500 3.200700
24.126400 3.395600
24.155300 3.395700
24.184100 3.402100
24.213000 3.334500
24.241900 3.249800
24.270800 3.183600
24.299600 3.151900
24.328500 3.118500
24.357400 3.095000
24.386200 3.083600
24.415100 3.096500
24.444000 3.026300
24.472800 3.063200
24.501700 3.052100
24.530600 3.012600
24.559400 3.087100
24.588300 3.069300
24.617200 3.015000
24.646000 3.036200
24.674900 3.089100
24.703800 3.123800
24.732600 3.234300
24.761500 3.336800
24.790400 3.444400
24.819200 3.480700
24.848100 3.490800
24.877000 3.442000
24.905800 3.412900
24.934700 3.494800
24.963600 3.328200
24.992400 3.227600
25.021300 3.255900
25.050200 3.380800
25.079000 3.615300
25.107900 3.825000
25.136800 3.825000
25.165600 3.834400
25.194500 3.921400
25.223400 4.012400
25.252200 3.976900
25.281100 3.723200
25.310000 3.740600
25.338800 3.560100
25.367700 3.481200
25.396600 3.345300
25.425400 3.400800
25.454300 3.461100
25.483200 3.434600
25.512000 3.534900
25.540900 3.441000
25.569800 3.312900
25.598600 3.128300
25.627500 2.925400
25.656400 2.831400
25.685300 2.799200
25.714100 2.825000
25.743000 2.817300
25.771900 2.764800
25.800700 2.732600
25.829600 2.666900
25.858500 2.490600
25.887300 2.422900
25.916200 2.419300
25.945100 2.536600
25.973900 2.793800
26.002800 2.918500
26.031700 3.039200
26.060500 3.152900
26.089400 3.355300
26.118300 3.538700
26.147100 3.755100
26.176000 4.020700
26.204900 4.074900
26.233700 3.954100
26.262600 3.711700
26.291500 3.645800
26.320300 3.395000
26.349200 3.227800
26.378100 3.162200
26.406900 3.175700
26.435800 3.327500
26.464700 3.594500
26.493500 3.663900
26.522400 3.795900
26.551300 4.055900
26.580100 4.076900
26.609000 4.038000
26.637900 3.996700
26.666700 4.060300
26.695600 4.153400
26.724500 4.222000
26.753300 4.290600
26.782200 4.390800
26.811100 4.475900
26.839900 4.321900
26.868800 4.251300
26.897700 4.110100
26.926500 3.844900
26.955400 3.715900
26.984300 3.591600
27.013100 3.494600
27.042000 3.517200
27.070900 3.729800
27.099800 3.842600
27.128600 3.913900
27.157500 3.874000
27.186400 3.650900
27.215200 3.527400
27.244100 3.501700
27.273000 3.528900
27.301800 3.520800
27.330700 3.504900
27.359600 3.376800
27.388400 3.394900
27.417300 3.428900
27.446200 3.463300
27.475000 3.566200
27.503900 3.960900
27.532800 3.690100
27.561600 3.777800
27.590500 3.881700
27.619400 3.666100
27.648200 3.569200
27.677100 3.450900
27.706000 3.342500
27.734800 3.259200
27.763700 3.144700
27.792600 3.062800
27.821400 2.960800
27.850300 2.876900
27.879200 2.824900
27.908000 2.762900
27.936900 2.573300
27.965800 2.528900
27.994600 2.439700
28.023500 2.349000
28.052400 2.273000
28.081200 2.209700
28.110100 2.150400
28.139000 2.101800
28.167800 2.056400
28.196700 2.009300
28.225600 1.958500
28.254400 1.913300
28.283300 1.849000
28.312200 1.770100
28.341000 1.691700
28.369900 1.613000
28.398800 1.541000
28.427600 1.489300
28.456500 1.483400
28.485400 1.516100
28.514300 1.487800
28.543100 1.499800
28.572000 1.510900
28.600900 1.521800
28.629700 1.524800
28.658600 1.519300
28.687500 1.497100
28.716300 1.437500
28.745200 1.319000
28.774100 1.176600
28.802900 1.147500
28.831800 1.125100
28.860700 1.122000
28.889500 1.183700
28.918400 1.207200
28.947300 1.226900
28.976100 1.215300
29.005000 1.175200
29.033900 1.179300
29.062700 1.137800
29.091600 1.093500
29.120500 1.051200
29.149300 0.993000
29.178200 0.898300
29.207100 0.836900
29.235900 0.771700
29.264800 0.756500
29.293700 0.742500
29.322500 0.725400
29.351400 0.680400
29.380300 0.628600
29.409100 0.577900
29.438000 0.545200
29.466900 0.525500
29.495700 0.534800
29.524600 0.464200
29.553500 0.434100
29.582300 0.426000
29.611200 0.406500
29.640100 0.384900
29.668900 0.407200
29.697800 0.334400
29.726700 0.299100
29.755500 0.279400
29.784400 0.264000
29.813300 0.252900
29.842100 0.246200
29.871000 0.243000
29.899900 0.233600
29.928800 0.221800
29.957600 0.211700
29.986500 0.206200
30.015400 0.201600
30.044200 0.197800
30.073100 0.194900
30.102000 0.192900
30.130800 0.196700
30.159700 0.208400
30.188600 0.223400
30.217400 0.230300
30.246300 0.227500
30.275200 0.208300
30.304000 0.172700
30.332900 0.128600
30.361800 0.060900
30.390600 0.046000
30.419500 0.033100
30.448400 0.022100
30.477200 0.012900
30.506100 0.005700
30.535000 0.000400
30.563800 0.000000
30.592700 0.000000
30.621600 0.000000
30.650400 0.000000
30.679300 0.000000
30.708200 0.000000
30.737000 0.000000
30.765900 0.000000
30.794800 0.000000
30.823600 0.000000
30.852500 0.000000
30.881400 0.000000
30.910200 0.000000
30.939100 0.000000
30.968000 0.000000
30.996800 0.000000
31.025700 0.000000
31.054600 0.000000
31.083400 0.000000
31.112300 0.000000
31.141200 0.000000
31.170000 0.000000
31.198900 0.000000
31.227800 0.000000
31.256600 0.000000
31.285500 0.000000
31.314400 0.000000
31.343200 0.000000
31.372100 0.000000
31.401000 0.000000
31.429900 0.000000
31.458700 0.000000
31.487600 0.000000
31.516500 0.000000
31.545300 0.000000
31.574200 0.000000
31.603100 0.000000
31.631900 0.000000
31.660800 0.000000
31.689700 0.000000
31.718500 0.000000
31.747400 0.000000
31.776300 0.000000
31.805100 0.000000
31.834000 0.000000
31.862900 0.000000
31.891700 0.000000
31.920600 0.000000
31.949500 0.000000
31.978300 0.000000
32.007200 0.000000
32.036100 0.000000
32.064900 0.000000
32.093800 0.000000
32.122700 0.000000
32.151500 0.000000
32.180400 0.000000
32.209300 0.000000
32.238100 0.000000
32.267000 0.000000
32.295900 0.000000
32.324700 0.000000
32.353600 0.000000
32.382500 0.000000
32.411300 0.000000
32.440200 0.000000
32.469100 0.000000
32.497900 0.000000
32.526800 0.000000
32.555700 0.000000
32.584500 0.000000
32.613400 0.000000
32.642300 0.000000
32.671100 0.000000
32.700000 0.000000
32.728900 0.000000
32.757700 0.000000
32.786600 0.000000
32.815500 0.000000
32.844400 0.000000
32.873200 0.000000
32.902100 0.000000
32.931000 0.000000
32.959800 0.000000
32.988700 0.000000
33.017600 0.000000
33.046400 0.000000
33.075300 0.000000
33.104200 0.000000
33.133000 0.000000
33.161900 0.000000
e
