set title 'mp-1184749 - Density of States'
set xlabel 'Energy (eV)'
set ylabel 'DOS (states/eV)'
set grid
set xrange [-10:10]
set yrange [0:15.915]
set xzeroaxis lt -1
set terminal png size 800,600
set output 'mp-1184749_dos_gnuplot.png'
plot '-' using 1:2 with lines title 'DOS'
-12.209400 0.000000
-12.185900 0.000000
-12.162500 0.000000
-12.139000 0.000000
-12.115500 0.000000
-12.092100 0.000000
-12.068600 0.000000
-12.045200 0.000000
-12.021700 0.000000
-11.998200 0.000000
-11.974800 0.000000
-11.951300 0.000000
-11.927900 0.000000
-11.904400 0.000000
-11.880900 0.000000
-11.857500 0.000000
-11.834000 0.000000
-11.810500 0.000000
-11.787100 0.000000
-11.763600 0.000000
-11.740200 0.000000
-11.716700 0.000000
-11.693200 0.000000
-11.669800 0.000000
-11.646300 0.000000
-11.622900 0.000000
-11.599400 0.000000
-11.575900 0.000000
-11.552500 0.000000
-11.529000 0.000000
-11.505600 0.000000
-11.482100 0.000000
-11.458600 0.000000
-11.435200 0.000000
-11.411700 0.000000
-11.388200 0.000000
-11.364800 0.000000
-11.341300 0.000000
-11.317900 0.000000
-11.294400 0.000000
-11.270900 0.000000
-11.247500 0.000000
-11.224000 0.000000
-11.200600 0.000000
-11.177100 0.000000
-11.153600 0.000000
-11.130200 0.000000
-11.106700 0.000000
-11.083200 0.000000
-11.059800 0.000000
-11.036300 0.000000
-11.012900 0.000000
-10.989400 0.000000
-10.965900 0.000000
-10.942500 0.000000
-10.919000 0.000000
-10.895600 0.000000
-10.872100 0.000000
-10.848600 0.000000
-10.825200 0.000000
-10.801700 0.000000
-10.778300 0.000000
-10.754800 0.000000
-10.731300 0.000000
-10.707900 0.000000
-10.684400 0.000000
-10.660900 0.000000
-10.637500 0.000000
-10.614000 0.000000
-10.590600 0.000000
-10.567100 0.000000
-10.543600 0.000000
-10.520200 0.000000
-10.496700 0.000000
-10.473300 0.000000
-10.449800 0.000000
-10.426300 0.000000
-10.402900 0.000000
-10.379400 0.000000
-10.356000 0.000000
-10.332500 0.000000
-10.309000 0.000000
-10.285600 0.000000
-10.262100 0.000000
-10.238600 0.000000
-10.215200 0.000000
-10.191700 0.000000
-10.168300 0.000000
-10.144800 0.000000
-10.121300 0.000000
-10.097900 0.000000
-10.074400 0.000900
-10.051000 0.127400
-10.027500 0.356100
-10.004000 0.395400
-9.980600 0.497800
-9.957100 0.608100
-9.933600 0.695600
-9.910200 0.743500
-9.886700 0.814200
-9.863300 0.891300
-9.839800 0.969400
-9.816300 1.064900
-9.792900 1.300400
-9.769400 1.275400
-9.746000 1.319300
-9.722500 1.359100
-9.699000 1.384100
-9.675600 1.411100
-9.652100 1.545400
-9.628700 1.736100
-9.605200 1.864100
-9.581700 1.996000
-9.558300 2.131500
-9.534800 2.252800
-9.511300 2.400500
-9.487900 2.576200
-9.464400 2.771200
-9.441000 3.002200
-9.417500 3.256600
-9.394000 3.575700
-9.370600 4.066000
-9.347100 4.347400
-9.323700 4.636100
-9.300200 4.953800
-9.276700 5.412800
-9.253300 6.124700
-9.229800 7.193800
-9.206400 7.271300
-9.182900 7.593100
-9.159400 7.961200
-9.136000 8.156900
-9.112500 7.768700
-9.089000 8.627000
-9.065600 8.821800
-9.042100 9.642000
-9.018700 10.094300
-8.995200 14.314000
-8.971700 0.000000
-8.948300 0.000000
-8.924800 0.000000
-8.901400 0.000000
-8.877900 0.000000
-8.854400 0.000000
-8.831000 0.000000
-8.807500 0.000000
-8.784000 0.000000
-8.760600 0.000000
-8.737100 0.000000
-8.713700 0.000000
-8.690200 0.000000
-8.666700 0.000000
-8.643300 0.000000
-8.619800 0.000000
-8.596400 0.000000
-8.572900 0.000000
-8.549400 0.000000
-8.526000 0.000000
-8.502500 0.000000
-8.479100 0.000000
-8.455600 0.000000
-8.432100 0.000000
-8.408700 0.000000
-8.385200 0.000000
-8.361700 0.000000
-8.338300 0.000000
-8.314800 0.000000
-8.291400 0.000000
-8.267900 0.000000
-8.244400 0.000000
-8.221000 0.000000
-8.197500 0.000000
-8.174100 0.000000
-8.150600 0.000000
-8.127100 0.000000
-8.103700 0.000000
-8.080200 0.000000
-8.056800 0.000000
-8.033300 0.000000
-8.009800 0.000000
-7.986400 0.000000
-7.962900 0.000000
-7.939400 0.000000
-7.916000 0.000000
-7.892500 0.000000
-7.869100 0.000000
-7.845600 0.000000
-7.822100 0.000000
-7.798700 0.000000
-7.775200 0.000000
-7.751800 0.000000
-7.728300 0.000000
-7.704800 0.000000
-7.681400 0.000000
-7.657900 0.000000
-7.634400 0.000000
-7.611000 0.000000
-7.587500 0.000000
-7.564100 0.000000
-7.540600 0.000000
-7.517100 0.000000
-7.493700 0.000000
-7.470200 0.000000
-7.446800 0.000000
-7.423300 0.000000
-7.399800 0.000000
-7.376400 0.000000
-7.352900 0.000000
-7.329500 0.000000
-7.306000 0.000000
-7.282500 0.000000
-7.259100 0.000000
-7.235600 0.000000
-7.212100 0.000000
-7.188700 0.000000
-7.165200 0.000000
-7.141800 0.000000
-7.118300 0.000000
-7.094800 0.000000
-7.071400 0.000000
-7.047900 0.000000
-7.024500 0.000000
-7.001000 0.000000
-6.977500 0.000000
-6.954100 0.000000
-6.930600 0.000000
-6.907200 0.000000
-6.883700 0.000000
-6.860200 0.000000
-6.836800 0.000000
-6.813300 0.000000
-6.789800 0.000000
-6.766400 0.000000
-6.742900 0.000000
-6.719500 0.000000
-6.696000 0.000000
-6.672500 0.000000
-6.649100 0.000000
-6.625600 0.000000
-6.602200 0.000000
-6.578700 0.000000
-6.555200 0.000000
-6.531800 0.000000
-6.508300 0.000000
-6.484800 0.000000
-6.461400 0.000000
-6.437900 0.000000
-6.414500 0.000000
-6.391000 0.000000
-6.367500 0.000000
-6.344100 0.000000
-6.320600 0.000000
-6.297200 0.000000
-6.273700 0.000000
-6.250200 0.000000
-6.226800 0.000000
-6.203300 0.000000
-6.179900 0.000000
-6.156400 0.000000
-6.132900 0.000000
-6.109500 0.000000
-6.086000 0.000000
-6.062500 0.000000
-6.039100 0.000000
-6.015600 0.000000
-5.992200 0.000000
-5.968700 0.000000
-5.945200 0.000000
-5.921800 0.000000
-5.898300 0.000000
-5.874900 0.000000
-5.851400 0.000000
-5.827900 0.000000
-5.804500 0.000000
-5.781000 0.000000
-5.757600 0.000000
-5.734100 0.000000
-5.710600 0.000000
-5.687200 0.000000
-5.663700 0.000000
-5.640200 0.000000
-5.616800 0.000000
-5.593300 0.000000
-5.569900 0.000000
-5.546400 0.000000
-5.522900 0.000000
-5.499500 0.000000
-5.476000 0.000000
-5.452600 0.000000
-5.429100 0.000000
-5.405600 0.000000
-5.382200 0.000000
-5.358700 0.000000
-5.335200 0.000000
-5.311800 0.000000
-5.288300 0.000000
-5.264900 0.000000
-5.241400 0.000000
-5.217900 0.000000
-5.194500 0.000000
-5.171000 0.000000
-5.147600 0.000000
-5.124100 0.000000
-5.100600 0.000000
-5.077200 0.000000
-5.053700 0.000000
-5.030300 0.000000
-5.006800 0.000000
-4.983300 0.000000
-4.959900 0.000000
-4.936400 0.000000
-4.912900 0.000000
-4.889500 0.000000
-4.866000 0.000000
-4.842600 0.000000
-4.819100 0.000000
-4.795600 0.000000
-4.772200 0.000000
-4.748700 0.000000
-4.725300 0.000000
-4.701800 0.000000
-4.678300 0.000000
-4.654900 0.000000
-4.631400 0.000000
-4.608000 0.000000
-4.584500 0.000000
-4.561000 0.000000
-4.537600 0.000000
-4.514100 0.000000
-4.490600 0.000000
-4.467200 0.000000
-4.443700 0.000000
-4.420300 0.000000
-4.396800 0.000000
-4.373300 0.000000
-4.349900 0.000000
-4.326400 0.000000
-4.303000 0.000000
-4.279500 0.000000
-4.256000 0.000000
-4.232600 0.000000
-4.209100 0.000000
-4.185600 0.000000
-4.162200 0.000000
-4.138700 0.000000
-4.115300 0.000000
-4.091800 0.000000
-4.068300 0.000000
-4.044900 0.000000
-4.021400 0.000000
-3.998000 0.000000
-3.974500 0.000000
-3.951000 0.000000
-3.927600 0.000000
-3.904100 0.000000
-3.880700 0.000000
-3.857200 0.000000
-3.833700 0.000000
-3.810300 0.000000
-3.786800 0.000000
-3.763300 0.000000
-3.739900 0.000000
-3.716400 0.000000
-3.693000 0.000000
-3.669500 0.000000
-3.646000 0.000000
-3.622600 0.000000
-3.599100 0.000000
-3.575700 0.000000
-3.552200 0.000000
-3.528700 0.000000
-3.505300 0.000000
-3.481800 0.000000
-3.458400 0.000000
-3.434900 0.000000
-3.411400 0.000000
-3.388000 0.000000
-3.364500 0.000000
-3.341000 0.000000
-3.317600 0.000000
-3.294100 0.000000
-3.270700 0.000000
-3.247200 0.000000
-3.223700 0.000000
-3.200300 0.000000
-3.176800 0.000000
-3.153400 0.000000
-3.129900 0.000000
-3.106400 0.000000
-3.083000 0.000000
-3.059500 0.000000
-3.036000 0.000000
-3.012600 0.000000
-2.989100 0.000000
-2.965700 0.000000
-2.942200 0.000000
-2.918700 0.000000
-2.895300 0.000000
-2.871800 0.000000
-2.848400 0.000000
-2.824900 0.000000
-2.801400 0.000000
-2.778000 0.000000
-2.754500 0.000000
-2.731100 0.000000
-2.707600 0.000000
-2.684100 0.000000
-2.660700 0.000000
-2.637200 0.000000
-2.613700 0.000000
-2.590300 0.000000
-2.566800 0.000000
-2.543400 0.000000
-2.519900 0.000000
-2.496400 0.000000
-2.473000 0.000000
-2.449500 0.000000
-2.426100 0.000000
-2.402600 0.000000
-2.379100 0.000000
-2.355700 0.000000
-2.332200 0.000000
-2.308800 0.000000
-2.285300 0.000000
-2.261800 0.000000
-2.238400 0.000000
-2.214900 0.000000
-2.191400 0.000000
-2.168000 0.000000
-2.144500 0.000000
-2.121100 0.000000
-2.097600 0.000000
-2.074100 0.000000
-2.050700 0.000000
-2.027200 0.000000
-2.003800 0.000000
-1.980300 0.000000
-1.956800 0.000000
-1.933400 0.000000
-1.909900 0.000000
-1.886400 0.000000
-1.863000 0.000000
-1.839500 0.000000
-1.816100 0.000000
-1.792600 0.000000
-1.769100 0.000000
-1.745700 0.000000
-1.722200 0.000000
-1.698800 0.000000
-1.675300 0.000000
-1.651800 0.000000
-1.628400 0.000000
-1.604900 0.000000
-1.581500 0.000000
-1.558000 0.000000
-1.534500 0.000000
-1.511100 0.371100
-1.487600 1.042800
-1.464100 2.192500
-1.440700 2.791300
-1.417200 3.542900
-1.393800 4.647400
-1.370300 5.458300
-1.346800 5.911100
-1.323400 6.230800
-1.299900 7.067600
-1.276500 8.015200
-1.253000 9.902300
-1.229500 11.607300
-1.206100 13.499800
-1.182600 8.882600
-1.159200 8.200700
-1.135700 7.593300
-1.112200 6.632800
-1.088800 6.304200
-1.065300 6.084200
-1.041800 4.804900
-1.018400 4.383200
-0.994900 4.064700
-0.971500 3.806500
-0.948000 3.707300
-0.924500 3.554300
-0.901100 3.253100
-0.877600 2.940800
-0.854200 2.520200
-0.830700 1.928000
-0.807200 1.592700
-0.783800 1.214800
-0.760300 1.039200
-0.736800 0.849100
-0.713400 0.752000
-0.689900 0.824300
-0.666500 0.676000
-0.643000 0.896500
-0.619500 0.677000
-0.596100 0.571500
-0.572600 0.978600
-0.549200 1.480100
-0.525700 2.076400
-0.502200 2.370400
-0.478800 2.309100
-0.455300 3.147800
-0.431900 3.986000
-0.408400 4.287800
-0.384900 4.503800
-0.361500 4.349000
-0.338000 4.481400
-0.314500 4.624500
-0.291100 4.866500
-0.267600 5.835100
-0.244200 6.939000
-0.220700 8.795100
-0.197200 14.468600
-0.173800 11.279300
-0.150300 11.580300
-0.126900 11.468700
-0.103400 8.813300
-0.079900 9.671800
-0.056500 13.362700
-0.033000 12.837100
-0.009600 11.110900
0.013900 9.619400
0.037400 8.362500
0.060800 7.396700
0.084300 6.768500
0.107800 6.725700
0.131200 7.050900
0.154700 8.843700
0.178100 10.452800
0.201600 11.655500
0.225100 6.494500
0.248500 6.068000
0.272000 5.784600
0.295400 5.677500
0.318900 5.836300
0.342400 6.132800
0.365800 6.921400
0.389300 7.614000
0.412800 7.640800
0.436200 6.454700
0.459700 6.073600
0.483100 5.928400
0.506600 5.763400
0.530100 4.127800
0.553500 2.878500
0.577000 1.764500
0.600400 1.492000
0.623900 1.244200
0.647400 1.063200
0.670800 0.949400
0.694300 0.761300
0.717700 0.481700
0.741200 0.207000
0.764700 0.007800
0.788100 0.000000
0.811600 0.000000
0.835100 0.000000
0.858500 0.000000
0.882000 0.000000
0.905400 0.000000
0.928900 0.000000
0.952400 0.000000
0.975800 0.000000
0.999300 0.000000
1.022700 0.000000
1.046200 0.000000
1.069700 0.000000
1.093100 0.000000
1.116600 0.000000
1.140000 0.000000
1.163500 0.000000
1.187000 0.000000
1.210400 0.000000
1.233900 0.000000
1.257400 0.000000
1.280800 0.000000
1.304300 0.000000
1.327700 0.000000
1.351200 0.000000
1.374700 0.000000
1.398100 0.000000
1.421600 0.000000
1.445000 0.000000
1.468500 0.000000
1.492000 0.000000
1.515400 0.000000
1.538900 0.000000
1.562400 0.000000
1.585800 0.000000
1.609300 0.000000
1.632700 0.000000
1.656200 0.000000
1.679700 0.000000
1.703100 0.000000
1.726600 0.000000
1.750000 0.000000
1.773500 0.000000
1.797000 0.000000
1.820400 0.000000
1.843900 0.000000
1.867300 0.000000
1.890800 0.000000
1.914300 0.000000
1.937700 0.000000
1.961200 0.000000
1.984700 0.000000
2.008100 0.000000
2.031600 0.000000
2.055000 0.000000
2.078500 0.000000
2.102000 0.000000
2.125400 0.000000
2.148900 0.000000
2.172300 0.000000
2.195800 0.000000
2.219300 0.000000
2.242700 0.594100
2.266200 2.447700
2.289600 4.359700
2.313100 5.491200
2.336600 5.323000
2.360000 5.129500
2.383500 4.494000
2.407000 4.143100
2.430400 4.285200
2.453900 4.656000
2.477300 5.067800
2.500800 5.468500
2.524300 5.838800
2.547700 5.920400
2.571200 6.014100
2.594600 7.065700
2.618100 7.262300
2.641600 6.685000
2.665000 6.677700
2.688500 6.448400
2.712000 7.114400
2.735400 6.392300
2.758900 6.330700
2.782300 6.507800
2.805800 9.198600
2.829300 12.247400
2.852700 8.251000
2.876200 6.462300
2.899600 5.801800
2.923100 7.605300
2.946600 4.960300
2.970000 6.555200
2.993500 6.879500
3.016900 6.028500
3.040400 6.858600
3.063900 5.899700
3.087300 5.957000
3.110800 6.105100
3.134300 6.528800
3.157700 7.341400
3.181200 8.019000
3.204600 9.213300
3.228100 8.886500
3.251600 8.116000
3.275000 7.771400
3.298500 7.722300
3.321900 8.550600
3.345400 8.956800
3.368900 9.313700
3.392300 7.523100
3.415800 6.787700
3.439200 5.254900
3.462700 6.348800
3.486200 7.428000
3.509600 7.988600
3.533100 7.782900
3.556600 6.434500
3.580000 6.023500
3.603500 5.206000
3.626900 4.149400
3.650400 3.709800
3.673900 3.425500
3.697300 3.302500
3.720800 3.286300
3.744200 3.265800
3.767700 3.319300
3.791200 3.382300
3.814600 3.173000
3.838100 3.141500
3.861600 3.043200
3.885000 3.080800
3.908500 3.006300
3.931900 2.952000
3.955400 2.836900
3.978900 3.065100
4.002300 3.333300
4.025800 3.144100
4.049200 2.929100
4.072700 2.592900
4.096200 2.220300
4.119600 1.959200
4.143100 1.745200
4.166500 1.567800
4.190000 1.496700
4.213500 1.448000
4.236900 1.821600
4.260400 2.076900
4.283900 2.242300
4.307300 2.444100
4.330800 2.944100
4.354200 3.153400
4.377700 3.199900
4.401200 3.248500
4.424600 3.326600
4.448100 3.282000
4.471500 3.555200
4.495000 3.083700
4.518500 3.072300
4.541900 2.989200
4.565400 2.865900
4.588800 2.726600
4.612300 2.434100
4.635800 2.319900
4.659200 2.281100
4.682700 2.276700
4.706200 2.290100
4.729600 2.304400
4.753100 2.319100
4.776500 3.392800
4.800000 2.927300
4.823500 2.778300
4.846900 2.842700
4.870400 2.953000
4.893800 3.153500
4.917300 3.420500
4.940800 3.696700
4.964200 4.004900
4.987700 4.536200
5.011200 4.164300
5.034600 4.034000
5.058100 3.961200
5.081500 3.823000
5.105000 3.873600
5.128500 3.755300
5.151900 3.495200
5.175400 3.090600
5.198800 2.846400
5.222300 3.182200
5.245800 2.368100
5.269200 2.354600
5.292700 2.344500
5.316100 2.323900
5.339600 2.307900
5.363100 2.296100
5.386500 2.274000
5.410000 2.250100
5.433500 2.240000
5.456900 2.436600
5.480400 2.706200
5.503800 2.793900
5.527300 2.951200
5.550800 4.164100
5.574200 3.272400
5.597700 3.313800
5.621100 3.344400
5.644600 3.363300
5.668100 3.436600
5.691500 3.765300
5.715000 3.840600
5.738400 3.583400
5.761900 3.590200
5.785400 3.534700
5.808800 3.370100
5.832300 3.167900
5.855800 3.165400
5.879200 3.216100
5.902700 3.292600
5.926100 3.344000
5.949600 3.334900
5.973100 3.250600
5.996500 3.359600
6.020000 3.519900
6.043400 3.396600
6.066900 3.336700
6.090400 3.295800
6.113800 3.274600
6.137300 3.270500
6.160800 3.257800
6.184200 3.163800
6.207700 3.045900
6.231100 3.027600
6.254600 2.987100
6.278100 2.962900
6.301500 2.940400
6.325000 2.918900
6.348400 2.901300
6.371900 2.882000
6.395400 2.866800
6.418800 2.945600
6.442300 3.023900
6.465700 3.227800
6.489200 3.667900
6.512700 3.359800
6.536100 3.144500
6.559600 2.980200
6.583100 2.676200
6.606500 2.436700
6.630000 2.401000
6.653400 2.348800
6.676900 2.299700
6.700400 2.237900
6.723800 2.194600
6.747300 2.169900
6.770700 2.158700
6.794200 2.170000
6.817700 2.156000
6.841100 2.108900
6.864600 2.035000
6.888000 1.936300
6.911500 1.814900
6.935000 1.736000
6.958400 1.684100
6.981900 1.638800
7.005400 1.597000
7.028800 1.560700
7.052300 1.608100
7.075700 1.525600
7.099200 1.438000
7.122700 1.402500
7.146100 1.346900
7.169600 1.316600
7.193000 1.291600
7.216500 1.266700
7.240000 1.241300
7.263400 1.216600
7.286900 1.193700
7.310400 1.184200
7.333800 1.188100
7.357300 1.162600
7.380700 1.136100
7.404200 1.108700
7.427700 1.080300
7.451100 1.048300
7.474600 1.108000
7.498000 1.001600
7.521500 0.878800
7.545000 0.815400
7.568400 0.771200
7.591900 0.735500
7.615300 0.708200
7.638800 0.688800
7.662300 0.671400
7.685700 0.651600
7.709200 0.631800
7.732700 0.612200
7.756100 0.593100
7.779600 0.574500
7.803000 0.556600
7.826500 0.538400
7.850000 0.520500
7.873400 0.503600
7.896900 0.488500
7.920300 0.475100
7.943800 0.462600
7.967300 0.447000
7.990700 0.429000
8.014200 0.409400
8.037600 0.386200
8.061100 0.364800
8.084600 0.352900
8.108000 0.352100
8.131500 0.366600
8.155000 0.406600
8.178400 0.460400
8.201900 0.515000
8.225300 0.569500
8.248800 0.623500
8.272300 0.675900
8.295700 0.726000
8.319200 0.760800
8.342600 0.801200
8.366100 0.861000
8.389600 0.933300
8.413000 1.004100
8.436500 1.117800
8.460000 1.454800
8.483400 0.797600
8.506900 0.781500
8.530300 0.784800
8.553800 0.793500
8.577300 0.804200
8.600700 0.815900
8.624200 0.829100
8.647600 0.842800
8.671100 0.857100
8.694600 0.876300
8.718000 0.899000
8.741500 0.927600
8.764900 0.991600
8.788400 1.129800
8.811900 1.383900
8.835300 1.603800
8.858800 1.639300
8.882300 1.650200
8.905700 1.649700
8.929200 1.645900
8.952600 1.638900
8.976100 1.629400
8.999600 1.605300
9.023000 1.433600
9.046500 1.416800
9.069900 1.442400
9.093400 1.565500
9.116900 1.618400
9.140300 1.634200
9.163800 1.645300
9.187200 1.651600
9.210700 1.660000
9.234200 1.667400
9.257600 1.661400
9.281100 1.580200
9.304600 1.533400
9.328000 1.487600
9.351500 1.422000
9.374900 1.360400
9.398400 1.302800
9.421900 1.259000
9.445300 1.238800
9.468800 1.214100
9.492200 1.188900
9.515700 1.231700
9.539200 1.262700
9.562600 1.298400
9.586100 1.329200
9.609600 1.345400
9.633000 1.368000
9.656500 1.394800
9.679900 1.414100
9.703400 1.412400
9.726900 1.430400
9.750300 1.443200
9.773800 1.480200
9.797200 1.522700
9.820700 1.563600
9.844200 1.560400
9.867600 1.554900
9.891100 1.547400
9.914500 1.538200
9.938000 1.527400
9.961500 1.514900
9.984900 1.500500
10.008400 1.516500
10.031900 1.525500
10.055300 1.544300
10.078800 1.630400
10.102200 1.643600
10.125700 1.603100
10.149200 1.622700
10.172600 1.620300
10.196100 1.630400
10.219500 1.644800
10.243000 1.671000
10.266500 1.699900
10.289900 1.730600
10.313400 1.776000
10.336800 1.716500
10.360300 1.700200
10.383800 1.688900
10.407200 1.734000
10.430700 1.858500
10.454200 2.029300
10.477600 2.055800
10.501100 1.895300
10.524500 1.841100
10.548000 1.721100
10.571500 1.697200
10.594900 1.677300
10.618400 1.673600
10.641800 1.902300
10.665300 2.070400
10.688800 2.312600
10.712200 2.746200
10.735700 2.869800
10.759200 2.660900
10.782600 2.262800
10.806100 2.052200
10.829500 1.856200
10.853000 1.624100
10.876500 1.431200
10.899900 1.259000
10.923400 0.490800
10.946800 0.443900
10.970300 0.430400
10.993800 0.430500
11.017200 0.445400
11.040700 0.476300
11.064100 0.548800
11.087600 0.623200
11.111100 0.689100
11.134500 0.734400
11.158000 0.770000
11.181500 0.829300
11.204900 0.919900
11.228400 1.084900
11.251800 1.234400
11.275300 1.457900
11.298800 1.772900
11.322200 2.018500
11.345700 2.217900
11.369100 2.255400
11.392600 2.257700
11.416100 2.263600
11.439500 2.253200
11.463000 2.217800
11.486400 2.184500
11.509900 2.206300
11.533400 2.226700
11.556800 2.231700
11.580300 2.248000
11.603800 2.214300
11.627200 2.172100
11.650700 2.162700
11.674100 2.138900
11.697600 2.126800
11.721100 2.096800
11.744500 2.133200
11.768000 2.439400
11.791400 2.741800
11.814900 2.948700
11.838400 2.463000
11.861800 2.081600
11.885300 1.804500
11.908800 1.732200
11.932200 1.736700
11.955700 2.227900
11.979100 2.818400
12.002600 2.889700
12.026100 3.089200
12.049500 3.401500
12.073000 3.601600
12.096400 3.734000
12.119900 4.109500
12.143400 4.400100
12.166800 4.560100
12.190300 4.900900
12.213700 6.050500
12.237200 5.935900
12.260700 5.871500
12.284100 5.045900
12.307600 3.893600
12.331100 3.431200
12.354500 3.258200
12.378000 3.131500
12.401400 2.947300
12.424900 3.785300
12.448400 2.071100
12.471800 1.343400
12.495300 1.206700
12.518700 1.154700
12.542200 1.135300
12.565700 1.150000
12.589100 1.201800
12.612600 1.244300
12.636000 1.571400
12.659500 1.774100
12.683000 1.814500
12.706400 2.070900
12.729900 2.692000
12.753400 6.189600
12.776800 4.063200
12.800300 3.870300
12.823700 3.693100
12.847200 3.607300
12.870700 3.660000
12.894100 3.740500
12.917600 3.845000
12.941000 3.979500
12.964500 4.241600
12.988000 4.089400
13.011400 4.088700
13.034900 4.070500
13.058400 3.864700
13.081800 3.835800
13.105300 4.130900
13.128700 4.869500
13.152200 4.634100
13.175700 10.394400
13.199100 4.194200
13.222600 3.886600
13.246000 3.673600
13.269500 3.514400
13.293000 3.369100
13.316400 3.186200
13.339900 2.982700
13.363300 2.734500
13.386800 2.473500
13.410300 2.240500
13.433700 2.130500
13.457200 2.006900
13.480700 1.902500
13.504100 1.840100
13.527600 1.889900
13.551000 2.142500
13.574500 3.212800
13.598000 3.025200
13.621400 2.782500
13.644900 2.604100
13.668300 2.521400
13.691800 2.543700
13.715300 2.746500
13.738700 3.052200
13.762200 3.748400
13.785600 3.590400
13.809100 3.228100
13.832600 3.207800
13.856000 3.175900
13.879500 3.172000
13.903000 3.096700
13.926400 3.082200
13.949900 3.084900
13.973300 3.080900
13.996800 3.079000
14.020300 3.139900
14.043700 3.189700
14.067200 3.238000
14.090600 3.657300
14.114100 3.691300
14.137600 3.072200
14.161000 2.830400
14.184500 2.935700
14.208000 2.875400
14.231400 2.736900
14.254900 2.614700
14.278300 2.777900
14.301800 2.610800
14.325300 2.231700
14.348700 2.196500
14.372200 2.177900
14.395600 2.165300
14.419100 2.158000
14.442600 2.142500
14.466000 2.090800
14.489500 2.091600
14.512900 2.159900
14.536400 2.222200
14.559900 2.233700
14.583300 2.255600
14.606800 2.266300
14.630300 2.268000
14.653700 2.271000
14.677200 2.282300
14.700600 2.299700
14.724100 2.329500
14.747600 2.425500
14.771000 2.533300
14.794500 2.637600
14.817900 2.742600
14.841400 2.820600
14.864900 2.769200
14.888300 2.788500
14.911800 2.815200
14.935200 2.767500
14.958700 2.626000
14.982200 2.533500
15.005600 2.356800
15.029100 2.189100
15.052600 2.016900
15.076000 1.895500
15.099500 1.869400
15.122900 2.095700
15.146400 2.342600
15.169900 2.274100
15.193300 2.355500
15.216800 2.340400
15.240200 2.435900
15.263700 2.334400
15.287200 1.915700
15.310600 1.772500
15.334100 1.204000
15.357600 1.163300
15.381000 1.122600
15.404500 1.128600
15.427900 1.083500
15.451400 0.944800
15.474900 0.817200
15.498300 0.748000
15.521800 0.697200
15.545200 0.678500
15.568700 0.682100
15.592200 0.691400
15.615600 0.705900
15.639100 0.738000
15.662500 0.773000
15.686000 0.810800
15.709500 0.851300
15.732900 0.881800
15.756400 0.922800
15.779900 0.959500
15.803300 0.990900
15.826800 1.020100
15.850200 1.051800
15.873700 1.088400
15.897200 1.158500
15.920600 1.266100
15.944100 1.408800
15.967500 1.520600
15.991000 1.649500
16.014500 1.800700
16.037900 1.933000
16.061400 2.269900
16.084800 2.396200
16.108300 2.315400
16.131800 2.258800
16.155200 2.192500
16.178700 2.124000
16.202200 2.067800
16.225600 2.034100
16.249100 2.006800
16.272500 1.989100
16.296000 1.975200
16.319500 1.964800
16.342900 1.946000
16.366400 1.936500
16.389800 2.013300
16.413300 2.016300
16.436800 2.006600
16.460200 1.977100
16.483700 1.933000
16.507200 2.008200
16.530600 1.935500
16.554100 1.906100
16.577500 1.888200
16.601000 1.829900
16.624500 1.731000
16.647900 1.844200
16.671400 1.915700
16.694800 2.044500
16.718300 2.189600
16.741800 2.100200
16.765200 2.158900
16.788700 2.205700
16.812100 2.314900
16.835600 2.476700
16.859100 2.652200
16.882500 2.873400
16.906000 3.098900
16.929500 3.437100
16.952900 3.616300
16.976400 3.620500
16.999800 3.689800
17.023300 3.795100
17.046800 3.832200
17.070200 3.808200
17.093700 3.595200
17.117100 3.870400
17.140600 4.086200
17.164100 3.529000
17.187500 3.450300
17.211000 3.272900
17.234400 3.095200
17.257900 2.955600
17.281400 2.416200
17.304800 2.385000
17.328300 2.318100
17.351800 2.284800
17.375200 2.353800
17.398700 1.830100
17.422100 1.771300
17.445600 1.718200
17.469100 1.671800
17.492500 1.714800
17.516000 1.691400
17.539400 1.636500
17.562900 1.574400
17.586400 1.581900
17.609800 1.606100
17.633300 1.734400
17.656800 1.819000
17.680200 1.868700
17.703700 1.938600
17.727100 1.890000
17.750600 1.732300
17.774100 1.648100
17.797500 1.642800
17.821000 1.833800
17.844400 1.983200
17.867900 2.179900
17.891400 2.415900
17.914800 2.638000
17.938300 2.604700
17.961700 2.682300
17.985200 2.742900
18.008700 2.668600
18.032100 2.538900
18.055600 2.455200
18.079100 2.512900
18.102500 3.776500
18.126000 3.065300
18.149400 3.186600
18.172900 3.243900
18.196400 3.268300
18.219800 3.212100
18.243300 3.167000
18.266700 3.066900
18.290200 3.047400
18.313700 3.090500
18.337100 3.133500
18.360600 3.193900
18.384000 3.322400
18.407500 3.366500
18.431000 3.360900
18.454400 3.390500
18.477900 3.292200
18.501400 3.173100
18.524800 3.032000
18.548300 3.172100
18.571700 2.993300
18.595200 2.753400
18.618700 2.645500
18.642100 2.632100
18.665600 2.743700
18.689000 2.854800
18.712500 2.983800
18.736000 3.134100
18.759400 3.290900
18.782900 3.448100
18.806400 3.601600
18.829800 3.737300
18.853300 4.805800
18.876700 4.245400
18.900200 4.014500
18.923700 3.830200
18.947100 3.732400
18.970600 3.702000
18.994000 3.666500
19.017500 3.757700
19.041000 4.281800
19.064400 4.562600
19.087900 4.157500
19.111300 3.704200
19.134800 3.544100
19.158300 3.232800
19.181700 3.003000
19.205200 2.799600
19.228700 2.631900
19.252100 2.548600
19.275600 2.603300
19.299000 3.366600
19.322500 3.331000
19.346000 3.097500
19.369400 2.825100
19.392900 2.606500
19.416300 2.493900
19.439800 2.281600
19.463300 2.221700
19.486700 2.191400
19.510200 2.163500
19.533600 2.144100
19.557100 2.156300
19.580600 2.206000
19.604000 2.569600
19.627500 2.240300
19.651000 2.275200
19.674400 2.315100
19.697900 2.397700
19.721300 2.620700
19.744800 2.698100
19.768300 2.799000
19.791700 2.849500
19.815200 2.739100
19.838600 2.718900
19.862100 2.746000
19.885600 2.758400
19.909000 2.758200
19.932500 2.736100
19.956000 2.723300
19.979400 2.750900
20.002900 2.809900
20.026300 2.869600
20.049800 2.942100
20.073300 3.007200
20.096700 3.039500
20.120200 3.169000
20.143600 3.294200
20.167100 3.170800
20.190600 3.091700
20.214000 3.097500
20.237500 3.465500
20.260900 3.181000
20.284400 2.951400
20.307900 2.894900
20.331300 3.199800
20.354800 3.199500
20.378300 2.966400
20.401700 3.066500
20.425200 3.049100
20.448600 2.770200
20.472100 2.410000
20.495600 2.492100
20.519000 2.278700
20.542500 1.825400
20.565900 1.652600
20.589400 1.652000
20.612900 1.676300
20.636300 1.691000
20.659800 1.714200
20.683200 1.819300
20.706700 1.908700
20.730200 1.986800
20.753600 2.078200
20.777100 2.147600
20.800600 2.348100
20.824000 2.466700
20.847500 2.474300
20.870900 2.470000
20.894400 2.471400
20.917900 2.484900
20.941300 2.652900
20.964800 2.683300
20.988200 2.728900
21.011700 3.127800
21.035200 3.261300
21.058600 3.234400
21.082100 3.367800
21.105600 3.531200
21.129000 3.629600
21.152500 3.780200
21.175900 4.010100
21.199400 4.376700
21.222900 4.721300
21.246300 4.486200
21.269800 4.338200
21.293200 4.058200
21.316700 3.909400
21.340200 3.856400
21.363600 3.760000
21.387100 3.611300
21.410500 3.446900
21.434000 3.304400
21.457500 3.216700
21.480900 3.175900
21.504400 3.344800
21.527900 3.540300
21.551300 3.728500
21.574800 3.950500
21.598200 3.942400
21.621700 3.930900
21.645200 3.900600
21.668600 3.797700
21.692100 3.546400
21.715500 3.446100
21.739000 3.284900
21.762500 3.214700
21.785900 2.966100
21.809400 2.983900
21.832800 3.114000
21.856300 3.226600
21.879800 3.084100
21.903200 3.083300
21.926700 3.060800
21.950200 2.935400
21.973600 2.895000
21.997100 2.847800
22.020500 2.798500
22.044000 2.736000
22.067500 2.768600
22.090900 2.725700
22.114400 2.595000
22.137800 2.622300
22.161300 2.537500
22.184800 2.586400
22.208200 2.654000
22.231700 2.746800
22.255200 2.884700
22.278600 3.033700
22.302100 3.134500
22.325500 3.291600
22.349000 3.522100
22.372500 3.417400
22.395900 3.456200
22.419400 3.478000
22.442800 3.470500
22.466300 3.604600
22.489800 3.712200
22.513200 3.816400
22.536700 3.918200
22.560100 4.029300
22.583600 4.024000
22.607100 4.094400
22.630500 4.081100
22.654000 4.029600
22.677500 3.834600
22.700900 3.583900
22.724400 3.383800
22.747800 3.279800
22.771300 3.239600
22.794800 3.188200
22.818200 3.168200
22.841700 3.179400
22.865100 3.159600
22.888600 3.115500
22.912100 3.109200
22.935500 3.151500
22.959000 3.216500
22.982400 3.444600
23.005900 3.040700
23.029400 2.874200
23.052800 2.758900
23.076300 2.683800
23.099800 2.651700
23.123200 2.633100
23.146700 2.635500
23.170100 2.679900
23.193600 2.830800
23.217100 2.938900
23.240500 2.905900
23.264000 2.919500
23.287400 2.950300
23.310900 2.994200
23.334400 3.061100
23.357800 3.295800
23.381300 3.386200
23.404800 3.598800
23.428200 3.747000
23.451700 3.763100
23.475100 3.807700
23.498600 3.757700
23.522100 3.600800
23.545500 3.402100
23.569000 3.240000
23.592400 3.140100
23.615900 3.245800
23.639400 3.040100
23.662800 3.673400
23.686300 2.407500
23.709700 2.440100
23.733200 2.487400
23.756700 2.462800
23.780100 2.529900
23.803600 2.618400
23.827100 2.737000
23.850500 2.808900
23.874000 2.981400
23.897400 2.731200
23.920900 2.761300
23.944400 2.857900
23.967800 2.943200
23.991300 2.996700
24.014700 3.094100
24.038200 3.138600
24.061700 3.134000
24.085100 3.100800
24.108600 3.012400
24.132000 2.884100
24.155500 2.720100
24.179000 2.573600
24.202400 2.444800
24.225900 2.305200
24.249400 2.232100
24.272800 2.249000
24.296300 2.244300
24.319700 2.163000
24.343200 2.113500
24.366700 2.023100
24.390100 1.929600
24.413600 1.849000
24.437000 1.788000
24.460500 1.737900
24.484000 1.715900
24.507400 1.814800
24.530900 2.379700
24.554400 2.227800
24.577800 1.914000
24.601300 1.345800
24.624700 1.313600
24.648200 1.386200
24.671700 1.470900
24.695100 1.543300
24.718600 1.595000
24.742000 1.673800
24.765500 1.716800
24.789000 1.837500
24.812400 1.978800
24.835900 2.195900
24.859300 2.729600
24.882800 3.691100
24.906300 3.207500
24.929700 3.374000
24.953200 3.394400
24.976700 3.398400
25.000100 3.476600
25.023600 3.558700
25.047000 3.616300
25.070500 3.600200
25.094000 3.787700
25.117400 4.142900
25.140900 4.307400
25.164300 4.196400
25.187800 4.185000
25.211300 3.950400
25.234700 3.908700
25.258200 3.847400
25.281600 3.883800
25.305100 3.643300
25.328600 3.264500
25.352000 2.872300
25.375500 2.850800
25.399000 2.881500
25.422400 2.934300
25.445900 2.961100
25.469300 3.123600
25.492800 2.834900
25.516300 2.643300
25.539700 2.702200
25.563200 3.063700
25.586600 3.002900
25.610100 2.705200
25.633600 2.623200
25.657000 2.635900
25.680500 2.627100
25.704000 2.585700
25.727400 2.690200
25.750900 2.658000
25.774300 2.666200
25.797800 2.714500
25.821300 2.789300
25.844700 2.871500
25.868200 3.021200
25.891600 3.239300
25.915100 3.507900
25.938600 3.643300
25.962000 3.570000
25.985500 3.396800
26.008900 3.197700
26.032400 3.337100
26.055900 3.498500
26.079300 3.874900
26.102800 3.675800
26.126300 3.764200
26.149700 3.846700
26.173200 3.902900
26.196600 3.737400
26.220100 3.846100
26.243600 4.050700
26.267000 4.225900
26.290500 4.294700
26.313900 4.313100
26.337400 4.326400
26.360900 5.211300
26.384300 4.213900
26.407800 4.091100
26.431200 4.023300
26.454700 3.778200
26.478200 3.503000
26.501600 3.515800
26.525100 3.354400
26.548600 3.244200
26.572000 3.170100
26.595500 3.148700
26.618900 3.177100
26.642400 3.500400
26.665900 3.463500
26.689300 3.570000
26.712800 3.207000
26.736200 3.100700
26.759700 2.958600
26.783200 2.748100
26.806600 2.647500
26.830100 2.525200
26.853600 2.343100
26.877000 2.234700
26.900500 2.347200
26.923900 2.717800
26.947400 3.058600
26.970900 3.050400
26.994300 3.089800
27.017800 3.196700
27.041200 3.316300
27.064700 3.510900
27.088200 3.606700
27.111600 3.692400
27.135100 3.839000
27.158500 3.915400
27.182000 3.993900
27.205500 4.048800
27.228900 4.063000
27.252400 4.237800
27.275900 4.178900
27.299300 4.285600
27.322800 4.346500
27.346200 4.303900
27.369700 4.297700
27.393200 3.890600
27.416600 3.746700
27.440100 3.571200
27.463500 3.408900
27.487000 3.278400
27.510500 3.208400
27.533900 3.185800
27.557400 3.160800
27.580800 3.546400
27.604300 3.843000
27.627800 4.099600
27.651200 3.822000
27.674700 3.724000
27.698200 3.624600
27.721600 3.512900
27.745100 3.363800
27.768500 3.175600
27.792000 3.156300
27.815500 2.801100
27.838900 2.831100
27.862400 2.883000
27.885800 2.952800
27.909300 3.003000
27.932800 3.046200
27.956200 3.004200
27.979700 2.942200
28.003200 2.864000
28.026600 2.954100
28.050100 2.698900
28.073500 2.434600
28.097000 2.509900
28.120500 2.938600
28.143900 3.702900
28.167400 3.874800
28.190800 4.258700
28.214300 4.297300
28.237800 4.317600
28.261200 4.438700
28.284700 4.356900
28.308100 4.272600
28.331600 4.131200
28.355100 4.036600
28.378500 3.979200
28.402000 4.701500
28.425500 3.324900
28.448900 3.159500
28.472400 3.010600
28.495800 2.938900
28.519300 2.998400
28.542800 3.107100
28.566200 3.229600
28.589700 3.675400
28.613100 4.143300
28.636600 4.810500
28.660100 5.001000
28.683500 4.643000
28.707000 4.136500
28.730400 3.856800
28.753900 3.567100
28.777400 3.243900
28.800800 2.856800
28.824300 2.692100
28.847800 2.613000
28.871200 2.550400
28.894700 2.661300
28.918100 2.435000
28.941600 2.408700
28.965100 2.416700
28.988500 2.545500
29.012000 2.717900
29.035400 2.340100
29.058900 2.345800
29.082400 2.593500
29.105800 3.000100
29.129300 2.861600
29.152800 2.999900
29.176200 3.652400
29.199700 3.541700
29.223100 3.376200
29.246600 3.229200
29.270100 3.242600
29.293500 3.205100
29.317000 3.142600
29.340400 3.336000
29.363900 3.435600
29.387400 3.385300
29.410800 3.583900
29.434300 3.690200
29.457700 4.176000
29.481200 4.254800
29.504700 4.317400
29.528100 4.369600
29.551600 4.450000
29.575100 4.325800
29.598500 4.180000
29.622000 4.162400
29.645400 4.149300
29.668900 4.021100
29.692400 4.219200
29.715800 3.790900
29.739300 3.660900
29.762700 3.370200
29.786200 3.343500
29.809700 3.074000
29.833100 2.968500
29.856600 2.889500
29.880000 2.800900
29.903500 2.701800
29.927000 2.624300
29.950400 2.559300
29.973900 2.531000
29.997400 2.499200
30.020800 2.455600
30.044300 2.738900
30.067700 2.787800
30.091200 2.812900
30.114700 2.686200
30.138100 2.301200
30.161600 2.033700
30.185000 1.893700
30.208500 1.753100
30.232000 1.603000
30.255400 1.328700
30.278900 1.164400
30.302400 1.157600
30.325800 1.132600
30.349300 1.087700
30.372700 1.005600
30.396200 0.871300
30.419700 0.810500
30.443100 0.774300
30.466600 0.735300
30.490000 0.696900
30.513500 0.662900
30.537000 0.636400
30.560400 0.617700
30.583900 0.605900
30.607300 0.595000
30.630800 0.587200
30.654300 0.583800
30.677700 0.586300
30.701200 0.594500
30.724700 0.582300
30.748100 0.544400
30.771600 0.504600
30.795000 0.461800
30.818500 0.424900
30.842000 0.399600
30.865400 0.385500
30.888900 0.375100
30.912300 0.400200
30.935800 0.384200
30.959300 0.367600
30.982700 0.350200
31.006200 0.332100
31.029600 0.313200
31.053100 0.293600
31.076600 0.273300
31.100000 0.255600
31.123500 0.233900
31.147000 0.210800
31.170400 0.198400
31.193900 0.188500
31.217300 0.179100
31.240800 0.170300
31.264300 0.162200
31.287700 0.154600
31.311200 0.147600
31.334600 0.141300
31.358100 0.135500
31.381600 0.130100
31.405000 0.125100
31.428500 0.120500
31.452000 0.116200
31.475400 0.112100
31.498900 0.108400
31.522300 0.104900
31.545800 0.101400
31.569300 0.098100
31.592700 0.094900
31.616200 0.091800
31.639600 0.088600
31.663100 0.085800
31.686600 0.083900
31.710000 0.082000
31.733500 0.080100
31.756900 0.078200
31.780400 0.076400
31.803900 0.075200
31.827300 0.074100
31.850800 0.072900
31.874300 0.071700
31.897700 0.070400
31.921200 0.069100
31.944600 0.067700
31.968100 0.066300
31.991600 0.064800
32.015000 0.063300
32.038500 0.061700
32.061900 0.060100
32.085400 0.057700
32.108900 0.054800
32.132300 0.051500
32.155800 0.047900
32.179200 0.043900
32.202700 0.039500
32.226200 0.034300
32.249600 0.028700
32.273100 0.023300
32.296600 0.018600
32.320000 0.014600
32.343500 0.011300
32.366900 0.008800
32.390400 0.006800
32.413900 0.005200
32.437300 0.003900
32.460800 0.002700
32.484200 0.001700
32.507700 0.001000
32.531200 0.000500
32.554600 0.000100
32.578100 0.000000
32.601600 0.000000
32.625000 0.000000
32.648500 0.000000
32.671900 0.000000
32.695400 0.000000
32.718900 0.000000
32.742300 0.000000
32.765800 0.000000
32.789200 0.000000
32.812700 0.000000
32.836200 0.000000
32.859600 0.000000
32.883100 0.000000
32.906500 0.000000
32.930000 0.000000
32.953500 0.000000
32.976900 0.000000
33.000400 0.000000
33.023900 0.000000
33.047300 0.000000
33.070800 0.000000
33.094200 0.000000
33.117700 0.000000
33.141200 0.000000
33.164600 0.000000
33.188100 0.000000
33.211500 0.000000
33.235000 0.000000
33.258500 0.000000
33.281900 0.000000
33.305400 0.000000
33.328800 0.000000
33.352300 0.000000
33.375800 0.000000
33.399200 0.000000
33.422700 0.000000
33.446200 0.000000
33.469600 0.000000
33.493100 0.000000
33.516500 0.000000
33.540000 0.000000
33.563500 0.000000
33.586900 0.000000
33.610400 0.000000
33.633800 0.000000
33.657300 0.000000
33.680800 0.000000
33.704200 0.000000
33.727700 0.000000
33.751200 0.000000
33.774600 0.000000
33.798100 0.000000
33.821500 0.000000
33.845000 0.000000
33.868500 0.000000
33.891900 0.000000
33.915400 0.000000
33.938800 0.000000
33.962300 0.000000
33.985800 0.000000
34.009200 0.000000
34.032700 0.000000
34.056100 0.000000
34.079600 0.000000
34.103100 0.000000
34.126500 0.000000
34.150000 0.000000
34.173500 0.000000
34.196900 0.000000
34.220400 0.000000
34.243800 0.000000
34.267300 0.000000
34.290800 0.000000
34.314200 0.000000
34.337700 0.000000
34.361100 0.000000
34.384600 0.000000
34.408100 0.000000
34.431500 0.000000
34.455000 0.000000
34.478400 0.000000
34.501900 0.000000
34.525400 0.000000
34.548800 0.000000
34.572300 0.000000
34.595800 0.000000
34.619200 0.000000
34.642700 0.000000
34.666100 0.000000
34.689600 0.000000
34.713100 0.000000
e
