set title 'mp-19399 - Density of States'
set xlabel 'Energy (eV)'
set ylabel 'DOS (states/eV)'
set grid
set xrange [-10:10]
set yrange [0:23.998]
set xzeroaxis lt -1
set terminal png size 800,600
set output 'mp-19399_dos_gnuplot.png'
plot '-' using 1:2 with lines title 'DOS'
-43.602000 0.000000
-43.555000 0.000000
-43.508100 0.000000
-43.461100 0.000000
-43.414100 0.000000
-43.367200 0.000000
-43.320200 0.000000
-43.273200 0.000000
-43.226300 0.000000
-43.179300 0.000000
-43.132400 0.000000
-43.085400 0.000000
-43.038400 0.000000
-42.991500 0.000000
-42.944500 0.000000
-42.897500 0.000000
-42.850600 0.000000
-42.803600 0.000000
-42.756700 0.000000
-42.709700 0.000000
-42.662700 0.000000
-42.615800 0.000000
-42.568800 0.000000
-42.521800 0.000000
-42.474900 0.000000
-42.427900 0.000000
-42.381000 0.000000
-42.334000 0.000000
-42.287000 0.000000
-42.240100 0.000000
-42.193100 0.000000
-42.146100 0.000000
-42.099200 0.000000
-42.052200 0.000000
-42.005300 0.000000
-41.958300 0.000000
-41.911300 0.000000
-41.864400 0.000000
-41.817400 0.000000
-41.770400 0.000000
-41.723500 0.000000
-41.676500 0.000000
-41.629600 0.000000
-41.582600 0.000000
-41.535600 0.000000
-41.488700 0.000000
-41.441700 0.000000
-41.394700 0.000000
-41.347800 0.000000
-41.300800 0.000000
-41.253900 0.000000
-41.206900 0.000000
-41.159900 0.000000
-41.113000 0.000000
-41.066000 0.000000
-41.019100 0.000000
-40.972100 0.000000
-40.925100 0.000000
-40.878200 0.000000
-40.831200 0.000000
-40.784200 0.000000
-40.737300 0.000000
-40.690300 0.000000
-40.643400 0.000000
-40.596400 0.000000
-40.549400 0.000000
-40.502500 0.000000
-40.455500 0.000000
-40.408500 0.000000
-40.361600 0.000000
-40.314600 0.000000
-40.267700 0.000000
-40.220700 0.000000
-40.173700 0.000000
-40.126800 0.000000
-40.079800 0.000000
-40.032800 0.000000
-39.985900 0.000000
-39.938900 0.000000
-39.892000 0.000000
-39.845000 0.000000
-39.798000 0.000000
-39.751100 0.000000
-39.704100 0.000000
-39.657100 0.000000
-39.610200 0.000000
-39.563200 0.000000
-39.516300 0.000000
-39.469300 0.000000
-39.422300 0.000000
-39.375400 0.000000
-39.328400 32.917800
-39.281400 0.000000
-39.234500 0.000000
-39.187500 476.952400
-39.140600 0.000000
-39.093600 0.000000
-39.046600 0.000000
-38.999700 0.000000
-38.952700 0.000000
-38.905700 0.000000
-38.858800 0.000000
-38.811800 0.000000
-38.764900 113.004600
-38.717900 76.170800
-38.670900 0.000000
-38.624000 0.000000
-38.577000 0.000000
-38.530000 0.000000
-38.483100 0.000000
-38.436100 0.000000
-38.389200 0.000000
-38.342200 0.000000
-38.295200 0.000000
-38.248300 0.000000
-38.201300 0.000000
-38.154300 0.000000
-38.107400 0.000000
-38.060400 0.000000
-38.013500 0.000000
-37.966500 0.000000
-37.919500 0.000000
-37.872600 0.000000
-37.825600 0.000000
-37.778600 0.000000
-37.731700 0.000000
-37.684700 0.000000
-37.637800 0.000000
-37.590800 0.000000
-37.543800 0.000000
-37.496900 0.000000
-37.449900 0.000000
-37.402900 0.000000
-37.356000 0.000000
-37.309000 0.000000
-37.262100 0.000000
-37.215100 0.000000
-37.168100 0.000000
-37.121200 0.000000
-37.074200 0.000000
-37.027200 0.000000
-36.980300 0.000000
-36.933300 0.000000
-36.886400 0.000000
-36.839400 0.000000
-36.792400 0.000000
-36.745500 0.000000
-36.698500 0.000000
-36.651500 0.000000
-36.604600 0.000000
-36.557600 0.000000
-36.510700 0.000000
-36.463700 0.000000
-36.416700 0.000000
-36.369800 0.000000
-36.322800 0.000000
-36.275800 0.000000
-36.228900 0.000000
-36.181900 0.000000
-36.135000 0.000000
-36.088000 0.000000
-36.041000 0.000000
-35.994100 0.000000
-35.947100 0.000000
-35.900100 0.000000
-35.853200 0.000000
-35.806200 0.000000
-35.759300 0.000000
-35.712300 0.000000
-35.665300 0.000000
-35.618400 0.000000
-35.571400 0.000000
-35.524500 0.000000
-35.477500 0.000000
-35.430500 0.000000
-35.383600 0.000000
-35.336600 0.000000
-35.289600 0.000000
-35.242700 0.000000
-35.195700 0.000000
-35.148800 0.000000
-35.101800 0.000000
-35.054800 0.000000
-35.007900 0.000000
-34.960900 0.000000
-34.913900 0.000000
-34.867000 0.000000
-34.820000 0.000000
-34.773100 0.000000
-34.726100 0.000000
-34.679100 0.000000
-34.632200 0.000000
-34.585200 0.000000
-34.538200 0.000000
-34.491300 0.000000
-34.444300 0.000000
-34.397400 0.000000
-34.350400 0.000000
-34.303400 0.000000
-34.256500 0.000000
-34.209500 0.000000
-34.162500 0.000000
-34.115600 0.000000
-34.068600 0.000000
-34.021700 0.000000
-33.974700 0.000000
-33.927700 0.000000
-33.880800 0.000000
-33.833800 0.000000
-33.786800 0.000000
-33.739900 0.000000
-33.692900 0.000000
-33.646000 0.000000
-33.599000 0.000000
-33.552000 0.000000
-33.505100 0.000000
-33.458100 0.000000
-33.411100 0.000000
-33.364200 0.000000
-33.317200 0.000000
-33.270300 0.000000
-33.223300 0.000000
-33.176300 0.000000
-33.129400 0.000000
-33.082400 0.000000
-33.035400 0.000000
-32.988500 0.000000
-32.941500 0.000000
-32.894600 0.000000
-32.847600 0.000000
-32.800600 0.000000
-32.753700 0.000000
-32.706700 0.000000
-32.659700 0.000000
-32.612800 0.000000
-32.565800 0.000000
-32.518900 0.000000
-32.471900 0.000000
-32.424900 0.000000
-32.378000 0.000000
-32.331000 0.000000
-32.284000 0.000000
-32.237100 0.000000
-32.190100 0.000000
-32.143200 0.000000
-32.096200 0.000000
-32.049200 0.000000
-32.002300 0.000000
-31.955300 0.000000
-31.908300 0.000000
-31.861400 0.000000
-31.814400 0.000000
-31.767500 0.000000
-31.720500 0.000000
-31.673500 0.000000
-31.626600 0.000000
-31.579600 0.000000
-31.532600 0.000000
-31.485700 0.000000
-31.438700 0.000000
-31.391800 0.000000
-31.344800 0.000000
-31.297800 0.000000
-31.250900 0.000000
-31.203900 0.000000
-31.156900 0.000000
-31.110000 0.000000
-31.063000 0.000000
-31.016100 0.000000
-30.969100 0.000000
-30.922100 0.000000
-30.875200 0.000000
-30.828200 0.000000
-30.781200 0.000000
-30.734300 0.000000
-30.687300 0.000000
-30.640400 0.000000
-30.593400 0.000000
-30.546400 0.000000
-30.499500 0.000000
-30.452500 0.000000
-30.405500 0.000000
-30.358600 0.000000
-30.311600 0.000000
-30.264700 0.000000
-30.217700 0.000000
-30.170700 0.000000
-30.123800 0.000000
-30.076800 0.000000
-30.029800 0.000000
-29.982900 0.000000
-29.935900 0.000000
-29.889000 0.000000
-29.842000 0.000000
-29.795000 0.000000
-29.748100 0.000000
-29.701100 0.000000
-29.654200 0.000000
-29.607200 0.000000
-29.560200 0.000000
-29.513300 0.000000
-29.466300 0.000000
-29.419300 0.000000
-29.372400 0.000000
-29.325400 0.000000
-29.278500 0.000000
-29.231500 0.000000
-29.184500 0.000000
-29.137600 0.000000
-29.090600 0.000000
-29.043600 0.000000
-28.996700 0.000000
-28.949700 0.000000
-28.902800 0.000000
-28.855800 0.000000
-28.808800 0.000000
-28.761900 0.000000
-28.714900 0.000000
-28.667900 0.000000
-28.621000 0.000000
-28.574000 0.000000
-28.527100 0.000000
-28.480100 0.000000
-28.433100 0.000000
-28.386200 0.000000
-28.339200 0.000000
-28.292200 0.000000
-28.245300 0.000000
-28.198300 0.000000
-28.151400 0.000000
-28.104400 0.000000
-28.057400 0.000000
-28.010500 0.000000
-27.963500 0.000000
-27.916500 0.000000
-27.869600 0.000000
-27.822600 0.000000
-27.775700 0.000000
-27.728700 0.000000
-27.681700 0.000000
-27.634800 0.000000
-27.587800 0.000000
-27.540800 0.000000
-27.493900 0.000000
-27.446900 0.000000
-27.400000 0.000000
-27.353000 0.000000
-27.306000 0.000000
-27.259100 0.000000
-27.212100 0.000000
-27.165100 0.000000
-27.118200 0.000000
-27.071200 0.000000
-27.024300 0.000000
-26.977300 0.000000
-26.930300 0.000000
-26.883400 0.000000
-26.836400 0.000000
-26.789400 0.000000
-26.742500 0.000000
-26.695500 0.000000
-26.648600 0.000000
-26.601600 0.000000
-26.554600 0.000000
-26.507700 0.000000
-26.460700 0.000000
-26.413700 0.000000
-26.366800 0.000000
-26.319800 0.000000
-26.272900 0.000000
-26.225900 0.000000
-26.178900 0.000000
-26.132000 0.000000
-26.085000 0.000000
-26.038000 0.000000
-25.991100 0.000000
-25.944100 0.000000
-25.897200 0.000000
-25.850200 0.000000
-25.803200 0.000000
-25.756300 0.000000
-25.709300 0.000000
-25.662300 0.000000
-25.615400 0.000000
-25.568400 0.000000
-25.521500 0.000000
-25.474500 0.000000
-25.427500 0.000000
-25.380600 0.000000
-25.333600 0.000000
-25.286600 0.000000
-25.239700 0.000000
-25.192700 0.000000
-25.145800 0.000000
-25.098800 0.000000
-25.051800 0.000000
-25.004900 0.000000
-24.957900 0.000000
-24.910900 0.000000
-24.864000 0.000000
-24.817000 0.000000
-24.770100 0.000000
-24.723100 0.000000
-24.676100 0.000000
-24.629200 0.000000
-24.582200 0.000000
-24.535200 0.000000
-24.488300 0.000000
-24.441300 0.000000
-24.394400 0.000000
-24.347400 0.000000
-24.300400 0.000000
-24.253500 0.000000
-24.206500 0.000000
-24.159600 0.000000
-24.112600 0.000000
-24.065600 0.000000
-24.018700 0.000000
-23.971700 0.000000
-23.924700 0.000000
-23.877800 0.000000
-23.830800 0.000000
-23.783900 0.000000
-23.736900 0.000000
-23.689900 0.000000
-23.643000 0.000000
-23.596000 0.000000
-23.549000 0.000000
-23.502100 0.000000
-23.455100 0.000000
-23.408200 0.000000
-23.361200 0.000000
-23.314200 0.000000
-23.267300 0.000000
-23.220300 0.000000
-23.173300 0.000000
-23.126400 0.000000
-23.079400 0.000000
-23.032500 0.000000
-22.985500 0.000000
-22.938500 0.000000
-22.891600 0.000000
-22.844600 0.000000
-22.797600 0.000000
-22.750700 0.000000
-22.703700 0.000000
-22.656800 0.000000
-22.609800 0.000000
-22.562800 0.000000
-22.515900 0.000000
-22.468900 0.000000
-22.421900 0.000000
-22.375000 0.000000
-22.328000 0.000000
-22.281100 0.000000
-22.234100 0.000000
-22.187100 0.000000
-22.140200 0.000000
-22.093200 0.000000
-22.046200 0.000000
-21.999300 0.000000
-21.952300 0.000000
-21.905400 0.000000
-21.858400 0.000000
-21.811400 0.000000
-21.764500 0.000000
-21.717500 0.000000
-21.670500 0.000000
-21.623600 0.000000
-21.576600 0.000000
-21.529700 0.000000
-21.482700 0.000000
-21.435700 0.000000
-21.388800 0.000000
-21.341800 0.000000
-21.294800 0.000000
-21.247900 0.000000
-21.200900 0.000000
-21.154000 0.000000
-21.107000 0.000000
-21.060000 0.000000
-21.013100 0.000000
-20.966100 0.000000
-20.919100 0.000000
-20.872200 0.000000
-20.825200 0.000000
-20.778300 0.000000
-20.731300 0.000000
-20.684300 0.000000
-20.637400 0.000000
-20.590400 0.000000
-20.543400 0.000000
-20.496500 0.000000
-20.449500 0.000000
-20.402600 0.000000
-20.355600 0.000000
-20.308600 0.000000
-20.261700 0.000000
-20.214700 0.000000
-20.167700 0.000000
-20.120800 0.000000
-20.073800 0.000000
-20.026900 0.000000
-19.979900 0.000000
-19.932900 0.000000
-19.886000 0.000000
-19.839000 0.000000
-19.792000 0.000000
-19.745100 0.000000
-19.698100 0.000000
-19.651200 0.000000
-19.604200 0.000000
-19.557200 0.000000
-19.510300 0.000000
-19.463300 0.000000
-19.416300 0.000000
-19.369400 0.000000
-19.322400 0.000000
-19.275500 0.000000
-19.228500 0.000000
-19.181500 0.000000
-19.134600 0.000000
-19.087600 0.000000
-19.040600 0.000000
-18.993700 0.000000
-18.946700 0.000000
-18.899800 0.000000
-18.852800 0.000000
-18.805800 0.000000
-18.758900 0.000000
-18.711900 0.000000
-18.664900 0.000000
-18.618000 0.000000
-18.571000 0.000000
-18.524100 0.000000
-18.477100 0.000000
-18.430100 0.000000
-18.383200 0.000000
-18.336200 0.000000
-18.289300 0.000000
-18.242300 0.000000
-18.195300 0.000000
-18.148400 0.000000
-18.101400 0.000000
-18.054400 0.000000
-18.007500 0.000000
-17.960500 0.000000
-17.913600 0.000000
-17.866600 0.000000
-17.819600 0.000000
-17.772700 0.000000
-17.725700 0.000000
-17.678700 0.000000
-17.631800 0.000000
-17.584800 0.000000
-17.537900 0.000000
-17.490900 0.000000
-17.443900 0.000000
-17.397000 0.000000
-17.350000 0.000000
-17.303000 0.000000
-17.256100 0.000000
-17.209100 0.000000
-17.162200 0.000000
-17.115200 0.000000
-17.068200 0.000000
-17.021300 0.000000
-16.974300 0.000000
-16.927300 0.000000
-16.880400 0.000000
-16.833400 0.000000
-16.786500 0.000000
-16.739500 0.000000
-16.692500 0.000000
-16.645600 0.000000
-16.598600 0.000000
-16.551600 0.000000
-16.504700 0.000000
-16.457700 0.000000
-16.410800 0.000000
-16.363800 0.000000
-16.316800 0.000000
-16.269900 0.000000
-16.222900 0.000000
-16.175900 0.000000
-16.129000 0.000000
-16.082000 0.000000
-16.035100 0.000000
-15.988100 0.000000
-15.941100 0.000000
-15.894200 0.000000
-15.847200 0.000000
-15.800200 0.000000
-15.753300 0.000000
-15.706300 0.000000
-15.659400 0.000000
-15.612400 0.000000
-15.565400 0.000000
-15.518500 0.000000
-15.471500 0.000000
-15.424500 0.000000
-15.377600 0.000000
-15.330600 0.000000
-15.283700 0.000000
-15.236700 0.000000
-15.189700 0.272900
-15.142800 0.608400
-15.095800 0.861900
-15.048800 1.051500
-15.001900 1.253500
-14.954900 1.446600
-14.908000 1.635500
-14.861000 1.839000
-14.814000 2.055900
-14.767100 2.294200
-14.720100 2.559400
-14.673100 2.856900
-14.626200 3.282700
-14.579200 4.051000
-14.532300 5.413600
-14.485300 4.785700
-14.438300 6.529700
-14.391400 2.555800
-14.344400 3.452400
-14.297400 7.327500
-14.250500 4.582900
-14.203500 4.270800
-14.156600 4.275100
-14.109600 4.118800
-14.062600 4.063100
-14.015700 2.930800
-13.968700 3.486700
-13.921700 9.276800
-13.874800 15.419000
-13.827800 23.654600
-13.780900 28.342700
-13.733900 61.116100
-13.686900 72.511900
-13.640000 0.000000
-13.593000 0.000000
-13.546000 0.000000
-13.499100 0.000000
-13.452100 0.000000
-13.405200 0.000000
-13.358200 0.000000
-13.311200 0.000000
-13.264300 0.000000
-13.217300 0.000000
-13.170300 0.000000
-13.123400 0.000000
-13.076400 0.000000
-13.029500 0.000000
-12.982500 0.000000
-12.935500 0.000000
-12.888600 0.000000
-12.841600 0.000000
-12.794700 0.000000
-12.747700 0.000000
-12.700700 0.000000
-12.653800 0.000000
-12.606800 0.000000
-12.559800 0.000000
-12.512900 0.000000
-12.465900 0.000000
-12.419000 0.000000
-12.372000 0.000000
-12.325000 0.000000
-12.278100 0.000000
-12.231100 0.000000
-12.184100 0.000000
-12.137200 0.000000
-12.090200 0.000000
-12.043300 0.000000
-11.996300 0.000000
-11.949300 0.000000
-11.902400 0.000000
-11.855400 0.000000
-11.808400 0.000000
-11.761500 0.000000
-11.714500 0.000000
-11.667600 0.000000
-11.620600 0.000000
-11.573600 0.000000
-11.526700 0.000000
-11.479700 0.000000
-11.432700 0.000000
-11.385800 0.000000
-11.338800 0.000000
-11.291900 0.000000
-11.244900 0.000000
-11.197900 0.000000
-11.151000 0.000000
-11.104000 0.000000
-11.057000 0.000000
-11.010100 0.000000
-10.963100 0.000000
-10.916200 0.000000
-10.869200 0.000000
-10.822200 0.000000
-10.775300 0.000000
-10.728300 0.000000
-10.681300 0.000000
-10.634400 0.000000
-10.587400 0.000000
-10.540500 0.000000
-10.493500 0.000000
-10.446500 0.000000
-10.399600 0.000000
-10.352600 0.000000
-10.305600 0.000000
-10.258700 0.000000
-10.211700 0.000000
-10.164800 0.000000
-10.117800 0.000000
-10.070800 0.000000
-10.023900 0.000000
-9.976900 0.000000
-9.929900 0.000000
-9.883000 0.000000
-9.836000 0.000000
-9.789100 0.000000
-9.742100 0.000000
-9.695100 0.000000
-9.648200 0.000000
-9.601200 0.000000
-9.554200 0.000000
-9.507300 0.000000
-9.460300 0.000000
-9.413400 0.000000
-9.366400 0.000000
-9.319400 0.000000
-9.272500 0.000000
-9.225500 0.000000
-9.178500 0.000000
-9.131600 0.000000
-9.084600 0.000000
-9.037700 0.000000
-8.990700 0.000000
-8.943700 0.000000
-8.896800 0.000000
-8.849800 0.000000
-8.802800 0.000000
-8.755900 0.000000
-8.708900 0.000000
-8.662000 0.000000
-8.615000 0.000000
-8.568000 0.000000
-8.521100 0.000000
-8.474100 0.000000
-8.427100 0.000000
-8.380200 0.000000
-8.333200 0.000000
-8.286300 0.000000
-8.239300 0.000000
-8.192300 0.000000
-8.145400 0.000000
-8.098400 0.000000
-8.051400 0.000000
-8.004500 0.000000
-7.957500 0.000000
-7.910600 0.000000
-7.863600 0.000000
-7.816600 0.000000
-7.769700 0.000000
-7.722700 0.000000
-7.675700 0.000000
-7.628800 0.000000
-7.581800 0.000000
-7.534900 0.000000
-7.487900 0.000000
-7.440900 0.000000
-7.394000 0.000000
-7.347000 0.000000
-7.300000 0.000000
-7.253100 0.000000
-7.206100 0.000000
-7.159200 0.000000
-7.112200 0.000000
-7.065200 0.000000
-7.018300 0.000000
-6.971300 0.000000
-6.924400 0.000000
-6.877400 0.000000
-6.830400 0.000000
-6.783500 0.000000
-6.736500 0.000000
-6.689500 0.000000
-6.642600 0.000000
-6.595600 0.000000
-6.548700 0.000000
-6.501700 0.000000
-6.454700 0.000000
-6.407800 0.000000
-6.360800 0.000000
-6.313800 0.000000
-6.266900 0.000000
-6.219900 0.000000
-6.173000 0.000000
-6.126000 0.000000
-6.079000 0.000000
-6.032100 0.000000
-5.985100 0.000000
-5.938100 0.000000
-5.891200 0.000000
-5.844200 0.000000
-5.797300 0.000000
-5.750300 0.000000
-5.703300 0.000000
-5.656400 0.000000
-5.609400 0.000000
-5.562400 0.000000
-5.515500 0.000000
-5.468500 0.000000
-5.421600 0.000000
-5.374600 0.000000
-5.327600 0.000000
-5.280700 0.000000
-5.233700 0.000000
-5.186700 0.000000
-5.139800 0.000000
-5.092800 0.000000
-5.045900 0.000000
-4.998900 0.000000
-4.951900 0.000000
-4.905000 0.000000
-4.858000 0.000000
-4.811000 0.000000
-4.764100 0.000000
-4.717100 0.000000
-4.670200 0.000000
-4.623200 0.000000
-4.576200 0.000000
-4.529300 0.000000
-4.482300 0.000000
-4.435300 0.000000
-4.388400 0.000000
-4.341400 0.000000
-4.294500 0.000000
-4.247500 0.000000
-4.200500 0.000000
-4.153600 0.000000
-4.106600 0.000000
-4.059600 0.000000
-4.012700 0.000000
-3.965700 0.000000
-3.918800 0.000000
-3.871800 0.000000
-3.824800 0.000000
-3.777900 0.000000
-3.730900 0.000000
-3.683900 0.000000
-3.637000 0.000000
-3.590000 0.000000
-3.543100 0.000000
-3.496100 0.000000
-3.449100 0.000000
-3.402200 0.000000
-3.355200 0.000000
-3.308200 0.000000
-3.261300 0.000000
-3.214300 0.000000
-3.167400 0.000000
-3.120400 0.000000
-3.073400 0.000000
-3.026500 0.000000
-2.979500 0.000000
-2.932500 0.000000
-2.885600 0.000000
-2.838600 0.000000
-2.791700 0.000000
-2.744700 0.000000
-2.697700 0.000000
-2.650800 0.000000
-2.603800 0.000000
-2.556800 0.000000
-2.509900 0.000000
-2.462900 0.000000
-2.416000 0.000000
-2.369000 0.000000
-2.322000 0.000000
-2.275100 1.699200
-2.228100 4.445200
-2.181100 5.607600
-2.134200 5.713800
-2.087200 6.405000
-2.040300 6.831500
-1.993300 6.981700
-1.946300 5.766900
-1.899400 12.058800
-1.852400 9.969300
-1.805400 11.058300
-1.758500 12.454800
-1.711500 7.558100
-1.664600 9.640200
-1.617600 9.130300
-1.570600 4.972300
-1.523700 4.691300
-1.476700 4.906200
-1.429700 6.076700
-1.382800 8.357700
-1.335800 8.138800
-1.288900 8.367500
-1.241900 8.407900
-1.194900 6.932800
-1.148000 7.171300
-1.101000 6.810700
-1.054100 9.137700
-1.007100 9.368900
-0.960100 8.072100
-0.913200 9.100900
-0.866200 8.598400
-0.819200 6.228800
-0.772300 7.807700
-0.725300 8.124800
-0.678400 6.434800
-0.631400 7.078600
-0.584400 10.467700
-0.537500 10.580500
-0.490500 11.547100
-0.443500 7.152900
-0.396600 5.899500
-0.349600 9.650900
-0.302700 12.260300
-0.255700 9.688500
-0.208700 10.121500
-0.161800 10.124000
-0.114800 11.308700
-0.067800 10.429500
-0.020900 13.073700
0.026100 14.394900
0.073000 13.252400
0.120000 9.480200
0.167000 9.943900
0.213900 6.461000
0.260900 8.878900
0.307900 5.156600
0.354800 2.427500
0.401800 3.695000
0.448700 5.191700
0.495700 6.089600
0.542700 6.544800
0.589600 5.710500
0.636600 3.776100
0.683600 5.343300
0.730500 7.357500
0.777500 10.662500
0.824400 10.775700
0.871400 8.787000
0.918400 10.491600
0.965300 10.599700
1.012300 11.239200
1.059300 11.738500
1.106200 11.245800
1.153200 9.697000
1.200100 13.601400
1.247100 9.965100
1.294100 6.534500
1.341000 8.379200
1.388000 10.698800
1.435000 8.557700
1.481900 8.847000
1.528900 5.334300
1.575800 4.748300
1.622800 7.463400
1.669800 11.144100
1.716700 12.085800
1.763700 16.900900
1.810700 11.887100
1.857600 7.397200
1.904600 2.722400
1.951500 1.985100
1.998500 1.364100
2.045500 0.653000
2.092400 0.310300
2.139400 0.000000
2.186400 0.000000
2.233300 0.000000
2.280300 0.000000
2.327200 0.000000
2.374200 0.000000
2.421200 0.000000
2.468100 0.000000
2.515100 0.000000
2.562100 0.000000
2.609000 0.000000
2.656000 0.000000
2.702900 0.000000
2.749900 0.000000
2.796900 0.000000
2.843800 0.000000
2.890800 0.000000
2.937800 0.000000
2.984700 0.000000
3.031700 0.000000
3.078600 0.000000
3.125600 0.000000
3.172600 0.000000
3.219500 0.000000
3.266500 0.000000
3.313500 0.000000
3.360400 0.000000
3.407400 0.000000
3.454300 0.000000
3.501300 0.000000
3.548300 0.000000
3.595200 0.000000
3.642200 5.013300
3.689200 10.632300
3.736100 12.105600
3.783100 16.216700
3.830000 11.099300
3.877000 11.099800
3.924000 11.209600
3.970900 9.212500
4.017900 10.897200
4.064900 13.695500
4.111800 14.627900
4.158800 12.421900
4.205700 13.514400
4.252700 10.304200
4.299700 12.487000
4.346600 16.772200
4.393600 10.760700
4.440500 12.437000
4.487500 20.968200
4.534500 12.693300
4.581400 3.851000
4.628400 3.804800
4.675400 4.853100
4.722300 13.498200
4.769300 14.728900
4.816200 21.816400
4.863200 17.134300
4.910200 5.389600
4.957100 3.784900
5.004100 2.851000
5.051100 2.232000
5.098000 0.822200
5.145000 0.180400
5.191900 0.512900
5.238900 0.594700
5.285900 0.716100
5.332800 0.869700
5.379800 1.038500
5.426800 1.265500
5.473700 1.505000
5.520700 1.776800
5.567600 2.164000
5.614600 2.584200
5.661600 3.191200
5.708500 3.821900
5.755500 5.099000
5.802500 6.617600
5.849400 13.500800
5.896400 12.112200
5.943300 9.969600
5.990300 8.052800
6.037300 5.294100
6.084200 2.991300
6.131200 0.071400
6.178200 6.894100
6.225100 10.881200
6.272100 18.862000
6.319000 8.188800
6.366000 10.836900
6.413000 8.129000
6.459900 6.211700
6.506900 4.260800
6.553900 3.070700
6.600800 2.192300
6.647800 1.404200
6.694700 0.429000
6.741700 0.000000
6.788700 0.000000
6.835600 0.000000
6.882600 0.000000
6.929600 3.749500
6.976500 5.239200
7.023500 6.470300
7.070400 6.357500
7.117400 6.916700
7.164400 7.494100
7.211300 4.775700
7.258300 8.046900
7.305300 13.446400
7.352200 15.084100
7.399200 11.030800
7.446100 11.707200
7.493100 11.245100
7.540100 10.319900
7.587000 10.143800
7.634000 9.469200
7.681000 15.155200
7.727900 10.605700
7.774900 7.573500
7.821800 11.341300
7.868800 11.767900
7.915800 9.739600
7.962700 9.845100
8.009700 9.434000
8.056700 11.096200
8.103600 5.950700
8.150600 4.889700
8.197500 7.930300
8.244500 12.050900
8.291500 17.635300
8.338400 9.093900
8.385400 5.524100
8.432400 8.516500
8.479300 6.327500
8.526300 5.747400
8.573200 5.882300
8.620200 5.251600
8.667200 3.118900
8.714100 0.839900
8.761100 0.000000
8.808100 0.000000
8.855000 0.000000
8.902000 0.000000
8.948900 0.000000
8.995900 0.000000
9.042900 0.000000
9.089800 0.000000
9.136800 0.000000
9.183800 0.015900
9.230700 0.045500
9.277700 0.072600
9.324600 0.088700
9.371600 0.102600
9.418600 0.117900
9.465500 0.126100
9.512500 0.137000
9.559500 0.149200
9.606400 0.161900
9.653400 0.174500
9.700300 0.185700
9.747300 0.197000
9.794300 0.208400
9.841200 0.219200
9.888200 0.229300
9.935200 0.239000
9.982100 0.250000
10.029100 0.261300
10.076000 0.272700
10.123000 0.284300
10.170000 0.296100
10.216900 0.308300
10.263900 0.320700
10.310800 0.333100
10.357800 0.345700
10.404800 0.358400
10.451700 0.371300
10.498700 0.384300
10.545700 0.397400
10.592600 0.410600
10.639600 0.424000
10.686500 0.437400
10.733500 0.451000
10.780500 0.464700
10.827400 0.480200
10.874400 0.496200
10.921400 0.512600
10.968300 0.530100
11.015300 0.547700
11.062200 0.565400
11.109200 0.583200
11.156200 0.601600
11.203100 0.623800
11.250100 0.647900
11.297100 0.669300
11.344000 0.688200
11.391000 0.704500
11.437900 0.718400
11.484900 0.733900
11.531900 0.780500
11.578800 0.784200
11.625800 0.793600
11.672800 0.806700
11.719700 0.931400
11.766700 0.891200
11.813600 0.925800
11.860600 0.967400
11.907600 1.038100
11.954500 1.101000
12.001500 1.164500
12.048500 1.224000
12.095400 1.243100
12.142400 1.245500
12.189300 1.322300
12.236300 1.371300
12.283300 1.287600
12.330200 1.291000
12.377200 1.343700
12.424200 1.436900
12.471100 1.479600
12.518100 1.628500
12.565000 1.736200
12.612000 1.874700
12.659000 1.556800
12.705900 1.417500
12.752900 1.535100
12.799900 1.704700
12.846800 2.125700
12.893800 2.470800
12.940700 2.381700
12.987700 2.089400
13.034700 1.890200
13.081600 1.814000
13.128600 1.837300
13.175600 1.808900
13.222500 1.747600
13.269500 1.694500
13.316400 1.614200
13.363400 1.594900
13.410400 1.527800
13.457300 1.348100
13.504300 1.628800
13.551300 1.991200
13.598200 2.194400
13.645200 2.389700
13.692100 2.151900
13.739100 2.036700
13.786100 1.907500
13.833000 1.883000
13.880000 1.884200
13.927000 2.019700
13.973900 2.499300
14.020900 2.746500
14.067800 2.849500
14.114800 2.939400
14.161800 2.850700
14.208700 3.275000
14.255700 3.513000
14.302700 3.638000
14.349600 3.537300
14.396600 3.269800
14.443500 2.781700
14.490500 2.540700
14.537500 2.402300
14.584400 2.493900
14.631400 3.049600
14.678400 2.885600
14.725300 2.747000
14.772300 2.369800
14.819200 2.105200
14.866200 2.079700
14.913200 2.015500
14.960100 2.007400
15.007100 2.092700
15.054100 2.334300
15.101000 2.567800
15.148000 2.894000
15.194900 3.435200
15.241900 3.975300
15.288900 3.857000
15.335800 3.359400
15.382800 2.853400
15.429800 2.458100
15.476700 2.291900
15.523700 2.170800
15.570600 2.037300
15.617600 1.949700
15.664600 2.006600
15.711500 2.044700
15.758500 2.075000
15.805400 2.114900
15.852400 2.076600
15.899400 2.101100
15.946300 2.110100
15.993300 2.038300
16.040300 1.892200
16.087200 1.850900
16.134200 1.785600
16.181100 1.623600
16.228100 1.636000
16.275100 1.595600
16.322000 1.607100
16.369000 1.720300
16.416000 2.190800
16.462900 3.041600
16.509900 3.580300
16.556800 3.485300
16.603800 3.222200
16.650800 3.109200
16.697700 3.717200
16.744700 4.586700
16.791700 4.562000
16.838600 4.290100
16.885600 5.484700
16.932500 5.281000
16.979500 5.714300
17.026500 8.791200
17.073400 7.807400
17.120400 6.764100
17.167400 5.365300
17.214300 4.534400
17.261300 4.092000
17.308200 4.160600
17.355200 4.661800
17.402200 5.257300
17.449100 6.169000
17.496100 5.923900
17.543100 3.456700
17.590000 9.088400
17.637000 6.224300
17.683900 8.543900
17.730900 6.927700
17.777900 5.744600
17.824800 6.482100
17.871800 6.091100
17.918800 5.719200
17.965700 7.246500
18.012700 8.785700
18.059600 4.599300
18.106600 2.788600
18.153600 2.172000
18.200500 2.519400
18.247500 2.267500
18.294500 2.268000
18.341400 2.350300
18.388400 2.183400
18.435300 2.321000
18.482300 2.432900
18.529300 3.049600
18.576200 3.965500
18.623200 4.292800
18.670200 4.260000
18.717100 4.575000
18.764100 4.502300
18.811000 4.926300
18.858000 5.265500
18.905000 4.765700
18.951900 6.179200
18.998900 5.745400
19.045900 5.116300
19.092800 5.232100
19.139800 5.568400
19.186700 5.653300
19.233700 5.677500
19.280700 5.541100
19.327600 4.318700
19.374600 4.606500
19.421600 5.051500
19.468500 5.411000
19.515500 5.161300
19.562400 4.604200
19.609400 3.696300
19.656400 2.712800
19.703300 2.357900
19.750300 2.893200
19.797300 3.624500
19.844200 3.544300
19.891200 3.682600
19.938100 3.343900
19.985100 4.035800
20.032100 4.351600
20.079000 4.604900
20.126000 5.219800
20.173000 5.589600
20.219900 5.398400
20.266900 5.589200
20.313800 5.111600
20.360800 3.993500
20.407800 3.330300
20.454700 3.112600
20.501700 3.109100
20.548700 3.264100
20.595600 3.278300
20.642600 3.815300
20.689500 4.461900
20.736500 4.604200
20.783500 5.179500
20.830400 4.024900
20.877400 3.604600
20.924400 2.507800
20.971300 2.142300
21.018300 2.463000
21.065200 3.082400
21.112200 3.439700
21.159200 4.592000
21.206100 4.043500
21.253100 3.257400
21.300100 3.405700
21.347000 3.626000
21.394000 4.273600
21.440900 4.771900
21.487900 4.321300
21.534900 4.038100
21.581800 3.307500
21.628800 2.614100
21.675700 2.484900
21.722700 2.438600
21.769700 2.565100
21.816600 2.839800
21.863600 3.311700
21.910600 3.705000
21.957500 3.570200
22.004500 3.421000
22.051400 3.415800
22.098400 3.259600
22.145400 2.798900
22.192300 2.608800
22.239300 2.124100
22.286300 1.954000
22.333200 1.856600
22.380200 1.827000
22.427100 1.829800
22.474100 1.851800
22.521100 1.901100
22.568000 1.949100
22.615000 2.251600
22.662000 2.477200
22.708900 2.935800
22.755900 3.516800
22.802800 3.305800
22.849800 2.737200
22.896800 2.496800
22.943700 2.375000
22.990700 3.138000
23.037700 3.172700
23.084600 3.217000
23.131600 3.429000
23.178500 3.521000
23.225500 3.517900
23.272500 3.788200
23.319400 3.683400
23.366400 3.562000
23.413400 3.378000
23.460300 3.432600
23.507300 3.690500
23.554200 2.889500
23.601200 2.239600
23.648200 2.140700
23.695100 2.199700
23.742100 2.783000
23.789100 3.628400
23.836000 4.832200
23.883000 4.734400
23.929900 4.852700
23.976900 5.771600
24.023900 6.759000
24.070800 5.212600
24.117800 3.809700
24.164800 4.210500
24.211700 7.173200
24.258700 5.220900
24.305600 5.270900
24.352600 5.228900
24.399600 5.577900
24.446500 5.848500
24.493500 5.425000
24.540500 5.167700
24.587400 4.917000
24.634400 4.706700
24.681300 4.348200
24.728300 4.188800
24.775300 4.024000
24.822200 4.184800
24.869200 4.105000
24.916200 3.895900
24.963100 3.698800
25.010100 3.471000
25.057000 3.223300
25.104000 2.999600
25.151000 2.827000
25.197900 2.692200
25.244900 2.610400
25.291900 2.579000
25.338800 2.302700
25.385800 2.115100
25.432700 1.961700
25.479700 1.835200
25.526700 1.655100
25.573600 1.492000
25.620600 1.391100
25.667600 1.322300
25.714500 1.245000
25.761500 1.244700
25.808400 1.390300
25.855400 1.487500
25.902400 1.662100
25.949300 1.897900
25.996300 2.200000
26.043300 2.665000
26.090200 2.732400
26.137200 2.542600
26.184100 2.516300
26.231100 2.556900
26.278100 2.568500
26.325000 2.553200
26.372000 2.385100
26.419000 1.999500
26.465900 1.698500
26.512900 1.509100
26.559800 1.415500
26.606800 1.480300
26.653800 1.391700
26.700700 1.549900
26.747700 1.783300
26.794700 1.919300
26.841600 2.172900
26.888600 2.904400
26.935500 3.097100
26.982500 3.171500
27.029500 3.261500
27.076400 3.069800
27.123400 2.834700
27.170300 2.677900
27.217300 2.525300
27.264300 2.686400
27.311200 2.978300
27.358200 3.164100
27.405200 3.072400
27.452100 3.011800
27.499100 3.067000
27.546000 3.183300
27.593000 3.556400
27.640000 4.132700
27.686900 4.186400
27.733900 4.078600
27.780900 3.900900
27.827800 4.182500
27.874800 4.513100
27.921700 4.997000
27.968700 5.124200
28.015700 4.761800
28.062600 5.405200
28.109600 5.768000
28.156600 5.530100
28.203500 4.498300
28.250500 3.651000
28.297400 3.370300
28.344400 3.112300
28.391400 3.355200
28.438300 3.992400
28.485300 4.333900
28.532300 4.139300
28.579200 4.313200
28.626200 3.931100
28.673100 3.910600
28.720100 4.251400
28.767100 4.276200
28.814000 4.367200
28.861000 3.967000
28.908000 3.342300
28.954900 3.012100
29.001900 2.952400
29.048800 3.323600
29.095800 3.283300
29.142800 3.398000
29.189700 3.254900
29.236700 3.204200
29.283700 2.802800
29.330600 2.552400
29.377600 2.349000
29.424500 2.167500
29.471500 2.204900
29.518500 2.701200
29.565400 2.802900
29.612400 3.265900
29.659400 3.029400
29.706300 2.938600
29.753300 3.052000
29.800200 2.910700
29.847200 3.139900
29.894200 3.172900
29.941100 3.311600
29.988100 3.507500
30.035100 3.827000
30.082000 3.881000
30.129000 3.842700
30.175900 3.582800
30.222900 3.694500
30.269900 3.662000
30.316800 4.124200
30.363800 4.697500
30.410800 4.206600
30.457700 3.985300
30.504700 3.397800
30.551600 3.353000
30.598600 4.021100
30.645600 4.135600
30.692500 4.898400
30.739500 5.308200
30.786500 4.537700
30.833400 4.005100
30.880400 3.556800
30.927300 3.136200
30.974300 3.148500
31.021300 3.582200
31.068200 3.713400
31.115200 3.598300
31.162200 4.024100
31.209100 4.268400
31.256100 4.281600
31.303000 4.281800
31.350000 4.073100
31.397000 3.947200
31.443900 3.648600
31.490900 3.450100
31.537900 3.313500
31.584800 3.233800
31.631800 3.508700
31.678700 4.633300
31.725700 4.649300
31.772700 4.176800
31.819600 3.784400
31.866600 3.734100
31.913600 3.586000
31.960500 3.572700
32.007500 3.438500
32.054400 3.614100
32.101400 3.968500
32.148400 4.710000
32.195300 5.242200
32.242300 5.335000
32.289300 4.795600
32.336200 4.664700
32.383200 4.505800
32.430100 4.011100
32.477100 3.388200
32.524100 3.149500
32.571000 3.122300
32.618000 3.187900
32.665000 3.302300
32.711900 3.452100
32.758900 3.706300
32.805800 4.072000
32.852800 4.227900
32.899800 3.517600
32.946700 4.155000
32.993700 4.583500
33.040600 4.832000
33.087600 4.352300
33.134600 3.282200
33.181500 2.911200
33.228500 2.653800
33.275500 2.917800
33.322400 2.779300
33.369400 3.189400
33.416300 3.562600
33.463300 4.197600
33.510300 5.074600
33.557200 4.690100
33.604200 4.337600
33.651200 4.056700
33.698100 4.426900
33.745100 4.439100
33.792000 4.443500
33.839000 4.325400
33.886000 4.363100
33.932900 4.615000
33.979900 4.847800
34.026900 4.990200
34.073800 5.623300
34.120800 4.717000
34.167700 4.996300
34.214700 5.090300
34.261700 5.369200
34.308600 4.927000
34.355600 5.537200
34.402600 6.521700
34.449500 6.652700
34.496500 5.265400
34.543400 5.172800
34.590400 4.387300
34.637400 3.644800
34.684300 3.383000
34.731300 3.109700
34.778300 3.248300
34.825200 3.440200
34.872200 3.922800
34.919100 4.631400
34.966100 4.938400
35.013100 5.052800
35.060000 5.988500
35.107000 6.179600
35.154000 5.179300
35.200900 5.171300
35.247900 5.446200
35.294800 6.314800
35.341800 6.706800
35.388800 6.702700
35.435700 6.399900
35.482700 5.349500
35.529700 4.710200
35.576600 4.600600
35.623600 4.791700
35.670500 4.770600
35.717500 5.324100
35.764500 5.704500
35.811400 5.346100
35.858400 5.097900
35.905400 5.886000
35.952300 5.986200
35.999300 5.175800
36.046200 4.127900
36.093200 4.832300
36.140200 6.871300
36.187100 8.894500
36.234100 9.134200
36.281100 9.538700
36.328000 7.915900
36.375000 8.457800
36.421900 9.916200
36.468900 8.819600
36.515900 8.284000
36.562800 7.783800
36.609800 9.883100
36.656800 10.437500
36.703700 12.220600
36.750700 14.956000
36.797600 14.017500
36.844600 13.633700
36.891600 15.842600
36.938500 17.754000
36.985500 15.092900
37.032500 13.218300
37.079400 11.114400
37.126400 10.040800
37.173300 9.821600
37.220300 6.540800
37.267300 5.435900
37.314200 5.265700
37.361200 4.913900
37.408200 4.939600
37.455100 5.416500
37.502100 7.432400
37.549000 6.377400
37.596000 6.325900
37.643000 6.137500
37.689900 7.052300
37.736900 7.407700
37.783900 6.989900
37.830800 5.110500
37.877800 4.813100
37.924700 5.044200
37.971700 5.602800
38.018700 5.673800
38.065600 4.818800
38.112600 3.999700
38.159600 4.396500
38.206500 4.419200
38.253500 4.970600
38.300400 5.593900
38.347400 7.064900
38.394400 5.905100
38.441300 5.315800
38.488300 5.262200
38.535300 5.664900
38.582200 6.498000
38.629200 8.034600
38.676100 5.949000
38.723100 6.360500
38.770100 5.689300
38.817000 5.201100
38.864000 5.098200
38.910900 4.864200
38.957900 5.328200
39.004900 6.262600
39.051800 5.128800
39.098800 4.741600
39.145800 4.597000
39.192700 5.209900
39.239700 6.161800
39.286600 5.154600
39.333600 5.361600
39.380600 5.490600
39.427500 6.143600
39.474500 7.163600
39.521500 5.814700
39.568400 4.903700
39.615400 4.743800
39.662300 4.900400
39.709300 4.811200
39.756300 4.606600
39.803200 5.215300
39.850200 5.588200
39.897200 5.465900
39.944100 5.039400
39.991100 5.001000
40.038000 5.298200
40.085000 5.115600
40.132000 4.977500
40.178900 4.819500
40.225900 5.022600
40.272900 5.496300
40.319800 5.499000
40.366800 5.839700
40.413700 6.200300
40.460700 5.988800
40.507700 6.378400
40.554600 7.238400
40.601600 6.240500
40.648600 5.999200
40.695500 7.894400
40.742500 7.292500
40.789400 7.175600
40.836400 7.433300
40.883400 6.123900
40.930300 5.195200
40.977300 4.293800
41.024300 4.687200
41.071200 7.016500
41.118200 7.318900
41.165100 6.271900
41.212100 5.219400
41.259100 4.348900
41.306000 4.424500
41.353000 4.871900
41.400000 6.192300
41.446900 6.207700
41.493900 7.090400
41.540800 7.894400
41.587800 6.979000
41.634800 4.952500
41.681700 4.555000
41.728700 5.215700
41.775700 5.279200
41.822600 6.662900
41.869600 4.890100
41.916500 5.308600
41.963500 4.699300
42.010500 4.490500
42.057400 4.911400
42.104400 4.725800
42.151400 4.186400
42.198300 4.744000
42.245300 5.144900
42.292200 5.595600
42.339200 6.092600
42.386200 8.089800
42.433100 6.491400
42.480100 5.595100
42.527100 5.935600
42.574000 6.008900
42.621000 6.710900
42.667900 7.423300
42.714900 7.240700
42.761900 6.568100
42.808800 4.899700
42.855800 5.003900
42.902800 5.792600
42.949700 6.063600
42.996700 7.345500
43.043600 6.812100
43.090600 7.381600
43.137600 7.026200
43.184500 5.083300
43.231500 4.805900
43.278500 5.367500
43.325400 5.610500
43.372400 4.749100
43.419300 3.980800
43.466300 4.878400
43.513300 5.941400
43.560200 6.132700
43.607200 5.648500
43.654200 5.279800
43.701100 4.718400
43.748100 4.182400
43.795000 4.697500
43.842000 5.658100
43.889000 6.741400
43.935900 5.573900
43.982900 4.635200
44.029900 4.025400
44.076800 4.154100
44.123800 3.736000
44.170700 3.740600
44.217700 4.026100
44.264700 4.838800
44.311600 4.748200
44.358600 4.694200
44.405500 4.273700
44.452500 4.405600
44.499500 4.832500
44.546400 4.911400
44.593400 4.978100
44.640400 5.022700
44.687300 4.823500
44.734300 4.640300
44.781200 4.621900
44.828200 4.608500
44.875200 4.559700
44.922100 4.255900
44.969100 3.616800
45.016100 3.268700
45.063000 2.951300
45.110000 2.747900
45.156900 2.556200
45.203900 2.451400
45.250900 2.293800
45.297800 2.212800
45.344800 2.027600
45.391800 1.884400
45.438700 1.604600
45.485700 1.353400
45.532600 1.279500
45.579600 1.208000
45.626600 1.215000
45.673500 1.250700
45.720500 0.738700
45.767500 0.590200
45.814400 0.537500
45.861400 0.474300
45.908300 0.401300
45.955300 0.305400
46.002300 0.100400
46.049200 0.000400
46.096200 0.000000
46.143200 0.000000
46.190100 0.000000
46.237100 0.000000
46.284000 0.000000
46.331000 0.000000
46.378000 0.000000
46.424900 0.000000
46.471900 0.000000
46.518900 0.000000
46.565800 0.000000
46.612800 0.000000
46.659700 0.000000
46.706700 0.000000
46.753700 0.000000
46.800600 0.000000
46.847600 0.000000
46.894600 0.000000
46.941500 0.000000
46.988500 0.000000
47.035400 0.000000
47.082400 0.000000
47.129400 0.000000
47.176300 0.000000
47.223300 0.000000
47.270300 0.000000
47.317200 0.000000
47.364200 0.000000
47.411100 0.000000
47.458100 0.000000
47.505100 0.000000
47.552000 0.000000
47.599000 0.000000
47.646000 0.000000
47.692900 0.000000
47.739900 0.000000
47.786800 0.000000
47.833800 0.000000
47.880800 0.000000
47.927700 0.000000
47.974700 0.000000
48.021700 0.000000
48.068600 0.000000
48.115600 0.000000
48.162500 0.000000
48.209500 0.000000
48.256500 0.000000
48.303400 0.000000
48.350400 0.000000
48.397400 0.000000
48.444300 0.000000
48.491300 0.000000
48.538200 0.000000
48.585200 0.000000
48.632200 0.000000
48.679100 0.000000
48.726100 0.000000
48.773100 0.000000
48.820000 0.000000
48.867000 0.000000
48.913900 0.000000
48.960900 0.000000
49.007900 0.000000
49.054800 0.000000
49.101800 0.000000
49.148800 0.000000
49.195700 0.000000
49.242700 0.000000
49.289600 0.000000
49.336600 0.000000
49.383600 0.000000
49.430500 0.000000
49.477500 0.000000
49.524500 0.000000
49.571400 0.000000
49.618400 0.000000
49.665300 0.000000
49.712300 0.000000
49.759300 0.000000
49.806200 0.000000
49.853200 0.000000
49.900200 0.000000
49.947100 0.000000
49.994100 0.000000
50.041000 0.000000
50.088000 0.000000
50.135000 0.000000
50.181900 0.000000
50.228900 0.000000
50.275800 0.000000
50.322800 0.000000
e
