set title 'mp-1187647 - Density of States'
set xlabel 'Energy (eV)'
set ylabel 'DOS (states/eV)'
set grid
set xrange [-10:10]
set yrange [0:8.414]
set xzeroaxis lt -1
set terminal png size 800,600
set output 'mp-1187647_dos_gnuplot.png'
plot '-' using 1:2 with lines title 'DOS'
-23.289000 0.000000
-23.266200 0.000000
-23.243500 0.000000
-23.220800 0.000000
-23.198100 0.000000
-23.175400 0.000000
-23.152700 0.000000
-23.130000 0.000000
-23.107300 0.000000
-23.084600 0.000000
-23.061900 0.000000
-23.039200 0.000000
-23.016500 0.000000
-22.993800 0.000000
-22.971100 0.000000
-22.948400 0.000000
-22.925700 0.000000
-22.903000 0.000000
-22.880200 0.000000
-22.857500 0.000000
-22.834800 0.000000
-22.812100 0.000000
-22.789400 0.000000
-22.766700 0.000000
-22.744000 0.000000
-22.721300 0.000000
-22.698600 0.000000
-22.675900 0.000000
-22.653200 0.000000
-22.630500 0.000000
-22.607800 0.000000
-22.585100 0.000000
-22.562400 0.000000
-22.539700 0.000000
-22.517000 0.000000
-22.494300 0.000000
-22.471500 0.000000
-22.448800 0.000000
-22.426100 0.000000
-22.403400 0.000000
-22.380700 0.000000
-22.358000 0.000000
-22.335300 0.000000
-22.312600 0.000000
-22.289900 0.000000
-22.267200 0.000000
-22.244500 0.000000
-22.221800 0.000000
-22.199100 0.000000
-22.176400 0.000000
-22.153700 0.000000
-22.131000 0.000000
-22.108300 0.000000
-22.085500 0.000000
-22.062800 0.000000
-22.040100 0.000000
-22.017400 0.000000
-21.994700 0.000000
-21.972000 0.000000
-21.949300 0.000000
-21.926600 0.000000
-21.903900 0.000000
-21.881200 0.000000
-21.858500 0.000000
-21.835800 0.000000
-21.813100 0.000000
-21.790400 0.000000
-21.767700 0.000000
-21.745000 0.000000
-21.722300 0.000000
-21.699600 0.000000
-21.676800 0.000000
-21.654100 0.000000
-21.631400 0.000000
-21.608700 0.000000
-21.586000 0.000000
-21.563300 0.000000
-21.540600 0.000000
-21.517900 0.000000
-21.495200 0.000000
-21.472500 0.000000
-21.449800 0.000000
-21.427100 0.000000
-21.404400 0.000000
-21.381700 0.000000
-21.359000 0.000100
-21.336300 0.001500
-21.313600 0.012900
-21.290800 0.078000
-21.268100 0.334700
-21.245400 1.047600
-21.222700 2.504600
-21.200000 4.859200
-21.177300 8.085500
-21.154600 11.856900
-21.131900 15.369900
-21.109200 17.701800
-21.086500 18.823100
-21.063800 20.224100
-21.041100 23.627600
-21.018400 28.574100
-20.995700 32.298400
-20.973000 32.613900
-20.950300 30.047200
-20.927600 26.898700
-20.904900 25.257600
-20.882100 25.950600
-20.859400 28.421900
-20.836700 31.211900
-20.814000 32.974200
-20.791300 33.617700
-20.768600 33.927400
-20.745900 33.747400
-20.723200 32.015200
-20.700500 28.986700
-20.677800 26.696300
-20.655100 26.738500
-20.632400 28.746100
-20.609700 30.900300
-20.587000 30.874600
-20.564300 27.070400
-20.541600 20.012300
-20.518900 12.091400
-20.496100 5.771900
-20.473400 2.096700
-20.450700 0.560000
-20.428000 0.107100
-20.405300 0.014400
-20.382600 0.001300
-20.359900 0.000100
-20.337200 0.000000
-20.314500 0.000000
-20.291800 0.000000
-20.269100 0.000000
-20.246400 0.000000
-20.223700 0.000000
-20.201000 0.000000
-20.178300 0.000000
-20.155600 0.000000
-20.132900 0.000000
-20.110200 0.000000
-20.087400 0.000000
-20.064700 0.000000
-20.042000 0.000000
-20.019300 0.000000
-19.996600 0.000000
-19.973900 0.000000
-19.951200 0.000000
-19.928500 0.000000
-19.905800 0.000000
-19.883100 0.000000
-19.860400 0.000000
-19.837700 0.000000
-19.815000 0.000000
-19.792300 0.000000
-19.769600 0.000000
-19.746900 0.000000
-19.724200 0.000000
-19.701400 0.000000
-19.678700 0.000000
-19.656000 0.000000
-19.633300 0.000000
-19.610600 0.000000
-19.587900 0.000000
-19.565200 0.000000
-19.542500 0.000000
-19.519800 0.000000
-19.497100 0.000000
-19.474400 0.000000
-19.451700 0.000000
-19.429000 0.000000
-19.406300 0.000000
-19.383600 0.000000
-19.360900 0.000000
-19.338200 0.000000
-19.315500 0.000000
-19.292700 0.000000
-19.270000 0.000000
-19.247300 0.000000
-19.224600 0.000000
-19.201900 0.000000
-19.179200 0.000000
-19.156500 0.000000
-19.133800 0.000000
-19.111100 0.000000
-19.088400 0.000000
-19.065700 0.000000
-19.043000 0.000000
-19.020300 0.000000
-18.997600 0.000000
-18.974900 0.000000
-18.952200 0.000000
-18.929500 0.000000
-18.906700 0.000000
-18.884000 0.000000
-18.861300 0.000000
-18.838600 0.000000
-18.815900 0.000000
-18.793200 0.000000
-18.770500 0.000000
-18.747800 0.000000
-18.725100 0.000000
-18.702400 0.000000
-18.679700 0.000000
-18.657000 0.000000
-18.634300 0.000000
-18.611600 0.000000
-18.588900 0.000000
-18.566200 0.000000
-18.543500 0.000000
-18.520800 0.000000
-18.498000 0.000000
-18.475300 0.000000
-18.452600 0.000000
-18.429900 0.000000
-18.407200 0.000000
-18.384500 0.000000
-18.361800 0.000000
-18.339100 0.000000
-18.316400 0.000000
-18.293700 0.000000
-18.271000 0.000000
-18.248300 0.000000
-18.225600 0.000000
-18.202900 0.000000
-18.180200 0.000000
-18.157500 0.000000
-18.134800 0.000000
-18.112000 0.000000
-18.089300 0.000000
-18.066600 0.000000
-18.043900 0.000000
-18.021200 0.000000
-17.998500 0.000000
-17.975800 0.000000
-17.953100 0.000000
-17.930400 0.000000
-17.907700 0.000000
-17.885000 0.000000
-17.862300 0.000000
-17.839600 0.000000
-17.816900 0.000000
-17.794200 0.000000
-17.771500 0.000000
-17.748800 0.000000
-17.726000 0.000000
-17.703300 0.000000
-17.680600 0.000000
-17.657900 0.000000
-17.635200 0.000000
-17.612500 0.000000
-17.589800 0.000000
-17.567100 0.000000
-17.544400 0.000000
-17.521700 0.000000
-17.499000 0.000000
-17.476300 0.000000
-17.453600 0.000000
-17.430900 0.000000
-17.408200 0.000000
-17.385500 0.000000
-17.362800 0.000000
-17.340100 0.000000
-17.317300 0.000000
-17.294600 0.000000
-17.271900 0.000000
-17.249200 0.000000
-17.226500 0.000000
-17.203800 0.000000
-17.181100 0.000000
-17.158400 0.000000
-17.135700 0.000000
-17.113000 0.000000
-17.090300 0.000000
-17.067600 0.000000
-17.044900 0.000000
-17.022200 0.000000
-16.999500 0.000000
-16.976800 0.000000
-16.954100 0.000000
-16.931300 0.000000
-16.908600 0.000000
-16.885900 0.000000
-16.863200 0.000000
-16.840500 0.000000
-16.817800 0.000000
-16.795100 0.000000
-16.772400 0.000000
-16.749700 0.000000
-16.727000 0.000000
-16.704300 0.000000
-16.681600 0.000000
-16.658900 0.000000
-16.636200 0.000000
-16.613500 0.000000
-16.590800 0.000000
-16.568100 0.000000
-16.545400 0.000000
-16.522600 0.000000
-16.499900 0.000000
-16.477200 0.000100
-16.454500 0.001600
-16.431800 0.025500
-16.409100 0.267600
-16.386400 1.897600
-16.363700 9.103300
-16.341000 29.632700
-16.318300 65.700000
-16.295600 99.674300
-16.272900 104.032800
-16.250200 75.141700
-16.227500 37.771300
-16.204800 13.270100
-16.182100 3.264400
-16.159400 0.561500
-16.136600 0.067200
-16.113900 0.005600
-16.091200 0.000300
-16.068500 0.000000
-16.045800 0.000000
-16.023100 0.000000
-16.000400 0.000000
-15.977700 0.000000
-15.955000 0.000000
-15.932300 0.000000
-15.909600 0.000000
-15.886900 0.000000
-15.864200 0.000000
-15.841500 0.000000
-15.818800 0.000000
-15.796100 0.000000
-15.773400 0.000000
-15.750700 0.000000
-15.727900 0.000000
-15.705200 0.000000
-15.682500 0.000000
-15.659800 0.000000
-15.637100 0.000000
-15.614400 0.000000
-15.591700 0.000000
-15.569000 0.000000
-15.546300 0.000000
-15.523600 0.000000
-15.500900 0.000000
-15.478200 0.000000
-15.455500 0.000000
-15.432800 0.000000
-15.410100 0.000000
-15.387400 0.000000
-15.364700 0.000000
-15.341900 0.000000
-15.319200 0.000000
-15.296500 0.000000
-15.273800 0.000000
-15.251100 0.000000
-15.228400 0.000000
-15.205700 0.000000
-15.183000 0.000000
-15.160300 0.000000
-15.137600 0.000000
-15.114900 0.000000
-15.092200 0.000000
-15.069500 0.000000
-15.046800 0.000000
-15.024100 0.000000
-15.001400 0.000000
-14.978700 0.000000
-14.956000 0.000000
-14.933200 0.000000
-14.910500 0.000000
-14.887800 0.000000
-14.865100 0.000000
-14.842400 0.000000
-14.819700 0.000000
-14.797000 0.000000
-14.774300 0.000000
-14.751600 0.000000
-14.728900 0.000000
-14.706200 0.000000
-14.683500 0.000000
-14.660800 0.000000
-14.638100 0.000000
-14.615400 0.000000
-14.592700 0.000000
-14.570000 0.000000
-14.547200 0.000000
-14.524500 0.000000
-14.501800 0.000000
-14.479100 0.000000
-14.456400 0.000000
-14.433700 0.000000
-14.411000 0.000000
-14.388300 0.000000
-14.365600 0.000000
-14.342900 0.000000
-14.320200 0.000000
-14.297500 0.000000
-14.274800 0.000000
-14.252100 0.000000
-14.229400 0.000000
-14.206700 0.000000
-14.184000 0.000000
-14.161300 0.000000
-14.138500 0.000000
-14.115800 0.000000
-14.093100 0.000000
-14.070400 0.000000
-14.047700 0.000000
-14.025000 0.000000
-14.002300 0.000000
-13.979600 0.000000
-13.956900 0.000000
-13.934200 0.000000
-13.911500 0.000000
-13.888800 0.000000
-13.866100 0.000000
-13.843400 0.000000
-13.820700 0.000000
-13.798000 0.000000
-13.775300 0.000000
-13.752500 0.000000
-13.729800 0.000000
-13.707100 0.000000
-13.684400 0.000000
-13.661700 0.000000
-13.639000 0.000000
-13.616300 0.000000
-13.593600 0.000000
-13.570900 0.000000
-13.548200 0.000000
-13.525500 0.000000
-13.502800 0.000000
-13.480100 0.000000
-13.457400 0.000000
-13.434700 0.000000
-13.412000 0.000000
-13.389300 0.000000
-13.366600 0.000000
-13.343800 0.000000
-13.321100 0.000000
-13.298400 0.000000
-13.275700 0.000000
-13.253000 0.000000
-13.230300 0.000000
-13.207600 0.000000
-13.184900 0.000000
-13.162200 0.000000
-13.139500 0.000000
-13.116800 0.000000
-13.094100 0.000000
-13.071400 0.000000
-13.048700 0.000000
-13.026000 0.000000
-13.003300 0.000000
-12.980600 0.000000
-12.957800 0.000000
-12.935100 0.000000
-12.912400 0.000000
-12.889700 0.000000
-12.867000 0.000000
-12.844300 0.000000
-12.821600 0.000000
-12.798900 0.000000
-12.776200 0.000000
-12.753500 0.000000
-12.730800 0.000000
-12.708100 0.000000
-12.685400 0.000000
-12.662700 0.000000
-12.640000 0.000000
-12.617300 0.000000
-12.594600 0.000000
-12.571900 0.000000
-12.549100 0.000000
-12.526400 0.000000
-12.503700 0.000000
-12.481000 0.000000
-12.458300 0.000000
-12.435600 0.000000
-12.412900 0.000000
-12.390200 0.000000
-12.367500 0.000000
-12.344800 0.000000
-12.322100 0.000000
-12.299400 0.000000
-12.276700 0.000000
-12.254000 0.000000
-12.231300 0.000000
-12.208600 0.000000
-12.185900 0.000000
-12.163100 0.000000
-12.140400 0.000000
-12.117700 0.000000
-12.095000 0.000000
-12.072300 0.000000
-12.049600 0.000000
-12.026900 0.000000
-12.004200 0.000000
-11.981500 0.000000
-11.958800 0.000000
-11.936100 0.000000
-11.913400 0.000000
-11.890700 0.000000
-11.868000 0.000000
-11.845300 0.000000
-11.822600 0.000000
-11.799900 0.000000
-11.777200 0.000000
-11.754400 0.000000
-11.731700 0.000000
-11.709000 0.000000
-11.686300 0.000000
-11.663600 0.000000
-11.640900 0.000000
-11.618200 0.000000
-11.595500 0.000000
-11.572800 0.000000
-11.550100 0.000000
-11.527400 0.000000
-11.504700 0.000000
-11.482000 0.000000
-11.459300 0.000000
-11.436600 0.000000
-11.413900 0.000000
-11.391200 0.000000
-11.368400 0.000000
-11.345700 0.000000
-11.323000 0.000000
-11.300300 0.000000
-11.277600 0.000000
-11.254900 0.000000
-11.232200 0.000000
-11.209500 0.000000
-11.186800 0.000000
-11.164100 0.000000
-11.141400 0.000000
-11.118700 0.000000
-11.096000 0.000000
-11.073300 0.000000
-11.050600 0.000000
-11.027900 0.000000
-11.005200 0.000000
-10.982500 0.000000
-10.959700 0.000000
-10.937000 0.000000
-10.914300 0.000000
-10.891600 0.000000
-10.868900 0.000000
-10.846200 0.000000
-10.823500 0.000000
-10.800800 0.000000
-10.778100 0.000000
-10.755400 0.000000
-10.732700 0.000000
-10.710000 0.000000
-10.687300 0.000000
-10.664600 0.000000
-10.641900 0.000000
-10.619200 0.000000
-10.596500 0.000000
-10.573700 0.000000
-10.551000 0.000000
-10.528300 0.000000
-10.505600 0.000000
-10.482900 0.000000
-10.460200 0.000000
-10.437500 0.000000
-10.414800 0.000000
-10.392100 0.000000
-10.369400 0.000000
-10.346700 0.000000
-10.324000 0.000000
-10.301300 0.000000
-10.278600 0.000000
-10.255900 0.000000
-10.233200 0.000000
-10.210500 0.000000
-10.187800 0.000000
-10.165000 0.000000
-10.142300 0.000000
-10.119600 0.000000
-10.096900 0.000000
-10.074200 0.000000
-10.051500 0.000000
-10.028800 0.000000
-10.006100 0.000000
-9.983400 0.000000
-9.960700 0.000000
-9.938000 0.000000
-9.915300 0.000000
-9.892600 0.000000
-9.869900 0.000000
-9.847200 0.000000
-9.824500 0.000000
-9.801800 0.000000
-9.779000 0.000000
-9.756300 0.000000
-9.733600 0.000000
-9.710900 0.000000
-9.688200 0.000000
-9.665500 0.000000
-9.642800 0.000000
-9.620100 0.000000
-9.597400 0.000000
-9.574700 0.000000
-9.552000 0.000000
-9.529300 0.000000
-9.506600 0.000000
-9.483900 0.000000
-9.461200 0.000000
-9.438500 0.000000
-9.415800 0.000000
-9.393100 0.000000
-9.370300 0.000000
-9.347600 0.000000
-9.324900 0.000000
-9.302200 0.000000
-9.279500 0.000000
-9.256800 0.000000
-9.234100 0.000000
-9.211400 0.000000
-9.188700 0.000000
-9.166000 0.000000
-9.143300 0.000000
-9.120600 0.000000
-9.097900 0.000000
-9.075200 0.000000
-9.052500 0.000000
-9.029800 0.000000
-9.007100 0.000000
-8.984300 0.000000
-8.961600 0.000000
-8.938900 0.000000
-8.916200 0.000000
-8.893500 0.000000
-8.870800 0.000000
-8.848100 0.000000
-8.825400 0.000000
-8.802700 0.000000
-8.780000 0.000000
-8.757300 0.000000
-8.734600 0.000000
-8.711900 0.000000
-8.689200 0.000000
-8.666500 0.000000
-8.643800 0.000000
-8.621100 0.000000
-8.598400 0.000000
-8.575600 0.000000
-8.552900 0.000000
-8.530200 0.000000
-8.507500 0.000000
-8.484800 0.000000
-8.462100 0.000000
-8.439400 0.000000
-8.416700 0.000000
-8.394000 0.000000
-8.371300 0.000000
-8.348600 0.000000
-8.325900 0.000000
-8.303200 0.000000
-8.280500 0.000000
-8.257800 0.000000
-8.235100 0.000000
-8.212400 0.000000
-8.189600 0.000000
-8.166900 0.000000
-8.144200 0.000000
-8.121500 0.000000
-8.098800 0.000000
-8.076100 0.000000
-8.053400 0.000000
-8.030700 0.000000
-8.008000 0.000000
-7.985300 0.000000
-7.962600 0.000000
-7.939900 0.000000
-7.917200 0.000000
-7.894500 0.000000
-7.871800 0.000000
-7.849100 0.000000
-7.826400 0.000000
-7.803700 0.000000
-7.780900 0.000000
-7.758200 0.000000
-7.735500 0.000000
-7.712800 0.000000
-7.690100 0.000000
-7.667400 0.000000
-7.644700 0.000000
-7.622000 0.000000
-7.599300 0.000000
-7.576600 0.000000
-7.553900 0.000000
-7.531200 0.000000
-7.508500 0.000000
-7.485800 0.000000
-7.463100 0.000000
-7.440400 0.000000
-7.417700 0.000000
-7.394900 0.000000
-7.372200 0.000000
-7.349500 0.000000
-7.326800 0.000000
-7.304100 0.000000
-7.281400 0.000000
-7.258700 0.000000
-7.236000 0.000000
-7.213300 0.000000
-7.190600 0.000000
-7.167900 0.000000
-7.145200 0.000000
-7.122500 0.000000
-7.099800 0.000000
-7.077100 0.000000
-7.054400 0.000000
-7.031700 0.000000
-7.009000 0.000000
-6.986200 0.000000
-6.963500 0.000000
-6.940800 0.000000
-6.918100 0.000000
-6.895400 0.000000
-6.872700 0.000000
-6.850000 0.000000
-6.827300 0.000000
-6.804600 0.000000
-6.781900 0.000000
-6.759200 0.000000
-6.736500 0.000000
-6.713800 0.000000
-6.691100 0.000000
-6.668400 0.000000
-6.645700 0.000000
-6.623000 0.000000
-6.600200 0.000000
-6.577500 0.000000
-6.554800 0.000000
-6.532100 0.000000
-6.509400 0.000000
-6.486700 0.000000
-6.464000 0.000000
-6.441300 0.000000
-6.418600 0.000000
-6.395900 0.000000
-6.373200 0.000000
-6.350500 0.000000
-6.327800 0.000000
-6.305100 0.000000
-6.282400 0.000000
-6.259700 0.000000
-6.237000 0.000000
-6.214300 0.000000
-6.191500 0.000000
-6.168800 0.000000
-6.146100 0.000000
-6.123400 0.000000
-6.100700 0.000000
-6.078000 0.000000
-6.055300 0.000000
-6.032600 0.000000
-6.009900 0.000000
-5.987200 0.000000
-5.964500 0.000000
-5.941800 0.000000
-5.919100 0.000000
-5.896400 0.000000
-5.873700 0.000000
-5.851000 0.000000
-5.828300 0.000000
-5.805500 0.000000
-5.782800 0.000000
-5.760100 0.000000
-5.737400 0.000000
-5.714700 0.000000
-5.692000 0.000000
-5.669300 0.000000
-5.646600 0.000000
-5.623900 0.000000
-5.601200 0.000000
-5.578500 0.000000
-5.555800 0.000000
-5.533100 0.000000
-5.510400 0.000000
-5.487700 0.000000
-5.465000 0.000000
-5.442300 0.000000
-5.419600 0.000000
-5.396800 0.000000
-5.374100 0.000000
-5.351400 0.000000
-5.328700 0.000000
-5.306000 0.000000
-5.283300 0.000000
-5.260600 0.000000
-5.237900 0.000000
-5.215200 0.000000
-5.192500 0.000000
-5.169800 0.000000
-5.147100 0.000000
-5.124400 0.000000
-5.101700 0.000000
-5.079000 0.000000
-5.056300 0.000000
-5.033600 0.000000
-5.010800 0.000000
-4.988100 0.000000
-4.965400 0.000000
-4.942700 0.000000
-4.920000 0.000000
-4.897300 0.000000
-4.874600 0.000000
-4.851900 0.000000
-4.829200 0.000000
-4.806500 0.000000
-4.783800 0.000000
-4.761100 0.000000
-4.738400 0.000000
-4.715700 0.000000
-4.693000 0.000000
-4.670300 0.000000
-4.647600 0.000000
-4.624800 0.000000
-4.602100 0.000000
-4.579400 0.000000
-4.556700 0.000000
-4.534000 0.000000
-4.511300 0.000000
-4.488600 0.000000
-4.465900 0.000000
-4.443200 0.000000
-4.420500 0.000000
-4.397800 0.000000
-4.375100 0.000000
-4.352400 0.000000
-4.329700 0.000000
-4.307000 0.000000
-4.284300 0.000000
-4.261600 0.000000
-4.238900 0.000000
-4.216100 0.000000
-4.193400 0.000000
-4.170700 0.000000
-4.148000 0.000000
-4.125300 0.000000
-4.102600 0.000000
-4.079900 0.000000
-4.057200 0.000000
-4.034500 0.000000
-4.011800 0.000000
-3.989100 0.000000
-3.966400 0.000000
-3.943700 0.000000
-3.921000 0.000000
-3.898300 0.000000
-3.875600 0.000300
-3.852900 0.001900
-3.830100 0.007800
-3.807400 0.021500
-3.784700 0.042300
-3.762000 0.065300
-3.739300 0.093700
-3.716600 0.140200
-3.693900 0.211400
-3.671200 0.295800
-3.648500 0.358000
-3.625800 0.355000
-3.603100 0.284100
-3.580400 0.207900
-3.557700 0.213000
-3.535000 0.322000
-3.512300 0.454000
-3.489600 0.507000
-3.466900 0.470500
-3.444200 0.429400
-3.421400 0.476800
-3.398700 0.621900
-3.376000 0.761500
-3.353300 0.770700
-3.330600 0.647800
-3.307900 0.514700
-3.285200 0.485500
-3.262500 0.580100
-3.239800 0.704400
-3.217100 0.727900
-3.194400 0.654300
-3.171700 0.643100
-3.149000 0.797500
-3.126300 1.037400
-3.103600 1.219100
-3.080900 1.283000
-3.058200 1.287500
-3.035400 1.318600
-3.012700 1.327600
-2.990000 1.201100
-2.967300 1.033800
-2.944600 1.061000
-2.921900 1.296300
-2.899200 1.497300
-2.876500 1.503700
-2.853800 1.365800
-2.831100 1.164300
-2.808400 1.011400
-2.785700 1.127400
-2.763000 1.581400
-2.740300 2.077900
-2.717600 2.273800
-2.694900 2.220400
-2.672200 2.207200
-2.649500 2.275000
-2.626700 2.265300
-2.604000 2.220600
-2.581300 2.373900
-2.558600 2.866200
-2.535900 3.666900
-2.513200 4.552300
-2.490500 5.134000
-2.467800 5.195400
-2.445100 4.818600
-2.422400 4.067400
-2.399700 2.948400
-2.377000 1.704000
-2.354300 0.740000
-2.331600 0.232100
-2.308900 0.051300
-2.286200 0.007800
-2.263500 0.000800
-2.240700 0.000100
-2.218000 0.000000
-2.195300 0.000000
-2.172600 0.000000
-2.149900 0.000000
-2.127200 0.000000
-2.104500 0.000000
-2.081800 0.000000
-2.059100 0.000000
-2.036400 0.000000
-2.013700 0.000000
-1.991000 0.000000
-1.968300 0.000000
-1.945600 0.000000
-1.922900 0.000000
-1.900200 0.000000
-1.877500 0.000000
-1.854800 0.000000
-1.832000 0.000000
-1.809300 0.000000
-1.786600 0.000000
-1.763900 0.000000
-1.741200 0.000000
-1.718500 0.000000
-1.695800 0.000000
-1.673100 0.000000
-1.650400 0.000000
-1.627700 0.000000
-1.605000 0.000000
-1.582300 0.000000
-1.559600 0.000000
-1.536900 0.000000
-1.514200 0.000000
-1.491500 0.000000
-1.468800 0.000000
-1.446000 0.000000
-1.423300 0.000000
-1.400600 0.000000
-1.377900 0.000000
-1.355200 0.000000
-1.332500 0.000000
-1.309800 0.000000
-1.287100 0.000000
-1.264400 0.000000
-1.241700 0.000000
-1.219000 0.000000
-1.196300 0.000000
-1.173600 0.000000
-1.150900 0.000000
-1.128200 0.000000
-1.105500 0.000000
-1.082800 0.000000
-1.060100 0.000000
-1.037300 0.000000
-1.014600 0.000000
-0.991900 0.000000
-0.969200 0.000000
-0.946500 0.000000
-0.923800 0.000000
-0.901100 0.000000
-0.878400 0.000000
-0.855700 0.000000
-0.833000 0.000000
-0.810300 0.000000
-0.787600 0.000000
-0.764900 0.000000
-0.742200 0.000000
-0.719500 0.000000
-0.696800 0.000000
-0.674100 0.000000
-0.651300 0.000000
-0.628600 0.000000
-0.605900 0.000000
-0.583200 0.000000
-0.560500 0.000000
-0.537800 0.000000
-0.515100 0.000000
-0.492400 0.000000
-0.469700 0.000000
-0.447000 0.000000
-0.424300 0.000000
-0.401600 0.000000
-0.378900 0.000000
-0.356200 0.000000
-0.333500 0.000000
-0.310800 0.000000
-0.288100 0.000000
-0.265400 0.000000
-0.242600 0.000300
-0.219900 0.001900
-0.197200 0.007700
-0.174500 0.022000
-0.151800 0.045400
-0.129100 0.072500
-0.106400 0.096300
-0.083700 0.106200
-0.061000 0.093400
-0.038300 0.074400
-0.015600 0.094600
0.007100 0.185400
0.029800 0.305800
0.052500 0.355800
0.075200 0.291400
0.097900 0.180600
0.120600 0.103000
0.143400 0.078900
0.166100 0.107400
0.188800 0.185900
0.211500 0.296200
0.234200 0.418400
0.256900 0.526300
0.279600 0.567100
0.302300 0.551600
0.325000 0.621300
0.347700 0.868600
0.370400 1.153800
0.393100 1.258500
0.415800 1.152800
0.438500 1.011000
0.461200 1.000900
0.483900 1.096900
0.506600 1.178300
0.529300 1.240700
0.552100 1.333500
0.574800 1.496200
0.597500 1.865000
0.620200 2.465100
0.642900 2.952000
0.665600 2.991100
0.688300 2.726300
0.711000 2.494100
0.733700 2.283400
0.756400 1.909800
0.779100 1.518800
0.801800 1.438400
0.824500 1.690200
0.847200 1.950600
0.869900 1.927700
0.892600 1.729700
0.915300 1.762100
0.938100 2.210600
0.960800 2.836300
0.983500 3.213500
1.006200 3.035200
1.028900 2.371200
1.051600 1.672200
1.074300 1.410700
1.097000 1.642800
1.119700 1.919700
1.142400 1.802000
1.165100 1.382600
1.187800 1.048500
1.210500 0.961400
1.233200 1.015500
1.255900 1.085200
1.278600 1.182000
1.301300 1.432500
1.324000 1.846500
1.346800 2.145500
1.369500 2.053500
1.392200 1.659300
1.414900 1.228100
1.437600 0.900900
1.460300 0.735000
1.483000 0.738000
1.505700 0.845200
1.528400 0.990900
1.551100 1.154900
1.573800 1.370400
1.596500 1.664700
1.619200 1.948700
1.641900 2.073800
1.664600 1.972900
1.687300 1.686700
1.710000 1.314400
1.732800 0.953400
1.755500 0.714700
1.778200 0.756000
1.800900 1.185700
1.823600 1.864900
1.846300 2.367500
1.869000 2.365800
1.891700 2.005400
1.914400 1.641000
1.937100 1.415600
1.959800 1.369700
1.982500 1.613000
2.005200 2.102400
2.027900 2.536300
2.050600 2.706900
2.073300 2.780900
2.096000 2.968800
2.118700 3.098300
2.141500 2.918100
2.164200 2.607300
2.186900 2.536400
2.209600 2.732700
2.232300 2.881200
2.255000 2.725400
2.277700 2.308900
2.300400 1.874600
2.323100 1.693600
2.345800 1.947500
2.368500 2.516700
2.391200 2.964200
2.413900 3.011200
2.436600 2.905800
2.459300 3.069700
2.482000 3.460000
2.504700 3.592200
2.527500 3.273600
2.550200 2.898600
2.572900 2.809100
2.595600 2.823500
2.618300 2.643400
2.641000 2.320000
2.663700 2.068900
2.686400 1.878300
2.709100 1.603900
2.731800 1.321100
2.754500 1.269600
2.777200 1.521800
2.799900 1.895900
2.822600 2.171900
2.845300 2.304700
2.868000 2.419500
2.890700 2.676700
2.913400 3.077900
2.936200 3.364900
2.958900 3.262600
2.981600 2.825700
3.004300 2.451400
3.027000 2.525200
3.049700 3.045000
3.072400 3.655400
3.095100 3.947800
3.117800 3.676200
3.140500 2.974400
3.163200 2.317900
3.185900 2.056700
3.208600 2.119700
3.231300 2.237000
3.254000 2.286300
3.276700 2.303200
3.299400 2.396800
3.322200 2.781800
3.344900 3.463700
3.367600 3.941500
3.390300 3.748200
3.413000 3.073600
3.435700 2.455000
3.458400 2.192800
3.481100 2.330100
3.503800 2.887000
3.526500 3.875800
3.549200 5.087600
3.571900 6.070000
3.594600 6.509500
3.617300 6.442300
3.640000 6.090300
3.662700 5.700300
3.685400 5.322500
3.708100 4.745000
3.730900 3.903300
3.753600 3.092200
3.776300 2.641900
3.799000 2.582100
3.821700 2.634500
3.844400 2.583200
3.867100 2.614500
3.889800 3.068600
3.912500 3.923500
3.935200 4.889300
3.957900 5.842600
3.980600 6.629600
4.003300 6.768000
4.026000 5.961600
4.048700 4.608100
4.071400 3.405900
4.094100 2.643100
4.116900 2.108100
4.139600 1.628300
4.162300 1.363000
4.185000 1.532000
4.207700 2.141700
4.230400 2.950900
4.253100 3.573500
4.275800 3.683600
4.298500 3.233000
4.321200 2.527300
4.343900 2.022200
4.366600 1.970600
4.389300 2.321200
4.412000 2.922500
4.434700 3.592000
4.457400 3.989800
4.480100 3.831000
4.502800 3.350700
4.525600 3.178000
4.548300 3.552400
4.571000 3.993000
4.593700 4.004400
4.616400 3.710400
4.639100 3.522700
4.661800 3.634600
4.684500 3.936200
4.707200 4.126600
4.729900 4.034000
4.752600 3.870300
4.775300 3.944600
4.798000 4.298900
4.820700 4.882800
4.843400 5.717500
4.866100 6.639700
4.888800 7.313400
4.911600 7.604600
4.934300 7.648700
4.957000 7.558400
4.979700 7.191700
5.002400 6.344100
5.025100 5.112700
5.047800 3.801700
5.070500 2.657100
5.093200 1.862600
5.115900 1.534400
5.138600 1.633500
5.161300 1.992200
5.184000 2.391200
5.206700 2.578300
5.229400 2.381600
5.252100 1.920300
5.274800 1.498500
5.297500 1.241600
5.320300 1.074800
5.343000 0.987100
5.365700 1.109000
5.388400 1.497900
5.411100 1.939100
5.433800 2.168400
5.456500 2.233600
5.479200 2.361200
5.501900 2.620800
5.524600 2.975200
5.547300 3.435400
5.570000 3.954700
5.592700 4.408000
5.615400 4.819600
5.638100 5.289400
5.660800 5.680200
5.683500 5.816300
5.706300 5.801100
5.729000 5.751300
5.751700 5.649400
5.774400 5.673500
5.797100 6.082400
5.819800 6.649100
5.842500 6.710000
5.865200 5.959700
5.887900 4.924200
5.910600 4.425600
5.933300 4.746700
5.956000 5.486200
5.978700 6.101800
6.001400 6.378500
6.024100 6.323100
6.046800 5.978200
6.069500 5.497600
6.092200 5.013900
6.115000 4.457400
6.137700 3.796300
6.160400 3.263700
6.183100 3.097000
6.205800 3.162400
6.228500 3.082200
6.251200 2.727900
6.273900 2.287800
6.296600 1.967000
6.319300 1.917300
6.342000 2.186600
6.364700 2.599400
6.387400 2.911000
6.410100 3.014200
6.432800 2.911700
6.455500 2.673400
6.478200 2.496000
6.501000 2.583100
6.523700 2.835000
6.546400 2.888000
6.569100 2.599800
6.591800 2.247400
6.614500 2.138800
6.637200 2.336500
6.659900 2.744600
6.682600 3.124900
6.705300 3.181500
6.728000 2.908600
6.750700 2.658500
6.773400 2.795000
6.796100 3.381800
6.818800 4.052800
6.841500 4.248700
6.864200 3.806200
6.886900 3.161100
6.909700 2.861400
6.932400 3.025700
6.955100 3.385200
6.977800 3.723500
7.000500 4.001200
7.023200 4.191900
7.045900 4.255900
7.068600 4.189200
7.091300 4.061900
7.114000 3.948200
7.136700 3.768100
7.159400 3.412500
7.182100 3.053100
7.204800 3.078400
7.227500 3.684200
7.250200 4.679200
7.272900 5.584200
7.295700 5.830100
7.318400 5.258800
7.341100 4.442800
7.363800 4.084800
7.386500 4.305500
7.409200 4.736200
7.431900 4.988500
7.454600 4.911600
7.477300 4.649800
7.500000 4.478300
7.522700 4.477500
7.545400 4.611000
7.568100 5.065700
7.590800 5.951400
7.613500 6.766800
7.636200 6.830300
7.658900 6.165700
7.681600 5.403200
7.704400 4.931400
7.727100 4.684600
7.749800 4.587800
7.772500 4.650100
7.795200 4.767300
7.817900 4.811300
7.840600 4.801000
7.863300 4.830700
7.886000 4.863000
7.908700 4.641800
7.931400 3.997300
7.954100 3.275100
7.976800 3.097500
7.999500 3.734700
8.022200 4.991300
8.044900 6.389200
8.067600 7.357100
8.090400 7.597200
8.113100 7.274900
8.135800 6.743300
8.158500 6.221500
8.181200 5.738200
8.203900 5.161700
8.226600 4.418100
8.249300 3.790700
8.272000 3.674800
8.294700 4.091100
8.317400 4.742700
8.340100 5.396800
8.362800 5.964000
8.385500 6.363400
8.408200 6.489200
8.430900 6.184800
8.453600 5.368800
8.476300 4.317300
8.499100 3.476900
8.521800 3.024000
8.544500 2.919600
8.567200 3.152900
8.589900 3.612300
8.612600 4.014300
8.635300 4.236100
8.658000 4.359000
8.680700 4.379800
8.703400 4.336200
8.726100 4.439300
8.748800 4.734800
8.771500 4.987100
8.794200 5.038000
8.816900 4.944800
8.839600 4.785700
8.862300 4.639900
8.885100 4.629700
8.907800 4.814200
8.930500 5.117600
8.953200 5.277600
8.975900 5.025300
8.998600 4.550000
9.021300 4.414800
9.044000 4.790900
9.066700 5.237100
9.089400 5.451100
9.112100 5.739800
9.134800 6.413600
9.157500 7.157900
9.180200 7.391000
9.202900 6.961300
9.225600 6.229800
9.248300 5.637200
9.271100 5.362400
9.293800 5.255000
9.316500 5.014600
9.339200 4.510200
9.361900 3.882800
9.384600 3.329400
9.407300 2.953000
9.430000 2.824800
9.452700 2.938000
9.475400 3.054800
9.498100 2.872200
9.520800 2.389200
9.543500 1.908200
9.566200 1.694200
9.588900 1.716500
9.611600 1.755800
9.634300 1.783700
9.657000 2.058900
9.679800 2.655300
9.702500 3.170600
9.725200 3.250100
9.747900 3.047600
9.770600 2.952700
9.793300 3.186300
9.816000 3.599300
9.838700 3.833900
9.861400 3.816100
9.884100 3.800100
9.906800 3.952000
9.929500 4.222400
9.952200 4.509600
9.974900 4.781400
9.997600 5.050900
10.020300 5.289700
10.043000 5.419000
10.065800 5.356600
10.088500 5.081200
10.111200 4.666100
10.133900 4.308800
10.156600 4.249700
10.179300 4.473700
10.202000 4.663100
10.224700 4.597500
10.247400 4.318700
10.270100 3.876200
10.292800 3.283800
10.315500 2.699300
10.338200 2.359600
10.360900 2.413600
10.383600 2.866600
10.406300 3.535300
10.429000 4.099900
10.451700 4.278500
10.474500 4.023300
10.497200 3.621200
10.519900 3.441100
10.542600 3.575700
10.565300 3.925400
10.588000 4.450900
10.610700 5.067300
10.633400 5.475700
10.656100 5.406400
10.678800 4.996400
10.701500 4.719000
10.724200 4.899100
10.746900 5.460500
10.769600 6.183600
10.792300 6.819400
10.815000 6.917400
10.837700 6.209100
10.860500 5.088200
10.883200 4.159400
10.905900 3.615300
10.928600 3.258700
10.951300 2.849800
10.974000 2.393500
10.996700 2.060300
11.019400 1.880100
11.042100 1.764400
11.064800 1.706900
11.087500 1.735900
11.110200 1.814500
11.132900 1.924300
11.155600 2.193500
11.178300 2.710900
11.201000 3.190800
11.223700 3.221400
11.246400 2.824800
11.269200 2.395000
11.291900 2.271400
11.314600 2.585500
11.337300 3.225800
11.360000 3.843900
11.382700 4.125100
11.405400 4.023300
11.428100 3.615200
11.450800 2.971200
11.473500 2.251100
11.496200 1.683300
11.518900 1.446900
11.541600 1.642700
11.564300 2.189500
11.587000 2.755000
11.609700 3.053500
11.632400 3.118000
11.655200 3.131300
11.677900 3.162100
11.700600 3.095500
11.723300 2.773000
11.746000 2.216300
11.768700 1.689900
11.791400 1.542600
11.814100 1.954800
11.836800 2.831000
11.859500 3.854000
11.882200 4.567200
11.904900 4.683600
11.927600 4.393100
11.950300 4.038100
11.973000 3.647100
11.995700 3.103000
12.018400 2.517900
12.041100 2.208000
12.063900 2.333400
12.086600 2.678100
12.109300 2.900700
12.132000 2.859100
12.154700 2.588800
12.177400 2.213100
12.200100 1.936800
12.222800 1.903100
12.245500 2.067700
12.268200 2.323300
12.290900 2.591900
12.313600 2.777600
12.336300 2.843500
12.359000 2.893600
12.381700 3.012800
12.404400 3.058200
12.427100 2.872700
12.449900 2.611200
12.472600 2.491400
12.495300 2.486300
12.518000 2.465600
12.540700 2.350700
12.563400 2.156500
12.586100 2.009400
12.608800 2.048900
12.631500 2.305500
12.654200 2.628600
12.676900 2.761900
12.699600 2.636400
12.722300 2.446500
12.745000 2.337800
12.767700 2.277900
12.790400 2.195900
12.813100 2.049900
12.835800 1.924000
12.858600 2.056600
12.881300 2.514600
12.904000 2.949000
12.926700 2.942800
12.949400 2.521800
12.972100 2.100500
12.994800 2.027300
13.017500 2.339100
13.040200 2.759600
13.062900 2.893700
13.085600 2.627500
13.108300 2.251000
13.131000 2.131200
13.153700 2.468700
13.176400 3.242100
13.199100 4.193900
13.221800 5.072900
13.244600 5.843000
13.267300 6.376300
13.290000 6.236300
13.312700 5.225200
13.335400 3.899700
13.358100 3.109100
13.380800 3.157700
13.403500 3.654900
13.426200 4.033900
13.448900 4.020900
13.471600 3.699700
13.494300 3.354600
13.517000 3.241100
13.539700 3.347100
13.562400 3.431800
13.585100 3.359800
13.607800 3.225800
13.630500 3.176000
13.653300 3.339500
13.676000 3.753800
13.698700 4.122700
13.721400 4.055800
13.744100 3.646700
13.766800 3.265900
13.789500 2.986100
13.812200 2.791400
13.834900 2.911100
13.857600 3.419200
13.880300 3.922000
13.903000 3.976600
13.925700 3.614700
13.948400 3.295900
13.971100 3.347900
13.993800 3.616000
14.016500 3.730500
14.039300 3.536800
14.062000 3.235600
14.084700 3.143300
14.107400 3.339300
14.130100 3.684000
14.152800 3.967900
14.175500 3.901700
14.198200 3.377500
14.220900 2.758100
14.243600 2.554000
14.266300 2.883400
14.289000 3.390800
14.311700 3.599500
14.334400 3.302100
14.357100 2.735500
14.379800 2.376900
14.402500 2.457000
14.425200 2.811500
14.448000 3.293600
14.470700 3.950000
14.493400 4.612300
14.516100 4.796700
14.538800 4.271500
14.561500 3.341100
14.584200 2.478700
14.606900 2.009000
14.629600 1.990000
14.652300 2.209300
14.675000 2.443200
14.697700 2.580700
14.720400 2.527400
14.743100 2.317700
14.765800 2.149300
14.788500 2.133300
14.811200 2.232300
14.834000 2.419700
14.856700 2.687000
14.879400 2.938300
14.902100 3.016700
14.924800 2.876000
14.947500 2.680300
14.970200 2.650500
14.992900 2.818100
15.015600 2.960700
15.038300 2.846000
15.061000 2.561300
15.083700 2.421600
15.106400 2.576300
15.129100 2.886400
15.151800 3.115100
15.174500 3.097800
15.197200 2.826900
15.219900 2.511700
15.242700 2.435000
15.265400 2.665000
15.288100 3.018100
15.310800 3.320500
15.333500 3.600300
15.356200 3.959500
15.378900 4.301900
15.401600 4.356000
15.424300 4.056500
15.447000 3.747700
15.469700 3.849400
15.492400 4.361800
15.515100 4.822400
15.537800 4.790600
15.560500 4.315800
15.583200 3.821400
15.605900 3.580800
15.628700 3.501900
15.651400 3.371300
15.674100 3.140400
15.696800 2.921600
15.719500 2.789700
15.742200 2.771900
15.764900 2.987100
15.787600 3.551300
15.810300 4.334400
15.833000 5.022100
15.855700 5.392500
15.878400 5.370700
15.901100 5.005500
15.923800 4.476100
15.946500 3.968500
15.969200 3.559100
15.991900 3.210200
16.014600 2.867300
16.037400 2.575000
16.060100 2.474000
16.082800 2.687200
16.105500 3.136800
16.128200 3.457700
16.150900 3.309200
16.173600 2.875200
16.196300 2.764400
16.219000 3.273100
16.241700 4.020800
16.264400 4.426800
16.287100 4.334000
16.309800 4.065600
16.332500 3.982100
16.355200 4.147200
16.377900 4.434900
16.400600 4.668900
16.423400 4.607900
16.446100 4.150000
16.468800 3.536200
16.491500 3.092900
16.514200 2.878900
16.536900 2.686000
16.559600 2.325100
16.582300 1.905000
16.605000 1.730100
16.627700 1.874400
16.650400 2.075300
16.673100 2.140800
16.695800 2.195400
16.718500 2.416800
16.741200 2.735100
16.763900 2.867800
16.786600 2.696700
16.809300 2.465100
16.832100 2.387700
16.854800 2.427200
16.877500 2.649300
16.900200 3.262000
16.922900 4.079300
16.945600 4.526400
16.968300 4.416800
16.991000 4.124300
17.013700 3.942000
17.036400 3.881200
17.059100 3.900800
17.081800 3.941500
17.104500 3.954500
17.127200 3.871000
17.149900 3.556200
17.172600 3.060200
17.195300 2.667500
17.218100 2.540300
17.240800 2.611700
17.263500 2.792900
17.286200 2.985600
17.308900 2.943300
17.331600 2.514800
17.354300 2.036000
17.377000 2.014200
17.399700 2.469900
17.422400 2.946900
17.445100 3.055800
17.467800 2.808600
17.490500 2.441500
17.513200 2.074600
17.535900 1.709100
17.558600 1.431600
17.581300 1.429800
17.604000 1.821600
17.626800 2.483000
17.649500 3.097100
17.672200 3.476700
17.694900 3.719700
17.717600 3.958500
17.740300 4.116600
17.763000 4.048000
17.785700 3.832300
17.808400 3.692200
17.831100 3.668000
17.853800 3.677700
17.876500 3.715500
17.899200 3.716400
17.921900 3.558800
17.944600 3.303500
17.967300 3.085600
17.990000 2.919000
18.012800 2.831000
18.035500 2.914000
18.058200 3.167300
18.080900 3.527100
18.103600 3.966800
18.126300 4.394500
18.149000 4.551100
18.171700 4.237600
18.194400 3.627500
18.217100 3.070000
18.239800 2.756600
18.262500 2.755400
18.285200 2.994500
18.307900 3.234700
18.330600 3.316200
18.353300 3.278800
18.376000 3.233900
18.398700 3.295900
18.421500 3.513200
18.444200 3.720600
18.466900 3.673500
18.489600 3.446500
18.512300 3.440700
18.535000 3.902000
18.557700 4.614900
18.580400 5.108300
18.603100 5.125000
18.625800 4.873400
18.648500 4.688200
18.671200 4.612600
18.693900 4.548600
18.716600 4.515600
18.739300 4.562000
18.762000 4.619700
18.784700 4.562900
18.807500 4.364700
18.830200 4.105700
18.852900 3.830000
18.875600 3.488000
18.898300 3.087600
18.921000 2.817900
18.943700 2.918900
18.966400 3.456200
18.989100 4.184500
19.011800 4.638600
19.034500 4.613600
19.057200 4.392900
19.079900 4.234000
19.102600 4.061200
19.125300 3.752600
19.148000 3.368600
19.170700 3.095800
19.193400 2.998500
19.216200 2.950900
19.238900 2.888100
19.261600 2.866300
19.284300 2.927500
19.307000 3.103400
19.329700 3.346600
19.352400 3.417600
19.375100 3.149700
19.397800 2.738000
19.420500 2.500500
19.443200 2.568600
19.465900 2.911200
19.488600 3.330800
19.511300 3.478000
19.534000 3.198000
19.556700 2.804500
19.579400 2.710600
19.602200 2.862500
19.624900 2.870900
19.647600 2.558500
19.670300 2.083600
19.693000 1.690200
19.715700 1.491000
19.738400 1.400200
19.761100 1.283300
19.783800 1.136700
19.806500 1.028900
19.829200 0.977400
19.851900 0.945600
19.874600 0.895500
19.897300 0.832200
19.920000 0.778700
19.942700 0.730300
19.965400 0.668000
19.988100 0.576000
20.010900 0.457500
20.033600 0.348500
20.056300 0.273000
20.079000 0.206400
20.101700 0.127400
20.124400 0.057100
20.147100 0.017600
20.169800 0.003700
20.192500 0.000500
20.215200 0.000000
20.237900 0.000000
20.260600 0.000000
20.283300 0.000000
20.306000 0.000000
20.328700 0.000000
20.351400 0.000000
20.374100 0.000000
20.396900 0.000000
20.419600 0.000000
20.442300 0.000000
20.465000 0.000000
20.487700 0.000000
20.510400 0.000000
20.533100 0.000000
20.555800 0.000000
20.578500 0.000000
20.601200 0.000000
20.623900 0.000000
20.646600 0.000000
20.669300 0.000000
20.692000 0.000000
20.714700 0.000000
20.737400 0.000000
20.760100 0.000000
20.782800 0.000000
20.805600 0.000000
20.828300 0.000000
20.851000 0.000000
20.873700 0.000000
20.896400 0.000000
20.919100 0.000000
20.941800 0.000000
20.964500 0.000000
20.987200 0.000000
21.009900 0.000000
21.032600 0.000000
21.055300 0.000000
21.078000 0.000000
21.100700 0.000000
21.123400 0.000000
21.146100 0.000000
21.168800 0.000000
21.191600 0.000000
21.214300 0.000000
21.237000 0.000000
21.259700 0.000000
21.282400 0.000000
21.305100 0.000000
21.327800 0.000000
21.350500 0.000000
21.373200 0.000000
21.395900 0.000000
21.418600 0.000000
21.441300 0.000000
21.464000 0.000000
21.486700 0.000000
21.509400 0.000000
21.532100 0.000000
21.554800 0.000000
21.577500 0.000000
21.600300 0.000000
21.623000 0.000000
21.645700 0.000000
21.668400 0.000000
21.691100 0.000000
21.713800 0.000000
21.736500 0.000000
21.759200 0.000000
21.781900 0.000000
21.804600 0.000000
21.827300 0.000000
21.850000 0.000000
21.872700 0.000000
21.895400 0.000000
21.918100 0.000000
21.940800 0.000000
21.963500 0.000000
21.986300 0.000000
22.009000 0.000000
22.031700 0.000000
22.054400 0.000000
22.077100 0.000000
22.099800 0.000000
22.122500 0.000000
e
