set title 'mp-1071269 - Density of States'
set xlabel 'Energy (eV)'
set ylabel 'DOS (states/eV)'
set grid
set xrange [-10:10]
set yrange [0:104.387]
set xzeroaxis lt -1
set terminal png size 800,600
set output 'mp-1071269_dos_gnuplot.png'
plot '-' using 1:2 with lines title 'DOS'
-9.621000 0.000000
-9.609900 0.000000
-9.598700 0.000000
-9.587600 0.000000
-9.576400 0.000000
-9.565200 0.000000
-9.554100 0.000000
-9.542900 0.000000
-9.531800 0.000000
-9.520600 0.000000
-9.509500 0.000000
-9.498300 0.000000
-9.487100 0.000000
-9.476000 0.000000
-9.464800 0.000000
-9.453700 0.000000
-9.442500 0.000000
-9.431300 0.000000
-9.420200 0.000000
-9.409000 0.000000
-9.397900 0.000000
-9.386700 0.000000
-9.375600 0.000000
-9.364400 0.000000
-9.353200 0.000000
-9.342100 0.000000
-9.330900 0.000000
-9.319800 0.000000
-9.308600 0.000000
-9.297500 0.000000
-9.286300 0.000000
-9.275100 0.000000
-9.264000 0.000000
-9.252800 0.000000
-9.241700 0.000000
-9.230500 0.000000
-9.219400 0.000000
-9.208200 0.000000
-9.197000 0.000000
-9.185900 0.000000
-9.174700 0.000000
-9.163600 0.000000
-9.152400 0.000000
-9.141200 0.000000
-9.130100 0.000000
-9.118900 0.000000
-9.107800 0.000000
-9.096600 0.000000
-9.085500 0.000000
-9.074300 0.000000
-9.063100 0.000000
-9.052000 0.000000
-9.040800 0.000000
-9.029700 0.000000
-9.018500 0.000000
-9.007400 0.000000
-8.996200 0.000000
-8.985000 0.000000
-8.973900 0.000000
-8.962700 0.000000
-8.951600 0.000000
-8.940400 0.000000
-8.929200 0.000000
-8.918100 0.000000
-8.906900 0.000000
-8.895800 0.000000
-8.884600 0.000000
-8.873500 0.000000
-8.862300 0.000000
-8.851100 0.000000
-8.840000 0.000000
-8.828800 0.000000
-8.817700 0.000000
-8.806500 0.000000
-8.795400 0.000000
-8.784200 0.000000
-8.773000 0.000000
-8.761900 0.000000
-8.750700 0.000000
-8.739600 0.000000
-8.728400 0.000000
-8.717200 0.000000
-8.706100 0.000000
-8.694900 0.000000
-8.683800 0.000000
-8.672600 0.000000
-8.661500 0.000000
-8.650300 0.000000
-8.639100 0.000000
-8.628000 0.000000
-8.616800 0.000000
-8.605700 0.000700
-8.594500 0.107100
-8.583400 0.393300
-8.572200 0.566400
-8.561000 0.628500
-8.549900 0.706100
-8.538700 0.821500
-8.527600 0.930200
-8.516400 1.010800
-8.505300 1.078300
-8.494100 1.153600
-8.482900 1.220000
-8.471800 1.298500
-8.460600 1.377500
-8.449500 1.455500
-8.438300 1.516200
-8.427100 1.585300
-8.416000 1.663400
-8.404800 1.741900
-8.393700 1.823800
-8.382500 1.909100
-8.371400 1.981100
-8.360200 2.048000
-8.349000 2.126800
-8.337900 2.203900
-8.326700 2.278500
-8.315600 2.359000
-8.304400 2.441900
-8.293300 2.522600
-8.282100 2.602700
-8.270900 2.683000
-8.259800 2.786600
-8.248600 2.890600
-8.237500 2.998100
-8.226300 3.107800
-8.215100 3.223600
-8.204000 3.334500
-8.192800 3.448300
-8.181700 3.566700
-8.170500 3.699700
-8.159400 3.837400
-8.148200 3.981100
-8.137000 4.136800
-8.125900 4.299200
-8.114700 4.467600
-8.103600 4.658600
-8.092400 4.881100
-8.081300 5.110700
-8.070100 5.358400
-8.058900 5.642400
-8.047800 5.983800
-8.036600 6.338600
-8.025500 6.750000
-8.014300 7.265800
-8.003100 7.875500
-7.992000 8.900800
-7.980800 11.494000
-7.969700 11.755800
-7.958500 9.688900
-7.947400 8.944800
-7.936200 8.162000
-7.925000 8.823300
-7.913900 8.647000
-7.902700 8.687800
-7.891600 8.796700
-7.880400 9.250600
-7.869300 8.993900
-7.858100 9.510400
-7.846900 11.179800
-7.835800 13.580400
-7.824600 16.722100
-7.813500 14.385500
-7.802300 12.371400
-7.791200 8.091500
-7.780000 4.895500
-7.768800 2.075700
-7.757700 0.770200
-7.746500 0.966700
-7.735400 1.209800
-7.724200 1.538800
-7.713000 2.640700
-7.701900 4.624400
-7.690700 8.368700
-7.679600 14.598300
-7.668400 19.778200
-7.657300 20.182100
-7.646100 19.083500
-7.634900 13.868200
-7.623800 11.021100
-7.612600 9.365800
-7.601500 7.826300
-7.590300 6.939900
-7.579200 5.930500
-7.568000 5.315400
-7.556800 4.745300
-7.545700 4.152500
-7.534500 3.720400
-7.523400 3.242200
-7.512200 2.833900
-7.501000 2.035600
-7.489900 1.341800
-7.478700 0.729700
-7.467600 0.197000
-7.456400 0.000000
-7.445300 0.000000
-7.434100 0.000000
-7.422900 0.000000
-7.411800 0.000000
-7.400600 0.000000
-7.389500 0.000000
-7.378300 0.000000
-7.367200 0.000000
-7.356000 0.000000
-7.344800 0.000000
-7.333700 0.000000
-7.322500 0.000000
-7.311400 0.000000
-7.300200 0.000000
-7.289000 0.000000
-7.277900 0.000000
-7.266700 0.000000
-7.255600 0.000000
-7.244400 0.000000
-7.233300 0.000000
-7.222100 0.000000
-7.210900 0.000000
-7.199800 0.000000
-7.188600 0.000000
-7.177500 0.000000
-7.166300 0.000000
-7.155200 0.000000
-7.144000 0.000000
-7.132800 0.000000
-7.121700 0.000000
-7.110500 0.000000
-7.099400 0.000000
-7.088200 0.000000
-7.077100 0.000000
-7.065900 0.000000
-7.054700 0.000000
-7.043600 0.000000
-7.032400 0.000000
-7.021300 0.000000
-7.010100 0.000000
-6.998900 0.000000
-6.987800 0.000000
-6.976600 0.000000
-6.965500 0.000000
-6.954300 0.000000
-6.943200 0.000000
-6.932000 0.000000
-6.920800 0.000000
-6.909700 0.000000
-6.898500 0.000000
-6.887400 0.000000
-6.876200 0.000000
-6.865100 0.000000
-6.853900 0.000000
-6.842700 0.000000
-6.831600 0.000000
-6.820400 0.000000
-6.809300 0.000000
-6.798100 0.000000
-6.786900 0.000000
-6.775800 0.000000
-6.764600 0.000000
-6.753500 0.000000
-6.742300 0.000000
-6.731200 0.000000
-6.720000 0.000000
-6.708800 0.000000
-6.697700 0.000000
-6.686500 0.000000
-6.675400 0.000000
-6.664200 0.000000
-6.653100 0.000000
-6.641900 0.000000
-6.630700 0.000000
-6.619600 0.000000
-6.608400 0.000000
-6.597300 0.000000
-6.586100 0.000000
-6.574900 0.000000
-6.563800 0.000000
-6.552600 0.000000
-6.541500 0.000000
-6.530300 0.000000
-6.519200 0.000000
-6.508000 0.000000
-6.496800 0.000000
-6.485700 0.000000
-6.474500 0.000000
-6.463400 0.000000
-6.452200 0.000000
-6.441100 0.000000
-6.429900 0.000000
-6.418700 0.000000
-6.407600 0.000000
-6.396400 0.000000
-6.385300 0.000000
-6.374100 0.000000
-6.363000 0.000000
-6.351800 0.000000
-6.340600 0.000000
-6.329500 0.000000
-6.318300 0.000000
-6.307200 0.000000
-6.296000 0.000000
-6.284800 0.000000
-6.273700 0.000000
-6.262500 0.000000
-6.251400 0.000000
-6.240200 0.000000
-6.229100 0.000000
-6.217900 0.000000
-6.206700 0.000000
-6.195600 0.000000
-6.184400 0.000000
-6.173300 0.000000
-6.162100 0.000000
-6.151000 0.000000
-6.139800 0.000000
-6.128600 0.000000
-6.117500 0.000000
-6.106300 0.000000
-6.095200 0.000000
-6.084000 0.000000
-6.072800 0.000000
-6.061700 0.000000
-6.050500 0.000000
-6.039400 0.000000
-6.028200 0.000000
-6.017100 0.000000
-6.005900 0.000000
-5.994700 0.000000
-5.983600 0.000000
-5.972400 0.000000
-5.961300 0.000000
-5.950100 0.000000
-5.939000 0.000000
-5.927800 0.000000
-5.916600 0.000000
-5.905500 0.000000
-5.894300 0.000000
-5.883200 0.000000
-5.872000 0.000000
-5.860800 0.000000
-5.849700 0.000000
-5.838500 0.000000
-5.827400 0.000000
-5.816200 0.000000
-5.805100 0.000000
-5.793900 0.000000
-5.782700 0.000000
-5.771600 0.000000
-5.760400 0.000000
-5.749300 0.000000
-5.738100 0.000000
-5.727000 0.000000
-5.715800 0.000000
-5.704600 0.000000
-5.693500 0.000000
-5.682300 0.000000
-5.671200 0.000000
-5.660000 0.000000
-5.648900 0.000000
-5.637700 0.000000
-5.626500 0.000000
-5.615400 0.000000
-5.604200 0.000000
-5.593100 0.000000
-5.581900 0.000000
-5.570700 0.000000
-5.559600 0.000000
-5.548400 0.000000
-5.537300 0.000000
-5.526100 0.000000
-5.515000 0.000000
-5.503800 0.000000
-5.492600 0.000000
-5.481500 0.000000
-5.470300 0.000000
-5.459200 0.000000
-5.448000 0.000000
-5.436900 0.000000
-5.425700 0.000000
-5.414500 0.000000
-5.403400 0.000000
-5.392200 0.000000
-5.381100 0.000000
-5.369900 0.000000
-5.358700 0.000000
-5.347600 0.000000
-5.336400 0.000000
-5.325300 0.000000
-5.314100 0.000000
-5.303000 0.000000
-5.291800 0.000000
-5.280600 0.000000
-5.269500 0.000000
-5.258300 0.000000
-5.247200 0.000000
-5.236000 0.000000
-5.224900 0.000000
-5.213700 0.000000
-5.202500 0.000000
-5.191400 0.000000
-5.180200 0.000000
-5.169100 0.000000
-5.157900 0.000000
-5.146700 0.000000
-5.135600 0.000000
-5.124400 0.000000
-5.113300 0.000000
-5.102100 0.000000
-5.091000 0.000000
-5.079800 0.000000
-5.068600 0.000000
-5.057500 0.000000
-5.046300 0.000000
-5.035200 0.000000
-5.024000 0.000000
-5.012900 0.000000
-5.001700 0.000000
-4.990500 0.000000
-4.979400 0.000000
-4.968200 0.000000
-4.957100 0.000000
-4.945900 0.000000
-4.934800 0.000000
-4.923600 0.000000
-4.912400 0.000000
-4.901300 0.000000
-4.890100 0.000000
-4.879000 0.000000
-4.867800 0.000000
-4.856600 0.000000
-4.845500 0.000000
-4.834300 0.000000
-4.823200 0.000000
-4.812000 0.000000
-4.800900 0.000000
-4.789700 0.000000
-4.778500 0.000000
-4.767400 0.000000
-4.756200 0.000000
-4.745100 0.000000
-4.733900 0.000000
-4.722800 0.000000
-4.711600 0.000000
-4.700400 0.000000
-4.689300 0.000000
-4.678100 0.000000
-4.667000 0.000000
-4.655800 0.000000
-4.644600 0.000000
-4.633500 0.000000
-4.622300 0.000000
-4.611200 0.000000
-4.600000 0.000000
-4.588900 0.000000
-4.577700 0.000000
-4.566500 0.000000
-4.555400 0.000000
-4.544200 0.000000
-4.533100 0.000000
-4.521900 0.000000
-4.510800 0.000000
-4.499600 0.000000
-4.488400 0.000000
-4.477300 0.000000
-4.466100 0.000000
-4.455000 0.000000
-4.443800 0.000000
-4.432600 0.000000
-4.421500 0.000000
-4.410300 0.000000
-4.399200 0.000000
-4.388000 0.000000
-4.376900 0.000000
-4.365700 0.000000
-4.354500 0.000000
-4.343400 0.058600
-4.332200 0.795900
-4.321100 1.739200
-4.309900 2.934000
-4.298800 4.122800
-4.287600 5.328400
-4.276400 6.947400
-4.265300 9.595700
-4.254100 18.977000
-4.243000 16.840800
-4.231800 12.858100
-4.220700 8.572800
-4.209500 8.574300
-4.198300 8.362700
-4.187200 8.134500
-4.176000 7.897200
-4.164900 7.598800
-4.153700 6.858100
-4.142500 6.629200
-4.131400 6.628800
-4.120200 6.628500
-4.109100 6.628300
-4.097900 6.628200
-4.086800 5.312900
-4.075600 5.060100
-4.064400 4.387600
-4.053300 3.137300
-4.042100 3.119200
-4.031000 4.818000
-4.019800 5.648300
-4.008700 6.090700
-3.997500 6.090700
-3.986300 6.128700
-3.975200 6.412500
-3.964000 6.529500
-3.952900 6.609200
-3.941700 6.676300
-3.930500 6.749400
-3.919400 6.978400
-3.908200 7.548900
-3.897100 8.469800
-3.885900 9.315400
-3.874800 9.353800
-3.863600 9.526900
-3.852400 10.172700
-3.841300 13.738700
-3.830100 20.875200
-3.819000 33.464000
-3.807800 35.848200
-3.796700 30.886700
-3.785500 29.753100
-3.774300 29.984100
-3.763200 28.241100
-3.752000 27.919400
-3.740900 44.421100
-3.729700 41.186000
-3.718500 39.598900
-3.707400 46.355600
-3.696200 54.309600
-3.685100 53.260800
-3.673900 82.065900
-3.662800 41.364000
-3.651600 79.425500
-3.640400 39.941000
-3.629300 29.972800
-3.618100 22.849900
-3.607000 29.993900
-3.595800 50.943900
-3.584700 55.303100
-3.573500 60.448100
-3.562300 64.035200
-3.551200 87.905400
-3.540000 34.064800
-3.528900 38.045200
-3.517700 17.059700
-3.506600 10.961400
-3.495400 63.628900
-3.484200 34.828200
-3.473100 36.399600
-3.461900 55.105400
-3.450800 53.154400
-3.439600 74.185500
-3.428400 82.407700
-3.417300 36.422300
-3.406100 56.207800
-3.395000 69.836200
-3.383800 94.897100
-3.372700 60.552700
-3.361500 51.646200
-3.350300 54.163200
-3.339200 28.802300
-3.328000 35.782300
-3.316900 27.997900
-3.305700 25.681500
-3.294600 21.839200
-3.283400 12.522100
-3.272200 6.772200
-3.261100 4.903700
-3.249900 4.468500
-3.238800 4.415100
-3.227600 4.814100
-3.216400 5.424200
-3.205300 6.370100
-3.194100 7.871600
-3.183000 8.901800
-3.171800 9.443600
-3.160700 9.369600
-3.149500 9.496700
-3.138300 8.228000
-3.127200 7.799700
-3.116000 6.883600
-3.104900 5.647400
-3.093700 4.745900
-3.082600 4.209100
-3.071400 3.473100
-3.060200 2.868600
-3.049100 2.377100
-3.037900 1.993300
-3.026800 1.647600
-3.015600 1.159700
-3.004500 0.260600
-2.993300 0.015100
-2.982100 0.000000
-2.971000 0.000000
-2.959800 0.000000
-2.948700 0.000000
-2.937500 0.000000
-2.926300 0.000000
-2.915200 0.000000
-2.904000 0.000000
-2.892900 0.000000
-2.881700 0.000000
-2.870600 0.000000
-2.859400 0.000000
-2.848200 0.000000
-2.837100 0.000000
-2.825900 0.000000
-2.814800 0.000000
-2.803600 0.000000
-2.792500 0.000000
-2.781300 0.000000
-2.770100 0.000000
-2.759000 0.000000
-2.747800 0.000000
-2.736700 0.000000
-2.725500 0.000000
-2.714300 0.000000
-2.703200 0.000000
-2.692000 0.000000
-2.680900 0.000000
-2.669700 0.000000
-2.658600 0.000000
-2.647400 0.000000
-2.636200 0.000000
-2.625100 0.000000
-2.613900 0.000000
-2.602800 0.000000
-2.591600 0.000000
-2.580500 0.000000
-2.569300 0.000000
-2.558100 0.000000
-2.547000 0.000000
-2.535800 0.000000
-2.524700 0.000000
-2.513500 0.000000
-2.502300 0.000000
-2.491200 0.000000
-2.480000 0.000000
-2.468900 0.000000
-2.457700 0.000000
-2.446600 0.000000
-2.435400 0.000000
-2.424200 0.000000
-2.413100 0.000000
-2.401900 0.000000
-2.390800 0.000000
-2.379600 0.000000
-2.368500 0.000000
-2.357300 0.000000
-2.346100 0.000000
-2.335000 0.000000
-2.323800 0.000000
-2.312700 0.000000
-2.301500 0.000000
-2.290400 0.000000
-2.279200 0.000000
-2.268000 0.000000
-2.256900 0.000000
-2.245700 0.000000
-2.234600 0.000000
-2.223400 0.000000
-2.212200 0.000000
-2.201100 0.000000
-2.189900 0.000000
-2.178800 0.000000
-2.167600 0.000000
-2.156500 0.000000
-2.145300 0.000000
-2.134100 0.000000
-2.123000 0.000000
-2.111800 0.000000
-2.100700 0.000000
-2.089500 0.000000
-2.078400 0.000000
-2.067200 0.000000
-2.056000 0.000000
-2.044900 0.000000
-2.033700 0.000000
-2.022600 0.000000
-2.011400 0.000000
-2.000200 0.011900
-1.989100 0.130200
-1.977900 0.375000
-1.966800 0.731400
-1.955600 1.123600
-1.944500 1.327000
-1.933300 1.444100
-1.922100 1.592600
-1.911000 1.803400
-1.899800 2.026400
-1.888700 2.355500
-1.877500 2.740100
-1.866400 3.152900
-1.855200 3.550400
-1.844000 3.681200
-1.832900 3.706600
-1.821700 3.808500
-1.810600 4.187200
-1.799400 4.342000
-1.788200 4.370400
-1.777100 4.180600
-1.765900 4.247600
-1.754800 4.416400
-1.743600 4.687800
-1.732500 5.375900
-1.721300 5.440800
-1.710100 5.520300
-1.699000 5.652600
-1.687800 6.098200
-1.676700 5.844400
-1.665500 5.632900
-1.654400 5.439200
-1.643200 5.310100
-1.632000 5.302700
-1.620900 5.404000
-1.609700 5.572400
-1.598600 5.818400
-1.587400 6.099300
-1.576300 6.414900
-1.565100 6.896800
-1.553900 7.444800
-1.542800 7.918800
-1.531600 8.310900
-1.520500 8.979200
-1.509300 9.626600
-1.498100 10.064400
-1.487000 10.034500
-1.475800 9.096700
-1.464700 7.628800
-1.453500 6.592400
-1.442400 4.739400
-1.431200 4.253200
-1.420000 3.822000
-1.408900 3.430300
-1.397700 3.154200
-1.386600 2.654500
-1.375400 2.519400
-1.364300 2.387300
-1.353100 2.253500
-1.341900 2.141900
-1.330800 2.046700
-1.319600 1.960600
-1.308500 1.879300
-1.297300 1.815100
-1.286100 1.753500
-1.275000 1.939000
-1.263800 2.107100
-1.252700 2.156200
-1.241500 2.187100
-1.230400 2.259600
-1.219200 2.291900
-1.208000 2.308900
-1.196900 2.459100
-1.185700 2.631700
-1.174600 2.757500
-1.163400 2.952700
-1.152300 3.174100
-1.141100 3.481600
-1.129900 4.453900
-1.118800 4.334400
-1.107600 4.460900
-1.096500 4.270500
-1.085300 3.904700
-1.074100 3.402900
-1.063000 3.390700
-1.051800 3.698900
-1.040700 4.138700
-1.029500 4.434400
-1.018400 4.514900
-1.007200 4.366200
-0.996000 3.950600
-0.984900 3.788200
-0.973700 3.750700
-0.962600 3.754000
-0.951400 3.770500
-0.940300 3.798800
-0.929100 3.813000
-0.917900 3.813700
-0.906800 3.787700
-0.895600 3.739100
-0.884500 3.668900
-0.873300 3.613700
-0.862200 3.580000
-0.851000 3.560600
-0.839800 3.545800
-0.828700 3.523700
-0.817500 3.489900
-0.806400 3.436500
-0.795200 3.367900
-0.784000 3.313900
-0.772900 3.279600
-0.761700 3.289300
-0.750600 3.268200
-0.739400 3.209800
-0.728300 3.130600
-0.717100 3.056400
-0.705900 2.989100
-0.694800 2.928100
-0.683600 2.872700
-0.672500 2.804400
-0.661300 2.721100
-0.650200 2.618900
-0.639000 2.496200
-0.627800 2.365700
-0.616700 2.227800
-0.605500 2.081900
-0.594400 1.928800
-0.583200 1.803300
-0.572000 1.707300
-0.560900 1.618000
-0.549700 1.534600
-0.538600 1.456400
-0.527400 1.411000
-0.516300 1.380800
-0.505100 1.344900
-0.493900 1.258900
-0.482800 1.174500
-0.471600 1.094300
-0.460500 1.017800
-0.449300 0.944900
-0.438200 0.875800
-0.427000 0.810900
-0.415800 0.749300
-0.404700 0.696900
-0.393500 0.670200
-0.382400 0.658500
-0.371200 0.647000
-0.360000 0.635800
-0.348900 0.624700
-0.337700 0.613800
-0.326600 0.603100
-0.315400 0.592600
-0.304300 0.587800
-0.293100 0.601800
-0.281900 0.635100
-0.270800 0.687600
-0.259600 0.969500
-0.248500 1.276700
-0.237300 1.203700
-0.226200 1.270200
-0.215000 1.354700
-0.203800 1.457800
-0.192700 1.621600
-0.181500 1.685000
-0.170400 1.738400
-0.159200 1.780900
-0.148100 1.810300
-0.136900 1.769000
-0.125700 1.733300
-0.114600 1.701300
-0.103400 1.679800
-0.092300 1.669500
-0.081100 1.666200
-0.069900 1.668900
-0.058800 1.677900
-0.047600 1.695300
-0.036500 1.723900
-0.025300 1.751000
-0.014200 1.778100
-0.003000 1.804100
0.008200 1.827900
0.019300 1.845800
0.030500 1.860100
0.041600 1.876600
0.052800 1.896300
0.063900 1.918100
0.075100 1.934100
0.086300 1.940800
0.097400 1.952400
0.108600 1.967200
0.119700 1.983900
0.130900 2.005900
0.142100 2.042400
0.153200 2.082900
0.164400 2.127500
0.175500 2.176200
0.186700 2.232700
0.197800 2.303300
0.209000 2.387800
0.220200 2.483800
0.231300 2.629800
0.242500 2.816700
0.253600 2.926800
0.264800 2.949900
0.275900 2.818600
0.287100 2.700900
0.298300 2.614300
0.309400 2.470900
0.320600 2.227400
0.331700 2.049800
0.342900 1.969200
0.354100 1.898700
0.365200 1.837600
0.376400 1.785900
0.387500 1.755000
0.398700 1.744000
0.409800 1.753100
0.421000 1.757500
0.432200 1.818500
0.443300 2.056800
0.454500 2.349400
0.465600 2.664400
0.476800 2.856700
0.487900 3.059300
0.499100 3.260300
0.510300 3.468500
0.521400 3.250400
0.532600 3.270100
0.543700 3.241600
0.554900 3.012900
0.566000 2.967300
0.577200 2.930700
0.588400 2.824400
0.599500 2.721400
0.610700 2.700400
0.621800 2.698100
0.633000 2.695700
0.644200 2.689400
0.655300 2.681000
0.666500 2.677200
0.677600 2.678600
0.688800 2.688400
0.699900 2.703700
0.711100 2.721000
0.722300 2.732100
0.733400 2.737300
0.744600 2.767400
0.755700 2.779100
0.766900 2.817600
0.778000 2.871300
0.789200 2.935600
0.800400 3.030100
0.811500 3.145800
0.822700 3.306000
0.833800 3.554600
0.845000 4.124600
0.856200 4.454700
0.867300 4.508400
0.878500 4.611000
0.889600 4.736900
0.900800 5.409500
0.911900 5.595200
0.923100 5.620200
0.934300 5.562400
0.945400 5.426100
0.956600 5.271600
0.967700 5.151300
0.978900 4.960700
0.990000 4.866600
1.001200 4.790000
1.012400 4.710400
1.023500 4.653000
1.034700 4.623200
1.045800 4.596000
1.057000 4.601100
1.068200 4.627100
1.079300 4.656400
1.090500 4.733000
1.101600 4.851900
1.112800 4.952600
1.123900 5.039100
1.135100 5.104000
1.146300 5.129700
1.157400 5.200400
1.168600 5.372300
1.179700 5.577900
1.190900 5.764100
1.202000 5.889100
1.213200 5.804100
1.224400 5.769700
1.235500 5.789700
1.246700 5.835800
1.257800 6.129400
1.269000 6.147600
1.280100 6.165200
1.291300 6.140000
1.302500 6.046600
1.313600 5.912200
1.324800 5.829900
1.335900 5.718500
1.347100 5.516400
1.358300 5.347000
1.369400 5.173700
1.380600 5.055600
1.391700 5.125500
1.402900 5.079600
1.414000 5.000000
1.425200 4.927800
1.436400 4.880100
1.447500 4.855700
1.458700 4.882500
1.469800 4.935100
1.481000 5.046300
1.492100 5.205000
1.503300 5.304800
1.514500 5.263700
1.525600 5.273800
1.536800 5.286000
1.547900 5.301700
1.559100 5.352100
1.570300 5.412000
1.581400 5.421500
1.592600 5.284800
1.603700 5.222600
1.614900 5.187200
1.626000 5.214300
1.637200 5.456500
1.648400 5.313000
1.659500 5.339200
1.670700 5.375100
1.681800 5.393800
1.693000 5.381200
1.704100 5.388000
1.715300 5.409100
1.726500 5.448300
1.737600 5.503800
1.748800 5.696700
1.759900 5.835600
1.771100 5.916500
1.782300 5.997400
1.793400 6.139300
1.804600 6.247300
1.815700 6.332300
1.826900 6.307800
1.838000 6.190600
1.849200 6.078200
1.860400 5.917800
1.871500 5.888500
1.882700 5.780500
1.893800 5.660500
1.905000 5.597700
1.916100 5.614000
1.927300 5.763100
1.938500 6.198900
1.949600 6.134400
1.960800 6.132600
1.971900 6.251500
1.983100 6.368200
1.994200 6.495700
2.005400 7.349700
2.016600 7.364400
2.027700 6.221700
2.038900 5.395500
2.050000 4.992500
2.061200 4.609800
2.072400 4.280900
2.083500 3.984300
2.094700 3.799400
2.105800 3.783700
2.117000 3.786300
2.128100 3.794500
2.139300 3.843200
2.150500 3.927000
2.161600 4.036100
2.172800 4.074000
2.183900 4.083300
2.195100 4.069900
2.206200 4.071000
2.217400 4.187200
2.228600 4.304600
2.239700 4.497400
2.250900 4.590600
2.262000 4.638000
2.273200 4.666700
2.284400 4.712500
2.295500 4.741700
2.306700 4.820900
2.317800 4.928800
2.329000 5.069300
2.340100 5.118000
2.351300 5.339500
2.362500 5.536900
2.373600 5.788600
2.384800 6.256000
2.395900 6.515900
2.407100 6.713700
2.418200 6.745500
2.429400 6.563500
2.440600 6.403100
2.451700 6.362400
2.462900 6.355000
2.474000 6.018400
2.485200 5.197000
2.496300 4.120500
2.507500 3.438000
2.518700 3.202200
2.529800 3.095800
2.541000 3.025000
2.552100 2.963800
2.563300 2.909700
2.574500 2.885000
2.585600 2.906800
2.596800 2.724500
2.607900 2.636900
2.619100 2.554500
2.630200 2.478800
2.641400 2.418100
2.652600 2.368300
2.663700 2.318900
2.674900 2.286400
2.686000 2.196900
2.697200 2.101500
2.708300 2.011200
2.719500 1.928300
2.730700 1.855200
2.741800 1.804700
2.753000 1.755400
2.764100 1.707200
2.775300 1.660200
2.786500 1.615300
2.797600 1.572600
2.808800 1.521400
2.819900 1.458300
2.831100 1.393800
2.842200 1.330100
2.853400 1.272500
2.864600 1.269900
2.875700 1.285300
2.886900 1.297200
2.898000 1.284100
2.909200 1.242300
2.920300 1.172600
2.931500 1.078300
2.942700 0.959800
2.953800 0.841200
2.965000 0.588100
2.976100 0.238500
2.987300 0.204800
2.998500 0.170300
3.009600 0.136100
3.020800 0.104400
3.031900 0.075400
3.043100 0.049000
3.054200 0.026600
3.065400 0.010900
3.076600 0.002100
3.087700 0.000000
3.098900 0.000000
3.110000 0.000000
3.121200 0.000000
3.132300 0.000000
3.143500 0.000000
3.154700 0.000000
3.165800 0.000000
3.177000 0.000000
3.188100 0.000000
3.199300 0.000000
3.210400 0.000000
3.221600 0.000000
3.232800 0.000000
3.243900 0.000000
3.255100 0.000000
3.266200 0.000000
3.277400 0.000000
3.288600 0.000000
3.299700 0.000000
3.310900 0.000000
3.322000 0.000000
3.333200 0.000000
3.344300 0.000000
3.355500 0.000000
3.366700 0.000000
3.377800 0.000800
3.389000 0.002900
3.400100 0.006300
3.411300 0.011000
3.422400 0.016900
3.433600 0.024200
3.444800 0.032700
3.455900 0.042500
3.467100 0.053600
3.478200 0.058900
3.489400 0.063100
3.500600 0.067500
3.511700 0.072100
3.522900 0.076900
3.534000 0.081800
3.545200 0.086800
3.556300 0.091700
3.567500 0.096200
3.578700 0.100300
3.589800 0.104100
3.601000 0.107600
3.612100 0.110700
3.623300 0.113500
3.634400 0.115900
3.645600 0.118000
3.656800 0.119700
3.667900 0.123300
3.679100 0.128200
3.690200 0.133100
3.701400 0.138200
3.712600 0.143400
3.723700 0.148700
3.734900 0.154100
3.746000 0.159600
3.757200 0.165100
3.768300 0.187900
3.779500 0.203700
3.790700 0.220000
3.801800 0.236800
3.813000 0.254100
3.824100 0.271900
3.835300 0.290200
3.846400 0.309000
3.857600 0.328400
3.868800 0.348600
3.879900 0.369600
3.891100 0.391900
3.902200 0.415800
3.913400 0.445200
3.924500 0.595200
3.935700 1.012100
3.946900 1.402600
3.958000 1.638300
3.969200 1.899500
3.980300 2.095600
3.991500 2.278600
4.002700 2.423100
4.013800 2.577200
4.025000 2.751400
4.036100 2.969300
4.047300 3.247900
4.058400 3.447400
4.069600 3.544100
4.080800 3.585700
4.091900 3.670600
4.103100 3.776300
4.114200 3.921700
4.125400 4.053600
4.136500 4.022800
4.147700 4.197600
4.158900 4.432100
4.170000 4.646900
4.181200 4.877300
4.192300 5.088300
4.203500 5.320000
4.214700 5.423700
4.225800 5.420200
4.237000 5.341800
4.248100 5.292900
4.259300 5.161100
4.270400 4.940000
4.281600 4.719200
4.292800 4.582100
4.303900 4.453500
4.315100 4.367500
4.326200 4.289200
4.337400 3.999100
4.348500 3.625200
4.359700 3.407800
4.370900 3.258800
4.382000 3.128900
4.393200 3.017000
4.404300 2.893100
4.415500 2.848200
4.426700 2.823500
4.437800 2.794200
4.449000 2.783100
4.460100 2.785700
4.471300 2.814800
4.482400 2.853400
4.493600 2.987200
4.504800 3.296200
4.515900 3.730900
4.527100 4.090900
4.538200 4.276300
4.549400 4.437300
4.560500 4.642000
4.571700 4.739600
4.582900 5.266200
4.594000 5.323300
4.605200 5.348200
4.616300 5.151400
4.627500 5.006000
4.638600 4.850700
4.649800 4.939300
4.661000 5.047400
4.672100 5.140300
4.683300 5.261800
4.694400 5.475700
4.705600 5.732200
4.716800 5.783500
4.727900 5.742000
4.739100 5.642000
4.750200 5.423000
4.761400 5.255500
4.772500 4.981500
4.783700 4.717400
4.794900 4.500100
4.806000 4.310300
4.817200 4.088700
4.828300 3.747800
4.839500 3.451300
4.850600 3.083700
4.861800 2.636100
4.873000 2.333500
4.884100 2.253500
4.895300 2.262800
4.906400 2.328900
4.917600 2.428500
4.928800 2.560700
4.939900 2.844000
4.951100 2.943000
4.962200 3.139000
4.973400 3.392100
4.984500 3.631400
4.995700 3.809900
5.006900 4.109700
5.018000 5.253200
5.029200 5.295400
5.040300 5.505000
5.051500 5.809800
5.062600 6.117500
5.073800 6.487300
5.085000 6.733700
5.096100 6.661800
5.107300 6.530900
5.118400 6.357800
5.129600 6.308600
5.140800 6.331500
5.151900 6.364200
5.163100 6.230700
5.174200 6.187300
5.185400 6.139800
5.196500 6.031600
5.207700 5.748000
5.218900 5.613700
5.230000 4.882700
5.241200 4.262500
5.252300 3.729100
5.263500 3.244200
5.274600 2.893800
5.285800 2.555700
5.297000 2.246200
5.308100 1.955800
5.319300 1.723500
5.330400 1.534600
5.341600 1.360900
5.352700 1.194200
5.363900 1.045900
5.375100 0.920200
5.386200 0.815200
5.397400 0.704400
5.408500 0.570800
5.419700 0.462200
5.430900 0.429000
5.442000 0.379800
5.453200 0.319300
5.464300 0.261400
5.475500 0.206100
5.486600 0.156300
5.497800 0.133800
5.509000 0.160700
5.520100 0.173300
5.531300 0.164000
5.542400 0.156300
5.553600 0.150400
5.564700 0.146100
5.575900 0.143600
5.587100 0.138300
5.598200 0.129100
5.609400 0.123700
5.620500 0.120700
5.631700 0.119900
5.642900 0.121500
5.654000 0.134300
5.665200 0.174000
5.676300 0.229400
5.687500 0.295700
5.698600 0.367900
5.709800 0.443000
5.721000 0.521200
5.732100 0.608500
5.743300 0.706500
5.754400 0.813000
5.765600 0.926200
5.776700 1.036200
5.787900 1.135500
5.799100 1.208900
5.810200 1.274500
5.821400 1.340500
5.832500 1.404300
5.843700 1.468900
5.854900 1.533300
5.866000 1.592200
5.877200 1.596100
5.888300 1.575100
5.899500 1.493400
5.910600 1.486500
5.921800 1.480200
5.933000 1.478300
5.944100 1.480300
5.955300 1.485500
5.966400 1.493800
5.977600 1.505300
5.988700 1.520700
5.999900 1.541300
6.011100 1.565500
6.022200 1.591100
6.033400 1.621700
6.044500 1.660100
6.055700 1.705300
6.066800 1.753400
6.078000 1.801600
6.089200 1.850100
6.100300 1.898700
6.111500 1.944200
6.122600 1.990600
6.133800 2.037800
6.145000 2.088500
6.156100 2.147500
6.167300 2.190600
6.178400 2.215500
6.189600 2.239000
6.200700 2.268500
6.211900 2.310300
6.223100 2.365800
6.234200 2.385300
6.245400 2.373500
6.256500 2.356400
6.267700 2.363200
6.278800 2.348800
6.290000 2.305000
6.301200 2.263800
6.312300 2.249500
6.323500 2.240800
6.334600 2.242700
6.345800 2.295400
6.357000 2.328300
6.368100 2.340400
6.379300 2.245900
6.390400 2.134000
6.401600 2.039200
6.412700 1.972400
6.423900 1.939200
6.435100 1.929900
6.446200 1.923000
6.457400 1.919000
6.468500 1.918200
6.479700 1.920100
6.490800 2.144000
6.502000 2.194400
6.513200 2.110300
6.524300 2.062900
6.535500 2.030000
6.546600 1.998900
6.557800 1.969600
6.569000 1.986200
6.580100 2.009300
6.591300 1.962500
6.602400 1.860300
6.613600 1.701000
6.624700 1.593400
6.635900 1.564500
6.647100 1.554900
6.658200 1.555700
6.669400 1.544500
6.680500 1.538400
6.691700 1.556800
6.702800 1.603400
6.714000 1.711700
6.725200 1.815600
6.736300 1.975600
6.747500 2.227600
6.758600 2.383700
6.769800 2.101400
6.780900 1.883700
6.792100 1.874100
6.803300 1.901000
6.814400 2.007300
6.825600 2.186100
6.836700 2.384000
6.847900 2.490100
6.859100 2.523300
6.870200 2.679200
6.881400 2.844600
6.892500 3.011200
6.903700 3.158200
6.914800 3.371400
6.926000 3.792100
6.937200 3.799300
6.948300 3.792900
6.959500 3.712200
6.970600 3.769600
6.981800 3.790100
6.992900 3.866600
7.004100 3.999700
7.015300 4.199500
7.026400 4.360200
7.037600 4.506100
7.048700 4.708700
7.059900 4.964700
7.071100 5.236800
7.082200 5.536600
7.093400 5.988400
7.104500 6.366000
7.115700 6.518800
7.126800 6.356000
7.138000 5.894000
7.149200 5.766500
7.160300 5.717000
7.171500 5.676400
7.182600 5.747500
7.193800 6.026800
7.204900 6.277500
7.216100 6.226800
7.227300 5.361100
7.238400 4.425700
7.249600 4.385700
7.260700 4.311800
7.271900 4.292300
7.283100 4.462700
7.294200 5.218400
7.305400 5.613800
7.316500 5.937500
7.327700 6.276900
7.338800 6.531900
7.350000 6.411500
7.361200 6.246700
7.372300 6.211500
7.383500 5.790200
7.394600 5.529900
7.405800 5.322500
7.416900 5.008100
7.428100 4.643100
7.439300 4.393300
7.450400 4.239700
7.461600 4.213000
7.472700 4.254500
7.483900 4.296900
7.495000 4.382000
7.506200 4.726700
7.517400 5.120200
7.528500 5.579200
7.539700 5.873500
7.550800 5.989800
7.562000 6.090000
7.573200 6.124000
7.584300 6.594500
7.595500 6.723200
7.606600 6.769900
7.617800 6.685100
7.628900 6.608600
7.640100 6.409600
7.651300 6.265200
7.662400 6.083400
7.673600 5.883200
7.684700 5.418100
7.695900 4.910400
7.707000 4.612000
7.718200 4.424300
7.729400 4.289800
7.740500 4.187800
7.751700 4.031400
7.762800 3.755900
7.774000 3.509700
7.785200 3.300100
7.796300 3.131200
7.807500 2.959100
7.818600 2.814300
7.829800 2.760900
7.840900 2.527000
7.852100 2.379400
7.863300 2.273700
7.874400 2.274400
7.885600 2.311500
7.896700 2.479100
7.907900 2.583400
7.919000 2.675200
7.930200 2.749200
7.941400 2.801700
7.952500 2.822800
7.963700 2.837600
7.974800 2.850800
7.986000 2.805400
7.997200 2.763500
8.008300 2.801100
8.019500 2.850600
8.030600 2.904000
8.041800 2.961500
8.052900 3.034200
8.064100 3.123900
8.075300 3.261500
8.086400 3.464800
8.097600 3.700500
8.108700 4.016200
8.119900 4.468000
8.131000 4.528000
8.142200 4.253300
8.153400 4.257300
8.164500 4.219000
8.175700 4.135300
8.186800 4.005600
8.198000 3.784800
8.209100 3.591900
8.220300 3.412900
8.231500 3.271800
8.242600 3.140600
8.253800 3.000500
8.264900 2.921900
8.276100 2.863500
8.287300 2.779800
8.298400 2.697400
8.309600 2.622300
8.320700 2.547700
8.331900 2.519000
8.343000 2.516500
8.354200 2.552400
8.365400 2.578700
8.376500 2.546700
8.387700 2.575300
8.398800 2.608100
8.410000 2.649800
8.421100 2.687200
8.432300 2.688800
8.443500 2.677100
8.454600 2.652900
8.465800 2.639800
8.476900 2.650100
8.488100 2.781900
8.499300 2.969700
8.510400 3.022600
8.521600 3.096700
8.532700 3.175600
8.543900 3.319300
8.555000 3.543800
8.566200 3.651700
8.577400 3.744600
8.588500 3.752100
8.599700 3.798200
8.610800 3.899300
8.622000 3.958000
8.633100 4.009500
8.644300 4.092400
8.655500 4.182000
8.666600 4.239700
8.677800 4.149300
8.688900 4.213000
8.700100 4.384200
8.711200 4.571400
8.722400 4.872100
8.733600 5.008200
8.744700 5.169300
8.755900 5.371800
8.767000 5.430400
8.778200 5.419000
8.789400 5.324500
8.800500 5.035800
8.811700 4.757600
8.822800 4.621900
8.834000 4.610300
8.845100 4.475800
8.856300 4.433700
8.867500 4.389700
8.878600 4.291200
8.889800 4.121800
8.900900 4.061200
8.912100 4.018300
8.923200 4.027100
8.934400 3.928900
8.945600 3.851900
8.956700 3.776200
8.967900 3.717600
8.979000 3.590200
8.990200 3.552900
9.001400 3.527700
9.012500 3.486500
9.023700 3.420400
9.034800 3.404900
9.046000 3.422300
9.057100 3.470400
9.068300 4.107300
9.079500 3.851800
9.090600 3.937700
9.101800 3.924000
9.112900 3.704000
9.124100 3.603700
9.135200 3.522500
9.146400 3.422400
9.157600 3.436000
9.168700 3.484200
9.179900 3.575100
9.191000 3.682400
9.202200 3.765900
9.213400 3.776200
9.224500 3.770300
9.235700 3.822100
9.246800 3.886400
9.258000 3.969300
9.269100 4.010000
9.280300 4.044700
9.291500 4.105900
9.302600 4.269900
9.313800 4.452600
9.324900 4.662400
9.336100 4.987100
9.347200 5.257800
9.358400 5.691600
9.369600 6.206700
9.380700 5.699400
9.391900 5.571400
9.403000 5.509900
9.414200 5.472700
9.425300 5.483300
9.436500 5.579300
9.447700 6.034700
9.458800 6.439200
9.470000 7.008300
9.481100 7.428200
9.492300 7.760100
9.503500 7.671400
9.514600 7.572500
9.525800 7.619500
9.536900 7.567100
9.548100 7.478500
9.559200 7.194500
9.570400 6.875900
9.581600 6.636100
9.592700 5.920000
9.603900 5.639300
9.615000 5.377400
9.626200 5.109200
9.637300 4.917200
9.648500 4.776300
9.659700 4.758700
9.670800 4.801600
9.682000 4.759600
9.693100 4.638800
9.704300 4.462100
9.715500 4.265700
9.726600 4.091400
9.737800 3.979700
9.748900 4.043700
9.760100 3.997700
9.771200 3.959900
9.782400 3.966900
9.793600 3.995200
9.804700 4.021600
9.815900 4.004800
9.827000 3.953900
9.838200 3.879300
9.849300 3.841900
9.860500 3.883400
9.871700 4.011100
9.882800 4.112500
9.894000 4.057400
9.905100 4.022200
9.916300 3.994300
9.927500 3.964600
9.938600 3.915100
9.949800 3.890000
9.960900 3.861200
9.972100 3.698300
9.983200 3.551500
9.994400 3.428100
10.005600 3.336100
10.016700 3.260900
10.027900 3.193100
10.039000 3.127200
10.050200 3.079100
10.061300 3.046200
10.072500 3.027800
10.083700 3.022400
10.094800 3.029400
10.106000 3.027300
10.117100 3.017600
10.128300 3.013000
10.139400 3.008400
10.150600 3.000000
10.161800 2.989300
10.172900 2.980900
10.184100 2.981500
10.195200 2.992400
10.206400 2.998300
10.217600 3.017600
10.228700 3.051200
10.239900 3.086600
10.251000 3.131600
10.262200 3.186300
10.273300 3.248100
10.284500 3.318600
10.295700 3.403600
10.306800 3.486000
10.318000 3.547400
10.329100 3.570400
10.340300 3.551200
10.351400 3.494300
10.362600 3.411100
10.373800 3.324300
10.384900 3.255700
10.396100 3.215000
10.407200 3.209900
10.418400 3.216000
10.429600 3.238000
10.440700 3.268500
10.451900 3.284900
10.463000 3.278400
10.474200 3.249500
10.485300 3.200200
10.496500 3.130900
10.507700 3.039900
10.518800 2.981200
10.530000 2.893500
10.541100 2.865600
10.552300 2.842500
10.563400 2.824500
10.574600 2.809900
10.585800 2.796300
10.596900 2.783700
10.608100 2.782200
10.619200 2.791000
10.630400 2.798800
10.641600 2.751900
10.652700 2.590900
10.663900 2.450900
10.675000 2.383800
10.686200 2.435500
10.697300 2.440300
10.708500 2.446700
10.719700 2.455100
10.730800 2.467400
10.742000 2.440900
10.753100 2.449800
10.764300 2.461800
10.775400 2.477400
10.786600 2.529500
10.797800 2.564700
10.808900 2.592000
10.820100 2.607100
10.831200 2.623700
10.842400 2.642800
10.853500 2.655500
10.864700 2.664100
10.875900 2.668500
10.887000 2.668900
10.898200 2.685900
10.909300 2.621500
10.920500 2.539000
10.931700 2.460400
10.942800 2.392100
10.954000 2.343800
10.965100 2.312200
10.976300 2.290700
10.987400 2.268900
10.998600 2.248900
11.009800 2.231800
11.020900 2.217900
11.032100 2.207400
11.043200 2.351000
11.054400 2.356000
11.065500 2.277600
11.076700 2.267100
11.087900 2.248000
11.099000 2.263000
11.110200 2.202100
11.121300 2.144900
11.132500 2.091600
11.143700 2.042400
11.154800 2.151200
11.166000 2.242900
11.177100 2.295100
11.188300 2.343100
11.199400 2.368300
11.210600 2.342600
11.221800 2.263600
11.232900 2.126300
11.244100 2.027500
11.255200 1.946400
11.266400 1.911400
11.277500 1.946300
11.288700 2.015000
11.299900 2.092100
11.311000 2.171600
11.322200 2.249600
11.333300 2.317400
11.344500 2.372900
11.355700 2.416800
11.366800 2.510100
11.378000 2.861900
11.389100 3.122400
11.400300 3.206400
11.411400 3.177200
11.422600 3.125000
11.433800 3.133900
11.444900 3.159500
11.456100 3.150900
11.467200 3.108800
11.478400 3.034800
11.489500 2.938100
11.500700 2.797500
11.511900 2.617500
11.523000 2.416300
11.534200 2.178100
11.545300 1.890700
11.556500 1.562200
11.567600 1.227100
11.578800 0.971400
11.590000 0.703400
11.601100 0.487800
11.612300 0.324400
11.623400 0.209700
11.634600 0.097600
11.645800 0.052800
11.656900 0.024200
11.668100 0.006600
11.679200 0.000000
11.690400 0.000000
11.701500 0.000000
11.712700 0.000000
11.723900 0.000000
11.735000 0.000000
11.746200 0.000000
11.757300 0.000000
11.768500 0.000000
11.779600 0.000000
11.790800 0.000000
11.802000 0.000000
11.813100 0.000000
11.824300 0.000000
11.835400 0.000000
11.846600 0.000000
11.857800 0.000000
11.868900 0.000000
11.880100 0.000000
11.891200 0.000000
11.902400 0.000000
11.913500 0.000000
11.924700 0.000000
11.935900 0.000000
11.947000 0.000000
11.958200 0.000000
11.969300 0.000000
11.980500 0.000000
11.991600 0.000000
12.002800 0.000000
12.014000 0.000000
12.025100 0.000000
12.036300 0.000000
12.047400 0.000000
12.058600 0.000000
12.069800 0.000000
12.080900 0.000000
12.092100 0.000000
12.103200 0.000000
12.114400 0.000000
12.125500 0.000000
12.136700 0.000000
12.147900 0.000000
12.159000 0.000000
12.170200 0.000000
12.181300 0.000000
12.192500 0.000000
12.203600 0.000000
12.214800 0.000000
12.226000 0.000000
12.237100 0.000000
12.248300 0.000000
12.259400 0.000000
12.270600 0.000000
12.281700 0.000000
12.292900 0.000000
12.304100 0.000000
12.315200 0.000000
12.326400 0.000000
12.337500 0.000000
12.348700 0.000000
12.359900 0.000000
12.371000 0.000000
12.382200 0.000000
12.393300 0.000000
12.404500 0.000000
12.415600 0.000000
12.426800 0.000000
12.438000 0.000000
12.449100 0.000000
12.460300 0.000000
12.471400 0.000000
12.482600 0.000000
12.493700 0.000000
12.504900 0.000000
12.516100 0.000000
12.527200 0.000000
12.538400 0.000000
12.549500 0.000000
12.560700 0.000000
12.571900 0.000000
12.583000 0.000000
12.594200 0.000000
12.605300 0.000000
12.616500 0.000000
12.627600 0.000000
12.638800 0.000000
12.650000 0.000000
12.661100 0.000000
12.672300 0.000000
12.683400 0.000000
12.694600 0.000000
e
