set title 'mp-1272749 - Density of States'
set xlabel 'Energy (eV)'
set ylabel 'DOS (states/eV)'
set grid
set xrange [-10:10]
set yrange [0:6.836]
set xzeroaxis lt -1
set terminal png size 800,600
set output 'mp-1272749_dos_gnuplot.png'
plot '-' using 1:2 with lines title 'DOS'
-23.193700 0.000000
-23.171400 0.000000
-23.149100 0.000000
-23.126800 0.000000
-23.104500 0.000000
-23.082100 0.000000
-23.059800 0.000000
-23.037500 0.000000
-23.015200 0.000000
-22.992900 0.000000
-22.970600 0.000000
-22.948200 0.000000
-22.925900 0.000000
-22.903600 0.000000
-22.881300 0.000000
-22.859000 0.000000
-22.836700 0.000000
-22.814300 0.000000
-22.792000 0.000000
-22.769700 0.000000
-22.747400 0.000000
-22.725100 0.000000
-22.702800 0.000000
-22.680400 0.000000
-22.658100 0.000000
-22.635800 0.000000
-22.613500 0.000000
-22.591200 0.000000
-22.568900 0.000000
-22.546500 0.000000
-22.524200 0.000000
-22.501900 0.000000
-22.479600 0.000000
-22.457300 0.000000
-22.435000 0.000000
-22.412600 0.000000
-22.390300 0.000000
-22.368000 0.000000
-22.345700 0.000000
-22.323400 0.000000
-22.301100 0.000000
-22.278700 0.000000
-22.256400 0.000000
-22.234100 0.000000
-22.211800 0.000000
-22.189500 0.000000
-22.167200 0.000000
-22.144800 0.000000
-22.122500 0.000000
-22.100200 0.000000
-22.077900 0.000000
-22.055600 0.000000
-22.033300 0.000000
-22.010900 0.000000
-21.988600 0.000000
-21.966300 0.000000
-21.944000 0.000000
-21.921700 0.000000
-21.899400 0.000000
-21.877000 0.000000
-21.854700 0.000000
-21.832400 0.000000
-21.810100 0.000000
-21.787800 0.000000
-21.765500 0.000000
-21.743100 0.000000
-21.720800 0.000000
-21.698500 0.000000
-21.676200 0.000000
-21.653900 0.000000
-21.631600 0.000000
-21.609200 0.000000
-21.586900 0.000000
-21.564600 0.000000
-21.542300 0.000000
-21.520000 0.000000
-21.497700 0.000000
-21.475300 0.000000
-21.453000 0.000000
-21.430700 0.000000
-21.408400 0.000000
-21.386100 0.000000
-21.363800 0.000000
-21.341400 0.000000
-21.319100 0.000000
-21.296800 0.000000
-21.274500 0.000000
-21.252200 0.000000
-21.229900 0.000000
-21.207500 0.000000
-21.185200 0.000000
-21.162900 0.039800
-21.140600 0.246400
-21.118300 0.286200
-21.096000 0.326100
-21.073600 0.284400
-21.051300 0.295600
-21.029000 0.310700
-21.006700 0.325700
-20.984400 0.305100
-20.962100 0.304600
-20.939700 0.312300
-20.917400 0.320800
-20.895100 0.328700
-20.872800 0.317900
-20.850500 0.320900
-20.828200 0.324600
-20.805800 0.328700
-20.783500 0.334800
-20.761200 0.340800
-20.738900 0.339400
-20.716600 0.340100
-20.694300 0.343000
-20.671900 0.347300
-20.649600 0.351600
-20.627300 0.356000
-20.605000 0.361000
-20.582700 0.364400
-20.560400 0.366300
-20.538000 0.370000
-20.515700 0.373900
-20.493400 0.378400
-20.471100 0.383100
-20.448800 0.387700
-20.426400 0.392400
-20.404100 0.397500
-20.381800 0.402800
-20.359500 0.408100
-20.337200 0.413300
-20.314900 0.418600
-20.292500 0.423800
-20.270200 0.429100
-20.247900 0.434400
-20.225600 0.441200
-20.203300 0.450800
-20.181000 0.458800
-20.158600 0.466200
-20.136300 0.473200
-20.114000 0.480100
-20.091700 0.487000
-20.069400 0.493600
-20.047100 0.500200
-20.024700 0.517000
-20.002400 0.530300
-19.980100 0.541400
-19.957800 0.552100
-19.935500 0.561900
-19.913200 0.571600
-19.890800 0.581200
-19.868500 0.592600
-19.846200 0.617300
-19.823900 0.640200
-19.801600 0.657900
-19.779300 0.674300
-19.756900 0.689900
-19.734600 0.704600
-19.712300 0.719400
-19.690000 0.760100
-19.667700 0.800700
-19.645400 0.831900
-19.623000 0.860400
-19.600700 0.888000
-19.578400 0.915100
-19.556100 0.983500
-19.533800 1.067600
-19.511500 1.151900
-19.489100 1.247800
-19.466800 1.635700
-19.444500 1.569300
-19.422200 1.133100
-19.399900 0.878000
-19.377600 0.795900
-19.355200 1.436800
-19.332900 1.769300
-19.310600 1.356000
-19.288300 3.496500
-19.266000 2.840000
-19.243700 2.630800
-19.221300 2.605000
-19.199000 2.594300
-19.176700 2.646100
-19.154400 2.686800
-19.132100 2.724000
-19.109800 2.785000
-19.087400 2.839400
-19.065100 2.893400
-19.042800 2.965100
-19.020500 3.063100
-18.998200 3.208100
-18.975900 0.000000
-18.953500 0.000000
-18.931200 0.000000
-18.908900 0.000000
-18.886600 0.000000
-18.864300 0.000000
-18.842000 0.000000
-18.819600 0.000000
-18.797300 0.000000
-18.775000 0.000000
-18.752700 0.000000
-18.730400 0.000000
-18.708100 0.000000
-18.685700 0.000000
-18.663400 0.000000
-18.641100 0.000000
-18.618800 0.000000
-18.596500 0.000000
-18.574200 0.000000
-18.551800 0.000000
-18.529500 0.000000
-18.507200 0.000000
-18.484900 0.000000
-18.462600 0.000000
-18.440300 0.000000
-18.417900 0.000000
-18.395600 0.000000
-18.373300 0.000000
-18.351000 0.000000
-18.328700 0.000000
-18.306400 0.000000
-18.284000 0.000000
-18.261700 0.000000
-18.239400 0.000000
-18.217100 0.000000
-18.194800 0.000000
-18.172500 0.000000
-18.150100 0.000000
-18.127800 0.000000
-18.105500 0.000000
-18.083200 0.000000
-18.060900 0.000000
-18.038600 0.000000
-18.016200 0.000000
-17.993900 0.000000
-17.971600 0.000000
-17.949300 0.000000
-17.927000 0.000000
-17.904700 0.000000
-17.882300 0.000000
-17.860000 0.000000
-17.837700 0.000000
-17.815400 0.000000
-17.793100 0.000000
-17.770800 0.000000
-17.748400 0.000000
-17.726100 0.000000
-17.703800 0.000000
-17.681500 0.000000
-17.659200 0.000000
-17.636900 0.000000
-17.614500 0.000000
-17.592200 0.000000
-17.569900 0.000000
-17.547600 0.000000
-17.525300 0.000000
-17.503000 0.000000
-17.480600 0.000000
-17.458300 0.000000
-17.436000 0.000000
-17.413700 0.000000
-17.391400 0.000000
-17.369100 0.000000
-17.346700 0.000000
-17.324400 0.000000
-17.302100 0.000000
-17.279800 0.000000
-17.257500 0.000000
-17.235100 0.000000
-17.212800 0.000000
-17.190500 0.000000
-17.168200 0.000000
-17.145900 0.000000
-17.123600 0.000000
-17.101200 0.000000
-17.078900 0.000000
-17.056600 0.000000
-17.034300 0.000000
-17.012000 0.000000
-16.989700 0.000000
-16.967300 0.000000
-16.945000 0.000000
-16.922700 0.000000
-16.900400 0.000000
-16.878100 0.000000
-16.855800 0.000000
-16.833400 0.000000
-16.811100 0.000000
-16.788800 0.000000
-16.766500 0.000000
-16.744200 0.000000
-16.721900 0.000000
-16.699500 0.000000
-16.677200 0.000000
-16.654900 0.000000
-16.632600 0.000000
-16.610300 0.000000
-16.588000 0.000000
-16.565600 0.000000
-16.543300 0.000000
-16.521000 0.000000
-16.498700 0.000000
-16.476400 0.000000
-16.454100 0.000000
-16.431700 0.000000
-16.409400 0.000000
-16.387100 0.000000
-16.364800 0.000000
-16.342500 0.000000
-16.320200 0.000000
-16.297800 0.000000
-16.275500 0.000000
-16.253200 0.000000
-16.230900 0.000000
-16.208600 0.000000
-16.186300 0.000000
-16.163900 0.000000
-16.141600 0.000000
-16.119300 0.000000
-16.097000 0.000000
-16.074700 0.000000
-16.052400 0.000000
-16.030000 0.000000
-16.007700 0.000000
-15.985400 0.000000
-15.963100 0.000000
-15.940800 0.000000
-15.918500 0.000000
-15.896100 0.000000
-15.873800 0.000000
-15.851500 0.000000
-15.829200 0.000000
-15.806900 0.000000
-15.784600 0.000000
-15.762200 0.000000
-15.739900 0.000000
-15.717600 0.000000
-15.695300 0.000000
-15.673000 0.000000
-15.650700 0.000000
-15.628300 0.000000
-15.606000 0.000000
-15.583700 0.000000
-15.561400 0.000000
-15.539100 0.000000
-15.516800 0.000000
-15.494400 0.000000
-15.472100 0.000000
-15.449800 0.000000
-15.427500 0.000000
-15.405200 0.000000
-15.382900 0.000000
-15.360500 0.000000
-15.338200 0.000000
-15.315900 0.000000
-15.293600 0.000000
-15.271300 0.000000
-15.249000 0.000000
-15.226600 0.000000
-15.204300 0.000000
-15.182000 0.000000
-15.159700 0.000000
-15.137400 0.000000
-15.115100 0.000000
-15.092700 0.000000
-15.070400 0.000000
-15.048100 0.000000
-15.025800 0.000000
-15.003500 0.000000
-14.981200 0.000000
-14.958800 0.000000
-14.936500 0.000000
-14.914200 0.000000
-14.891900 0.000000
-14.869600 0.000000
-14.847300 0.000000
-14.824900 0.000000
-14.802600 0.000000
-14.780300 0.000000
-14.758000 0.000000
-14.735700 0.000000
-14.713400 0.000000
-14.691000 0.000000
-14.668700 0.000000
-14.646400 0.000000
-14.624100 0.000000
-14.601800 0.000000
-14.579500 0.000000
-14.557100 0.000000
-14.534800 0.000000
-14.512500 0.000000
-14.490200 0.000000
-14.467900 0.000000
-14.445600 0.000000
-14.423200 0.000000
-14.400900 0.000000
-14.378600 0.000000
-14.356300 0.000000
-14.334000 0.000000
-14.311700 0.000000
-14.289300 0.000000
-14.267000 0.000000
-14.244700 0.000000
-14.222400 0.000000
-14.200100 0.000000
-14.177800 0.000000
-14.155400 0.000000
-14.133100 0.000000
-14.110800 0.000000
-14.088500 0.000000
-14.066200 0.000000
-14.043800 0.000000
-14.021500 0.000000
-13.999200 0.000000
-13.976900 0.000000
-13.954600 0.000000
-13.932300 0.000000
-13.909900 0.000000
-13.887600 0.000000
-13.865300 0.000000
-13.843000 0.000000
-13.820700 0.000000
-13.798400 0.000000
-13.776000 0.000000
-13.753700 0.000000
-13.731400 0.000000
-13.709100 0.000000
-13.686800 0.000000
-13.664500 0.000000
-13.642100 0.000000
-13.619800 0.000000
-13.597500 0.000000
-13.575200 0.000000
-13.552900 0.000000
-13.530600 0.000000
-13.508200 0.000000
-13.485900 0.000000
-13.463600 0.000000
-13.441300 0.000000
-13.419000 0.000000
-13.396700 0.000000
-13.374300 0.000000
-13.352000 0.000000
-13.329700 0.000000
-13.307400 0.000000
-13.285100 0.000000
-13.262800 0.000000
-13.240400 0.000000
-13.218100 0.000000
-13.195800 0.000000
-13.173500 0.000000
-13.151200 0.000000
-13.128900 0.000000
-13.106500 0.000000
-13.084200 0.000000
-13.061900 0.000000
-13.039600 0.000000
-13.017300 0.000000
-12.995000 0.000000
-12.972600 0.000000
-12.950300 0.000000
-12.928000 0.000000
-12.905700 0.000000
-12.883400 0.000000
-12.861100 0.000000
-12.838700 0.000000
-12.816400 0.000000
-12.794100 0.000000
-12.771800 0.000000
-12.749500 0.000000
-12.727200 0.000000
-12.704800 0.000000
-12.682500 0.000000
-12.660200 0.000000
-12.637900 0.000000
-12.615600 0.000000
-12.593300 0.000000
-12.570900 0.000000
-12.548600 0.000000
-12.526300 0.000000
-12.504000 0.000000
-12.481700 0.000000
-12.459400 0.000000
-12.437000 0.000000
-12.414700 0.000000
-12.392400 0.000000
-12.370100 0.000000
-12.347800 0.000000
-12.325500 0.000000
-12.303100 0.000000
-12.280800 0.000000
-12.258500 0.000000
-12.236200 0.000000
-12.213900 0.000000
-12.191600 0.000000
-12.169200 0.000000
-12.146900 0.000000
-12.124600 0.000000
-12.102300 0.000000
-12.080000 0.000000
-12.057700 0.000000
-12.035300 0.000000
-12.013000 0.000000
-11.990700 0.000000
-11.968400 0.000000
-11.946100 0.000000
-11.923800 0.000000
-11.901400 0.000000
-11.879100 0.000000
-11.856800 0.000000
-11.834500 0.000000
-11.812200 0.000000
-11.789900 0.000000
-11.767500 0.000000
-11.745200 0.000000
-11.722900 0.000000
-11.700600 0.000000
-11.678300 0.000000
-11.656000 0.000000
-11.633600 0.000000
-11.611300 0.000000
-11.589000 0.000000
-11.566700 0.000000
-11.544400 0.000000
-11.522100 0.000000
-11.499700 0.000000
-11.477400 0.000000
-11.455100 0.000000
-11.432800 0.000000
-11.410500 0.000000
-11.388200 0.000000
-11.365800 0.000000
-11.343500 0.000000
-11.321200 0.000000
-11.298900 0.000000
-11.276600 0.000000
-11.254300 0.000000
-11.231900 0.000000
-11.209600 0.000000
-11.187300 0.000000
-11.165000 0.000000
-11.142700 0.000000
-11.120400 0.000000
-11.098000 0.000000
-11.075700 0.000000
-11.053400 0.000000
-11.031100 0.000000
-11.008800 0.000000
-10.986500 0.000000
-10.964100 0.000000
-10.941800 0.000000
-10.919500 0.000000
-10.897200 0.000000
-10.874900 0.000000
-10.852500 0.000000
-10.830200 0.000000
-10.807900 0.000000
-10.785600 0.000000
-10.763300 0.000000
-10.741000 0.000000
-10.718600 0.000000
-10.696300 0.000000
-10.674000 0.000000
-10.651700 0.000000
-10.629400 0.000000
-10.607100 0.000000
-10.584700 0.000000
-10.562400 0.000000
-10.540100 0.000000
-10.517800 0.000000
-10.495500 0.000000
-10.473200 0.000000
-10.450800 0.000000
-10.428500 0.000000
-10.406200 0.000000
-10.383900 0.000000
-10.361600 0.000000
-10.339300 0.000000
-10.316900 0.000000
-10.294600 0.000000
-10.272300 0.000000
-10.250000 0.000000
-10.227700 0.000000
-10.205400 0.000000
-10.183000 0.000000
-10.160700 0.000000
-10.138400 0.000000
-10.116100 0.000000
-10.093800 0.000000
-10.071500 0.000000
-10.049100 0.000000
-10.026800 0.000000
-10.004500 0.000000
-9.982200 0.000000
-9.959900 0.000000
-9.937600 0.000000
-9.915200 0.000000
-9.892900 0.000000
-9.870600 0.000000
-9.848300 0.000000
-9.826000 0.000000
-9.803700 0.000000
-9.781300 0.000000
-9.759000 0.000000
-9.736700 0.000000
-9.714400 0.000000
-9.692100 0.000000
-9.669800 0.000000
-9.647400 0.000000
-9.625100 0.000000
-9.602800 0.000000
-9.580500 0.000000
-9.558200 0.000000
-9.535900 0.000000
-9.513500 0.000000
-9.491200 0.000000
-9.468900 0.000000
-9.446600 0.000000
-9.424300 0.000000
-9.402000 0.000000
-9.379600 0.000000
-9.357300 0.000000
-9.335000 0.000000
-9.312700 0.000000
-9.290400 0.000000
-9.268100 0.000000
-9.245700 0.000000
-9.223400 0.000000
-9.201100 0.000000
-9.178800 0.000000
-9.156500 0.000000
-9.134200 0.000000
-9.111800 0.000000
-9.089500 0.000000
-9.067200 0.000000
-9.044900 0.000000
-9.022600 0.000000
-9.000300 0.000000
-8.977900 0.000000
-8.955600 0.000000
-8.933300 0.000000
-8.911000 0.000000
-8.888700 0.000000
-8.866400 0.000000
-8.844000 0.000000
-8.821700 0.000000
-8.799400 0.000000
-8.777100 0.000000
-8.754800 0.000000
-8.732500 0.000000
-8.710100 0.000000
-8.687800 0.000000
-8.665500 0.000000
-8.643200 0.000000
-8.620900 0.000000
-8.598600 0.000000
-8.576200 0.000000
-8.553900 0.000000
-8.531600 0.000000
-8.509300 0.000000
-8.487000 0.000000
-8.464700 0.517500
-8.442300 0.467100
-8.420000 0.538700
-8.397700 0.519900
-8.375400 0.477500
-8.353100 0.483700
-8.330800 0.504700
-8.308400 0.525700
-8.286100 0.546600
-8.263800 0.534500
-8.241500 0.520600
-8.219200 0.523500
-8.196900 0.532500
-8.174500 0.541800
-8.152200 0.552600
-8.129900 0.564300
-8.107600 0.576000
-8.085300 0.584400
-8.063000 0.582700
-8.040600 0.587800
-8.018300 0.593500
-7.996000 0.602800
-7.973700 0.612700
-7.951400 0.622800
-7.929100 0.636800
-7.906700 0.652200
-7.884400 0.666100
-7.862100 0.679400
-7.839800 0.694700
-7.817500 0.709400
-7.795200 0.724100
-7.772800 0.738700
-7.750500 0.771900
-7.728200 0.807700
-7.705900 0.843000
-7.683600 0.973800
-7.661200 1.038600
-7.638900 0.952300
-7.616600 0.909500
-7.594300 1.314200
-7.572000 0.736100
-7.549700 0.681500
-7.527300 1.212900
-7.505000 1.350100
-7.482700 1.191300
-7.460400 1.157000
-7.438100 1.218000
-7.415800 1.167100
-7.393400 1.203900
-7.371100 1.242500
-7.348800 1.265300
-7.326500 1.254000
-7.304200 1.245500
-7.281900 1.195100
-7.259500 1.218700
-7.237200 1.240700
-7.214900 1.202900
-7.192600 1.180300
-7.170300 1.167500
-7.148000 1.156900
-7.125600 1.120000
-7.103300 1.118900
-7.081000 1.112800
-7.058700 1.103200
-7.036400 1.073800
-7.014100 1.055700
-6.991700 1.029000
-6.969400 1.021500
-6.947100 1.013500
-6.924800 1.004100
-6.902500 0.999600
-6.880200 1.012000
-6.857800 0.980900
-6.835500 1.130300
-6.813200 0.722200
-6.790900 1.085800
-6.768600 1.173900
-6.746300 1.175700
-6.723900 1.212800
-6.701600 1.251300
-6.679300 1.273400
-6.657000 1.301600
-6.634700 1.383600
-6.612400 1.559900
-6.590000 1.775500
-6.567700 1.873400
-6.545400 2.327600
-6.523100 2.112600
-6.500800 1.978600
-6.478500 1.798900
-6.456100 1.390800
-6.433800 1.002700
-6.411500 0.664700
-6.389200 0.569900
-6.366900 0.783300
-6.344600 0.997600
-6.322200 1.535000
-6.299900 1.676500
-6.277600 1.812300
-6.255300 1.990000
-6.233000 2.313700
-6.210700 2.771400
-6.188300 2.186800
-6.166000 2.573100
-6.143700 2.438500
-6.121400 1.528300
-6.099100 1.507300
-6.076800 1.486600
-6.054400 1.491200
-6.032100 1.514200
-6.009800 2.140300
-5.987500 2.069400
-5.965200 1.378900
-5.942900 1.109400
-5.920500 0.915700
-5.898200 0.748600
-5.875900 0.709700
-5.853600 0.644500
-5.831300 0.544300
-5.809000 0.467400
-5.786600 0.453800
-5.764300 0.440100
-5.742000 0.444100
-5.719700 0.397900
-5.697400 0.305400
-5.675100 0.210500
-5.652700 0.115500
-5.630400 0.029600
-5.608100 0.000000
-5.585800 0.000000
-5.563500 0.288300
-5.541200 0.312700
-5.518800 0.346800
-5.496500 0.988300
-5.474200 1.334000
-5.451900 1.775800
-5.429600 2.068000
-5.407300 2.096500
-5.384900 2.861600
-5.362600 2.471700
-5.340300 2.548600
-5.318000 2.150900
-5.295700 1.832500
-5.273400 2.242200
-5.251000 2.049500
-5.228700 2.264500
-5.206400 2.464900
-5.184100 2.850000
-5.161800 3.102800
-5.139500 2.508100
-5.117100 2.220700
-5.094800 2.150500
-5.072500 2.116700
-5.050200 2.090300
-5.027900 2.071500
-5.005600 2.074500
-4.983200 2.100900
-4.960900 2.340400
-4.938600 2.605000
-4.916300 2.425100
-4.894000 2.615100
-4.871700 2.452300
-4.849300 2.062100
-4.827000 2.112900
-4.804700 2.162400
-4.782400 2.196100
-4.760100 2.274200
-4.737800 2.407300
-4.715400 2.970000
-4.693100 2.091900
-4.670800 1.857900
-4.648500 1.381400
-4.626200 0.724000
-4.603900 0.489900
-4.581500 0.319400
-4.559200 0.271700
-4.536900 0.259200
-4.514600 0.077600
-4.492300 0.078200
-4.469900 0.078700
-4.447600 0.000000
-4.425300 0.092000
-4.403000 0.107000
-4.380700 0.121900
-4.358400 0.136900
-4.336000 0.151800
-4.313700 0.165500
-4.291400 0.176200
-4.269100 0.179800
-4.246800 0.231800
-4.224500 0.243800
-4.202100 0.253200
-4.179800 0.262700
-4.157500 0.274500
-4.135200 0.304300
-4.112900 0.338100
-4.090600 0.366600
-4.068200 0.381200
-4.045900 0.382600
-4.023600 0.401600
-4.001300 0.437300
-3.979000 0.450500
-3.956700 0.463700
-3.934300 0.479300
-3.912000 0.510400
-3.889700 0.535100
-3.867400 0.551600
-3.845100 0.548600
-3.822800 0.551900
-3.800400 0.572200
-3.778100 0.601400
-3.755800 0.620800
-3.733500 0.640200
-3.711200 0.659600
-3.688900 0.733700
-3.666500 1.373200
-3.644200 2.831000
-3.621900 2.617000
-3.599600 6.214600
-3.577300 4.001000
-3.555000 2.305200
-3.532600 1.725300
-3.510300 1.368500
-3.488000 1.310400
-3.465700 1.595400
-3.443400 6.064300
-3.421100 3.410800
-3.398700 2.066800
-3.376400 1.876700
-3.354100 1.788000
-3.331800 1.697600
-3.309500 1.638600
-3.287200 1.561200
-3.264800 1.486800
-3.242500 1.612200
-3.220200 1.676200
-3.197900 1.702400
-3.175600 1.776700
-3.153300 1.856800
-3.130900 1.873400
-3.108600 1.888600
-3.086300 1.765300
-3.064000 1.408200
-3.041700 1.359000
-3.019400 1.757200
-2.997000 2.000900
-2.974700 1.835100
-2.952400 1.831800
-2.930100 1.533300
-2.907800 1.526000
-2.885500 1.758200
-2.863100 1.943300
-2.840800 2.127100
-2.818500 2.260200
-2.796200 2.854000
-2.773900 3.659900
-2.751600 4.587700
-2.729200 3.231000
-2.706900 1.767400
-2.684600 1.699800
-2.662300 1.674100
-2.640000 1.675400
-2.617700 1.701300
-2.595300 2.012900
-2.573000 2.227900
-2.550700 1.918200
-2.528400 1.703100
-2.506100 1.608900
-2.483800 1.544700
-2.461400 1.525600
-2.439100 1.485600
-2.416800 1.351700
-2.394500 1.393100
-2.372200 0.753500
-2.349900 0.204000
-2.327500 0.000000
-2.305200 0.000000
-2.282900 0.000000
-2.260600 0.000000
-2.238300 0.000000
-2.216000 0.000000
-2.193600 0.000000
-2.171300 0.000000
-2.149000 0.000000
-2.126700 0.000000
-2.104400 0.000000
-2.082100 0.000000
-2.059700 0.000000
-2.037400 0.000000
-2.015100 0.000000
-1.992800 0.000000
-1.970500 0.000000
-1.948200 0.000000
-1.925800 0.000000
-1.903500 0.000000
-1.881200 0.000000
-1.858900 0.000000
-1.836600 0.000000
-1.814300 0.000000
-1.791900 0.000000
-1.769600 0.000000
-1.747300 0.000000
-1.725000 0.000000
-1.702700 0.000000
-1.680400 0.000000
-1.658000 0.000000
-1.635700 0.000000
-1.613400 0.000000
-1.591100 0.000000
-1.568800 0.000000
-1.546500 0.000000
-1.524100 0.000000
-1.501800 0.000000
-1.479500 0.000000
-1.457200 0.000000
-1.434900 0.000000
-1.412600 0.000000
-1.390200 0.000000
-1.367900 0.000000
-1.345600 0.000000
-1.323300 0.000000
-1.301000 0.000000
-1.278600 0.000000
-1.256300 0.000000
-1.234000 0.000000
-1.211700 0.000000
-1.189400 0.000000
-1.167100 0.000000
-1.144700 0.000000
-1.122400 0.000000
-1.100100 0.000000
-1.077800 0.000000
-1.055500 0.000000
-1.033200 0.000000
-1.010800 0.000000
-0.988500 0.000000
-0.966200 0.000000
-0.943900 0.428400
-0.921600 0.687300
-0.899300 3.925400
-0.876900 2.401500
-0.854600 1.817000
-0.832300 1.514000
-0.810000 1.332800
-0.787700 1.186100
-0.765400 1.112000
-0.743000 1.035900
-0.720700 0.957100
-0.698400 0.890000
-0.676100 0.862600
-0.653800 0.834900
-0.631500 0.805500
-0.609100 0.770300
-0.586800 0.729500
-0.564500 0.713400
-0.542200 0.699600
-0.519900 0.685900
-0.497600 0.671100
-0.475200 0.653300
-0.452900 0.631000
-0.430600 0.615700
-0.408300 0.605400
-0.386000 0.594800
-0.363700 0.583900
-0.341300 0.573200
-0.319000 0.560200
-0.296700 0.546400
-0.274400 0.537600
-0.252100 0.529100
-0.229800 0.522000
-0.207400 0.515400
-0.185100 0.508800
-0.162800 0.504500
-0.140500 0.502900
-0.118200 0.501500
-0.095900 0.500200
-0.073500 0.505200
-0.051200 0.520000
-0.028900 0.530100
-0.006600 0.543100
0.015700 0.571200
0.038000 0.623900
0.060400 0.676200
0.082700 0.752400
0.105000 0.965600
0.127300 1.493100
0.149600 0.677500
0.171900 0.000000
0.194300 0.000000
0.216600 0.000000
0.238900 0.000000
0.261200 0.000000
0.283500 0.000000
0.305800 0.000000
0.328200 0.000400
0.350500 4.434000
0.372800 5.595300
0.395100 4.265900
0.417400 3.518400
0.439700 4.149900
0.462100 3.656700
0.484400 3.764700
0.506700 5.209200
0.529000 3.865400
0.551300 3.489000
0.573600 3.108000
0.596000 2.945300
0.618300 2.948300
0.640600 2.844000
0.662900 2.730400
0.685200 2.791600
0.707500 1.751200
0.729900 1.488400
0.752200 1.580200
0.774500 1.621000
0.796800 1.826500
0.819100 1.891200
0.841400 2.503400
0.863800 2.306100
0.886100 3.043400
0.908400 1.645800
0.930700 1.186500
0.953000 1.029500
0.975300 0.934600
0.997700 0.862700
1.020000 0.793100
1.042300 0.738500
1.064600 0.722800
1.086900 0.685700
1.109200 0.650000
1.131600 0.613600
1.153900 0.608200
1.176200 0.570600
1.198500 0.607100
1.220800 0.543900
1.243100 0.336100
1.265500 0.191600
1.287800 0.000000
1.310100 0.000000
1.332400 0.000000
1.354700 0.000000
1.377000 0.000000
1.399400 0.000000
1.421700 0.000000
1.444000 0.000000
1.466300 0.000000
1.488600 0.000000
1.510900 0.000000
1.533300 0.000000
1.555600 0.000000
1.577900 0.000000
1.600200 0.000000
1.622500 0.000000
1.644800 0.000000
1.667200 0.000000
1.689500 0.000000
1.711800 0.000000
1.734100 0.000000
1.756400 0.000000
1.778700 0.000000
1.801100 0.000000
1.823400 0.000000
1.845700 0.000000
1.868000 0.000000
1.890300 0.000000
1.912700 0.000000
1.935000 0.000000
1.957300 0.000000
1.979600 0.000000
2.001900 0.000000
2.024200 0.000000
2.046600 0.000000
2.068900 0.000000
2.091200 0.000000
2.113500 0.000000
2.135800 0.000000
2.158100 0.000000
2.180500 0.000000
2.202800 0.000000
2.225100 0.000000
2.247400 0.000000
2.269700 0.000000
2.292000 0.000000
2.314400 0.000000
2.336700 0.000000
2.359000 0.000000
2.381300 0.000000
2.403600 0.000000
2.425900 0.000000
2.448300 0.000000
2.470600 0.000000
2.492900 0.000000
2.515200 0.000000
2.537500 0.000000
2.559800 0.000000
2.582200 0.000000
2.604500 0.000000
2.626800 0.000000
2.649100 0.000000
2.671400 0.000000
2.693700 0.000000
2.716100 0.000000
2.738400 0.000000
2.760700 0.000000
2.783000 0.000000
2.805300 0.000000
2.827600 0.000000
2.850000 0.000000
2.872300 0.000000
2.894600 0.000000
2.916900 0.000000
2.939200 0.000000
2.961500 0.000000
2.983900 0.000000
3.006200 0.000000
3.028500 0.000000
3.050800 0.000000
3.073100 0.000000
3.095400 0.000000
3.117800 0.000000
3.140100 0.000000
3.162400 0.000000
3.184700 0.000000
3.207000 0.000000
3.229300 0.000000
3.251700 0.000000
3.274000 0.000000
3.296300 0.000000
3.318600 0.000000
3.340900 0.000000
3.363200 0.000000
3.385600 0.000000
3.407900 0.000000
3.430200 0.000000
3.452500 0.000000
3.474800 0.000000
3.497100 0.000000
3.519500 0.000000
3.541800 0.000000
3.564100 0.000000
3.586400 0.000000
3.608700 0.000000
3.631000 0.000000
3.653400 0.000000
3.675700 0.000000
3.698000 0.000000
3.720300 0.000000
3.742600 0.000000
3.764900 0.000000
3.787300 0.000000
3.809600 0.000000
3.831900 0.000000
3.854200 0.000000
3.876500 0.000000
3.898800 0.000000
3.921200 0.000000
3.943500 0.000000
3.965800 0.000000
3.988100 0.000000
4.010400 0.000000
4.032700 0.000000
4.055100 0.000000
4.077400 0.000000
4.099700 0.000000
4.122000 0.000000
4.144300 0.000000
4.166600 0.000000
4.189000 0.000000
4.211300 0.000000
4.233600 0.000000
4.255900 0.000000
4.278200 0.000000
4.300500 0.000000
4.322900 0.000000
4.345200 0.000000
4.367500 0.000000
4.389800 0.000000
4.412100 0.000000
4.434400 0.000000
4.456800 0.000000
4.479100 0.000000
4.501400 0.000000
4.523700 0.000000
4.546000 0.000000
4.568300 0.000000
4.590700 0.000000
4.613000 0.000000
4.635300 0.000000
4.657600 0.000000
4.679900 0.000000
4.702200 0.000000
4.724600 0.000000
4.746900 0.000000
4.769200 0.000000
4.791500 0.000000
4.813800 0.000000
4.836100 0.000100
4.858500 0.004400
4.880800 0.014600
4.903100 0.026200
4.925400 0.028200
4.947700 0.030900
4.970000 0.035000
4.992400 0.039500
5.014700 0.044200
5.037000 0.048700
5.059300 0.051600
5.081600 0.053600
5.104000 0.056300
5.126300 0.059200
5.148600 0.062100
5.170900 0.065100
5.193200 0.068400
5.215500 0.071600
5.237900 0.075100
5.260200 0.078600
5.282500 0.081400
5.304800 0.084500
5.327100 0.087600
5.349400 0.090800
5.371800 0.094100
5.394100 0.097500
5.416400 0.101100
5.438700 0.105000
5.461000 0.109100
5.483300 0.113200
5.505700 0.121400
5.528000 0.135000
5.550300 0.138100
5.572600 0.137500
5.594900 0.138700
5.617200 0.139500
5.639600 0.140000
5.661900 0.140000
5.684200 0.140100
5.706500 0.141100
5.728800 0.142600
5.751100 0.143700
5.773500 0.144400
5.795800 0.144800
5.818100 0.144900
5.840400 0.145300
5.862700 0.146100
5.885000 0.146900
5.907400 0.147800
5.929700 0.148600
5.952000 0.149300
5.974300 0.149900
5.996600 0.150500
6.018900 0.150500
6.041300 0.150200
6.063600 0.150400
6.085900 0.151000
6.108200 0.151600
6.130500 0.152300
6.152800 0.153000
6.175200 0.153700
6.197500 0.154400
6.219800 0.155100
6.242100 0.155600
6.264400 0.156200
6.286700 0.156600
6.309100 0.156300
6.331400 0.156400
6.353700 0.156500
6.376000 0.156900
6.398300 0.157400
6.420600 0.157900
6.443000 0.158400
6.465300 0.158800
6.487600 0.159300
6.509900 0.159800
6.532200 0.160200
6.554500 0.160600
6.576900 0.160900
6.599200 0.161100
6.621500 0.160900
6.643800 0.160800
6.666100 0.161100
6.688400 0.164200
6.710800 0.170300
6.733100 0.174500
6.755400 0.175400
6.777700 0.176500
6.800000 0.178500
6.822300 0.180300
6.844700 0.182000
6.867000 0.183900
6.889300 0.185900
6.911600 0.187800
6.933900 0.189100
6.956200 0.190400
6.978600 0.191800
7.000900 0.192900
7.023200 0.194200
7.045500 0.195400
7.067800 0.196800
7.090100 0.198200
7.112500 0.199700
7.134800 0.201200
7.157100 0.202800
7.179400 0.204400
7.201700 0.206000
7.224000 0.207600
7.246400 0.209300
7.268700 0.211100
7.291000 0.212600
7.313300 0.214100
7.335600 0.215500
7.357900 0.216800
7.380300 0.218100
7.402600 0.219200
7.424900 0.219900
7.447200 0.220900
7.469500 0.222100
7.491800 0.223400
7.514200 0.224800
7.536500 0.226400
7.558800 0.228000
7.581100 0.229600
7.603400 0.231100
7.625700 0.232800
7.648100 0.234500
7.670400 0.236100
7.692700 0.237800
7.715000 0.239600
7.737300 0.241300
7.759600 0.243100
7.782000 0.244900
7.804300 0.246700
7.826600 0.248500
7.848900 0.250000
7.871200 0.251400
7.893500 0.252400
7.915900 0.253400
7.938200 0.254600
7.960500 0.256100
7.982800 0.257700
8.005100 0.259500
8.027400 0.261300
8.049800 0.263300
8.072100 0.265300
8.094400 0.267400
8.116700 0.269500
8.139000 0.271600
8.161300 0.273800
8.183700 0.276200
8.206000 0.278700
8.228300 0.281300
8.250600 0.284100
8.272900 0.286900
8.295300 0.289800
8.317600 0.292700
8.339900 0.295700
8.362200 0.298000
8.384500 0.300100
8.406800 0.303000
8.429200 0.303200
8.451500 0.302700
8.473800 0.302100
8.496100 0.302300
8.518400 0.302800
8.540700 0.303400
8.563100 0.304400
8.585400 0.305900
8.607700 0.307400
8.630000 0.308700
8.652300 0.309900
8.674600 0.310300
8.697000 0.311200
8.719300 0.312400
8.741600 0.313700
8.763900 0.315000
8.786200 0.316400
8.808500 0.318600
8.830900 0.321600
8.853200 0.325400
8.875500 0.328700
8.897800 0.332000
8.920100 0.335300
8.942400 0.338700
8.964800 0.342200
8.987100 0.345900
9.009400 0.350100
9.031700 0.353700
9.054000 0.356700
9.076300 0.359600
9.098700 0.362200
9.121000 0.365300
9.143300 0.368000
9.165600 0.370800
9.187900 0.373600
9.210200 0.376600
9.232600 0.380000
9.254900 0.383200
9.277200 0.386300
9.299500 0.389400
9.321800 0.393300
9.344100 0.397600
9.366500 0.401800
9.388800 0.406200
9.411100 0.410600
9.433400 0.415200
9.455700 0.419700
9.478000 0.424200
9.500400 0.429500
9.522700 0.436100
9.545000 0.442800
9.567300 0.451000
9.589600 0.459900
9.611900 0.466500
9.634300 0.471300
9.656600 0.468400
9.678900 0.472400
9.701200 0.476000
9.723500 0.479500
9.745800 0.482900
9.768200 0.486200
9.790500 0.489700
9.812800 0.493900
9.835100 0.498500
9.857400 0.503600
9.879700 0.508600
9.902100 0.512700
9.924400 0.517100
9.946700 0.521400
9.969000 0.525600
9.991300 0.530500
10.013600 0.537100
10.036000 0.547000
10.058300 0.556800
10.080600 0.565100
10.102900 0.560700
10.125200 0.553700
10.147500 0.553300
10.169900 0.552100
10.192200 0.550200
10.214500 0.545800
10.236800 0.538100
10.259100 0.537000
10.281400 0.524500
10.303800 0.520100
10.326100 0.517800
10.348400 0.516500
10.370700 0.515800
10.393000 0.515600
10.415300 0.515500
10.437700 0.516200
10.460000 0.520100
10.482300 0.530000
10.504600 0.549700
10.526900 0.574300
10.549200 0.614300
10.571600 0.626000
10.593900 0.627100
10.616200 0.638400
10.638500 0.647100
10.660800 0.641300
10.683100 0.637600
10.705500 0.630900
10.727800 0.628300
10.750100 0.632500
10.772400 0.631000
10.794700 0.634300
10.817000 0.639500
10.839400 0.640800
10.861700 0.640600
10.884000 0.639600
10.906300 0.639500
10.928600 0.642200
10.950900 0.642000
10.973300 0.640000
10.995600 0.639300
11.017900 0.634500
11.040200 0.633100
11.062500 0.638400
11.084800 0.638100
11.107200 0.642300
11.129500 0.641800
11.151800 0.630800
11.174100 0.626800
11.196400 0.624800
11.218700 0.620200
11.241100 0.611200
11.263400 0.595500
11.285700 0.577400
11.308000 0.576500
11.330300 0.581900
11.352600 0.586400
11.375000 0.596300
11.397300 0.602900
11.419600 0.629800
11.441900 0.661400
11.464200 0.694700
11.486600 0.681200
11.508900 0.686100
11.531200 0.682600
11.553500 0.685500
11.575800 0.688400
11.598100 0.689400
11.620500 0.688300
11.642800 0.685000
11.665100 0.682500
11.687400 0.679300
11.709700 0.677300
11.732000 0.681000
11.754400 0.695400
11.776700 0.718300
11.799000 0.741500
11.821300 0.756500
11.843600 0.753100
11.865900 0.731500
11.888300 0.717200
11.910600 0.715100
11.932900 0.715600
11.955200 0.715900
11.977500 0.720800
11.999800 0.723800
12.022200 0.733400
12.044500 0.736900
12.066800 0.734700
12.089100 0.742000
12.111400 0.747600
12.133700 0.753500
12.156100 0.760400
12.178400 0.768500
12.200700 0.781100
12.223000 0.788100
12.245300 0.791300
12.267600 0.781500
12.290000 0.770200
12.312300 0.760100
12.334600 0.747300
12.356900 0.733000
12.379200 0.720300
12.401500 0.704300
12.423900 0.682500
12.446200 0.659800
12.468500 0.643400
12.490800 0.635900
12.513100 0.626400
12.535400 0.624400
12.557800 0.653100
12.580100 0.665400
12.602400 0.684300
12.624700 0.699300
12.647000 0.716700
12.669300 0.734800
12.691700 0.788700
12.714000 0.841100
12.736300 0.901700
12.758600 0.974700
12.780900 1.033800
12.803200 1.062000
12.825600 1.080800
12.847900 1.059200
12.870200 1.056000
12.892500 1.059600
12.914800 1.055200
12.937100 1.049900
12.959500 1.031000
12.981800 1.027600
13.004100 1.043500
13.026400 1.150700
13.048700 1.221300
13.071000 1.293400
13.093400 1.362900
13.115700 1.379200
13.138000 1.416500
13.160300 1.449200
13.182600 1.495500
13.204900 1.552400
13.227300 1.609100
13.249600 1.645300
13.271900 1.616300
13.294200 1.537500
13.316500 1.468000
13.338800 1.394400
13.361200 1.335600
13.383500 1.293600
13.405800 1.268800
13.428100 1.270600
13.450400 1.284600
13.472700 1.310400
13.495100 1.369300
13.517400 1.426500
13.539700 1.423500
13.562000 1.392300
13.584300 1.366900
13.606600 1.311300
13.629000 1.258300
13.651300 1.211100
13.673600 1.167200
13.695900 1.127500
13.718200 1.090400
13.740500 1.053500
13.762900 1.032300
13.785200 1.010500
13.807500 0.987800
13.829800 0.966800
13.852100 0.954900
13.874400 0.970800
13.896800 0.936500
13.919100 0.852100
13.941400 0.762400
13.963700 0.717700
13.986000 0.694100
14.008300 0.675900
14.030700 0.631500
14.053000 0.597600
14.075300 0.569200
14.097600 0.557200
14.119900 0.553600
14.142200 0.564100
14.164600 0.580600
14.186900 0.585900
14.209200 0.592200
14.231500 0.612200
14.253800 0.656000
14.276100 0.709400
14.298500 0.712500
14.320800 0.698200
14.343100 0.644700
14.365400 0.613800
14.387700 0.576500
14.410000 0.551200
14.432400 0.538200
14.454700 0.548300
14.477000 0.566200
14.499300 0.584700
14.521600 0.600900
14.543900 0.623600
14.566300 0.653700
14.588600 0.705700
14.610900 0.775000
14.633200 0.818300
14.655500 0.861800
14.677900 0.898800
14.700200 0.936300
14.722500 0.984000
14.744800 1.030500
14.767100 1.080100
14.789400 1.125700
14.811800 1.176700
14.834100 1.238200
14.856400 1.303100
14.878700 1.350800
14.901000 1.362400
14.923300 1.391600
14.945700 1.270600
14.968000 1.216600
14.990300 1.193900
15.012600 1.163100
15.034900 0.974400
15.057200 0.868900
15.079600 0.795800
15.101900 0.715700
15.124200 0.654100
15.146500 0.586400
15.168800 0.564600
15.191100 0.562100
15.213500 0.562000
15.235800 0.562600
15.258100 0.562600
15.280400 0.561500
15.302700 0.557900
15.325000 0.548900
15.347400 0.537200
15.369700 0.529700
15.392000 0.523600
15.414300 0.518800
15.436600 0.518800
15.458900 0.515900
15.481300 0.519300
15.503600 0.525800
15.525900 0.536000
15.548200 0.549400
15.570500 0.560400
15.592800 0.569700
15.615200 0.582300
15.637500 0.597700
15.659800 0.619000
15.682100 0.658600
15.704400 0.673900
15.726700 0.692600
15.749100 0.722200
15.771400 0.770900
15.793700 0.754700
15.816000 0.761100
15.838300 0.771500
15.860600 0.734900
15.883000 0.706400
15.905300 0.670800
15.927600 0.647100
15.949900 0.630000
15.972200 0.616400
15.994500 0.604000
16.016900 0.592500
16.039200 0.581900
16.061500 0.572100
16.083800 0.562800
16.106100 0.555400
16.128400 0.548700
16.150800 0.542600
16.173100 0.536400
16.195400 0.529800
16.217700 0.524200
16.240000 0.518900
16.262300 0.514000
16.284700 0.509700
16.307000 0.505900
16.329300 0.502500
16.351600 0.497900
16.373900 0.493100
16.396200 0.488900
16.418600 0.485300
16.440900 0.482700
16.463200 0.480000
16.485500 0.477300
16.507800 0.474200
16.530100 0.470400
16.552500 0.470500
16.574800 0.466900
16.597100 0.461500
16.619400 0.455300
16.641700 0.446100
16.664000 0.435000
16.686400 0.425700
16.708700 0.421400
16.731000 0.417000
16.753300 0.410700
16.775600 0.392400
16.797900 0.376300
16.820300 0.359500
16.842600 0.348200
16.864900 0.343300
16.887200 0.329900
16.909500 0.325700
16.931800 0.321500
16.954200 0.317100
16.976500 0.313200
16.998800 0.309700
17.021100 0.306500
17.043400 0.303500
17.065700 0.300800
17.088100 0.298200
17.110400 0.295800
17.132700 0.293400
17.155000 0.291100
17.177300 0.288800
17.199600 0.286600
17.222000 0.284500
17.244300 0.282800
17.266600 0.281800
17.288900 0.281100
17.311200 0.280600
17.333500 0.280300
17.355900 0.280000
17.378200 0.279800
17.400500 0.279800
17.422800 0.279900
17.445100 0.280100
17.467400 0.280200
17.489800 0.280300
17.512100 0.280300
17.534400 0.280400
17.556700 0.280200
17.579000 0.280100
17.601300 0.280600
17.623700 0.282100
17.646000 0.283900
17.668300 0.285800
17.690600 0.288500
17.712900 0.291800
17.735200 0.294900
17.757600 0.296800
17.779900 0.298500
17.802200 0.299700
17.824500 0.301200
17.846800 0.302800
17.869200 0.305700
17.891500 0.311200
17.913800 0.317100
17.936100 0.324600
17.958400 0.331500
17.980700 0.352500
18.003100 0.367400
18.025400 0.364300
18.047700 0.358300
18.070000 0.351900
18.092300 0.359800
18.114600 0.340100
18.137000 0.259600
18.159300 0.207400
18.181600 0.153900
18.203900 0.135100
18.226200 0.134200
18.248500 0.306500
18.270900 0.277700
18.293200 0.286600
18.315500 0.282400
18.337800 0.268500
18.360100 0.257100
18.382400 0.262600
18.404800 0.269200
18.427100 0.276000
18.449400 0.274200
18.471700 0.271100
18.494000 0.273600
18.516300 0.271200
18.538700 0.262100
18.561000 0.252100
18.583300 0.240900
18.605600 0.229500
18.627900 0.220100
18.650200 0.209700
18.672600 0.203100
18.694900 0.195900
18.717200 0.189500
18.739500 0.183800
18.761800 0.177400
18.784100 0.169400
18.806500 0.161900
18.828800 0.158300
18.851100 0.154500
18.873400 0.151000
18.895700 0.148200
18.918000 0.149400
18.940400 0.147000
18.962700 0.138800
18.985000 0.133900
19.007300 0.130300
19.029600 0.127100
19.051900 0.124800
19.074300 0.125300
19.096600 0.121500
19.118900 0.117700
19.141200 0.113800
19.163500 0.111800
19.185800 0.105300
19.208200 0.087800
19.230500 0.070500
19.252800 0.053700
19.275100 0.042000
19.297400 0.025400
19.319700 0.009900
19.342100 0.002700
19.364400 0.000900
19.386700 0.000200
19.409000 0.000000
19.431300 0.000000
19.453600 0.000000
19.476000 0.000000
19.498300 0.000000
19.520600 0.000000
19.542900 0.000000
19.565200 0.000000
19.587500 0.000000
19.609900 0.000000
19.632200 0.000000
19.654500 0.000000
19.676800 0.000000
19.699100 0.000000
19.721400 0.000000
19.743800 0.000000
19.766100 0.000000
19.788400 0.000000
19.810700 0.000000
19.833000 0.000000
19.855300 0.000000
19.877700 0.000000
19.900000 0.000000
19.922300 0.000000
19.944600 0.000000
19.966900 0.000000
19.989200 0.000000
20.011600 0.000000
20.033900 0.000000
20.056200 0.000000
20.078500 0.000000
20.100800 0.000000
20.123100 0.000000
20.145500 0.000000
20.167800 0.000000
20.190100 0.000000
20.212400 0.000000
20.234700 0.000000
20.257000 0.000000
20.279400 0.000000
20.301700 0.000000
20.324000 0.000000
20.346300 0.000000
20.368600 0.000000
20.390900 0.000000
20.413300 0.000000
20.435600 0.000000
20.457900 0.000000
20.480200 0.000000
20.502500 0.000000
20.524800 0.000000
20.547200 0.000000
20.569500 0.000000
20.591800 0.000000
20.614100 0.000000
20.636400 0.000000
20.658700 0.000000
20.681100 0.000000
20.703400 0.000000
20.725700 0.000000
20.748000 0.000000
20.770300 0.000000
20.792600 0.000000
20.815000 0.000000
20.837300 0.000000
20.859600 0.000000
20.881900 0.000000
20.904200 0.000000
20.926500 0.000000
20.948900 0.000000
20.971200 0.000000
20.993500 0.000000
21.015800 0.000000
21.038100 0.000000
21.060500 0.000000
21.082800 0.000000
21.105100 0.000000
21.127400 0.000000
21.149700 0.000000
21.172000 0.000000
21.194400 0.000000
21.216700 0.000000
21.239000 0.000000
21.261300 0.000000
21.283600 0.000000
21.305900 0.000000
21.328300 0.000000
21.350600 0.000000
21.372900 0.000000
21.395200 0.000000
21.417500 0.000000
21.439800 0.000000
e
