set title 'mp-1216471 - Density of States'
set xlabel 'Energy (eV)'
set ylabel 'DOS (states/eV)'
set grid
set xrange [-10:10]
set yrange [0:21.230]
set xzeroaxis lt -1
set terminal png size 800,600
set output 'mp-1216471_dos_gnuplot.png'
plot '-' using 1:2 with lines title 'DOS'
-34.842600 0.000000
-34.807400 0.000000
-34.772200 0.000000
-34.737000 0.000000
-34.701800 0.000000
-34.666600 0.000000
-34.631400 0.000000
-34.596200 0.000000
-34.561000 0.000000
-34.525800 0.000000
-34.490600 0.000000
-34.455400 0.000000
-34.420200 0.000000
-34.385000 0.000000
-34.349700 0.000000
-34.314500 0.000000
-34.279300 0.000000
-34.244100 0.000000
-34.208900 0.000000
-34.173700 0.000000
-34.138500 0.000000
-34.103300 0.000000
-34.068100 0.000000
-34.032900 0.000000
-33.997700 0.000000
-33.962500 0.000000
-33.927300 0.000000
-33.892100 0.000000
-33.856900 0.000000
-33.821700 0.000000
-33.786500 0.000000
-33.751200 0.000000
-33.716000 0.000000
-33.680800 0.000000
-33.645600 0.000000
-33.610400 0.000000
-33.575200 0.000000
-33.540000 0.000000
-33.504800 0.000000
-33.469600 0.000000
-33.434400 0.000000
-33.399200 0.000000
-33.364000 0.000000
-33.328800 0.000000
-33.293600 0.000000
-33.258400 0.000000
-33.223200 0.000000
-33.187900 0.000000
-33.152700 0.000000
-33.117500 0.000000
-33.082300 0.000000
-33.047100 0.000000
-33.011900 0.000000
-32.976700 0.000000
-32.941500 0.000000
-32.906300 0.000000
-32.871100 0.000000
-32.835900 0.000000
-32.800700 0.000000
-32.765500 0.000000
-32.730300 0.000000
-32.695100 0.000000
-32.659900 0.000000
-32.624700 0.000000
-32.589400 0.000000
-32.554200 0.000000
-32.519000 0.000000
-32.483800 0.000000
-32.448600 0.000000
-32.413400 0.000000
-32.378200 0.000000
-32.343000 0.000000
-32.307800 0.000000
-32.272600 0.000000
-32.237400 0.000000
-32.202200 0.000000
-32.167000 0.000000
-32.131800 0.000000
-32.096600 0.000000
-32.061400 0.000000
-32.026200 0.000000
-31.990900 0.000000
-31.955700 0.000000
-31.920500 0.000000
-31.885300 0.000000
-31.850100 0.000000
-31.814900 0.000000
-31.779700 0.000000
-31.744500 0.000000
-31.709300 0.000000
-31.674100 0.000000
-31.638900 2.908600
-31.603700 18.404400
-31.568500 37.051000
-31.533300 29.030700
-31.498100 7.754800
-31.462900 14.136400
-31.427600 19.042100
-31.392400 38.258300
-31.357200 69.620100
-31.322000 35.448400
-31.286800 25.895700
-31.251600 0.000000
-31.216400 0.000000
-31.181200 0.000000
-31.146000 0.000000
-31.110800 0.000000
-31.075600 0.000000
-31.040400 0.000000
-31.005200 0.000000
-30.970000 0.016000
-30.934800 16.736400
-30.899600 46.243000
-30.864400 13.378600
-30.829100 13.669500
-30.793900 33.897800
-30.758700 20.008800
-30.723500 54.927100
-30.688300 46.913100
-30.653100 23.459900
-30.617900 53.032400
-30.582700 0.000000
-30.547500 0.000000
-30.512300 0.000000
-30.477100 0.000000
-30.441900 0.000000
-30.406700 0.000000
-30.371500 0.000000
-30.336300 0.000000
-30.301100 0.000000
-30.265900 0.000000
-30.230600 0.000000
-30.195400 0.000000
-30.160200 0.000000
-30.125000 0.000000
-30.089800 0.000000
-30.054600 0.000000
-30.019400 0.000000
-29.984200 0.000000
-29.949000 0.000000
-29.913800 0.000000
-29.878600 0.000000
-29.843400 0.000000
-29.808200 0.000000
-29.773000 0.000000
-29.737800 0.000000
-29.702600 0.000000
-29.667300 0.000000
-29.632100 0.000000
-29.596900 0.000000
-29.561700 0.000000
-29.526500 0.000000
-29.491300 0.000000
-29.456100 0.000000
-29.420900 0.000000
-29.385700 0.000000
-29.350500 0.000000
-29.315300 0.000000
-29.280100 0.000000
-29.244900 0.000000
-29.209700 0.000000
-29.174500 0.000000
-29.139300 0.000000
-29.104100 0.000000
-29.068800 0.000000
-29.033600 0.000000
-28.998400 0.000000
-28.963200 0.000000
-28.928000 0.000000
-28.892800 0.000000
-28.857600 0.000000
-28.822400 0.000000
-28.787200 0.000000
-28.752000 0.000000
-28.716800 0.000000
-28.681600 0.000000
-28.646400 0.000000
-28.611200 0.000000
-28.576000 0.000000
-28.540800 0.000000
-28.505600 0.000000
-28.470300 0.000000
-28.435100 0.000000
-28.399900 0.000000
-28.364700 0.000000
-28.329500 0.000000
-28.294300 0.000000
-28.259100 0.000000
-28.223900 0.000000
-28.188700 0.000000
-28.153500 0.000000
-28.118300 0.000000
-28.083100 0.000000
-28.047900 0.000000
-28.012700 0.000000
-27.977500 0.000000
-27.942300 0.000000
-27.907000 0.000000
-27.871800 0.000000
-27.836600 0.000000
-27.801400 0.000000
-27.766200 0.000000
-27.731000 0.000000
-27.695800 0.000000
-27.660600 0.000000
-27.625400 0.000000
-27.590200 0.000000
-27.555000 0.000000
-27.519800 0.000000
-27.484600 0.000000
-27.449400 0.000000
-27.414200 0.000000
-27.379000 0.000000
-27.343800 0.000000
-27.308500 0.000000
-27.273300 0.000000
-27.238100 0.000000
-27.202900 0.000000
-27.167700 0.000000
-27.132500 0.000000
-27.097300 0.000000
-27.062100 0.000000
-27.026900 0.000000
-26.991700 0.000000
-26.956500 0.000000
-26.921300 0.000000
-26.886100 0.000000
-26.850900 0.000000
-26.815700 0.000000
-26.780500 0.000000
-26.745300 0.000000
-26.710000 0.000000
-26.674800 0.000000
-26.639600 0.000000
-26.604400 0.000000
-26.569200 0.000000
-26.534000 0.000000
-26.498800 0.000000
-26.463600 0.000000
-26.428400 0.000000
-26.393200 0.000000
-26.358000 0.000000
-26.322800 0.000000
-26.287600 0.000000
-26.252400 0.000000
-26.217200 0.000000
-26.182000 0.000000
-26.146800 0.000000
-26.111500 0.000000
-26.076300 0.000000
-26.041100 0.000000
-26.005900 0.000000
-25.970700 0.000000
-25.935500 0.000000
-25.900300 0.000000
-25.865100 0.000000
-25.829900 0.000000
-25.794700 0.000000
-25.759500 0.000000
-25.724300 0.000000
-25.689100 0.000000
-25.653900 0.000000
-25.618700 0.000000
-25.583500 0.000000
-25.548200 0.000000
-25.513000 0.000000
-25.477800 0.000000
-25.442600 0.000000
-25.407400 0.000000
-25.372200 0.000000
-25.337000 0.000000
-25.301800 0.000000
-25.266600 0.000000
-25.231400 0.000000
-25.196200 0.000000
-25.161000 0.000000
-25.125800 0.000000
-25.090600 0.000000
-25.055400 0.000000
-25.020200 0.000000
-24.985000 0.000000
-24.949700 0.000000
-24.914500 0.000000
-24.879300 0.000000
-24.844100 0.000000
-24.808900 0.000000
-24.773700 0.000000
-24.738500 0.000000
-24.703300 0.000000
-24.668100 0.000000
-24.632900 0.000000
-24.597700 0.000000
-24.562500 0.000000
-24.527300 0.000000
-24.492100 0.000000
-24.456900 0.000000
-24.421700 0.000000
-24.386500 0.000000
-24.351200 0.000000
-24.316000 0.000000
-24.280800 0.000000
-24.245600 0.000000
-24.210400 0.000000
-24.175200 0.000000
-24.140000 0.000000
-24.104800 0.000000
-24.069600 0.000000
-24.034400 0.000000
-23.999200 0.000000
-23.964000 0.000000
-23.928800 0.000000
-23.893600 0.000000
-23.858400 0.000000
-23.823200 0.000000
-23.787900 0.000000
-23.752700 0.000000
-23.717500 0.000000
-23.682300 0.000000
-23.647100 0.000000
-23.611900 0.000000
-23.576700 0.000000
-23.541500 0.000000
-23.506300 0.000000
-23.471100 0.000000
-23.435900 0.000000
-23.400700 0.000000
-23.365500 0.000000
-23.330300 0.000000
-23.295100 0.000000
-23.259900 0.000000
-23.224700 0.000000
-23.189400 0.000000
-23.154200 0.000000
-23.119000 0.000000
-23.083800 0.000000
-23.048600 0.000000
-23.013400 0.000000
-22.978200 0.000000
-22.943000 0.000000
-22.907800 0.000000
-22.872600 0.000000
-22.837400 0.000000
-22.802200 0.000000
-22.767000 0.000000
-22.731800 0.000000
-22.696600 0.000000
-22.661400 0.000000
-22.626200 0.000000
-22.590900 0.000000
-22.555700 0.000000
-22.520500 0.000000
-22.485300 0.000000
-22.450100 0.000000
-22.414900 0.000000
-22.379700 0.000000
-22.344500 0.000000
-22.309300 0.000000
-22.274100 0.000000
-22.238900 0.000000
-22.203700 0.000000
-22.168500 0.000000
-22.133300 0.000000
-22.098100 0.000000
-22.062900 0.000000
-22.027600 0.000000
-21.992400 0.000000
-21.957200 0.000000
-21.922000 0.000000
-21.886800 0.000000
-21.851600 0.000000
-21.816400 0.000000
-21.781200 0.000000
-21.746000 0.000000
-21.710800 0.000000
-21.675600 0.000000
-21.640400 0.000000
-21.605200 0.000000
-21.570000 0.000000
-21.534800 0.000000
-21.499600 0.000000
-21.464400 0.000000
-21.429100 0.000000
-21.393900 0.000000
-21.358700 0.000000
-21.323500 0.000000
-21.288300 0.000000
-21.253100 0.000000
-21.217900 0.000000
-21.182700 0.000000
-21.147500 0.000000
-21.112300 0.000000
-21.077100 0.000000
-21.041900 0.000000
-21.006700 0.000000
-20.971500 0.000000
-20.936300 0.000000
-20.901100 0.000000
-20.865900 0.000000
-20.830600 0.000000
-20.795400 0.000000
-20.760200 0.000000
-20.725000 0.000000
-20.689800 0.000000
-20.654600 0.000000
-20.619400 0.000000
-20.584200 0.000000
-20.549000 0.000000
-20.513800 0.000000
-20.478600 0.000000
-20.443400 0.000000
-20.408200 0.000000
-20.373000 0.000000
-20.337800 0.000000
-20.302600 0.000000
-20.267400 0.000000
-20.232100 0.000000
-20.196900 0.000000
-20.161700 0.000000
-20.126500 0.000000
-20.091300 0.000000
-20.056100 0.000000
-20.020900 0.000000
-19.985700 0.000000
-19.950500 0.000000
-19.915300 0.000000
-19.880100 0.000000
-19.844900 0.000000
-19.809700 0.000000
-19.774500 0.000000
-19.739300 0.000000
-19.704100 0.000000
-19.668800 0.000000
-19.633600 0.000000
-19.598400 0.000000
-19.563200 0.000000
-19.528000 0.000000
-19.492800 0.000000
-19.457600 0.000000
-19.422400 0.000000
-19.387200 0.000000
-19.352000 0.000000
-19.316800 0.000000
-19.281600 0.000000
-19.246400 0.000000
-19.211200 0.000000
-19.176000 0.000000
-19.140800 0.000000
-19.105600 0.000000
-19.070300 0.000000
-19.035100 0.000000
-18.999900 0.000000
-18.964700 0.000000
-18.929500 0.000000
-18.894300 0.000000
-18.859100 0.000000
-18.823900 0.000000
-18.788700 0.000000
-18.753500 0.000000
-18.718300 0.000000
-18.683100 0.000000
-18.647900 0.000000
-18.612700 0.000000
-18.577500 0.000000
-18.542300 0.000000
-18.507100 0.000000
-18.471800 0.000000
-18.436600 0.000000
-18.401400 0.000000
-18.366200 0.000000
-18.331000 0.000000
-18.295800 0.000000
-18.260600 0.000000
-18.225400 0.000000
-18.190200 0.000000
-18.155000 0.000000
-18.119800 0.000000
-18.084600 0.000000
-18.049400 0.000000
-18.014200 0.000000
-17.979000 0.000000
-17.943800 0.000000
-17.908500 0.000000
-17.873300 0.000000
-17.838100 0.000000
-17.802900 0.000000
-17.767700 0.000000
-17.732500 0.000000
-17.697300 0.000000
-17.662100 0.000000
-17.626900 0.000000
-17.591700 0.000000
-17.556500 0.000000
-17.521300 0.000000
-17.486100 0.000000
-17.450900 0.000000
-17.415700 0.000000
-17.380500 0.000000
-17.345300 0.000000
-17.310000 0.000000
-17.274800 0.000000
-17.239600 0.000000
-17.204400 0.000000
-17.169200 0.000000
-17.134000 0.000000
-17.098800 0.000000
-17.063600 0.000000
-17.028400 0.000000
-16.993200 0.000000
-16.958000 0.000000
-16.922800 0.000000
-16.887600 0.000000
-16.852400 0.000000
-16.817200 0.000000
-16.782000 0.000000
-16.746800 0.000000
-16.711500 0.000000
-16.676300 0.000000
-16.641100 0.000000
-16.605900 0.000000
-16.570700 0.000000
-16.535500 0.000000
-16.500300 0.000000
-16.465100 0.000000
-16.429900 0.000000
-16.394700 0.000000
-16.359500 0.000000
-16.324300 0.000000
-16.289100 0.000000
-16.253900 0.000000
-16.218700 0.000000
-16.183500 0.000000
-16.148200 0.000000
-16.113000 0.000000
-16.077800 0.000000
-16.042600 0.000000
-16.007400 0.000000
-15.972200 0.000000
-15.937000 0.000000
-15.901800 0.000000
-15.866600 0.000000
-15.831400 0.000000
-15.796200 0.000000
-15.761000 0.000000
-15.725800 0.000000
-15.690600 0.000000
-15.655400 0.000000
-15.620200 0.000000
-15.585000 0.000000
-15.549700 0.000000
-15.514500 0.000000
-15.479300 0.000000
-15.444100 0.000000
-15.408900 0.000000
-15.373700 0.000000
-15.338500 0.000000
-15.303300 0.000000
-15.268100 0.000000
-15.232900 0.000000
-15.197700 0.000000
-15.162500 0.000000
-15.127300 0.000000
-15.092100 0.000000
-15.056900 0.000000
-15.021700 0.000000
-14.986500 0.000000
-14.951200 0.000000
-14.916000 0.000000
-14.880800 0.000000
-14.845600 0.000000
-14.810400 0.000000
-14.775200 0.000000
-14.740000 0.000000
-14.704800 0.000000
-14.669600 0.000000
-14.634400 0.000000
-14.599200 0.000000
-14.564000 0.000000
-14.528800 0.000000
-14.493600 0.000000
-14.458400 0.000000
-14.423200 0.000000
-14.387900 0.000000
-14.352700 0.000000
-14.317500 0.000000
-14.282300 0.000000
-14.247100 0.000000
-14.211900 0.000000
-14.176700 0.000000
-14.141500 0.000000
-14.106300 0.000000
-14.071100 0.000000
-14.035900 0.000000
-14.000700 0.000000
-13.965500 0.000000
-13.930300 0.000000
-13.895100 0.000000
-13.859900 0.000000
-13.824700 0.000000
-13.789400 0.000000
-13.754200 0.000000
-13.719000 0.000000
-13.683800 0.000000
-13.648600 0.000000
-13.613400 0.000000
-13.578200 0.000000
-13.543000 0.000000
-13.507800 0.000000
-13.472600 0.000000
-13.437400 0.000000
-13.402200 0.000000
-13.367000 0.000000
-13.331800 0.000000
-13.296600 0.000000
-13.261400 0.000000
-13.226200 0.000000
-13.190900 0.000000
-13.155700 0.000000
-13.120500 0.000000
-13.085300 0.000000
-13.050100 0.000000
-13.014900 0.000000
-12.979700 0.000000
-12.944500 0.000000
-12.909300 0.000000
-12.874100 0.000000
-12.838900 0.000000
-12.803700 0.000000
-12.768500 0.000000
-12.733300 0.000000
-12.698100 0.000000
-12.662900 0.000000
-12.627700 0.000000
-12.592400 0.000000
-12.557200 0.000000
-12.522000 0.000000
-12.486800 0.000000
-12.451600 0.000000
-12.416400 0.000000
-12.381200 0.000000
-12.346000 0.000000
-12.310800 0.000000
-12.275600 0.000000
-12.240400 0.000000
-12.205200 0.000000
-12.170000 0.000000
-12.134800 0.000000
-12.099600 0.000000
-12.064400 0.000000
-12.029100 0.000000
-11.993900 0.000000
-11.958700 0.000000
-11.923500 0.000000
-11.888300 0.000000
-11.853100 0.000000
-11.817900 0.000000
-11.782700 0.000000
-11.747500 0.000000
-11.712300 0.000000
-11.677100 0.000000
-11.641900 0.000000
-11.606700 0.000000
-11.571500 0.000000
-11.536300 0.000000
-11.501100 0.000000
-11.465900 0.000000
-11.430600 0.000000
-11.395400 0.000000
-11.360200 0.000000
-11.325000 0.000000
-11.289800 0.000000
-11.254600 0.000000
-11.219400 0.000000
-11.184200 0.000000
-11.149000 0.000000
-11.113800 0.000000
-11.078600 0.000000
-11.043400 0.000000
-11.008200 0.000000
-10.973000 0.000000
-10.937800 0.000000
-10.902600 0.000000
-10.867400 0.000000
-10.832100 0.000000
-10.796900 0.000000
-10.761700 0.000000
-10.726500 0.000000
-10.691300 0.000000
-10.656100 0.000000
-10.620900 0.000000
-10.585700 0.000000
-10.550500 0.000000
-10.515300 0.000000
-10.480100 0.000000
-10.444900 0.000000
-10.409700 0.000000
-10.374500 0.000000
-10.339300 0.000000
-10.304100 0.000000
-10.268800 0.000000
-10.233600 0.000000
-10.198400 0.000000
-10.163200 0.000000
-10.128000 0.000000
-10.092800 0.000000
-10.057600 0.000000
-10.022400 0.000000
-9.987200 0.000000
-9.952000 0.000000
-9.916800 0.000000
-9.881600 0.000000
-9.846400 0.000000
-9.811200 0.000000
-9.776000 0.000000
-9.740800 0.000000
-9.705600 0.000000
-9.670300 0.000000
-9.635100 0.000000
-9.599900 0.000000
-9.564700 0.000000
-9.529500 0.000000
-9.494300 0.000000
-9.459100 0.000000
-9.423900 0.000000
-9.388700 0.000000
-9.353500 0.000000
-9.318300 0.000000
-9.283100 0.000000
-9.247900 0.000000
-9.212700 0.000000
-9.177500 0.000000
-9.142300 0.000000
-9.107100 0.000000
-9.071800 0.000000
-9.036600 0.000000
-9.001400 0.000000
-8.966200 0.000000
-8.931000 0.000000
-8.895800 0.000000
-8.860600 0.000000
-8.825400 0.000000
-8.790200 0.000000
-8.755000 0.000000
-8.719800 0.000000
-8.684600 0.000000
-8.649400 0.000000
-8.614200 0.000000
-8.579000 0.000000
-8.543800 0.000000
-8.508500 0.000000
-8.473300 0.000000
-8.438100 0.000000
-8.402900 0.000000
-8.367700 0.000000
-8.332500 0.000000
-8.297300 0.000000
-8.262100 0.000000
-8.226900 0.000000
-8.191700 0.000000
-8.156500 0.000000
-8.121300 0.000000
-8.086100 0.000000
-8.050900 0.000000
-8.015700 0.000000
-7.980500 0.000000
-7.945300 0.000000
-7.910000 0.000000
-7.874800 0.000000
-7.839600 0.000000
-7.804400 0.000000
-7.769200 0.000000
-7.734000 0.000000
-7.698800 0.000000
-7.663600 0.000000
-7.628400 0.000000
-7.593200 0.000000
-7.558000 0.000000
-7.522800 0.000000
-7.487600 0.000000
-7.452400 0.000000
-7.417200 0.000000
-7.382000 0.000000
-7.346800 0.000000
-7.311500 0.000000
-7.276300 0.000000
-7.241100 0.000000
-7.205900 0.000000
-7.170700 0.000000
-7.135500 0.000000
-7.100300 0.000000
-7.065100 0.000000
-7.029900 0.000000
-6.994700 0.000000
-6.959500 0.000000
-6.924300 0.000000
-6.889100 0.000000
-6.853900 0.000000
-6.818700 0.000000
-6.783500 0.000000
-6.748200 0.000000
-6.713000 0.000000
-6.677800 0.000000
-6.642600 0.000000
-6.607400 0.000000
-6.572200 0.000000
-6.537000 0.000000
-6.501800 0.000000
-6.466600 0.000000
-6.431400 0.000000
-6.396200 0.000000
-6.361000 0.000000
-6.325800 0.039100
-6.290600 0.155600
-6.255400 0.301400
-6.220200 0.447200
-6.185000 0.412700
-6.149700 0.317500
-6.114500 0.331100
-6.079300 0.344700
-6.044100 0.358300
-6.008900 0.371900
-5.973700 0.385500
-5.938500 0.399000
-5.903300 0.404300
-5.868100 0.395300
-5.832900 0.383900
-5.797700 0.372600
-5.762500 0.369700
-5.727300 0.375500
-5.692100 0.381700
-5.656900 0.387800
-5.621700 0.394000
-5.586500 0.400200
-5.551200 0.406300
-5.516000 0.412500
-5.480800 0.418600
-5.445600 0.424800
-5.410400 0.426300
-5.375200 0.417200
-5.340000 0.425300
-5.304800 0.493900
-5.269600 0.605400
-5.234400 0.726200
-5.199200 0.779200
-5.164000 0.885100
-5.128800 0.954600
-5.093600 0.911700
-5.058400 0.943400
-5.023200 0.974700
-4.988000 0.996700
-4.952700 1.010800
-4.917500 1.018200
-4.882300 1.020700
-4.847100 1.026200
-4.811900 1.039200
-4.776700 1.060500
-4.741500 1.081800
-4.706300 1.104900
-4.671100 1.129300
-4.635900 1.151800
-4.600700 1.173900
-4.565500 1.194600
-4.530300 1.216600
-4.495100 1.240500
-4.459900 1.265200
-4.424700 1.294500
-4.389400 1.325300
-4.354200 1.356100
-4.319000 1.387000
-4.283800 1.417900
-4.248600 1.451900
-4.213400 1.499800
-4.178200 1.556400
-4.143000 1.660100
-4.107800 1.768700
-4.072600 1.902300
-4.037400 2.071900
-4.002200 2.238900
-3.967000 2.441900
-3.931800 2.749900
-3.896600 3.057900
-3.861400 3.748600
-3.826200 3.131200
-3.790900 3.570700
-3.755700 4.112200
-3.720500 4.920300
-3.685300 5.134200
-3.650100 5.484200
-3.614900 5.995100
-3.579700 6.368800
-3.544500 12.351900
-3.509300 6.752300
-3.474100 5.974900
-3.438900 5.262500
-3.403700 5.178100
-3.368500 4.914400
-3.333300 3.651800
-3.298100 2.074200
-3.262900 2.037600
-3.227700 2.058900
-3.192400 2.200500
-3.157200 2.391500
-3.122000 3.036400
-3.086800 2.229500
-3.051600 4.937400
-3.016400 0.843300
-2.981200 0.033700
-2.946000 0.000000
-2.910800 0.000000
-2.875600 0.000000
-2.840400 0.000000
-2.805200 0.000000
-2.770000 0.000000
-2.734800 0.000000
-2.699600 0.000000
-2.664400 0.000000
-2.629100 0.000000
-2.593900 0.000000
-2.558700 0.000000
-2.523500 0.000000
-2.488300 0.000000
-2.453100 0.000000
-2.417900 0.000000
-2.382700 0.000000
-2.347500 0.000000
-2.312300 0.000000
-2.277100 0.000000
-2.241900 0.000000
-2.206700 0.000000
-2.171500 0.000000
-2.136300 0.000000
-2.101100 0.000000
-2.065900 0.000000
-2.030600 0.000000
-1.995400 0.000000
-1.960200 0.000000
-1.925000 0.000000
-1.889800 0.000000
-1.854600 0.000000
-1.819400 0.000000
-1.784200 0.000000
-1.749000 0.000000
-1.713800 0.000000
-1.678600 0.000000
-1.643400 0.000000
-1.608200 0.000000
-1.573000 0.000000
-1.537800 0.000000
-1.502600 0.000000
-1.467400 0.000000
-1.432100 0.000000
-1.396900 0.000000
-1.361700 0.000000
-1.326500 0.000000
-1.291300 0.000000
-1.256100 0.000000
-1.220900 0.000000
-1.185700 0.000000
-1.150500 0.000000
-1.115300 0.000000
-1.080100 0.000000
-1.044900 0.000000
-1.009700 0.000000
-0.974500 0.000000
-0.939300 0.000000
-0.904100 0.000000
-0.868800 0.000000
-0.833600 0.000000
-0.798400 0.000000
-0.763200 0.000000
-0.728000 0.000000
-0.692800 0.000000
-0.657600 0.000000
-0.622400 0.000000
-0.587200 0.000000
-0.552000 0.000000
-0.516800 0.000000
-0.481600 0.000000
-0.446400 0.000000
-0.411200 0.000000
-0.376000 0.000000
-0.340800 0.000000
-0.305600 0.000000
-0.270300 0.000000
-0.235100 0.000000
-0.199900 0.000000
-0.164700 0.000000
-0.129500 0.000000
-0.094300 0.000000
-0.059100 0.000000
-0.023900 0.000000
0.011300 0.000000
0.046500 0.000000
0.081700 0.000000
0.116900 0.000000
0.152100 0.000000
0.187300 0.000000
0.222500 0.000000
0.257700 0.017800
0.292900 0.051700
0.328200 0.145400
0.363400 0.295600
0.398600 0.476200
0.433800 0.640900
0.469000 0.820900
0.504200 1.003100
0.539400 1.112700
0.574600 1.159900
0.609800 1.137800
0.645000 1.079600
0.680200 1.072700
0.715400 1.075200
0.750600 1.089700
0.785800 1.120500
0.821000 1.155400
0.856200 1.188400
0.891500 1.221300
0.926700 1.253300
0.961900 1.286600
0.997100 1.321900
1.032300 1.361000
1.067500 1.407800
1.102700 1.460800
1.137900 1.517200
1.173100 1.577300
1.208300 1.643000
1.243500 1.994300
1.278700 2.191000
1.313900 2.268800
1.349100 2.533200
1.384300 2.947900
1.419500 3.241700
1.454700 3.605200
1.490000 3.769700
1.525200 3.758700
1.560400 3.532300
1.595600 3.650100
1.630800 3.678300
1.666000 4.145500
1.701200 6.069800
1.736400 5.448300
1.771600 1.455200
1.806800 1.368400
1.842000 1.307500
1.877200 1.851100
1.912400 2.139800
1.947600 2.569100
1.982800 2.877800
2.018000 3.191800
2.053200 3.433500
2.088500 3.348100
2.123700 2.568500
2.158900 2.094000
2.194100 2.822300
2.229300 6.778100
2.264500 12.115000
2.299700 12.767100
2.334900 4.448100
2.370100 1.817300
2.405300 1.488700
2.440500 1.332800
2.475700 1.233800
2.510900 1.196000
2.546100 1.484700
2.581300 1.836600
2.616500 2.438500
2.651700 3.304900
2.687000 4.045000
2.722200 3.843600
2.757400 3.623400
2.792600 3.984200
2.827800 5.150400
2.863000 5.456500
2.898200 5.770300
2.933400 6.007500
2.968600 6.424800
3.003800 9.160000
3.039000 4.232000
3.074200 3.527000
3.109400 4.814600
3.144600 7.038500
3.179800 13.302100
3.215000 7.356000
3.250300 7.742800
3.285500 7.547000
3.320700 6.979300
3.355900 9.760300
3.391100 8.488200
3.426300 6.961600
3.461500 5.856800
3.496700 9.078800
3.531900 12.008400
3.567100 10.873000
3.602300 8.398300
3.637500 7.749300
3.672700 6.828600
3.707900 8.018900
3.743100 7.751200
3.778300 7.733100
3.813500 7.046300
3.848800 6.647800
3.884000 7.397500
3.919200 8.379300
3.954400 6.925900
3.989600 5.982400
4.024800 5.945800
4.060000 4.506100
4.095200 3.073200
4.130400 2.883400
4.165600 2.744200
4.200800 2.648400
4.236000 2.577100
4.271200 2.527600
4.306400 2.501400
4.341600 2.477700
4.376800 2.501900
4.412000 2.508000
4.447300 2.479800
4.482500 2.381400
4.517700 2.319600
4.552900 2.475200
4.588100 2.082900
4.623300 1.773200
4.658500 1.509900
4.693700 1.325300
4.728900 1.227100
4.764100 1.266000
4.799300 0.982100
4.834500 0.960100
4.869700 0.939100
4.904900 0.918200
4.940100 0.897300
4.975300 0.876400
5.010600 0.855500
5.045800 0.834600
5.081000 0.813800
5.116200 0.778400
5.151400 0.809600
5.186600 1.101400
5.221800 1.511100
5.257000 1.860300
5.292200 2.287700
5.327400 2.628900
5.362600 2.884300
5.397800 3.266700
5.433000 3.764800
5.468200 4.530400
5.503400 4.833000
5.538600 5.624400
5.573800 5.917400
5.609100 6.587400
5.644300 9.329000
5.679500 4.866400
5.714700 3.926000
5.749900 3.349900
5.785100 3.396900
5.820300 3.672200
5.855500 3.568200
5.890700 2.468600
5.925900 2.480800
5.961100 2.518100
5.996300 2.583400
6.031500 2.686400
6.066700 2.783300
6.101900 2.863200
6.137100 3.063700
6.172300 2.940200
6.207600 2.605300
6.242800 2.404600
6.278000 2.076300
6.313200 2.003000
6.348400 1.771500
6.383600 3.198600
6.418800 1.890100
6.454000 2.203200
6.489200 4.249900
6.524400 4.985000
6.559600 5.804600
6.594800 6.956900
6.630000 6.204700
6.665200 5.522000
6.700400 5.244200
6.735600 4.464900
6.770900 4.943300
6.806100 5.606200
6.841300 6.659300
6.876500 6.764000
6.911700 7.625900
6.946900 6.978500
6.982100 3.650100
7.017300 2.934500
7.052500 4.466700
7.087700 5.342100
7.122900 5.998300
7.158100 5.982300
7.193300 5.185300
7.228500 4.072100
7.263700 3.284300
7.298900 2.857300
7.334100 2.658200
7.369400 2.526600
7.404600 2.257100
7.439800 1.747400
7.475000 2.045800
7.510200 2.436900
7.545400 3.141300
7.580600 3.293200
7.615800 4.836700
7.651000 4.054600
7.686200 3.902400
7.721400 3.868100
7.756600 4.119300
7.791800 4.292100
7.827000 4.389600
7.862200 4.434100
7.897400 4.475600
7.932600 4.568800
7.967900 4.701900
8.003100 4.915100
8.038300 5.189200
8.073500 5.505200
8.108700 6.610200
8.143900 7.174700
8.179100 8.372600
8.214300 10.100300
8.249500 9.198500
8.284700 9.078100
8.319900 8.229600
8.355100 8.392800
8.390300 10.040700
8.425500 11.504600
8.460700 10.722100
8.495900 11.343700
8.531100 10.507200
8.566400 8.751800
8.601600 6.565800
8.636800 5.746300
8.672000 5.487600
8.707200 7.712900
8.742400 10.698900
8.777600 12.685800
8.812800 11.376200
8.848000 8.028400
8.883200 13.641500
8.918400 8.217700
8.953600 8.331200
8.988800 7.524800
9.024000 5.768300
9.059200 6.190100
9.094400 7.245000
9.129700 6.755800
9.164900 6.228000
9.200100 5.943100
9.235300 6.058700
9.270500 8.881800
9.305700 14.050600
9.340900 19.300200
9.376100 6.448200
9.411300 7.887400
9.446500 11.320700
9.481700 6.684100
9.516900 6.079600
9.552100 5.455200
9.587300 4.263700
9.622500 4.907800
9.657700 5.552600
9.692900 6.042200
9.728200 7.572900
9.763400 7.920000
9.798600 5.570200
9.833800 5.061600
9.869000 6.578100
9.904200 7.259600
9.939400 4.896600
9.974600 4.256500
10.009800 4.691600
10.045000 4.056000
10.080200 4.596400
10.115400 4.785600
10.150600 4.598200
10.185800 4.587300
10.221000 3.660500
10.256200 3.599800
10.291400 2.810800
10.326700 1.995400
10.361900 1.806500
10.397100 1.830700
10.432300 2.030200
10.467500 2.387300
10.502700 2.727400
10.537900 3.169100
10.573100 3.905600
10.608300 5.562200
10.643500 6.004900
10.678700 6.094500
10.713900 6.007300
10.749100 5.904200
10.784300 5.078500
10.819500 4.903100
10.854700 4.658100
10.890000 4.354100
10.925200 3.907800
10.960400 3.557600
10.995600 3.542400
11.030800 3.628500
11.066000 4.278500
11.101200 4.860000
11.136400 5.018800
11.171600 5.071200
11.206800 4.780500
11.242000 4.122000
11.277200 3.959800
11.312400 3.385900
11.347600 2.096700
11.382800 1.119500
11.418000 1.546700
11.453200 2.837500
11.488500 3.734000
11.523700 2.275000
11.558900 2.554600
11.594100 2.444900
11.629300 2.319600
11.664500 2.299400
11.699700 2.648000
11.734900 3.435300
11.770100 4.456400
11.805300 6.082900
11.840500 6.633000
11.875700 6.519200
11.910900 6.640200
11.946100 7.569700
11.981300 7.719100
12.016500 3.736100
12.051700 3.627800
12.087000 3.878300
12.122200 3.530300
12.157400 2.171900
12.192600 2.034500
12.227800 1.989700
12.263000 1.955300
12.298200 1.965600
12.333400 1.987100
12.368600 1.997200
12.403800 2.060900
12.439000 2.190100
12.474200 2.377300
12.509400 2.459500
12.544600 2.514000
12.579800 2.832900
12.615000 3.906000
12.650300 4.586800
12.685500 4.064000
12.720700 4.570700
12.755900 5.428000
12.791100 5.931800
12.826300 7.241800
12.861500 4.065600
12.896700 3.652600
12.931900 2.851800
12.967100 2.598700
13.002300 2.604700
13.037500 2.523500
13.072700 2.836700
13.107900 3.463400
13.143100 4.027500
13.178300 4.409800
13.213500 4.792900
13.248800 5.678300
13.284000 4.497200
13.319200 3.168500
13.354400 2.793000
13.389600 2.586000
13.424800 2.352400
13.460000 2.086400
13.495200 1.881500
13.530400 1.877200
13.565600 3.168600
13.600800 3.461500
13.636000 3.460400
13.671200 3.464400
13.706400 3.149100
13.741600 2.847700
13.776800 2.561400
13.812000 2.376200
13.847300 2.103300
13.882500 1.930200
13.917700 1.663300
13.952900 1.436700
13.988100 1.833600
14.023300 1.351100
14.058500 1.028300
14.093700 0.896200
14.128900 0.909000
14.164100 0.965500
14.199300 1.035400
14.234500 1.130400
14.269700 1.264200
14.304900 1.468000
14.340100 1.695300
14.375300 1.995900
14.410600 1.989300
14.445800 1.584700
14.481000 1.171700
14.516200 1.032800
14.551400 0.962300
14.586600 0.887300
14.621800 0.797200
14.657000 0.747300
14.692200 0.704600
14.727400 0.661900
14.762600 0.619200
14.797800 0.576500
14.833000 0.540300
14.868200 0.527000
14.903400 0.520300
14.938600 0.513400
14.973800 0.506400
15.009100 0.499100
15.044300 0.459800
15.079500 0.381300
15.114700 0.320600
15.149900 0.250800
15.185100 0.244700
15.220300 0.244000
15.255500 0.247000
15.290700 0.253500
15.325900 0.263600
15.361100 0.277400
15.396300 0.295200
15.431500 0.316800
15.466700 0.534800
15.501900 0.488400
15.537100 0.495100
15.572300 0.502700
15.607600 0.528800
15.642800 0.584500
15.678000 0.632000
15.713200 0.689500
15.748400 0.740700
15.783600 0.778300
15.818800 0.898100
15.854000 0.860200
15.889200 0.803200
15.924400 0.931200
15.959600 1.707800
15.994800 1.453600
16.030000 1.227000
16.065200 0.754900
16.100400 0.612000
16.135600 0.601500
16.170800 0.596000
16.206100 0.595800
16.241300 0.599900
16.276500 0.606900
16.311700 0.616200
16.346900 0.627300
16.382100 0.640300
16.417300 0.660200
16.452500 0.670700
16.487700 0.682700
16.522900 0.700100
16.558100 0.721000
16.593300 0.747000
16.628500 0.778400
16.663700 0.818200
16.698900 0.862500
16.734100 0.894200
16.769400 0.916900
16.804600 0.949300
16.839800 0.981800
16.875000 1.015400
16.910200 1.045000
16.945400 1.073100
16.980600 1.121200
17.015800 1.194700
17.051000 1.263100
17.086200 1.326400
17.121400 1.390600
17.156600 1.461600
17.191800 1.545500
17.227000 1.655800
17.262200 1.781000
17.297400 1.936200
17.332600 2.026400
17.367900 2.078400
17.403100 2.106300
17.438300 2.100000
17.473500 2.123300
17.508700 2.131500
17.543900 2.117600
17.579100 2.071700
17.614300 1.985900
17.649500 1.924200
17.684700 1.889500
17.719900 1.941100
17.755100 2.187900
17.790300 2.070000
17.825500 1.989500
17.860700 1.923600
17.895900 1.909500
17.931100 1.839800
17.966400 1.749400
18.001600 1.635300
18.036800 1.503100
18.072000 1.380400
18.107200 1.263000
18.142400 1.156100
18.177600 1.915600
18.212800 1.758800
18.248000 1.737500
18.283200 1.704000
18.318400 1.643300
18.353600 1.558500
18.388800 1.535300
18.424000 1.621900
18.459200 1.674200
18.494400 1.819400
18.529700 2.584800
18.564900 2.283200
18.600100 2.156800
18.635300 2.135600
18.670500 2.133300
18.705700 2.138500
18.740900 2.151200
18.776100 2.173800
18.811300 2.163500
18.846500 2.095100
18.881700 1.943900
18.916900 1.843900
18.952100 1.835700
18.987300 1.852100
19.022500 1.885600
19.057700 1.977600
19.092900 2.105200
19.128200 2.247200
19.163400 2.250000
19.198600 2.291600
19.233800 2.347800
19.269000 2.374400
19.304200 2.554900
19.339400 2.328200
19.374600 2.384200
19.409800 2.598900
19.445000 2.734100
19.480200 2.609500
19.515400 2.353500
19.550600 2.175000
19.585800 2.109900
19.621000 2.113000
19.656200 2.023300
19.691400 1.909100
19.726700 1.862900
19.761900 1.792700
19.797100 1.695800
19.832300 1.633800
19.867500 1.588600
19.902700 1.617200
19.937900 2.112400
19.973100 2.541800
20.008300 2.713800
20.043500 2.955100
20.078700 3.088000
20.113900 3.431200
20.149100 3.693500
20.184300 4.019300
20.219500 3.502000
20.254700 3.257100
20.290000 3.256000
20.325200 3.312100
20.360400 3.267500
20.395600 3.628500
20.430800 3.616000
20.466000 2.847800
20.501200 2.462900
20.536400 2.468700
20.571600 2.506100
20.606800 2.583800
20.642000 2.848100
20.677200 3.274300
20.712400 3.075300
20.747600 2.493600
20.782800 2.222000
20.818000 2.418700
20.853200 2.673200
20.888500 2.892600
20.923700 2.807000
20.958900 2.810300
20.994100 2.679400
21.029300 2.652600
21.064500 2.623000
21.099700 2.679100
21.134900 2.818100
21.170100 2.752800
21.205300 2.795700
21.240500 2.968800
21.275700 3.672900
21.310900 5.825200
21.346100 6.722700
21.381300 7.439800
21.416500 8.376300
21.451700 8.720900
21.487000 5.585200
21.522200 4.098700
21.557400 3.395300
21.592600 3.039900
21.627800 2.783600
21.663000 2.755300
21.698200 3.113800
21.733400 3.609300
21.768600 4.176000
21.803800 4.422900
21.839000 4.568000
21.874200 4.388800
21.909400 4.220800
21.944600 4.109100
21.979800 3.884400
22.015000 3.850400
22.050300 4.317500
22.085500 3.562100
22.120700 3.365300
22.155900 2.861300
22.191100 2.631800
22.226300 2.318000
22.261500 2.342000
22.296700 2.628800
22.331900 3.421100
22.367100 4.130100
22.402300 4.622100
22.437500 4.529500
22.472700 4.707200
22.507900 5.077000
22.543100 4.842800
22.578300 5.279800
22.613500 4.657900
22.648800 4.333200
22.684000 4.327300
22.719200 4.358400
22.754400 3.711200
22.789600 3.650300
22.824800 4.047700
22.860000 4.451900
22.895200 5.285600
22.930400 5.682000
22.965600 5.761700
23.000800 5.613000
23.036000 5.628900
23.071200 5.687000
23.106400 4.144600
23.141600 3.124700
23.176800 1.954700
23.212000 1.504100
23.247300 1.499300
23.282500 1.492500
23.317700 1.521700
23.352900 1.769500
23.388100 2.072900
23.423300 2.136500
23.458500 2.310600
23.493700 2.518900
23.528900 2.782900
23.564100 3.011000
23.599300 3.189800
23.634500 3.271100
23.669700 3.282600
23.704900 3.675800
23.740100 4.061400
23.775300 4.073600
23.810500 3.813200
23.845800 3.436000
23.881000 2.661100
23.916200 2.290500
23.951400 2.189500
23.986600 2.000200
24.021800 1.883900
24.057000 1.919900
24.092200 1.933000
24.127400 2.194700
24.162600 2.567200
24.197800 2.678200
24.233000 2.853700
24.268200 2.977000
24.303400 2.944900
24.338600 2.923900
24.373800 2.923900
24.409100 2.854800
24.444300 3.095700
24.479500 2.394000
24.514700 2.214200
24.549900 2.131500
24.585100 1.915100
24.620300 1.726900
24.655500 1.496600
24.690700 1.307700
24.725900 1.194100
24.761100 1.179000
24.796300 1.203500
24.831500 1.384000
24.866700 1.576700
24.901900 1.873300
24.937100 2.347200
24.972300 3.352400
25.007600 3.315400
25.042800 3.247800
25.078000 2.654700
25.113200 2.550600
25.148400 2.551400
25.183600 2.692100
25.218800 2.999700
25.254000 3.081600
25.289200 3.101000
25.324400 3.064100
25.359600 3.263700
25.394800 2.795200
25.430000 2.694100
25.465200 2.403700
25.500400 2.402300
25.535600 2.139600
25.570800 2.156800
25.606100 1.607900
25.641300 1.572000
25.676500 1.530300
25.711700 1.514700
25.746900 1.526100
25.782100 1.555500
25.817300 1.591600
25.852500 1.632500
25.887700 1.670200
25.922900 1.733600
25.958100 1.819500
25.993300 1.969900
26.028500 2.629300
26.063700 2.414900
26.098900 2.447400
26.134100 2.436300
26.169400 2.540900
26.204600 2.647500
26.239800 2.740600
26.275000 2.804900
26.310200 2.809100
26.345400 2.832300
26.380600 2.752600
26.415800 2.624900
26.451000 2.670200
26.486200 2.795800
26.521400 2.846500
26.556600 3.098100
26.591800 3.003400
26.627000 3.092900
26.662200 2.999800
26.697400 2.931900
26.732600 2.787300
26.767900 2.484600
26.803100 2.291200
26.838300 2.130700
26.873500 2.015100
26.908700 1.909100
26.943900 1.818600
26.979100 1.973700
27.014300 2.187000
27.049500 2.297400
27.084700 2.404100
27.119900 2.443100
27.155100 2.779600
27.190300 3.053100
27.225500 3.204100
27.260700 3.399600
27.295900 2.868600
27.331100 2.508400
27.366400 2.403800
27.401600 2.398400
27.436800 2.409600
27.472000 2.418000
27.507200 2.443600
27.542400 2.525500
27.577600 2.441200
27.612800 2.278100
27.648000 2.160100
27.683200 2.014800
27.718400 1.928100
27.753600 2.056900
27.788800 2.207100
27.824000 2.276900
27.859200 2.338300
27.894400 2.286500
27.929700 2.139700
27.964900 2.232000
28.000100 2.336900
28.035300 2.397400
28.070500 2.608000
28.105700 2.817900
28.140900 2.852100
28.176100 3.047300
28.211300 3.106700
28.246500 3.138600
28.281700 3.111600
28.316900 2.946200
28.352100 2.698900
28.387300 2.635200
28.422500 2.605000
28.457700 2.595900
28.492900 2.582100
28.528200 2.547800
28.563400 2.578700
28.598600 2.690200
28.633800 2.985700
28.669000 3.105500
28.704200 2.853800
28.739400 2.440600
28.774600 2.093000
28.809800 1.894100
28.845000 1.743600
28.880200 2.099100
28.915400 2.217900
28.950600 2.509200
28.985800 2.632000
29.021000 2.853200
29.056200 3.127700
29.091400 3.419500
29.126700 3.606100
29.161900 3.731400
29.197100 3.789900
29.232300 3.698200
29.267500 3.588100
29.302700 3.306700
29.337900 3.097900
29.373100 2.845200
29.408300 2.723300
29.443500 2.778200
29.478700 3.396400
29.513900 2.589100
29.549100 2.310300
29.584300 1.967700
29.619500 1.824900
29.654700 1.895500
29.689900 2.024700
29.725200 2.230800
29.760400 2.464900
29.795600 2.404600
29.830800 2.350500
29.866000 2.384500
29.901200 2.394000
29.936400 2.491500
29.971600 2.389700
30.006800 2.208900
30.042000 1.957100
30.077200 1.634400
30.112400 1.462500
30.147600 1.399300
30.182800 1.365800
30.218000 1.322900
30.253200 1.194400
30.288500 1.154300
30.323700 1.089500
30.358900 0.966300
30.394100 0.884000
30.429300 0.867500
30.464500 0.871200
30.499700 0.868700
30.534900 0.866700
30.570100 0.862900
30.605300 0.857400
30.640500 0.849800
30.675700 0.846600
30.710900 0.858500
30.746100 0.873600
30.781300 0.875000
30.816500 0.873900
30.851700 0.871400
30.887000 0.878900
30.922200 0.930300
30.957400 0.994400
30.992600 1.064700
31.027800 1.166400
31.063000 1.222200
31.098200 1.273700
31.133400 1.345800
31.168600 1.403600
31.203800 1.377200
31.239000 1.827700
31.274200 1.235300
31.309400 0.830600
31.344600 0.696000
31.379800 0.593400
31.415000 0.506400
31.450200 0.423100
31.485500 0.384500
31.520700 0.361600
31.555900 0.339600
31.591100 0.317000
31.626300 0.293800
31.661500 0.270200
31.696700 0.255200
31.731900 0.258500
31.767100 0.252000
31.802300 0.234200
31.837500 0.218700
31.872700 0.210100
31.907900 0.205900
31.943100 0.200500
31.978300 0.193900
32.013500 0.186400
32.048800 0.185100
32.084000 0.187800
32.119200 0.185900
32.154400 0.178800
32.189600 0.166400
32.224800 0.148600
32.260000 0.099600
32.295200 0.049700
32.330400 0.016600
32.365600 0.000400
32.400800 0.000000
32.436000 0.000000
32.471200 0.000000
32.506400 0.000000
32.541600 0.000000
32.576800 0.000000
32.612000 0.000000
32.647300 0.000000
32.682500 0.000000
32.717700 0.000000
32.752900 0.000000
32.788100 0.000000
32.823300 0.000000
32.858500 0.000000
32.893700 0.000000
32.928900 0.000000
32.964100 0.000000
32.999300 0.000000
33.034500 0.000000
33.069700 0.000000
33.104900 0.000000
33.140100 0.000000
33.175300 0.000000
33.210500 0.000000
33.245800 0.000000
33.281000 0.000000
33.316200 0.000000
33.351400 0.000000
33.386600 0.000000
33.421800 0.000000
33.457000 0.000000
33.492200 0.000000
33.527400 0.000000
33.562600 0.000000
33.597800 0.000000
33.633000 0.000000
33.668200 0.000000
33.703400 0.000000
33.738600 0.000000
33.773800 0.000000
33.809100 0.000000
33.844300 0.000000
33.879500 0.000000
33.914700 0.000000
33.949900 0.000000
33.985100 0.000000
34.020300 0.000000
34.055500 0.000000
34.090700 0.000000
34.125900 0.000000
34.161100 0.000000
34.196300 0.000000
34.231500 0.000000
34.266700 0.000000
34.301900 0.000000
34.337100 0.000000
34.372300 0.000000
34.407600 0.000000
34.442800 0.000000
34.478000 0.000000
34.513200 0.000000
34.548400 0.000000
34.583600 0.000000
34.618800 0.000000
34.654000 0.000000
34.689200 0.000000
34.724400 0.000000
34.759600 0.000000
34.794800 0.000000
34.830000 0.000000
34.865200 0.000000
34.900400 0.000000
34.935600 0.000000
34.970800 0.000000
35.006100 0.000000
35.041300 0.000000
35.076500 0.000000
35.111700 0.000000
35.146900 0.000000
35.182100 0.000000
35.217300 0.000000
35.252500 0.000000
35.287700 0.000000
35.322900 0.000000
35.358100 0.000000
35.393300 0.000000
35.428500 0.000000
35.463700 0.000000
35.498900 0.000000
35.534100 0.000000
35.569400 0.000000
e
