set title 'mp-1062652 - Density of States'
set xlabel 'Energy (eV)'
set ylabel 'DOS (states/eV)'
set grid
set xrange [-10:10]
set yrange [0:3.480]
set xzeroaxis lt -1
set terminal png size 800,600
set output 'mp-1062652_dos_gnuplot.png'
plot '-' using 1:2 with lines title 'DOS'
-60.316600 0.000000
-60.240100 0.000000
-60.163500 0.000000
-60.086900 0.000000
-60.010300 0.000000
-59.933700 0.000000
-59.857100 0.000000
-59.780600 0.000000
-59.704000 0.000000
-59.627400 0.000000
-59.550800 0.000000
-59.474200 0.000000
-59.397600 0.000000
-59.321100 0.000000
-59.244500 0.000000
-59.167900 0.000000
-59.091300 0.000000
-59.014700 0.000000
-58.938100 0.000000
-58.861600 0.000000
-58.785000 0.000000
-58.708400 0.000000
-58.631800 0.000000
-58.555200 0.000000
-58.478600 0.000000
-58.402000 0.000000
-58.325500 0.000000
-58.248900 0.000000
-58.172300 0.000000
-58.095700 0.000000
-58.019100 0.000000
-57.942500 0.000000
-57.866000 0.000000
-57.789400 0.000000
-57.712800 0.000000
-57.636200 0.000000
-57.559600 0.000000
-57.483000 0.000000
-57.406500 0.000000
-57.329900 0.000000
-57.253300 0.000000
-57.176700 0.000000
-57.100100 0.000000
-57.023500 0.000000
-56.947000 0.000000
-56.870400 0.000000
-56.793800 0.000000
-56.717200 0.000000
-56.640600 0.000000
-56.564000 0.000000
-56.487500 0.000000
-56.410900 0.000000
-56.334300 0.000000
-56.257700 0.000000
-56.181100 0.000000
-56.104500 0.000000
-56.028000 0.000000
-55.951400 0.000000
-55.874800 0.000000
-55.798200 0.000000
-55.721600 0.000000
-55.645000 0.000000
-55.568400 0.000000
-55.491900 0.000000
-55.415300 0.000000
-55.338700 0.000000
-55.262100 0.000000
-55.185500 0.000000
-55.108900 0.000000
-55.032400 0.000000
-54.955800 0.000000
-54.879200 0.000000
-54.802600 0.000000
-54.726000 0.000000
-54.649400 0.000000
-54.572900 0.000000
-54.496300 0.000000
-54.419700 0.000000
-54.343100 0.000000
-54.266500 0.000000
-54.189900 0.000000
-54.113400 0.000000
-54.036800 0.000000
-53.960200 0.000000
-53.883600 0.000000
-53.807000 0.000000
-53.730400 0.000000
-53.653900 0.000000
-53.577300 0.000000
-53.500700 0.000000
-53.424100 0.000000
-53.347500 117.323600
-53.270900 0.000000
-53.194400 0.000000
-53.117800 0.000000
-53.041200 0.000000
-52.964600 0.000000
-52.888000 0.000000
-52.811400 0.000000
-52.734800 0.000000
-52.658300 0.000000
-52.581700 0.000000
-52.505100 0.000000
-52.428500 0.000000
-52.351900 0.000000
-52.275300 0.000000
-52.198800 0.000000
-52.122200 0.000000
-52.045600 0.000000
-51.969000 0.000000
-51.892400 0.000000
-51.815800 0.000000
-51.739300 0.000000
-51.662700 0.000000
-51.586100 0.000000
-51.509500 0.000000
-51.432900 0.000000
-51.356300 0.000000
-51.279800 0.000000
-51.203200 0.000000
-51.126600 0.000000
-51.050000 0.000000
-50.973400 0.000000
-50.896800 0.000000
-50.820300 0.000000
-50.743700 0.000000
-50.667100 0.000000
-50.590500 0.000000
-50.513900 0.000000
-50.437300 0.000000
-50.360800 0.000000
-50.284200 0.000000
-50.207600 0.000000
-50.131000 0.000000
-50.054400 0.000000
-49.977800 0.000000
-49.901200 0.000000
-49.824700 0.000000
-49.748100 0.000000
-49.671500 0.000000
-49.594900 0.000000
-49.518300 0.000000
-49.441700 0.000000
-49.365200 0.000000
-49.288600 0.000000
-49.212000 0.000000
-49.135400 0.000000
-49.058800 0.000000
-48.982200 0.000000
-48.905700 0.000000
-48.829100 0.000000
-48.752500 0.000000
-48.675900 0.000000
-48.599300 0.000000
-48.522700 0.000000
-48.446200 0.000000
-48.369600 0.000000
-48.293000 0.000000
-48.216400 0.000000
-48.139800 0.000000
-48.063200 0.000000
-47.986700 0.000000
-47.910100 0.000000
-47.833500 0.000000
-47.756900 0.000000
-47.680300 0.000000
-47.603700 0.000000
-47.527200 0.000000
-47.450600 0.000000
-47.374000 0.000000
-47.297400 0.000000
-47.220800 0.000000
-47.144200 0.000000
-47.067600 0.000000
-46.991100 0.000000
-46.914500 0.000000
-46.837900 0.000000
-46.761300 0.000000
-46.684700 0.000000
-46.608100 0.000000
-46.531600 0.000000
-46.455000 0.000000
-46.378400 0.000000
-46.301800 0.000000
-46.225200 0.000000
-46.148600 0.000000
-46.072100 0.000000
-45.995500 0.000000
-45.918900 0.000000
-45.842300 0.000000
-45.765700 0.000000
-45.689100 0.000000
-45.612600 0.000000
-45.536000 0.000000
-45.459400 0.000000
-45.382800 0.000000
-45.306200 0.000000
-45.229600 0.000000
-45.153100 0.000000
-45.076500 0.000000
-44.999900 0.000000
-44.923300 0.000000
-44.846700 0.000000
-44.770100 0.000000
-44.693600 0.000000
-44.617000 0.000000
-44.540400 0.000000
-44.463800 0.000000
-44.387200 0.000000
-44.310600 0.000000
-44.234000 0.000000
-44.157500 0.000000
-44.080900 0.000000
-44.004300 0.000000
-43.927700 0.000000
-43.851100 0.000000
-43.774500 0.000000
-43.698000 0.000000
-43.621400 0.000000
-43.544800 0.000000
-43.468200 0.000000
-43.391600 0.000000
-43.315000 0.000000
-43.238500 0.000000
-43.161900 0.000000
-43.085300 0.000000
-43.008700 0.000000
-42.932100 0.000000
-42.855500 0.000000
-42.779000 0.000000
-42.702400 0.000000
-42.625800 0.000000
-42.549200 0.000000
-42.472600 0.000000
-42.396000 0.000000
-42.319500 0.000000
-42.242900 0.000000
-42.166300 0.000000
-42.089700 0.000000
-42.013100 0.000000
-41.936500 0.000000
-41.859900 0.000000
-41.783400 0.000000
-41.706800 0.000000
-41.630200 0.000000
-41.553600 0.000000
-41.477000 0.000000
-41.400400 0.000000
-41.323900 0.000000
-41.247300 0.000000
-41.170700 0.000000
-41.094100 0.000000
-41.017500 0.000000
-40.940900 0.000000
-40.864400 0.000000
-40.787800 0.000000
-40.711200 0.000000
-40.634600 0.000000
-40.558000 0.000000
-40.481400 0.000000
-40.404900 0.000000
-40.328300 0.000000
-40.251700 0.000000
-40.175100 0.000000
-40.098500 0.000000
-40.021900 0.000000
-39.945400 0.000000
-39.868800 0.000000
-39.792200 0.000000
-39.715600 0.000000
-39.639000 0.000000
-39.562400 0.000000
-39.485900 0.000000
-39.409300 0.000000
-39.332700 0.000000
-39.256100 0.000000
-39.179500 0.000000
-39.102900 0.000000
-39.026300 0.000000
-38.949800 0.000000
-38.873200 0.000000
-38.796600 0.000000
-38.720000 0.000000
-38.643400 0.000000
-38.566800 0.000000
-38.490300 0.000000
-38.413700 0.000000
-38.337100 0.000000
-38.260500 0.000000
-38.183900 0.000000
-38.107300 0.000000
-38.030800 0.000000
-37.954200 0.000000
-37.877600 0.000000
-37.801000 0.000000
-37.724400 0.000000
-37.647800 0.000000
-37.571300 0.000000
-37.494700 0.000000
-37.418100 0.000000
-37.341500 0.000000
-37.264900 0.000000
-37.188300 0.000000
-37.111800 0.000000
-37.035200 0.000000
-36.958600 0.000000
-36.882000 0.000000
-36.805400 0.000000
-36.728800 0.000000
-36.652300 0.000000
-36.575700 0.000000
-36.499100 0.000000
-36.422500 0.000000
-36.345900 0.000000
-36.269300 0.000000
-36.192700 0.000000
-36.116200 0.000000
-36.039600 0.000000
-35.963000 0.000000
-35.886400 0.000000
-35.809800 0.000000
-35.733200 0.000000
-35.656700 0.000000
-35.580100 0.000000
-35.503500 0.000000
-35.426900 0.000000
-35.350300 0.000000
-35.273700 0.000000
-35.197200 0.000000
-35.120600 0.000000
-35.044000 0.000000
-34.967400 0.000000
-34.890800 0.000000
-34.814200 0.000000
-34.737700 0.000000
-34.661100 0.000000
-34.584500 0.000000
-34.507900 0.000000
-34.431300 0.000000
-34.354700 0.000000
-34.278200 0.000000
-34.201600 0.000000
-34.125000 0.000000
-34.048400 0.000000
-33.971800 0.000000
-33.895200 0.000000
-33.818700 0.000000
-33.742100 0.000000
-33.665500 0.000000
-33.588900 0.000000
-33.512300 0.000000
-33.435700 0.000000
-33.359100 0.000000
-33.282600 0.000000
-33.206000 0.000000
-33.129400 0.000000
-33.052800 0.000000
-32.976200 0.000000
-32.899600 0.000000
-32.823100 0.000000
-32.746500 0.000000
-32.669900 0.000000
-32.593300 0.000000
-32.516700 0.000000
-32.440100 0.000000
-32.363600 0.000000
-32.287000 0.000000
-32.210400 0.000000
-32.133800 0.000000
-32.057200 0.000000
-31.980600 0.000000
-31.904100 0.000000
-31.827500 0.000000
-31.750900 0.000000
-31.674300 0.000000
-31.597700 0.000000
-31.521100 0.000000
-31.444600 0.000000
-31.368000 0.000000
-31.291400 0.000000
-31.214800 0.000000
-31.138200 0.000000
-31.061600 0.000000
-30.985100 0.000000
-30.908500 0.000000
-30.831900 0.000000
-30.755300 0.000000
-30.678700 0.000000
-30.602100 0.000000
-30.525500 0.000000
-30.449000 0.000000
-30.372400 0.000000
-30.295800 0.000000
-30.219200 0.000000
-30.142600 0.000000
-30.066000 0.000000
-29.989500 0.000000
-29.912900 0.000000
-29.836300 0.000000
-29.759700 0.000000
-29.683100 0.000000
-29.606500 0.000000
-29.530000 0.000000
-29.453400 0.000000
-29.376800 0.000000
-29.300200 0.000000
-29.223600 0.000000
-29.147000 0.000000
-29.070500 0.000000
-28.993900 0.000000
-28.917300 0.000000
-28.840700 0.000000
-28.764100 0.000000
-28.687500 0.000000
-28.611000 0.000000
-28.534400 0.000000
-28.457800 0.000000
-28.381200 0.000000
-28.304600 0.000000
-28.228000 0.000000
-28.151500 0.000000
-28.074900 0.000000
-27.998300 0.000000
-27.921700 0.000000
-27.845100 0.000000
-27.768500 0.000000
-27.691900 0.000000
-27.615400 0.000000
-27.538800 0.000000
-27.462200 0.000000
-27.385600 0.000000
-27.309000 0.000000
-27.232400 0.000000
-27.155900 0.000000
-27.079300 0.000000
-27.002700 0.000000
-26.926100 0.000000
-26.849500 0.000000
-26.772900 0.000000
-26.696400 0.000000
-26.619800 0.000000
-26.543200 0.000000
-26.466600 0.000000
-26.390000 0.000000
-26.313400 0.000000
-26.236900 0.000000
-26.160300 0.000000
-26.083700 0.000000
-26.007100 0.000000
-25.930500 0.000000
-25.853900 0.000000
-25.777400 0.000000
-25.700800 0.000000
-25.624200 0.000000
-25.547600 0.000000
-25.471000 0.000000
-25.394400 0.000000
-25.317900 0.000000
-25.241300 0.000000
-25.164700 0.000000
-25.088100 0.000000
-25.011500 0.000000
-24.934900 0.000000
-24.858300 0.000000
-24.781800 0.000000
-24.705200 0.000000
-24.628600 0.000000
-24.552000 0.000000
-24.475400 0.000000
-24.398800 0.000000
-24.322300 0.000000
-24.245700 0.000000
-24.169100 0.000000
-24.092500 0.000000
-24.015900 0.000000
-23.939300 0.000000
-23.862800 0.000000
-23.786200 0.000000
-23.709600 0.000000
-23.633000 0.000000
-23.556400 0.000000
-23.479800 0.000000
-23.403300 0.000000
-23.326700 0.000000
-23.250100 0.000000
-23.173500 0.000000
-23.096900 0.000000
-23.020300 0.000000
-22.943800 0.000000
-22.867200 0.000000
-22.790600 0.000000
-22.714000 0.000000
-22.637400 0.000000
-22.560800 0.000000
-22.484300 0.000000
-22.407700 0.000000
-22.331100 0.000000
-22.254500 0.000000
-22.177900 0.000000
-22.101300 0.000000
-22.024700 0.000000
-21.948200 0.000000
-21.871600 0.000000
-21.795000 0.000000
-21.718400 0.000000
-21.641800 0.000000
-21.565200 0.000000
-21.488700 0.000000
-21.412100 0.000000
-21.335500 0.000000
-21.258900 0.000000
-21.182300 0.000000
-21.105700 0.000000
-21.029200 0.000000
-20.952600 0.000000
-20.876000 0.000000
-20.799400 0.000000
-20.722800 0.000000
-20.646200 0.000000
-20.569700 0.000000
-20.493100 0.000000
-20.416500 0.000000
-20.339900 0.000000
-20.263300 0.000000
-20.186700 0.000000
-20.110200 0.000000
-20.033600 0.000000
-19.957000 0.000000
-19.880400 0.000000
-19.803800 0.000000
-19.727200 0.000000
-19.650700 0.000000
-19.574100 0.000000
-19.497500 0.000000
-19.420900 0.000000
-19.344300 0.000000
-19.267700 0.000000
-19.191100 0.000000
-19.114600 0.000000
-19.038000 0.000000
-18.961400 0.000000
-18.884800 0.000000
-18.808200 0.000000
-18.731600 0.000000
-18.655100 0.000000
-18.578500 0.000000
-18.501900 0.000000
-18.425300 0.000000
-18.348700 0.000000
-18.272100 0.000000
-18.195600 0.000000
-18.119000 0.000000
-18.042400 0.000000
-17.965800 0.000000
-17.889200 0.000000
-17.812600 0.000000
-17.736100 0.000000
-17.659500 0.000000
-17.582900 0.139200
-17.506300 0.283900
-17.429700 0.385900
-17.353100 0.397300
-17.276600 0.416900
-17.200000 0.434900
-17.123400 0.455300
-17.046800 0.478900
-16.970200 0.506700
-16.893600 0.537700
-16.817100 0.577500
-16.740500 0.622600
-16.663900 0.682900
-16.587300 0.761900
-16.510700 0.862800
-16.434100 1.131200
-16.357500 1.157300
-16.281000 1.318100
-16.204400 1.748500
-16.127800 0.012400
-16.051200 6.182200
-15.974600 3.421400
-15.898000 3.315900
-15.821500 1.474900
-15.744900 0.784900
-15.668300 0.000000
-15.591700 0.000000
-15.515100 0.000000
-15.438500 0.000000
-15.362000 0.000000
-15.285400 0.000000
-15.208800 0.000000
-15.132200 0.000000
-15.055600 0.000000
-14.979000 0.000000
-14.902500 0.000000
-14.825900 0.000000
-14.749300 0.000000
-14.672700 0.000000
-14.596100 0.000000
-14.519500 0.000000
-14.443000 0.000000
-14.366400 0.000000
-14.289800 0.000000
-14.213200 0.000000
-14.136600 0.000000
-14.060000 0.000000
-13.983500 0.000000
-13.906900 0.000000
-13.830300 0.000000
-13.753700 0.000000
-13.677100 0.000000
-13.600500 0.000000
-13.523900 0.000000
-13.447400 0.000000
-13.370800 0.000000
-13.294200 0.000000
-13.217600 0.000000
-13.141000 0.000000
-13.064400 0.000000
-12.987900 0.000000
-12.911300 0.000000
-12.834700 0.000000
-12.758100 0.000000
-12.681500 0.000000
-12.604900 0.000000
-12.528400 0.000000
-12.451800 0.000000
-12.375200 0.000000
-12.298600 0.000000
-12.222000 0.000000
-12.145400 0.000000
-12.068900 0.000000
-11.992300 0.000000
-11.915700 0.000000
-11.839100 0.000000
-11.762500 0.000000
-11.685900 0.000000
-11.609400 0.000000
-11.532800 0.000000
-11.456200 0.000000
-11.379600 0.000000
-11.303000 0.000000
-11.226400 0.000000
-11.149900 0.000000
-11.073300 0.000000
-10.996700 0.000000
-10.920100 0.000000
-10.843500 0.000000
-10.766900 0.000000
-10.690300 0.000000
-10.613800 0.000000
-10.537200 0.000000
-10.460600 0.000000
-10.384000 0.000000
-10.307400 0.000000
-10.230800 0.000000
-10.154300 0.000000
-10.077700 0.000000
-10.001100 0.000000
-9.924500 0.000000
-9.847900 0.000000
-9.771300 0.000000
-9.694800 0.000000
-9.618200 0.000000
-9.541600 0.000000
-9.465000 0.000000
-9.388400 0.000000
-9.311800 0.000000
-9.235300 0.000000
-9.158700 0.000000
-9.082100 0.000000
-9.005500 0.000000
-8.928900 0.000000
-8.852300 0.000000
-8.775800 0.000000
-8.699200 0.000000
-8.622600 0.000000
-8.546000 0.000000
-8.469400 0.000000
-8.392800 0.000000
-8.316300 0.000000
-8.239700 0.000000
-8.163100 0.000000
-8.086500 0.000000
-8.009900 0.000000
-7.933300 0.000000
-7.856700 0.000000
-7.780200 0.000000
-7.703600 0.000000
-7.627000 0.000000
-7.550400 0.000000
-7.473800 0.000000
-7.397200 0.000000
-7.320700 0.000000
-7.244100 0.000000
-7.167500 0.000000
-7.090900 0.000000
-7.014300 0.000000
-6.937700 0.000000
-6.861200 0.000000
-6.784600 0.000000
-6.708000 0.000000
-6.631400 0.000000
-6.554800 0.000000
-6.478200 0.000000
-6.401700 0.000000
-6.325100 0.000000
-6.248500 0.000000
-6.171900 0.000000
-6.095300 0.000000
-6.018700 0.000000
-5.942200 0.000000
-5.865600 0.000000
-5.789000 0.000000
-5.712400 0.000000
-5.635800 0.000000
-5.559200 0.089800
-5.482600 0.171000
-5.406100 0.402400
-5.329500 0.679500
-5.252900 0.703600
-5.176300 0.723200
-5.099700 0.786500
-5.023100 0.952900
-4.946600 1.047400
-4.870000 1.032400
-4.793400 1.095100
-4.716800 1.306100
-4.640200 1.366100
-4.563600 1.436800
-4.487100 0.624100
-4.410500 0.452600
-4.333900 0.267600
-4.257300 0.444600
-4.180700 1.423500
-4.104100 2.645800
-4.027600 2.653800
-3.951000 1.610000
-3.874400 1.343700
-3.797800 1.305500
-3.721200 0.849500
-3.644600 1.351000
-3.568100 2.114900
-3.491500 1.974000
-3.414900 1.756600
-3.338300 1.740200
-3.261700 1.590700
-3.185100 1.242900
-3.108600 1.183900
-3.032000 1.767000
-2.955400 2.625600
-2.878800 2.097600
-2.802200 1.605100
-2.725600 1.152700
-2.649000 0.930700
-2.572500 1.010900
-2.495900 0.677000
-2.419300 0.478200
-2.342700 0.693800
-2.266100 1.122700
-2.189500 1.911300
-2.113000 1.674900
-2.036400 1.966100
-1.959800 2.010300
-1.883200 1.847400
-1.806600 1.833700
-1.730000 1.626800
-1.653500 1.332100
-1.576900 1.138600
-1.500300 1.004500
-1.423700 0.761300
-1.347100 0.731100
-1.270500 1.246100
-1.194000 1.488500
-1.117400 1.641000
-1.040800 1.926300
-0.964200 1.845600
-0.887600 1.746200
-0.811000 1.810500
-0.734500 1.834000
-0.657900 1.722100
-0.581300 1.699800
-0.504700 1.511100
-0.428100 1.726000
-0.351500 3.163600
-0.275000 2.511300
-0.198400 1.506000
-0.121800 1.264900
-0.045200 1.306000
0.031400 1.450200
0.108000 2.111900
0.184600 2.198400
0.261100 2.023200
0.337700 1.714500
0.414300 1.559500
0.490900 1.549100
0.567500 1.320000
0.644100 1.212500
0.720600 0.922400
0.797200 0.532100
0.873800 0.174500
0.950400 0.011600
1.027000 0.000000
1.103600 0.000000
1.180100 0.000000
1.256700 0.000000
1.333300 0.000000
1.409900 0.000000
1.486500 0.000000
1.563100 0.000000
1.639600 0.000000
1.716200 0.000000
1.792800 0.000000
1.869400 0.000000
1.946000 0.000000
2.022600 0.081500
2.099100 0.167800
2.175700 0.318300
2.252300 0.846700
2.328900 1.789900
2.405500 2.657900
2.482100 2.344600
2.558600 1.922300
2.635200 1.063400
2.711800 0.333300
2.788400 0.274900
2.865000 0.299900
2.941600 0.378500
3.018200 0.831900
3.094700 1.178700
3.171300 1.926000
3.247900 2.327000
3.324500 2.621600
3.401100 0.681400
3.477700 0.649500
3.554200 0.676200
3.630800 0.694900
3.707400 1.262900
3.784000 0.342600
3.860600 0.000000
3.937200 0.000000
4.013700 0.000000
4.090300 0.000000
4.166900 0.000000
4.243500 0.000000
4.320100 0.000000
4.396700 0.000000
4.473200 0.000000
4.549800 0.000000
4.626400 0.000000
4.703000 0.000000
4.779600 0.000000
4.856200 0.000000
4.932700 0.000000
5.009300 0.000000
5.085900 0.000000
5.162500 0.000000
5.239100 0.000000
5.315700 0.000000
5.392200 0.000000
5.468800 0.000000
5.545400 0.000000
5.622000 0.000000
5.698600 0.000000
5.775200 0.000000
5.851800 0.000000
5.928300 0.000000
6.004900 0.000000
6.081500 0.000000
6.158100 0.000000
6.234700 0.000000
6.311300 0.000000
6.387800 0.000000
6.464400 0.000000
6.541000 0.000000
6.617600 0.000000
6.694200 0.000000
6.770800 0.000000
6.847300 0.000000
6.923900 0.000000
7.000500 0.000000
7.077100 0.000000
7.153700 0.000000
7.230300 0.000000
7.306800 0.000000
7.383400 0.000000
7.460000 0.003300
7.536600 0.014600
7.613200 0.019700
7.689800 0.022700
7.766300 0.027600
7.842900 0.032600
7.919500 0.036300
7.996100 0.039400
8.072700 0.042800
8.149300 0.046600
8.225800 0.050500
8.302400 0.054400
8.379000 0.058300
8.455600 0.062300
8.532200 0.066100
8.608800 0.070000
8.685400 0.074000
8.761900 0.078300
8.838500 0.082800
8.915100 0.087400
8.991700 0.092100
9.068300 0.096800
9.144900 0.101700
9.221400 0.106900
9.298000 0.113200
9.374600 0.125800
9.451200 0.126800
9.527800 0.130900
9.604400 0.134700
9.680900 0.138400
9.757500 0.141800
9.834100 0.151900
9.910700 0.164600
9.987300 0.172400
10.063900 0.180600
10.140400 0.190200
10.217000 0.200100
10.293600 0.210700
10.370200 0.222100
10.446800 0.234000
10.523400 0.246700
10.599900 0.262100
10.676500 0.279300
10.753100 0.296200
10.829700 0.317700
10.906300 0.345800
10.982900 0.364800
11.059400 0.376400
11.136000 0.395900
11.212600 0.414100
11.289200 0.434600
11.365800 0.454500
11.442400 0.495000
11.519000 0.502000
11.595500 0.509800
11.672100 0.531500
11.748700 0.536200
11.825300 0.535500
11.901900 0.543400
11.978500 0.570600
12.055000 0.556700
12.131600 0.520900
12.208200 0.507700
12.284800 0.506900
12.361400 0.513200
12.438000 0.512500
12.514500 0.527300
12.591100 0.532200
12.667700 0.556200
12.744300 0.597800
12.820900 0.621100
12.897500 0.682800
12.974000 0.623000
13.050600 0.585200
13.127200 0.564300
13.203800 0.511600
13.280400 0.490900
13.357000 0.491600
13.433500 0.485200
13.510100 0.466000
13.586700 0.426100
13.663300 0.427300
13.739900 0.414500
13.816500 0.407300
13.893000 0.369100
13.969600 0.389600
14.046200 0.359100
14.122800 0.310700
14.199400 0.288500
14.276000 0.263400
14.352600 0.236800
14.429100 0.315000
14.505700 0.505900
14.582300 0.886300
14.658900 1.125500
14.735500 1.325900
14.812100 1.064400
14.888600 0.788500
14.965200 0.668100
15.041800 0.585600
15.118400 0.715400
15.195000 1.011000
15.271600 1.450100
15.348100 1.992600
15.424700 2.119900
15.501300 1.643500
15.577900 1.205700
15.654500 1.057000
15.731100 0.869300
15.807600 0.700700
15.884200 0.612100
15.960800 0.549000
16.037400 0.516700
16.114000 0.470700
16.190600 0.477800
16.267100 0.470300
16.343700 0.459900
16.420300 0.489100
16.496900 0.566100
16.573500 0.546100
16.650100 0.556100
16.726600 0.561300
16.803200 0.573800
16.879800 0.580300
16.956400 0.589800
17.033000 0.604600
17.109600 0.621500
17.186200 0.660900
17.262700 0.741800
17.339300 0.739700
17.415900 0.725200
17.492500 0.663800
17.569100 0.603000
17.645700 0.659000
17.722200 0.684800
17.798800 0.608900
17.875400 0.568700
17.952000 0.569200
18.028600 0.579000
18.105200 0.586200
18.181700 0.557000
18.258300 0.576200
18.334900 0.557400
18.411500 0.536700
18.488100 0.604300
18.564700 0.622000
18.641200 0.678200
18.717800 0.633800
18.794400 0.591600
18.871000 0.569700
18.947600 0.559200
19.024200 0.551900
19.100700 0.566300
19.177300 0.524500
19.253900 0.508700
19.330500 0.498600
19.407100 0.496700
19.483700 0.507400
19.560200 0.520600
19.636800 0.521800
19.713400 0.542500
19.790000 0.613600
19.866600 0.666400
19.943200 0.725400
20.019800 0.777400
20.096300 0.884500
20.172900 0.846900
20.249500 0.857000
20.326100 0.868700
20.402700 0.791600
20.479300 0.712400
20.555800 0.653500
20.632400 0.600900
20.709000 0.551900
20.785600 0.538900
20.862200 0.575300
20.938800 0.497200
21.015300 0.492800
21.091900 0.497100
21.168500 0.516800
21.245100 0.428300
21.321700 0.330000
21.398300 0.303600
21.474800 0.271900
21.551400 0.272400
21.628000 0.309700
21.704600 0.409500
21.781200 0.491400
21.857800 0.557700
21.934300 0.653700
22.010900 0.674300
22.087500 0.724000
22.164100 0.760000
22.240700 0.754600
22.317300 0.752800
22.393800 0.788100
22.470400 0.771600
22.547000 0.731800
22.623600 0.659400
22.700200 0.609500
22.776800 0.537500
22.853400 0.529600
22.929900 0.489000
23.006500 0.430800
23.083100 0.395200
23.159700 0.406800
23.236300 0.357000
23.312900 0.260700
23.389400 0.180000
23.466000 0.140900
23.542600 0.141200
23.619200 0.167300
23.695800 0.217000
23.772400 0.237200
23.848900 0.253300
23.925500 0.288700
24.002100 0.347000
24.078700 0.419600
24.155300 0.422700
24.231900 0.459300
24.308400 0.493500
24.385000 0.532800
24.461600 0.579000
24.538200 0.612400
24.614800 0.676200
24.691400 0.671400
24.767900 0.660000
24.844500 0.614000
24.921100 0.594500
24.997700 0.585500
25.074300 0.564900
25.150900 0.575600
25.227400 0.600700
25.304000 0.643300
25.380600 0.685500
25.457200 0.646800
25.533800 0.610800
25.610400 0.600200
25.687000 0.580800
25.763500 0.564800
25.840100 0.566200
25.916700 0.577700
25.993300 0.590300
26.069900 0.611800
26.146500 0.636100
26.223000 0.638000
26.299600 0.658700
26.376200 0.658800
26.452800 0.673100
26.529400 0.704000
26.606000 0.684900
26.682500 0.688100
26.759100 0.701900
26.835700 0.655100
26.912300 0.600000
26.988900 0.549300
27.065500 0.526900
27.142000 0.554300
27.218600 0.582000
27.295200 0.609800
27.371800 0.658300
27.448400 0.669500
27.525000 0.737000
27.601500 0.737900
27.678100 0.740300
27.754700 0.763300
27.831300 0.769300
27.907900 0.773100
27.984500 0.723600
28.061100 0.723000
28.137600 0.704700
28.214200 0.669800
28.290800 0.647500
28.367400 0.596000
28.444000 0.552500
28.520600 0.545200
28.597100 0.557500
28.673700 0.551400
28.750300 0.529800
28.826900 0.522900
28.903500 0.509800
28.980100 0.513500
29.056600 0.513400
29.133200 0.520300
29.209800 0.529700
29.286400 0.539700
29.363000 0.556900
29.439600 0.566000
29.516100 0.577100
29.592700 0.593400
29.669300 0.598800
29.745900 0.590100
29.822500 0.557400
29.899100 0.539800
29.975600 0.538600
30.052200 0.532400
30.128800 0.545200
30.205400 0.556000
30.282000 0.569200
30.358600 0.555300
30.435100 0.578500
30.511700 0.578300
30.588300 0.599800
30.664900 0.585500
30.741500 0.600600
30.818100 0.603700
30.894700 0.589000
30.971200 0.613600
31.047800 0.696500
31.124400 0.847000
31.201000 0.823500
31.277600 0.765400
31.354200 0.742200
31.430700 0.758200
31.507300 0.819200
31.583900 0.842500
31.660500 0.819300
31.737100 0.811000
31.813700 0.860500
31.890200 0.912300
31.966800 0.939100
32.043400 0.910100
32.120000 0.905200
32.196600 0.906600
32.273200 0.913700
32.349700 0.961100
32.426300 0.979700
32.502900 0.979500
32.579500 1.058000
32.656100 1.117200
32.732700 1.178600
32.809200 1.165700
32.885800 1.113000
32.962400 1.134500
33.039000 1.125000
33.115600 1.118500
33.192200 1.115500
33.268700 1.087200
33.345300 1.011700
33.421900 0.955700
33.498500 0.919100
33.575100 0.879600
33.651700 0.846800
33.728300 0.848100
33.804800 0.802700
33.881400 0.759000
33.958000 0.753300
34.034600 0.761400
34.111200 0.833500
34.187800 0.835500
34.264300 0.831200
34.340900 0.841200
34.417500 0.879200
34.494100 0.931000
34.570700 0.885300
34.647300 0.907200
34.723800 0.959100
34.800400 0.979800
34.877000 0.945600
34.953600 0.916100
35.030200 0.896500
35.106800 0.915900
35.183300 0.852100
35.259900 0.829300
35.336500 0.755900
35.413100 0.718500
35.489700 0.738000
35.566300 0.734900
35.642800 0.759200
35.719400 0.796700
35.796000 0.875100
35.872600 0.836000
35.949200 0.844700
36.025800 0.838500
36.102300 0.876200
36.178900 0.929900
36.255500 0.930000
36.332100 0.942500
36.408700 0.899000
36.485300 0.869000
36.561900 0.864100
36.638400 0.890100
36.715000 0.940500
36.791600 1.041000
36.868200 0.999700
36.944800 0.986200
37.021400 1.002200
37.097900 0.993200
37.174500 0.922000
37.251100 0.871200
37.327700 0.848800
37.404300 0.836500
37.480900 0.760900
37.557400 0.708200
37.634000 0.698700
37.710600 0.682000
37.787200 0.689900
37.863800 0.691300
37.940400 0.730000
38.016900 0.845500
38.093500 0.933400
38.170100 0.904200
38.246700 0.819300
38.323300 0.784800
38.399900 0.772600
38.476400 0.775400
38.553000 0.761300
38.629600 0.723300
38.706200 0.721300
38.782800 0.720500
38.859400 0.780800
38.935900 0.817500
39.012500 0.817400
39.089100 0.830200
39.165700 0.864500
39.242300 0.921400
39.318900 0.948100
39.395500 0.870700
39.472000 0.791500
39.548600 0.768900
39.625200 0.694100
39.701800 0.633600
39.778400 0.604300
39.855000 0.638800
39.931500 0.651800
40.008100 0.692600
40.084700 0.779000
40.161300 0.862600
40.237900 0.911500
40.314500 0.909100
40.391000 0.903200
40.467600 0.897700
40.544200 0.919500
40.620800 0.913000
40.697400 0.920100
40.774000 0.893900
40.850500 0.863700
40.927100 0.861000
41.003700 0.775500
41.080300 0.727100
41.156900 0.717600
41.233500 0.752700
41.310000 0.722000
41.386600 0.753700
41.463200 0.785100
41.539800 0.782100
41.616400 0.796100
41.693000 0.839000
41.769500 0.870900
41.846100 0.900900
41.922700 0.912600
41.999300 0.938700
42.075900 0.966000
42.152500 0.953300
42.229100 1.081600
42.305600 1.097900
42.382200 1.070800
42.458800 1.024300
42.535400 1.045900
42.612000 1.130800
42.688600 1.177400
42.765100 1.102200
42.841700 1.105900
42.918300 1.113300
42.994900 1.074000
43.071500 1.066600
43.148100 1.046300
43.224600 1.007000
43.301200 0.987900
43.377800 0.972900
43.454400 0.954200
43.531000 0.945100
43.607600 1.043300
43.684100 1.037200
43.760700 0.984000
43.837300 0.948200
43.913900 0.904000
43.990500 0.849300
44.067100 0.824700
44.143600 0.816000
44.220200 0.829100
44.296800 0.868700
44.373400 0.923100
44.450000 0.941500
44.526600 0.919100
44.603100 0.875700
44.679700 0.886200
44.756300 0.878900
44.832900 0.871200
44.909500 0.914200
44.986100 0.869500
45.062700 0.817600
45.139200 0.815600
45.215800 0.838100
45.292400 0.865500
45.369000 0.857900
45.445600 0.835500
45.522200 0.774400
45.598700 0.772400
45.675300 0.773400
45.751900 0.807600
45.828500 0.847000
45.905100 0.929400
45.981700 1.013900
46.058200 1.070400
46.134800 1.110200
46.211400 1.106100
46.288000 1.026200
46.364600 0.945700
46.441200 0.916600
46.517700 0.811200
46.594300 0.745700
46.670900 0.761900
46.747500 0.848900
46.824100 0.840300
46.900700 0.803300
46.977200 0.815400
47.053800 0.928200
47.130400 0.949900
47.207000 0.990400
47.283600 1.069200
47.360200 1.173800
47.436700 1.273400
47.513300 1.297700
47.589900 1.351500
47.666500 1.506300
47.743100 1.648600
47.819700 2.145600
47.896300 2.139500
47.972800 2.485800
48.049400 2.138600
48.126000 1.637500
48.202600 1.437100
48.279200 1.303800
48.355800 1.224400
48.432300 1.193300
48.508900 1.131500
48.585500 1.052800
48.662100 0.988600
48.738700 0.941600
48.815300 0.883300
48.891800 0.847900
48.968400 0.837800
49.045000 0.846900
49.121600 0.829900
49.198200 0.826500
49.274800 0.869000
49.351300 0.881100
49.427900 0.861600
49.504500 0.843100
49.581100 0.843400
49.657700 0.835500
49.734300 0.861600
49.810800 0.913900
49.887400 0.942100
49.964000 0.924100
50.040600 0.916900
50.117200 0.907400
50.193800 0.912500
50.270300 0.911700
50.346900 0.936400
50.423500 0.952400
50.500100 0.924200
50.576700 0.874100
50.653300 0.836700
50.729900 0.862100
50.806400 0.841900
50.883000 0.863900
50.959600 0.874500
51.036200 0.875300
51.112800 0.856900
51.189400 0.872300
51.265900 0.887900
51.342500 0.867600
51.419100 0.930700
51.495700 1.025100
51.572300 1.002800
51.648900 0.996800
51.725400 1.017000
51.802000 1.030400
51.878600 1.044700
51.955200 1.001000
52.031800 0.965100
52.108400 0.953800
52.184900 0.984000
52.261500 1.008300
52.338100 0.959800
52.414700 0.942400
52.491300 0.942100
52.567900 0.934500
52.644400 0.919100
52.721000 0.929700
52.797600 0.859500
52.874200 0.789800
52.950800 0.775500
53.027400 0.780000
53.103900 0.789100
53.180500 0.816600
53.257100 0.853800
53.333700 0.897100
53.410300 0.909100
53.486900 0.915000
53.563500 0.904200
53.640000 0.930000
53.716600 0.935300
53.793200 0.951400
53.869800 0.964800
53.946400 0.924300
54.023000 0.895600
54.099500 0.882600
54.176100 0.891800
54.252700 0.915900
54.329300 0.893800
54.405900 0.898900
54.482500 0.943700
54.559000 0.953100
54.635600 0.935600
54.712200 0.882900
54.788800 0.855700
54.865400 0.868800
54.942000 0.877000
55.018500 0.850700
55.095100 0.858700
55.171700 0.884000
55.248300 0.887000
55.324900 0.889600
55.401500 0.885800
55.478000 0.898800
55.554600 0.875400
55.631200 0.881300
55.707800 0.894800
55.784400 0.919900
55.861000 0.931100
55.937500 0.892000
56.014100 0.907300
56.090700 0.919500
56.167300 0.936800
56.243900 0.957700
56.320500 0.994100
56.397100 1.012800
56.473600 1.034500
56.550200 1.072700
56.626800 1.070100
56.703400 1.004200
56.780000 0.985700
56.856600 0.904600
56.933100 0.896000
57.009700 0.860500
57.086300 0.865600
57.162900 0.908600
57.239500 0.959100
57.316100 0.982100
57.392600 0.989600
57.469200 1.008200
57.545800 1.009900
57.622400 1.000600
57.699000 0.967900
57.775600 0.937300
57.852100 0.901600
57.928700 0.899200
58.005300 0.905000
58.081900 0.899200
58.158500 0.909800
58.235100 0.921900
58.311600 0.982500
58.388200 0.994700
58.464800 1.047300
58.541400 1.031300
58.618000 1.040800
58.694600 1.033800
58.771100 1.062500
58.847700 1.010400
58.924300 0.979200
59.000900 0.971300
59.077500 0.991000
59.154100 0.962400
59.230700 0.934700
59.307200 0.948900
59.383800 0.997700
59.460400 1.018700
59.537000 0.984400
59.613600 0.998300
59.690200 1.020800
59.766700 1.047900
59.843300 1.052300
59.919900 1.027700
59.996500 1.024000
60.073100 1.041400
60.149700 1.028400
60.226200 1.016700
60.302800 1.046900
60.379400 1.020600
60.456000 1.013800
60.532600 0.992000
60.609200 0.999700
60.685700 1.023100
60.762300 1.055500
60.838900 1.076700
60.915500 1.118700
60.992100 1.141000
61.068700 1.126700
61.145200 1.106400
61.221800 1.062400
61.298400 1.039600
61.375000 1.010800
61.451600 0.990700
61.528200 0.960100
61.604700 0.932700
61.681300 0.918500
61.757900 0.930000
61.834500 0.949700
61.911100 0.967300
61.987700 0.936300
62.064300 0.937500
62.140800 0.943200
62.217400 0.960000
62.294000 0.975800
62.370600 1.011600
62.447200 1.001700
62.523800 0.976100
62.600300 0.963200
62.676900 0.961000
62.753500 0.955200
62.830100 0.954200
62.906700 0.978400
62.983300 0.957100
63.059800 0.934100
63.136400 0.939100
63.213000 0.931200
63.289600 0.925400
63.366200 0.920600
63.442800 0.957300
63.519300 0.998900
63.595900 1.015700
63.672500 1.070300
63.749100 1.103300
63.825700 1.095300
63.902300 1.036200
63.978800 1.008600
64.055400 1.014600
64.132000 1.046800
64.208600 1.073200
64.285200 1.084900
64.361800 1.104400
64.438400 1.092200
64.514900 1.049800
64.591500 1.035700
64.668100 1.076500
64.744700 1.090500
64.821300 1.141400
64.897900 1.149200
64.974400 1.138900
65.051000 1.107000
65.127600 1.105900
65.204200 1.073500
65.280800 1.072500
65.357400 1.055400
65.433900 1.018400
65.510500 0.964200
65.587100 0.963100
65.663700 0.949300
65.740300 0.945600
65.816900 0.952500
65.893400 0.989400
65.970000 1.018900
66.046600 1.012300
66.123200 1.044400
66.199800 1.053700
66.276400 1.078200
66.352900 1.084700
66.429500 1.098900
66.506100 1.097600
66.582700 1.114800
66.659300 1.091500
66.735900 1.115100
66.812400 1.124200
66.889000 1.108000
66.965600 1.065300
67.042200 1.019200
67.118800 1.008900
67.195400 1.015600
67.272000 1.015300
67.348500 1.021800
67.425100 1.038300
67.501700 1.071900
67.578300 1.093200
67.654900 1.106500
67.731500 1.086400
67.808000 1.078600
67.884600 1.061200
67.961200 1.054700
68.037800 1.067800
68.114400 1.110600
68.191000 1.132800
68.267500 1.151800
68.344100 1.131900
68.420700 1.138200
68.497300 1.094600
68.573900 1.055700
68.650500 1.039400
68.727000 1.046200
68.803600 1.081400
68.880200 1.151300
68.956800 1.171100
69.033400 1.123800
69.110000 1.108900
69.186500 1.117400
69.263100 1.119700
69.339700 1.120100
69.416300 1.101900
69.492900 1.076700
69.569500 1.053600
69.646000 1.043400
69.722600 1.074400
69.799200 1.046100
69.875800 1.047300
69.952400 1.090700
70.029000 1.097600
70.105600 1.067000
70.182100 1.079800
70.258700 1.112400
70.335300 1.147700
70.411900 1.158000
70.488500 1.188500
70.565100 1.106100
70.641600 1.048300
70.718200 1.023100
70.794800 1.031100
70.871400 1.042600
70.948000 1.051000
71.024600 1.039300
71.101100 1.034300
71.177700 1.033500
71.254300 1.057500
71.330900 1.091100
71.407500 1.101000
71.484100 1.127500
71.560600 1.121500
71.637200 1.133300
71.713800 1.194800
71.790400 1.243000
71.867000 1.270300
71.943600 1.263500
72.020100 1.233800
72.096700 1.183300
72.173300 1.120600
72.249900 1.095600
72.326500 1.107100
72.403100 1.108400
72.479600 1.092600
72.556200 1.131100
72.632800 1.100700
72.709400 1.060100
72.786000 1.050800
72.862600 1.088300
72.939200 1.122700
73.015700 1.129500
73.092300 1.148900
73.168900 1.159300
73.245500 1.150900
73.322100 1.107100
73.398700 1.081400
73.475200 1.088600
73.551800 1.050900
73.628400 1.029400
73.705000 0.992500
73.781600 1.000500
73.858200 1.000500
73.934700 1.060100
74.011300 1.057200
74.087900 1.092400
74.164500 1.114400
74.241100 1.139300
74.317700 1.108800
74.394200 1.088800
74.470800 1.061200
74.547400 1.043100
74.624000 1.076800
74.700600 1.099800
74.777200 1.093100
74.853700 1.073600
74.930300 1.093800
75.006900 1.094000
75.083500 1.094800
75.160100 1.102000
75.236700 1.100900
75.313200 1.097500
75.389800 1.092400
75.466400 1.111500
75.543000 1.101200
75.619600 1.120400
75.696200 1.142000
75.772800 1.155100
75.849300 1.202200
75.925900 1.170800
76.002500 1.131100
76.079100 1.103300
76.155700 1.065300
76.232300 1.048400
76.308800 1.029200
76.385400 1.002300
76.462000 1.035300
76.538600 1.043800
76.615200 1.013900
76.691800 1.052900
76.768300 1.069100
76.844900 1.098300
76.921500 1.112700
76.998100 1.107400
77.074700 1.081800
77.151300 1.097300
77.227800 1.114500
77.304400 1.118000
77.381000 1.100900
77.457600 1.117800
77.534200 1.093100
77.610800 1.077700
77.687300 1.075300
77.763900 1.057300
77.840500 1.058800
77.917100 1.073200
77.993700 1.049600
78.070300 1.037200
78.146800 1.062000
78.223400 1.116300
78.300000 1.127900
78.376600 1.126300
78.453200 1.112100
78.529800 1.106900
78.606400 1.119300
78.682900 1.123100
78.759500 1.136500
78.836100 1.146700
78.912700 1.149900
78.989300 1.133400
79.065900 1.158200
79.142400 1.154900
79.219000 1.105800
79.295600 1.085000
79.372200 1.080000
79.448800 1.087000
79.525400 1.112400
79.601900 1.125900
79.678500 1.130000
79.755100 1.145800
79.831700 1.117900
79.908300 1.110700
79.984900 1.131700
80.061400 1.159400
80.138000 1.156800
80.214600 1.141700
80.291200 1.130600
80.367800 1.121600
80.444400 1.087700
80.520900 1.079500
80.597500 1.047700
80.674100 1.024800
80.750700 1.039700
80.827300 1.071000
80.903900 1.111800
80.980400 1.162200
81.057000 1.213900
81.133600 1.168800
81.210200 1.126500
81.286800 1.095900
81.363400 1.099000
81.440000 1.090600
81.516500 1.048900
81.593100 1.035800
81.669700 1.006700
81.746300 0.996000
81.822900 0.995800
81.899500 0.999600
81.976000 0.994000
82.052600 0.945900
82.129200 0.871300
82.205800 0.824000
82.282400 0.782000
82.359000 0.731100
82.435500 0.677100
82.512100 0.632900
82.588700 0.604100
82.665300 0.589900
82.741900 0.582000
82.818500 0.554300
82.895000 0.517800
82.971600 0.491500
83.048200 0.468400
83.124800 0.446700
83.201400 0.433600
83.278000 0.393700
83.354500 0.355800
83.431100 0.331900
83.507700 0.314000
83.584300 0.287900
83.660900 0.275100
83.737500 0.269300
83.814000 0.236200
83.890600 0.192000
83.967200 0.161100
84.043800 0.150500
84.120400 0.122100
84.197000 0.103500
84.273600 0.092500
84.350100 0.085300
84.426700 0.076900
84.503300 0.071200
84.579900 0.062700
84.656500 0.056500
84.733100 0.051600
84.809600 0.045400
84.886200 0.039800
84.962800 0.039500
85.039400 0.032100
85.116000 0.026400
85.192600 0.021100
85.269100 0.015700
85.345700 0.011200
85.422300 0.006500
85.498900 0.002700
85.575500 0.001300
85.652100 0.000600
85.728600 0.000300
85.805200 0.000100
85.881800 0.000000
85.958400 0.000000
86.035000 0.000000
86.111600 0.000000
86.188100 0.000000
86.264700 0.000000
86.341300 0.000000
86.417900 0.000000
86.494500 0.000000
86.571100 0.000000
86.647600 0.000000
86.724200 0.000000
86.800800 0.000000
86.877400 0.000000
86.954000 0.000000
87.030600 0.000000
87.107200 0.000000
87.183700 0.000000
87.260300 0.000000
87.336900 0.000000
87.413500 0.000000
87.490100 0.000000
87.566700 0.000000
87.643200 0.000000
87.719800 0.000000
87.796400 0.000000
87.873000 0.000000
87.949600 0.000000
88.026200 0.000000
88.102700 0.000000
88.179300 0.000000
88.255900 0.000000
88.332500 0.000000
88.409100 0.000000
88.485700 0.000000
88.562200 0.000000
88.638800 0.000000
88.715400 0.000000
88.792000 0.000000
88.868600 0.000000
88.945200 0.000000
89.021700 0.000000
89.098300 0.000000
89.174900 0.000000
89.251500 0.000000
89.328100 0.000000
89.404700 0.000000
89.481200 0.000000
89.557800 0.000000
89.634400 0.000000
89.711000 0.000000
89.787600 0.000000
89.864200 0.000000
89.940800 0.000000
90.017300 0.000000
90.093900 0.000000
90.170500 0.000000
90.247100 0.000000
90.323700 0.000000
90.400300 0.000000
90.476800 0.000000
90.553400 0.000000
90.630000 0.000000
90.706600 0.000000
90.783200 0.000000
90.859800 0.000000
90.936300 0.000000
91.012900 0.000000
91.089500 0.000000
91.166100 0.000000
91.242700 0.000000
91.319300 0.000000
91.395800 0.000000
91.472400 0.000000
91.549000 0.000000
91.625600 0.000000
91.702200 0.000000
91.778800 0.000000
91.855300 0.000000
91.931900 0.000000
92.008500 0.000000
92.085100 0.000000
92.161700 0.000000
92.238300 0.000000
92.314800 0.000000
92.391400 0.000000
92.468000 0.000000
92.544600 0.000000
92.621200 0.000000
92.697800 0.000000
92.774400 0.000000
92.850900 0.000000
e
