set title 'mp-1181781 - Density of States'
set xlabel 'Energy (eV)'
set ylabel 'DOS (states/eV)'
set grid
set xrange [-10:10]
set yrange [0:97.396]
set xzeroaxis lt -1
set terminal png size 800,600
set output 'mp-1181781_dos_gnuplot.png'
plot '-' using 1:2 with lines title 'DOS'
-25.060700 0.000000
-25.035200 0.000000
-25.009800 0.000000
-24.984300 0.000000
-24.958800 0.000000
-24.933300 0.000000
-24.907900 0.000000
-24.882400 0.000000
-24.856900 0.000000
-24.831400 0.000000
-24.805900 0.000000
-24.780500 0.000000
-24.755000 0.000000
-24.729500 0.000000
-24.704000 0.000000
-24.678600 0.000000
-24.653100 0.000000
-24.627600 0.000000
-24.602100 0.000000
-24.576600 0.000000
-24.551200 0.000000
-24.525700 0.000000
-24.500200 0.000000
-24.474700 0.000000
-24.449300 0.000000
-24.423800 0.000000
-24.398300 0.000000
-24.372800 0.000000
-24.347400 0.000000
-24.321900 0.000000
-24.296400 0.000000
-24.270900 0.000000
-24.245400 0.000000
-24.220000 0.000000
-24.194500 0.000000
-24.169000 0.000000
-24.143500 0.000000
-24.118100 0.000000
-24.092600 0.000000
-24.067100 0.000000
-24.041600 0.000000
-24.016200 0.000000
-23.990700 0.000000
-23.965200 0.000000
-23.939700 0.000000
-23.914200 0.000000
-23.888800 0.000000
-23.863300 0.000000
-23.837800 0.000000
-23.812300 0.000000
-23.786900 0.000000
-23.761400 0.000000
-23.735900 0.000000
-23.710400 0.000000
-23.684900 0.000000
-23.659500 0.000000
-23.634000 0.000000
-23.608500 0.000000
-23.583000 0.000000
-23.557600 0.000000
-23.532100 0.000000
-23.506600 0.000000
-23.481100 0.000000
-23.455700 0.000000
-23.430200 0.000000
-23.404700 0.000000
-23.379200 0.000000
-23.353700 0.000000
-23.328300 0.000000
-23.302800 0.000000
-23.277300 0.000000
-23.251800 0.000000
-23.226400 0.000000
-23.200900 0.000000
-23.175400 0.000000
-23.149900 0.000000
-23.124500 0.000000
-23.099000 0.000000
-23.073500 0.000000
-23.048000 0.000000
-23.022500 0.000000
-22.997100 0.000000
-22.971600 0.000000
-22.946100 0.000000
-22.920600 0.000000
-22.895200 0.000000
-22.869700 0.000000
-22.844200 0.000000
-22.818700 0.000000
-22.793200 0.000000
-22.767800 0.000000
-22.742300 6.110600
-22.716800 0.000000
-22.691300 0.000000
-22.665900 0.000000
-22.640400 0.000000
-22.614900 0.000000
-22.589400 0.000000
-22.564000 0.000000
-22.538500 0.000000
-22.513000 0.000000
-22.487500 0.000000
-22.462000 0.000000
-22.436600 0.000000
-22.411100 0.000000
-22.385600 0.000000
-22.360100 0.000000
-22.334700 0.000000
-22.309200 0.000000
-22.283700 0.000000
-22.258200 0.000000
-22.232800 0.000000
-22.207300 0.000000
-22.181800 0.000000
-22.156300 0.000000
-22.130800 0.000000
-22.105400 0.000000
-22.079900 0.000000
-22.054400 0.000000
-22.028900 0.000000
-22.003500 0.000000
-21.978000 0.000000
-21.952500 0.000000
-21.927000 0.000000
-21.901500 0.000000
-21.876100 0.000000
-21.850600 0.000000
-21.825100 0.000000
-21.799600 0.000000
-21.774200 0.000000
-21.748700 0.000000
-21.723200 0.000000
-21.697700 0.000000
-21.672300 0.000000
-21.646800 0.000000
-21.621300 0.000000
-21.595800 0.000000
-21.570300 0.000000
-21.544900 0.000000
-21.519400 0.000000
-21.493900 0.000000
-21.468400 0.000000
-21.443000 0.000000
-21.417500 56.380800
-21.392000 0.000000
-21.366500 0.000000
-21.341100 0.000000
-21.315600 0.000000
-21.290100 0.000000
-21.264600 0.000000
-21.239100 0.000000
-21.213700 0.000000
-21.188200 0.000000
-21.162700 0.000000
-21.137200 0.000000
-21.111800 0.000000
-21.086300 0.000000
-21.060800 0.000000
-21.035300 0.000000
-21.009800 0.000000
-20.984400 0.000000
-20.958900 0.000000
-20.933400 0.000000
-20.907900 0.000000
-20.882500 0.000000
-20.857000 0.000000
-20.831500 0.000000
-20.806000 0.000000
-20.780600 0.000000
-20.755100 0.000000
-20.729600 0.000000
-20.704100 0.000000
-20.678600 0.000000
-20.653200 0.000000
-20.627700 0.000000
-20.602200 0.000000
-20.576700 0.000000
-20.551300 0.000000
-20.525800 0.000000
-20.500300 0.000000
-20.474800 0.000000
-20.449400 0.000000
-20.423900 0.000000
-20.398400 0.000000
-20.372900 0.000000
-20.347400 0.000000
-20.322000 0.000000
-20.296500 0.000000
-20.271000 0.000000
-20.245500 0.000000
-20.220100 0.000000
-20.194600 0.000000
-20.169100 0.000000
-20.143600 0.000000
-20.118100 0.000000
-20.092700 0.000000
-20.067200 0.000000
-20.041700 0.000000
-20.016200 0.000000
-19.990800 0.000000
-19.965300 0.000000
-19.939800 0.000000
-19.914300 0.000000
-19.888900 0.000000
-19.863400 0.000000
-19.837900 0.000000
-19.812400 0.000000
-19.786900 0.000000
-19.761500 0.000000
-19.736000 0.000000
-19.710500 0.000000
-19.685000 0.000000
-19.659600 0.000000
-19.634100 0.000000
-19.608600 0.000000
-19.583100 0.000000
-19.557700 0.000000
-19.532200 0.000000
-19.506700 0.000000
-19.481200 0.000000
-19.455700 0.000000
-19.430300 0.000000
-19.404800 0.000000
-19.379300 0.000000
-19.353800 0.000000
-19.328400 0.000000
-19.302900 0.000000
-19.277400 0.000000
-19.251900 0.000000
-19.226400 0.000000
-19.201000 0.000000
-19.175500 0.000000
-19.150000 0.000000
-19.124500 0.000000
-19.099100 0.000000
-19.073600 0.000000
-19.048100 0.000000
-19.022600 0.000000
-18.997200 0.000000
-18.971700 0.000000
-18.946200 0.000000
-18.920700 0.000000
-18.895200 0.000000
-18.869800 0.000000
-18.844300 0.000000
-18.818800 0.000000
-18.793300 0.000000
-18.767900 0.000000
-18.742400 0.000000
-18.716900 0.000000
-18.691400 0.000000
-18.666000 0.000000
-18.640500 0.000000
-18.615000 0.000000
-18.589500 0.000000
-18.564000 0.000000
-18.538600 0.000000
-18.513100 0.000000
-18.487600 0.000000
-18.462100 0.000000
-18.436700 0.000000
-18.411200 0.000000
-18.385700 0.000000
-18.360200 0.000000
-18.334700 0.000000
-18.309300 0.000000
-18.283800 0.000000
-18.258300 0.000000
-18.232800 0.000000
-18.207400 0.000000
-18.181900 0.000000
-18.156400 0.000000
-18.130900 0.000000
-18.105500 0.000000
-18.080000 0.000000
-18.054500 0.000000
-18.029000 0.000000
-18.003500 0.000000
-17.978100 0.000000
-17.952600 0.000000
-17.927100 0.000000
-17.901600 0.000000
-17.876200 0.000000
-17.850700 0.000000
-17.825200 0.000000
-17.799700 0.000000
-17.774300 0.000000
-17.748800 0.000000
-17.723300 0.000000
-17.697800 0.000000
-17.672300 0.000000
-17.646900 0.000000
-17.621400 0.000000
-17.595900 0.000000
-17.570400 0.000000
-17.545000 0.000000
-17.519500 0.000000
-17.494000 0.000000
-17.468500 0.000000
-17.443000 0.000000
-17.417600 0.000000
-17.392100 0.000000
-17.366600 0.000000
-17.341100 0.000000
-17.315700 0.000000
-17.290200 0.000000
-17.264700 0.000000
-17.239200 0.000000
-17.213800 0.000000
-17.188300 0.000000
-17.162800 0.000000
-17.137300 0.000000
-17.111800 0.000000
-17.086400 0.000000
-17.060900 0.000000
-17.035400 0.000000
-17.009900 0.000000
-16.984500 0.000000
-16.959000 0.000000
-16.933500 0.000000
-16.908000 0.000000
-16.882600 0.000000
-16.857100 0.000000
-16.831600 0.000000
-16.806100 0.000000
-16.780600 0.000000
-16.755200 0.000000
-16.729700 0.000000
-16.704200 0.000000
-16.678700 0.000000
-16.653300 0.000000
-16.627800 0.000000
-16.602300 0.000000
-16.576800 0.000000
-16.551300 0.000000
-16.525900 0.000000
-16.500400 0.000000
-16.474900 0.000000
-16.449400 0.000000
-16.424000 0.000000
-16.398500 0.000000
-16.373000 0.000000
-16.347500 0.000000
-16.322100 0.000000
-16.296600 0.000000
-16.271100 0.000000
-16.245600 0.000000
-16.220100 0.000000
-16.194700 0.000000
-16.169200 0.000000
-16.143700 0.000000
-16.118200 0.000000
-16.092800 0.000000
-16.067300 0.000000
-16.041800 0.000000
-16.016300 0.000000
-15.990900 0.000000
-15.965400 0.000000
-15.939900 0.000000
-15.914400 0.000000
-15.888900 0.000000
-15.863500 0.000000
-15.838000 0.000000
-15.812500 0.000000
-15.787000 0.000000
-15.761600 0.000000
-15.736100 0.000000
-15.710600 0.000000
-15.685100 0.000000
-15.659600 0.000000
-15.634200 0.000000
-15.608700 0.000000
-15.583200 0.000000
-15.557700 0.000000
-15.532300 0.000000
-15.506800 0.000000
-15.481300 0.000000
-15.455800 0.000000
-15.430400 0.000000
-15.404900 0.000000
-15.379400 0.000000
-15.353900 0.000000
-15.328400 0.000000
-15.303000 0.000000
-15.277500 0.000000
-15.252000 0.000000
-15.226500 0.000000
-15.201100 0.000000
-15.175600 0.000000
-15.150100 0.000000
-15.124600 0.000000
-15.099200 0.000000
-15.073700 0.000000
-15.048200 0.000000
-15.022700 0.000000
-14.997200 0.000000
-14.971800 0.000000
-14.946300 0.000000
-14.920800 0.000000
-14.895300 0.000000
-14.869900 0.000000
-14.844400 0.000000
-14.818900 0.000000
-14.793400 0.000000
-14.767900 0.000000
-14.742500 0.000000
-14.717000 0.000000
-14.691500 0.000000
-14.666000 0.000000
-14.640600 0.000000
-14.615100 0.000000
-14.589600 0.000000
-14.564100 0.000000
-14.538700 0.000000
-14.513200 0.000000
-14.487700 0.000000
-14.462200 0.000000
-14.436700 0.000000
-14.411300 0.000000
-14.385800 0.000000
-14.360300 0.000000
-14.334800 0.000000
-14.309400 0.000000
-14.283900 0.000000
-14.258400 0.000000
-14.232900 0.000000
-14.207400 0.000000
-14.182000 0.000000
-14.156500 0.000000
-14.131000 0.000000
-14.105500 0.000000
-14.080100 0.000000
-14.054600 0.000000
-14.029100 0.000000
-14.003600 0.000000
-13.978200 0.000000
-13.952700 0.000000
-13.927200 0.000000
-13.901700 0.000000
-13.876200 0.000000
-13.850800 0.000000
-13.825300 0.000000
-13.799800 0.000000
-13.774300 0.000000
-13.748900 0.000000
-13.723400 0.000000
-13.697900 0.000000
-13.672400 0.000000
-13.647000 0.000000
-13.621500 0.000000
-13.596000 0.000000
-13.570500 0.000000
-13.545000 0.000000
-13.519600 0.000000
-13.494100 0.000000
-13.468600 0.000000
-13.443100 0.000000
-13.417700 0.000000
-13.392200 0.000000
-13.366700 0.000000
-13.341200 0.000000
-13.315700 0.000000
-13.290300 0.000000
-13.264800 0.000000
-13.239300 0.000000
-13.213800 0.000000
-13.188400 0.000000
-13.162900 0.000000
-13.137400 0.000000
-13.111900 0.000000
-13.086500 0.000000
-13.061000 0.000000
-13.035500 0.000000
-13.010000 0.000000
-12.984500 0.000000
-12.959100 0.000000
-12.933600 0.000000
-12.908100 0.000000
-12.882600 0.000000
-12.857200 0.000000
-12.831700 0.000000
-12.806200 0.000000
-12.780700 0.000000
-12.755300 0.000000
-12.729800 0.000000
-12.704300 0.000000
-12.678800 0.000000
-12.653300 0.000000
-12.627900 0.000000
-12.602400 0.000000
-12.576900 0.000000
-12.551400 0.000000
-12.526000 0.000000
-12.500500 0.000000
-12.475000 0.000000
-12.449500 0.000000
-12.424000 0.000000
-12.398600 0.000000
-12.373100 0.000000
-12.347600 0.000000
-12.322100 0.000000
-12.296700 0.000000
-12.271200 0.000000
-12.245700 0.000000
-12.220200 0.000000
-12.194800 0.000000
-12.169300 0.000000
-12.143800 0.000000
-12.118300 0.000000
-12.092800 0.000000
-12.067400 0.000000
-12.041900 0.000000
-12.016400 0.000000
-11.990900 0.000000
-11.965500 0.000000
-11.940000 0.000000
-11.914500 0.000000
-11.889000 0.000000
-11.863600 0.000000
-11.838100 0.000000
-11.812600 0.000000
-11.787100 0.000000
-11.761600 0.000000
-11.736200 0.000000
-11.710700 0.000000
-11.685200 0.000000
-11.659700 0.000000
-11.634300 0.000000
-11.608800 0.000000
-11.583300 0.000000
-11.557800 0.000000
-11.532300 0.000000
-11.506900 0.000000
-11.481400 0.000000
-11.455900 0.000000
-11.430400 0.000000
-11.405000 0.000000
-11.379500 0.000000
-11.354000 0.000000
-11.328500 0.000000
-11.303100 0.000000
-11.277600 0.000000
-11.252100 0.000000
-11.226600 0.000000
-11.201100 0.000000
-11.175700 0.000000
-11.150200 0.000000
-11.124700 0.000000
-11.099200 0.000000
-11.073800 0.000000
-11.048300 0.000000
-11.022800 0.000000
-10.997300 0.000000
-10.971900 0.000000
-10.946400 0.000000
-10.920900 0.000000
-10.895400 0.000000
-10.869900 0.000000
-10.844500 1.878900
-10.819000 23.096000
-10.793500 13.813000
-10.768000 0.000000
-10.742600 0.000000
-10.717100 0.000000
-10.691600 0.000000
-10.666100 0.000000
-10.640600 0.000000
-10.615200 0.000000
-10.589700 0.000000
-10.564200 0.000000
-10.538700 0.000000
-10.513300 0.000000
-10.487800 0.000000
-10.462300 0.000000
-10.436800 0.000000
-10.411400 0.000000
-10.385900 0.000000
-10.360400 0.000000
-10.334900 0.000000
-10.309400 0.000000
-10.284000 0.000000
-10.258500 0.000000
-10.233000 0.000000
-10.207500 0.000000
-10.182100 0.000000
-10.156600 0.000000
-10.131100 0.000000
-10.105600 0.000000
-10.080200 0.000000
-10.054700 0.000000
-10.029200 0.000000
-10.003700 0.000000
-9.978200 0.000000
-9.952800 0.000000
-9.927300 0.000000
-9.901800 0.000000
-9.876300 0.000000
-9.850900 0.000000
-9.825400 0.000000
-9.799900 0.000000
-9.774400 0.000000
-9.748900 0.000000
-9.723500 0.000000
-9.698000 0.000000
-9.672500 0.000000
-9.647000 0.000000
-9.621600 0.000000
-9.596100 0.000000
-9.570600 0.000000
-9.545100 0.000000
-9.519700 0.000000
-9.494200 0.000000
-9.468700 0.000000
-9.443200 0.000000
-9.417700 0.000000
-9.392300 0.000000
-9.366800 0.000000
-9.341300 0.000000
-9.315800 0.000000
-9.290400 0.000000
-9.264900 0.000000
-9.239400 0.000000
-9.213900 0.000000
-9.188500 0.000000
-9.163000 0.000000
-9.137500 0.000000
-9.112000 0.000000
-9.086500 12.146700
-9.061100 25.098000
-9.035600 21.021500
-9.010100 4.668700
-8.984600 0.000000
-8.959200 0.000000
-8.933700 0.000000
-8.908200 0.000000
-8.882700 0.000000
-8.857200 0.000000
-8.831800 0.000000
-8.806300 0.000000
-8.780800 0.000000
-8.755300 0.000000
-8.729900 0.000000
-8.704400 0.000000
-8.678900 0.000000
-8.653400 0.000000
-8.628000 0.000000
-8.602500 0.000000
-8.577000 0.000000
-8.551500 0.000000
-8.526000 0.000000
-8.500600 0.000000
-8.475100 0.000000
-8.449600 0.000000
-8.424100 0.000000
-8.398700 0.000000
-8.373200 0.000000
-8.347700 0.000000
-8.322200 0.000000
-8.296800 0.000000
-8.271300 0.000000
-8.245800 0.000000
-8.220300 0.000000
-8.194800 0.000000
-8.169400 0.000000
-8.143900 0.000000
-8.118400 0.000000
-8.092900 0.000000
-8.067500 0.000000
-8.042000 0.000000
-8.016500 0.000000
-7.991000 0.000000
-7.965500 0.000000
-7.940100 0.000000
-7.914600 0.000000
-7.889100 0.000000
-7.863600 0.000000
-7.838200 0.000000
-7.812700 0.000000
-7.787200 0.000000
-7.761700 0.000000
-7.736300 0.000000
-7.710800 0.000000
-7.685300 0.000000
-7.659800 0.000000
-7.634300 0.000000
-7.608900 0.000000
-7.583400 0.000000
-7.557900 0.000000
-7.532400 0.000000
-7.507000 0.000000
-7.481500 0.000000
-7.456000 0.000000
-7.430500 0.000000
-7.405100 0.000000
-7.379600 0.000000
-7.354100 0.000000
-7.328600 0.000000
-7.303100 0.000000
-7.277700 0.000000
-7.252200 0.000000
-7.226700 0.000000
-7.201200 0.000000
-7.175800 0.000000
-7.150300 0.000000
-7.124800 0.000000
-7.099300 0.000000
-7.073800 0.000000
-7.048400 0.000000
-7.022900 0.000000
-6.997400 0.000000
-6.971900 0.000000
-6.946500 0.000000
-6.921000 0.000000
-6.895500 0.000000
-6.870000 0.000000
-6.844600 0.000000
-6.819100 0.484300
-6.793600 5.416800
-6.768100 10.990500
-6.742600 8.496200
-6.717200 7.656400
-6.691700 6.241400
-6.666200 6.736800
-6.640700 7.402300
-6.615300 10.314800
-6.589800 11.338700
-6.564300 54.217200
-6.538800 88.541400
-6.513400 17.667400
-6.487900 10.687100
-6.462400 0.000000
-6.436900 0.000000
-6.411400 0.000000
-6.386000 0.000000
-6.360500 0.000000
-6.335000 0.000000
-6.309500 0.000000
-6.284100 0.000000
-6.258600 0.000000
-6.233100 0.000000
-6.207600 0.000000
-6.182100 0.000000
-6.156700 0.000000
-6.131200 0.000000
-6.105700 0.000000
-6.080200 0.000000
-6.054800 0.000000
-6.029300 0.000000
-6.003800 0.000000
-5.978300 0.000000
-5.952900 0.000000
-5.927400 0.000000
-5.901900 0.000000
-5.876400 0.000000
-5.850900 0.000000
-5.825500 0.000000
-5.800000 0.000000
-5.774500 0.000000
-5.749000 0.000000
-5.723600 0.000000
-5.698100 0.254500
-5.672600 0.861700
-5.647100 1.888300
-5.621700 3.302400
-5.596200 4.041300
-5.570700 3.761100
-5.545200 3.069100
-5.519700 2.619300
-5.494300 2.673800
-5.468800 3.078900
-5.443300 3.890900
-5.417800 4.331100
-5.392400 3.719900
-5.366900 1.561100
-5.341400 0.194800
-5.315900 0.000000
-5.290400 0.000000
-5.265000 0.000000
-5.239500 0.000000
-5.214000 0.000000
-5.188500 0.000000
-5.163100 0.000000
-5.137600 0.000000
-5.112100 0.000000
-5.086600 0.000000
-5.061200 0.000000
-5.035700 0.000000
-5.010200 0.000000
-4.984700 0.000000
-4.959200 0.000000
-4.933800 0.000000
-4.908300 0.000000
-4.882800 0.000000
-4.857300 0.000000
-4.831900 0.000000
-4.806400 0.000000
-4.780900 0.000000
-4.755400 0.000000
-4.730000 0.000000
-4.704500 0.000000
-4.679000 0.000000
-4.653500 0.000000
-4.628000 0.000000
-4.602600 0.000000
-4.577100 0.000000
-4.551600 0.000000
-4.526100 0.000000
-4.500700 0.000000
-4.475200 0.000000
-4.449700 0.000000
-4.424200 0.000000
-4.398700 0.000000
-4.373300 0.000000
-4.347800 0.000000
-4.322300 0.000000
-4.296800 0.000000
-4.271400 0.000000
-4.245900 0.000000
-4.220400 0.000000
-4.194900 0.000000
-4.169500 0.000000
-4.144000 0.000000
-4.118500 0.000000
-4.093000 0.000000
-4.067500 0.000000
-4.042100 0.000000
-4.016600 0.000000
-3.991100 0.000000
-3.965600 1.129800
-3.940200 3.412700
-3.914700 10.651100
-3.889200 11.673600
-3.863700 12.160600
-3.838300 14.557500
-3.812800 18.094600
-3.787300 4.350500
-3.761800 3.023600
-3.736300 0.000000
-3.710900 0.000000
-3.685400 0.000000
-3.659900 0.000000
-3.634400 0.000000
-3.609000 0.000000
-3.583500 0.000000
-3.558000 0.000000
-3.532500 0.000000
-3.507000 0.000000
-3.481600 0.000000
-3.456100 0.000000
-3.430600 0.000000
-3.405100 0.000000
-3.379700 0.000000
-3.354200 0.000000
-3.328700 0.000000
-3.303200 0.000000
-3.277800 0.000000
-3.252300 0.000000
-3.226800 0.000000
-3.201300 0.000000
-3.175800 0.000000
-3.150400 0.000000
-3.124900 0.000000
-3.099400 0.000000
-3.073900 0.000000
-3.048500 0.000000
-3.023000 0.000000
-2.997500 0.000000
-2.972000 0.000000
-2.946600 0.000000
-2.921100 0.000000
-2.895600 0.000000
-2.870100 0.000000
-2.844600 0.000000
-2.819200 0.000000
-2.793700 0.000000
-2.768200 0.000000
-2.742700 0.000000
-2.717300 0.000000
-2.691800 0.000000
-2.666300 0.000000
-2.640800 0.000000
-2.615300 0.000000
-2.589900 0.000000
-2.564400 0.000000
-2.538900 0.000000
-2.513400 0.000000
-2.488000 0.000000
-2.462500 0.000000
-2.437000 0.000000
-2.411500 0.000000
-2.386100 0.000000
-2.360600 0.000000
-2.335100 0.000000
-2.309600 0.000000
-2.284100 0.000000
-2.258700 0.000000
-2.233200 0.000000
-2.207700 0.000000
-2.182200 0.000000
-2.156800 0.000000
-2.131300 0.000000
-2.105800 0.000000
-2.080300 0.000000
-2.054900 0.000000
-2.029400 0.000000
-2.003900 0.000000
-1.978400 0.000000
-1.952900 0.000000
-1.927500 0.000000
-1.902000 0.000000
-1.876500 0.000000
-1.851000 0.000000
-1.825600 0.000000
-1.800100 0.000000
-1.774600 0.000000
-1.749100 0.000000
-1.723600 0.000000
-1.698200 0.000000
-1.672700 0.000000
-1.647200 0.000000
-1.621700 0.000000
-1.596300 0.000000
-1.570800 0.000000
-1.545300 0.000000
-1.519800 0.000000
-1.494400 0.000000
-1.468900 0.000000
-1.443400 0.000000
-1.417900 0.000000
-1.392400 0.000000
-1.367000 0.000000
-1.341500 0.000000
-1.316000 0.000000
-1.290500 0.000000
-1.265100 0.000000
-1.239600 0.000000
-1.214100 0.000000
-1.188600 0.000000
-1.163200 0.000000
-1.137700 0.000000
-1.112200 0.000000
-1.086700 0.000000
-1.061200 0.000000
-1.035800 0.000000
-1.010300 0.000000
-0.984800 0.000000
-0.959300 0.000000
-0.933900 0.000000
-0.908400 0.000000
-0.882900 0.000000
-0.857400 0.000000
-0.831900 0.000000
-0.806500 0.000000
-0.781000 0.000000
-0.755500 0.000000
-0.730000 0.000000
-0.704600 0.000000
-0.679100 0.000000
-0.653600 0.000000
-0.628100 0.000000
-0.602700 0.000000
-0.577200 0.000000
-0.551700 0.000000
-0.526200 0.000000
-0.500700 0.000000
-0.475300 0.000000
-0.449800 0.000000
-0.424300 0.000000
-0.398800 0.000000
-0.373400 0.000000
-0.347900 0.000000
-0.322400 0.000000
-0.296900 0.000000
-0.271500 0.000000
-0.246000 0.000000
-0.220500 0.000000
-0.195000 0.000000
-0.169500 0.000000
-0.144100 0.000000
-0.118600 0.000000
-0.093100 0.000000
-0.067600 0.000000
-0.042200 0.002600
-0.016700 0.010300
0.008800 0.023100
0.034300 0.041000
0.059800 0.064000
0.085200 0.092100
0.110700 0.125300
0.136200 0.162600
0.161700 0.191800
0.187100 0.216100
0.212600 0.236100
0.238100 0.252000
0.263600 0.263800
0.289000 0.271800
0.314500 0.279000
0.340000 0.287400
0.365500 0.297400
0.391000 0.309100
0.416400 0.321500
0.441900 0.334500
0.467400 0.348000
0.492900 0.362100
0.518300 0.376700
0.543800 0.391900
0.569300 0.407600
0.594800 0.423700
0.620200 0.440200
0.645700 0.457100
0.671200 0.474400
0.696700 0.492200
0.722200 0.515000
0.747600 0.557500
0.773100 0.604300
0.798600 0.655000
0.824100 0.703500
0.849500 0.742700
0.875000 0.772500
0.900500 0.794800
0.926000 0.811100
0.951500 0.824700
0.976900 0.838400
1.002400 0.859200
1.027900 0.878200
1.053400 0.892100
1.078800 0.900000
1.104300 0.910200
1.129800 0.938800
1.155300 0.975900
1.180700 1.017000
1.206200 1.061600
1.231700 1.087400
1.257200 1.079500
1.282700 1.096400
1.308100 1.163200
1.333600 1.248500
1.359100 1.334000
1.384600 1.405700
1.410000 1.629500
1.435500 1.560300
1.461000 1.461000
1.486500 1.118900
1.511900 0.497200
1.537400 0.618600
1.562900 0.432400
1.588400 0.398900
1.613900 0.428900
1.639300 0.470900
1.664800 0.505400
1.690300 0.532400
1.715800 0.551800
1.741200 0.569600
1.766700 0.590400
1.792200 0.606200
1.817700 0.617000
1.843200 0.622900
1.868600 0.626100
1.894100 0.632600
1.919600 0.641900
1.945100 0.653300
1.970500 0.667100
1.996000 0.684000
2.021500 0.704800
2.047000 0.730200
2.072400 0.763700
2.097900 0.815000
2.123400 0.862800
2.148900 0.907700
2.174400 0.956700
2.199800 1.011900
2.225300 1.071800
2.250800 1.134000
2.276300 1.179900
2.301700 1.205400
2.327200 1.206700
2.352700 1.203300
2.378200 1.194600
2.403600 1.178400
2.429100 1.146900
2.454600 1.099200
2.480100 1.046600
2.505600 0.994500
2.531000 0.937800
2.556500 0.863000
2.582000 0.777200
2.607500 0.697000
2.632900 0.627500
2.658400 0.566200
2.683900 0.512600
2.709400 0.466400
2.734900 0.432300
2.760300 0.407100
2.785800 0.390300
2.811300 0.380200
2.836800 0.374200
2.862200 0.352000
2.887700 0.325700
2.913200 0.307600
2.938700 0.293700
2.964100 0.281600
2.989600 0.267400
3.015100 0.262200
3.040600 0.392300
3.066100 0.325500
3.091500 0.412800
3.117000 0.514400
3.142500 0.628900
3.168000 0.747400
3.193400 0.870900
3.218900 0.999700
3.244400 1.133700
3.269900 1.273000
3.295400 1.430900
3.320800 1.617100
3.346300 1.835500
3.371800 1.826500
3.397300 1.761400
3.422700 1.634200
3.448200 1.451600
3.473700 1.244100
3.499200 1.081400
3.524600 0.994200
3.550100 1.013400
3.575600 1.031200
3.601100 1.006700
3.626600 0.972500
3.652000 0.966200
3.677500 0.977200
3.703000 0.989900
3.728500 1.005500
3.753900 1.024300
3.779400 1.046200
3.804900 1.069900
3.830400 1.094800
3.855800 1.117500
3.881300 1.134600
3.906800 1.146100
3.932300 1.143800
3.957800 1.139400
3.983200 1.136600
4.008700 1.133000
4.034200 1.128600
4.059700 1.125000
4.085100 1.124600
4.110600 1.121800
4.136100 1.113000
4.161600 1.099800
4.187100 1.084200
4.212500 1.069600
4.238000 1.048900
4.263500 1.030000
4.289000 1.016400
4.314400 1.001600
4.339900 0.974400
4.365400 0.952800
4.390900 0.937300
4.416300 0.927700
4.441800 0.928500
4.467300 0.950700
4.492800 0.961000
4.518300 0.962100
4.543700 0.946100
4.569200 0.940200
4.594700 0.960400
4.620200 1.006100
4.645600 1.069900
4.671100 1.135700
4.696600 1.234900
4.722100 1.273300
4.747500 1.295200
4.773000 1.301800
4.798500 1.292200
4.824000 1.283700
4.849500 1.280900
4.874900 1.249400
4.900400 1.205400
4.925900 1.172100
4.951400 1.149000
4.976800 1.126700
5.002300 1.114200
5.027800 1.106900
5.053300 1.103800
5.078800 1.104700
5.104200 1.109800
5.129700 1.124400
5.155200 1.191400
5.180700 1.317800
5.206100 1.365600
5.231600 1.284400
5.257100 1.249500
5.282600 1.257100
5.308000 1.281700
5.333500 1.313100
5.359000 1.349100
5.384500 1.387500
5.410000 1.428500
5.435400 1.475500
5.460900 1.593700
5.486400 1.746700
5.511900 1.898000
5.537300 2.201500
5.562800 1.814200
5.588300 1.421900
5.613800 1.104500
5.639200 0.760600
5.664700 0.518400
5.690200 0.412100
5.715700 0.398100
5.741200 0.415400
5.766600 0.439700
5.792100 0.471000
5.817600 0.509500
5.843100 0.555000
5.868500 0.672600
5.894000 0.852200
5.919500 1.035300
5.945000 1.374300
5.970500 1.479600
5.995900 1.558500
6.021400 1.657600
6.046900 1.777500
6.072400 1.923000
6.097800 2.001700
6.123300 2.007700
6.148800 1.966700
6.174300 1.825200
6.199700 1.854400
6.225200 1.644300
6.250700 1.510100
6.276200 1.556500
6.301700 1.433100
6.327100 1.135400
6.352600 1.040200
6.378100 1.001600
6.403600 0.988800
6.429000 0.986600
6.454500 0.994100
6.480000 1.013300
6.505500 1.036200
6.530900 1.058600
6.556400 1.080500
6.581900 1.120100
6.607400 1.214700
6.632900 1.330000
6.658300 1.378700
6.683800 1.387400
6.709300 1.382000
6.734800 1.384700
6.760200 1.416700
6.785700 1.460700
6.811200 1.502500
6.836700 1.528500
6.862200 1.544500
6.887600 1.544900
6.913100 1.527000
6.938600 1.506400
6.964100 1.489300
6.989500 1.469200
7.015000 1.458700
7.040500 1.423400
7.066000 1.380100
7.091400 1.328800
7.116900 1.323100
7.142400 1.334100
7.167900 1.353800
7.193400 1.355300
7.218800 1.348900
7.244300 1.338600
7.269800 1.330800
7.295300 1.188400
7.320700 1.159800
7.346200 1.178900
7.371700 1.211300
7.397200 1.251000
7.422600 1.289300
7.448100 1.323300
7.473600 1.350700
7.499100 1.372300
7.524600 1.385500
7.550000 1.375500
7.575500 1.427800
7.601000 1.461500
7.626500 1.458700
7.651900 1.456800
7.677400 1.457400
7.702900 1.445000
7.728400 1.378600
7.753900 1.291400
7.779300 1.238500
7.804800 1.214500
7.830300 1.192000
7.855800 1.205700
7.881200 1.246500
7.906700 1.295300
7.932200 1.337400
7.957700 1.365900
7.983100 1.383100
8.008600 1.408300
8.034100 1.440100
8.059600 1.477900
8.085100 1.516600
8.110500 1.555500
8.136000 1.599700
8.161500 1.640400
8.187000 1.677800
8.212400 1.722700
8.237900 1.816200
8.263400 2.013500
8.288900 1.968100
8.314300 1.799400
8.339800 1.677100
8.365300 1.600700
8.390800 1.554000
8.416300 1.537100
8.441700 1.547400
8.467200 1.601100
8.492700 1.648800
8.518200 1.635500
8.543600 1.521600
8.569100 1.446600
8.594600 1.395500
8.620100 1.372500
8.645600 1.359700
8.671000 1.354000
8.696500 1.364700
8.722000 1.402500
8.747500 1.449500
8.772900 1.474100
8.798400 1.499000
8.823900 1.523800
8.849400 1.538900
8.874800 1.554000
8.900300 1.561400
8.925800 1.510100
8.951300 1.426100
8.976800 1.312500
9.002200 1.216600
9.027700 1.169500
9.053200 1.133100
9.078700 1.085500
9.104100 1.108900
9.129600 1.147300
9.155100 1.200700
9.180600 1.269100
9.206000 1.312500
9.231500 1.280400
9.257000 1.288400
9.282500 1.313000
9.308000 1.342100
9.333400 1.373800
9.358900 1.404700
9.384400 1.460400
9.409900 1.543300
9.435300 1.614600
9.460800 1.678900
9.486300 1.744100
9.511800 1.805100
9.537300 1.845000
9.562700 1.867800
9.588200 1.877000
9.613700 1.877200
9.639200 1.881700
9.664600 1.892300
9.690100 1.910200
9.715600 1.897900
9.741100 1.833200
9.766500 1.765100
9.792000 1.702500
9.817500 1.648600
9.843000 1.586300
9.868500 1.524000
9.893900 1.461800
9.919400 1.394100
9.944900 1.322500
9.970400 1.253500
9.995800 1.164500
10.021300 1.091200
10.046800 1.034400
10.072300 1.037100
10.097700 1.081700
10.123200 1.120300
10.148700 1.151600
10.174200 1.172900
10.199700 1.191600
10.225100 1.179400
10.250600 1.146400
10.276100 1.133100
10.301600 1.153200
10.327000 1.182300
10.352500 1.216100
10.378000 1.233100
10.403500 1.276900
10.429000 1.352900
10.454400 1.430400
10.479900 1.469400
10.505400 1.487400
10.530900 1.494800
10.556300 1.490700
10.581800 1.474600
10.607300 1.448700
10.632800 1.423700
10.658200 1.410100
10.683700 1.418500
10.709200 1.414900
10.734700 1.336700
10.760200 1.227200
10.785600 1.094600
10.811100 1.089000
10.836600 1.113400
10.862100 1.141500
10.887500 1.171200
10.913000 1.202700
10.938500 1.240600
10.964000 1.285100
10.989400 1.334900
11.014900 1.403200
11.040400 1.526200
11.065900 1.704400
11.091400 2.452900
11.116800 2.265300
11.142300 2.071500
11.167800 1.917200
11.193300 1.695000
11.218700 1.434800
11.244200 1.248100
11.269700 1.361200
11.295200 1.455200
11.320700 1.563600
11.346100 1.714800
11.371600 1.804500
11.397100 1.864700
11.422600 1.930100
11.448000 2.060400
11.473500 2.187000
11.499000 2.148200
11.524500 2.052600
11.549900 1.939100
11.575400 1.849200
11.600900 2.057700
11.626400 1.859900
11.651900 1.820900
11.677300 1.796300
11.702800 1.768200
11.728300 1.740400
11.753800 1.703000
11.779200 1.701900
11.804700 1.678500
11.830200 1.624900
11.855700 1.539100
11.881100 1.526600
11.906600 1.552900
11.932100 1.556200
11.957600 1.555700
11.983100 1.553400
12.008500 1.567800
12.034000 1.589600
12.059500 1.613400
12.085000 1.637600
12.110400 1.664000
12.135900 1.688600
12.161400 1.667800
12.186900 1.650000
12.212400 1.712100
12.237800 1.810000
12.263300 1.949000
12.288800 2.071400
12.314300 2.184100
12.339700 2.257000
12.365200 2.201600
12.390700 2.124800
12.416200 2.096900
12.441600 2.110000
12.467100 2.036900
12.492600 1.939000
12.518100 1.914500
12.543600 1.925200
12.569000 2.000000
12.594500 2.018400
12.620000 1.941000
12.645500 1.756400
12.670900 1.675600
12.696400 1.621100
12.721900 1.598400
12.747400 1.649200
12.772800 1.597800
12.798300 1.561300
12.823800 1.563300
12.849300 1.582100
12.874800 1.659900
12.900200 1.784500
12.925700 1.791800
12.951200 1.798300
12.976700 1.807300
13.002100 1.808500
13.027600 1.810700
13.053100 1.842700
13.078600 1.894300
13.104100 1.741400
13.129500 1.714800
13.155000 1.690900
13.180500 1.669300
13.206000 1.648300
13.231400 1.683400
13.256900 1.735500
13.282400 1.740500
13.307900 1.706700
13.333300 1.655000
13.358800 1.611100
13.384300 1.594700
13.409800 1.621000
13.435300 1.682900
13.460700 1.744800
13.486200 1.796800
13.511700 1.840300
13.537200 1.878800
13.562600 1.912600
13.588100 1.943000
13.613600 2.088400
13.639100 2.237700
13.664500 2.308600
13.690000 2.201300
13.715500 1.970800
13.741000 1.861500
13.766500 1.784000
13.791900 1.732000
13.817400 1.705200
13.842900 1.703500
13.868400 1.721200
13.893800 1.787600
13.919300 1.986500
13.944800 1.834900
13.970300 1.731800
13.995800 1.693200
14.021200 1.667200
14.046700 1.662200
14.072200 1.670400
14.097700 1.691500
14.123100 1.717000
14.148600 1.755900
14.174100 1.812000
14.199600 1.882000
14.225000 1.973700
14.250500 2.066500
14.276000 2.175100
14.301500 1.978200
14.327000 2.012800
14.352400 1.982000
14.377900 1.954100
14.403400 1.932500
14.428900 1.921600
14.454300 1.923800
14.479800 1.938100
14.505300 1.962700
14.530800 1.983200
14.556200 1.977500
14.581700 1.956200
14.607200 1.942600
14.632700 1.942300
14.658200 1.937600
14.683600 1.881900
14.709100 1.951600
14.734600 1.705200
14.760100 1.692600
14.785500 1.708200
14.811000 1.754600
14.836500 1.821400
14.862000 2.003900
14.887500 2.171600
14.912900 2.282800
14.938400 2.347300
14.963900 2.451500
14.989400 2.490000
15.014800 2.473900
15.040300 2.417300
15.065800 2.347200
15.091300 2.267900
15.116700 2.185700
15.142200 2.111800
15.167700 2.028000
15.193200 1.967000
15.218700 1.958700
15.244100 1.962700
15.269600 1.971200
15.295100 1.981300
15.320600 2.008000
15.346000 2.067000
15.371500 2.178800
15.397000 2.255700
15.422500 2.251000
15.447900 2.155800
15.473400 2.407300
15.498900 2.380400
15.524400 2.217800
15.549900 2.103600
15.575300 1.978400
15.600800 1.934500
15.626300 1.986600
15.651800 1.989300
15.677200 1.968900
15.702700 1.979600
15.728200 2.004500
15.753700 2.097700
15.779200 2.012000
15.804600 2.048400
15.830100 1.928000
15.855600 1.779700
15.881100 1.624200
15.906500 1.605300
15.932000 1.574100
15.957500 1.556800
15.983000 1.598300
16.008400 1.724200
16.033900 1.922500
16.059400 2.119500
16.084900 2.362900
16.110400 2.512100
16.135800 2.635800
16.161300 2.566800
16.186800 2.400200
16.212300 2.189300
16.237700 2.058800
16.263200 1.972400
16.288700 1.922100
16.314200 1.920400
16.339600 1.919400
16.365100 1.875400
16.390600 1.846900
16.416100 1.828600
16.441600 1.825800
16.467000 1.846900
16.492500 1.891800
16.518000 1.969900
16.543500 2.016300
16.568900 2.528500
16.594400 2.191200
16.619900 2.140500
16.645400 2.061700
16.670900 1.926000
16.696300 1.786700
16.721800 1.760900
16.747300 1.725400
16.772800 1.716000
16.798200 1.706900
16.823700 1.676300
16.849200 1.633700
16.874700 1.588400
16.900100 1.543700
16.925600 1.509600
16.951100 1.478100
16.976600 1.457000
17.002100 1.450700
17.027500 1.459000
17.053000 1.483200
17.078500 1.523900
17.104000 1.582000
17.129400 1.634000
17.154900 1.684600
17.180400 1.734900
17.205900 1.836000
17.231300 1.908200
17.256800 1.990600
17.282300 2.062700
17.307800 2.121600
17.333300 2.197100
17.358700 2.202100
17.384200 2.206800
17.409700 2.118600
17.435200 2.075700
17.460600 2.031800
17.486100 2.025800
17.511600 2.030300
17.537100 2.024300
17.562600 2.005400
17.588000 1.986300
17.613500 1.972900
17.639000 1.983300
17.664500 2.032100
17.689900 2.044700
17.715400 1.919500
17.740900 1.914800
17.766400 1.950200
17.791800 2.018500
17.817300 2.095400
17.842800 2.177600
17.868300 2.260000
17.893800 2.350000
17.919200 2.403400
17.944700 2.383200
17.970200 2.366300
17.995700 2.389500
18.021100 2.327600
18.046600 2.305100
18.072100 2.273000
18.097600 2.225600
18.123000 2.170000
18.148500 2.092300
18.174000 2.029700
18.199500 2.049100
18.225000 2.098400
18.250400 2.061200
18.275900 2.015600
18.301400 1.999400
18.326900 2.029200
18.352300 2.065800
18.377800 2.084700
18.403300 2.085800
18.428800 2.079600
18.454300 2.016400
18.479700 1.972800
18.505200 1.966900
18.530700 1.973900
18.556200 1.979700
18.581600 1.984100
18.607100 2.003600
18.632600 2.049200
18.658100 2.109700
18.683500 2.159900
18.709000 2.185100
18.734500 2.220100
18.760000 2.261300
18.785500 2.298600
18.810900 2.328900
18.836400 2.354400
18.861900 2.375000
18.887400 2.408200
18.912800 2.463700
18.938300 2.467100
18.963800 2.455600
18.989300 2.450100
19.014700 2.440800
19.040200 2.417700
19.065700 2.327400
19.091200 2.264900
19.116700 2.172900
19.142100 2.079000
19.167600 2.247000
19.193100 2.078200
19.218600 2.096500
19.244000 2.182900
19.269500 2.294900
19.295000 2.428500
19.320500 2.546500
19.346000 2.682800
19.371400 2.730600
19.396900 2.638900
19.422400 2.435900
19.447900 2.161900
19.473300 1.886500
19.498800 1.807100
19.524300 1.927700
19.549800 2.040700
19.575200 2.119200
19.600700 2.117800
19.626200 2.080500
19.651700 2.100000
19.677200 2.227300
19.702600 2.342900
19.728100 2.333400
19.753600 2.278700
19.779100 2.251900
19.804500 2.130600
19.830000 2.057100
19.855500 2.024900
19.881000 2.018600
19.906400 2.022000
19.931900 2.053400
19.957400 2.096800
19.982900 2.126400
20.008400 2.185100
20.033800 2.173200
20.059300 2.214700
20.084800 2.413800
20.110300 2.920200
20.135700 3.095600
20.161200 2.978200
20.186700 2.638400
20.212200 2.453600
20.237700 2.289000
20.263100 2.130900
20.288600 1.979100
20.314100 1.869500
20.339600 1.867900
20.365000 1.893000
20.390500 1.914600
20.416000 1.915800
20.441500 1.900500
20.466900 1.924500
20.492400 1.957500
20.517900 2.004700
20.543400 2.137300
20.568900 2.424900
20.594300 2.345900
20.619800 2.133300
20.645300 1.973900
20.670800 1.796500
20.696200 1.904400
20.721700 1.853900
20.747200 1.698300
20.772700 1.682000
20.798200 1.690300
20.823600 1.705200
20.849100 1.724100
20.874600 1.768900
20.900100 1.823100
20.925500 1.816300
20.951000 1.831700
20.976500 1.912300
21.002000 1.987500
21.027400 2.054300
21.052900 2.120200
21.078400 2.193400
21.103900 2.275200
21.129400 2.189300
21.154800 2.209900
21.180300 2.330700
21.205800 2.405600
21.231300 2.466800
21.256700 2.569100
21.282200 2.481800
21.307700 2.438400
21.333200 2.365000
21.358600 2.360100
21.384100 2.382500
21.409600 2.450400
21.435100 2.564000
21.460600 2.676600
21.486000 3.118300
21.511500 2.761000
21.537000 2.674500
21.562500 2.653300
21.587900 2.622100
21.613400 2.416800
21.638900 2.232300
21.664400 2.137300
21.689900 2.091100
21.715300 2.100100
21.740800 2.157400
21.766300 2.215200
21.791800 2.098100
21.817200 1.997100
21.842700 1.923700
21.868200 1.935100
21.893700 1.978100
21.919100 2.022600
21.944600 2.058600
21.970100 2.090100
21.995600 2.095500
22.021100 2.110700
22.046500 2.117600
22.072000 2.162600
22.097500 2.191800
22.123000 1.847300
22.148400 1.496300
22.173900 1.242100
22.199400 1.021600
22.224900 0.840400
22.250300 0.741700
22.275800 0.653400
22.301300 0.573900
22.326800 0.499000
22.352300 0.430100
22.377700 0.374200
22.403200 0.331700
22.428700 0.301700
22.454200 0.279300
22.479600 0.251800
22.505100 0.228300
22.530600 0.209800
22.556100 0.192400
22.581600 0.175900
22.607000 0.160200
22.632500 0.145400
22.658000 0.131500
22.683500 0.118400
22.708900 0.106100
22.734400 0.094700
22.759900 0.084200
22.785400 0.074400
22.810800 0.065300
22.836300 0.057000
22.861800 0.049400
22.887300 0.042600
22.912800 0.036500
22.938200 0.031200
22.963700 0.026600
22.989200 0.022800
23.014700 0.019800
23.040100 0.017300
23.065600 0.015100
23.091100 0.013000
23.116600 0.011000
23.142000 0.009300
23.167500 0.007600
23.193000 0.006200
23.218500 0.004900
23.244000 0.003700
23.269400 0.002700
23.294900 0.001900
23.320400 0.001200
23.345900 0.000700
23.371300 0.000300
23.396800 0.000100
23.422300 0.000000
23.447800 0.000000
23.473300 0.000000
23.498700 0.000000
23.524200 0.000000
23.549700 0.000000
23.575200 0.000000
23.600600 0.000000
23.626100 0.000000
23.651600 0.000000
23.677100 0.000000
23.702500 0.000000
23.728000 0.000000
23.753500 0.000000
23.779000 0.000000
23.804500 0.000000
23.829900 0.000000
23.855400 0.000000
23.880900 0.000000
23.906400 0.000000
23.931800 0.000000
23.957300 0.000000
23.982800 0.000000
24.008300 0.000000
24.033700 0.000000
24.059200 0.000000
24.084700 0.000000
24.110200 0.000000
24.135700 0.000000
24.161100 0.000000
24.186600 0.000000
24.212100 0.000000
24.237600 0.000000
24.263000 0.000000
24.288500 0.000000
24.314000 0.000000
24.339500 0.000000
24.365000 0.000000
24.390400 0.000000
24.415900 0.000000
24.441400 0.000000
24.466900 0.000000
24.492300 0.000000
24.517800 0.000000
24.543300 0.000000
24.568800 0.000000
24.594200 0.000000
24.619700 0.000000
24.645200 0.000000
24.670700 0.000000
24.696200 0.000000
24.721600 0.000000
24.747100 0.000000
24.772600 0.000000
24.798100 0.000000
24.823500 0.000000
24.849000 0.000000
24.874500 0.000000
24.900000 0.000000
24.925400 0.000000
24.950900 0.000000
24.976400 0.000000
25.001900 0.000000
25.027400 0.000000
25.052800 0.000000
25.078300 0.000000
25.103800 0.000000
25.129300 0.000000
25.154700 0.000000
25.180200 0.000000
25.205700 0.000000
25.231200 0.000000
25.256700 0.000000
25.282100 0.000000
25.307600 0.000000
25.333100 0.000000
25.358600 0.000000
25.384000 0.000000
25.409500 0.000000
25.435000 0.000000
25.460500 0.000000
25.485900 0.000000
25.511400 0.000000
25.536900 0.000000
25.562400 0.000000
25.587900 0.000000
25.613300 0.000000
25.638800 0.000000
25.664300 0.000000
25.689800 0.000000
25.715200 0.000000
25.740700 0.000000
25.766200 0.000000
25.791700 0.000000
25.817100 0.000000
25.842600 0.000000
25.868100 0.000000
25.893600 0.000000
e
