set title 'mp-971941 - Density of States'
set xlabel 'Energy (eV)'
set ylabel 'DOS (states/eV)'
set grid
set xrange [-10:10]
set yrange [0:29.742]
set xzeroaxis lt -1
set terminal png size 800,600
set output 'mp-971941_dos_gnuplot.png'
plot '-' using 1:2 with lines title 'DOS'
-64.796200 0.000000
-64.731600 0.000000
-64.667100 0.000000
-64.602500 0.000000
-64.538000 0.000000
-64.473400 0.000000
-64.408900 0.000000
-64.344300 0.000000
-64.279800 0.000000
-64.215300 0.000000
-64.150700 0.000000
-64.086200 0.000000
-64.021600 0.000000
-63.957100 0.000000
-63.892500 0.000000
-63.828000 0.000000
-63.763400 0.000000
-63.698900 0.000000
-63.634400 0.000000
-63.569800 0.000000
-63.505300 0.000000
-63.440700 0.000000
-63.376200 0.000000
-63.311600 0.000000
-63.247100 0.000000
-63.182500 0.000000
-63.118000 0.000000
-63.053500 0.000000
-62.988900 0.000000
-62.924400 0.000000
-62.859800 0.000000
-62.795300 0.000000
-62.730700 0.000000
-62.666200 0.000000
-62.601600 0.000000
-62.537100 0.000000
-62.472500 0.000000
-62.408000 0.000000
-62.343500 0.000000
-62.278900 0.000000
-62.214400 0.000000
-62.149800 0.000000
-62.085300 0.000000
-62.020700 0.000000
-61.956200 0.000000
-61.891600 0.000000
-61.827100 0.000000
-61.762600 0.000000
-61.698000 0.000000
-61.633500 0.000000
-61.568900 0.000000
-61.504400 0.000000
-61.439800 0.000000
-61.375300 0.000000
-61.310700 0.000000
-61.246200 0.000000
-61.181700 0.000000
-61.117100 0.000000
-61.052600 0.000000
-60.988000 0.000000
-60.923500 0.000000
-60.858900 0.000000
-60.794400 0.000000
-60.729800 0.000000
-60.665300 0.000000
-60.600800 0.000000
-60.536200 0.000000
-60.471700 0.000000
-60.407100 0.000000
-60.342600 0.000000
-60.278000 0.000000
-60.213500 0.000000
-60.148900 0.000000
-60.084400 0.000000
-60.019900 0.000000
-59.955300 0.000000
-59.890800 0.000000
-59.826200 0.000000
-59.761700 0.000000
-59.697100 0.000000
-59.632600 0.000000
-59.568000 0.000000
-59.503500 0.000000
-59.439000 0.000000
-59.374400 0.000000
-59.309900 0.000000
-59.245300 0.000000
-59.180800 0.000000
-59.116200 0.000000
-59.051700 0.000000
-58.987100 0.000000
-58.922600 0.000000
-58.858100 0.000000
-58.793500 0.000000
-58.729000 0.000000
-58.664400 0.000000
-58.599900 0.000000
-58.535300 0.000000
-58.470800 0.000000
-58.406200 0.000000
-58.341700 0.000000
-58.277200 0.000000
-58.212600 0.000000
-58.148100 0.000000
-58.083500 0.000000
-58.019000 0.000000
-57.954400 0.000000
-57.889900 0.000000
-57.825300 0.000000
-57.760800 0.000000
-57.696300 0.000000
-57.631700 0.000000
-57.567200 0.000000
-57.502600 0.000000
-57.438100 0.000000
-57.373500 0.000000
-57.309000 0.000000
-57.244400 0.000000
-57.179900 0.000000
-57.115400 0.000000
-57.050800 0.000000
-56.986300 0.000000
-56.921700 0.000000
-56.857200 0.000000
-56.792600 0.000000
-56.728100 0.000000
-56.663500 0.000000
-56.599000 0.000000
-56.534500 0.000000
-56.469900 0.000000
-56.405400 0.000000
-56.340800 0.000000
-56.276300 0.000000
-56.211700 0.000000
-56.147200 0.000000
-56.082600 0.000000
-56.018100 0.000000
-55.953600 0.000000
-55.889000 0.000000
-55.824500 0.000000
-55.759900 0.000000
-55.695400 0.000000
-55.630800 0.000000
-55.566300 0.000000
-55.501700 0.000000
-55.437200 0.000000
-55.372700 0.000000
-55.308100 0.000000
-55.243600 0.000000
-55.179000 0.000000
-55.114500 0.000000
-55.049900 0.000000
-54.985400 0.000000
-54.920800 0.000000
-54.856300 0.000000
-54.791800 0.000000
-54.727200 0.000000
-54.662700 0.000000
-54.598100 0.000000
-54.533600 0.000000
-54.469000 0.000000
-54.404500 0.000000
-54.339900 0.000000
-54.275400 0.000000
-54.210800 0.000000
-54.146300 0.000000
-54.081800 0.000000
-54.017200 0.000000
-53.952700 0.000000
-53.888100 0.000000
-53.823600 0.000000
-53.759000 0.000000
-53.694500 0.000000
-53.629900 0.000000
-53.565400 0.000000
-53.500900 0.000000
-53.436300 0.000000
-53.371800 0.000000
-53.307200 0.000000
-53.242700 0.000000
-53.178100 0.000000
-53.113600 0.000000
-53.049000 0.000000
-52.984500 0.000000
-52.920000 0.000000
-52.855400 0.000000
-52.790900 0.000000
-52.726300 0.000000
-52.661800 0.000000
-52.597200 0.000000
-52.532700 0.000000
-52.468100 0.000000
-52.403600 0.000000
-52.339100 0.000000
-52.274500 0.000000
-52.210000 0.000000
-52.145400 0.000000
-52.080900 0.000000
-52.016300 0.000000
-51.951800 0.000000
-51.887200 0.000000
-51.822700 0.000000
-51.758200 0.000000
-51.693600 0.000000
-51.629100 0.000000
-51.564500 0.000000
-51.500000 0.000000
-51.435400 0.000000
-51.370900 0.000000
-51.306300 0.000000
-51.241800 0.000000
-51.177300 0.000000
-51.112700 0.000000
-51.048200 0.000000
-50.983600 0.000000
-50.919100 0.000000
-50.854500 0.000000
-50.790000 0.000000
-50.725400 0.000000
-50.660900 0.000000
-50.596400 0.000000
-50.531800 0.000000
-50.467300 0.000000
-50.402700 0.000000
-50.338200 0.000000
-50.273600 0.000000
-50.209100 0.000000
-50.144500 0.000000
-50.080000 0.000000
-50.015500 0.000000
-49.950900 0.000000
-49.886400 0.000000
-49.821800 0.000000
-49.757300 0.000000
-49.692700 0.000000
-49.628200 0.000000
-49.563600 0.000000
-49.499100 0.000000
-49.434600 0.000000
-49.370000 0.000000
-49.305500 0.000000
-49.240900 0.000000
-49.176400 0.000000
-49.111800 0.000000
-49.047300 0.000000
-48.982700 0.000000
-48.918200 0.000000
-48.853700 0.000000
-48.789100 0.000000
-48.724600 0.000000
-48.660000 0.000000
-48.595500 0.000000
-48.530900 0.000000
-48.466400 0.000000
-48.401800 0.000000
-48.337300 0.000000
-48.272800 0.000000
-48.208200 0.000000
-48.143700 0.000000
-48.079100 0.000000
-48.014600 0.000000
-47.950000 0.000000
-47.885500 0.000000
-47.820900 0.000000
-47.756400 0.000000
-47.691900 0.000000
-47.627300 0.000000
-47.562800 0.000000
-47.498200 0.000000
-47.433700 0.000000
-47.369100 0.000000
-47.304600 0.000000
-47.240000 0.000000
-47.175500 0.000000
-47.111000 0.000000
-47.046400 0.000000
-46.981900 0.000000
-46.917300 0.000000
-46.852800 0.000000
-46.788200 0.000000
-46.723700 0.000000
-46.659100 0.000000
-46.594600 0.000000
-46.530100 0.000000
-46.465500 0.000000
-46.401000 0.000000
-46.336400 0.000000
-46.271900 0.000000
-46.207300 0.000000
-46.142800 0.000000
-46.078200 0.000000
-46.013700 0.000000
-45.949100 0.000000
-45.884600 0.000000
-45.820100 0.000000
-45.755500 0.000000
-45.691000 0.000000
-45.626400 0.000000
-45.561900 0.000000
-45.497300 0.000000
-45.432800 0.000000
-45.368200 0.000000
-45.303700 0.000000
-45.239200 0.000000
-45.174600 0.000000
-45.110100 0.000000
-45.045500 0.000000
-44.981000 0.000000
-44.916400 0.000000
-44.851900 0.000000
-44.787300 0.000000
-44.722800 0.000000
-44.658300 0.000000
-44.593700 0.000000
-44.529200 0.000000
-44.464600 0.000000
-44.400100 0.000000
-44.335500 0.000000
-44.271000 0.000000
-44.206400 0.000000
-44.141900 0.000000
-44.077400 0.000000
-44.012800 0.000000
-43.948300 0.000000
-43.883700 0.000000
-43.819200 0.000000
-43.754600 0.000000
-43.690100 0.000000
-43.625500 0.000000
-43.561000 0.000000
-43.496500 0.000000
-43.431900 0.000000
-43.367400 0.000000
-43.302800 0.000000
-43.238300 0.000000
-43.173700 0.000000
-43.109200 0.000000
-43.044600 0.000000
-42.980100 0.000000
-42.915600 0.000000
-42.851000 0.000000
-42.786500 0.000000
-42.721900 0.000000
-42.657400 0.000000
-42.592800 0.000000
-42.528300 0.000000
-42.463700 0.000000
-42.399200 0.000000
-42.334700 0.000000
-42.270100 0.000000
-42.205600 0.000000
-42.141000 0.000000
-42.076500 0.000000
-42.011900 0.000000
-41.947400 0.000000
-41.882800 0.000000
-41.818300 0.000000
-41.753800 0.000000
-41.689200 0.000000
-41.624700 0.000000
-41.560100 0.000000
-41.495600 0.000000
-41.431000 0.000000
-41.366500 0.000000
-41.301900 0.000000
-41.237400 0.000000
-41.172900 0.000000
-41.108300 0.000000
-41.043800 0.000000
-40.979200 0.000000
-40.914700 0.000000
-40.850100 0.000000
-40.785600 0.000000
-40.721000 0.000000
-40.656500 0.000000
-40.592000 0.000000
-40.527400 0.000000
-40.462900 0.000000
-40.398300 0.000000
-40.333800 0.000000
-40.269200 0.000000
-40.204700 0.000000
-40.140100 0.000000
-40.075600 0.000000
-40.011100 0.000000
-39.946500 0.000000
-39.882000 0.000000
-39.817400 0.000000
-39.752900 0.000000
-39.688300 0.000000
-39.623800 0.000000
-39.559200 0.000000
-39.494700 0.000000
-39.430200 0.000000
-39.365600 0.000000
-39.301100 0.000000
-39.236500 0.000000
-39.172000 0.000000
-39.107400 0.000000
-39.042900 0.000000
-38.978300 0.000000
-38.913800 0.000000
-38.849300 0.000000
-38.784700 0.000000
-38.720200 0.000000
-38.655600 0.000000
-38.591100 0.000000
-38.526500 0.000000
-38.462000 0.000000
-38.397400 0.000000
-38.332900 0.000000
-38.268400 0.000000
-38.203800 0.000000
-38.139300 0.000000
-38.074700 0.000000
-38.010200 0.000000
-37.945600 0.000000
-37.881100 0.000000
-37.816500 0.000000
-37.752000 0.000000
-37.687400 0.000000
-37.622900 0.000000
-37.558400 0.000000
-37.493800 0.000000
-37.429300 0.000000
-37.364700 0.000000
-37.300200 0.000000
-37.235600 0.000000
-37.171100 0.000000
-37.106500 0.000000
-37.042000 0.000000
-36.977500 0.000000
-36.912900 0.000000
-36.848400 0.000000
-36.783800 0.000000
-36.719300 0.000000
-36.654700 0.000000
-36.590200 0.000000
-36.525600 0.000000
-36.461100 0.000000
-36.396600 0.000000
-36.332000 0.000000
-36.267500 0.000000
-36.202900 0.000000
-36.138400 0.000000
-36.073800 0.000000
-36.009300 0.000000
-35.944700 0.000000
-35.880200 0.000000
-35.815700 0.000000
-35.751100 0.000000
-35.686600 0.000000
-35.622000 0.000000
-35.557500 0.000000
-35.492900 0.000000
-35.428400 0.000000
-35.363800 0.000000
-35.299300 0.000000
-35.234800 0.000000
-35.170200 0.000000
-35.105700 0.000000
-35.041100 0.000000
-34.976600 0.000000
-34.912000 0.000000
-34.847500 0.000000
-34.782900 0.000000
-34.718400 0.000000
-34.653900 0.000000
-34.589300 0.000000
-34.524800 0.000000
-34.460200 0.000000
-34.395700 0.000000
-34.331100 0.000000
-34.266600 0.000000
-34.202000 0.000000
-34.137500 0.000000
-34.073000 0.000000
-34.008400 0.000000
-33.943900 0.000000
-33.879300 0.000000
-33.814800 0.000000
-33.750200 0.000000
-33.685700 0.000000
-33.621100 0.000000
-33.556600 0.000000
-33.492100 0.000000
-33.427500 0.000000
-33.363000 0.000000
-33.298400 0.000000
-33.233900 0.000000
-33.169300 0.000000
-33.104800 0.000000
-33.040200 0.000000
-32.975700 0.000000
-32.911200 0.000000
-32.846600 0.000000
-32.782100 0.000000
-32.717500 0.000000
-32.653000 0.000000
-32.588400 0.000000
-32.523900 0.000000
-32.459300 0.000000
-32.394800 0.000000
-32.330300 0.000000
-32.265700 0.000000
-32.201200 0.000000
-32.136600 0.000000
-32.072100 0.000000
-32.007500 0.000000
-31.943000 0.000000
-31.878400 0.000000
-31.813900 0.000000
-31.749400 0.000000
-31.684800 0.000000
-31.620300 0.000000
-31.555700 0.000000
-31.491200 0.000000
-31.426600 0.000000
-31.362100 0.000000
-31.297500 0.000000
-31.233000 0.000000
-31.168500 0.000000
-31.103900 0.000000
-31.039400 0.000000
-30.974800 0.000000
-30.910300 0.000000
-30.845700 0.000000
-30.781200 0.000000
-30.716600 0.000000
-30.652100 0.000000
-30.587600 0.000000
-30.523000 0.000000
-30.458500 0.000000
-30.393900 0.000000
-30.329400 0.000000
-30.264800 0.000000
-30.200300 0.000000
-30.135700 0.000000
-30.071200 0.000000
-30.006700 0.000000
-29.942100 0.000000
-29.877600 0.000000
-29.813000 0.000000
-29.748500 0.000000
-29.683900 0.000000
-29.619400 0.000000
-29.554800 0.000000
-29.490300 0.000000
-29.425700 0.000000
-29.361200 0.000000
-29.296700 0.000000
-29.232100 0.000000
-29.167600 0.000000
-29.103000 0.000000
-29.038500 0.000000
-28.973900 0.000000
-28.909400 0.000000
-28.844800 0.000000
-28.780300 0.000000
-28.715800 0.000000
-28.651200 0.000000
-28.586700 0.000000
-28.522100 0.000000
-28.457600 0.000000
-28.393000 0.000000
-28.328500 0.000000
-28.263900 0.000000
-28.199400 0.000000
-28.134900 0.000000
-28.070300 0.000000
-28.005800 0.000000
-27.941200 0.000000
-27.876700 0.000000
-27.812100 0.000000
-27.747600 0.000000
-27.683000 0.000000
-27.618500 0.000000
-27.554000 0.000000
-27.489400 0.000000
-27.424900 0.000000
-27.360300 0.000000
-27.295800 0.000000
-27.231200 0.000000
-27.166700 0.000000
-27.102100 0.000000
-27.037600 0.000000
-26.973100 0.000000
-26.908500 0.000000
-26.844000 0.000000
-26.779400 0.000000
-26.714900 0.000000
-26.650300 0.000000
-26.585800 0.000000
-26.521200 0.000000
-26.456700 0.000000
-26.392200 0.000000
-26.327600 0.000000
-26.263100 0.000000
-26.198500 0.000000
-26.134000 0.000000
-26.069400 0.000000
-26.004900 0.000000
-25.940300 0.000000
-25.875800 0.000000
-25.811300 0.000000
-25.746700 0.000000
-25.682200 0.000000
-25.617600 0.000000
-25.553100 0.000000
-25.488500 0.000000
-25.424000 0.000000
-25.359400 0.000000
-25.294900 0.000000
-25.230400 0.000000
-25.165800 0.000000
-25.101300 0.000000
-25.036700 0.000000
-24.972200 0.000000
-24.907600 0.000000
-24.843100 0.000000
-24.778500 0.000000
-24.714000 0.000000
-24.649500 0.000000
-24.584900 0.000000
-24.520400 0.000000
-24.455800 0.000000
-24.391300 0.000000
-24.326700 0.000000
-24.262200 0.000000
-24.197600 0.000000
-24.133100 0.000000
-24.068600 0.000000
-24.004000 0.000000
-23.939500 0.000000
-23.874900 0.000000
-23.810400 0.000000
-23.745800 0.000000
-23.681300 0.000000
-23.616700 0.000000
-23.552200 0.000000
-23.487700 0.000000
-23.423100 0.000000
-23.358600 0.000000
-23.294000 0.000000
-23.229500 0.000000
-23.164900 0.000000
-23.100400 0.000000
-23.035800 0.000000
-22.971300 0.000000
-22.906800 0.000000
-22.842200 0.000000
-22.777700 0.000000
-22.713100 0.000000
-22.648600 0.000000
-22.584000 0.000000
-22.519500 0.000000
-22.454900 0.000000
-22.390400 0.000000
-22.325900 0.000000
-22.261300 0.000000
-22.196800 0.000000
-22.132200 0.000000
-22.067700 0.000000
-22.003100 0.000000
-21.938600 0.000000
-21.874000 0.000000
-21.809500 0.000000
-21.745000 0.000000
-21.680400 0.000000
-21.615900 0.000000
-21.551300 0.000000
-21.486800 0.000000
-21.422200 0.000000
-21.357700 0.000000
-21.293100 0.000000
-21.228600 0.000000
-21.164000 0.000000
-21.099500 0.000000
-21.035000 0.000000
-20.970400 0.000000
-20.905900 0.000000
-20.841300 0.000000
-20.776800 0.000000
-20.712200 0.000000
-20.647700 0.000000
-20.583100 0.000000
-20.518600 0.000000
-20.454100 0.000000
-20.389500 0.000000
-20.325000 0.000000
-20.260400 0.000000
-20.195900 0.000000
-20.131300 0.000000
-20.066800 0.000000
-20.002200 0.000000
-19.937700 0.000000
-19.873200 0.000000
-19.808600 0.000000
-19.744100 0.000000
-19.679500 0.000000
-19.615000 0.000000
-19.550400 0.000000
-19.485900 0.000000
-19.421300 0.000000
-19.356800 0.000000
-19.292300 0.000000
-19.227700 0.000000
-19.163200 0.000000
-19.098600 0.000000
-19.034100 0.000000
-18.969500 0.000000
-18.905000 0.000000
-18.840400 0.000000
-18.775900 0.000000
-18.711400 0.000000
-18.646800 0.000000
-18.582300 0.000000
-18.517700 0.000000
-18.453200 0.000000
-18.388600 0.000000
-18.324100 0.000000
-18.259500 0.000000
-18.195000 0.000000
-18.130500 0.000000
-18.065900 0.000000
-18.001400 0.000000
-17.936800 0.000000
-17.872300 0.000000
-17.807700 0.000000
-17.743200 0.000000
-17.678600 0.000000
-17.614100 0.000000
-17.549600 0.000000
-17.485000 0.000000
-17.420500 0.000000
-17.355900 0.000000
-17.291400 0.000000
-17.226800 0.000000
-17.162300 0.000000
-17.097700 0.000000
-17.033200 0.000000
-16.968700 0.000000
-16.904100 0.000000
-16.839600 0.000000
-16.775000 0.000000
-16.710500 0.000000
-16.645900 0.000000
-16.581400 0.000000
-16.516800 0.000000
-16.452300 0.000000
-16.387800 0.000000
-16.323200 0.000000
-16.258700 0.000000
-16.194100 0.000000
-16.129600 0.000000
-16.065000 0.000000
-16.000500 0.000000
-15.935900 0.000000
-15.871400 0.000000
-15.806900 0.000000
-15.742300 0.000000
-15.677800 0.000000
-15.613200 0.000000
-15.548700 0.000000
-15.484100 0.000000
-15.419600 0.000000
-15.355000 0.000000
-15.290500 0.000000
-15.226000 0.000000
-15.161400 0.000000
-15.096900 0.000000
-15.032300 0.000000
-14.967800 0.000000
-14.903200 0.000000
-14.838700 0.000000
-14.774100 0.000000
-14.709600 0.000000
-14.645100 0.000000
-14.580500 0.000000
-14.516000 0.000000
-14.451400 0.000000
-14.386900 0.000000
-14.322300 0.000000
-14.257800 0.000000
-14.193200 0.000000
-14.128700 0.000000
-14.064200 0.000000
-13.999600 0.000000
-13.935100 0.000000
-13.870500 0.000000
-13.806000 0.000000
-13.741400 0.000000
-13.676900 0.000000
-13.612300 0.000000
-13.547800 0.000000
-13.483300 0.000000
-13.418700 0.000000
-13.354200 0.000000
-13.289600 0.000000
-13.225100 0.000000
-13.160500 0.000000
-13.096000 0.000000
-13.031400 0.000000
-12.966900 0.000000
-12.902300 0.000000
-12.837800 0.000000
-12.773300 0.000000
-12.708700 0.000000
-12.644200 0.000000
-12.579600 0.000000
-12.515100 0.000000
-12.450500 0.000000
-12.386000 0.000000
-12.321400 0.000000
-12.256900 0.000000
-12.192400 0.000000
-12.127800 0.000000
-12.063300 0.000000
-11.998700 0.000000
-11.934200 0.000000
-11.869600 0.000000
-11.805100 0.000000
-11.740500 0.000000
-11.676000 0.000000
-11.611500 0.000000
-11.546900 0.000000
-11.482400 0.000000
-11.417800 0.000000
-11.353300 0.000000
-11.288700 0.000000
-11.224200 0.000000
-11.159600 0.000000
-11.095100 0.000000
-11.030600 0.000000
-10.966000 0.000000
-10.901500 0.000000
-10.836900 0.000000
-10.772400 0.000000
-10.707800 0.000000
-10.643300 0.000000
-10.578700 0.000000
-10.514200 0.000000
-10.449700 0.000000
-10.385100 0.000000
-10.320600 0.000000
-10.256000 0.000000
-10.191500 0.000000
-10.126900 0.000000
-10.062400 0.000000
-9.997800 0.000000
-9.933300 0.000000
-9.868800 0.000000
-9.804200 0.000000
-9.739700 0.000000
-9.675100 0.000000
-9.610600 0.000000
-9.546000 0.000000
-9.481500 0.000000
-9.416900 0.000000
-9.352400 0.000000
-9.287900 0.000000
-9.223300 0.000000
-9.158800 0.000000
-9.094200 0.000000
-9.029700 0.000000
-8.965100 0.000000
-8.900600 0.000000
-8.836000 0.000000
-8.771500 0.000000
-8.707000 0.000000
-8.642400 0.000000
-8.577900 0.000000
-8.513300 0.000000
-8.448800 0.000000
-8.384200 0.000000
-8.319700 0.000000
-8.255100 0.000000
-8.190600 0.000000
-8.126100 0.000000
-8.061500 0.000000
-7.997000 0.000000
-7.932400 0.000000
-7.867900 0.000000
-7.803300 0.000000
-7.738800 0.000000
-7.674200 0.000000
-7.609700 0.000000
-7.545200 0.000000
-7.480600 0.000000
-7.416100 0.000000
-7.351500 0.000000
-7.287000 0.000000
-7.222400 0.000000
-7.157900 0.000000
-7.093300 0.000000
-7.028800 0.000000
-6.964300 0.000000
-6.899700 0.000000
-6.835200 0.000000
-6.770600 0.000000
-6.706100 0.000000
-6.641500 0.000000
-6.577000 0.000000
-6.512400 0.000000
-6.447900 0.000000
-6.383400 0.000000
-6.318800 0.000000
-6.254300 0.000000
-6.189700 0.000000
-6.125200 0.011300
-6.060600 0.096500
-5.996100 0.120400
-5.931500 0.148500
-5.867000 0.183200
-5.802500 0.200100
-5.737900 0.221300
-5.673400 0.238800
-5.608800 0.259200
-5.544300 0.282800
-5.479700 0.302300
-5.415200 0.316400
-5.350600 0.333600
-5.286100 0.350900
-5.221600 0.371200
-5.157000 0.393200
-5.092500 0.415900
-5.027900 0.437000
-4.963400 0.458600
-4.898800 0.483300
-4.834300 0.510600
-4.769700 0.541200
-4.705200 0.578900
-4.640600 0.621100
-4.576100 0.672300
-4.511600 0.744600
-4.447000 0.817000
-4.382500 0.899800
-4.317900 0.982400
-4.253400 1.069900
-4.188800 1.215300
-4.124300 1.480700
-4.059700 2.633000
-3.995200 4.238700
-3.930700 8.541900
-3.866100 9.339200
-3.801600 14.534000
-3.737000 15.415300
-3.672500 19.370100
-3.607900 20.920500
-3.543400 25.728500
-3.478800 18.964600
-3.414300 16.210200
-3.349800 13.216000
-3.285200 18.116100
-3.220700 14.599700
-3.156100 13.839900
-3.091600 27.038400
-3.027000 23.854000
-2.962500 25.623900
-2.897900 23.575700
-2.833400 17.059000
-2.768900 23.635300
-2.704300 19.014600
-2.639800 16.071800
-2.575200 11.478800
-2.510700 12.740700
-2.446100 6.845600
-2.381600 3.752400
-2.317000 1.823900
-2.252500 1.265500
-2.188000 1.188000
-2.123400 1.104200
-2.058900 1.083700
-1.994300 1.009400
-1.929800 0.908200
-1.865200 0.846200
-1.800700 0.807200
-1.736100 0.754000
-1.671600 0.692800
-1.607100 0.695000
-1.542500 0.765800
-1.478000 0.797700
-1.413400 0.823300
-1.348900 0.895900
-1.284300 1.015900
-1.219800 1.060600
-1.155200 1.052600
-1.090700 1.018200
-1.026200 0.980900
-0.961600 0.943300
-0.897100 0.943300
-0.832500 0.953700
-0.768000 0.986600
-0.703400 0.953800
-0.638900 0.914100
-0.574300 0.881600
-0.509800 0.799900
-0.445300 0.797000
-0.380700 0.815900
-0.316200 0.835500
-0.251600 0.850700
-0.187100 0.898100
-0.122500 0.913700
-0.058000 0.912500
0.006600 0.921100
0.071100 0.927700
0.135600 0.937500
0.200200 0.944700
0.264700 0.951000
0.329300 0.956500
0.393800 1.021700
0.458400 0.989300
0.522900 1.027400
0.587500 1.066200
0.652000 1.104100
0.716500 1.126700
0.781100 1.196900
0.845600 1.236300
0.910200 1.280300
0.974700 1.309700
1.039300 1.338500
1.103800 1.409300
1.168400 1.494300
1.232900 1.607700
1.297400 1.824300
1.362000 1.881300
1.426500 1.847300
1.491100 1.835100
1.555600 1.895000
1.620200 1.987700
1.684700 1.980900
1.749300 1.935800
1.813800 1.713000
1.878300 1.924400
1.942900 2.846400
2.007400 2.809500
2.072000 2.451900
2.136500 2.760600
2.201100 3.198500
2.265600 3.781600
2.330200 5.071700
2.394700 7.223100
2.459200 7.012600
2.523800 8.085800
2.588300 11.045400
2.652900 12.263000
2.717400 12.700400
2.782000 8.414600
2.846500 4.481400
2.911100 4.112000
2.975600 7.092000
3.040100 4.288500
3.104700 4.497300
3.169200 9.531100
3.233800 4.670800
3.298300 3.419600
3.362900 2.911200
3.427400 2.620800
3.492000 2.286600
3.556500 2.148300
3.621100 1.996100
3.685600 2.045700
3.750100 2.123900
3.814700 1.969600
3.879200 1.791700
3.943800 1.544600
4.008300 1.474900
4.072900 1.335900
4.137400 1.235100
4.202000 1.182700
4.266500 1.113300
4.331000 1.056000
4.395600 1.018300
4.460100 0.987500
4.524700 0.885300
4.589200 0.872800
4.653800 0.856700
4.718300 0.831700
4.782900 0.812000
4.847400 0.798800
4.911900 0.811100
4.976500 0.823900
5.041000 0.937100
5.105600 1.122700
5.170100 1.196600
5.234700 1.288700
5.299200 1.187700
5.363800 1.122800
5.428300 1.136100
5.492800 1.164800
5.557400 1.166000
5.621900 1.210500
5.686500 1.260400
5.751000 1.377500
5.815600 1.420700
5.880100 1.319600
5.944700 1.320800
6.009200 1.279700
6.073700 1.214900
6.138300 1.176200
6.202800 1.183100
6.267400 1.229800
6.331900 1.280500
6.396500 1.339500
6.461000 1.341700
6.525600 1.311100
6.590100 1.240200
6.654600 1.210800
6.719200 1.179900
6.783700 1.141700
6.848300 1.123800
6.912800 1.121600
6.977400 1.120000
7.041900 1.132900
7.106500 1.142100
7.171000 1.161200
7.235500 1.204900
7.300100 1.223900
7.364600 1.227600
7.429200 1.233700
7.493700 1.240800
7.558300 1.241700
7.622800 1.226700
7.687400 1.193700
7.751900 1.211700
7.816400 1.231200
7.881000 1.237000
7.945500 1.258800
8.010100 1.239200
8.074600 1.232700
8.139200 1.237000
8.203700 1.223900
8.268300 1.201400
8.332800 1.168400
8.397300 1.129200
8.461900 1.138900
8.526400 1.129000
8.591000 1.128000
8.655500 1.127700
8.720100 1.132600
8.784600 1.126300
8.849200 1.142700
8.913700 1.180600
8.978200 1.226800
9.042800 1.245500
9.107300 1.287200
9.171900 1.346800
9.236400 1.385700
9.301000 1.395100
9.365500 1.383500
9.430100 1.373000
9.494600 1.387100
9.559100 1.396900
9.623700 1.414900
9.688200 1.431700
9.752800 1.491800
9.817300 1.523200
9.881900 1.531200
9.946400 1.561600
10.011000 1.585300
10.075500 1.579900
10.140000 1.573100
10.204600 1.554800
10.269100 1.565500
10.333700 1.584300
10.398200 1.575900
10.462800 1.534800
10.527300 1.566200
10.591900 1.456700
10.656400 1.443400
10.720900 1.422200
10.785500 1.420400
10.850000 1.423000
10.914600 1.416400
10.979100 1.382200
11.043700 1.352100
11.108200 1.386100
11.172800 1.365000
11.237300 1.329300
11.301800 1.288400
11.366400 1.268100
11.430900 1.328900
11.495500 1.313000
11.560000 1.312200
11.624600 1.315100
11.689100 1.332900
11.753700 1.385900
11.818200 1.432900
11.882800 1.447900
11.947300 1.521300
12.011800 1.511300
12.076400 1.502100
12.140900 1.550000
12.205500 1.522600
12.270000 1.522800
12.334600 1.478400
12.399100 1.462800
12.463700 1.498500
12.528200 1.596700
12.592700 1.692100
12.657300 1.755700
12.721800 1.717100
12.786400 1.644700
12.850900 1.620100
12.915500 1.646300
12.980000 1.701300
13.044600 1.666600
13.109100 1.692100
13.173600 1.658400
13.238200 1.629600
13.302700 1.652600
13.367300 1.868800
13.431800 1.766800
13.496400 1.733600
13.560900 1.719700
13.625500 1.710400
13.690000 1.726100
13.754500 1.703400
13.819100 1.715900
13.883600 1.793300
13.948200 1.842100
14.012700 1.750000
14.077300 1.705300
14.141800 1.696300
14.206400 1.722900
14.270900 1.806500
14.335400 1.823100
14.400000 1.785700
14.464500 1.710800
14.529100 1.690500
14.593600 1.712100
14.658200 1.755000
14.722700 1.811200
14.787300 1.854600
14.851800 1.828900
14.916300 1.784800
14.980900 1.712200
15.045400 1.696000
15.110000 1.767700
15.174500 1.787500
15.239100 1.740900
15.303600 1.778000
15.368200 1.680100
15.432700 1.584200
15.497200 1.555800
15.561800 1.618200
15.626300 1.611100
15.690900 1.666700
15.755400 1.735200
15.820000 1.783100
15.884500 1.785700
15.949100 1.753800
16.013600 1.711500
16.078100 1.707300
16.142700 1.736100
16.207200 1.783700
16.271800 1.763700
16.336300 1.760100
16.400900 1.690200
16.465400 1.677200
16.530000 1.665800
16.594500 1.732200
16.659000 1.751000
16.723600 1.756700
16.788100 1.729000
16.852700 1.697800
16.917200 1.655000
16.981800 1.623500
17.046300 1.561300
17.110900 1.506800
17.175400 1.466900
17.239900 1.456400
17.304500 1.444300
17.369000 1.433300
17.433600 1.427500
17.498100 1.468800
17.562700 1.496100
17.627200 1.547200
17.691800 1.546900
17.756300 1.543100
17.820800 1.532900
17.885400 1.501300
17.949900 1.460300
18.014500 1.445500
18.079000 1.460900
18.143600 1.434700
18.208100 1.417300
18.272700 1.409700
18.337200 1.418600
18.401700 1.379400
18.466300 1.339300
18.530800 1.351300
18.595400 1.392400
18.659900 1.427200
18.724500 1.443800
18.789000 1.434200
18.853600 1.390500
18.918100 1.368800
18.982600 1.352300
19.047200 1.352800
19.111700 1.351700
19.176300 1.376000
19.240800 1.373600
19.305400 1.377800
19.369900 1.384800
19.434500 1.409200
19.499000 1.422300
19.563500 1.451400
19.628100 1.502900
19.692600 1.541100
19.757200 1.545300
19.821700 1.562100
19.886300 1.572500
19.950800 1.581100
20.015400 1.624800
20.079900 1.678900
20.144500 1.732100
20.209000 1.788300
20.273500 1.828200
20.338100 1.863400
20.402600 1.928300
20.467200 1.946700
20.531700 1.904900
20.596300 1.829800
20.660800 1.786200
20.725400 1.730500
20.789900 1.697500
20.854400 1.718600
20.919000 1.752600
20.983500 1.759600
21.048100 1.780400
21.112600 1.792900
21.177200 1.778500
21.241700 1.792900
21.306300 1.849700
21.370800 1.948000
21.435300 2.045900
21.499900 2.109000
21.564400 2.063800
21.629000 2.069200
21.693500 2.004900
21.758100 2.039700
21.822600 2.052900
21.887200 1.999600
21.951700 1.990500
22.016200 1.956400
22.080800 1.940000
22.145300 1.922400
22.209900 1.936700
22.274400 2.055000
22.339000 2.071700
22.403500 2.227700
22.468100 2.272800
22.532600 2.188100
22.597100 2.076300
22.661700 1.981800
22.726200 1.940000
22.790800 1.934300
22.855300 2.022400
22.919900 1.961800
22.984400 2.017900
23.049000 2.057900
23.113500 2.092200
23.178000 2.126600
23.242600 2.100200
23.307100 2.097300
23.371700 2.135200
23.436200 2.188800
23.500800 2.246000
23.565300 2.306300
23.629900 2.379800
23.694400 2.560900
23.758900 2.468600
23.823500 2.185800
23.888000 2.094500
23.952600 2.060600
24.017100 1.854100
24.081700 1.736600
24.146200 1.618500
24.210800 1.580100
24.275300 1.607700
24.339800 1.727700
24.404400 1.903700
24.468900 1.969500
24.533500 1.974600
24.598000 1.882500
24.662600 1.885600
24.727100 1.906200
24.791700 1.907600
24.856200 1.951200
24.920700 2.121400
24.985300 2.066500
25.049800 2.004300
25.114400 1.942800
25.178900 1.912500
25.243500 1.953300
25.308000 1.994300
25.372600 2.005400
25.437100 2.042400
25.501600 2.417200
25.566200 2.416200
25.630700 2.377100
25.695300 2.319300
25.759800 2.347300
25.824400 2.271300
25.888900 2.163600
25.953500 2.001200
26.018000 1.854900
26.082500 1.804300
26.147100 1.649900
26.211600 1.681100
26.276200 1.738200
26.340700 1.790300
26.405300 1.909200
26.469800 2.038900
26.534400 1.989500
26.598900 1.930500
26.663400 1.800100
26.728000 1.733200
26.792500 1.694100
26.857100 1.707300
26.921600 1.765900
26.986200 1.830000
27.050700 1.891300
27.115300 1.897900
27.179800 1.955800
27.244300 1.935700
27.308900 1.928400
27.373400 1.902800
27.438000 1.893000
27.502500 1.881000
27.567100 1.867900
27.631600 1.851500
27.696200 1.645800
27.760700 1.589200
27.825200 1.572400
27.889800 1.556700
27.954300 1.553800
28.018900 1.606900
28.083400 1.513100
28.148000 1.526800
28.212500 1.523000
28.277100 1.543100
28.341600 1.739500
28.406200 1.674600
28.470700 1.743300
28.535200 1.836100
28.599800 2.144900
28.664300 1.948700
28.728900 1.969000
28.793400 1.987200
28.858000 2.032500
28.922500 2.006900
28.987100 1.990700
29.051600 2.051100
29.116100 1.958400
29.180700 1.841700
29.245200 1.806200
29.309800 1.776200
29.374300 1.794100
29.438900 1.864000
29.503400 1.935900
29.568000 1.976800
29.632500 2.027800
29.697000 2.089200
29.761600 2.240900
29.826100 2.374400
29.890700 2.429200
29.955200 2.352800
30.019800 2.371200
30.084300 2.430900
30.148900 2.487100
30.213400 2.474300
30.277900 2.323400
30.342500 2.207400
30.407000 2.110200
30.471600 2.054100
30.536100 1.942800
30.600700 1.911000
30.665200 1.944500
30.729800 2.007700
30.794300 2.094400
30.858800 2.208500
30.923400 2.094200
30.987900 2.050000
31.052500 1.941200
31.117000 1.904100
31.181600 1.860700
31.246100 1.873900
31.310700 1.923900
31.375200 1.951100
31.439700 2.016600
31.504300 2.071400
31.568800 2.048500
31.633400 2.113900
31.697900 2.182300
31.762500 2.225400
31.827000 2.269700
31.891600 2.284100
31.956100 2.322700
32.020600 2.328900
32.085200 2.419500
32.149700 2.463400
32.214300 2.482300
32.278800 2.461700
32.343400 2.437100
32.407900 2.453200
32.472500 2.382900
32.537000 2.246900
32.601500 2.136900
32.666100 2.089200
32.730600 2.108100
32.795200 2.122900
32.859700 2.141600
32.924300 2.159000
32.988800 2.204900
33.053400 2.217100
33.117900 2.247200
33.182400 2.329300
33.247000 2.268600
33.311500 2.180100
33.376100 2.123400
33.440600 2.084100
33.505200 2.097900
33.569700 2.069300
33.634300 2.116400
33.698800 2.193400
33.763300 2.198000
33.827900 2.235500
33.892400 2.261700
33.957000 2.270100
34.021500 2.334500
34.086100 2.342200
34.150600 2.412600
34.215200 2.331200
34.279700 2.263300
34.344200 2.282300
34.408800 2.196500
34.473300 2.215300
34.537900 2.261600
34.602400 2.337600
34.667000 2.347900
34.731500 2.311400
34.796100 2.327200
34.860600 2.364400
34.925100 2.188600
34.989700 2.147900
35.054200 2.096700
35.118800 2.114100
35.183300 2.090800
35.247900 2.104500
35.312400 2.136500
35.377000 2.206300
35.441500 2.246100
35.506000 2.288400
35.570600 2.302900
35.635100 2.298000
35.699700 2.296500
35.764200 2.338300
35.828800 2.373900
35.893300 2.412100
35.957900 2.418800
36.022400 2.409000
36.086900 2.422500
36.151500 2.510000
36.216000 2.539600
36.280600 2.482200
36.345100 2.434600
36.409700 2.435300
36.474200 2.396200
36.538800 2.359300
36.603300 2.353000
36.667900 2.289600
36.732400 2.263700
36.796900 2.280000
36.861500 2.283400
36.926000 2.382500
36.990600 2.457300
37.055100 2.531300
37.119700 2.611100
37.184200 2.555400
37.248800 2.500600
37.313300 2.417300
37.377800 2.363800
37.442400 2.325300
37.506900 2.354400
37.571500 2.354100
37.636000 2.583400
37.700600 2.362700
37.765100 2.373600
37.829700 2.399300
37.894200 2.446500
37.958700 2.482000
38.023300 2.520500
38.087800 2.535900
38.152400 2.578200
38.216900 2.566100
38.281500 2.584800
38.346000 2.531200
38.410600 2.530400
38.475100 2.532800
38.539600 2.555900
38.604200 2.548400
38.668700 2.518800
38.733300 2.482400
38.797800 2.402600
38.862400 2.373300
38.926900 2.354600
38.991500 2.350000
39.056000 2.403700
39.120500 2.335800
39.185100 2.301800
39.249600 2.291000
39.314200 2.281300
39.378700 2.300100
39.443300 2.327300
39.507800 2.371700
39.572400 2.539200
39.636900 2.581200
39.701400 2.668900
39.766000 2.803600
39.830500 2.878500
39.895100 2.862600
39.959600 2.778400
40.024200 2.611300
40.088700 2.531600
40.153300 2.525100
40.217800 2.481200
40.282300 2.465500
40.346900 2.471200
40.411400 2.436300
40.476000 2.455900
40.540500 2.519300
40.605100 2.574700
40.669600 2.586700
40.734200 2.581300
40.798700 2.629900
40.863200 2.694700
40.927800 2.722000
40.992300 2.769900
41.056900 2.803800
41.121400 2.814700
41.186000 2.827600
41.250500 2.861900
41.315100 2.940400
41.379600 2.994500
41.444100 3.110000
41.508700 3.239100
41.573200 3.236500
41.637800 3.287700
41.702300 3.316500
41.766900 3.340000
41.831400 3.448200
41.896000 3.587700
41.960500 3.792200
42.025000 4.052900
42.089600 4.400100
42.154100 4.589600
42.218700 4.682100
42.283200 4.746700
42.347800 4.417800
42.412300 4.057000
42.476900 3.950100
42.541400 3.686200
42.605900 3.648900
42.670500 3.657500
42.735000 3.592300
42.799600 3.403100
42.864100 3.250700
42.928700 3.050600
42.993200 2.844600
43.057800 2.688200
43.122300 2.676500
43.186800 2.720500
43.251400 2.820400
43.315900 2.828700
43.380500 2.806500
43.445000 2.829300
43.509600 2.852300
43.574100 2.826500
43.638700 2.863000
43.703200 2.938600
43.767700 2.904400
43.832300 2.877000
43.896800 2.725600
43.961400 2.654100
44.025900 2.628200
44.090500 2.656800
44.155000 2.802600
44.219600 2.977000
44.284100 3.147100
44.348600 3.050100
44.413200 2.856200
44.477700 2.699400
44.542300 2.594400
44.606800 2.534200
44.671400 2.557600
44.735900 2.593800
44.800500 2.611100
44.865000 2.619200
44.929600 2.587500
44.994100 2.570000
45.058600 2.529700
45.123200 2.376100
45.187700 2.362200
45.252300 2.372300
45.316800 2.373100
45.381400 2.347600
45.445900 2.311300
45.510500 2.338400
45.575000 2.351500
45.639500 2.366800
45.704100 2.466000
45.768600 2.506100
45.833200 2.499200
45.897700 2.507100
45.962300 2.506000
46.026800 2.490200
46.091400 2.409900
46.155900 2.379000
46.220400 2.393000
46.285000 2.378000
46.349500 2.388300
46.414100 2.388800
46.478600 2.392800
46.543200 2.376200
46.607700 2.337900
46.672300 2.277300
46.736800 2.287900
46.801300 2.327600
46.865900 2.404000
46.930400 2.460200
46.995000 2.539900
47.059500 2.577900
47.124100 2.722200
47.188600 2.544100
47.253200 2.616400
47.317700 2.657600
47.382200 2.732500
47.446800 2.750900
47.511300 2.766700
47.575900 2.831700
47.640400 2.831300
47.705000 2.799900
47.769500 2.856900
47.834100 2.881800
47.898600 2.793100
47.963100 2.717900
48.027700 2.737000
48.092200 2.773800
48.156800 2.860300
48.221300 2.903800
48.285900 2.897800
48.350400 2.769900
48.415000 2.657700
48.479500 2.508600
48.544000 2.410600
48.608600 2.357300
48.673100 2.308500
48.737700 2.273000
48.802200 2.246700
48.866800 2.269300
48.931300 2.322500
48.995900 2.431200
49.060400 2.537600
49.124900 2.505500
49.189500 2.463700
49.254000 2.479300
49.318600 2.465000
49.383100 2.502800
49.447700 2.443800
49.512200 2.412900
49.576800 2.366700
49.641300 2.407000
49.705800 2.441500
49.770400 2.498100
49.834900 2.484700
49.899500 2.415800
49.964000 2.388800
50.028600 2.359700
50.093100 2.354500
50.157700 2.362800
50.222200 2.406400
50.286700 2.417400
50.351300 2.511800
50.415800 2.601000
50.480400 2.749600
50.544900 2.922000
50.609500 2.975500
50.674000 3.075400
50.738600 3.000400
50.803100 2.932800
50.867600 2.916900
50.932200 2.980700
50.996700 3.128600
51.061300 3.052900
51.125800 3.063900
51.190400 3.134900
51.254900 3.230700
51.319500 3.225200
51.384000 2.960000
51.448500 2.941100
51.513100 2.725600
51.577600 2.597500
51.642200 2.557400
51.706700 2.480700
51.771300 2.447700
51.835800 2.480000
51.900400 2.533000
51.964900 2.649500
52.029400 2.612100
52.094000 2.620500
52.158500 2.609900
52.223100 2.619000
52.287600 2.641300
52.352200 2.619200
52.416700 2.583200
52.481300 2.596600
52.545800 2.692600
52.610300 2.624800
52.674900 2.547400
52.739400 2.517900
52.804000 2.524400
52.868500 2.611000
52.933100 2.552100
52.997600 2.567500
53.062200 2.602700
53.126700 2.644600
53.191300 2.738600
53.255800 2.801700
53.320300 2.810100
53.384900 2.803400
53.449400 2.741000
53.514000 2.743000
53.578500 2.733300
53.643100 2.781100
53.707600 2.828600
53.772200 2.838400
53.836700 2.773100
53.901200 2.729100
53.965800 2.642800
54.030300 2.609800
54.094900 2.653200
54.159400 2.492600
54.224000 2.383400
54.288500 2.361300
54.353100 2.349900
54.417600 2.345100
54.482100 2.269800
54.546700 2.206800
54.611200 2.139900
54.675800 2.067000
54.740300 1.998900
54.804900 1.940500
54.869400 1.907900
54.934000 1.876000
54.998500 1.858400
55.063000 1.865900
55.127600 1.978800
55.192100 1.917300
55.256700 1.824000
55.321200 1.756800
55.385800 1.664300
55.450300 1.543500
55.514900 1.455700
55.579400 1.375600
55.643900 1.300100
55.708500 1.230700
55.773000 1.172700
55.837600 1.104600
55.902100 1.077400
55.966700 1.038700
56.031200 0.989100
56.095800 0.907500
56.160300 0.818400
56.224800 0.747600
56.289400 0.683400
56.353900 0.601400
56.418500 0.577200
56.483000 0.540400
56.547600 0.491000
56.612100 0.460900
56.676700 0.434900
56.741200 0.389500
56.805700 0.336100
56.870300 0.288400
56.934800 0.247100
56.999400 0.219100
57.063900 0.196100
57.128500 0.180600
57.193000 0.153700
57.257600 0.144900
57.322100 0.131700
57.386600 0.119800
57.451200 0.112100
57.515700 0.111400
57.580300 0.087900
57.644800 0.063000
57.709400 0.041300
57.773900 0.022400
57.838500 0.015800
57.903000 0.011800
57.967500 0.008100
58.032100 0.004700
58.096600 0.002500
58.161200 0.001600
58.225700 0.000900
58.290300 0.000400
58.354800 0.000100
58.419400 0.000000
58.483900 0.000000
58.548400 0.000000
58.613000 0.000000
58.677500 0.000000
58.742100 0.000000
58.806600 0.000000
58.871200 0.000000
58.935700 0.000000
59.000300 0.000000
59.064800 0.000000
59.129300 0.000000
59.193900 0.000000
59.258400 0.000000
59.323000 0.000000
59.387500 0.000000
59.452100 0.000000
59.516600 0.000000
59.581200 0.000000
59.645700 0.000000
59.710200 0.000000
59.774800 0.000000
59.839300 0.000000
59.903900 0.000000
59.968400 0.000000
60.033000 0.000000
60.097500 0.000000
60.162100 0.000000
60.226600 0.000000
60.291100 0.000000
60.355700 0.000000
60.420200 0.000000
60.484800 0.000000
60.549300 0.000000
60.613900 0.000000
60.678400 0.000000
60.743000 0.000000
60.807500 0.000000
60.872000 0.000000
60.936600 0.000000
61.001100 0.000000
61.065700 0.000000
61.130200 0.000000
61.194800 0.000000
61.259300 0.000000
61.323900 0.000000
61.388400 0.000000
61.453000 0.000000
61.517500 0.000000
61.582000 0.000000
61.646600 0.000000
61.711100 0.000000
61.775700 0.000000
61.840200 0.000000
61.904800 0.000000
61.969300 0.000000
62.033900 0.000000
62.098400 0.000000
62.162900 0.000000
62.227500 0.000000
62.292000 0.000000
62.356600 0.000000
62.421100 0.000000
62.485700 0.000000
62.550200 0.000000
62.614800 0.000000
62.679300 0.000000
62.743800 0.000000
62.808400 0.000000
62.872900 0.000000
62.937500 0.000000
63.002000 0.000000
63.066600 0.000000
63.131100 0.000000
63.195700 0.000000
63.260200 0.000000
63.324700 0.000000
63.389300 0.000000
63.453800 0.000000
63.518400 0.000000
63.582900 0.000000
63.647500 0.000000
63.712000 0.000000
63.776600 0.000000
63.841100 0.000000
63.905600 0.000000
63.970200 0.000000
64.034700 0.000000
64.099300 0.000000
64.163800 0.000000
64.228400 0.000000
64.292900 0.000000
e
