set title 'mp-755690 - Density of States'
set xlabel 'Energy (eV)'
set ylabel 'DOS (states/eV)'
set grid
set xrange [-10:10]
set yrange [0:10.205]
set xzeroaxis lt -1
set terminal png size 800,600
set output 'mp-755690_dos_gnuplot.png'
plot '-' using 1:2 with lines title 'DOS'
-31.676000 0.000000
-31.645100 0.000000
-31.614200 0.000000
-31.583300 0.000000
-31.552400 0.000000
-31.521500 0.000000
-31.490600 0.000000
-31.459700 0.000000
-31.428800 0.000000
-31.397900 0.000000
-31.367000 0.000000
-31.336100 0.000000
-31.305200 0.000000
-31.274300 0.000000
-31.243400 0.000000
-31.212500 0.000000
-31.181600 0.000000
-31.150700 0.000000
-31.119800 0.000000
-31.088900 0.000000
-31.057900 0.000000
-31.027000 0.000000
-30.996100 0.000000
-30.965200 0.000000
-30.934300 0.000000
-30.903400 0.000000
-30.872500 0.000000
-30.841600 0.000000
-30.810700 0.000000
-30.779800 0.000000
-30.748900 0.000000
-30.718000 0.000000
-30.687100 0.000000
-30.656200 0.000000
-30.625300 0.000000
-30.594400 0.000000
-30.563500 0.000000
-30.532600 0.000000
-30.501700 0.000000
-30.470800 0.000000
-30.439900 0.000000
-30.408900 0.000000
-30.378000 0.000000
-30.347100 0.000000
-30.316200 0.000000
-30.285300 0.000000
-30.254400 0.000000
-30.223500 0.000000
-30.192600 0.000000
-30.161700 0.000000
-30.130800 0.000000
-30.099900 0.000000
-30.069000 0.000000
-30.038100 0.000000
-30.007200 0.000000
-29.976300 0.000000
-29.945400 0.000000
-29.914500 0.000000
-29.883600 0.000000
-29.852700 0.000000
-29.821800 0.000000
-29.790800 0.000000
-29.759900 0.000000
-29.729000 0.000000
-29.698100 0.000000
-29.667200 0.000000
-29.636300 0.000000
-29.605400 0.000000
-29.574500 0.000000
-29.543600 0.000000
-29.512700 0.000000
-29.481800 0.000000
-29.450900 0.000000
-29.420000 0.000000
-29.389100 0.000000
-29.358200 0.000000
-29.327300 0.000000
-29.296400 0.000000
-29.265500 0.000000
-29.234600 0.000000
-29.203700 0.000000
-29.172800 0.000000
-29.141800 0.000000
-29.110900 0.000000
-29.080000 0.000000
-29.049100 0.000000
-29.018200 0.000000
-28.987300 0.000000
-28.956400 0.000000
-28.925500 0.000000
-28.894600 0.000000
-28.863700 8.215900
-28.832800 32.291700
-28.801900 20.274600
-28.771000 21.611000
-28.740100 18.377200
-28.709200 11.342000
-28.678300 10.250000
-28.647400 42.240200
-28.616500 17.164800
-28.585600 7.614600
-28.554700 7.795900
-28.523800 8.185100
-28.492800 9.343600
-28.461900 12.637700
-28.431000 15.427900
-28.400100 13.304800
-28.369200 17.243400
-28.338300 13.334900
-28.307400 12.168500
-28.276500 11.904300
-28.245600 11.200600
-28.214700 19.137100
-28.183800 19.522300
-28.152900 11.567800
-28.122000 0.000000
-28.091100 0.000000
-28.060200 0.000000
-28.029300 0.000000
-27.998400 0.000000
-27.967500 0.000000
-27.936600 0.000000
-27.905700 0.000000
-27.874800 0.000000
-27.843800 0.000000
-27.812900 0.000000
-27.782000 0.000000
-27.751100 0.000000
-27.720200 0.000000
-27.689300 0.000000
-27.658400 0.000000
-27.627500 0.000000
-27.596600 0.000000
-27.565700 0.000000
-27.534800 0.000000
-27.503900 0.000000
-27.473000 0.000000
-27.442100 0.000000
-27.411200 0.000000
-27.380300 0.000000
-27.349400 0.000000
-27.318500 0.000000
-27.287600 0.000000
-27.256700 0.000000
-27.225800 0.000000
-27.194800 0.000000
-27.163900 0.000000
-27.133000 0.000000
-27.102100 0.000000
-27.071200 0.000000
-27.040300 0.000000
-27.009400 0.000000
-26.978500 0.000000
-26.947600 0.000000
-26.916700 0.000000
-26.885800 0.000000
-26.854900 0.000000
-26.824000 0.000000
-26.793100 0.000000
-26.762200 0.000000
-26.731300 0.000000
-26.700400 0.000000
-26.669500 0.000000
-26.638600 0.000000
-26.607700 0.000000
-26.576700 0.000000
-26.545800 0.000000
-26.514900 0.000000
-26.484000 0.000000
-26.453100 0.000000
-26.422200 0.000000
-26.391300 0.000000
-26.360400 0.000000
-26.329500 0.000000
-26.298600 0.000000
-26.267700 0.000000
-26.236800 0.000000
-26.205900 0.000000
-26.175000 0.000000
-26.144100 0.000000
-26.113200 0.000000
-26.082300 0.000000
-26.051400 0.000000
-26.020500 0.000000
-25.989600 0.000000
-25.958700 0.000000
-25.927700 0.000000
-25.896800 0.000000
-25.865900 0.000000
-25.835000 0.000000
-25.804100 0.000000
-25.773200 0.000000
-25.742300 0.000000
-25.711400 0.000000
-25.680500 0.000000
-25.649600 0.000000
-25.618700 0.000000
-25.587800 0.000000
-25.556900 0.000000
-25.526000 0.000000
-25.495100 0.000000
-25.464200 0.000000
-25.433300 0.000000
-25.402400 0.000000
-25.371500 0.000000
-25.340600 0.000000
-25.309700 0.000000
-25.278700 0.000000
-25.247800 0.000000
-25.216900 0.000000
-25.186000 0.000000
-25.155100 0.000000
-25.124200 0.000000
-25.093300 0.000000
-25.062400 0.000000
-25.031500 0.000000
-25.000600 0.000000
-24.969700 0.000000
-24.938800 0.000000
-24.907900 0.000000
-24.877000 0.000000
-24.846100 0.000000
-24.815200 0.000000
-24.784300 0.000000
-24.753400 0.000000
-24.722500 0.000000
-24.691600 0.000000
-24.660700 0.000000
-24.629700 0.000000
-24.598800 0.000000
-24.567900 0.000000
-24.537000 0.000000
-24.506100 0.000000
-24.475200 0.000000
-24.444300 0.000000
-24.413400 0.000000
-24.382500 0.000000
-24.351600 0.000000
-24.320700 0.000000
-24.289800 0.000000
-24.258900 0.000000
-24.228000 0.000000
-24.197100 0.000000
-24.166200 0.000000
-24.135300 0.000000
-24.104400 0.000000
-24.073500 0.000000
-24.042600 0.000000
-24.011700 0.000000
-23.980700 0.000000
-23.949800 0.000000
-23.918900 0.000000
-23.888000 0.000000
-23.857100 0.000000
-23.826200 0.000000
-23.795300 0.000000
-23.764400 0.000000
-23.733500 0.000000
-23.702600 0.000000
-23.671700 0.000000
-23.640800 0.000000
-23.609900 0.000000
-23.579000 0.000000
-23.548100 0.000000
-23.517200 0.000000
-23.486300 0.000000
-23.455400 0.000000
-23.424500 0.000000
-23.393600 0.000000
-23.362600 0.000000
-23.331700 0.000000
-23.300800 0.000000
-23.269900 0.000000
-23.239000 0.000000
-23.208100 0.000000
-23.177200 0.000000
-23.146300 0.000000
-23.115400 0.000000
-23.084500 0.000000
-23.053600 0.000000
-23.022700 0.000000
-22.991800 0.000000
-22.960900 0.000000
-22.930000 0.000000
-22.899100 0.000000
-22.868200 0.000000
-22.837300 0.000000
-22.806400 0.000000
-22.775500 0.000000
-22.744600 0.000000
-22.713600 0.000000
-22.682700 0.000000
-22.651800 0.000000
-22.620900 0.000000
-22.590000 0.000000
-22.559100 0.000000
-22.528200 0.000000
-22.497300 0.000000
-22.466400 0.000000
-22.435500 0.000000
-22.404600 0.000000
-22.373700 0.000000
-22.342800 0.000000
-22.311900 0.000000
-22.281000 0.000000
-22.250100 0.000000
-22.219200 0.000000
-22.188300 0.000000
-22.157400 0.000000
-22.126500 0.000000
-22.095600 0.000000
-22.064600 0.000000
-22.033700 0.000000
-22.002800 0.000000
-21.971900 0.000000
-21.941000 0.000000
-21.910100 0.000000
-21.879200 0.000000
-21.848300 0.000000
-21.817400 0.000000
-21.786500 0.000000
-21.755600 0.000000
-21.724700 0.000000
-21.693800 0.000000
-21.662900 0.000000
-21.632000 0.000000
-21.601100 0.000000
-21.570200 0.000000
-21.539300 0.000000
-21.508400 0.000000
-21.477500 0.000000
-21.446600 0.000000
-21.415600 0.000000
-21.384700 0.000000
-21.353800 0.000000
-21.322900 0.000000
-21.292000 0.000000
-21.261100 0.000000
-21.230200 0.000000
-21.199300 0.000000
-21.168400 0.000000
-21.137500 0.000000
-21.106600 0.000000
-21.075700 0.000000
-21.044800 0.000000
-21.013900 0.000000
-20.983000 0.000000
-20.952100 0.000000
-20.921200 0.000000
-20.890300 0.000000
-20.859400 0.000000
-20.828500 0.000000
-20.797600 0.000000
-20.766600 0.000000
-20.735700 0.000000
-20.704800 0.000000
-20.673900 0.000000
-20.643000 0.000000
-20.612100 0.000000
-20.581200 0.000000
-20.550300 0.000000
-20.519400 0.000000
-20.488500 0.000000
-20.457600 0.000000
-20.426700 0.000000
-20.395800 0.000000
-20.364900 0.000000
-20.334000 0.000000
-20.303100 0.000000
-20.272200 0.000000
-20.241300 0.000000
-20.210400 0.000000
-20.179500 0.000000
-20.148500 0.000000
-20.117600 0.000000
-20.086700 0.000000
-20.055800 0.000000
-20.024900 0.000000
-19.994000 0.000000
-19.963100 0.000000
-19.932200 0.000000
-19.901300 0.000000
-19.870400 0.000000
-19.839500 0.000000
-19.808600 0.000000
-19.777700 0.000000
-19.746800 0.000000
-19.715900 0.000000
-19.685000 0.000000
-19.654100 0.000000
-19.623200 0.000000
-19.592300 0.000000
-19.561400 0.000000
-19.530500 0.000000
-19.499500 0.000000
-19.468600 0.000000
-19.437700 0.000000
-19.406800 0.000000
-19.375900 0.000000
-19.345000 0.000000
-19.314100 0.000000
-19.283200 0.000000
-19.252300 0.000000
-19.221400 0.000000
-19.190500 0.000000
-19.159600 0.000000
-19.128700 0.000000
-19.097800 0.000000
-19.066900 0.000000
-19.036000 0.000000
-19.005100 0.000000
-18.974200 0.000000
-18.943300 0.000000
-18.912400 0.000000
-18.881500 0.000000
-18.850500 0.000000
-18.819600 0.000000
-18.788700 0.000000
-18.757800 0.000000
-18.726900 0.000000
-18.696000 0.000000
-18.665100 0.000000
-18.634200 0.000000
-18.603300 0.000000
-18.572400 0.000000
-18.541500 0.000000
-18.510600 0.000000
-18.479700 0.000000
-18.448800 0.000000
-18.417900 0.000000
-18.387000 0.000000
-18.356100 0.000000
-18.325200 0.000000
-18.294300 0.000000
-18.263400 0.000000
-18.232500 0.000000
-18.201500 0.000000
-18.170600 0.000000
-18.139700 0.000000
-18.108800 0.000000
-18.077900 0.000000
-18.047000 0.000000
-18.016100 0.000000
-17.985200 0.000000
-17.954300 0.000000
-17.923400 0.000000
-17.892500 0.000000
-17.861600 0.000000
-17.830700 0.000000
-17.799800 0.000000
-17.768900 0.000000
-17.738000 0.000000
-17.707100 0.000000
-17.676200 0.000000
-17.645300 0.000000
-17.614400 0.000000
-17.583500 0.000000
-17.552500 0.000000
-17.521600 0.000000
-17.490700 0.000000
-17.459800 0.000000
-17.428900 0.000000
-17.398000 0.000000
-17.367100 0.000000
-17.336200 0.000000
-17.305300 0.000000
-17.274400 0.000000
-17.243500 0.000000
-17.212600 0.000000
-17.181700 0.000000
-17.150800 0.000000
-17.119900 0.000000
-17.089000 0.000000
-17.058100 0.000000
-17.027200 0.000000
-16.996300 0.000000
-16.965400 0.000000
-16.934400 0.000000
-16.903500 0.000000
-16.872600 0.000000
-16.841700 0.000000
-16.810800 0.000000
-16.779900 0.000000
-16.749000 0.000000
-16.718100 0.000000
-16.687200 0.000000
-16.656300 0.000000
-16.625400 0.000000
-16.594500 0.000000
-16.563600 0.000000
-16.532700 0.000000
-16.501800 0.000000
-16.470900 0.000000
-16.440000 0.000000
-16.409100 0.000000
-16.378200 0.000000
-16.347300 0.000000
-16.316400 0.000000
-16.285400 0.000000
-16.254500 0.000000
-16.223600 0.000000
-16.192700 0.000000
-16.161800 0.000000
-16.130900 0.000000
-16.100000 0.000000
-16.069100 0.000000
-16.038200 0.000000
-16.007300 0.000000
-15.976400 0.000000
-15.945500 0.000000
-15.914600 0.000000
-15.883700 0.000000
-15.852800 0.000000
-15.821900 0.000000
-15.791000 0.000000
-15.760100 0.022400
-15.729200 0.205400
-15.698300 0.339900
-15.667400 0.422100
-15.636400 0.512600
-15.605500 0.618900
-15.574600 0.719500
-15.543700 0.819400
-15.512800 0.931900
-15.481900 1.063300
-15.451000 1.230400
-15.420100 1.433700
-15.389200 1.671900
-15.358300 2.020600
-15.327400 2.671900
-15.296500 4.885300
-15.265600 6.713200
-15.234700 6.806800
-15.203800 8.669200
-15.172900 11.131600
-15.142000 8.620800
-15.111100 6.007800
-15.080200 5.875500
-15.049300 5.755300
-15.018400 5.657600
-14.987400 5.583900
-14.956500 5.448900
-14.925600 5.519300
-14.894700 6.272600
-14.863800 5.778400
-14.832900 5.825100
-14.802000 5.910600
-14.771100 5.852800
-14.740200 5.766900
-14.709300 5.712600
-14.678400 5.665100
-14.647500 5.690200
-14.616600 5.743100
-14.585700 5.836100
-14.554800 6.024700
-14.523900 6.288000
-14.493000 6.812100
-14.462100 6.995100
-14.431200 7.039200
-14.400300 5.710500
-14.369400 8.569100
-14.338400 9.127900
-14.307500 6.831600
-14.276600 6.159100
-14.245700 5.939300
-14.214800 9.135000
-14.183900 4.497300
-14.153000 2.159300
-14.122100 0.000000
-14.091200 0.000000
-14.060300 0.000000
-14.029400 0.000000
-13.998500 0.000000
-13.967600 0.000000
-13.936700 0.000000
-13.905800 0.000000
-13.874900 0.000000
-13.844000 0.000000
-13.813100 0.000000
-13.782200 0.000000
-13.751300 0.000000
-13.720300 0.000000
-13.689400 0.000000
-13.658500 0.000000
-13.627600 0.000000
-13.596700 0.000000
-13.565800 0.000000
-13.534900 0.000000
-13.504000 0.000000
-13.473100 0.000000
-13.442200 0.000000
-13.411300 0.000000
-13.380400 0.000000
-13.349500 0.000000
-13.318600 0.000000
-13.287700 0.000000
-13.256800 0.000000
-13.225900 0.000000
-13.195000 0.000000
-13.164100 0.000000
-13.133200 0.000000
-13.102300 0.000000
-13.071300 0.000000
-13.040400 0.000000
-13.009500 0.000000
-12.978600 0.000000
-12.947700 0.000000
-12.916800 0.000000
-12.885900 0.000000
-12.855000 0.000000
-12.824100 0.000000
-12.793200 0.000000
-12.762300 0.000000
-12.731400 0.000000
-12.700500 0.000000
-12.669600 0.000000
-12.638700 0.000000
-12.607800 0.000000
-12.576900 0.000000
-12.546000 0.000000
-12.515100 0.000000
-12.484200 0.000000
-12.453300 0.000000
-12.422300 0.000000
-12.391400 0.000000
-12.360500 0.000000
-12.329600 0.000000
-12.298700 0.000000
-12.267800 0.000000
-12.236900 0.000000
-12.206000 0.000000
-12.175100 0.000000
-12.144200 0.000000
-12.113300 0.000000
-12.082400 0.000000
-12.051500 0.000000
-12.020600 0.000000
-11.989700 0.000000
-11.958800 0.000000
-11.927900 0.000000
-11.897000 0.000000
-11.866100 0.000000
-11.835200 0.000000
-11.804300 0.000000
-11.773300 0.000000
-11.742400 0.000000
-11.711500 0.000000
-11.680600 0.000000
-11.649700 0.000000
-11.618800 0.000000
-11.587900 0.000000
-11.557000 0.000000
-11.526100 0.000000
-11.495200 0.000000
-11.464300 0.000000
-11.433400 0.000000
-11.402500 0.000000
-11.371600 0.000000
-11.340700 0.000000
-11.309800 0.000000
-11.278900 0.000000
-11.248000 0.000000
-11.217100 0.000000
-11.186200 0.000000
-11.155300 0.000000
-11.124300 0.000000
-11.093400 0.000000
-11.062500 0.000000
-11.031600 0.000000
-11.000700 0.000000
-10.969800 0.000000
-10.938900 0.000000
-10.908000 0.000000
-10.877100 0.000000
-10.846200 0.000000
-10.815300 0.000000
-10.784400 0.000000
-10.753500 0.000000
-10.722600 0.000000
-10.691700 0.000000
-10.660800 0.000000
-10.629900 0.000000
-10.599000 0.000000
-10.568100 0.000000
-10.537200 0.000000
-10.506200 0.000000
-10.475300 0.000000
-10.444400 0.000000
-10.413500 0.000000
-10.382600 0.000000
-10.351700 0.000000
-10.320800 0.000000
-10.289900 0.000000
-10.259000 0.000000
-10.228100 0.000000
-10.197200 0.000000
-10.166300 0.000000
-10.135400 0.000000
-10.104500 0.000000
-10.073600 0.000000
-10.042700 0.000000
-10.011800 0.000000
-9.980900 0.000000
-9.950000 0.000000
-9.919100 0.000000
-9.888200 0.000000
-9.857200 0.000000
-9.826300 0.000000
-9.795400 0.000000
-9.764500 0.000000
-9.733600 0.000000
-9.702700 0.000000
-9.671800 0.000000
-9.640900 0.000000
-9.610000 0.000000
-9.579100 0.000000
-9.548200 0.000000
-9.517300 0.000000
-9.486400 0.000000
-9.455500 0.000000
-9.424600 0.000000
-9.393700 0.000000
-9.362800 0.000000
-9.331900 0.000000
-9.301000 0.000000
-9.270100 0.000000
-9.239200 0.000000
-9.208200 0.000000
-9.177300 0.000000
-9.146400 0.000000
-9.115500 0.000000
-9.084600 0.000000
-9.053700 0.000000
-9.022800 0.000000
-8.991900 0.000000
-8.961000 0.000000
-8.930100 0.000000
-8.899200 0.000000
-8.868300 0.000000
-8.837400 0.000000
-8.806500 0.000000
-8.775600 0.000000
-8.744700 0.000000
-8.713800 0.000000
-8.682900 0.000000
-8.652000 0.000000
-8.621100 0.000000
-8.590200 0.000000
-8.559200 0.000000
-8.528300 0.000000
-8.497400 0.000000
-8.466500 0.000000
-8.435600 0.000000
-8.404700 0.000000
-8.373800 0.000000
-8.342900 0.000000
-8.312000 0.000000
-8.281100 0.000000
-8.250200 0.000000
-8.219300 0.000000
-8.188400 0.000000
-8.157500 0.000000
-8.126600 0.000000
-8.095700 0.000000
-8.064800 0.000000
-8.033900 0.000000
-8.003000 0.000000
-7.972100 0.000000
-7.941100 0.000000
-7.910200 0.000000
-7.879300 0.000000
-7.848400 0.000000
-7.817500 0.000000
-7.786600 0.000000
-7.755700 0.000000
-7.724800 0.000000
-7.693900 0.000000
-7.663000 0.000000
-7.632100 0.000000
-7.601200 0.000000
-7.570300 0.000000
-7.539400 0.000000
-7.508500 0.000000
-7.477600 0.000000
-7.446700 0.000000
-7.415800 0.000000
-7.384900 0.000000
-7.354000 0.000000
-7.323100 0.000000
-7.292100 0.000000
-7.261200 0.000000
-7.230300 0.000000
-7.199400 0.000000
-7.168500 0.000000
-7.137600 0.000000
-7.106700 0.000000
-7.075800 0.000000
-7.044900 0.000000
-7.014000 0.000000
-6.983100 0.000000
-6.952200 0.000000
-6.921300 0.000000
-6.890400 0.000000
-6.859500 0.000000
-6.828600 0.000000
-6.797700 0.000000
-6.766800 0.000000
-6.735900 0.000000
-6.705000 0.000000
-6.674100 0.000000
-6.643100 0.000000
-6.612200 0.000000
-6.581300 0.000000
-6.550400 0.000000
-6.519500 0.000000
-6.488600 0.000000
-6.457700 0.000000
-6.426800 0.000000
-6.395900 0.000000
-6.365000 0.000000
-6.334100 0.000000
-6.303200 0.000000
-6.272300 0.000000
-6.241400 0.000000
-6.210500 0.000000
-6.179600 0.000000
-6.148700 0.000000
-6.117800 0.000000
-6.086900 0.000000
-6.056000 0.000000
-6.025100 0.000000
-5.994100 0.000000
-5.963200 0.000000
-5.932300 0.000000
-5.901400 0.000000
-5.870500 0.000000
-5.839600 0.000000
-5.808700 0.000000
-5.777800 0.000000
-5.746900 0.000000
-5.716000 0.000000
-5.685100 0.000000
-5.654200 0.000000
-5.623300 0.000000
-5.592400 0.000000
-5.561500 0.000000
-5.530600 0.000000
-5.499700 0.000000
-5.468800 0.000000
-5.437900 0.000000
-5.407000 0.000000
-5.376100 0.000000
-5.345100 0.000000
-5.314200 0.000000
-5.283300 0.000000
-5.252400 0.000000
-5.221500 0.000000
-5.190600 0.000000
-5.159700 0.000000
-5.128800 0.000000
-5.097900 0.000000
-5.067000 0.000000
-5.036100 0.000000
-5.005200 0.000000
-4.974300 0.000000
-4.943400 0.000000
-4.912500 0.000000
-4.881600 0.000000
-4.850700 0.000000
-4.819800 0.000000
-4.788900 0.000000
-4.758000 0.000000
-4.727000 0.000000
-4.696100 0.000000
-4.665200 0.000000
-4.634300 0.000000
-4.603400 0.000000
-4.572500 0.000000
-4.541600 0.000000
-4.510700 0.000000
-4.479800 0.000000
-4.448900 0.000000
-4.418000 0.000000
-4.387100 0.000000
-4.356200 0.000000
-4.325300 0.000000
-4.294400 0.000000
-4.263500 0.000000
-4.232600 0.000000
-4.201700 0.000000
-4.170800 0.000000
-4.139900 0.000000
-4.109000 0.000000
-4.078000 0.000000
-4.047100 0.000000
-4.016200 0.000000
-3.985300 0.000000
-3.954400 0.000000
-3.923500 0.000000
-3.892600 0.000000
-3.861700 0.000000
-3.830800 0.000000
-3.799900 0.000000
-3.769000 0.000000
-3.738100 0.000000
-3.707200 0.000000
-3.676300 0.000000
-3.645400 0.000000
-3.614500 0.000000
-3.583600 0.000000
-3.552700 0.000000
-3.521800 0.000000
-3.490900 0.000000
-3.460000 0.000000
-3.429000 0.000000
-3.398100 0.000000
-3.367200 0.777100
-3.336300 1.983800
-3.305400 3.420000
-3.274500 9.277500
-3.243600 3.370400
-3.212700 3.362100
-3.181800 3.714200
-3.150900 5.490300
-3.120000 6.803800
-3.089100 4.808500
-3.058200 4.136000
-3.027300 4.207900
-2.996400 3.841500
-2.965500 3.789700
-2.934600 3.387600
-2.903700 3.324500
-2.872800 3.334900
-2.841900 3.297500
-2.811000 3.315100
-2.780000 3.245400
-2.749100 3.499500
-2.718200 3.779100
-2.687300 3.922100
-2.656400 4.278800
-2.625500 4.429100
-2.594600 4.577200
-2.563700 4.716200
-2.532800 4.846500
-2.501900 4.939800
-2.471000 4.928400
-2.440100 4.957100
-2.409200 4.897700
-2.378300 5.013900
-2.347400 5.203400
-2.316500 6.038100
-2.285600 6.785400
-2.254700 5.901500
-2.223800 5.506600
-2.192900 5.083700
-2.162000 4.817500
-2.131000 4.578000
-2.100100 4.643300
-2.069200 4.799500
-2.038300 4.854500
-2.007400 4.871400
-1.976500 5.095900
-1.945600 5.288400
-1.914700 5.478300
-1.883800 5.601700
-1.852900 5.507000
-1.822000 5.657700
-1.791100 5.950900
-1.760200 6.314900
-1.729300 6.149200
-1.698400 6.208900
-1.667500 6.075600
-1.636600 6.028400
-1.605700 6.080100
-1.574800 6.146700
-1.543900 6.314400
-1.512900 6.051100
-1.482000 5.837100
-1.451100 5.636600
-1.420200 5.591800
-1.389300 5.855500
-1.358400 5.865000
-1.327500 5.866700
-1.296600 6.081600
-1.265700 5.929000
-1.234800 5.980400
-1.203900 6.185900
-1.173000 6.751400
-1.142100 6.461500
-1.111200 7.574600
-1.080300 7.139400
-1.049400 6.463200
-1.018500 6.243400
-0.987600 6.364900
-0.956700 6.366000
-0.925800 5.451300
-0.894900 4.762900
-0.863900 4.863700
-0.833000 4.984100
-0.802100 5.039400
-0.771200 5.106200
-0.740300 5.701500
-0.709400 7.006600
-0.678500 7.230600
-0.647600 6.855800
-0.616700 6.328100
-0.585800 6.006000
-0.554900 5.826200
-0.524000 5.632100
-0.493100 5.309100
-0.462200 4.953800
-0.431300 4.716900
-0.400400 4.711300
-0.369500 4.765000
-0.338600 4.886200
-0.307700 5.245800
-0.276800 5.616800
-0.245900 5.262600
-0.214900 4.537300
-0.184000 4.287900
-0.153100 4.433400
-0.122200 4.350000
-0.091300 4.326300
-0.060400 4.530000
-0.029500 4.337700
0.001400 4.311400
0.032300 4.225800
0.063200 4.379000
0.094100 4.165100
0.125000 4.120000
0.155900 4.442900
0.186800 4.778600
0.217700 4.873700
0.248600 4.880900
0.279500 4.656400
0.310400 4.402700
0.341300 4.542300
0.372200 3.774900
0.403100 3.187200
0.434100 2.978800
0.465000 3.115400
0.495900 2.912200
0.526800 2.828500
0.557700 2.994400
0.588600 3.475800
0.619500 3.817200
0.650400 4.592700
0.681300 5.297800
0.712200 6.834400
0.743100 7.121200
0.774000 8.087000
0.804900 8.589800
0.835800 8.990300
0.866700 8.512400
0.897600 8.787000
0.928500 8.554100
0.959400 5.598000
0.990300 4.167700
1.021200 3.516400
1.052100 2.955900
1.083100 2.740700
1.114000 2.637200
1.144900 2.557400
1.175800 2.452800
1.206700 2.390700
1.237600 2.347800
1.268500 2.351100
1.299400 2.334300
1.330300 2.183300
1.361200 2.032900
1.392100 1.947300
1.423000 1.929200
1.453900 2.007000
1.484800 2.145100
1.515700 2.036900
1.546600 1.687600
1.577500 1.457700
1.608400 1.069600
1.639300 0.000000
1.670200 0.000000
1.701200 0.000000
1.732100 0.000000
1.763000 0.000000
1.793900 0.000000
1.824800 0.000000
1.855700 0.000000
1.886600 0.000000
1.917500 0.000000
1.948400 0.000000
1.979300 0.000000
2.010200 0.000000
2.041100 0.000000
2.072000 0.000000
2.102900 0.000000
2.133800 0.000000
2.164700 0.000000
2.195600 0.000000
2.226500 0.000000
2.257400 0.000000
2.288300 0.000000
2.319200 0.000000
2.350200 0.000000
2.381100 0.000000
2.412000 0.000000
2.442900 0.000000
2.473800 0.000000
2.504700 0.000000
2.535600 0.000000
2.566500 0.000000
2.597400 0.000000
2.628300 0.000000
2.659200 0.000000
2.690100 0.000000
2.721000 0.000000
2.751900 0.000000
2.782800 0.000000
2.813700 0.000000
2.844600 0.000000
2.875500 0.000000
2.906400 0.000000
2.937300 0.000000
2.968200 0.000000
2.999200 0.000000
3.030100 0.000000
3.061000 0.128300
3.091900 0.466300
3.122800 0.794100
3.153700 0.941300
3.184600 1.017700
3.215500 0.985200
3.246400 1.047000
3.277300 1.139700
3.308200 1.242100
3.339100 1.363800
3.370000 1.485000
3.400900 1.614600
3.431800 1.758800
3.462700 2.051500
3.493600 2.372200
3.524500 2.537200
3.555400 2.605100
3.586300 2.473900
3.617200 2.405200
3.648200 2.362200
3.679100 2.346200
3.710000 2.346000
3.740900 2.294700
3.771800 2.139000
3.802700 2.010600
3.833600 1.926000
3.864500 1.912200
3.895400 2.012500
3.926300 1.902400
3.957200 1.863000
3.988100 1.845600
4.019000 1.760200
4.049900 1.732100
4.080800 1.713000
4.111700 1.709700
4.142600 1.696000
4.173500 1.677800
4.204400 1.659800
4.235300 1.635300
4.266200 1.616400
4.297200 1.615300
4.328100 1.626300
4.359000 1.635800
4.389900 1.613700
4.420800 1.615200
4.451700 1.616300
4.482600 1.621000
4.513500 1.625700
4.544400 1.637800
4.575300 1.639500
4.606200 1.644600
4.637100 1.663500
4.668000 1.699500
4.698900 1.738100
4.729800 1.689000
4.760700 1.712400
4.791600 1.736400
4.822500 1.765900
4.853400 1.851200
4.884300 1.816400
4.915300 1.860600
4.946200 1.920600
4.977100 1.983000
5.008000 2.064800
5.038900 2.115800
5.069800 2.136800
5.100700 2.172900
5.131600 2.217500
5.162500 2.285400
5.193400 2.308500
5.224300 2.348900
5.255200 2.372100
5.286100 2.533500
5.317000 2.422500
5.347900 2.482100
5.378800 2.579800
5.409700 2.663300
5.440600 2.758700
5.471500 2.818600
5.502400 2.912700
5.533300 3.228900
5.564300 3.740700
5.595200 4.209800
5.626100 4.347400
5.657000 4.656300
5.687900 4.853100
5.718800 4.821900
5.749700 4.939200
5.780600 5.011800
5.811500 5.600300
5.842400 5.398000
5.873300 4.785600
5.904200 4.431000
5.935100 4.378400
5.966000 4.621600
5.996900 4.899400
6.027800 5.501600
6.058700 5.630900
6.089600 5.398400
6.120500 5.648600
6.151400 6.353200
6.182300 7.193400
6.213300 8.227700
6.244200 7.618900
6.275100 7.814400
6.306000 8.107900
6.336900 8.287600
6.367800 8.516600
6.398700 7.864100
6.429600 7.099400
6.460500 6.823500
6.491400 5.948100
6.522300 5.504800
6.553200 4.852200
6.584100 4.548900
6.615000 4.183500
6.645900 4.015000
6.676800 3.906300
6.707700 3.395500
6.738600 3.039600
6.769500 2.514100
6.800400 1.501700
6.831300 1.417600
6.862300 1.355900
6.893200 1.293800
6.924100 1.290600
6.955000 1.281900
6.985900 1.269500
7.016800 1.247800
7.047700 1.254400
7.078600 1.311500
7.109500 1.676500
7.140400 1.460000
7.171300 1.245000
7.202200 1.253300
7.233100 1.259400
7.264000 1.061300
7.294900 0.737800
7.325800 0.808800
7.356700 0.890000
7.387600 1.016500
7.418500 1.155500
7.449400 1.327400
7.480300 1.622000
7.511300 2.031700
7.542200 2.391200
7.573100 2.355300
7.604000 2.328600
7.634900 2.312000
7.665800 2.297500
7.696700 2.274800
7.727600 2.252100
7.758500 2.238200
7.789400 2.213600
7.820300 2.163100
7.851200 2.273400
7.882100 2.430100
7.913000 2.537700
7.943900 2.565300
7.974800 2.666300
8.005700 2.832100
8.036600 3.132600
8.067500 3.359600
8.098400 3.508000
8.129400 3.661200
8.160300 3.675300
8.191200 3.648500
8.222100 3.595100
8.253000 3.464600
8.283900 3.420600
8.314800 3.396600
8.345700 3.279600
8.376600 3.237400
8.407500 3.183300
8.438400 3.165800
8.469300 3.188500
8.500200 3.211400
8.531100 3.251200
8.562000 3.319300
8.592900 3.374600
8.623800 3.279900
8.654700 3.494300
8.685600 3.133800
8.716500 2.861700
8.747400 2.720000
8.778400 2.844900
8.809300 3.276400
8.840200 3.838600
8.871100 4.288700
8.902000 3.415200
8.932900 3.031700
8.963800 2.785200
8.994700 2.571500
9.025600 2.435400
9.056500 2.350900
9.087400 2.357100
9.118300 2.465600
9.149200 2.256900
9.180100 1.901400
9.211000 1.618500
9.241900 1.464400
9.272800 1.178800
9.303700 1.163900
9.334600 1.156000
9.365500 1.146700
9.396400 1.142000
9.427400 1.134000
9.458300 1.132000
9.489200 1.139300
9.520100 1.156500
9.551000 1.170100
9.581900 1.178800
9.612800 1.186800
9.643700 1.194600
9.674600 1.202700
9.705500 1.211400
9.736400 1.220200
9.767300 1.232600
9.798200 1.240500
9.829100 1.232300
9.860000 1.210900
9.890900 1.206300
9.921800 1.218900
9.952700 1.229000
9.983600 1.235900
10.014500 1.243400
10.045400 1.272300
10.076400 1.318600
10.107300 1.373000
10.138200 1.431700
10.169100 1.486900
10.200000 1.533700
10.230900 1.584200
10.261800 1.781100
10.292700 1.876400
10.323600 1.929600
10.354500 1.895200
10.385400 1.876600
10.416300 1.877700
10.447200 1.888700
10.478100 1.931600
10.509000 1.748400
10.539900 1.560200
10.570800 1.506900
10.601700 1.476400
10.632600 1.447000
10.663500 1.391200
10.694400 1.353400
10.725400 1.320000
10.756300 1.282800
10.787200 1.258400
10.818100 1.257000
10.849000 1.250800
10.879900 1.243800
10.910800 1.236900
10.941700 1.236400
10.972600 1.244900
11.003500 1.245200
11.034400 1.243400
11.065300 1.242000
11.096200 1.240000
11.127100 1.236300
11.158000 1.234300
11.188900 1.232800
11.219800 1.225600
11.250700 1.222100
11.281600 1.218300
11.312500 1.209500
11.343500 1.201200
11.374400 1.196200
11.405300 1.193900
11.436200 1.195000
11.467100 1.199000
11.498000 1.203100
11.528900 1.221000
11.559800 1.236700
11.590700 1.251700
11.621600 1.267300
11.652500 1.289600
11.683400 1.357400
11.714300 1.399700
11.745200 1.400100
11.776100 1.394500
11.807000 1.387800
11.837900 1.381400
11.868800 1.372600
11.899700 1.361400
11.930600 1.366900
11.961500 1.389000
11.992500 1.420100
12.023400 1.432900
12.054300 1.361700
12.085200 1.483100
12.116100 1.271100
12.147000 1.513800
12.177900 1.067500
12.208800 1.095000
12.239700 1.120900
12.270600 1.272100
12.301500 1.541700
12.332400 1.543800
12.363300 1.583500
12.394200 1.567900
12.425100 1.578000
12.456000 1.581700
12.486900 1.610100
12.517800 1.765600
12.548700 1.950200
12.579600 1.762800
12.610500 1.748700
12.641500 1.614600
12.672400 1.517700
12.703300 1.408400
12.734200 1.212400
12.765100 1.076000
12.796000 0.908900
12.826900 0.852300
12.857800 0.828400
12.888700 0.827500
12.919600 0.838000
12.950500 0.864100
12.981400 0.859800
13.012300 0.905200
13.043200 0.901400
13.074100 0.898700
13.105000 0.917400
13.135900 0.950900
13.166800 1.052900
13.197700 1.132500
13.228600 1.214000
13.259500 1.315600
13.290500 1.510400
13.321400 1.714600
13.352300 1.929500
13.383200 2.288900
13.414100 2.827300
13.445000 2.879300
13.475900 2.123300
13.506800 1.873900
13.537700 2.016700
13.568600 2.190900
13.599500 2.170100
13.630400 2.136100
13.661300 2.123700
13.692200 2.140700
13.723100 2.150600
13.754000 2.182100
13.784900 2.225200
13.815800 2.245200
13.846700 2.221800
13.877600 2.289000
13.908600 2.274900
13.939500 2.191900
13.970400 2.168100
14.001300 2.202200
14.032200 2.245300
14.063100 2.245800
14.094000 2.274400
14.124900 2.318700
14.155800 2.325400
14.186700 2.307800
14.217600 2.303000
14.248500 2.313900
14.279400 2.335100
14.310300 2.401700
14.341200 2.542400
14.372100 2.495600
14.403000 2.221000
14.433900 2.035800
14.464800 2.106100
14.495700 2.055800
14.526600 1.809800
14.557600 1.571300
14.588500 1.427500
14.619400 1.285800
14.650300 1.228600
14.681200 1.203100
14.712100 1.201000
14.743000 1.199000
14.773900 1.231900
14.804800 1.242400
14.835700 1.239900
14.866600 1.234200
14.897500 1.227600
14.928400 1.217800
14.959300 1.223300
14.990200 1.232800
15.021100 1.242300
15.052000 1.368300
15.082900 1.505800
15.113800 1.595500
15.144700 1.648900
15.175600 1.666800
15.206600 1.589700
15.237500 1.564600
15.268400 1.563500
15.299300 1.578400
15.330200 1.600200
15.361100 1.634500
15.392000 1.676100
15.422900 1.722900
15.453800 1.757200
15.484700 1.834700
15.515600 1.936400
15.546500 1.987000
15.577400 1.949900
15.608300 1.917100
15.639200 1.900700
15.670100 1.922100
15.701000 1.863600
15.731900 1.819300
15.762800 1.772600
15.793700 1.657200
15.824600 1.610300
15.855600 1.590600
15.886500 1.582400
15.917400 1.797800
15.948300 2.795800
15.979200 2.608400
16.010100 2.557200
16.041000 2.497000
16.071900 2.481600
16.102800 2.440900
16.133700 2.389800
16.164600 2.308700
16.195500 2.419800
16.226400 2.088500
16.257300 2.031200
16.288200 1.994000
16.319100 1.987000
16.350000 2.049100
16.380900 2.242000
16.411800 2.749500
16.442700 3.264200
16.473600 5.673300
16.504600 5.390700
16.535500 4.634500
16.566400 2.382400
16.597300 1.980000
16.628200 2.094400
16.659100 2.092900
16.690000 2.104100
16.720900 2.299900
16.751800 2.634600
16.782700 3.099600
16.813600 3.428100
16.844500 3.970700
16.875400 4.207500
16.906300 3.513600
16.937200 3.312500
16.968100 3.472700
16.999000 3.516000
17.029900 3.450700
17.060800 3.477000
17.091700 3.795400
17.122700 4.066100
17.153600 4.203500
17.184500 3.903800
17.215400 3.531900
17.246300 2.300300
17.277200 2.365200
17.308100 2.610700
17.339000 2.898400
17.369900 2.954500
17.400800 2.635500
17.431700 2.638100
17.462600 2.891900
17.493500 3.311900
17.524400 3.105400
17.555300 2.914000
17.586200 2.803600
17.617100 2.762100
17.648000 2.638400
17.678900 2.558700
17.709800 2.462300
17.740700 2.252700
17.771700 2.092000
17.802600 1.981900
17.833500 1.886100
17.864400 1.795100
17.895300 1.711600
17.926200 1.625200
17.957100 1.538300
17.988000 1.479100
18.018900 1.483300
18.049800 1.541200
18.080700 1.636200
18.111600 1.738000
18.142500 1.845900
18.173400 2.223900
18.204300 2.146300
18.235200 2.214000
18.266100 2.337600
18.297000 2.592600
18.327900 2.874000
18.358800 3.114700
18.389700 3.697700
18.420700 3.364000
18.451600 3.192900
18.482500 3.262800
18.513400 3.602500
18.544300 3.786200
18.575200 3.419900
18.606100 2.945800
18.637000 2.725900
18.667900 2.542100
18.698800 2.230600
18.729700 2.031900
18.760600 1.883000
18.791500 1.840500
18.822400 1.712400
18.853300 1.565300
18.884200 1.472800
18.915100 1.372700
18.946000 1.285500
18.976900 1.215300
19.007800 1.152000
19.038700 1.105400
19.069700 1.079200
19.100600 1.090800
19.131500 1.103800
19.162400 1.124400
19.193300 1.164900
19.224200 1.170300
19.255100 1.166200
19.286000 1.166500
19.316900 1.213400
19.347800 1.300200
19.378700 1.414500
19.409600 1.588700
19.440500 1.757100
19.471400 1.932400
19.502300 2.349000
19.533200 3.281400
19.564100 4.132600
19.595000 3.893700
19.625900 3.906200
19.656800 3.893200
19.687700 3.678300
19.718700 3.499300
19.749600 3.124600
19.780500 2.569300
19.811400 2.107300
19.842300 1.939800
19.873200 1.686300
19.904100 1.532100
19.935000 1.520700
19.965900 1.436900
19.996800 1.314200
20.027700 1.228000
20.058600 1.035600
20.089500 0.937900
20.120400 0.937800
20.151300 0.972200
20.182200 1.018400
20.213100 1.080600
20.244000 1.215000
20.274900 1.404800
20.305800 1.701700
20.336800 1.945900
20.367700 2.164700
20.398600 2.354900
20.429500 2.491100
20.460400 2.706500
20.491300 2.967700
20.522200 4.913400
20.553100 4.190800
20.584000 3.655900
20.614900 3.325400
20.645800 3.089200
20.676700 2.946800
20.707600 2.640100
20.738500 2.339200
20.769400 1.951100
20.800300 1.413700
20.831200 1.243900
20.862100 1.170400
20.893000 1.144200
20.923900 1.161700
20.954800 1.175500
20.985800 1.202600
21.016700 1.217900
21.047600 1.208200
21.078500 1.389200
21.109400 1.509700
21.140300 1.529100
21.171200 1.646600
21.202100 1.620700
21.233000 1.645200
21.263900 1.734200
21.294800 1.715500
21.325700 1.754600
21.356600 1.745100
21.387500 1.760200
21.418400 1.773800
21.449300 1.696500
21.480200 1.721600
21.511100 1.753600
21.542000 1.771700
21.572900 1.833300
21.603800 1.865600
21.634800 1.898100
21.665700 1.949400
21.696600 2.063900
21.727500 2.156900
21.758400 2.301400
21.789300 2.272700
21.820200 2.120800
21.851100 2.066500
21.882000 2.095700
21.912900 2.110400
21.943800 2.191500
21.974700 2.269200
22.005600 2.310100
22.036500 2.250400
22.067400 2.237100
22.098300 2.293600
22.129200 2.344500
22.160100 2.336400
22.191000 2.292000
22.221900 2.280400
22.252800 2.254200
22.283800 2.223500
22.314700 2.196000
22.345600 2.189800
22.376500 2.199800
22.407400 2.215500
22.438300 2.224000
22.469200 2.254100
22.500100 2.269800
22.531000 2.308200
22.561900 2.381000
22.592800 2.439000
22.623700 2.436300
22.654600 2.418700
22.685500 2.385500
22.716400 2.496400
22.747300 2.642000
22.778200 2.970800
22.809100 3.385500
22.840000 3.283800
22.870900 3.297600
22.901800 3.239700
22.932800 3.262500
22.963700 3.348000
22.994600 3.480800
23.025500 3.742700
23.056400 4.710400
23.087300 4.925100
23.118200 5.103100
23.149100 5.135700
23.180000 5.036800
23.210900 4.656100
23.241800 4.064700
23.272700 3.555900
23.303600 3.380900
23.334500 3.300200
23.365400 3.277900
23.396300 3.184200
23.427200 3.072500
23.458100 2.984900
23.489000 2.967300
23.519900 3.134200
23.550900 3.204700
23.581800 3.670300
23.612700 4.202700
23.643600 2.678700
23.674500 2.653800
23.705400 2.495800
23.736300 2.216100
23.767200 2.019800
23.798100 1.942100
23.829000 1.931300
23.859900 1.940000
23.890800 1.970200
23.921700 2.059000
23.952600 2.071200
23.983500 2.297700
24.014400 2.371800
24.045300 2.434300
24.076200 2.538800
24.107100 2.661700
24.138000 3.040200
24.168900 3.466800
24.199900 3.547300
24.230800 2.515500
24.261700 2.346300
24.292600 2.234500
24.323500 2.081000
24.354400 2.078000
24.385300 2.142200
24.416200 2.537100
24.447100 2.830400
24.478000 2.721600
24.508900 2.608400
24.539800 2.566200
24.570700 2.713600
24.601600 3.006400
24.632500 2.961200
24.663400 2.883500
24.694300 3.037100
24.725200 3.094300
24.756100 3.055500
24.787000 2.826500
24.817900 2.572500
24.848900 2.404800
24.879800 1.955600
24.910700 1.672600
24.941600 1.516800
24.972500 1.563700
25.003400 1.837900
25.034300 2.248100
25.065200 2.738900
25.096100 2.965900
25.127000 3.349700
25.157900 3.664700
25.188800 3.617900
25.219700 3.137400
25.250600 2.810700
25.281500 2.478100
25.312400 2.195700
25.343300 1.952200
25.374200 1.775300
25.405100 1.654500
25.436000 1.573400
25.466900 1.509500
25.497900 1.454200
25.528800 1.392800
25.559700 1.318200
25.590600 1.269100
25.621500 1.243500
25.652400 1.212400
25.683300 1.187200
25.714200 1.168800
25.745100 1.207000
25.776000 1.027800
25.806900 1.017500
25.837800 1.017000
25.868700 1.001200
25.899600 0.975400
25.930500 0.939600
25.961400 0.893800
25.992300 0.837900
26.023200 0.761000
26.054100 0.720600
26.085000 0.682000
26.115900 0.645900
26.146900 0.618400
26.177800 0.593200
26.208700 0.576200
26.239600 0.562900
26.270500 0.549900
26.301400 0.571300
26.332300 0.538800
26.363200 0.485900
26.394100 0.455600
26.425000 0.437500
26.455900 0.344000
26.486800 0.294200
26.517700 0.272900
26.548600 0.248400
26.579500 0.219400
26.610400 0.174100
26.641300 0.156900
26.672200 0.141300
26.703100 0.127200
26.734000 0.114600
26.765000 0.103400
26.795900 0.093700
26.826800 0.084600
26.857700 0.076100
26.888600 0.082000
26.919500 0.067700
26.950400 0.055000
26.981300 0.043700
27.012200 0.033800
27.043100 0.025400
27.074000 0.018500
27.104900 0.013000
27.135800 0.008700
27.166700 0.005300
27.197600 0.003400
27.228500 0.002000
27.259400 0.000900
27.290300 0.000200
27.321200 0.000000
27.352100 0.000000
27.383000 0.000000
27.414000 0.000000
27.444900 0.000000
27.475800 0.000000
27.506700 0.000000
27.537600 0.000000
27.568500 0.000000
27.599400 0.000000
27.630300 0.000000
27.661200 0.000000
27.692100 0.000000
27.723000 0.000000
27.753900 0.000000
27.784800 0.000000
27.815700 0.000000
27.846600 0.000000
27.877500 0.000000
27.908400 0.000000
27.939300 0.000000
27.970200 0.000000
28.001100 0.000000
28.032000 0.000000
28.063000 0.000000
28.093900 0.000000
28.124800 0.000000
28.155700 0.000000
28.186600 0.000000
28.217500 0.000000
28.248400 0.000000
28.279300 0.000000
28.310200 0.000000
28.341100 0.000000
28.372000 0.000000
28.402900 0.000000
28.433800 0.000000
28.464700 0.000000
28.495600 0.000000
28.526500 0.000000
28.557400 0.000000
28.588300 0.000000
28.619200 0.000000
28.650100 0.000000
28.681000 0.000000
28.712000 0.000000
28.742900 0.000000
28.773800 0.000000
28.804700 0.000000
28.835600 0.000000
28.866500 0.000000
28.897400 0.000000
28.928300 0.000000
28.959200 0.000000
28.990100 0.000000
29.021000 0.000000
29.051900 0.000000
29.082800 0.000000
29.113700 0.000000
29.144600 0.000000
29.175500 0.000000
29.206400 0.000000
29.237300 0.000000
29.268200 0.000000
29.299100 0.000000
29.330000 0.000000
29.361000 0.000000
29.391900 0.000000
29.422800 0.000000
29.453700 0.000000
29.484600 0.000000
29.515500 0.000000
29.546400 0.000000
29.577300 0.000000
29.608200 0.000000
29.639100 0.000000
29.670000 0.000000
29.700900 0.000000
29.731800 0.000000
29.762700 0.000000
29.793600 0.000000
29.824500 0.000000
29.855400 0.000000
29.886300 0.000000
29.917200 0.000000
29.948100 0.000000
29.979100 0.000000
30.010000 0.000000
30.040900 0.000000
30.071800 0.000000
30.102700 0.000000
30.133600 0.000000
e
