set title 'mp-1187396 - Density of States'
set xlabel 'Energy (eV)'
set ylabel 'DOS (states/eV)'
set grid
set xrange [-10:10]
set yrange [0:8.936]
set xzeroaxis lt -1
set terminal png size 800,600
set output 'mp-1187396_dos_gnuplot.png'
plot '-' using 1:2 with lines title 'DOS'
-35.109300 0.000000
-35.064100 0.000000
-35.019000 0.000000
-34.973800 0.000000
-34.928700 0.000000
-34.883500 0.000000
-34.838300 0.000000
-34.793200 0.000000
-34.748000 0.000000
-34.702900 0.000000
-34.657700 0.000000
-34.612600 0.000000
-34.567400 0.000000
-34.522200 0.000000
-34.477100 0.000000
-34.431900 0.000000
-34.386800 0.000000
-34.341600 0.000000
-34.296500 0.000000
-34.251300 0.000000
-34.206100 0.000000
-34.161000 0.000000
-34.115800 0.000000
-34.070700 0.000000
-34.025500 0.000000
-33.980400 0.000000
-33.935200 0.000000
-33.890000 0.000000
-33.844900 0.000000
-33.799700 0.000000
-33.754600 0.000000
-33.709400 0.000000
-33.664300 0.000000
-33.619100 0.000000
-33.573900 0.000000
-33.528800 0.000000
-33.483600 0.000000
-33.438500 0.000000
-33.393300 0.000000
-33.348200 0.000000
-33.303000 0.000000
-33.257800 0.000000
-33.212700 0.000000
-33.167500 0.000000
-33.122400 0.000000
-33.077200 0.000000
-33.032100 0.000000
-32.986900 0.000000
-32.941700 0.000000
-32.896600 0.000000
-32.851400 0.000000
-32.806300 0.000000
-32.761100 0.000000
-32.716000 0.000000
-32.670800 0.000000
-32.625600 0.000000
-32.580500 0.000000
-32.535300 0.000000
-32.490200 0.000000
-32.445000 0.000000
-32.399900 0.000000
-32.354700 0.000000
-32.309500 0.000000
-32.264400 0.000000
-32.219200 0.000000
-32.174100 0.000000
-32.128900 0.000000
-32.083800 0.000000
-32.038600 0.000000
-31.993400 0.000000
-31.948300 0.000000
-31.903100 0.000000
-31.858000 0.000000
-31.812800 0.000000
-31.767700 0.000000
-31.722500 0.000000
-31.677300 0.000000
-31.632200 0.000000
-31.587000 0.000000
-31.541900 0.000000
-31.496700 0.000000
-31.451600 0.000000
-31.406400 0.000000
-31.361200 0.000000
-31.316100 0.000000
-31.270900 0.000000
-31.225800 0.000000
-31.180600 0.000000
-31.135500 0.000000
-31.090300 0.005000
-31.045100 0.143200
-31.000000 1.188900
-30.954800 3.687000
-30.909700 6.729100
-30.864500 11.041000
-30.819400 16.676000
-30.774200 20.403400
-30.729000 22.729800
-30.683900 24.498100
-30.638700 20.051300
-30.593600 12.649000
-30.548400 12.395700
-30.503300 15.169800
-30.458100 17.929800
-30.412900 21.194500
-30.367800 21.554200
-30.322600 21.946000
-30.277500 25.785700
-30.232300 28.877200
-30.187200 34.268300
-30.142000 35.131300
-30.096800 19.636900
-30.051700 4.547600
-30.006500 0.360400
-29.961400 0.008400
-29.916200 0.000100
-29.871100 0.000000
-29.825900 0.000000
-29.780700 0.000000
-29.735600 0.000000
-29.690400 0.000000
-29.645300 0.000000
-29.600100 0.000000
-29.555000 0.000000
-29.509800 0.000000
-29.464600 0.000000
-29.419500 0.000000
-29.374300 0.000000
-29.329200 0.000000
-29.284000 0.000000
-29.238900 0.000000
-29.193700 0.000000
-29.148500 0.000000
-29.103400 0.000000
-29.058200 0.000000
-29.013100 0.000000
-28.967900 0.000000
-28.922800 0.000000
-28.877600 0.000000
-28.832400 0.000000
-28.787300 0.000000
-28.742100 0.000000
-28.697000 0.000000
-28.651800 0.000000
-28.606700 0.000000
-28.561500 0.000000
-28.516300 0.000000
-28.471200 0.000000
-28.426000 0.000000
-28.380900 0.000000
-28.335700 0.000000
-28.290600 0.000000
-28.245400 0.000000
-28.200200 0.000000
-28.155100 0.000000
-28.109900 0.000000
-28.064800 0.000000
-28.019600 0.000000
-27.974500 0.000000
-27.929300 0.000000
-27.884100 0.000000
-27.839000 0.000000
-27.793800 0.000000
-27.748700 0.000000
-27.703500 0.000000
-27.658400 0.000000
-27.613200 0.000000
-27.568000 0.000000
-27.522900 0.000000
-27.477700 0.000000
-27.432600 0.000000
-27.387400 0.000000
-27.342300 0.000000
-27.297100 0.000000
-27.251900 0.000000
-27.206800 0.000000
-27.161600 0.000000
-27.116500 0.000000
-27.071300 0.000000
-27.026200 0.000000
-26.981000 0.000000
-26.935800 0.000000
-26.890700 0.000000
-26.845500 0.000000
-26.800400 0.000600
-26.755200 0.068100
-26.710100 2.102900
-26.664900 18.324700
-26.619700 50.687000
-26.574600 46.806400
-26.529400 13.712700
-26.484300 1.142600
-26.439100 0.024300
-26.394000 0.000100
-26.348800 0.000000
-26.303600 0.000000
-26.258500 0.000000
-26.213300 0.000000
-26.168200 0.000000
-26.123000 0.000000
-26.077900 0.000000
-26.032700 0.000000
-25.987500 0.000000
-25.942400 0.000000
-25.897200 0.000000
-25.852100 0.000000
-25.806900 0.000000
-25.761800 0.000000
-25.716600 0.000000
-25.671400 0.000000
-25.626300 0.000000
-25.581100 0.000000
-25.536000 0.000000
-25.490800 0.000000
-25.445700 0.000000
-25.400500 0.000000
-25.355300 0.000000
-25.310200 0.000000
-25.265000 0.000000
-25.219900 0.000000
-25.174700 0.000000
-25.129600 0.000000
-25.084400 0.000000
-25.039200 0.000000
-24.994100 0.000000
-24.948900 0.000000
-24.903800 0.000000
-24.858600 0.000000
-24.813500 0.000000
-24.768300 0.000000
-24.723100 0.000000
-24.678000 0.000000
-24.632800 0.000000
-24.587700 0.000000
-24.542500 0.000000
-24.497400 0.000000
-24.452200 0.000000
-24.407000 0.000000
-24.361900 0.000000
-24.316700 0.000000
-24.271600 0.000000
-24.226400 0.000000
-24.181300 0.000000
-24.136100 0.000000
-24.090900 0.000000
-24.045800 0.000000
-24.000600 0.000000
-23.955500 0.000000
-23.910300 0.000000
-23.865200 0.000000
-23.820000 0.000000
-23.774800 0.000000
-23.729700 0.000000
-23.684500 0.000000
-23.639400 0.000000
-23.594200 0.000000
-23.549100 0.000000
-23.503900 0.000000
-23.458700 0.000000
-23.413600 0.000000
-23.368400 0.000000
-23.323300 0.000000
-23.278100 0.000000
-23.233000 0.000000
-23.187800 0.000000
-23.142600 0.000000
-23.097500 0.000000
-23.052300 0.000000
-23.007200 0.000000
-22.962000 0.000000
-22.916900 0.000000
-22.871700 0.000000
-22.826500 0.000000
-22.781400 0.000000
-22.736200 0.000000
-22.691100 0.000000
-22.645900 0.000000
-22.600800 0.000000
-22.555600 0.000000
-22.510400 0.000000
-22.465300 0.000000
-22.420100 0.000000
-22.375000 0.000000
-22.329800 0.000000
-22.284700 0.000000
-22.239500 0.000000
-22.194300 0.000000
-22.149200 0.000000
-22.104000 0.000000
-22.058900 0.000000
-22.013700 0.000000
-21.968600 0.000000
-21.923400 0.000000
-21.878200 0.000000
-21.833100 0.000000
-21.787900 0.000000
-21.742800 0.000000
-21.697600 0.000000
-21.652500 0.000000
-21.607300 0.000000
-21.562100 0.000000
-21.517000 0.000000
-21.471800 0.000000
-21.426700 0.000000
-21.381500 0.000000
-21.336400 0.000000
-21.291200 0.000000
-21.246000 0.000000
-21.200900 0.000000
-21.155700 0.000000
-21.110600 0.000000
-21.065400 0.000000
-21.020300 0.000000
-20.975100 0.000000
-20.929900 0.000000
-20.884800 0.000000
-20.839600 0.000000
-20.794500 0.000000
-20.749300 0.000000
-20.704200 0.000000
-20.659000 0.000000
-20.613800 0.000000
-20.568700 0.000000
-20.523500 0.000000
-20.478400 0.000000
-20.433200 0.000000
-20.388100 0.000000
-20.342900 0.000000
-20.297700 0.000000
-20.252600 0.000000
-20.207400 0.000000
-20.162300 0.000000
-20.117100 0.000000
-20.072000 0.000000
-20.026800 0.000000
-19.981600 0.000000
-19.936500 0.000000
-19.891300 0.000000
-19.846200 0.000000
-19.801000 0.000000
-19.755900 0.000000
-19.710700 0.000000
-19.665500 0.000000
-19.620400 0.000000
-19.575200 0.000000
-19.530100 0.000000
-19.484900 0.000000
-19.439800 0.000000
-19.394600 0.000000
-19.349400 0.000000
-19.304300 0.000000
-19.259100 0.000000
-19.214000 0.000000
-19.168800 0.000000
-19.123700 0.000000
-19.078500 0.000000
-19.033300 0.000000
-18.988200 0.000000
-18.943000 0.000000
-18.897900 0.000000
-18.852700 0.000000
-18.807600 0.000000
-18.762400 0.000000
-18.717200 0.000000
-18.672100 0.000000
-18.626900 0.000000
-18.581800 0.000000
-18.536600 0.000000
-18.491500 0.000000
-18.446300 0.000000
-18.401100 0.000000
-18.356000 0.000000
-18.310800 0.000000
-18.265700 0.000000
-18.220500 0.000000
-18.175400 0.000000
-18.130200 0.000000
-18.085000 0.000000
-18.039900 0.000000
-17.994700 0.000000
-17.949600 0.000000
-17.904400 0.000000
-17.859300 0.000000
-17.814100 0.000000
-17.768900 0.000000
-17.723800 0.000000
-17.678600 0.000000
-17.633500 0.000000
-17.588300 0.000000
-17.543200 0.000000
-17.498000 0.000000
-17.452800 0.000000
-17.407700 0.000000
-17.362500 0.000000
-17.317400 0.000000
-17.272200 0.000000
-17.227100 0.000000
-17.181900 0.000000
-17.136700 0.000000
-17.091600 0.000000
-17.046400 0.000000
-17.001300 0.000000
-16.956100 0.000000
-16.911000 0.000000
-16.865800 0.000000
-16.820600 0.000000
-16.775500 0.000000
-16.730300 0.000000
-16.685200 0.000000
-16.640000 0.000000
-16.594900 0.000000
-16.549700 0.000000
-16.504500 0.000000
-16.459400 0.000000
-16.414200 0.000000
-16.369100 0.000000
-16.323900 0.000000
-16.278800 0.000000
-16.233600 0.000000
-16.188400 0.000000
-16.143300 0.000000
-16.098100 0.000000
-16.053000 0.000000
-16.007800 0.000000
-15.962700 0.000000
-15.917500 0.000000
-15.872300 0.000000
-15.827200 0.000000
-15.782000 0.000000
-15.736900 0.000000
-15.691700 0.000000
-15.646600 0.000000
-15.601400 0.000000
-15.556200 0.000000
-15.511100 0.000000
-15.465900 0.000000
-15.420800 0.000000
-15.375600 0.000000
-15.330400 0.000000
-15.285300 0.000000
-15.240100 0.000000
-15.195000 0.000000
-15.149800 0.000000
-15.104700 0.000000
-15.059500 0.000000
-15.014300 0.000000
-14.969200 0.000000
-14.924000 0.000000
-14.878900 0.000000
-14.833700 0.000000
-14.788600 0.000000
-14.743400 0.000000
-14.698200 0.000000
-14.653100 0.000000
-14.607900 0.000000
-14.562800 0.000000
-14.517600 0.000000
-14.472500 0.000000
-14.427300 0.000000
-14.382100 0.000000
-14.337000 0.000000
-14.291800 0.000000
-14.246700 0.000000
-14.201500 0.000000
-14.156400 0.000000
-14.111200 0.000000
-14.066000 0.000000
-14.020900 0.000000
-13.975700 0.000000
-13.930600 0.000000
-13.885400 0.000000
-13.840300 0.000000
-13.795100 0.000000
-13.749900 0.000000
-13.704800 0.000000
-13.659600 0.000000
-13.614500 0.000000
-13.569300 0.000000
-13.524200 0.000000
-13.479000 0.000000
-13.433800 0.000000
-13.388700 0.000000
-13.343500 0.000000
-13.298400 0.000000
-13.253200 0.000000
-13.208100 0.000000
-13.162900 0.000000
-13.117700 0.000000
-13.072600 0.000000
-13.027400 0.000000
-12.982300 0.000000
-12.937100 0.000000
-12.892000 0.000000
-12.846800 0.000000
-12.801600 0.000000
-12.756500 0.000000
-12.711300 0.000000
-12.666200 0.000000
-12.621000 0.000000
-12.575900 0.000000
-12.530700 0.000000
-12.485500 0.000000
-12.440400 0.000000
-12.395200 0.000000
-12.350100 0.000000
-12.304900 0.000000
-12.259800 0.000000
-12.214600 0.000000
-12.169400 0.000000
-12.124300 0.000000
-12.079100 0.000000
-12.034000 0.000000
-11.988800 0.000000
-11.943700 0.000000
-11.898500 0.000000
-11.853300 0.000000
-11.808200 0.000000
-11.763000 0.000000
-11.717900 0.000000
-11.672700 0.000000
-11.627600 0.000000
-11.582400 0.000000
-11.537200 0.000000
-11.492100 0.000000
-11.446900 0.000000
-11.401800 0.000000
-11.356600 0.000000
-11.311500 0.000000
-11.266300 0.000000
-11.221100 0.000000
-11.176000 0.000000
-11.130800 0.000000
-11.085700 0.000000
-11.040500 0.000000
-10.995400 0.000000
-10.950200 0.000000
-10.905000 0.000000
-10.859900 0.000000
-10.814700 0.000000
-10.769600 0.000000
-10.724400 0.000000
-10.679300 0.000000
-10.634100 0.000000
-10.588900 0.000000
-10.543800 0.000000
-10.498600 0.000000
-10.453500 0.000000
-10.408300 0.000000
-10.363200 0.000000
-10.318000 0.000000
-10.272800 0.000000
-10.227700 0.000000
-10.182500 0.000000
-10.137400 0.000000
-10.092200 0.000000
-10.047100 0.000000
-10.001900 0.000000
-9.956700 0.000000
-9.911600 0.000000
-9.866400 0.000000
-9.821300 0.000000
-9.776100 0.000000
-9.731000 0.000000
-9.685800 0.000000
-9.640600 0.000000
-9.595500 0.000000
-9.550300 0.000000
-9.505200 0.000000
-9.460000 0.000000
-9.414900 0.000000
-9.369700 0.000000
-9.324500 0.000000
-9.279400 0.000000
-9.234200 0.000000
-9.189100 0.000000
-9.143900 0.000000
-9.098800 0.000000
-9.053600 0.000000
-9.008400 0.000000
-8.963300 0.000000
-8.918100 0.000000
-8.873000 0.000000
-8.827800 0.000000
-8.782700 0.000000
-8.737500 0.000000
-8.692300 0.000000
-8.647200 0.000000
-8.602000 0.000000
-8.556900 0.000000
-8.511700 0.000000
-8.466600 0.000000
-8.421400 0.000000
-8.376200 0.000000
-8.331100 0.000000
-8.285900 0.000000
-8.240800 0.000000
-8.195600 0.000000
-8.150500 0.000000
-8.105300 0.000000
-8.060100 0.000000
-8.015000 0.000000
-7.969800 0.000000
-7.924700 0.000000
-7.879500 0.000000
-7.834400 0.000000
-7.789200 0.000000
-7.744000 0.000000
-7.698900 0.000000
-7.653700 0.000000
-7.608600 0.000000
-7.563400 0.000000
-7.518300 0.000000
-7.473100 0.000000
-7.427900 0.000000
-7.382800 0.000000
-7.337600 0.000000
-7.292500 0.000000
-7.247300 0.000000
-7.202200 0.000000
-7.157000 0.000000
-7.111800 0.000000
-7.066700 0.000000
-7.021500 0.000000
-6.976400 0.000000
-6.931200 0.000000
-6.886100 0.000000
-6.840900 0.000000
-6.795700 0.000000
-6.750600 0.000000
-6.705400 0.000000
-6.660300 0.000000
-6.615100 0.000000
-6.570000 0.000000
-6.524800 0.000000
-6.479600 0.000000
-6.434500 0.000000
-6.389300 0.000000
-6.344200 0.000000
-6.299000 0.000000
-6.253900 0.000000
-6.208700 0.000000
-6.163500 0.000000
-6.118400 0.000000
-6.073200 0.000000
-6.028100 0.000000
-5.982900 0.000000
-5.937800 0.000000
-5.892600 0.000000
-5.847400 0.000000
-5.802300 0.000000
-5.757100 0.000000
-5.712000 0.000000
-5.666800 0.000000
-5.621700 0.000000
-5.576500 0.000000
-5.531300 0.000000
-5.486200 0.000000
-5.441000 0.000000
-5.395900 0.000000
-5.350700 0.000000
-5.305600 0.000000
-5.260400 0.000000
-5.215200 0.000000
-5.170100 0.000000
-5.124900 0.000000
-5.079800 0.000000
-5.034600 0.000000
-4.989500 0.000000
-4.944300 0.000000
-4.899100 0.000000
-4.854000 0.000000
-4.808800 0.000000
-4.763700 0.000000
-4.718500 0.000000
-4.673400 0.000000
-4.628200 0.000000
-4.583000 0.000000
-4.537900 0.000000
-4.492700 0.000000
-4.447600 0.000000
-4.402400 0.000000
-4.357300 0.000000
-4.312100 0.000000
-4.266900 0.000000
-4.221800 0.000000
-4.176600 0.000000
-4.131500 0.000000
-4.086300 0.000000
-4.041200 0.000000
-3.996000 0.000000
-3.950800 0.000000
-3.905700 0.000000
-3.860500 0.000000
-3.815400 0.000000
-3.770200 0.000000
-3.725100 0.000000
-3.679900 0.000000
-3.634700 0.000000
-3.589600 0.000000
-3.544400 0.000000
-3.499300 0.000000
-3.454100 0.000000
-3.409000 0.000000
-3.363800 0.000000
-3.318600 0.000000
-3.273500 0.000000
-3.228300 0.000000
-3.183200 0.000000
-3.138000 0.000000
-3.092900 0.000000
-3.047700 0.000000
-3.002500 0.000000
-2.957400 0.000000
-2.912200 0.000000
-2.867100 0.000000
-2.821900 0.000000
-2.776800 0.000000
-2.731600 0.000000
-2.686400 0.000000
-2.641300 0.000000
-2.596100 0.000000
-2.551000 0.000000
-2.505800 0.000000
-2.460700 0.000000
-2.415500 0.000000
-2.370300 0.000000
-2.325200 0.000000
-2.280000 0.000000
-2.234900 0.000000
-2.189700 0.000000
-2.144600 0.000000
-2.099400 0.000000
-2.054200 0.000000
-2.009100 0.000000
-1.963900 0.000000
-1.918800 0.000000
-1.873600 0.000000
-1.828500 0.000000
-1.783300 0.000000
-1.738100 0.000000
-1.693000 0.000000
-1.647800 0.000000
-1.602700 0.000000
-1.557500 0.000000
-1.512400 0.000000
-1.467200 0.000000
-1.422000 0.000000
-1.376900 0.000000
-1.331700 0.000000
-1.286600 0.000000
-1.241400 0.000000
-1.196300 0.000000
-1.151100 0.000000
-1.105900 0.000000
-1.060800 0.000000
-1.015600 0.000000
-0.970500 0.000000
-0.925300 0.000000
-0.880200 0.000000
-0.835000 0.000000
-0.789800 0.000000
-0.744700 0.000000
-0.699500 0.000000
-0.654400 0.000000
-0.609200 0.000000
-0.564100 0.000000
-0.518900 0.000000
-0.473700 0.000000
-0.428600 0.000000
-0.383400 0.000000
-0.338300 0.000000
-0.293100 0.000000
-0.248000 0.000000
-0.202800 0.000000
-0.157600 0.000000
-0.112500 0.000000
-0.067300 0.000000
-0.022200 0.000000
0.023000 0.000000
0.068100 0.000000
0.113300 0.000000
0.158500 0.000000
0.203600 0.000000
0.248800 0.000000
0.293900 0.000000
0.339100 0.000000
0.384200 0.000000
0.429400 0.000000
0.474600 0.000000
0.519700 0.000000
0.564900 0.000000
0.610000 0.000000
0.655200 0.000000
0.700300 0.000000
0.745500 0.000000
0.790700 0.000000
0.835800 0.000000
0.881000 0.000000
0.926100 0.000000
0.971300 0.000000
1.016400 0.000900
1.061600 0.009500
1.106800 0.029300
1.151900 0.047300
1.197100 0.058700
1.242200 0.102600
1.287400 0.207200
1.332500 0.135000
1.377700 0.025600
1.422900 0.038700
1.468000 0.170700
1.513200 0.254400
1.558300 0.249200
1.603500 0.229000
1.648600 0.307500
1.693800 0.197100
1.739000 0.040800
1.784100 0.057100
1.829300 0.212400
1.874400 0.320600
1.919600 0.295400
1.964700 0.378500
2.009900 0.575300
2.055100 0.278300
2.100200 0.068700
2.145400 0.176000
2.190500 0.287600
2.235700 0.362900
2.280800 0.558600
2.326000 0.500300
2.371200 0.172900
2.416300 0.159900
2.461500 0.503400
2.506600 0.566400
2.551800 0.397800
2.596900 0.480200
2.642100 0.491100
2.687300 0.372600
2.732400 0.560000
2.777600 0.971400
2.822700 1.252800
2.867900 1.347300
2.913000 0.821100
2.958200 0.553300
3.003400 1.106500
3.048500 1.771600
3.093700 2.690100
3.138800 2.858100
3.184000 2.029900
3.229100 2.658800
3.274300 3.729700
3.319500 3.813600
3.364600 3.717900
3.409800 4.063000
3.454900 4.646200
3.500100 5.172700
3.545200 4.961800
3.590400 5.494200
3.635600 5.383000
3.680700 4.670000
3.725900 5.387900
3.771000 7.051000
3.816200 7.146700
3.861300 6.713000
3.906500 6.379700
3.951700 6.631500
3.996800 7.666400
4.042000 7.854400
4.087100 6.920300
4.132300 5.609800
4.177400 5.060100
4.222600 5.348400
4.267800 6.112300
4.312900 6.203600
4.358100 6.037700
4.403200 6.171900
4.448400 5.644300
4.493500 4.481700
4.538700 4.357000
4.583900 4.199000
4.629000 3.980100
4.674200 4.176800
4.719300 4.645900
4.764500 4.900000
4.809600 4.587000
4.854800 3.507600
4.900000 2.505400
4.945100 2.610500
4.990300 3.718100
5.035400 4.468700
5.080600 5.619300
5.125800 6.072700
5.170900 6.218300
5.216100 4.739100
5.261200 3.771800
5.306400 4.036700
5.351500 4.210000
5.396700 4.653200
5.441900 4.728200
5.487000 4.276200
5.532200 4.158900
5.577300 3.993600
5.622500 3.889400
5.667600 4.074900
5.712800 4.440900
5.758000 4.431800
5.803100 4.146000
5.848300 4.156900
5.893400 4.031600
5.938600 4.877000
5.983700 5.172700
6.028900 4.114800
6.074100 3.996800
6.119200 4.370900
6.164400 4.965400
6.209500 4.623600
6.254700 4.391500
6.299800 4.923800
6.345000 4.406900
6.390200 4.138400
6.435300 4.278400
6.480500 5.213500
6.525600 6.646800
6.570800 6.587300
6.615900 5.779500
6.661100 5.580300
6.706300 5.976400
6.751400 6.106000
6.796600 5.474400
6.841700 5.377900
6.886900 6.769200
6.932000 8.123600
6.977200 7.967100
7.022400 7.950200
7.067500 7.420100
7.112700 7.105800
7.157800 7.244300
7.203000 6.982500
7.248100 7.116200
7.293300 7.265700
7.338500 5.979300
7.383600 5.876700
7.428800 5.571500
7.473900 4.654300
7.519100 4.689600
7.564200 5.032700
7.609400 5.039700
7.654600 4.831800
7.699700 5.305100
7.744900 5.073700
7.790000 4.708700
7.835200 4.726800
7.880300 3.971900
7.925500 3.328700
7.970700 3.143100
8.015800 3.163500
8.061000 3.792900
8.106100 4.609200
8.151300 4.866800
8.196400 4.919300
8.241600 4.304200
8.286800 4.028700
8.331900 4.060400
8.377100 4.236100
8.422200 4.313500
8.467400 4.879500
8.512500 5.870400
8.557700 5.740800
8.602900 4.661900
8.648000 3.570600
8.693200 3.947200
8.738300 4.737600
8.783500 4.783100
8.828600 4.916800
8.873800 5.433600
8.919000 4.564900
8.964100 3.609400
9.009300 3.366500
9.054400 3.207600
9.099600 2.925100
9.144700 3.304000
9.189900 4.298100
9.235100 4.372700
9.280200 4.365400
9.325400 4.152300
9.370500 3.500500
9.415700 3.542400
9.460800 3.637900
9.506000 3.550800
9.551200 3.716200
9.596300 3.925200
9.641500 4.199700
9.686600 4.043600
9.731800 4.223300
9.776900 3.549000
9.822100 3.084500
9.867300 3.641900
9.912400 3.993400
9.957600 4.086100
10.002700 4.142700
10.047900 3.828200
10.093000 3.404000
10.138200 4.201600
10.183400 4.434600
10.228500 3.925400
10.273700 4.324900
10.318800 4.221400
10.364000 3.488600
10.409100 3.135300
10.454300 3.951300
10.499500 4.780200
10.544600 3.656300
10.589800 2.903700
10.634900 3.308100
10.680100 3.847800
10.725200 4.274200
10.770400 4.546600
10.815600 4.311100
10.860700 3.874800
10.905900 4.084500
10.951000 4.434400
10.996200 4.512000
11.041300 4.123400
11.086500 3.984000
11.131700 4.602400
11.176800 5.812500
11.222000 6.659600
11.267100 6.414800
11.312300 6.236600
11.357400 6.608000
11.402600 6.728900
11.447800 5.680700
11.492900 4.535200
11.538100 4.601900
11.583200 4.096900
11.628400 3.718700
11.673500 3.434900
11.718700 3.306100
11.763900 3.533300
11.809000 3.380400
11.854200 2.940300
11.899300 2.788900
11.944500 2.236300
11.989600 1.256300
12.034800 1.117000
12.080000 1.658900
12.125100 1.171900
12.170300 0.634800
12.215400 1.091200
12.260600 1.507100
12.305700 1.086300
12.350900 1.137000
12.396100 1.314600
12.441200 0.986900
12.486400 0.671600
12.531500 0.696000
12.576700 1.067900
12.621800 1.602900
12.667000 1.173500
12.712200 1.426900
12.757300 1.975900
12.802500 1.705300
12.847600 1.000200
12.892800 0.723100
12.937900 0.946800
12.983100 1.004700
13.028300 0.837800
13.073400 0.738700
13.118600 0.609300
13.163700 0.860600
13.208900 1.088400
13.254000 1.013000
13.299200 1.180800
13.344400 1.586200
13.389500 1.114100
13.434700 0.542500
13.479800 0.575500
13.525000 0.872700
13.570100 0.965900
13.615300 1.611200
13.660500 1.797700
13.705600 1.231700
13.750800 1.010600
13.795900 0.815500
13.841100 0.882800
13.886200 1.240900
13.931400 1.205700
13.976600 0.984600
14.021700 1.237900
14.066900 1.519900
14.112000 1.213800
14.157200 0.614000
14.202300 0.431000
14.247500 0.927300
14.292700 1.070100
14.337800 0.741900
14.383000 0.894200
14.428100 1.389100
14.473300 1.027400
14.518400 0.523400
14.563600 1.092300
14.608800 1.678300
14.653900 1.325500
14.699100 1.499200
14.744200 1.546100
14.789400 1.048500
14.834500 0.731300
14.879700 0.658700
14.924900 0.945100
14.970000 1.151800
15.015200 0.995800
15.060300 0.921000
15.105500 0.726500
15.150600 0.685200
15.195800 0.782900
15.241000 0.893800
15.286100 0.844000
15.331300 1.569500
15.376400 2.203100
15.421600 1.461900
15.466700 0.653800
15.511900 0.350100
15.557100 0.385000
15.602200 0.997300
15.647400 1.239400
15.692500 0.948000
15.737700 0.872900
15.782800 0.893800
15.828000 0.721800
15.873200 0.588100
15.918300 0.474500
15.963500 0.669800
16.008600 0.709000
16.053800 0.596200
16.098900 0.832200
16.144100 0.993700
16.189300 0.931300
16.234400 1.001800
16.279600 0.889000
16.324700 0.799400
16.369900 0.746700
16.415000 0.853900
16.460200 0.862500
16.505400 0.928700
16.550500 0.931100
16.595700 0.635800
16.640800 0.595000
16.686000 0.856000
16.731100 0.753700
16.776300 0.620500
16.821500 0.600700
16.866600 0.462000
16.911800 0.449600
16.956900 0.489200
17.002100 0.529500
17.047200 0.599400
17.092400 0.656600
17.137600 0.707900
17.182700 0.865400
17.227900 0.963400
17.273000 0.779400
17.318200 0.367800
17.363300 0.213400
17.408500 0.163300
17.453700 0.138200
17.498800 0.407600
17.544000 0.959400
17.589100 0.897900
17.634300 0.348000
17.679400 0.223000
17.724600 0.403100
17.769800 0.346400
17.814900 0.345900
17.860100 0.321100
17.905200 0.178800
17.950400 0.061500
17.995500 0.034300
18.040700 0.177400
18.085900 0.415100
18.131000 0.558300
18.176200 0.627100
18.221300 0.978000
18.266500 1.429000
18.311600 2.054900
18.356800 2.022300
18.402000 1.696200
18.447100 2.000000
18.492300 2.336000
18.537400 1.641400
18.582600 1.488100
18.627700 1.780700
18.672900 1.904100
18.718100 2.130900
18.763200 1.830800
18.808400 1.800400
18.853500 2.043800
18.898700 1.916100
18.943800 1.638100
18.989000 1.742600
19.034200 1.641500
19.079300 1.552400
19.124500 1.399000
19.169600 1.229100
19.214800 1.518000
19.259900 1.303700
19.305100 0.992100
19.350300 1.786900
19.395400 2.061500
19.440600 1.274900
19.485700 1.024600
19.530900 1.546300
19.576000 2.253000
19.621200 9.438800
19.666400 25.142400
19.711500 36.702500
19.756700 45.925800
19.801800 21.575300
19.847000 3.879100
19.892100 1.241600
19.937300 0.885700
19.982500 1.013800
20.027600 1.232300
20.072800 1.690400
20.117900 1.654900
20.163100 1.022100
20.208200 0.706200
20.253400 0.569900
20.298600 0.722200
20.343700 1.244300
20.388900 1.349700
20.434000 1.311700
20.479200 1.491700
20.524300 1.386900
20.569500 0.988700
20.614700 1.157400
20.659800 1.566900
20.705000 1.786700
20.750100 1.630500
20.795300 1.313500
20.840400 1.174600
20.885600 1.602100
20.930800 2.225000
20.975900 1.820300
21.021100 1.574400
21.066200 1.887100
21.111400 1.665600
21.156500 1.130900
21.201700 1.419900
21.246900 1.851100
21.292000 1.900200
21.337200 1.671300
21.382300 1.198800
21.427500 1.013800
21.472600 1.362500
21.517800 1.969500
21.563000 2.170700
21.608100 2.221400
21.653300 2.133500
21.698400 2.131500
21.743600 1.767100
21.788700 1.672600
21.833900 1.893100
21.879100 2.030600
21.924200 1.860700
21.969400 1.902400
22.014500 2.021500
22.059700 2.155600
22.104800 2.221900
22.150000 1.658400
22.195200 1.336800
22.240300 1.862400
22.285500 3.025700
22.330600 3.224900
22.375800 3.327400
22.420900 3.527100
22.466100 2.946200
22.511300 2.410300
22.556400 2.403700
22.601600 2.464000
22.646700 3.009400
22.691900 2.894100
22.737000 1.842700
22.782200 1.779000
22.827400 2.600700
22.872500 2.921000
22.917700 2.480000
22.962800 2.310000
23.008000 2.764300
23.053100 3.215600
23.098300 3.092600
23.143500 2.730300
23.188600 1.839900
23.233800 1.325700
23.278900 1.531200
23.324100 2.321700
23.369200 3.018300
23.414400 3.068400
23.459600 3.244800
23.504700 3.353800
23.549900 3.131000
23.595000 3.693000
23.640200 4.795900
23.685300 4.374000
23.730500 3.187300
23.775700 3.019600
23.820800 3.222500
23.866000 3.093200
23.911100 3.368000
23.956300 3.030500
24.001400 2.770400
24.046600 2.857300
24.091800 3.435100
24.136900 3.752400
24.182100 4.139500
24.227200 3.782100
24.272400 3.241500
24.317500 3.741400
24.362700 4.636600
24.407900 4.282000
24.453000 4.286400
24.498200 4.252500
24.543300 3.754700
24.588500 2.937500
24.633600 2.970900
24.678800 3.931100
24.724000 4.552000
24.769100 4.437600
24.814300 4.002000
24.859400 3.477400
24.904600 2.847400
24.949700 2.496500
24.994900 2.843600
25.040100 3.086100
25.085200 2.801600
25.130400 2.757300
25.175500 2.655300
25.220700 2.299300
25.265800 5.994100
25.311000 19.862700
25.356200 20.328500
25.401300 6.491500
25.446500 2.183800
25.491600 2.428300
25.536800 2.994600
25.582000 2.811100
25.627100 2.750100
25.672300 3.486900
25.717400 3.793000
25.762600 3.737500
25.807700 3.583300
25.852900 3.561700
25.898100 3.400100
25.943200 3.303600
25.988400 2.836400
26.033500 1.949200
26.078700 2.058900
26.123800 2.963900
26.169000 3.247300
26.214200 2.588800
26.259300 1.989200
26.304500 2.239700
26.349600 2.439000
26.394800 2.161000
26.439900 2.250000
26.485100 2.304500
26.530300 2.294100
26.575400 2.534400
26.620600 2.694500
26.665700 2.825500
26.710900 2.646000
26.756000 2.748900
26.801200 3.018600
26.846400 2.663900
26.891500 1.902500
26.936700 1.296400
26.981800 1.610700
27.027000 2.088200
27.072100 1.806600
27.117300 1.414000
27.162500 1.505700
27.207600 1.600200
27.252800 1.761600
27.297900 1.830400
27.343100 1.293400
27.388200 0.786000
27.433400 0.974800
27.478600 1.301400
27.523700 0.969100
27.568900 0.677300
27.614000 0.719300
27.659200 0.989000
27.704300 1.337800
27.749500 1.661400
27.794700 1.618300
27.839800 1.084900
27.885000 0.745700
27.930100 0.979100
27.975300 1.493900
28.020400 1.478600
28.065600 1.430600
28.110800 1.265300
28.155900 0.916900
28.201100 0.812100
28.246200 0.856300
28.291400 0.814800
28.336500 0.858700
28.381700 0.927000
28.426900 1.184700
28.472000 1.294600
28.517200 1.191300
28.562300 1.420500
28.607500 1.899200
28.652600 1.806000
28.697800 1.789900
28.743000 2.056400
28.788100 2.094100
28.833300 1.928700
28.878400 2.387500
28.923600 2.990200
28.968700 2.996200
29.013900 3.715700
29.059100 4.065700
29.104200 3.489200
29.149400 3.010200
29.194500 2.903100
29.239700 2.629300
29.284800 2.440100
29.330000 2.472900
29.375200 2.924400
29.420300 3.303900
29.465500 3.337500
29.510600 3.635200
29.555800 3.728600
29.600900 3.470300
29.646100 3.679400
29.691300 4.046400
29.736400 3.377400
29.781600 2.818600
29.826700 3.175000
29.871900 3.122400
29.917000 3.065900
29.962200 3.010200
30.007400 2.764600
30.052500 3.035600
30.097700 2.884800
30.142800 2.341800
30.188000 2.379200
30.233100 2.675200
30.278300 2.697600
30.323500 2.730900
30.368600 3.066400
30.413800 3.175900
30.458900 2.960400
30.504100 2.504700
30.549200 2.375500
30.594400 2.741000
30.639600 2.801200
30.684700 3.023000
30.729900 2.939100
30.775000 2.570000
30.820200 2.514600
30.865300 2.614200
30.910500 2.688200
30.955700 3.382300
31.000800 3.689100
31.046000 2.889500
31.091100 2.041000
31.136300 1.666700
31.181400 1.612000
31.226600 1.896800
31.271800 2.596600
31.316900 2.741900
31.362100 2.150800
31.407200 2.159200
31.452400 2.496400
31.497500 2.543000
31.542700 2.453900
31.587900 2.293700
31.633000 2.022500
31.678200 1.669100
31.723300 1.622100
31.768500 1.979200
31.813600 1.694900
31.858800 1.073600
31.904000 1.024500
31.949100 1.162700
31.994300 1.140000
32.039400 1.034000
32.084600 1.531000
32.129700 2.085700
32.174900 1.681300
32.220100 1.183500
32.265200 1.155600
32.310400 1.159600
32.355500 1.069500
32.400700 0.933700
32.445800 1.049700
32.491000 1.372800
32.536200 1.668900
32.581300 1.886600
32.626500 2.007100
32.671600 1.651100
32.716800 1.120100
32.761900 0.862800
32.807100 0.766900
32.852300 0.856300
32.897400 1.046600
32.942600 1.235500
32.987700 1.296100
33.032900 1.653300
33.078000 1.631700
33.123200 1.172300
33.168400 0.923500
33.213500 1.010300
33.258700 1.523400
33.303800 2.182800
33.349000 2.142100
33.394100 1.688100
33.439300 1.651100
33.484500 1.804300
33.529600 1.894300
33.574800 1.633900
33.619900 1.386500
33.665100 1.852800
33.710200 2.518700
33.755400 2.656100
33.800600 2.008500
33.845700 2.108300
33.890900 2.649400
33.936000 2.893300
33.981200 2.413700
34.026300 2.111600
34.071500 2.391700
34.116700 1.755800
34.161800 1.555900
34.207000 1.918400
34.252100 2.532800
34.297300 2.725900
34.342400 2.719800
34.387600 3.014000
34.432800 2.705700
34.477900 2.827700
34.523100 3.587300
34.568200 2.832400
34.613400 2.071300
34.658500 2.684700
34.703700 3.127300
34.748900 2.781600
34.794000 2.922500
34.839200 3.429600
34.884300 3.092800
34.929500 2.175800
34.974600 1.679200
35.019800 1.638900
35.065000 1.396300
35.110100 1.424300
35.155300 1.701600
35.200400 2.096500
35.245600 1.873800
35.290700 2.000600
35.335900 3.128800
35.381100 3.504900
35.426200 2.883800
35.471400 2.334000
35.516500 2.326400
35.561700 2.303400
35.606800 2.368800
35.652000 3.009300
35.697200 3.598600
35.742300 3.486700
35.787500 3.070500
35.832600 2.506200
35.877800 1.667700
35.922900 1.685000
35.968100 2.118900
36.013300 2.344900
36.058400 2.542600
36.103600 2.512000
36.148700 2.389700
36.193900 2.578700
36.239000 2.791000
36.284200 2.595400
36.329400 2.644000
36.374500 2.319300
36.419700 1.842300
36.464800 2.118400
36.510000 2.943000
36.555100 2.813200
36.600300 2.606900
36.645500 2.320700
36.690600 2.379700
36.735800 2.708700
36.780900 2.886400
36.826100 2.853400
36.871200 2.799600
36.916400 2.620200
36.961600 1.849500
37.006700 1.961400
37.051900 3.182300
37.097000 4.397000
37.142200 4.886100
37.187300 3.919000
37.232500 3.419700
37.277700 4.354500
37.322800 4.527600
37.368000 5.249200
37.413100 5.837800
37.458300 5.845600
37.503400 5.289400
37.548600 4.637600
37.593800 4.810100
37.638900 4.662700
37.684100 4.502600
37.729200 4.564700
37.774400 4.075800
37.819500 3.753600
37.864700 4.092700
37.909900 4.404500
37.955000 4.176400
38.000200 4.549700
38.045300 5.412300
38.090500 5.104000
38.135600 4.447800
38.180800 3.991200
38.226000 3.583900
38.271100 3.227100
38.316300 3.448800
38.361400 3.328600
38.406600 3.032900
38.451700 2.714700
38.496900 2.628100
38.542100 2.401200
38.587200 1.919800
38.632400 2.231500
38.677500 2.748700
38.722700 2.540300
38.767800 2.479600
38.813000 3.004800
38.858200 2.999900
38.903300 2.899400
38.948500 2.945700
38.993600 2.720100
39.038800 3.014200
39.083900 2.664600
39.129100 2.149500
39.174300 2.242500
39.219400 2.766000
39.264600 3.119500
39.309700 2.928400
39.354900 2.345200
39.400000 1.983500
39.445200 2.431200
39.490400 2.850000
39.535500 2.803200
39.580700 2.913300
39.625800 2.849400
39.671000 2.942500
39.716100 2.463900
39.761300 1.782900
39.806500 1.602200
39.851600 1.815900
39.896800 2.398700
39.941900 2.422600
39.987100 2.114000
40.032200 2.145400
40.077400 2.096200
40.122600 1.693100
40.167700 1.273400
40.212900 1.532900
40.258000 2.181700
40.303200 2.577800
40.348300 2.012700
40.393500 1.229500
40.438700 1.409900
40.483800 1.841600
40.529000 1.820300
40.574100 1.572000
40.619300 2.058600
40.664400 2.696600
40.709600 2.362700
40.754800 1.795900
40.799900 1.578200
40.845100 1.453900
40.890200 1.379100
40.935400 1.558200
40.980500 1.822100
41.025700 2.425000
41.070900 2.635400
41.116000 2.245200
41.161200 1.853200
41.206300 1.927500
41.251500 2.520900
41.296600 2.483700
41.341800 2.619700
41.387000 3.021500
41.432100 2.726900
41.477300 2.943500
41.522400 3.408400
41.567600 2.793300
41.612700 1.985400
41.657900 1.941500
41.703100 2.345000
41.748200 2.545300
41.793400 2.593700
41.838500 2.901200
41.883700 2.930700
41.928800 2.019200
41.974000 1.710000
42.019200 1.983800
42.064300 1.845100
42.109500 1.835400
42.154600 1.744700
42.199800 1.946800
42.244900 2.271100
42.290100 2.221300
42.335300 2.235300
42.380400 2.175200
42.425600 1.993800
42.470700 2.215500
42.515900 2.348500
42.561000 2.259700
42.606200 2.485900
42.651400 2.335900
42.696500 2.653500
42.741700 3.321200
42.786800 3.039600
42.832000 2.471900
42.877100 2.666200
42.922300 3.046600
42.967500 2.747500
43.012600 2.313600
43.057800 1.933600
43.102900 1.803100
43.148100 2.204700
43.193200 2.172000
43.238400 2.353300
43.283600 2.993900
43.328700 3.176700
43.373900 2.877800
43.419000 2.610300
43.464200 2.848200
43.509300 2.328900
43.554500 1.730900
43.599700 1.804200
43.644800 2.291800
43.690000 2.627600
43.735100 2.853800
43.780300 3.393800
43.825400 3.369100
43.870600 3.616900
43.915800 4.494300
43.960900 4.108400
44.006100 3.130400
44.051200 3.107100
44.096400 3.429600
44.141500 2.997100
44.186700 2.046100
44.231900 2.061500
44.277000 2.734900
44.322200 3.403100
44.367300 3.134300
44.412500 2.281900
44.457600 2.330400
44.502800 2.677600
44.548000 2.561500
44.593100 2.828400
44.638300 2.745100
44.683400 2.280400
44.728600 2.586200
44.773700 2.840800
44.818900 2.378400
44.864100 2.278200
44.909200 2.835100
44.954400 3.017100
44.999500 2.767900
45.044700 2.928300
45.089800 3.432600
45.135000 3.100400
45.180200 2.153800
45.225300 2.252100
45.270500 2.800100
45.315600 2.500800
45.360800 2.322000
45.405900 2.454800
45.451100 2.292700
45.496300 2.538700
45.541400 2.698700
45.586600 2.620100
45.631700 2.595100
45.676900 2.147400
45.722000 2.187500
45.767200 3.270000
45.812400 3.792900
45.857500 3.411900
45.902700 2.896200
45.947800 2.605800
45.993000 2.652500
46.038200 2.812600
46.083300 2.752200
46.128500 2.815800
46.173600 2.895900
46.218800 2.986000
46.263900 3.140200
46.309100 2.944900
46.354300 2.895800
46.399400 3.065700
46.444600 3.175800
46.489700 3.606600
46.534900 3.839300
46.580000 4.193500
46.625200 4.578100
46.670400 4.171900
46.715500 3.784600
46.760700 3.875000
46.805800 3.915800
46.851000 3.906400
46.896100 4.507000
46.941300 4.665500
46.986500 3.621300
47.031600 3.073400
47.076800 3.464200
47.121900 3.476100
47.167100 3.338400
47.212200 3.315600
47.257400 3.624700
47.302600 3.818400
47.347700 3.760700
47.392900 3.973800
47.438000 4.471800
47.483200 4.849500
47.528300 4.473200
47.573500 3.876700
47.618700 3.964700
47.663800 4.688400
47.709000 3.934100
47.754100 3.525400
47.799300 4.009800
47.844400 4.098900
47.889600 3.810300
47.934800 3.326000
47.979900 3.173100
48.025100 3.085300
48.070200 2.755900
48.115400 2.580700
48.160500 2.273100
48.205700 2.679100
48.250900 2.899000
48.296000 2.603000
48.341200 2.514800
48.386300 2.236700
48.431500 2.467600
48.476600 3.179600
48.521800 3.456400
48.567000 4.020700
48.612100 4.963900
48.657300 4.846100
48.702400 3.740500
48.747600 3.175500
48.792700 2.814300
48.837900 2.433500
48.883100 2.292700
48.928200 2.488200
48.973400 2.719300
49.018500 3.643400
49.063700 3.948800
49.108800 2.972700
49.154000 2.661600
49.199200 2.998400
49.244300 2.973200
49.289500 2.515200
49.334600 2.259100
49.379800 2.494500
49.424900 2.493700
49.470100 2.504400
49.515300 2.561100
49.560400 2.157400
49.605600 2.104500
49.650700 2.060700
49.695900 1.479800
49.741000 1.185200
49.786200 1.398200
49.831400 1.923400
49.876500 1.887900
49.921700 1.434800
49.966800 1.459300
50.012000 1.085000
50.057100 0.635900
50.102300 1.073400
50.147500 1.415300
50.192600 1.124400
50.237800 0.904800
50.282900 0.894300
50.328100 0.454200
50.373200 0.103800
50.418400 0.010600
50.463600 0.029300
50.508700 0.094300
50.553900 0.124300
50.599000 0.297600
50.644200 0.439500
50.689300 0.318600
50.734500 0.171000
50.779700 0.112800
50.824800 0.045900
50.870000 0.005000
50.915100 0.000100
50.960300 0.000000
51.005400 0.000800
51.050600 0.016000
51.095800 0.076300
51.140900 0.086800
51.186100 0.023700
51.231200 0.001500
51.276400 0.000000
51.321500 0.000000
51.366700 0.000000
51.411900 0.000000
51.457000 0.000000
51.502200 0.000000
51.547300 0.000000
51.592500 0.000000
51.637600 0.000000
51.682800 0.000000
51.728000 0.000000
51.773100 0.000000
51.818300 0.000000
51.863400 0.000000
51.908600 0.000000
51.953700 0.000000
51.998900 0.000000
52.044100 0.000000
52.089200 0.000000
52.134400 0.000000
52.179500 0.000000
52.224700 0.000000
52.269800 0.000000
52.315000 0.000000
52.360200 0.000000
52.405300 0.000000
52.450500 0.000000
52.495600 0.000000
52.540800 0.000000
52.585900 0.000000
52.631100 0.000000
52.676300 0.000000
52.721400 0.000000
52.766600 0.000000
52.811700 0.000000
52.856900 0.000000
52.902000 0.000000
52.947200 0.000000
52.992400 0.000000
53.037500 0.000000
53.082700 0.000000
53.127800 0.000000
53.173000 0.000000
53.218100 0.000000
53.263300 0.000000
53.308500 0.000000
53.353600 0.000000
53.398800 0.000000
53.443900 0.000000
53.489100 0.000000
53.534200 0.000000
53.579400 0.000000
53.624600 0.000000
53.669700 0.000000
53.714900 0.000000
53.760000 0.000000
53.805200 0.000000
53.850300 0.000000
53.895500 0.000000
53.940700 0.000000
53.985800 0.000000
54.031000 0.000000
54.076100 0.000000
54.121300 0.000000
54.166400 0.000000
54.211600 0.000000
54.256800 0.000000
54.301900 0.000000
54.347100 0.000000
54.392200 0.000000
54.437400 0.000000
54.482500 0.000000
54.527700 0.000000
54.572900 0.000000
54.618000 0.000000
54.663200 0.000000
54.708300 0.000000
54.753500 0.000000
54.798600 0.000000
54.843800 0.000000
54.889000 0.000000
54.934100 0.000000
54.979300 0.000000
55.024400 0.000000
55.069600 0.000000
55.114700 0.000000
55.159900 0.000000
55.205100 0.000000
e
