set title 'mp-10390 - Density of States'
set xlabel 'Energy (eV)'
set ylabel 'DOS (states/eV)'
set grid
set xrange [-10:10]
set yrange [0:24.845]
set xzeroaxis lt -1
set terminal png size 800,600
set output 'mp-10390_dos_gnuplot.png'
plot '-' using 1:2 with lines title 'DOS'
-35.783200 0.000000
-35.748200 0.000000
-35.713200 0.000000
-35.678300 0.000000
-35.643300 0.000000
-35.608300 0.000000
-35.573400 0.000000
-35.538400 0.000000
-35.503500 0.000000
-35.468500 0.000000
-35.433500 0.000000
-35.398600 0.000000
-35.363600 0.000000
-35.328600 0.000000
-35.293700 0.000000
-35.258700 0.000000
-35.223800 0.000000
-35.188800 0.000000
-35.153800 0.000000
-35.118900 0.000000
-35.083900 0.000000
-35.048900 0.000000
-35.014000 0.000000
-34.979000 0.000000
-34.944100 0.000000
-34.909100 0.000000
-34.874100 0.000000
-34.839200 0.000000
-34.804200 0.000000
-34.769200 0.000000
-34.734300 0.000000
-34.699300 0.000000
-34.664400 0.000000
-34.629400 0.000000
-34.594400 0.000000
-34.559500 0.000000
-34.524500 0.000000
-34.489500 0.000000
-34.454600 0.000000
-34.419600 0.000000
-34.384700 0.000000
-34.349700 0.000000
-34.314700 0.000000
-34.279800 0.000000
-34.244800 0.000000
-34.209800 0.000000
-34.174900 0.000000
-34.139900 0.000000
-34.105000 0.000000
-34.070000 0.000000
-34.035000 0.000000
-34.000100 0.000000
-33.965100 0.000000
-33.930100 0.000000
-33.895200 0.000000
-33.860200 0.000000
-33.825300 0.000000
-33.790300 0.000000
-33.755300 0.000000
-33.720400 0.000000
-33.685400 0.000000
-33.650400 0.000000
-33.615500 0.000000
-33.580500 0.000000
-33.545500 0.000000
-33.510600 0.000000
-33.475600 0.000000
-33.440700 0.000000
-33.405700 0.000000
-33.370700 0.000000
-33.335800 0.000000
-33.300800 0.000000
-33.265800 0.000000
-33.230900 0.000000
-33.195900 0.000000
-33.161000 0.000000
-33.126000 0.000000
-33.091000 0.000000
-33.056100 0.000000
-33.021100 0.000000
-32.986100 0.000000
-32.951200 0.000000
-32.916200 0.000000
-32.881300 0.000000
-32.846300 0.000000
-32.811300 0.000000
-32.776400 0.000000
-32.741400 0.000000
-32.706400 0.000000
-32.671500 0.000000
-32.636500 0.000000
-32.601600 41.824800
-32.566600 46.411400
-32.531600 84.951700
-32.496700 276.503900
-32.461700 20.594700
-32.426700 106.785100
-32.391800 142.577200
-32.356800 0.000000
-32.321900 0.000000
-32.286900 0.000000
-32.251900 0.000000
-32.217000 0.000000
-32.182000 0.000000
-32.147000 0.000000
-32.112100 0.000000
-32.077100 0.000000
-32.042200 0.000000
-32.007200 0.000000
-31.972200 0.000000
-31.937300 0.000000
-31.902300 0.000000
-31.867300 0.000000
-31.832400 0.000000
-31.797400 0.000000
-31.762500 0.000000
-31.727500 0.000000
-31.692500 0.000000
-31.657600 0.000000
-31.622600 0.000000
-31.587600 0.000000
-31.552700 0.000000
-31.517700 0.000000
-31.482800 0.000000
-31.447800 0.000000
-31.412800 0.000000
-31.377900 0.000000
-31.342900 0.000000
-31.307900 0.000000
-31.273000 0.000000
-31.238000 0.000000
-31.203100 0.000000
-31.168100 0.000000
-31.133100 0.000000
-31.098200 0.000000
-31.063200 0.000000
-31.028200 0.000000
-30.993300 0.000000
-30.958300 0.000000
-30.923400 0.000000
-30.888400 0.000000
-30.853400 0.000000
-30.818500 0.000000
-30.783500 0.000000
-30.748500 0.000000
-30.713600 0.000000
-30.678600 0.000000
-30.643700 0.000000
-30.608700 0.000000
-30.573700 0.000000
-30.538800 0.000000
-30.503800 0.000000
-30.468800 0.000000
-30.433900 0.000000
-30.398900 0.000000
-30.364000 0.000000
-30.329000 0.000000
-30.294000 0.000000
-30.259100 0.000000
-30.224100 0.000000
-30.189100 0.000000
-30.154200 0.000000
-30.119200 0.000000
-30.084300 0.000000
-30.049300 0.000000
-30.014300 0.000000
-29.979400 0.000000
-29.944400 0.000000
-29.909400 0.000000
-29.874500 0.000000
-29.839500 0.000000
-29.804600 0.000000
-29.769600 0.000000
-29.734600 0.000000
-29.699700 0.000000
-29.664700 0.000000
-29.629700 0.000000
-29.594800 0.000000
-29.559800 0.000000
-29.524900 0.000000
-29.489900 0.000000
-29.454900 0.000000
-29.420000 0.000000
-29.385000 0.000000
-29.350000 0.000000
-29.315100 0.000000
-29.280100 0.000000
-29.245200 0.000000
-29.210200 0.000000
-29.175200 0.000000
-29.140300 0.000000
-29.105300 0.000000
-29.070300 0.000000
-29.035400 0.000000
-29.000400 0.000000
-28.965500 0.000000
-28.930500 0.000000
-28.895500 0.000000
-28.860600 0.000000
-28.825600 0.000000
-28.790600 0.000000
-28.755700 0.000000
-28.720700 0.000000
-28.685800 0.000000
-28.650800 0.000000
-28.615800 0.000000
-28.580900 0.000000
-28.545900 0.000000
-28.510900 0.000000
-28.476000 0.000000
-28.441000 0.000000
-28.406100 0.000000
-28.371100 0.000000
-28.336100 0.000000
-28.301200 0.000000
-28.266200 0.000000
-28.231200 0.000000
-28.196300 0.000000
-28.161300 0.000000
-28.126400 0.000000
-28.091400 0.000000
-28.056400 0.000000
-28.021500 0.000000
-27.986500 0.000000
-27.951500 0.000000
-27.916600 0.000000
-27.881600 0.000000
-27.846700 0.000000
-27.811700 0.000000
-27.776700 0.000000
-27.741800 0.000000
-27.706800 0.000000
-27.671800 0.000000
-27.636900 0.000000
-27.601900 0.000000
-27.567000 0.000000
-27.532000 0.000000
-27.497000 0.000000
-27.462100 0.000000
-27.427100 0.000000
-27.392100 0.000000
-27.357200 0.000000
-27.322200 0.000000
-27.287300 0.000000
-27.252300 0.000000
-27.217300 0.000000
-27.182400 0.000000
-27.147400 0.000000
-27.112400 0.000000
-27.077500 0.000000
-27.042500 0.000000
-27.007600 0.000000
-26.972600 0.000000
-26.937600 0.000000
-26.902700 0.000000
-26.867700 0.000000
-26.832700 0.000000
-26.797800 0.000000
-26.762800 0.000000
-26.727900 0.000000
-26.692900 0.000000
-26.657900 0.000000
-26.623000 0.000000
-26.588000 0.000000
-26.553000 0.000000
-26.518100 0.000000
-26.483100 0.000000
-26.448200 0.000000
-26.413200 0.000000
-26.378200 0.000000
-26.343300 0.000000
-26.308300 0.000000
-26.273300 0.000000
-26.238400 0.000000
-26.203400 0.000000
-26.168500 0.000000
-26.133500 0.000000
-26.098500 0.000000
-26.063600 0.000000
-26.028600 0.000000
-25.993600 0.000000
-25.958700 0.000000
-25.923700 0.000000
-25.888800 0.000000
-25.853800 0.000000
-25.818800 0.000000
-25.783900 0.000000
-25.748900 0.000000
-25.713900 0.000000
-25.679000 0.000000
-25.644000 0.000000
-25.609100 0.000000
-25.574100 0.000000
-25.539100 0.000000
-25.504200 0.000000
-25.469200 0.000000
-25.434200 0.000000
-25.399300 0.000000
-25.364300 0.000000
-25.329400 0.000000
-25.294400 0.000000
-25.259400 0.000000
-25.224500 0.000000
-25.189500 0.000000
-25.154500 0.000000
-25.119600 0.000000
-25.084600 0.000000
-25.049700 0.000000
-25.014700 0.000000
-24.979700 0.000000
-24.944800 0.000000
-24.909800 0.000000
-24.874800 0.000000
-24.839900 0.000000
-24.804900 0.000000
-24.770000 0.000000
-24.735000 0.000000
-24.700000 0.000000
-24.665100 0.000000
-24.630100 0.000000
-24.595100 0.000000
-24.560200 0.000000
-24.525200 0.000000
-24.490300 0.000000
-24.455300 0.000000
-24.420300 0.000000
-24.385400 0.000000
-24.350400 0.000000
-24.315400 0.000000
-24.280500 0.000000
-24.245500 0.000000
-24.210600 0.000000
-24.175600 0.000000
-24.140600 0.000000
-24.105700 0.000000
-24.070700 0.000000
-24.035700 0.000000
-24.000800 0.000000
-23.965800 0.000000
-23.930900 0.000000
-23.895900 0.000000
-23.860900 0.000000
-23.826000 0.000000
-23.791000 0.000000
-23.756000 0.000000
-23.721100 0.000000
-23.686100 0.000000
-23.651200 0.000000
-23.616200 0.000000
-23.581200 0.000000
-23.546300 0.000000
-23.511300 0.000000
-23.476300 0.000000
-23.441400 0.000000
-23.406400 0.000000
-23.371500 0.000000
-23.336500 0.000000
-23.301500 0.000000
-23.266600 0.000000
-23.231600 0.000000
-23.196600 0.000000
-23.161700 0.000000
-23.126700 0.000000
-23.091800 0.000000
-23.056800 0.000000
-23.021800 0.000000
-22.986900 0.000000
-22.951900 0.000000
-22.916900 0.000000
-22.882000 0.000000
-22.847000 0.000000
-22.812100 0.000000
-22.777100 0.000000
-22.742100 0.000000
-22.707200 0.000000
-22.672200 0.000000
-22.637200 0.000000
-22.602300 0.000000
-22.567300 0.000000
-22.532300 0.000000
-22.497400 0.000000
-22.462400 0.000000
-22.427500 0.000000
-22.392500 0.000000
-22.357500 0.000000
-22.322600 0.000000
-22.287600 0.000000
-22.252600 0.000000
-22.217700 0.000000
-22.182700 0.000000
-22.147800 0.000000
-22.112800 0.000000
-22.077800 0.000000
-22.042900 0.000000
-22.007900 0.000000
-21.972900 0.000000
-21.938000 0.000000
-21.903000 0.000000
-21.868100 0.000000
-21.833100 0.000000
-21.798100 0.000000
-21.763200 0.000000
-21.728200 0.000000
-21.693200 0.000000
-21.658300 0.000000
-21.623300 0.000000
-21.588400 0.000000
-21.553400 0.000000
-21.518400 0.000000
-21.483500 0.000000
-21.448500 0.000000
-21.413500 0.000000
-21.378600 0.000000
-21.343600 0.000000
-21.308700 0.000000
-21.273700 0.000000
-21.238700 0.000000
-21.203800 0.000000
-21.168800 0.000000
-21.133800 0.000000
-21.098900 0.000000
-21.063900 0.000000
-21.029000 0.000000
-20.994000 0.000000
-20.959000 0.000000
-20.924100 0.000000
-20.889100 0.000000
-20.854100 0.000000
-20.819200 0.000000
-20.784200 0.000000
-20.749300 0.000000
-20.714300 0.000000
-20.679300 0.000000
-20.644400 0.000000
-20.609400 0.000000
-20.574400 0.000000
-20.539500 0.000000
-20.504500 0.000000
-20.469600 0.000000
-20.434600 0.000000
-20.399600 0.000000
-20.364700 0.000000
-20.329700 0.000000
-20.294700 0.000000
-20.259800 0.000000
-20.224800 0.000000
-20.189900 0.000000
-20.154900 0.000000
-20.119900 0.000000
-20.085000 0.000000
-20.050000 0.000000
-20.015000 0.000000
-19.980100 0.000000
-19.945100 0.000000
-19.910200 0.000000
-19.875200 0.000000
-19.840200 0.000000
-19.805300 0.000000
-19.770300 0.000000
-19.735300 0.000000
-19.700400 0.000000
-19.665400 0.000000
-19.630500 0.000000
-19.595500 0.000000
-19.560500 0.000000
-19.525600 0.000000
-19.490600 0.000000
-19.455600 0.000000
-19.420700 0.000000
-19.385700 0.000000
-19.350800 0.000000
-19.315800 0.000000
-19.280800 0.000000
-19.245900 0.000000
-19.210900 0.000000
-19.175900 0.000000
-19.141000 0.000000
-19.106000 0.000000
-19.071100 0.000000
-19.036100 0.000000
-19.001100 0.000000
-18.966200 0.000000
-18.931200 0.000000
-18.896200 0.000000
-18.861300 0.000000
-18.826300 0.000000
-18.791400 0.000000
-18.756400 0.000000
-18.721400 0.000000
-18.686500 0.000000
-18.651500 0.000000
-18.616500 0.000000
-18.581600 0.000000
-18.546600 0.000000
-18.511700 0.000000
-18.476700 0.000000
-18.441700 0.000000
-18.406800 0.000000
-18.371800 0.000000
-18.336800 0.000000
-18.301900 0.000000
-18.266900 0.000000
-18.232000 0.000000
-18.197000 0.000000
-18.162000 0.000000
-18.127100 0.000000
-18.092100 0.000000
-18.057100 0.000000
-18.022200 0.000000
-17.987200 0.000000
-17.952300 0.000000
-17.917300 0.000000
-17.882300 0.000000
-17.847400 0.000000
-17.812400 0.000000
-17.777400 0.000000
-17.742500 0.000000
-17.707500 0.000000
-17.672600 0.000000
-17.637600 0.000000
-17.602600 0.000000
-17.567700 0.000000
-17.532700 0.000000
-17.497700 0.000000
-17.462800 0.000000
-17.427800 0.000000
-17.392900 0.000000
-17.357900 0.000000
-17.322900 0.000000
-17.288000 0.000000
-17.253000 0.000000
-17.218000 0.000000
-17.183100 0.000000
-17.148100 0.000000
-17.113200 0.000000
-17.078200 0.000000
-17.043200 0.000000
-17.008300 0.000000
-16.973300 0.000000
-16.938300 0.000000
-16.903400 0.000000
-16.868400 0.000000
-16.833500 0.000000
-16.798500 0.000000
-16.763500 0.000000
-16.728600 0.000000
-16.693600 0.000000
-16.658600 0.000000
-16.623700 0.000000
-16.588700 0.000000
-16.553800 0.000000
-16.518800 0.000000
-16.483800 0.000000
-16.448900 0.000000
-16.413900 0.000000
-16.378900 0.000000
-16.344000 0.000000
-16.309000 0.318900
-16.274100 0.572300
-16.239100 0.871500
-16.204100 1.216300
-16.169200 1.598100
-16.134200 2.103800
-16.099200 2.401100
-16.064300 2.681100
-16.029300 2.969300
-15.994400 3.196500
-15.959400 3.403800
-15.924400 3.837300
-15.889500 4.587300
-15.854500 6.246900
-15.819500 7.601400
-15.784600 7.835500
-15.749600 3.922000
-15.714700 1.646100
-15.679700 2.699200
-15.644700 4.478100
-15.609800 5.342500
-15.574800 5.916600
-15.539800 8.413500
-15.504900 13.386300
-15.469900 13.592700
-15.435000 4.028600
-15.400000 18.433500
-15.365000 16.899500
-15.330100 17.154900
-15.295100 13.575400
-15.260100 10.485900
-15.225200 12.919800
-15.190200 12.990600
-15.155300 11.039300
-15.120300 6.230300
-15.085300 4.375400
-15.050400 16.385000
-15.015400 19.083700
-14.980400 11.264500
-14.945500 9.174900
-14.910500 17.026000
-14.875600 29.680900
-14.840600 2.718200
-14.805600 4.414500
-14.770700 14.225000
-14.735700 21.300700
-14.700700 22.566500
-14.665800 20.342100
-14.630800 17.937500
-14.595900 16.200200
-14.560900 15.318800
-14.525900 18.932200
-14.491000 26.493200
-14.456000 19.675500
-14.421000 16.765300
-14.386100 9.775500
-14.351100 4.099200
-14.316200 2.309000
-14.281200 0.734200
-14.246200 0.000000
-14.211300 0.000000
-14.176300 0.000000
-14.141300 0.000000
-14.106400 0.000000
-14.071400 0.000000
-14.036500 0.000000
-14.001500 0.000000
-13.966500 0.000000
-13.931600 0.000000
-13.896600 0.000000
-13.861600 0.000000
-13.826700 0.000000
-13.791700 0.000000
-13.756800 0.000000
-13.721800 0.000000
-13.686800 0.000000
-13.651900 0.000000
-13.616900 0.000000
-13.581900 0.000000
-13.547000 0.000000
-13.512000 0.000000
-13.477100 0.000000
-13.442100 0.000000
-13.407100 0.000000
-13.372200 0.000000
-13.337200 0.000000
-13.302200 0.000000
-13.267300 0.000000
-13.232300 0.000000
-13.197400 0.000000
-13.162400 0.000000
-13.127400 0.000000
-13.092500 0.000000
-13.057500 0.000000
-13.022500 0.000000
-12.987600 0.000000
-12.952600 0.000000
-12.917700 0.000000
-12.882700 0.000000
-12.847700 0.000000
-12.812800 0.000000
-12.777800 0.000000
-12.742800 0.000000
-12.707900 0.000000
-12.672900 0.000000
-12.638000 0.000000
-12.603000 0.000000
-12.568000 0.000000
-12.533100 0.000000
-12.498100 0.000000
-12.463100 0.000000
-12.428200 0.000000
-12.393200 0.000000
-12.358300 0.000000
-12.323300 0.000000
-12.288300 0.000000
-12.253400 0.000000
-12.218400 0.000000
-12.183400 0.000000
-12.148500 0.000000
-12.113500 0.000000
-12.078600 0.000000
-12.043600 0.000000
-12.008600 0.000000
-11.973700 0.000000
-11.938700 0.000000
-11.903700 0.000000
-11.868800 0.000000
-11.833800 0.000000
-11.798800 0.000000
-11.763900 0.000000
-11.728900 0.000000
-11.694000 0.000000
-11.659000 0.000000
-11.624000 0.000000
-11.589100 0.000000
-11.554100 0.000000
-11.519100 0.000000
-11.484200 0.000000
-11.449200 0.000000
-11.414300 0.000000
-11.379300 0.000000
-11.344300 0.000000
-11.309400 0.000000
-11.274400 0.000000
-11.239400 0.000000
-11.204500 0.000000
-11.169500 0.000000
-11.134600 0.000000
-11.099600 0.000000
-11.064600 0.000000
-11.029700 0.000000
-10.994700 0.000000
-10.959700 0.000000
-10.924800 0.000000
-10.889800 0.000000
-10.854900 0.000000
-10.819900 0.000000
-10.784900 0.000000
-10.750000 0.000000
-10.715000 0.000000
-10.680000 0.000000
-10.645100 0.000000
-10.610100 0.000000
-10.575200 0.000000
-10.540200 0.000000
-10.505200 0.000000
-10.470300 0.000000
-10.435300 0.000000
-10.400300 0.000000
-10.365400 0.000000
-10.330400 0.000000
-10.295500 0.000000
-10.260500 0.000000
-10.225500 0.000000
-10.190600 0.000000
-10.155600 0.000000
-10.120600 0.000000
-10.085700 0.000000
-10.050700 0.000000
-10.015800 0.000000
-9.980800 0.000000
-9.945800 0.000000
-9.910900 0.000000
-9.875900 0.000000
-9.840900 0.000000
-9.806000 0.000000
-9.771000 0.000000
-9.736100 0.000000
-9.701100 0.000000
-9.666100 0.000000
-9.631200 0.000000
-9.596200 0.000000
-9.561200 0.000000
-9.526300 0.000000
-9.491300 0.000000
-9.456400 0.000000
-9.421400 0.000000
-9.386400 0.000000
-9.351500 0.000000
-9.316500 0.000000
-9.281500 0.000000
-9.246600 0.000000
-9.211600 0.000000
-9.176700 0.000000
-9.141700 0.000000
-9.106700 0.000000
-9.071800 0.000000
-9.036800 0.000000
-9.001800 0.000000
-8.966900 0.000000
-8.931900 0.000000
-8.897000 0.000000
-8.862000 0.000000
-8.827000 0.000000
-8.792100 0.000000
-8.757100 0.000000
-8.722100 0.000000
-8.687200 0.000000
-8.652200 0.000000
-8.617300 0.000000
-8.582300 0.000000
-8.547300 0.000000
-8.512400 0.000000
-8.477400 0.000000
-8.442400 0.000000
-8.407500 0.000000
-8.372500 0.000000
-8.337600 0.000000
-8.302600 0.000000
-8.267600 0.000000
-8.232700 0.000000
-8.197700 0.000000
-8.162700 0.000000
-8.127800 0.000000
-8.092800 0.000000
-8.057900 0.000000
-8.022900 0.000000
-7.987900 0.000000
-7.953000 0.000000
-7.918000 0.000000
-7.883000 0.000000
-7.848100 0.000000
-7.813100 0.000000
-7.778200 0.000000
-7.743200 0.000000
-7.708200 0.000000
-7.673300 0.000000
-7.638300 0.000000
-7.603300 0.000000
-7.568400 0.000000
-7.533400 0.000000
-7.498500 0.000000
-7.463500 0.000000
-7.428500 0.000000
-7.393600 0.000000
-7.358600 0.000000
-7.323600 0.000000
-7.288700 0.000000
-7.253700 0.000000
-7.218800 0.000000
-7.183800 0.000000
-7.148800 0.000000
-7.113900 0.000000
-7.078900 0.000000
-7.043900 0.000000
-7.009000 0.000000
-6.974000 0.000000
-6.939100 0.000000
-6.904100 0.000000
-6.869100 0.000000
-6.834200 0.000000
-6.799200 0.000000
-6.764200 0.000000
-6.729300 0.000000
-6.694300 0.000000
-6.659400 0.000000
-6.624400 0.000000
-6.589400 0.000000
-6.554500 0.000000
-6.519500 0.000000
-6.484500 0.000000
-6.449600 0.000000
-6.414600 0.000000
-6.379700 0.000000
-6.344700 0.000000
-6.309700 0.000000
-6.274800 0.000000
-6.239800 0.000000
-6.204800 0.000000
-6.169900 0.000000
-6.134900 0.000000
-6.100000 0.000000
-6.065000 0.000000
-6.030000 0.000000
-5.995100 0.000000
-5.960100 0.000000
-5.925100 0.000000
-5.890200 0.000000
-5.855200 0.000000
-5.820300 0.000000
-5.785300 0.000000
-5.750300 0.000000
-5.715400 0.000000
-5.680400 0.000000
-5.645400 0.000000
-5.610500 0.000000
-5.575500 0.000000
-5.540600 0.000000
-5.505600 0.000000
-5.470600 0.000000
-5.435700 0.000000
-5.400700 0.000000
-5.365700 0.000000
-5.330800 0.000000
-5.295800 0.000000
-5.260900 0.000000
-5.225900 0.000000
-5.190900 0.000000
-5.156000 0.000000
-5.121000 0.000000
-5.086000 0.000000
-5.051100 0.000000
-5.016100 0.000000
-4.981200 0.000000
-4.946200 0.000000
-4.911200 0.000000
-4.876300 0.000000
-4.841300 0.000000
-4.806300 0.000000
-4.771400 0.000000
-4.736400 0.000000
-4.701500 0.000000
-4.666500 0.000000
-4.631500 0.000000
-4.596600 0.000000
-4.561600 0.000000
-4.526600 0.000000
-4.491700 0.000000
-4.456700 0.000000
-4.421800 0.000000
-4.386800 0.000000
-4.351800 0.000000
-4.316900 0.000000
-4.281900 0.000000
-4.246900 0.000000
-4.212000 0.000000
-4.177000 0.000000
-4.142100 0.000000
-4.107100 0.000000
-4.072100 0.000000
-4.037200 0.000000
-4.002200 0.000000
-3.967200 0.463900
-3.932300 1.697900
-3.897300 2.742100
-3.862400 10.047800
-3.827400 14.598200
-3.792400 10.160700
-3.757500 7.328200
-3.722500 7.348900
-3.687500 7.746700
-3.652600 8.623900
-3.617600 9.954500
-3.582700 11.645300
-3.547700 12.752600
-3.512700 8.953400
-3.477800 4.712800
-3.442800 21.179000
-3.407800 19.450400
-3.372900 10.913500
-3.337900 10.410500
-3.303000 22.586100
-3.268000 15.415400
-3.233000 8.493000
-3.198100 6.160500
-3.163100 6.336200
-3.128100 8.025600
-3.093200 12.984500
-3.058200 12.561000
-3.023300 13.659900
-2.988300 7.893800
-2.953300 7.278300
-2.918400 7.422800
-2.883400 8.990300
-2.848400 13.275200
-2.813500 10.194200
-2.778500 9.956400
-2.743600 10.511700
-2.708600 8.435800
-2.673600 7.241600
-2.638700 7.054300
-2.603700 7.295600
-2.568700 8.442200
-2.533800 10.015000
-2.498800 10.390400
-2.463900 11.316400
-2.428900 11.742300
-2.393900 8.414400
-2.359000 6.250500
-2.324000 8.683000
-2.289000 9.635000
-2.254100 10.269400
-2.219100 12.650500
-2.184200 12.617700
-2.149200 11.600200
-2.114200 10.314600
-2.079300 11.106700
-2.044300 10.556400
-2.009300 10.821500
-1.974400 8.253100
-1.939400 7.612000
-1.904500 8.955200
-1.869500 14.153000
-1.834500 8.745400
-1.799600 5.823800
-1.764600 4.751900
-1.729600 7.782400
-1.694700 9.754600
-1.659700 13.029200
-1.624800 11.375000
-1.589800 9.808000
-1.554800 9.296800
-1.519900 9.898200
-1.484900 12.014500
-1.449900 11.609900
-1.415000 11.172200
-1.380000 9.638200
-1.345100 9.177600
-1.310100 9.537300
-1.275100 10.345600
-1.240200 12.469100
-1.205200 12.505400
-1.170200 8.881500
-1.135300 8.538600
-1.100300 8.924600
-1.065400 9.197600
-1.030400 11.116500
-0.995400 14.606900
-0.960500 10.787000
-0.925500 8.669900
-0.890500 11.446100
-0.855600 16.881300
-0.820600 13.662100
-0.785600 7.526900
-0.750700 8.809600
-0.715700 13.207900
-0.680800 16.526900
-0.645800 10.616300
-0.610800 8.064000
-0.575900 9.949100
-0.540900 12.525300
-0.505900 14.650800
-0.471000 16.352000
-0.436000 15.320700
-0.401100 15.206700
-0.366100 15.857200
-0.331100 10.605400
-0.296200 8.953600
-0.261200 16.998100
-0.226200 21.314200
-0.191300 17.493100
-0.156300 11.214600
-0.121400 17.561600
-0.086400 16.768500
-0.051400 9.411100
-0.016500 7.585400
0.018500 13.934000
0.053500 11.936400
0.088400 12.981100
0.123400 10.726200
0.158300 10.145700
0.193300 11.194000
0.228300 11.667700
0.263200 12.779400
0.298200 11.709400
0.333200 12.144200
0.368100 10.853100
0.403100 9.266700
0.438000 12.602500
0.473000 14.855300
0.508000 14.540500
0.542900 13.750200
0.577900 13.621000
0.612900 13.440400
0.647800 16.030100
0.682800 13.033800
0.717700 8.627300
0.752700 11.913100
0.787700 17.296200
0.822600 10.195700
0.857600 10.947700
0.892600 16.425900
0.927500 15.470500
0.962500 15.059400
0.997400 14.713700
1.032400 19.660200
1.067400 12.673600
1.102300 12.632200
1.137300 18.228000
1.172300 20.510500
1.207200 13.217400
1.242200 7.785000
1.277100 7.057200
1.312100 6.795600
1.347100 5.097000
1.382000 4.321000
1.417000 3.699700
1.452000 2.980100
1.486900 1.699000
1.521900 0.419000
1.556800 0.000000
1.591800 0.000000
1.626800 0.000000
1.661700 0.000000
1.696700 0.000000
1.731700 0.000000
1.766600 0.000000
1.801600 0.000000
1.836500 0.000000
1.871500 0.000000
1.906500 0.000000
1.941400 0.000000
1.976400 0.000000
2.011400 0.000000
2.046300 0.000000
2.081300 0.000000
2.116200 0.000000
2.151200 0.000000
2.186200 0.000000
2.221100 0.000000
2.256100 0.000000
2.291100 0.000000
2.326000 0.000000
2.361000 0.000000
2.395900 0.000000
2.430900 0.000000
2.465900 0.000000
2.500800 0.000000
2.535800 0.000000
2.570800 0.000000
2.605700 0.000000
2.640700 0.000000
2.675600 0.000000
2.710600 0.000000
2.745600 0.000000
2.780500 0.000000
2.815500 0.000000
2.850500 0.000000
2.885400 0.000000
2.920400 0.000000
2.955300 0.000000
2.990300 0.000000
3.025300 0.000000
3.060200 0.000000
3.095200 0.000000
3.130200 0.000000
3.165100 0.000000
3.200100 0.000000
3.235000 0.000000
3.270000 0.000000
3.305000 0.000000
3.339900 0.000000
3.374900 0.000000
3.409900 0.000000
3.444800 0.000000
3.479800 0.000000
3.514700 0.000000
3.549700 0.000000
3.584700 0.000000
3.619600 0.000000
3.654600 0.000000
3.689600 0.000000
3.724500 0.000000
3.759500 0.000000
3.794400 0.000000
3.829400 0.000000
3.864400 0.000000
3.899300 0.000000
3.934300 0.000000
3.969300 0.000000
4.004200 0.000000
4.039200 0.000000
4.074100 0.000000
4.109100 0.000000
4.144100 0.000000
4.179000 0.000000
4.214000 0.000000
4.249000 0.000000
4.283900 0.000000
4.318900 0.000000
4.353800 0.000000
4.388800 0.000000
4.423800 0.000000
4.458700 0.000000
4.493700 0.000000
4.528700 0.000000
4.563600 0.000000
4.598600 0.000000
4.633500 0.000000
4.668500 3.342300
4.703500 8.492600
4.738400 7.877800
4.773400 7.232900
4.808400 6.825400
4.843300 6.592800
4.878300 5.621100
4.913200 5.322500
4.948200 5.884300
4.983200 6.033400
5.018100 6.403100
5.053100 8.346700
5.088100 10.281100
5.123000 14.003000
5.158000 8.428800
5.192900 4.258100
5.227900 2.832600
5.262900 2.880500
5.297800 3.297800
5.332800 3.756600
5.367800 5.354900
5.402700 5.115900
5.437700 5.796100
5.472600 8.435800
5.507600 9.566500
5.542600 9.314700
5.577500 7.532600
5.612500 7.090100
5.647500 6.376700
5.682400 7.188500
5.717400 7.001100
5.752300 9.156100
5.787300 9.425900
5.822300 10.362500
5.857200 9.583400
5.892200 8.296500
5.927200 7.138400
5.962100 6.724800
5.997100 7.159100
6.032000 7.825700
6.067000 8.186100
6.102000 8.352100
6.136900 7.851600
6.171900 6.482100
6.206900 7.619500
6.241800 9.971100
6.276800 7.771400
6.311700 5.347600
6.346700 3.946300
6.381700 4.198600
6.416600 4.831500
6.451600 6.599500
6.486600 8.801200
6.521500 9.643000
6.556500 9.351500
6.591400 10.336500
6.626400 11.654500
6.661400 17.063300
6.696300 8.780200
6.731300 7.107600
6.766300 5.709300
6.801200 5.769900
6.836200 5.957200
6.871100 6.335000
6.906100 6.095100
6.941100 7.040200
6.976000 7.976900
7.011000 8.316100
7.046000 5.634500
7.080900 4.382900
7.115900 8.572100
7.150800 11.815100
7.185800 9.665600
7.220800 7.930200
7.255700 8.737300
7.290700 9.422600
7.325700 9.193300
7.360600 8.738900
7.395600 8.642200
7.430500 8.200500
7.465500 7.142800
7.500500 8.034400
7.535400 12.012900
7.570400 11.642100
7.605400 10.672300
7.640300 9.730000
7.675300 11.437500
7.710200 4.892600
7.745200 2.509100
7.780200 2.037200
7.815100 1.708200
7.850100 1.467000
7.885100 1.245400
7.920000 1.042500
7.955000 0.858400
7.989900 0.693200
8.024900 0.366900
8.059900 0.168000
8.094800 0.001700
8.129800 0.000000
8.164800 0.000000
8.199700 0.000000
8.234700 0.000000
8.269600 0.000000
8.304600 0.000000
8.339600 0.000000
8.374500 0.000700
8.409500 0.101100
8.444500 0.319400
8.479400 0.837300
8.514400 1.333300
8.549300 1.515400
8.584300 1.842600
8.619300 2.333900
8.654200 3.033500
8.689200 4.016000
8.724200 5.320000
8.759100 11.793400
8.794100 12.835400
8.829000 9.112600
8.864000 7.082000
8.899000 6.346900
8.933900 5.764700
8.968900 3.534300
9.003900 4.018000
9.038800 4.489900
9.073800 4.979400
9.108700 4.924800
9.143700 5.071600
9.178700 4.805600
9.213600 4.227800
9.248600 3.291700
9.283600 3.032500
9.318500 3.041700
9.353500 3.102400
9.388400 3.207400
9.423400 3.711100
9.458400 4.650300
9.493300 5.910100
9.528300 8.084500
9.563300 7.752400
9.598200 6.482000
9.633200 5.415300
9.668100 4.561700
9.703100 3.481900
9.738100 3.454600
9.773000 3.566400
9.808000 3.941800
9.843000 3.953300
9.877900 5.778600
9.912900 5.869200
9.947800 5.467300
9.982800 5.381200
10.017800 4.897100
10.052700 4.024400
10.087700 2.960400
10.122700 2.297800
10.157600 2.281900
10.192600 2.411200
10.227600 2.567700
10.262500 2.713300
10.297500 2.916500
10.332400 3.507900
10.367400 4.620000
10.402400 6.521100
10.437300 7.551200
10.472300 8.495200
10.507300 6.926700
10.542200 6.285700
10.577200 5.656400
10.612100 4.132500
10.647100 3.597900
10.682100 3.847900
10.717000 4.257000
10.752000 4.729200
10.787000 5.052700
10.821900 6.674300
10.856900 7.127600
10.891800 5.985000
10.926800 4.497600
10.961800 3.091900
10.996700 0.708500
11.031700 0.426200
11.066700 0.625000
11.101600 0.868100
11.136600 1.307200
11.171500 3.836100
11.206500 7.913500
11.241500 6.876300
11.276400 5.781900
11.311400 8.657300
11.346400 4.673200
11.381300 5.027100
11.416300 4.257500
11.451200 4.088800
11.486200 3.707800
11.521200 3.671900
11.556100 3.874100
11.591100 4.023100
11.626100 4.331900
11.661000 5.136400
11.696000 5.186900
11.730900 5.357300
11.765900 5.849100
11.800900 6.165400
11.835800 6.201100
11.870800 5.607500
11.905800 2.951800
11.940700 2.960500
11.975700 3.230800
12.010600 5.246600
12.045600 5.796700
12.080600 7.250800
12.115500 8.996500
12.150500 8.461100
12.185500 5.946000
12.220400 5.002200
12.255400 4.072800
12.290300 4.343500
12.325300 5.515300
12.360300 6.483900
12.395200 6.224600
12.430200 5.881400
12.465200 5.513500
12.500100 5.080100
12.535100 4.336700
12.570000 4.112400
12.605000 3.844700
12.640000 3.794500
12.674900 3.528800
12.709900 3.544500
12.744900 3.232300
12.779800 3.139900
12.814800 3.401500
12.849700 3.543700
12.884700 3.751300
12.919700 4.304000
12.954600 4.774400
12.989600 4.962900
13.024600 4.921800
13.059500 4.639000
13.094500 4.257800
13.129400 3.983800
13.164400 3.595100
13.199400 2.581600
13.234300 2.795400
13.269300 3.222300
13.304300 3.578400
13.339200 4.400900
13.374200 4.069500
13.409100 3.967900
13.444100 3.849800
13.479100 3.666300
13.514000 3.583100
13.549000 3.593500
13.584000 4.234300
13.618900 4.634100
13.653900 5.189700
13.688800 5.370700
13.723800 5.200100
13.758800 5.179100
13.793700 5.217400
13.828700 5.416200
13.863700 5.689600
13.898600 6.220200
13.933600 7.504900
13.968500 9.130300
14.003500 11.189300
14.038500 15.196900
14.073400 23.429300
14.108400 12.863700
14.143400 9.065500
14.178300 8.249000
14.213300 7.658500
14.248200 6.649600
14.283200 5.878100
14.318200 5.066000
14.353100 4.508100
14.388100 3.898100
14.423100 3.844200
14.458000 4.125800
14.493000 5.125600
14.527900 6.510000
14.562900 8.724100
14.597900 7.143600
14.632800 5.914800
14.667800 5.085400
14.702800 4.054100
14.737700 3.852900
14.772700 3.062600
14.807600 2.457200
14.842600 2.413700
14.877600 2.770300
14.912500 3.025500
14.947500 3.161800
14.982500 3.187400
15.017400 3.147400
15.052400 3.220800
15.087300 3.300600
15.122300 3.504400
15.157300 3.933200
15.192200 4.440200
15.227200 4.950300
15.262200 7.222400
15.297100 6.565900
15.332100 5.466300
15.367000 4.187300
15.402000 3.599600
15.437000 3.359800
15.471900 3.130300
15.506900 3.024200
15.541900 4.032200
15.576800 7.657600
15.611800 7.302200
15.646700 5.048800
15.681700 4.471900
15.716700 4.038200
15.751600 4.985900
15.786600 5.210000
15.821600 5.516500
15.856500 5.934500
15.891500 6.336400
15.926400 7.380400
15.961400 6.599900
15.996400 5.941100
16.031300 5.253900
16.066300 4.663500
16.101300 4.741800
16.136200 5.561400
16.171200 5.953700
16.206100 6.300700
16.241100 6.388900
16.276100 6.341400
16.311000 7.534100
16.346000 7.766800
16.381000 8.444200
16.415900 7.738100
16.450900 7.178200
16.485800 8.480800
16.520800 8.736500
16.555800 8.361600
16.590700 8.269000
16.625700 7.863200
16.660700 8.096200
16.695600 7.143700
16.730600 6.088700
16.765500 5.884300
16.800500 6.775800
16.835500 7.311800
16.870400 9.404300
16.905400 9.231200
16.940400 8.804500
16.975300 7.528100
17.010300 7.481300
17.045200 6.985400
17.080200 5.705900
17.115200 6.009300
17.150100 6.160500
17.185100 6.817000
17.220100 6.909700
17.255000 6.498600
17.290000 6.580900
17.324900 6.842700
17.359900 5.939100
17.394900 4.837900
17.429800 4.603800
17.464800 5.111900
17.499800 5.404300
17.534700 5.342300
17.569700 5.325100
17.604600 6.380500
17.639600 6.645600
17.674600 6.395500
17.709500 12.214000
17.744500 4.848400
17.779500 6.488600
17.814400 7.589100
17.849400 7.458200
17.884300 6.070100
17.919300 4.625600
17.954300 5.697700
17.989200 6.077600
18.024200 5.337000
18.059200 4.960700
18.094100 4.974200
18.129100 5.301600
18.164000 5.809500
18.199000 6.924600
18.234000 6.619100
18.268900 6.071400
18.303900 5.755900
18.338900 4.327100
18.373800 4.104900
18.408800 4.037700
18.443700 4.041000
18.478700 4.437000
18.513700 5.087600
18.548600 5.316400
18.583600 5.420900
18.618600 5.579200
18.653500 5.666700
18.688500 5.873800
18.723400 5.927100
18.758400 5.556300
18.793400 5.630400
18.828300 5.400100
18.863300 4.920400
18.898300 4.358900
18.933200 4.212300
18.968200 4.563700
19.003100 5.222900
19.038100 5.524900
19.073100 5.973300
19.108000 6.836500
19.143000 7.984600
19.178000 7.801700
19.212900 6.498500
19.247900 6.022600
19.282800 6.084600
19.317800 6.370700
19.352800 6.563300
19.387700 6.335500
19.422700 6.558400
19.457700 5.434700
19.492600 5.617400
19.527600 3.292900
19.562500 3.481300
19.597500 3.578300
19.632500 3.805900
19.667400 4.134000
19.702400 4.362400
19.737400 4.502100
19.772300 4.746800
19.807300 5.028300
19.842200 5.512200
19.877200 5.900400
19.912200 6.207100
19.947100 6.420800
19.982100 6.646100
20.017100 6.606200
20.052000 5.299200
20.087000 5.343100
20.121900 5.577500
20.156900 5.887900
20.191900 6.157600
20.226800 6.280000
20.261800 5.649900
20.296800 5.434900
20.331700 5.066000
20.366700 4.923200
20.401600 5.028600
20.436600 5.200200
20.471600 5.410300
20.506500 5.616500
20.541500 5.826800
20.576500 5.733300
20.611400 5.423100
20.646400 5.255300
20.681300 5.172600
20.716300 5.292400
20.751300 5.395400
20.786200 5.557200
20.821200 5.789900
20.856200 6.196600
20.891100 6.011600
20.926100 5.527300
20.961100 5.281900
20.996000 4.778600
21.031000 4.445600
21.065900 4.601700
21.100900 4.841700
21.135900 5.197400
21.170800 5.387400
21.205800 5.586800
21.240800 6.070500
21.275700 6.147100
21.310700 5.291000
21.345600 5.085800
21.380600 4.930200
21.415600 4.842400
21.450500 4.877000
21.485500 4.923700
21.520500 4.989500
21.555400 5.739400
21.590400 5.045500
21.625300 5.175000
21.660300 5.100300
21.695300 4.895400
21.730200 4.721500
21.765200 4.291900
21.800200 4.115200
21.835100 4.556800
21.870100 4.844200
21.905000 5.144500
21.940000 5.337100
21.975000 5.483900
22.009900 5.320400
22.044900 4.867800
22.079900 5.123700
22.114800 4.348600
22.149800 4.894000
22.184700 5.114900
22.219700 4.919900
22.254700 4.842600
22.289600 4.675000
22.324600 5.134500
22.359600 5.158100
22.394500 4.578200
22.429500 4.025100
22.464400 3.222000
22.499400 2.930200
22.534400 2.981900
22.569300 3.268800
22.604300 3.766700
22.639300 4.971100
22.674200 6.087800
22.709200 6.737600
22.744100 6.702200
22.779100 6.660100
22.814100 6.022200
22.849000 6.187900
22.884000 4.630200
22.919000 3.533900
22.953900 3.595400
22.988900 3.729000
23.023800 4.382100
23.058800 7.143200
23.093800 7.835800
23.128700 7.244500
23.163700 3.825300
23.198700 3.223700
23.233600 2.889900
23.268600 2.980300
23.303500 3.450300
23.338500 4.679700
23.373500 5.624100
23.408400 6.165700
23.443400 6.410600
23.478400 7.009600
23.513300 7.585500
23.548300 6.521900
23.583200 5.394400
23.618200 4.585700
23.653200 2.952900
23.688100 3.843600
23.723100 4.917100
23.758100 6.083300
23.793000 6.663000
23.828000 5.701000
23.862900 6.979100
23.897900 7.618000
23.932900 7.733600
23.967800 6.986700
24.002800 5.920000
24.037800 5.456500
24.072700 4.300000
24.107700 4.478200
24.142600 5.484500
24.177600 6.203700
24.212600 5.649100
24.247500 5.440300
24.282500 5.651200
24.317500 5.551100
24.352400 4.388400
24.387400 4.107800
24.422300 4.070000
24.457300 4.316400
24.492300 4.501900
24.527200 4.567700
24.562200 4.605800
24.597200 4.496000
24.632100 4.364300
24.667100 4.414800
24.702000 4.708200
24.737000 5.750200
24.772000 5.356000
24.806900 5.442300
24.841900 5.397000
24.876900 4.281600
24.911800 4.340000
24.946800 4.776800
24.981700 5.164500
25.016700 5.619000
25.051700 5.817700
25.086600 5.642400
25.121600 5.851400
25.156600 6.201000
25.191500 6.628400
25.226500 7.971500
25.261400 7.520500
25.296400 6.405900
25.331400 5.910200
25.366300 5.305100
25.401300 4.919400
25.436300 4.722900
25.471200 4.585800
25.506200 5.092700
25.541100 9.989500
25.576100 6.575600
25.611100 6.554600
25.646000 6.508500
25.681000 6.471700
25.716000 7.170800
25.750900 5.977300
25.785900 4.859700
25.820800 5.554400
25.855800 6.201200
25.890800 7.805600
25.925700 6.874500
25.960700 6.112900
25.995700 5.303500
26.030600 4.719400
26.065600 4.855000
26.100500 5.956200
26.135500 7.451200
26.170500 6.986600
26.205400 7.274500
26.240400 6.577400
26.275400 5.756600
26.310300 4.910600
26.345300 4.504200
26.380200 4.657500
26.415200 8.351700
26.450200 7.695700
26.485100 6.981700
26.520100 6.331600
26.555100 6.287200
26.590000 6.119200
26.625000 6.145000
26.659900 6.001400
26.694900 6.013700
26.729900 6.644400
26.764800 7.134100
26.799800 7.451300
26.834800 7.570700
26.869700 7.164400
26.904700 6.594700
26.939600 5.888400
26.974600 5.776600
27.009600 6.322900
27.044500 7.217800
27.079500 7.676500
27.114500 7.597100
27.149400 7.822100
27.184400 7.835000
27.219300 6.442500
27.254300 5.900800
27.289300 5.376100
27.324200 4.681500
27.359200 3.473000
27.394200 3.060100
27.429100 3.117500
27.464100 3.552400
27.499000 4.566800
27.534000 5.865400
27.569000 6.695100
27.603900 7.949200
27.638900 9.005300
27.673900 7.379800
27.708800 6.075900
27.743800 6.034700
27.778700 6.181900
27.813700 7.414400
27.848700 6.945600
27.883600 6.815200
27.918600 6.444800
27.953600 6.055700
27.988500 6.013100
28.023500 6.269000
28.058400 6.568100
28.093400 6.665000
28.128400 5.645100
28.163300 6.099700
28.198300 6.293900
28.233300 7.662200
28.268200 5.287900
28.303200 4.282800
28.338100 3.982900
28.373100 3.980000
28.408100 4.146300
28.443000 4.380200
28.478000 5.123700
28.513000 5.958500
28.547900 6.543900
28.582900 7.014200
28.617800 7.696300
28.652800 7.349000
28.687800 5.939900
28.722700 5.564500
28.757700 5.438400
28.792700 5.582200
28.827600 5.145100
28.862600 6.226800
28.897500 6.118000
28.932500 6.908000
28.967500 7.447800
29.002400 7.196800
29.037400 5.413100
29.072400 4.904700
29.107300 5.112700
29.142300 4.703800
29.177200 4.618900
29.212200 4.671300
29.247200 4.545900
29.282100 5.072300
29.317100 5.332800
29.352100 6.342500
29.387000 7.487100
29.422000 7.395600
29.456900 7.075600
29.491900 6.466800
29.526900 6.392100
29.561800 6.314600
29.596800 6.125200
29.631800 6.269100
29.666700 6.786100
29.701700 7.420100
29.736600 7.674400
29.771600 7.529800
29.806600 7.198900
29.841500 6.760500
29.876500 6.317400
29.911500 6.557500
29.946400 6.578400
29.981400 6.307400
30.016300 6.581100
30.051300 7.064300
30.086300 7.556300
30.121200 7.245200
30.156200 5.923600
30.191200 5.665300
30.226100 5.463800
30.261100 5.405400
30.296000 5.752600
30.331000 6.682900
30.366000 7.286200
30.400900 7.095900
30.435900 5.395100
30.470900 4.734300
30.505800 4.293300
30.540800 4.061000
30.575700 4.389100
30.610700 4.877900
30.645700 6.212600
30.680600 5.207600
30.715600 2.020400
30.750600 1.060400
30.785500 0.816200
30.820500 0.629200
30.855400 0.447400
30.890400 0.271500
30.925400 0.094500
30.960300 0.000500
30.995300 0.000000
31.030300 0.000000
31.065200 0.000000
31.100200 0.000000
31.135100 0.000000
31.170100 0.000000
31.205100 0.000000
31.240000 0.000000
31.275000 0.000000
31.310000 0.000000
31.344900 0.000000
31.379900 0.000000
31.414800 0.000000
31.449800 0.000000
31.484800 0.000000
31.519700 0.000000
31.554700 0.000000
31.589700 0.000000
31.624600 0.000000
31.659600 0.000000
31.694500 0.000000
31.729500 0.000000
31.764500 0.000000
31.799400 0.000000
31.834400 0.000000
31.869400 0.000000
31.904300 0.000000
31.939300 0.000000
31.974300 0.000000
32.009200 0.000000
32.044200 0.000000
32.079100 0.000000
32.114100 0.000000
32.149100 0.000000
32.184000 0.000000
32.219000 0.000000
32.254000 0.000000
32.288900 0.000000
32.323900 0.000000
32.358800 0.000000
32.393800 0.000000
32.428800 0.000000
32.463700 0.000000
32.498700 0.000000
32.533700 0.000000
32.568600 0.000000
32.603600 0.000000
32.638500 0.000000
32.673500 0.000000
32.708500 0.000000
32.743400 0.000000
32.778400 0.000000
32.813400 0.000000
32.848300 0.000000
32.883300 0.000000
32.918200 0.000000
32.953200 0.000000
32.988200 0.000000
33.023100 0.000000
33.058100 0.000000
33.093100 0.000000
33.128000 0.000000
33.163000 0.000000
33.197900 0.000000
33.232900 0.000000
33.267900 0.000000
33.302800 0.000000
33.337800 0.000000
33.372800 0.000000
33.407700 0.000000
33.442700 0.000000
33.477600 0.000000
33.512600 0.000000
33.547600 0.000000
33.582500 0.000000
33.617500 0.000000
33.652500 0.000000
33.687400 0.000000
33.722400 0.000000
33.757300 0.000000
33.792300 0.000000
33.827300 0.000000
33.862200 0.000000
33.897200 0.000000
33.932200 0.000000
33.967100 0.000000
34.002100 0.000000
34.037000 0.000000
34.072000 0.000000
34.107000 0.000000
34.141900 0.000000
e
