set title 'mp-1025077 - Density of States'
set xlabel 'Energy (eV)'
set ylabel 'DOS (states/eV)'
set grid
set xrange [-10:10]
set yrange [0:16.880]
set xzeroaxis lt -1
set terminal png size 800,600
set output 'mp-1025077_dos_gnuplot.png'
plot '-' using 1:2 with lines title 'DOS'
-20.135700 0.000000
-20.115800 0.000000
-20.096000 0.000000
-20.076100 0.000000
-20.056300 0.000000
-20.036400 0.000000
-20.016600 0.000000
-19.996700 0.000000
-19.976900 0.000000
-19.957000 0.000000
-19.937200 0.000000
-19.917300 0.000000
-19.897500 0.000000
-19.877600 0.000000
-19.857800 0.000000
-19.837900 0.000000
-19.818100 0.000000
-19.798200 0.000000
-19.778400 0.000000
-19.758500 0.000000
-19.738700 0.000000
-19.718800 0.000000
-19.699000 0.000000
-19.679100 0.000000
-19.659300 0.000000
-19.639400 0.000000
-19.619600 0.000000
-19.599700 0.000000
-19.579900 0.000000
-19.560000 0.000000
-19.540200 0.000000
-19.520300 0.000000
-19.500500 0.000000
-19.480600 0.000000
-19.460800 0.000000
-19.440900 0.000000
-19.421100 0.000000
-19.401200 0.000000
-19.381400 0.000000
-19.361500 0.000000
-19.341700 0.000000
-19.321800 0.000000
-19.302000 0.000000
-19.282100 0.000000
-19.262300 0.000000
-19.242400 0.000000
-19.222600 0.000000
-19.202700 0.000000
-19.182900 0.000000
-19.163000 0.000000
-19.143200 0.000000
-19.123300 0.000000
-19.103500 0.000000
-19.083600 0.000000
-19.063800 0.000000
-19.043900 0.000000
-19.024100 0.000000
-19.004200 0.000000
-18.984300 0.000000
-18.964500 0.000000
-18.944600 0.000000
-18.924800 0.000000
-18.904900 0.000000
-18.885100 0.000000
-18.865200 0.000000
-18.845400 0.000000
-18.825500 0.000000
-18.805700 0.000000
-18.785800 0.000000
-18.766000 0.000000
-18.746100 0.000000
-18.726300 0.000000
-18.706400 0.000000
-18.686600 0.000000
-18.666700 0.000000
-18.646900 0.000000
-18.627000 0.000000
-18.607200 0.000000
-18.587300 0.000000
-18.567500 0.000000
-18.547600 0.000000
-18.527800 0.000000
-18.507900 0.000000
-18.488100 0.000000
-18.468200 0.000000
-18.448400 0.000000
-18.428500 0.000000
-18.408700 0.000000
-18.388800 0.000000
-18.369000 0.000000
-18.349100 0.000000
-18.329300 6.319800
-18.309400 45.958300
-18.289600 46.113700
-18.269700 73.115900
-18.249900 37.766500
-18.230000 98.704000
-18.210200 219.623700
-18.190300 84.345900
-18.170500 0.000000
-18.150600 0.000000
-18.130800 0.000000
-18.110900 0.000000
-18.091100 0.000000
-18.071200 0.000000
-18.051400 0.000000
-18.031500 0.000000
-18.011700 0.000000
-17.991800 0.000000
-17.972000 0.000000
-17.952100 0.000000
-17.932300 0.000000
-17.912400 0.000000
-17.892600 0.000000
-17.872700 0.000000
-17.852900 0.000000
-17.833000 0.000000
-17.813200 0.000000
-17.793300 0.000000
-17.773500 0.000000
-17.753600 0.000000
-17.733800 0.000000
-17.713900 0.000000
-17.694100 0.000000
-17.674200 0.000000
-17.654400 0.000000
-17.634500 0.000000
-17.614700 0.000000
-17.594800 0.000000
-17.575000 0.000000
-17.555100 0.000000
-17.535300 0.000000
-17.515400 0.000000
-17.495600 0.000000
-17.475700 0.000000
-17.455900 0.000000
-17.436000 0.000000
-17.416200 0.000000
-17.396300 0.000000
-17.376500 0.000000
-17.356600 0.000000
-17.336800 0.000000
-17.316900 0.000000
-17.297100 0.000000
-17.277200 0.000000
-17.257400 0.000000
-17.237500 0.000000
-17.217700 0.000000
-17.197800 0.000000
-17.178000 0.000000
-17.158100 0.000000
-17.138300 0.000000
-17.118400 0.000000
-17.098600 0.000000
-17.078700 0.000000
-17.058900 0.000000
-17.039000 0.000000
-17.019200 0.000000
-16.999300 0.000000
-16.979500 0.000000
-16.959600 0.000000
-16.939800 0.000000
-16.919900 0.000000
-16.900100 0.000000
-16.880200 0.000000
-16.860400 0.000000
-16.840500 0.000000
-16.820700 0.000000
-16.800800 0.000000
-16.781000 0.000000
-16.761100 0.000000
-16.741300 0.000000
-16.721400 0.000000
-16.701600 0.000000
-16.681700 0.000000
-16.661900 0.000000
-16.642000 0.000000
-16.622200 0.000000
-16.602300 0.000000
-16.582500 0.000000
-16.562600 0.000000
-16.542800 0.000000
-16.522900 0.000000
-16.503000 0.000000
-16.483200 0.000000
-16.463300 0.000000
-16.443500 0.000000
-16.423600 0.000000
-16.403800 0.000000
-16.383900 0.000000
-16.364100 0.000000
-16.344200 0.000000
-16.324400 0.000000
-16.304500 0.000000
-16.284700 0.000000
-16.264800 0.000000
-16.245000 0.000000
-16.225100 0.000000
-16.205300 0.000000
-16.185400 0.000000
-16.165600 0.000000
-16.145700 0.000000
-16.125900 0.000000
-16.106000 0.000000
-16.086200 0.000000
-16.066300 0.000000
-16.046500 0.000000
-16.026600 0.000000
-16.006800 0.000000
-15.986900 0.000000
-15.967100 0.000000
-15.947200 0.000000
-15.927400 0.000000
-15.907500 0.000000
-15.887700 0.000000
-15.867800 0.000000
-15.848000 0.000000
-15.828100 0.000000
-15.808300 0.000000
-15.788400 0.000000
-15.768600 0.000000
-15.748700 0.000000
-15.728900 0.000000
-15.709000 0.000000
-15.689200 0.000000
-15.669300 0.000000
-15.649500 0.000000
-15.629600 0.000000
-15.609800 0.000000
-15.589900 0.000000
-15.570100 0.000000
-15.550200 0.000000
-15.530400 0.000000
-15.510500 0.000000
-15.490700 0.000000
-15.470800 0.000000
-15.451000 0.000000
-15.431100 0.000000
-15.411300 0.000000
-15.391400 0.000000
-15.371600 0.000000
-15.351700 0.000000
-15.331900 0.000000
-15.312000 0.000000
-15.292200 0.000000
-15.272300 0.000000
-15.252500 0.000000
-15.232600 0.000000
-15.212800 0.000000
-15.192900 0.000000
-15.173100 0.000000
-15.153200 0.000000
-15.133400 0.000000
-15.113500 0.000000
-15.093700 0.000000
-15.073800 0.000000
-15.054000 0.000000
-15.034100 0.000000
-15.014300 0.000000
-14.994400 0.000000
-14.974600 0.000000
-14.954700 0.000000
-14.934900 0.000000
-14.915000 0.000000
-14.895200 0.000000
-14.875300 0.000000
-14.855500 0.000000
-14.835600 0.000000
-14.815800 0.000000
-14.795900 0.000000
-14.776100 0.000000
-14.756200 0.000000
-14.736400 0.000000
-14.716500 0.000000
-14.696700 0.000000
-14.676800 0.000000
-14.657000 0.000000
-14.637100 0.000000
-14.617300 0.000000
-14.597400 0.000000
-14.577600 0.000000
-14.557700 0.000000
-14.537900 0.000000
-14.518000 0.000000
-14.498200 0.000000
-14.478300 0.000000
-14.458500 0.000000
-14.438600 0.000000
-14.418800 0.000000
-14.398900 0.000000
-14.379100 0.000000
-14.359200 0.000000
-14.339400 0.000000
-14.319500 0.000000
-14.299700 0.000000
-14.279800 0.000000
-14.260000 0.000000
-14.240100 0.000000
-14.220300 0.000000
-14.200400 0.000000
-14.180600 0.000000
-14.160700 0.000000
-14.140900 0.000000
-14.121000 0.000000
-14.101200 0.000000
-14.081300 0.000000
-14.061500 0.000000
-14.041600 0.000000
-14.021700 0.000000
-14.001900 0.000000
-13.982000 0.000000
-13.962200 0.000000
-13.942300 0.000000
-13.922500 0.000000
-13.902600 0.000000
-13.882800 0.000000
-13.862900 0.000000
-13.843100 0.000000
-13.823200 0.000000
-13.803400 0.000000
-13.783500 0.000000
-13.763700 0.000000
-13.743800 0.000000
-13.724000 0.000000
-13.704100 0.000000
-13.684300 0.000000
-13.664400 0.000000
-13.644600 0.000000
-13.624700 0.000000
-13.604900 0.000000
-13.585000 0.000000
-13.565200 0.000000
-13.545300 0.000000
-13.525500 0.000000
-13.505600 0.000000
-13.485800 0.000000
-13.465900 0.000000
-13.446100 0.000000
-13.426200 0.000000
-13.406400 0.000000
-13.386500 0.000000
-13.366700 0.000000
-13.346800 0.000000
-13.327000 0.000000
-13.307100 0.000000
-13.287300 0.000000
-13.267400 0.000000
-13.247600 0.000000
-13.227700 0.000000
-13.207900 0.000000
-13.188000 0.000000
-13.168200 0.000000
-13.148300 0.000000
-13.128500 0.000000
-13.108600 0.000000
-13.088800 0.000000
-13.068900 0.000000
-13.049100 0.000000
-13.029200 0.000000
-13.009400 0.000000
-12.989500 0.000000
-12.969700 0.000000
-12.949800 0.000000
-12.930000 0.000000
-12.910100 0.000000
-12.890300 0.000000
-12.870400 0.000000
-12.850600 0.000000
-12.830700 0.000000
-12.810900 0.000000
-12.791000 0.000000
-12.771200 0.000000
-12.751300 0.000000
-12.731500 0.000000
-12.711600 0.000000
-12.691800 0.000000
-12.671900 0.000000
-12.652100 0.000000
-12.632200 0.000000
-12.612400 0.000000
-12.592500 0.000000
-12.572700 0.000000
-12.552800 0.000000
-12.533000 0.000000
-12.513100 0.000000
-12.493300 0.000000
-12.473400 0.000000
-12.453600 0.000000
-12.433700 0.000000
-12.413900 0.000000
-12.394000 0.000000
-12.374200 0.000000
-12.354300 0.000000
-12.334500 0.000000
-12.314600 0.000000
-12.294800 0.000000
-12.274900 0.000000
-12.255100 0.000000
-12.235200 0.000000
-12.215400 0.000000
-12.195500 0.000000
-12.175700 0.000000
-12.155800 0.000000
-12.136000 0.000000
-12.116100 0.000000
-12.096300 0.000000
-12.076400 0.000000
-12.056600 0.000000
-12.036700 0.000000
-12.016900 0.000000
-11.997000 0.000000
-11.977200 0.000000
-11.957300 0.000000
-11.937500 0.000000
-11.917600 0.000000
-11.897800 0.000000
-11.877900 0.000000
-11.858100 0.000000
-11.838200 0.000000
-11.818400 0.000000
-11.798500 0.000000
-11.778700 0.000000
-11.758800 0.000000
-11.739000 0.000000
-11.719100 0.000000
-11.699300 0.000000
-11.679400 0.000000
-11.659600 0.000000
-11.639700 0.000000
-11.619900 0.000000
-11.600000 0.000000
-11.580200 0.000000
-11.560300 0.000000
-11.540400 0.000000
-11.520600 0.000000
-11.500700 0.000000
-11.480900 0.000000
-11.461000 0.000000
-11.441200 0.000000
-11.421300 0.000000
-11.401500 0.000000
-11.381600 0.000000
-11.361800 0.000000
-11.341900 0.000000
-11.322100 0.000000
-11.302200 0.000000
-11.282400 0.000000
-11.262500 0.000000
-11.242700 0.000000
-11.222800 0.000000
-11.203000 0.000000
-11.183100 0.000000
-11.163300 0.000000
-11.143400 0.000000
-11.123600 0.000000
-11.103700 0.000000
-11.083900 0.000000
-11.064000 0.000000
-11.044200 0.000000
-11.024300 0.000000
-11.004500 0.000000
-10.984600 0.000000
-10.964800 0.000000
-10.944900 0.000000
-10.925100 0.000000
-10.905200 0.000000
-10.885400 0.000000
-10.865500 0.000000
-10.845700 0.000000
-10.825800 0.000000
-10.806000 0.000000
-10.786100 0.000000
-10.766300 0.000000
-10.746400 0.000000
-10.726600 0.000000
-10.706700 0.000000
-10.686900 0.000000
-10.667000 0.000000
-10.647200 0.000000
-10.627300 0.000000
-10.607500 0.000000
-10.587600 0.000000
-10.567800 0.000000
-10.547900 0.000000
-10.528100 0.000000
-10.508200 0.000000
-10.488400 0.000000
-10.468500 0.000000
-10.448700 0.000000
-10.428800 0.000000
-10.409000 0.000000
-10.389100 0.000000
-10.369300 0.000000
-10.349400 0.000000
-10.329600 0.000000
-10.309700 0.000000
-10.289900 0.000000
-10.270000 0.000000
-10.250200 0.000000
-10.230300 0.000000
-10.210500 0.022500
-10.190600 0.215800
-10.170800 0.558300
-10.150900 0.899500
-10.131100 1.014900
-10.111200 0.914000
-10.091400 0.853600
-10.071500 0.873600
-10.051700 0.932000
-10.031800 0.990400
-10.012000 1.026900
-9.992100 1.009100
-9.972300 0.946800
-9.952400 0.913700
-9.932600 0.916800
-9.912700 0.929700
-9.892900 0.942600
-9.873000 0.955500
-9.853200 0.968400
-9.833300 0.982800
-9.813500 1.003000
-9.793600 1.028300
-9.773800 1.034700
-9.753900 1.012500
-9.734100 0.986600
-9.714200 0.979100
-9.694400 0.981300
-9.674500 0.983400
-9.654700 0.985600
-9.634800 0.987800
-9.615000 0.995300
-9.595100 1.010000
-9.575300 1.022400
-9.555400 1.034800
-9.535600 1.047200
-9.515700 1.059600
-9.495900 1.072000
-9.476000 1.083800
-9.456200 1.079100
-9.436300 1.057300
-9.416500 1.046200
-9.396600 1.049300
-9.376800 1.055600
-9.356900 1.061800
-9.337100 1.068000
-9.317200 1.074400
-9.297400 1.081500
-9.277500 1.088700
-9.257700 1.095900
-9.237800 1.103100
-9.218000 1.110400
-9.198100 1.117600
-9.178300 1.124800
-9.158400 1.132000
-9.138600 1.151800
-9.118700 1.171100
-9.098900 1.184400
-9.079000 1.191000
-9.059100 1.181000
-9.039300 1.179000
-9.019400 1.183000
-8.999600 1.186900
-8.979700 1.190800
-8.959900 1.195000
-8.940000 1.200300
-8.920200 1.205900
-8.900300 1.219500
-8.880500 1.237400
-8.860600 1.255200
-8.840800 1.273100
-8.820900 1.290000
-8.801100 1.302500
-8.781200 1.314600
-8.761400 1.326700
-8.741500 1.338800
-8.721700 1.350900
-8.701800 1.363100
-8.682000 1.375200
-8.662100 1.387300
-8.642300 1.450300
-8.622400 1.459000
-8.602600 1.475300
-8.582700 1.493600
-8.562900 1.511900
-8.543000 1.531700
-8.523200 1.551800
-8.503300 1.572000
-8.483500 1.592100
-8.463600 1.626900
-8.443800 1.702900
-8.423900 1.779000
-8.404100 1.855000
-8.384200 1.931100
-8.364400 1.998300
-8.344500 2.223200
-8.324700 2.554100
-8.304800 4.181800
-8.285000 3.455800
-8.265100 3.021400
-8.245300 3.057200
-8.225400 3.142300
-8.205600 3.210500
-8.185700 3.210000
-8.165900 3.227900
-8.146000 3.437700
-8.126200 3.301600
-8.106300 3.394800
-8.086500 3.380800
-8.066600 3.397300
-8.046800 3.408100
-8.026900 3.417900
-8.007100 3.431800
-7.987200 3.443400
-7.967400 3.470300
-7.947500 3.481400
-7.927700 3.511600
-7.907800 3.713800
-7.888000 3.925200
-7.868100 3.766700
-7.848300 3.480200
-7.828400 3.064000
-7.808600 2.358700
-7.788700 0.845200
-7.768900 0.485600
-7.749000 1.242200
-7.729200 2.490900
-7.709300 3.858600
-7.689500 9.673200
-7.669600 15.290600
-7.649800 9.023500
-7.629900 14.071100
-7.610100 10.205100
-7.590200 8.632800
-7.570400 8.872300
-7.550500 9.213300
-7.530700 10.135500
-7.510800 11.111000
-7.491000 13.502400
-7.471100 15.345300
-7.451300 14.882700
-7.431400 9.856800
-7.411600 2.233800
-7.391700 2.061700
-7.371900 1.889500
-7.352000 1.717300
-7.332200 1.544900
-7.312300 1.308300
-7.292500 1.240200
-7.272600 1.172100
-7.252800 1.104000
-7.232900 1.035800
-7.213100 0.963500
-7.193200 0.832800
-7.173400 0.731800
-7.153500 0.714200
-7.133700 0.696500
-7.113800 0.678900
-7.094000 0.661300
-7.074100 0.643600
-7.054300 0.626000
-7.034400 0.608400
-7.014600 0.598600
-6.994700 0.593500
-6.974900 0.588500
-6.955000 0.583400
-6.935200 0.578400
-6.915300 0.573300
-6.895500 0.568200
-6.875600 0.563200
-6.855800 0.558100
-6.835900 0.517400
-6.816100 0.541400
-6.796200 0.565400
-6.776400 0.589400
-6.756500 0.579600
-6.736700 0.560400
-6.716800 0.541300
-6.697000 0.522100
-6.677100 0.502900
-6.657300 0.483800
-6.637400 0.464600
-6.617600 0.445500
-6.597700 0.426300
-6.577900 0.420200
-6.558000 0.461600
-6.538100 0.503100
-6.518300 0.544500
-6.498400 0.585900
-6.478600 0.492000
-6.458700 0.380000
-6.438900 0.268000
-6.419000 0.156000
-6.399200 0.044000
-6.379300 0.000000
-6.359500 0.000000
-6.339600 0.000000
-6.319800 0.000000
-6.299900 0.000000
-6.280100 0.000000
-6.260200 0.000000
-6.240400 0.000000
-6.220500 0.000000
-6.200700 0.000000
-6.180800 0.000000
-6.161000 0.000000
-6.141100 0.000000
-6.121300 0.000000
-6.101400 0.000000
-6.081600 0.000000
-6.061700 0.000000
-6.041900 0.000000
-6.022000 0.000000
-6.002200 0.000000
-5.982300 0.000000
-5.962500 0.000000
-5.942600 0.000000
-5.922800 0.000000
-5.902900 0.000000
-5.883100 0.000000
-5.863200 0.000000
-5.843400 0.000000
-5.823500 0.000000
-5.803700 0.000000
-5.783800 0.000000
-5.764000 0.000000
-5.744100 0.000000
-5.724300 0.000000
-5.704400 0.000000
-5.684600 0.000000
-5.664700 0.000000
-5.644900 0.000000
-5.625000 0.000000
-5.605200 0.000000
-5.585300 0.000000
-5.565500 0.000000
-5.545600 0.000000
-5.525800 0.000000
-5.505900 0.000000
-5.486100 0.000000
-5.466200 0.000000
-5.446400 0.000000
-5.426500 0.000000
-5.406700 0.000000
-5.386800 0.000000
-5.367000 0.000000
-5.347100 0.000000
-5.327300 0.000000
-5.307400 0.000000
-5.287600 0.000000
-5.267700 0.000000
-5.247900 0.000000
-5.228000 0.000000
-5.208200 0.000000
-5.188300 0.000000
-5.168500 0.000000
-5.148600 0.000000
-5.128800 0.000000
-5.108900 0.000000
-5.089100 0.000000
-5.069200 0.000000
-5.049400 0.000000
-5.029500 0.000000
-5.009700 0.000000
-4.989800 0.000000
-4.970000 0.000000
-4.950100 0.000000
-4.930300 0.000000
-4.910400 0.000000
-4.890600 0.000000
-4.870700 0.000000
-4.850900 0.000000
-4.831000 0.000000
-4.811200 0.000000
-4.791300 0.000000
-4.771500 0.000000
-4.751600 0.000000
-4.731800 0.000000
-4.711900 0.000000
-4.692100 0.000000
-4.672200 0.000000
-4.652400 0.000000
-4.632500 0.000000
-4.612700 0.000000
-4.592800 0.000000
-4.573000 0.000000
-4.553100 0.000000
-4.533300 0.000000
-4.513400 0.000000
-4.493600 0.000000
-4.473700 0.000000
-4.453900 0.000000
-4.434000 0.000000
-4.414200 0.000000
-4.394300 0.000000
-4.374500 0.000000
-4.354600 0.000000
-4.334800 0.000000
-4.314900 0.000000
-4.295100 0.000000
-4.275200 0.000000
-4.255400 0.000000
-4.235500 0.000000
-4.215700 0.000000
-4.195800 0.000000
-4.176000 0.000000
-4.156100 0.000000
-4.136300 0.000000
-4.116400 0.000000
-4.096600 0.000000
-4.076700 0.000000
-4.056800 0.000000
-4.037000 0.000000
-4.017100 0.000000
-3.997300 0.000000
-3.977400 0.000000
-3.957600 0.000000
-3.937700 0.000000
-3.917900 0.000000
-3.898000 0.000000
-3.878200 0.000000
-3.858300 0.000000
-3.838500 0.000000
-3.818600 0.000000
-3.798800 0.000000
-3.778900 0.000000
-3.759100 0.000000
-3.739200 0.000000
-3.719400 0.000000
-3.699500 0.000000
-3.679700 0.000000
-3.659800 0.000000
-3.640000 0.000000
-3.620100 0.000000
-3.600300 0.000000
-3.580400 0.000000
-3.560600 0.000000
-3.540700 0.000000
-3.520900 0.000000
-3.501000 0.000000
-3.481200 0.000000
-3.461300 0.000000
-3.441500 0.000000
-3.421600 0.000000
-3.401800 0.000000
-3.381900 0.000000
-3.362100 0.000000
-3.342200 0.000000
-3.322400 0.000000
-3.302500 0.000000
-3.282700 0.000000
-3.262800 0.000000
-3.243000 0.000000
-3.223100 0.000000
-3.203300 0.000000
-3.183400 0.000000
-3.163600 0.000000
-3.143700 0.000000
-3.123900 0.000000
-3.104000 0.000000
-3.084200 0.000000
-3.064300 0.000000
-3.044500 0.000000
-3.024600 0.000000
-3.004800 0.000000
-2.984900 0.000000
-2.965100 0.000000
-2.945200 0.000000
-2.925400 0.000000
-2.905500 0.000000
-2.885700 0.000000
-2.865800 0.000000
-2.846000 0.000000
-2.826100 0.000000
-2.806300 0.000000
-2.786400 0.000000
-2.766600 0.000000
-2.746700 0.000000
-2.726900 0.000000
-2.707000 0.000000
-2.687200 0.000000
-2.667300 0.000000
-2.647500 0.000000
-2.627600 0.000000
-2.607800 0.000000
-2.587900 0.000000
-2.568100 0.000000
-2.548200 0.000000
-2.528400 0.000000
-2.508500 0.000000
-2.488700 0.000000
-2.468800 0.000000
-2.449000 0.000000
-2.429100 0.000000
-2.409300 0.000000
-2.389400 0.000000
-2.369600 0.000000
-2.349700 0.000000
-2.329900 0.000000
-2.310000 0.000000
-2.290200 0.000000
-2.270300 0.000000
-2.250500 0.000000
-2.230600 0.000000
-2.210800 0.000000
-2.190900 0.000000
-2.171100 0.000000
-2.151200 0.000000
-2.131400 0.000000
-2.111500 0.000000
-2.091700 0.000000
-2.071800 0.000000
-2.052000 0.000000
-2.032100 0.000000
-2.012300 0.000000
-1.992400 0.000000
-1.972600 0.000000
-1.952700 0.000000
-1.932900 0.000000
-1.913000 0.000000
-1.893200 0.000000
-1.873300 0.000000
-1.853500 0.000000
-1.833600 0.000000
-1.813800 0.000000
-1.793900 0.000000
-1.774100 0.000000
-1.754200 0.000000
-1.734400 0.000000
-1.714500 0.000000
-1.694700 0.000000
-1.674800 0.000000
-1.655000 0.014700
-1.635100 0.092900
-1.615300 0.200700
-1.595400 0.340800
-1.575500 0.514500
-1.555700 0.731900
-1.535800 0.766200
-1.516000 0.884000
-1.496100 0.983000
-1.476300 1.064400
-1.456400 1.100400
-1.436600 1.070000
-1.416700 1.030600
-1.396900 1.034300
-1.377000 1.050100
-1.357200 1.064400
-1.337300 1.080400
-1.317500 1.108100
-1.297600 1.110500
-1.277800 1.111800
-1.257900 1.038700
-1.238100 1.042000
-1.218200 1.045300
-1.198400 1.050000
-1.178500 1.057900
-1.158700 1.101700
-1.138800 1.107700
-1.119000 1.109500
-1.099100 1.108500
-1.079300 1.104600
-1.059400 1.099800
-1.039600 1.104200
-1.019700 1.106800
-0.999900 1.108900
-0.980000 1.092800
-0.960200 1.073500
-0.940300 1.062700
-0.920500 1.061100
-0.900600 1.068100
-0.880800 1.078000
-0.860900 1.089700
-0.841100 1.102700
-0.821200 1.115900
-0.801400 1.129100
-0.781500 1.139900
-0.761700 1.151500
-0.741800 1.163100
-0.722000 1.209400
-0.702100 1.229600
-0.682300 1.252500
-0.662400 1.281200
-0.642600 1.321000
-0.622700 1.404400
-0.602900 1.569900
-0.583000 1.853400
-0.563200 2.227100
-0.543300 2.720500
-0.523500 3.090200
-0.503600 3.448700
-0.483800 3.998900
-0.463900 4.624300
-0.444100 5.886300
-0.424200 7.291300
-0.404400 3.806500
-0.384500 2.994300
-0.364700 2.720200
-0.344800 2.686000
-0.325000 2.709600
-0.305100 2.740600
-0.285300 2.773400
-0.265400 2.829600
-0.245600 2.912400
-0.225700 3.043000
-0.205900 3.225000
-0.186000 3.433500
-0.166200 3.709100
-0.146300 3.935200
-0.126500 4.256500
-0.106600 4.793300
-0.086800 4.500400
-0.066900 4.213900
-0.047100 3.972700
-0.027200 3.744000
-0.007400 3.572500
0.012500 3.448400
0.032300 3.354400
0.052200 3.301600
0.072000 3.321400
0.091900 3.697200
0.111700 3.806800
0.131600 3.339700
0.151400 2.732400
0.171300 2.456300
0.191100 2.291000
0.211000 2.202800
0.230800 2.172700
0.250700 2.179600
0.270500 2.184000
0.290400 2.171300
0.310200 2.296600
0.330100 2.444900
0.349900 2.608200
0.369800 2.798900
0.389600 3.025600
0.409500 3.311800
0.429300 4.309200
0.449200 4.837000
0.469000 5.073800
0.488900 5.361100
0.508700 5.618000
0.528600 6.176100
0.548400 6.126200
0.568300 7.148700
0.588100 9.276400
0.608000 5.536700
0.627800 4.793200
0.647700 3.993700
0.667500 3.333100
0.687400 3.197000
0.707200 3.076300
0.727100 2.972200
0.746900 2.865800
0.766800 2.743600
0.786600 2.632100
0.806500 2.711400
0.826300 2.376400
0.846200 2.643300
0.866000 3.043900
0.885900 3.562400
0.905800 3.561500
0.925600 3.664600
0.945500 3.774300
0.965300 3.902100
0.985200 4.281800
1.005000 4.217600
1.024900 4.214600
1.044700 4.250700
1.064600 4.334000
1.084400 4.466700
1.104300 4.677100
1.124100 5.030800
1.144000 5.390500
1.163800 5.738900
1.183700 6.184400
1.203500 6.523000
1.223400 7.017500
1.243200 7.346400
1.263100 7.156500
1.282900 6.809300
1.302800 6.646400
1.322600 6.094500
1.342500 5.608100
1.362300 5.202200
1.382200 4.940700
1.402000 4.333800
1.421900 4.323000
1.441700 4.349800
1.461600 4.309900
1.481400 4.421700
1.501300 4.572400
1.521100 4.719700
1.541000 4.830300
1.560800 5.157800
1.580700 5.519100
1.600500 5.572900
1.620400 5.318200
1.640200 4.941000
1.660100 5.070100
1.679900 5.010300
1.699800 4.671900
1.719600 4.372000
1.739500 4.354500
1.759300 4.260700
1.779200 4.193600
1.799000 4.263800
1.818900 4.460800
1.838700 4.944400
1.858600 5.322800
1.878400 5.742700
1.898300 6.567900
1.918100 6.867100
1.938000 6.674900
1.957800 5.529100
1.977700 5.212500
1.997500 4.989100
2.017400 4.877100
2.037200 4.950400
2.057100 5.269700
2.076900 6.234300
2.096800 6.389100
2.116600 7.379300
2.136500 7.013400
2.156300 7.261700
2.176200 7.742100
2.196000 7.885100
2.215900 8.197000
2.235700 7.845400
2.255600 7.263200
2.275400 7.067000
2.295300 7.046500
2.315100 7.240000
2.335000 7.735600
2.354800 8.256200
2.374700 8.298700
2.394500 7.401800
2.414400 6.813600
2.434200 4.936400
2.454100 4.099000
2.473900 3.595800
2.493800 3.365400
2.513600 3.343600
2.533500 3.460100
2.553300 3.664200
2.573200 5.277900
2.593000 5.887000
2.612900 6.175800
2.632700 6.254100
2.652600 6.303300
2.672400 6.644700
2.692300 6.901900
2.712100 7.185000
2.732000 7.282500
2.751800 7.631300
2.771700 7.613600
2.791500 7.306500
2.811400 7.098400
2.831200 6.822400
2.851100 6.432600
2.870900 6.004200
2.890800 5.626800
2.910600 5.052700
2.930500 4.711600
2.950300 4.531700
2.970200 4.735100
2.990000 4.857900
3.009900 5.012000
3.029700 5.169500
3.049600 5.264500
3.069400 5.373900
3.089300 5.126500
3.109100 4.927900
3.129000 4.751300
3.148800 4.302800
3.168700 3.677400
3.188500 3.102900
3.208400 2.867100
3.228200 2.705200
3.248100 2.577400
3.267900 2.406800
3.287800 2.283200
3.307600 2.236900
3.327500 2.299400
3.347300 2.396800
3.367200 2.503500
3.387100 2.689800
3.406900 2.838500
3.426800 2.822400
3.446600 2.861000
3.466500 2.900700
3.486300 2.933300
3.506200 2.978000
3.526000 3.093300
3.545900 3.230400
3.565700 3.184800
3.585600 3.102500
3.605400 3.036500
3.625300 2.949900
3.645100 2.812800
3.665000 2.623200
3.684800 2.412100
3.704700 2.306600
3.724500 2.241200
3.744400 2.134400
3.764200 1.998400
3.784100 1.921100
3.803900 1.851800
3.823800 1.791200
3.843600 1.729100
3.863500 1.663900
3.883300 1.582300
3.903200 1.501000
3.923000 1.461500
3.942900 1.415900
3.962700 1.394400
3.982600 1.371900
4.002400 1.349400
4.022300 1.326200
4.042100 1.287600
4.062000 1.221700
4.081800 1.104800
4.101700 1.054900
4.121500 1.050400
4.141400 1.045300
4.161200 1.040000
4.181100 1.034300
4.200900 1.028300
4.220800 1.021900
4.240600 1.013700
4.260500 1.003500
4.280300 0.988900
4.300200 0.967700
4.320000 0.959400
4.339900 0.951200
4.359700 0.940300
4.379600 0.925400
4.399400 0.913200
4.419300 0.907500
4.439100 0.907900
4.459000 0.908600
4.478800 0.909500
4.498700 0.911000
4.518500 0.912400
4.538400 0.913900
4.558200 0.915400
4.578100 0.916900
4.597900 0.918500
4.617800 0.920000
4.637600 0.921000
4.657500 0.921400
4.677300 0.921100
4.697200 0.919300
4.717000 0.917700
4.736900 0.916400
4.756700 0.915100
4.776600 0.914300
4.796400 0.916300
4.816300 0.921300
4.836100 0.929400
4.856000 0.941400
4.875800 0.956100
4.895700 0.973200
4.915500 0.992900
4.935400 1.015600
4.955200 1.041400
4.975100 1.090600
4.994900 1.177300
5.014800 1.226800
5.034600 1.205300
5.054500 1.201800
5.074300 1.176100
5.094200 1.061900
5.114000 0.995700
5.133900 0.999000
5.153700 1.013800
5.173600 1.023000
5.193400 1.032700
5.213300 1.038600
5.233100 1.043300
5.253000 1.046700
5.272800 1.048700
5.292700 1.049500
5.312500 1.050900
5.332400 1.053900
5.352200 1.058300
5.372100 1.064300
5.391900 1.030800
5.411800 1.049800
5.431600 1.069500
5.451500 1.089600
5.471300 1.110300
5.491200 1.131300
5.511000 1.157500
5.530900 1.195600
5.550700 1.245600
5.570600 1.308100
5.590400 1.455900
5.610300 1.741600
5.630100 1.867500
5.650000 1.813200
5.669800 1.851200
5.689700 1.839000
5.709500 1.827400
5.729400 1.817000
5.749200 1.811700
5.769100 1.857000
5.788900 1.867300
5.808800 1.781700
5.828600 1.686500
5.848500 1.587000
5.868400 1.522200
5.888200 1.477300
5.908100 1.437500
5.927900 1.407800
5.947800 1.382100
5.967600 1.361600
5.987500 1.346500
6.007300 1.336600
6.027200 1.299100
6.047000 1.306100
6.066900 1.349400
6.086700 1.421400
6.106600 1.355200
6.126400 1.414500
6.146300 1.250800
6.166100 1.238500
6.186000 1.241300
6.205800 1.244400
6.225700 1.246900
6.245500 1.248900
6.265400 1.250400
6.285200 1.251700
6.305100 1.253000
6.324900 1.255300
6.344800 1.259700
6.364600 1.264300
6.384500 1.270100
6.404300 1.359500
6.424200 1.470900
6.444000 1.588600
6.463900 2.074200
6.483700 2.016700
6.503600 1.891800
6.523400 1.986600
6.543300 2.121300
6.563100 2.490300
6.583000 2.631200
6.602800 2.811900
6.622700 2.940100
6.642500 2.998400
6.662400 3.025500
6.682200 3.035000
6.702100 2.945100
6.721900 2.876600
6.741800 2.980800
6.761600 3.363400
6.781500 3.488500
6.801300 3.658000
6.821200 3.879400
6.841000 4.149100
6.860900 4.549900
6.880700 5.054500
6.900600 5.441900
6.920400 5.839400
6.940300 6.126400
6.960100 6.253000
6.980000 6.847100
6.999800 7.311600
7.019700 8.185600
7.039500 8.716800
7.059400 9.115800
7.079200 9.351400
7.099100 9.559900
7.118900 9.705600
7.138800 9.405500
7.158600 9.442500
7.178500 9.894300
7.198300 10.764800
7.218200 11.419000
7.238000 9.144100
7.257900 6.758600
7.277700 5.999100
7.297600 5.536800
7.317400 5.901400
7.337300 5.368200
7.357100 4.823700
7.377000 4.769800
7.396800 4.974400
7.416700 5.544100
7.436500 4.825900
7.456400 4.024400
7.476200 4.040900
7.496100 4.455400
7.515900 4.413000
7.535800 4.468100
7.555600 4.571600
7.575500 4.813600
7.595300 5.003300
7.615200 5.145000
7.635000 5.280500
7.654900 5.604100
7.674700 5.441300
7.694600 5.454000
7.714400 5.916000
7.734300 6.019700
7.754100 6.467600
7.774000 6.991000
7.793800 6.843900
7.813700 6.761400
7.833500 6.422400
7.853400 6.297300
7.873200 6.278700
7.893100 6.328500
7.912900 6.601300
7.932800 6.858800
7.952600 7.114400
7.972500 7.560300
7.992300 7.778200
8.012200 7.587300
8.032000 7.450600
8.051900 7.217800
8.071700 6.885000
8.091600 6.896100
8.111400 6.936900
8.131300 6.994500
8.151100 7.037500
8.171000 6.807900
8.190800 6.330600
8.210700 5.829000
8.230500 5.372600
8.250400 5.113200
8.270200 4.985700
8.290100 4.903700
8.309900 4.827200
8.329800 4.813100
8.349700 4.872200
8.369500 4.966500
8.389400 5.079500
8.409200 5.099000
8.429100 4.834400
8.448900 4.742100
8.468800 4.767100
8.488600 4.840800
8.508500 4.900200
8.528300 5.003100
8.548200 5.188100
8.568000 5.515300
8.587900 5.750100
8.607700 6.126000
8.627600 6.551500
8.647400 6.915500
8.667300 7.773600
8.687100 8.786200
8.707000 7.466200
8.726800 7.257000
8.746700 6.770800
8.766500 6.653000
8.786400 6.897900
8.806200 6.484200
8.826100 6.344300
8.845900 6.187000
8.865800 6.134800
8.885600 6.103200
8.905500 6.149400
8.925300 6.128900
8.945200 6.062600
8.965000 5.831800
8.984900 5.805700
9.004700 6.192200
9.024600 6.341300
9.044400 6.714500
9.064300 6.843500
9.084100 7.204000
9.104000 7.725000
9.123800 7.946500
9.143700 7.927500
9.163500 8.467900
9.183400 8.141500
9.203200 7.710000
9.223100 6.998000
9.242900 6.577100
9.262800 6.272400
9.282600 6.261800
9.302500 6.321500
9.322300 6.753500
9.342200 6.774000
9.362000 4.188500
9.381900 3.596500
9.401700 3.774700
9.421600 4.021100
9.441400 4.321300
9.461300 4.411800
9.481100 4.349200
9.501000 4.333700
9.520800 4.905300
9.540700 4.917900
9.560500 5.193300
9.580400 5.268300
9.600200 5.291000
9.620100 5.275500
9.639900 5.491400
9.659800 5.717800
9.679600 5.926100
9.699500 6.063700
9.719300 6.165800
9.739200 6.215200
9.759000 5.948700
9.778900 5.774100
9.798700 5.620100
9.818600 5.680100
9.838400 5.845100
9.858300 5.881900
9.878100 5.578100
9.898000 5.979000
9.917800 5.853500
9.937700 5.684500
9.957500 5.604600
9.977400 5.589500
9.997200 5.536400
10.017100 5.445500
10.036900 5.321400
10.056800 5.176600
10.076600 5.057200
10.096500 4.884800
10.116300 4.682700
10.136200 4.553200
10.156000 4.435400
10.175900 4.295900
10.195700 4.225700
10.215600 4.216600
10.235400 3.925700
10.255300 3.921400
10.275100 3.821400
10.295000 3.793100
10.314800 3.672800
10.334700 3.475400
10.354500 3.705200
10.374400 4.188800
10.394200 4.070900
10.414100 3.681700
10.433900 3.136700
10.453800 2.098700
10.473600 1.942600
10.493500 1.817200
10.513300 1.715800
10.533200 1.626900
10.553000 1.549500
10.572900 1.484200
10.592700 1.431600
10.612600 1.388600
10.632400 1.350900
10.652300 1.326100
10.672100 1.302900
10.692000 1.281300
10.711800 1.260100
10.731700 1.240700
10.751500 1.223100
10.771400 1.207700
10.791200 1.198400
10.811100 1.190300
10.831000 1.182800
10.850800 1.175000
10.870700 1.167800
10.890500 1.162500
10.910400 1.168100
10.930200 1.181800
10.950100 1.195400
10.969900 1.210500
10.989800 1.227000
11.009600 1.250900
11.029500 1.287800
11.049300 1.332100
11.069200 1.383800
11.089000 1.443300
11.108900 1.501400
11.128700 1.598400
11.148600 1.699000
11.168400 1.732900
11.188300 1.778400
11.208100 1.831500
11.228000 1.859700
11.247800 1.856800
11.267700 1.842500
11.287500 1.848200
11.307400 1.835500
11.327200 1.814600
11.347100 1.789400
11.366900 1.762700
11.386800 1.734100
11.406600 1.795200
11.426500 1.871000
11.446300 1.935100
11.466200 1.859800
11.486000 1.813400
11.505900 1.783000
11.525700 1.780200
11.545600 1.797000
11.565400 1.888200
11.585300 1.982900
11.605100 2.086600
11.625000 2.193000
11.644800 2.317900
11.664700 2.503800
11.684500 2.663100
11.704400 2.565500
11.724200 2.736300
11.744100 2.791500
11.763900 2.909300
11.783800 3.100400
11.803600 3.332100
11.823500 3.407800
11.843300 3.356300
11.863200 3.331100
11.883000 3.359800
11.902900 3.298700
11.922700 3.313600
11.942600 3.344400
11.962400 3.403800
11.982300 3.488700
12.002100 3.555000
12.022000 3.586000
12.041800 3.587000
12.061700 3.541800
12.081500 3.431600
12.101400 3.259200
12.121200 3.047300
12.141100 2.913900
12.160900 2.885100
12.180800 2.884700
12.200600 3.089200
12.220500 3.323500
12.240300 3.583800
12.260200 3.887100
12.280000 4.649300
12.299900 4.508600
12.319700 4.420200
12.339600 4.392600
12.359400 4.224800
12.379300 4.099700
12.399100 3.941100
12.419000 3.845000
12.438800 3.801100
12.458700 3.849700
12.478500 3.959800
12.498400 4.182400
12.518200 4.184700
12.538100 4.157700
12.557900 4.147900
12.577800 4.210500
12.597600 4.360700
12.617500 4.518900
12.637300 4.673500
12.657200 3.813700
12.677000 3.585000
12.696900 3.478800
12.716700 3.358800
12.736600 3.364600
12.756400 3.431500
12.776300 3.540600
12.796100 3.949500
12.816000 3.963700
12.835800 4.028300
12.855700 3.554000
12.875500 2.962100
12.895400 2.862700
12.915200 2.849800
12.935100 3.253500
12.954900 3.211800
12.974800 3.145500
12.994600 3.096000
13.014500 3.171800
13.034300 3.291400
13.054200 3.487200
13.074000 3.631000
13.093900 3.619400
13.113700 3.931500
13.133600 4.051400
13.153400 4.230200
13.173300 4.444300
13.193100 4.440800
13.213000 4.452200
13.232800 4.544300
13.252700 4.965600
13.272500 5.244800
13.292400 5.531800
13.312300 5.722400
13.332100 5.361700
13.352000 5.409200
13.371800 5.334800
13.391700 5.208000
13.411500 4.967100
13.431400 4.576500
13.451200 4.147900
13.471100 3.936400
13.490900 3.694600
13.510800 3.449100
13.530600 3.287200
13.550500 3.203500
13.570300 3.186000
13.590200 3.210600
13.610000 3.319600
13.629900 3.483500
13.649700 3.679500
13.669600 3.958000
13.689400 5.098000
13.709300 5.228300
13.729100 4.868000
13.749000 4.898000
13.768800 5.309800
13.788700 5.365200
13.808500 5.409100
13.828400 5.421800
13.848200 5.392000
13.868100 5.361500
13.887900 5.318000
13.907800 5.506700
13.927600 5.129100
13.947500 5.044400
13.967300 4.881200
13.987200 4.696900
14.007000 4.604500
14.026900 4.520600
14.046700 4.462000
14.066600 4.430700
14.086400 4.422800
14.106300 4.374700
14.126100 4.464400
14.146000 4.588200
14.165800 4.867500
14.185700 5.547800
14.205500 6.943400
14.225400 8.980600
14.245200 12.532400
14.265100 20.384300
14.284900 25.232600
14.304800 12.362400
14.324600 8.768300
14.344500 7.715100
14.364300 7.213600
14.384200 6.933000
14.404000 6.758700
14.423900 6.900200
14.443700 7.131100
14.463600 7.091700
14.483400 6.961700
14.503300 6.792600
14.523100 6.277700
14.543000 5.536000
14.562800 4.789400
14.582700 4.548700
14.602500 4.264300
14.622400 3.982800
14.642200 3.969800
14.662100 4.042900
14.681900 4.302700
14.701800 4.614500
14.721600 5.117800
14.741500 6.645900
14.761300 6.228300
14.781200 5.831900
14.801000 5.443600
14.820900 5.145400
14.840700 5.131500
14.860600 5.201800
14.880400 5.627600
14.900300 5.575600
14.920100 5.605100
14.940000 5.890300
14.959800 5.944300
14.979700 5.826600
14.999500 5.695800
15.019400 6.019900
15.039200 5.687400
15.059100 5.774000
15.078900 5.775300
15.098800 5.695500
15.118600 5.590700
15.138500 5.240300
15.158300 5.021600
15.178200 4.704900
15.198000 4.425100
15.217900 4.152100
15.237700 3.983000
15.257600 3.881800
15.277400 3.869400
15.297300 3.882600
15.317100 3.936200
15.337000 4.021600
15.356800 4.121200
15.376700 4.227000
15.396500 4.326700
15.416400 4.507900
15.436200 4.615500
15.456100 4.666400
15.475900 4.441800
15.495800 4.387900
15.515600 4.812000
15.535500 5.354900
15.555300 5.888100
15.575200 6.528600
15.595000 7.333200
15.614900 7.429300
15.634700 7.019700
15.654600 6.771100
15.674400 6.235100
15.694300 5.855700
15.714100 5.674700
15.734000 5.541000
15.753800 5.525000
15.773700 5.413900
15.793600 5.254500
15.813400 5.473300
15.833300 5.465200
15.853100 5.428700
15.873000 5.396500
15.892800 5.368300
15.912700 5.239300
15.932500 5.310900
15.952400 4.768000
15.972200 3.930300
15.992100 3.615900
16.011900 3.293000
16.031800 3.050900
16.051600 2.901500
16.071500 2.782400
16.091300 2.714500
16.111200 2.742800
16.131000 2.782900
16.150900 2.790200
16.170700 2.824600
16.190600 2.732500
16.210400 2.778500
16.230300 2.668300
16.250100 2.994100
16.270000 3.512100
16.289800 4.707700
16.309700 5.181400
16.329500 4.387700
16.349400 4.088100
16.369200 3.959600
16.389100 3.849700
16.408900 3.715100
16.428800 3.560200
16.448600 3.188000
16.468500 3.141200
16.488300 3.148100
16.508200 3.182000
16.528000 3.381000
16.547900 3.573500
16.567700 3.765600
16.587600 4.008100
16.607400 4.291900
16.627300 4.699600
16.647100 5.068300
16.667000 5.169100
16.686800 5.080700
16.706700 4.692900
16.726500 4.583300
16.746400 4.487000
16.766200 4.569100
16.786100 4.756600
16.805900 4.778600
16.825800 4.824700
16.845600 4.810200
16.865500 4.701000
16.885300 4.560900
16.905200 4.314100
16.925000 4.038600
16.944900 3.773900
16.964700 3.553500
16.984600 3.287200
17.004400 2.967700
17.024300 2.626500
17.044100 2.423500
17.064000 2.284100
17.083800 2.171800
17.103700 2.052400
17.123500 1.922900
17.143400 1.626300
17.163200 1.453600
17.183100 1.310300
17.202900 1.164900
17.222800 1.023100
17.242600 0.885000
17.262500 0.748600
17.282300 0.606000
17.302200 0.485900
17.322000 0.382500
17.341900 0.292600
17.361700 0.228900
17.381600 0.180600
17.401400 0.141800
17.421300 0.112500
17.441100 0.091400
17.461000 0.075300
17.480800 0.063700
17.500700 0.053800
17.520500 0.044900
17.540400 0.036800
17.560200 0.029600
17.580100 0.023300
17.599900 0.017800
17.619800 0.013300
17.639600 0.009600
17.659500 0.006700
17.679300 0.004300
17.699200 0.002500
17.719000 0.001100
17.738900 0.000300
17.758700 0.000000
17.778600 0.000000
17.798400 0.000000
17.818300 0.000000
17.838100 0.000000
17.858000 0.000000
17.877800 0.000000
17.897700 0.000000
17.917500 0.000000
17.937400 0.000000
17.957200 0.000000
17.977100 0.000000
17.996900 0.000000
18.016800 0.000000
18.036600 0.000000
18.056500 0.000000
18.076300 0.000000
18.096200 0.000000
18.116000 0.000000
18.135900 0.000000
18.155700 0.000000
18.175600 0.000000
18.195400 0.000000
18.215300 0.000000
18.235100 0.000000
18.255000 0.000000
18.274900 0.000000
18.294700 0.000000
18.314600 0.000000
18.334400 0.000000
18.354300 0.000000
18.374100 0.000000
18.394000 0.000000
18.413800 0.000000
18.433700 0.000000
18.453500 0.000000
18.473400 0.000000
18.493200 0.000000
18.513100 0.000000
18.532900 0.000000
18.552800 0.000000
18.572600 0.000000
18.592500 0.000000
18.612300 0.000000
18.632200 0.000000
18.652000 0.000000
18.671900 0.000000
18.691700 0.000000
18.711600 0.000000
18.731400 0.000000
18.751300 0.000000
18.771100 0.000000
18.791000 0.000000
18.810800 0.000000
18.830700 0.000000
18.850500 0.000000
18.870400 0.000000
18.890200 0.000000
18.910100 0.000000
18.929900 0.000000
18.949800 0.000000
18.969600 0.000000
18.989500 0.000000
19.009300 0.000000
19.029200 0.000000
19.049000 0.000000
19.068900 0.000000
19.088700 0.000000
19.108600 0.000000
19.128400 0.000000
19.148300 0.000000
19.168100 0.000000
19.188000 0.000000
19.207800 0.000000
19.227700 0.000000
19.247500 0.000000
19.267400 0.000000
19.287200 0.000000
19.307100 0.000000
19.326900 0.000000
19.346800 0.000000
19.366600 0.000000
19.386500 0.000000
19.406300 0.000000
19.426200 0.000000
19.446000 0.000000
19.465900 0.000000
19.485700 0.000000
19.505600 0.000000
19.525400 0.000000
19.545300 0.000000
19.565100 0.000000
e
