set title 'mp-1205302 - Density of States'
set xlabel 'Energy (eV)'
set ylabel 'DOS (states/eV)'
set grid
set xrange [-10:10]
set yrange [0:8.685]
set xzeroaxis lt -1
set terminal png size 800,600
set output 'mp-1205302_dos_gnuplot.png'
plot '-' using 1:2 with lines title 'DOS'
-38.187000 0.000000
-38.152200 0.000000
-38.117500 0.000000
-38.082800 0.000000
-38.048000 0.000000
-38.013300 0.000000
-37.978600 0.000000
-37.943800 0.000000
-37.909100 0.000000
-37.874400 0.000000
-37.839600 0.000000
-37.804900 0.000000
-37.770200 0.000000
-37.735400 0.000000
-37.700700 0.000000
-37.666000 0.000000
-37.631200 0.000000
-37.596500 0.000000
-37.561800 0.000000
-37.527100 0.000000
-37.492300 0.000000
-37.457600 0.000000
-37.422900 0.000000
-37.388100 0.000000
-37.353400 0.000000
-37.318700 0.000000
-37.283900 0.000000
-37.249200 0.000000
-37.214500 0.000000
-37.179700 0.000000
-37.145000 0.000000
-37.110300 0.000000
-37.075500 0.000000
-37.040800 0.000000
-37.006100 0.000000
-36.971300 0.000000
-36.936600 0.000000
-36.901900 0.000000
-36.867100 0.000000
-36.832400 0.000000
-36.797700 0.000000
-36.763000 0.000000
-36.728200 0.000000
-36.693500 0.000000
-36.658800 0.000000
-36.624000 0.000000
-36.589300 0.000000
-36.554600 0.000000
-36.519800 0.000000
-36.485100 0.000000
-36.450400 0.000000
-36.415600 0.000000
-36.380900 0.000000
-36.346200 0.000000
-36.311400 0.000000
-36.276700 0.000000
-36.242000 0.000000
-36.207200 0.000000
-36.172500 0.000000
-36.137800 0.000000
-36.103100 0.000000
-36.068300 0.000000
-36.033600 0.000000
-35.998900 0.000000
-35.964100 0.000000
-35.929400 0.000000
-35.894700 0.000000
-35.859900 0.000000
-35.825200 0.000000
-35.790500 0.000000
-35.755700 0.000000
-35.721000 0.000000
-35.686300 0.000000
-35.651500 0.000000
-35.616800 0.000000
-35.582100 0.000000
-35.547300 0.000000
-35.512600 0.000000
-35.477900 0.000000
-35.443100 0.000000
-35.408400 0.000000
-35.373700 0.000000
-35.339000 0.000000
-35.304200 0.000000
-35.269500 0.000000
-35.234800 0.000000
-35.200000 0.000000
-35.165300 0.000000
-35.130600 0.000000
-35.095800 0.000000
-35.061100 0.000000
-35.026400 54.191200
-34.991600 12.028000
-34.956900 6.455800
-34.922200 6.455200
-34.887400 33.333200
-34.852700 33.598600
-34.818000 32.417500
-34.783200 22.523000
-34.748500 6.023800
-34.713800 6.026500
-34.679100 4.315800
-34.644300 4.315800
-34.609600 4.315900
-34.574900 5.076000
-34.540100 5.075900
-34.505400 5.075900
-34.470700 7.591600
-34.435900 10.641700
-34.401200 0.000000
-34.366500 0.000000
-34.331700 0.000000
-34.297000 0.000000
-34.262300 0.000000
-34.227500 0.000000
-34.192800 0.000000
-34.158100 0.000000
-34.123300 0.000000
-34.088600 0.000000
-34.053900 0.000000
-34.019100 0.000000
-33.984400 0.000000
-33.949700 0.000000
-33.915000 0.000000
-33.880200 0.000000
-33.845500 0.000000
-33.810800 0.000000
-33.776000 0.000000
-33.741300 0.000000
-33.706600 0.000000
-33.671800 0.000000
-33.637100 0.000000
-33.602400 0.000000
-33.567600 0.000000
-33.532900 0.000000
-33.498200 0.000000
-33.463400 0.000000
-33.428700 0.000000
-33.394000 0.000000
-33.359200 0.000000
-33.324500 0.000000
-33.289800 0.000000
-33.255100 0.000000
-33.220300 0.000000
-33.185600 0.000000
-33.150900 0.000000
-33.116100 0.000000
-33.081400 0.000000
-33.046700 0.000000
-33.011900 0.000000
-32.977200 0.000000
-32.942500 0.000000
-32.907700 0.000000
-32.873000 0.000000
-32.838300 0.000000
-32.803500 0.000000
-32.768800 0.000000
-32.734100 0.000000
-32.699300 0.000000
-32.664600 0.000000
-32.629900 0.000000
-32.595100 0.000000
-32.560400 0.000000
-32.525700 0.000000
-32.491000 0.000000
-32.456200 0.000000
-32.421500 0.000000
-32.386800 0.000000
-32.352000 0.000000
-32.317300 0.000000
-32.282600 0.000000
-32.247800 0.000000
-32.213100 0.000000
-32.178400 0.000000
-32.143600 0.000000
-32.108900 0.000000
-32.074200 0.000000
-32.039400 0.000000
-32.004700 0.000000
-31.970000 0.000000
-31.935200 0.000000
-31.900500 0.000000
-31.865800 0.000000
-31.831100 0.000000
-31.796300 0.000000
-31.761600 0.000000
-31.726900 0.000000
-31.692100 0.000000
-31.657400 0.000000
-31.622700 0.000000
-31.587900 0.000000
-31.553200 0.000000
-31.518500 0.000000
-31.483700 0.000000
-31.449000 0.000000
-31.414300 0.000000
-31.379500 0.000000
-31.344800 0.000000
-31.310100 0.000000
-31.275300 0.000000
-31.240600 0.000000
-31.205900 0.000000
-31.171100 0.000000
-31.136400 0.000000
-31.101700 0.000000
-31.067000 0.000000
-31.032200 0.000000
-30.997500 0.000000
-30.962800 0.000000
-30.928000 0.000000
-30.893300 0.000000
-30.858600 0.000000
-30.823800 0.000000
-30.789100 0.000000
-30.754400 0.000000
-30.719600 0.000000
-30.684900 0.000000
-30.650200 0.000000
-30.615400 0.000000
-30.580700 0.000000
-30.546000 0.000000
-30.511200 0.000000
-30.476500 0.000000
-30.441800 0.000000
-30.407100 0.000000
-30.372300 0.000000
-30.337600 0.000000
-30.302900 0.000000
-30.268100 0.000000
-30.233400 0.000000
-30.198700 0.000000
-30.163900 0.000000
-30.129200 0.000000
-30.094500 0.000000
-30.059700 0.000000
-30.025000 0.000000
-29.990300 0.000000
-29.955500 0.000000
-29.920800 0.000000
-29.886100 0.000000
-29.851300 0.000000
-29.816600 0.000000
-29.781900 0.000000
-29.747100 0.000000
-29.712400 0.000000
-29.677700 0.000000
-29.643000 0.000000
-29.608200 0.000000
-29.573500 0.000000
-29.538800 0.000000
-29.504000 0.000000
-29.469300 0.000000
-29.434600 0.000000
-29.399800 0.000000
-29.365100 0.000000
-29.330400 0.000000
-29.295600 0.000000
-29.260900 0.000000
-29.226200 0.000000
-29.191400 0.000000
-29.156700 0.000000
-29.122000 0.000000
-29.087200 0.000000
-29.052500 0.000000
-29.017800 0.000000
-28.983100 0.000000
-28.948300 0.000000
-28.913600 0.000000
-28.878900 0.000000
-28.844100 0.000000
-28.809400 0.000000
-28.774700 0.000000
-28.739900 0.000000
-28.705200 0.000000
-28.670500 0.000000
-28.635700 0.000000
-28.601000 0.000000
-28.566300 0.000000
-28.531500 0.000000
-28.496800 0.000000
-28.462100 0.000000
-28.427300 0.000000
-28.392600 0.000000
-28.357900 0.000000
-28.323100 0.000000
-28.288400 0.000000
-28.253700 0.000000
-28.219000 0.000000
-28.184200 0.000000
-28.149500 0.000000
-28.114800 0.000000
-28.080000 0.000000
-28.045300 0.000000
-28.010600 0.000000
-27.975800 0.000000
-27.941100 0.000000
-27.906400 0.000000
-27.871600 0.000000
-27.836900 0.000000
-27.802200 0.000000
-27.767400 0.000000
-27.732700 0.000000
-27.698000 0.000000
-27.663200 0.000000
-27.628500 0.000000
-27.593800 0.000000
-27.559100 0.000000
-27.524300 0.000000
-27.489600 0.000000
-27.454900 0.000000
-27.420100 0.000000
-27.385400 0.000000
-27.350700 0.000000
-27.315900 0.000000
-27.281200 0.000000
-27.246500 0.000000
-27.211700 0.000000
-27.177000 0.000000
-27.142300 0.000000
-27.107500 0.000000
-27.072800 0.000000
-27.038100 0.000000
-27.003300 0.000000
-26.968600 0.000000
-26.933900 0.000000
-26.899100 0.000000
-26.864400 0.000000
-26.829700 0.000000
-26.795000 0.000000
-26.760200 0.000000
-26.725500 0.000000
-26.690800 0.000000
-26.656000 0.000000
-26.621300 0.000000
-26.586600 0.000000
-26.551800 0.000000
-26.517100 0.000000
-26.482400 0.000000
-26.447600 0.000000
-26.412900 0.000000
-26.378200 0.000000
-26.343400 0.000000
-26.308700 0.000000
-26.274000 0.000000
-26.239200 0.000000
-26.204500 0.000000
-26.169800 0.000000
-26.135100 0.000000
-26.100300 0.000000
-26.065600 0.000000
-26.030900 0.000000
-25.996100 0.000000
-25.961400 0.000000
-25.926700 0.000000
-25.891900 0.000000
-25.857200 0.000000
-25.822500 0.000000
-25.787700 0.000000
-25.753000 0.000000
-25.718300 0.000000
-25.683500 0.000000
-25.648800 0.000000
-25.614100 0.000000
-25.579300 0.000000
-25.544600 0.000000
-25.509900 0.000000
-25.475100 0.000000
-25.440400 0.000000
-25.405700 0.000000
-25.371000 0.000000
-25.336200 0.000000
-25.301500 0.000000
-25.266800 0.000000
-25.232000 0.000000
-25.197300 0.000000
-25.162600 0.000000
-25.127800 0.000000
-25.093100 0.000000
-25.058400 0.000000
-25.023600 0.000000
-24.988900 0.000000
-24.954200 0.000000
-24.919400 0.000000
-24.884700 0.000000
-24.850000 0.000000
-24.815200 0.000000
-24.780500 0.000000
-24.745800 0.000000
-24.711100 0.000000
-24.676300 0.000000
-24.641600 0.000000
-24.606900 0.000000
-24.572100 0.000000
-24.537400 0.000000
-24.502700 0.000000
-24.467900 0.000000
-24.433200 0.000000
-24.398500 0.000000
-24.363700 0.000000
-24.329000 0.000000
-24.294300 0.000000
-24.259500 0.000000
-24.224800 0.000000
-24.190100 0.000000
-24.155300 0.000000
-24.120600 0.000000
-24.085900 0.000000
-24.051100 0.000000
-24.016400 0.000000
-23.981700 0.000000
-23.947000 0.000000
-23.912200 0.000000
-23.877500 0.000000
-23.842800 0.000000
-23.808000 0.000000
-23.773300 0.000000
-23.738600 0.000000
-23.703800 0.000000
-23.669100 0.000000
-23.634400 0.000000
-23.599600 0.000000
-23.564900 0.000000
-23.530200 0.000000
-23.495400 0.000000
-23.460700 0.000000
-23.426000 0.000000
-23.391200 0.000000
-23.356500 0.000000
-23.321800 0.000000
-23.287100 0.000000
-23.252300 0.000000
-23.217600 0.000000
-23.182900 0.000000
-23.148100 0.000000
-23.113400 0.000000
-23.078700 0.000000
-23.043900 0.000000
-23.009200 0.000000
-22.974500 0.000000
-22.939700 0.000000
-22.905000 0.000000
-22.870300 0.000000
-22.835500 0.000000
-22.800800 0.000000
-22.766100 0.000000
-22.731300 0.000000
-22.696600 0.000000
-22.661900 0.000000
-22.627100 0.000000
-22.592400 0.000000
-22.557700 0.000000
-22.523000 0.000000
-22.488200 0.000000
-22.453500 0.000000
-22.418800 0.000000
-22.384000 0.000000
-22.349300 0.000000
-22.314600 0.000000
-22.279800 0.000000
-22.245100 0.000000
-22.210400 0.000000
-22.175600 0.000000
-22.140900 0.000000
-22.106200 0.000000
-22.071400 0.000000
-22.036700 0.000000
-22.002000 0.000000
-21.967200 0.000000
-21.932500 0.000000
-21.897800 0.000000
-21.863100 0.000000
-21.828300 0.000000
-21.793600 0.000000
-21.758900 0.000000
-21.724100 0.000000
-21.689400 0.000000
-21.654700 0.000000
-21.619900 0.000000
-21.585200 0.000000
-21.550500 0.000000
-21.515700 0.000000
-21.481000 0.000000
-21.446300 0.000000
-21.411500 0.000000
-21.376800 0.000000
-21.342100 0.000000
-21.307300 0.000000
-21.272600 0.000000
-21.237900 0.000000
-21.203100 0.000000
-21.168400 0.000000
-21.133700 0.000000
-21.099000 0.000000
-21.064200 0.000000
-21.029500 0.000000
-20.994800 0.000000
-20.960000 0.000000
-20.925300 0.000000
-20.890600 0.000000
-20.855800 0.000000
-20.821100 0.000000
-20.786400 0.000000
-20.751600 0.000000
-20.716900 0.000000
-20.682200 0.000000
-20.647400 0.000000
-20.612700 0.000000
-20.578000 0.000000
-20.543200 0.000000
-20.508500 0.000000
-20.473800 0.000000
-20.439100 0.000000
-20.404300 0.000000
-20.369600 0.000000
-20.334900 0.000000
-20.300100 0.000000
-20.265400 0.000000
-20.230700 0.000000
-20.195900 0.000000
-20.161200 0.000000
-20.126500 0.000000
-20.091700 0.000000
-20.057000 0.000000
-20.022300 0.000000
-19.987500 0.000000
-19.952800 0.000000
-19.918100 0.000000
-19.883300 0.000000
-19.848600 0.000000
-19.813900 0.000000
-19.779100 0.000000
-19.744400 0.000000
-19.709700 0.000000
-19.675000 0.000000
-19.640200 0.000000
-19.605500 0.000000
-19.570800 0.000000
-19.536000 0.000000
-19.501300 0.000000
-19.466600 0.000000
-19.431800 0.000000
-19.397100 0.000000
-19.362400 0.000000
-19.327600 0.000000
-19.292900 0.000000
-19.258200 0.000000
-19.223400 0.000000
-19.188700 0.000000
-19.154000 0.000000
-19.119200 0.000000
-19.084500 0.000000
-19.049800 0.000000
-19.015000 0.000000
-18.980300 0.000000
-18.945600 0.000000
-18.910900 0.000000
-18.876100 0.000000
-18.841400 0.000000
-18.806700 0.000000
-18.771900 0.000000
-18.737200 0.000000
-18.702500 0.000000
-18.667700 0.000000
-18.633000 0.000000
-18.598300 0.000000
-18.563500 0.000000
-18.528800 0.000000
-18.494100 0.000000
-18.459300 0.000000
-18.424600 0.000000
-18.389900 0.000000
-18.355100 0.000000
-18.320400 0.000000
-18.285700 0.000000
-18.251000 0.000000
-18.216200 0.000000
-18.181500 0.000000
-18.146800 0.000000
-18.112000 0.000000
-18.077300 0.000000
-18.042600 0.000000
-18.007800 0.000000
-17.973100 0.000000
-17.938400 0.000000
-17.903600 0.000000
-17.868900 0.000000
-17.834200 0.000000
-17.799400 0.000000
-17.764700 0.000000
-17.730000 0.000000
-17.695200 0.000000
-17.660500 0.000000
-17.625800 0.000000
-17.591000 0.000000
-17.556300 0.000000
-17.521600 0.000000
-17.486900 0.000000
-17.452100 0.000000
-17.417400 0.000000
-17.382700 0.000000
-17.347900 0.000000
-17.313200 0.000000
-17.278500 0.000000
-17.243700 0.000000
-17.209000 0.000000
-17.174300 0.000000
-17.139500 0.000000
-17.104800 0.000000
-17.070100 0.000000
-17.035300 0.000000
-17.000600 0.000000
-16.965900 0.000000
-16.931100 0.000000
-16.896400 0.000000
-16.861700 0.000000
-16.827000 0.000000
-16.792200 0.000000
-16.757500 0.000000
-16.722800 0.000000
-16.688000 0.000000
-16.653300 0.000000
-16.618600 0.000000
-16.583800 0.000000
-16.549100 0.000000
-16.514400 0.000000
-16.479600 0.000000
-16.444900 0.000000
-16.410200 0.000000
-16.375400 0.000000
-16.340700 0.000000
-16.306000 0.000000
-16.271200 0.000000
-16.236500 0.000000
-16.201800 0.000000
-16.167000 0.000000
-16.132300 0.000000
-16.097600 0.000000
-16.062900 0.000000
-16.028100 0.000000
-15.993400 0.000000
-15.958700 0.000000
-15.923900 0.000000
-15.889200 0.000000
-15.854500 0.000000
-15.819700 0.000000
-15.785000 0.000000
-15.750300 0.000000
-15.715500 0.000000
-15.680800 0.000000
-15.646100 0.000000
-15.611300 0.000000
-15.576600 0.000000
-15.541900 0.000000
-15.507100 0.000000
-15.472400 0.000000
-15.437700 0.000000
-15.403000 0.000000
-15.368200 0.000000
-15.333500 0.000000
-15.298800 0.000000
-15.264000 0.000000
-15.229300 0.000000
-15.194600 0.000000
-15.159800 0.000000
-15.125100 0.000000
-15.090400 0.000000
-15.055600 0.000000
-15.020900 0.000000
-14.986200 0.000000
-14.951400 0.000000
-14.916700 0.000000
-14.882000 0.089600
-14.847200 0.282100
-14.812500 0.332600
-14.777800 0.453900
-14.743000 0.533700
-14.708300 0.602000
-14.673600 0.680600
-14.638900 0.782500
-14.604100 0.899800
-14.569400 0.990500
-14.534700 1.108700
-14.499900 1.233900
-14.465200 1.432300
-14.430500 1.720100
-14.395700 2.096000
-14.361000 2.344600
-14.326300 2.416500
-14.291500 2.476500
-14.256800 2.526400
-14.222100 2.607100
-14.187300 2.787100
-14.152600 2.969200
-14.117900 3.276000
-14.083100 10.079800
-14.048400 9.955700
-14.013700 7.493900
-13.979000 7.384700
-13.944200 7.761800
-13.909500 7.225600
-13.874800 6.381900
-13.840000 6.132900
-13.805300 6.138800
-13.770600 6.376000
-13.735800 3.533100
-13.701100 4.175600
-13.666400 5.041500
-13.631600 4.108300
-13.596900 5.446400
-13.562200 9.023100
-13.527400 13.722100
-13.492700 12.353900
-13.458000 12.198300
-13.423200 10.366400
-13.388500 9.020600
-13.353800 6.814800
-13.319000 5.387100
-13.284300 3.536700
-13.249600 3.124900
-13.214900 2.973600
-13.180100 2.778800
-13.145400 2.750000
-13.110700 2.614900
-13.075900 2.210300
-13.041200 0.000000
-13.006500 0.000000
-12.971700 0.000000
-12.937000 0.000000
-12.902300 0.000000
-12.867500 0.000000
-12.832800 0.000000
-12.798100 0.000000
-12.763300 0.000000
-12.728600 0.000000
-12.693900 0.000000
-12.659100 0.000000
-12.624400 0.000000
-12.589700 0.000000
-12.555000 0.000000
-12.520200 0.000000
-12.485500 0.000000
-12.450800 0.000000
-12.416000 0.000000
-12.381300 0.000000
-12.346600 0.000000
-12.311800 0.000000
-12.277100 0.000000
-12.242400 0.000000
-12.207600 0.000000
-12.172900 0.000000
-12.138200 0.000000
-12.103400 0.000000
-12.068700 0.000000
-12.034000 0.000000
-11.999200 0.000000
-11.964500 0.000000
-11.929800 0.000000
-11.895000 0.000000
-11.860300 0.000000
-11.825600 0.000000
-11.790900 0.000000
-11.756100 0.000000
-11.721400 0.000000
-11.686700 0.000000
-11.651900 0.000000
-11.617200 0.000000
-11.582500 0.000000
-11.547700 0.000000
-11.513000 0.000000
-11.478300 0.000000
-11.443500 0.000000
-11.408800 0.000000
-11.374100 0.000000
-11.339300 0.000000
-11.304600 0.000000
-11.269900 0.000000
-11.235100 0.000000
-11.200400 0.000000
-11.165700 0.000000
-11.131000 0.000000
-11.096200 0.000000
-11.061500 0.000000
-11.026800 0.000000
-10.992000 0.000000
-10.957300 0.000000
-10.922600 0.000000
-10.887800 0.000000
-10.853100 0.000000
-10.818400 0.000000
-10.783600 0.000000
-10.748900 0.000000
-10.714200 0.000000
-10.679400 0.000000
-10.644700 0.000000
-10.610000 0.000000
-10.575200 0.000000
-10.540500 0.000000
-10.505800 0.000000
-10.471000 0.000000
-10.436300 0.000000
-10.401600 0.000000
-10.366900 0.000000
-10.332100 0.000000
-10.297400 0.000000
-10.262700 0.000000
-10.227900 0.000000
-10.193200 0.000000
-10.158500 0.000000
-10.123700 0.000000
-10.089000 0.000000
-10.054300 0.000000
-10.019500 0.000000
-9.984800 0.000000
-9.950100 0.000000
-9.915300 0.000000
-9.880600 0.000000
-9.845900 0.000000
-9.811100 0.000000
-9.776400 0.000000
-9.741700 0.000000
-9.707000 0.000000
-9.672200 0.000000
-9.637500 0.000000
-9.602800 0.000000
-9.568000 0.000000
-9.533300 0.000000
-9.498600 0.000000
-9.463800 0.000000
-9.429100 0.000000
-9.394400 0.000000
-9.359600 0.000000
-9.324900 0.000000
-9.290200 0.000000
-9.255400 0.000000
-9.220700 0.000000
-9.186000 0.000000
-9.151200 0.000000
-9.116500 0.000000
-9.081800 0.000000
-9.047000 0.000000
-9.012300 0.000000
-8.977600 0.000000
-8.942900 0.000000
-8.908100 0.000000
-8.873400 0.000000
-8.838700 0.000000
-8.803900 0.000000
-8.769200 0.000000
-8.734500 0.000000
-8.699700 0.000000
-8.665000 0.000000
-8.630300 0.000000
-8.595500 0.000000
-8.560800 0.000000
-8.526100 0.000000
-8.491300 0.000000
-8.456600 0.000000
-8.421900 0.000000
-8.387100 0.000000
-8.352400 0.000000
-8.317700 0.000000
-8.283000 0.000000
-8.248200 0.000000
-8.213500 0.000000
-8.178800 0.000000
-8.144000 0.000000
-8.109300 0.000000
-8.074600 0.000000
-8.039800 0.000000
-8.005100 0.000000
-7.970400 0.000000
-7.935600 0.000000
-7.900900 0.000000
-7.866200 0.000000
-7.831400 0.000000
-7.796700 0.000000
-7.762000 0.000000
-7.727200 0.000000
-7.692500 0.000000
-7.657800 0.000000
-7.623000 0.000000
-7.588300 0.000000
-7.553600 0.000000
-7.518900 0.000000
-7.484100 0.000000
-7.449400 0.000000
-7.414700 0.000000
-7.379900 0.000000
-7.345200 0.000000
-7.310500 0.000000
-7.275700 0.000000
-7.241000 0.000000
-7.206300 0.000000
-7.171500 0.000000
-7.136800 0.000000
-7.102100 0.000000
-7.067300 0.000000
-7.032600 0.000000
-6.997900 0.000000
-6.963100 0.000000
-6.928400 0.000000
-6.893700 0.000000
-6.859000 0.000000
-6.824200 0.000000
-6.789500 0.000000
-6.754800 0.000000
-6.720000 0.000000
-6.685300 0.000000
-6.650600 0.000000
-6.615800 0.000000
-6.581100 0.000000
-6.546400 0.000000
-6.511600 0.000000
-6.476900 0.000000
-6.442200 0.000000
-6.407400 0.000000
-6.372700 0.000000
-6.338000 0.000000
-6.303200 0.000000
-6.268500 0.000000
-6.233800 0.000000
-6.199000 0.000000
-6.164300 0.000000
-6.129600 0.000000
-6.094900 0.000000
-6.060100 0.000000
-6.025400 0.000000
-5.990700 0.000000
-5.955900 0.000000
-5.921200 0.000000
-5.886500 0.000000
-5.851700 0.000000
-5.817000 0.000000
-5.782300 0.000000
-5.747500 0.000000
-5.712800 0.000000
-5.678100 0.000000
-5.643300 0.000000
-5.608600 0.000000
-5.573900 0.000000
-5.539100 0.000000
-5.504400 0.000000
-5.469700 0.000000
-5.435000 0.000000
-5.400200 0.000000
-5.365500 0.000000
-5.330800 0.000000
-5.296000 0.000000
-5.261300 0.000000
-5.226600 0.000000
-5.191800 0.000000
-5.157100 0.000000
-5.122400 0.000000
-5.087600 0.000000
-5.052900 0.000000
-5.018200 0.000000
-4.983400 0.000000
-4.948700 0.000000
-4.914000 0.000000
-4.879200 0.000000
-4.844500 0.000000
-4.809800 0.000000
-4.775000 0.000000
-4.740300 0.000000
-4.705600 0.000000
-4.670900 0.000000
-4.636100 0.000000
-4.601400 0.000000
-4.566700 0.000000
-4.531900 0.000000
-4.497200 0.000000
-4.462500 0.000000
-4.427700 0.000000
-4.393000 0.000000
-4.358300 0.000000
-4.323500 0.000000
-4.288800 0.000000
-4.254100 0.000000
-4.219300 0.000000
-4.184600 0.000000
-4.149900 0.000000
-4.115100 0.000000
-4.080400 0.000000
-4.045700 0.000000
-4.011000 0.000000
-3.976200 0.000000
-3.941500 0.000000
-3.906800 0.000000
-3.872000 0.000000
-3.837300 0.000000
-3.802600 0.000000
-3.767800 0.000000
-3.733100 0.000000
-3.698400 0.000000
-3.663600 0.000000
-3.628900 0.000000
-3.594200 0.000000
-3.559400 0.000000
-3.524700 0.000000
-3.490000 0.000000
-3.455200 0.000000
-3.420500 0.000000
-3.385800 0.000000
-3.351000 0.000000
-3.316300 0.000000
-3.281600 0.000000
-3.246900 0.000000
-3.212100 0.000000
-3.177400 0.000000
-3.142700 0.000000
-3.107900 0.001400
-3.073200 0.056300
-3.038500 0.221100
-3.003700 0.665100
-2.969000 1.232900
-2.934300 1.176000
-2.899500 1.066200
-2.864800 1.152600
-2.830100 1.243200
-2.795300 1.305600
-2.760600 1.285300
-2.725900 1.271200
-2.691100 1.306500
-2.656400 1.346600
-2.621700 1.387100
-2.587000 1.427000
-2.552200 1.477400
-2.517500 1.530500
-2.482800 1.643900
-2.448000 4.292500
-2.413300 6.237700
-2.378600 5.449400
-2.343800 6.048900
-2.309100 7.628800
-2.274400 7.795100
-2.239600 7.895200
-2.204900 6.836400
-2.170200 6.713800
-2.135400 6.999200
-2.100700 6.207900
-2.066000 5.735100
-2.031200 5.354700
-1.996500 5.058800
-1.961800 4.897000
-1.927000 4.414600
-1.892300 3.897700
-1.857600 3.435100
-1.822900 3.132800
-1.788100 2.865800
-1.753400 2.716700
-1.718700 2.819500
-1.683900 3.014400
-1.649200 3.250600
-1.614500 3.564400
-1.579700 4.247700
-1.545000 5.085700
-1.510300 5.759600
-1.475500 6.110800
-1.440800 4.896000
-1.406100 4.170100
-1.371300 4.126300
-1.336600 4.303100
-1.301900 5.095500
-1.267100 5.923500
-1.232400 5.814200
-1.197700 5.570000
-1.163000 4.938800
-1.128200 3.968600
-1.093500 3.187700
-1.058800 2.921800
-1.024000 2.889400
-0.989300 2.990800
-0.954600 3.229600
-0.919800 3.348400
-0.885100 3.376000
-0.850400 3.523000
-0.815600 3.472000
-0.780900 3.557000
-0.746200 3.710600
-0.711400 3.865700
-0.676700 3.866500
-0.642000 3.862600
-0.607200 3.940000
-0.572500 4.127600
-0.537800 4.538100
-0.503000 4.828400
-0.468300 4.906400
-0.433600 5.019700
-0.398900 5.209500
-0.364100 5.050000
-0.329400 4.604200
-0.294700 4.237900
-0.259900 3.890900
-0.225200 3.671200
-0.190500 3.661000
-0.155700 3.931500
-0.121000 4.042400
-0.086300 3.955100
-0.051500 3.804600
-0.016800 3.722700
0.017900 3.889100
0.052700 3.984500
0.087400 4.057800
0.122100 4.164800
0.156900 4.279200
0.191600 4.382800
0.226300 4.469500
0.261000 4.476500
0.295800 4.547600
0.330500 4.652500
0.365200 4.782800
0.400000 4.855500
0.434700 4.682300
0.469400 4.583300
0.504200 4.562500
0.538900 4.631100
0.573600 4.942700
0.608400 5.517000
0.643100 6.047500
0.677800 6.546400
0.712600 5.755500
0.747300 5.835900
0.782000 5.454400
0.816800 5.108000
0.851500 5.178500
0.886200 5.751400
0.921000 6.240300
0.955700 6.055100
0.990400 5.711200
1.025100 5.624200
1.059900 5.384300
1.094600 5.892800
1.129300 5.826100
1.164100 5.468700
1.198800 4.882000
1.233500 4.460000
1.268300 4.453300
1.303000 4.249300
1.337700 4.334500
1.372500 4.550900
1.407200 4.567600
1.441900 3.803100
1.476700 3.101600
1.511400 2.911800
1.546100 3.182000
1.580900 3.647100
1.615600 4.236000
1.650300 4.796800
1.685000 3.994900
1.719800 3.831800
1.754500 4.181000
1.789200 3.864600
1.824000 3.874600
1.858700 4.045200
1.893400 3.996000
1.928200 3.994400
1.962900 4.010500
1.997600 4.141200
2.032400 4.217200
2.067100 4.379700
2.101800 4.471600
2.136600 4.683800
2.171300 4.866800
2.206000 4.797100
2.240800 4.424900
2.275500 4.205500
2.310200 3.987200
2.345000 3.858000
2.379700 3.838200
2.414400 3.741400
2.449100 3.865000
2.483900 2.652500
2.518600 2.054200
2.553300 1.859800
2.588100 1.710200
2.622800 1.595500
2.657500 1.596500
2.692300 1.448300
2.727000 1.292300
2.761700 1.197200
2.796500 1.155800
2.831200 1.151700
2.865900 1.170300
2.900700 1.251800
2.935400 1.246900
2.970100 1.196000
3.004900 1.188200
3.039600 1.176500
3.074300 1.073700
3.109000 1.020600
3.143800 0.996000
3.178500 0.915400
3.213200 0.797300
3.248000 0.836700
3.282700 0.874300
3.317400 0.912700
3.352200 0.952100
3.386900 0.994100
3.421600 1.042200
3.456400 1.102800
3.491100 1.178400
3.525800 1.269900
3.560600 1.386800
3.595300 1.624300
3.630000 1.991900
3.664800 1.908700
3.699500 1.846200
3.734200 1.712700
3.769000 1.657200
3.803700 1.807400
3.838400 1.850700
3.873100 1.935100
3.907900 2.035800
3.942600 2.178500
3.977300 2.361100
4.012100 2.568700
4.046800 2.813600
4.081500 3.187000
4.116300 4.223800
4.151000 4.435400
4.185700 4.011000
4.220500 3.592500
4.255200 3.312500
4.289900 3.186900
4.324700 3.068200
4.359400 3.034300
4.394100 3.041600
4.428900 2.927100
4.463600 2.830400
4.498300 2.770200
4.533000 2.736300
4.567800 2.692900
4.602500 2.748800
4.637200 2.741100
4.672000 2.802500
4.706700 2.805900
4.741400 2.775100
4.776200 2.843100
4.810900 2.945700
4.845600 2.954400
4.880400 2.751000
4.915100 2.692800
4.949800 2.677600
4.984600 3.362500
5.019300 3.532000
5.054000 3.167500
5.088800 2.871300
5.123500 2.839300
5.158200 2.785500
5.193000 2.908700
5.227700 2.981000
5.262400 3.076400
5.297100 3.167500
5.331900 3.289800
5.366600 3.419700
5.401300 3.556000
5.436100 3.764300
5.470800 4.258400
5.505500 4.539900
5.540300 4.719300
5.575000 4.942100
5.609700 5.106700
5.644500 5.318600
5.679200 5.477900
5.713900 4.546600
5.748700 4.367600
5.783400 4.160700
5.818100 3.952400
5.852900 4.016100
5.887600 4.291000
5.922300 4.492300
5.957100 4.033400
5.991800 4.001100
6.026500 4.045800
6.061200 4.121700
6.096000 4.142000
6.130700 4.148600
6.165400 4.230500
6.200200 4.515800
6.234900 4.874700
6.269600 4.474300
6.304400 4.330500
6.339100 4.221500
6.373800 4.101600
6.408600 3.895800
6.443300 4.169600
6.478000 3.897000
6.512800 3.521000
6.547500 3.372000
6.582200 3.066700
6.617000 2.892600
6.651700 2.675700
6.686400 2.577300
6.721100 2.514200
6.755900 2.480300
6.790600 3.204700
6.825300 4.779200
6.860100 2.571700
6.894800 2.176900
6.929500 2.085100
6.964300 1.998300
6.999000 2.494500
7.033700 0.562900
7.068500 0.522100
7.103200 0.488700
7.137900 0.453800
7.172700 0.425600
7.207400 0.408300
7.242100 0.374700
7.276900 0.339800
7.311600 0.358500
7.346300 0.411900
7.381100 0.229600
7.415800 0.000000
7.450500 0.234200
7.485200 0.233600
7.520000 0.302400
7.554700 0.877700
7.589400 1.311500
7.624200 1.939700
7.658900 2.495800
7.693600 2.595200
7.728400 2.495800
7.763100 2.423800
7.797800 2.339600
7.832600 2.284900
7.867300 2.270100
7.902000 2.327500
7.936800 2.485400
7.971500 2.669300
8.006200 2.785600
8.041000 2.783000
8.075700 2.742500
8.110400 2.580600
8.145100 2.431300
8.179900 2.359800
8.214600 2.227200
8.249300 2.114000
8.284100 2.109500
8.318800 2.084500
8.353500 2.048200
8.388300 2.022600
8.423000 2.014600
8.457700 2.027600
8.492500 2.037100
8.527200 2.107300
8.561900 2.251000
8.596700 2.650300
8.631400 3.587900
8.666100 4.120100
8.700900 3.757600
8.735600 3.192600
8.770300 3.050000
8.805100 2.983500
8.839800 2.950900
8.874500 3.159800
8.909200 3.643300
8.944000 3.518500
8.978700 3.381900
9.013400 3.285600
9.048200 3.581900
9.082900 4.787800
9.117600 4.410400
9.152400 4.494600
9.187100 4.695200
9.221800 2.847100
9.256600 1.885100
9.291300 1.743300
9.326000 1.638900
9.360800 1.557700
9.395500 1.490300
9.430200 1.449400
9.465000 1.448200
9.499700 1.453800
9.534400 1.521000
9.569100 1.548700
9.603900 1.571800
9.638600 1.612500
9.673300 1.712900
9.708100 1.746600
9.742800 1.749500
9.777500 1.727700
9.812300 1.717300
9.847000 1.703800
9.881700 1.688300
9.916500 1.659900
9.951200 1.638300
9.985900 1.610200
10.020700 1.581500
10.055400 1.539900
10.090100 1.505900
10.124900 1.464300
10.159600 1.455800
10.194300 1.449500
10.229100 1.445800
10.263800 1.444200
10.298500 1.447200
10.333200 1.460800
10.368000 1.479100
10.402700 1.492100
10.437400 1.506900
10.472200 1.546400
10.506900 1.622500
10.541600 1.807000
10.576400 1.802900
10.611100 1.761900
10.645800 1.636700
10.680600 1.614100
10.715300 1.634300
10.750000 1.664000
10.784800 1.703400
10.819500 1.763900
10.854200 1.867200
10.889000 2.080400
10.923700 2.399000
10.958400 2.726800
10.993100 2.718400
11.027900 2.517300
11.062600 2.031400
11.097300 1.585700
11.132100 1.049000
11.166800 0.767500
11.201500 0.466200
11.236300 0.099200
11.271000 0.002700
11.305700 0.000000
11.340500 0.000000
11.375200 0.000000
11.409900 0.000000
11.444700 0.000000
11.479400 0.000000
11.514100 0.000000
11.548900 0.000000
11.583600 0.000000
11.618300 0.000000
11.653100 0.000000
11.687800 0.000000
11.722500 0.006600
11.757200 0.200700
11.792000 0.791000
11.826700 0.419700
11.861400 0.323100
11.896200 0.303400
11.930900 0.300500
11.965600 0.295900
12.000400 0.288600
12.035100 0.284400
12.069800 0.284000
12.104600 0.286900
12.139300 0.288100
12.174000 0.287100
12.208800 0.287000
12.243500 0.288900
12.278200 0.292600
12.313000 0.296800
12.347700 0.301300
12.382400 0.306000
12.417100 0.311000
12.451900 0.316200
12.486600 0.321500
12.521300 0.327100
12.556100 0.333100
12.590800 0.339300
12.625500 0.345800
12.660300 0.352200
12.695000 0.358300
12.729700 0.364200
12.764500 0.370200
12.799200 0.376500
12.833900 0.383100
12.868700 0.390400
12.903400 0.398000
12.938100 0.405800
12.972900 0.413600
13.007600 0.421800
13.042300 0.430200
13.077100 0.438800
13.111800 0.447700
13.146500 0.456700
13.181200 0.466000
13.216000 0.475400
13.250700 0.484700
13.285400 0.494100
13.320200 0.503700
13.354900 0.513800
13.389600 0.524600
13.424400 0.535800
13.459100 0.547300
13.493800 0.559500
13.528600 0.571900
13.563300 0.584300
13.598000 0.597000
13.632800 0.610000
13.667500 0.623100
13.702200 0.636200
13.737000 0.649400
13.771700 0.662700
13.806400 0.676200
13.841100 0.689900
13.875900 0.704900
13.910600 0.722100
13.945300 0.740400
13.980100 0.760600
14.014800 0.782100
14.049500 0.803700
14.084300 0.825400
14.119000 0.847600
14.153700 0.870400
14.188500 0.893700
14.223200 0.917400
14.257900 0.941500
14.292700 0.966100
14.327400 0.991300
14.362100 1.028700
14.396900 1.091400
14.431600 1.142800
14.466300 1.183100
14.501100 1.239200
14.535800 1.287200
14.570500 1.311200
14.605200 1.316200
14.640000 1.326200
14.674700 1.359500
14.709400 1.390000
14.744200 1.419500
14.778900 1.457800
14.813600 1.519800
14.848400 1.585000
14.883100 1.668500
14.917800 1.747000
14.952600 1.796700
14.987300 1.873700
15.022000 1.975000
15.056800 2.136100
15.091500 2.375200
15.126200 2.773100
15.161000 3.234000
15.195700 4.045600
15.230400 7.519100
15.265100 8.931000
15.299900 4.359600
15.334600 3.478400
15.369300 2.931400
15.404100 2.417500
15.438800 2.131600
15.473500 1.890400
15.508300 1.722300
15.543000 1.548000
15.577700 1.536100
15.612500 1.542700
15.647200 1.584000
15.681900 1.589200
15.716700 1.627300
15.751400 1.645900
15.786100 1.680600
15.820900 1.669500
15.855600 1.684000
15.890300 1.695200
15.925100 1.709200
15.959800 1.727600
15.994500 1.754100
16.029200 1.800700
16.064000 1.848600
16.098700 1.926600
16.133400 1.971900
16.168200 1.995900
16.202900 2.062700
16.237600 1.962200
16.272400 1.807400
16.307100 1.791200
16.341800 1.785600
16.376600 1.777000
16.411300 1.763900
16.446000 1.758600
16.480800 1.745900
16.515500 1.731300
16.550200 1.697600
16.585000 1.666300
16.619700 1.654000
16.654400 1.647000
16.689100 1.644700
16.723900 1.641700
16.758600 1.636900
16.793300 1.637200
16.828100 1.633700
16.862800 1.628000
16.897500 1.623300
16.932300 1.617200
16.967000 1.614500
17.001700 1.594900
17.036500 1.569200
17.071200 1.550500
17.105900 1.542600
17.140700 1.537200
17.175400 1.535800
17.210100 1.534600
17.244900 1.534900
17.279600 1.539900
17.314300 1.548600
17.349100 1.562700
17.383800 1.594800
17.418500 1.604400
17.453200 1.595800
17.488000 1.577500
17.522700 1.591300
17.557400 1.642500
17.592200 1.649100
17.626900 1.676200
17.661600 1.711000
17.696400 1.748400
17.731100 1.785000
17.765800 1.820600
17.800600 1.854100
17.835300 1.971500
17.870000 2.577300
17.904800 2.029600
17.939500 1.953100
17.974200 1.905500
18.009000 2.087500
18.043700 2.568500
18.078400 2.823500
18.113100 3.119700
18.147900 2.750300
18.182600 2.721600
18.217300 2.540700
18.252100 2.409100
18.286800 2.354100
18.321500 2.290600
18.356300 2.202600
18.391000 2.141000
18.425700 2.118000
18.460500 2.092100
18.495200 2.054400
18.529900 1.995200
18.564700 1.969300
18.599400 1.962500
18.634100 2.013000
18.668900 2.102100
18.703600 2.162200
18.738300 2.213800
18.773100 2.273300
18.807800 2.371900
18.842500 2.521800
18.877200 2.809300
18.912000 4.186400
18.946700 5.936600
18.981400 5.040900
19.016200 4.081700
19.050900 3.662500
19.085600 3.425600
19.120400 3.418000
19.155100 3.466200
19.189800 3.467200
19.224600 3.346200
19.259300 3.038400
19.294000 2.826700
19.328800 2.661900
19.363500 2.561300
19.398200 2.473900
19.433000 2.431900
19.467700 2.403900
19.502400 2.403900
19.537100 2.987200
19.571900 3.528500
19.606600 1.967200
19.641300 1.760600
19.676100 0.578500
19.710800 0.698600
19.745500 0.986400
19.780300 1.198100
19.815000 1.396900
19.849700 1.575600
19.884500 1.681300
19.919200 1.771400
19.953900 1.972900
19.988700 2.275300
20.023400 2.555600
20.058100 2.434900
20.092900 2.243300
20.127600 1.990200
20.162300 1.900500
20.197100 1.922800
20.231800 2.066100
20.266500 2.076000
20.301200 2.128200
20.336000 2.204800
20.370700 2.349300
20.405400 3.208100
20.440200 3.575200
20.474900 4.144600
20.509600 4.445400
20.544400 4.101100
20.579100 4.571400
20.613800 4.299300
20.648600 3.441800
20.683300 3.157000
20.718000 2.879200
20.752800 2.604500
20.787500 2.344000
20.822200 2.166200
20.857000 2.165200
20.891700 2.188900
20.926400 2.244000
20.961100 2.409100
20.995900 2.504500
21.030600 2.527500
21.065300 2.516100
21.100100 2.452500
21.134800 2.401800
21.169500 2.409100
21.204300 2.460800
21.239000 2.398200
21.273700 2.384200
21.308500 2.372000
21.343200 2.401100
21.377900 2.389500
21.412700 2.335000
21.447400 2.533400
21.482100 2.339100
21.516900 2.241500
21.551600 2.194500
21.586300 2.182200
21.621100 2.180700
21.655800 2.182500
21.690500 2.237700
21.725200 2.244800
21.760000 2.340900
21.794700 2.386500
21.829400 2.421900
21.864200 2.496300
21.898900 2.541300
21.933600 2.591100
21.968400 2.650700
22.003100 2.693300
22.037800 2.767400
22.072600 2.630100
22.107300 2.588700
22.142000 2.673800
22.176800 2.559900
22.211500 2.413400
22.246200 2.406500
22.281000 2.444800
22.315700 2.507400
22.350400 2.501400
22.385100 2.499800
22.419900 2.553900
22.454600 2.498400
22.489300 2.280400
22.524100 2.144500
22.558800 2.068200
22.593500 2.044400
22.628300 2.054700
22.663000 2.035400
22.697700 2.013600
22.732500 2.009900
22.767200 2.015600
22.801900 2.018300
22.836700 2.038200
22.871400 2.087400
22.906100 2.163400
22.940900 2.206000
22.975600 2.218300
23.010300 2.183700
23.045100 2.074100
23.079800 2.013700
23.114500 1.969000
23.149200 1.921200
23.184000 1.881700
23.218700 1.865300
23.253400 1.849100
23.288200 1.832400
23.322900 1.815400
23.357600 1.796200
23.392400 1.781200
23.427100 1.768000
23.461800 1.754800
23.496600 1.743200
23.531300 1.734000
23.566000 1.722000
23.600800 1.707800
23.635500 1.685100
23.670200 1.702400
23.705000 1.656100
23.739700 1.613700
23.774400 1.581300
23.809100 1.569400
23.843900 1.513400
23.878600 1.493700
23.913300 1.492200
23.948100 1.492500
23.982800 1.481700
24.017500 1.467900
24.052300 1.417200
24.087000 1.386100
24.121700 1.353800
24.156500 1.360800
24.191200 1.353200
24.225900 1.315300
24.260700 1.274300
24.295400 1.257900
24.330100 1.250300
24.364900 1.248000
24.399600 1.257100
24.434300 1.324000
24.469100 1.412100
24.503800 1.463400
24.538500 1.531200
24.573200 1.603800
24.608000 1.654900
24.642700 1.688800
24.677400 1.689700
24.712200 1.679500
24.746900 1.666900
24.781600 1.638900
24.816400 1.624700
24.851100 1.632000
24.885800 1.656000
24.920600 1.707300
24.955300 1.799100
24.990000 1.990200
25.024800 2.181000
25.059500 2.186800
25.094200 2.087800
25.129000 2.014600
25.163700 2.007600
25.198400 1.969900
25.233100 1.922300
25.267900 1.871700
25.302600 1.845100
25.337300 1.815700
25.372100 1.791500
25.406800 1.777600
25.441500 1.776200
25.476300 1.867300
25.511000 2.024100
25.545700 2.199500
25.580500 2.447800
25.615200 2.250700
25.649900 2.399400
25.684700 2.392800
25.719400 2.359400
25.754100 2.328100
25.788900 2.343100
25.823600 2.410800
25.858300 2.588200
25.893100 2.377200
25.927800 2.127800
25.962500 1.975300
25.997200 1.876100
26.032000 1.806200
26.066700 1.774500
26.101400 1.769900
26.136200 1.767300
26.170900 1.844000
26.205600 1.884200
26.240400 1.943300
26.275100 1.922800
26.309800 1.835800
26.344600 1.729500
26.379300 1.630500
26.414000 1.544600
26.448800 1.539100
26.483500 1.467300
26.518200 1.440600
26.553000 1.418100
26.587700 1.439200
26.622400 1.451200
26.657100 1.468300
26.691900 1.528600
26.726600 1.524000
26.761300 1.498500
26.796100 1.509300
26.830800 1.544900
26.865500 1.561400
26.900300 1.576800
26.935000 1.606300
26.969700 1.643900
27.004500 1.707500
27.039200 1.788000
27.073900 1.894100
27.108700 2.053800
27.143400 2.107900
27.178100 2.110500
27.212900 2.065000
27.247600 2.004700
27.282300 1.952900
27.317100 1.821600
27.351800 1.608000
27.386500 1.397200
27.421200 1.208000
27.456000 1.081500
27.490700 0.982500
27.525400 0.881200
27.560200 0.776100
27.594900 0.667200
27.629600 0.602700
27.664400 0.581700
27.699100 0.436000
27.733800 0.312000
27.768600 0.216300
27.803300 0.147000
27.838000 0.076800
27.872800 0.036100
27.907500 0.023900
27.942200 0.016300
27.977000 0.010300
28.011700 0.005600
28.046400 0.002300
28.081100 0.000500
28.115900 0.000000
28.150600 0.000000
28.185300 0.000000
28.220100 0.000000
28.254800 0.000000
28.289500 0.000000
28.324300 0.000000
28.359000 0.000000
28.393700 0.000000
28.428500 0.000000
28.463200 0.000000
28.497900 0.000000
28.532700 0.000000
28.567400 0.000000
28.602100 0.000000
28.636900 0.000000
28.671600 0.000000
28.706300 0.000000
28.741100 0.000000
28.775800 0.000000
28.810500 0.000000
28.845200 0.000000
28.880000 0.000000
28.914700 0.000000
28.949400 0.000000
28.984200 0.000000
29.018900 0.000000
29.053600 0.000000
29.088400 0.000000
29.123100 0.000000
29.157800 0.000000
29.192600 0.000000
29.227300 0.000000
29.262000 0.000000
29.296800 0.000000
29.331500 0.000000
29.366200 0.000000
29.401000 0.000000
29.435700 0.000000
29.470400 0.000000
29.505100 0.000000
29.539900 0.000000
29.574600 0.000000
29.609300 0.000000
29.644100 0.000000
29.678800 0.000000
29.713500 0.000000
29.748300 0.000000
29.783000 0.000000
29.817700 0.000000
29.852500 0.000000
29.887200 0.000000
29.921900 0.000000
29.956700 0.000000
29.991400 0.000000
30.026100 0.000000
30.060900 0.000000
30.095600 0.000000
30.130300 0.000000
30.165100 0.000000
30.199800 0.000000
30.234500 0.000000
30.269200 0.000000
30.304000 0.000000
30.338700 0.000000
30.373400 0.000000
30.408200 0.000000
30.442900 0.000000
30.477600 0.000000
30.512400 0.000000
30.547100 0.000000
30.581800 0.000000
30.616600 0.000000
30.651300 0.000000
30.686000 0.000000
30.720800 0.000000
30.755500 0.000000
30.790200 0.000000
30.825000 0.000000
30.859700 0.000000
30.894400 0.000000
30.929100 0.000000
30.963900 0.000000
30.998600 0.000000
31.033300 0.000000
31.068100 0.000000
31.102800 0.000000
31.137500 0.000000
31.172300 0.000000
31.207000 0.000000
31.241700 0.000000
31.276500 0.000000
e
