set title 'mp-542595 - Density of States'
set xlabel 'Energy (eV)'
set ylabel 'DOS (states/eV)'
set grid
set xrange [-10:10]
set yrange [0:7.128]
set xzeroaxis lt -1
set terminal png size 800,600
set output 'mp-542595_dos_gnuplot.png'
plot '-' using 1:2 with lines title 'DOS'
-34.551400 0.000000
-34.519800 0.000000
-34.488300 0.000000
-34.456700 0.000000
-34.425200 0.000000
-34.393600 0.000000
-34.362000 0.000000
-34.330500 0.000000
-34.298900 0.000000
-34.267400 0.000000
-34.235800 0.000000
-34.204200 0.000000
-34.172700 0.000000
-34.141100 0.000000
-34.109600 0.000000
-34.078000 0.000000
-34.046500 0.000000
-34.014900 0.000000
-33.983300 0.000000
-33.951800 0.000000
-33.920200 0.000000
-33.888700 0.000000
-33.857100 0.000000
-33.825500 0.000000
-33.794000 0.000000
-33.762400 0.000000
-33.730900 0.000000
-33.699300 0.000000
-33.667700 0.000000
-33.636200 0.000000
-33.604600 0.000000
-33.573100 0.000000
-33.541500 0.000000
-33.510000 0.000000
-33.478400 0.000000
-33.446800 0.000000
-33.415300 0.000000
-33.383700 0.000000
-33.352200 0.000000
-33.320600 0.000000
-33.289000 0.000000
-33.257500 0.000000
-33.225900 0.000000
-33.194400 0.000000
-33.162800 0.000000
-33.131200 0.000000
-33.099700 0.000000
-33.068100 0.000000
-33.036600 0.000000
-33.005000 0.000000
-32.973500 0.000000
-32.941900 0.000000
-32.910300 0.000000
-32.878800 0.000000
-32.847200 0.000000
-32.815700 0.000000
-32.784100 0.000000
-32.752500 0.000000
-32.721000 0.000000
-32.689400 0.000000
-32.657900 0.000000
-32.626300 0.000000
-32.594700 0.000000
-32.563200 0.000000
-32.531600 0.000000
-32.500100 0.000000
-32.468500 0.000000
-32.437000 0.000000
-32.405400 0.000000
-32.373800 0.000000
-32.342300 0.000000
-32.310700 0.000000
-32.279200 0.000000
-32.247600 0.000000
-32.216000 0.000000
-32.184500 0.000000
-32.152900 0.000000
-32.121400 0.000000
-32.089800 0.000000
-32.058300 0.000000
-32.026700 0.000000
-31.995100 0.000000
-31.963600 0.000000
-31.932000 0.000000
-31.900500 0.000000
-31.868900 0.000000
-31.837300 0.000000
-31.805800 0.000000
-31.774200 0.000000
-31.742700 0.000000
-31.711100 0.000000
-31.679500 25.097200
-31.648000 24.396800
-31.616400 18.926300
-31.584900 19.795800
-31.553300 84.217000
-31.521800 0.000000
-31.490200 0.000000
-31.458600 0.000000
-31.427100 0.000000
-31.395500 0.000000
-31.364000 0.000000
-31.332400 0.000000
-31.300800 0.000000
-31.269300 0.000000
-31.237700 0.000000
-31.206200 0.000000
-31.174600 0.000000
-31.143000 0.000000
-31.111500 0.000000
-31.079900 0.000000
-31.048400 0.000000
-31.016800 0.000000
-30.985300 0.000000
-30.953700 0.000000
-30.922100 0.000000
-30.890600 0.000000
-30.859000 0.000000
-30.827500 0.000000
-30.795900 0.000000
-30.764300 0.000000
-30.732800 0.000000
-30.701200 0.000000
-30.669700 0.000000
-30.638100 0.000000
-30.606500 0.000000
-30.575000 0.000000
-30.543400 0.000000
-30.511900 0.000000
-30.480300 0.000000
-30.448800 0.000000
-30.417200 0.000000
-30.385600 0.000000
-30.354100 0.000000
-30.322500 0.000000
-30.291000 0.000000
-30.259400 0.000000
-30.227800 0.000000
-30.196300 0.000000
-30.164700 0.000000
-30.133200 0.000000
-30.101600 0.000000
-30.070000 0.000000
-30.038500 0.000000
-30.006900 0.000000
-29.975400 0.000000
-29.943800 0.000000
-29.912300 0.000000
-29.880700 0.000000
-29.849100 0.000000
-29.817600 0.000000
-29.786000 0.000000
-29.754500 0.000000
-29.722900 0.000000
-29.691300 0.000000
-29.659800 0.000000
-29.628200 0.000000
-29.596700 0.000000
-29.565100 0.000000
-29.533500 0.000000
-29.502000 0.000000
-29.470400 0.000000
-29.438900 0.000000
-29.407300 0.000000
-29.375800 0.000000
-29.344200 0.000000
-29.312600 0.000000
-29.281100 0.000000
-29.249500 0.000000
-29.218000 0.000000
-29.186400 0.000000
-29.154800 0.000000
-29.123300 0.000000
-29.091700 0.000000
-29.060200 0.000000
-29.028600 0.000000
-28.997100 0.000000
-28.965500 0.000000
-28.933900 0.000000
-28.902400 0.000000
-28.870800 0.000000
-28.839300 0.000000
-28.807700 0.000000
-28.776100 0.000000
-28.744600 0.000000
-28.713000 0.000000
-28.681500 0.000000
-28.649900 0.000000
-28.618300 0.000000
-28.586800 0.000000
-28.555200 0.000000
-28.523700 0.000000
-28.492100 0.000000
-28.460600 0.000000
-28.429000 0.000000
-28.397400 0.000000
-28.365900 0.000000
-28.334300 0.000000
-28.302800 0.000000
-28.271200 0.000000
-28.239600 0.000000
-28.208100 0.000000
-28.176500 0.000000
-28.145000 0.000000
-28.113400 0.000000
-28.081800 0.000000
-28.050300 0.000000
-28.018700 0.000000
-27.987200 0.000000
-27.955600 0.000000
-27.924100 0.000000
-27.892500 0.000000
-27.860900 0.000000
-27.829400 0.000000
-27.797800 0.000000
-27.766300 0.000000
-27.734700 0.000000
-27.703100 0.000000
-27.671600 0.000000
-27.640000 0.000000
-27.608500 0.000000
-27.576900 0.000000
-27.545300 0.000000
-27.513800 0.000000
-27.482200 0.000000
-27.450700 0.000000
-27.419100 0.000000
-27.387600 0.000000
-27.356000 0.000000
-27.324400 0.000000
-27.292900 0.000000
-27.261300 0.000000
-27.229800 0.000000
-27.198200 0.000000
-27.166600 0.000000
-27.135100 0.000000
-27.103500 0.000000
-27.072000 0.000000
-27.040400 0.000000
-27.008800 0.000000
-26.977300 0.000000
-26.945700 0.000000
-26.914200 0.000000
-26.882600 0.000000
-26.851100 0.000000
-26.819500 0.000000
-26.787900 0.000000
-26.756400 0.000000
-26.724800 0.000000
-26.693300 0.000000
-26.661700 0.000000
-26.630100 0.000000
-26.598600 0.000000
-26.567000 0.000000
-26.535500 0.000000
-26.503900 0.000000
-26.472400 0.000000
-26.440800 0.000000
-26.409200 0.000000
-26.377700 0.000000
-26.346100 0.000000
-26.314600 0.000000
-26.283000 0.000000
-26.251400 0.000000
-26.219900 0.000000
-26.188300 0.000000
-26.156800 0.000000
-26.125200 0.000000
-26.093600 0.000000
-26.062100 0.000000
-26.030500 0.000000
-25.999000 0.000000
-25.967400 0.000000
-25.935900 0.000000
-25.904300 0.000000
-25.872700 0.000000
-25.841200 0.000000
-25.809600 0.000000
-25.778100 0.000000
-25.746500 0.000000
-25.714900 0.000000
-25.683400 0.000000
-25.651800 0.000000
-25.620300 0.000000
-25.588700 0.000000
-25.557100 0.000000
-25.525600 0.000000
-25.494000 0.000000
-25.462500 0.000000
-25.430900 0.000000
-25.399400 0.000000
-25.367800 0.000000
-25.336200 0.000000
-25.304700 0.000000
-25.273100 0.000000
-25.241600 0.000000
-25.210000 0.000000
-25.178400 0.000000
-25.146900 0.000000
-25.115300 0.000000
-25.083800 0.000000
-25.052200 0.000000
-25.020600 0.000000
-24.989100 0.000000
-24.957500 0.000000
-24.926000 0.000000
-24.894400 0.000000
-24.862900 0.000000
-24.831300 0.000000
-24.799700 0.000000
-24.768200 0.000000
-24.736600 0.000000
-24.705100 0.000000
-24.673500 0.000000
-24.641900 0.000000
-24.610400 0.000000
-24.578800 0.000000
-24.547300 0.000000
-24.515700 0.000000
-24.484100 0.000000
-24.452600 0.000000
-24.421000 0.000000
-24.389500 0.000000
-24.357900 0.000000
-24.326400 0.000000
-24.294800 0.000000
-24.263200 0.000000
-24.231700 0.000000
-24.200100 0.000000
-24.168600 0.000000
-24.137000 0.000000
-24.105400 0.000000
-24.073900 0.000000
-24.042300 0.000000
-24.010800 0.000000
-23.979200 0.000000
-23.947700 0.000000
-23.916100 0.000000
-23.884500 0.000000
-23.853000 0.000000
-23.821400 0.000000
-23.789900 0.000000
-23.758300 0.000000
-23.726700 0.000000
-23.695200 0.000000
-23.663600 0.000000
-23.632100 0.000000
-23.600500 0.000000
-23.568900 0.000000
-23.537400 0.000000
-23.505800 0.000000
-23.474300 0.000000
-23.442700 0.000000
-23.411200 0.000000
-23.379600 0.000000
-23.348000 0.000000
-23.316500 0.000000
-23.284900 0.000000
-23.253400 0.000000
-23.221800 0.000000
-23.190200 0.000000
-23.158700 0.000000
-23.127100 0.000000
-23.095600 0.000000
-23.064000 0.000000
-23.032400 0.000000
-23.000900 0.000000
-22.969300 0.000000
-22.937800 0.000000
-22.906200 0.000000
-22.874700 0.000000
-22.843100 0.000000
-22.811500 0.000000
-22.780000 0.000000
-22.748400 0.000000
-22.716900 0.000000
-22.685300 0.000000
-22.653700 0.000000
-22.622200 0.000000
-22.590600 0.000000
-22.559100 0.000000
-22.527500 0.000000
-22.495900 0.000000
-22.464400 0.000000
-22.432800 0.000000
-22.401300 0.000000
-22.369700 0.000000
-22.338200 0.000000
-22.306600 0.000000
-22.275000 0.000000
-22.243500 0.000000
-22.211900 0.000000
-22.180400 0.000000
-22.148800 0.000000
-22.117200 0.000000
-22.085700 0.000000
-22.054100 0.000000
-22.022600 0.000000
-21.991000 0.000000
-21.959400 0.000000
-21.927900 0.000000
-21.896300 0.000000
-21.864800 0.000000
-21.833200 0.000000
-21.801700 0.000000
-21.770100 0.000000
-21.738500 0.000000
-21.707000 0.000000
-21.675400 0.000000
-21.643900 0.000000
-21.612300 0.000000
-21.580700 0.000000
-21.549200 0.000000
-21.517600 0.000000
-21.486100 0.000000
-21.454500 0.000000
-21.422900 0.000000
-21.391400 0.000000
-21.359800 0.000000
-21.328300 0.000000
-21.296700 0.000000
-21.265200 0.000000
-21.233600 0.000000
-21.202000 0.000000
-21.170500 0.000000
-21.138900 0.000000
-21.107400 0.000000
-21.075800 0.000000
-21.044200 0.000000
-21.012700 0.000000
-20.981100 0.000000
-20.949600 0.000000
-20.918000 0.000000
-20.886500 0.000000
-20.854900 0.000000
-20.823300 0.000000
-20.791800 0.000000
-20.760200 0.000000
-20.728700 0.000000
-20.697100 0.000000
-20.665500 0.000000
-20.634000 0.000000
-20.602400 0.000000
-20.570900 0.000000
-20.539300 0.000000
-20.507700 0.000000
-20.476200 0.000000
-20.444600 0.000000
-20.413100 0.000000
-20.381500 0.000000
-20.350000 0.000000
-20.318400 0.000000
-20.286800 0.000000
-20.255300 0.000000
-20.223700 0.000000
-20.192200 0.000000
-20.160600 0.000000
-20.129000 0.000000
-20.097500 0.000000
-20.065900 0.000000
-20.034400 0.000000
-20.002800 0.000000
-19.971200 0.000000
-19.939700 0.000000
-19.908100 0.000000
-19.876600 0.000000
-19.845000 0.000000
-19.813500 0.000000
-19.781900 0.000000
-19.750300 0.000000
-19.718800 0.000000
-19.687200 0.000000
-19.655700 0.000000
-19.624100 0.000000
-19.592500 0.000000
-19.561000 0.000000
-19.529400 0.000000
-19.497900 0.000000
-19.466300 0.000000
-19.434700 0.000000
-19.403200 0.000000
-19.371600 0.000000
-19.340100 0.000000
-19.308500 0.000000
-19.277000 0.000000
-19.245400 0.000000
-19.213800 0.000000
-19.182300 0.000000
-19.150700 0.000000
-19.119200 0.000000
-19.087600 0.000000
-19.056000 0.000000
-19.024500 0.000000
-18.992900 0.000000
-18.961400 0.000000
-18.929800 0.000000
-18.898200 0.000000
-18.866700 0.000000
-18.835100 0.000000
-18.803600 0.000000
-18.772000 0.000000
-18.740500 0.000000
-18.708900 0.000000
-18.677300 0.000000
-18.645800 0.000000
-18.614200 0.000000
-18.582700 0.000000
-18.551100 0.000000
-18.519500 0.000000
-18.488000 0.000000
-18.456400 0.000000
-18.424900 0.000000
-18.393300 0.000000
-18.361800 0.000000
-18.330200 0.000000
-18.298600 0.000000
-18.267100 52.886200
-18.235500 186.778300
-18.204000 86.244400
-18.172400 43.229300
-18.140800 164.431800
-18.109300 110.240900
-18.077700 0.000000
-18.046200 0.000000
-18.014600 0.000000
-17.983000 0.000000
-17.951500 0.000000
-17.919900 0.000000
-17.888400 0.000000
-17.856800 0.000000
-17.825300 0.000000
-17.793700 0.000000
-17.762100 0.000000
-17.730600 0.000000
-17.699000 0.000000
-17.667500 0.000000
-17.635900 0.000000
-17.604300 0.000000
-17.572800 0.000000
-17.541200 0.000000
-17.509700 0.000000
-17.478100 0.000000
-17.446500 0.000000
-17.415000 0.000000
-17.383400 0.000000
-17.351900 0.000000
-17.320300 0.000000
-17.288800 0.000000
-17.257200 0.000000
-17.225600 0.000000
-17.194100 0.000000
-17.162500 0.000000
-17.131000 0.000000
-17.099400 0.000000
-17.067800 0.000000
-17.036300 0.000000
-17.004700 0.000000
-16.973200 0.000000
-16.941600 0.000000
-16.910000 0.000000
-16.878500 0.000000
-16.846900 0.000000
-16.815400 0.000000
-16.783800 0.000000
-16.752300 0.000000
-16.720700 0.000000
-16.689100 0.000000
-16.657600 0.000000
-16.626000 0.000000
-16.594500 0.000000
-16.562900 0.000000
-16.531300 0.000000
-16.499800 0.000000
-16.468200 0.000000
-16.436700 0.000000
-16.405100 0.000000
-16.373500 0.000000
-16.342000 0.000000
-16.310400 0.000000
-16.278900 0.000000
-16.247300 0.000000
-16.215800 0.000000
-16.184200 0.000000
-16.152600 0.000000
-16.121100 0.000000
-16.089500 0.000000
-16.058000 0.000000
-16.026400 0.000000
-15.994800 0.000000
-15.963300 0.000000
-15.931700 0.000000
-15.900200 0.000000
-15.868600 0.000000
-15.837100 0.000000
-15.805500 0.000000
-15.773900 0.000000
-15.742400 0.000000
-15.710800 0.000000
-15.679300 0.000000
-15.647700 0.000000
-15.616100 0.000000
-15.584600 0.000000
-15.553000 0.000000
-15.521500 0.000000
-15.489900 0.000000
-15.458300 0.000000
-15.426800 0.000000
-15.395200 0.000000
-15.363700 0.000000
-15.332100 0.000000
-15.300600 0.000000
-15.269000 0.000000
-15.237400 0.000000
-15.205900 0.000000
-15.174300 0.000000
-15.142800 0.000000
-15.111200 0.000000
-15.079600 0.000000
-15.048100 0.000000
-15.016500 0.000000
-14.985000 0.000000
-14.953400 0.000000
-14.921800 0.000000
-14.890300 0.000000
-14.858700 0.000000
-14.827200 0.000000
-14.795600 0.000000
-14.764100 0.000000
-14.732500 0.000000
-14.700900 0.000000
-14.669400 0.000000
-14.637800 0.000000
-14.606300 0.000000
-14.574700 0.000000
-14.543100 0.000000
-14.511600 0.000000
-14.480000 0.000000
-14.448500 0.000000
-14.416900 0.000000
-14.385300 0.000000
-14.353800 0.000000
-14.322200 0.000000
-14.290700 0.000000
-14.259100 0.000000
-14.227600 0.000000
-14.196000 0.000000
-14.164400 0.000000
-14.132900 0.000000
-14.101300 0.000000
-14.069800 0.000000
-14.038200 0.000000
-14.006600 0.000000
-13.975100 0.000000
-13.943500 0.000000
-13.912000 0.000000
-13.880400 0.000000
-13.848800 0.000000
-13.817300 0.000000
-13.785700 0.000000
-13.754200 0.000000
-13.722600 0.000000
-13.691100 0.000000
-13.659500 0.000000
-13.627900 0.000000
-13.596400 0.000000
-13.564800 0.000000
-13.533300 0.000000
-13.501700 0.000000
-13.470100 0.000000
-13.438600 0.000000
-13.407000 0.000000
-13.375500 0.000000
-13.343900 0.000000
-13.312300 0.000000
-13.280800 0.000000
-13.249200 0.000000
-13.217700 0.000000
-13.186100 0.000000
-13.154600 0.000000
-13.123000 0.000000
-13.091400 0.000000
-13.059900 0.000000
-13.028300 0.000000
-12.996800 0.000000
-12.965200 0.000000
-12.933600 0.000000
-12.902100 0.000000
-12.870500 0.000000
-12.839000 0.000000
-12.807400 0.000000
-12.775900 0.000000
-12.744300 0.000000
-12.712700 0.000000
-12.681200 0.000000
-12.649600 0.000000
-12.618100 0.000000
-12.586500 0.000000
-12.554900 0.000000
-12.523400 0.000000
-12.491800 0.000000
-12.460300 0.000000
-12.428700 0.000000
-12.397100 0.000000
-12.365600 0.000000
-12.334000 0.000000
-12.302500 0.000000
-12.270900 0.000000
-12.239400 0.000000
-12.207800 0.000000
-12.176200 0.000000
-12.144700 0.000000
-12.113100 0.000000
-12.081600 0.000000
-12.050000 0.000000
-12.018400 0.000000
-11.986900 0.000000
-11.955300 0.000000
-11.923800 0.000000
-11.892200 0.000000
-11.860600 0.000000
-11.829100 0.000000
-11.797500 0.000000
-11.766000 0.000000
-11.734400 0.000000
-11.702900 0.000000
-11.671300 0.000000
-11.639700 0.000000
-11.608200 0.000000
-11.576600 0.000000
-11.545100 0.000000
-11.513500 0.000000
-11.481900 0.000000
-11.450400 0.000000
-11.418800 0.000000
-11.387300 0.000000
-11.355700 0.000000
-11.324100 0.000000
-11.292600 0.000000
-11.261000 0.000000
-11.229500 0.000000
-11.197900 0.000000
-11.166400 0.000000
-11.134800 0.000000
-11.103200 0.000000
-11.071700 0.000000
-11.040100 0.000000
-11.008600 0.000000
-10.977000 0.000000
-10.945400 0.000000
-10.913900 0.000000
-10.882300 0.000000
-10.850800 0.000000
-10.819200 0.000000
-10.787600 0.000000
-10.756100 0.000000
-10.724500 0.000000
-10.693000 0.000000
-10.661400 0.000000
-10.629900 0.000000
-10.598300 0.000000
-10.566700 0.000000
-10.535200 0.000000
-10.503600 0.000000
-10.472100 0.000000
-10.440500 0.000000
-10.408900 0.000000
-10.377400 0.000000
-10.345800 0.000000
-10.314300 0.000000
-10.282700 0.000000
-10.251200 0.000000
-10.219600 0.000000
-10.188000 0.000000
-10.156500 0.000000
-10.124900 0.000000
-10.093400 0.000000
-10.061800 0.000000
-10.030200 0.000000
-9.998700 0.000000
-9.967100 0.000000
-9.935600 0.000000
-9.904000 0.000000
-9.872400 0.000000
-9.840900 0.000000
-9.809300 0.000000
-9.777800 0.000000
-9.746200 0.000000
-9.714700 0.000000
-9.683100 0.000000
-9.651500 0.000000
-9.620000 0.000000
-9.588400 0.000000
-9.556900 0.000000
-9.525300 0.000000
-9.493700 0.000000
-9.462200 0.000000
-9.430600 0.000000
-9.399100 0.000000
-9.367500 0.000000
-9.335900 0.000000
-9.304400 0.000000
-9.272800 0.000000
-9.241300 0.000000
-9.209700 0.000000
-9.178200 0.000000
-9.146600 0.000000
-9.115000 0.000000
-9.083500 0.000000
-9.051900 0.000000
-9.020400 0.000000
-8.988800 0.000000
-8.957200 0.000000
-8.925700 0.000000
-8.894100 0.000000
-8.862600 0.000000
-8.831000 0.000000
-8.799400 0.000000
-8.767900 0.000000
-8.736300 0.000000
-8.704800 0.000000
-8.673200 0.000000
-8.641700 0.000000
-8.610100 0.000000
-8.578500 0.000000
-8.547000 0.000000
-8.515400 0.000000
-8.483900 0.000000
-8.452300 0.000000
-8.420700 0.000000
-8.389200 0.000000
-8.357600 0.000000
-8.326100 0.000000
-8.294500 0.000000
-8.262900 0.000000
-8.231400 0.000000
-8.199800 0.000000
-8.168300 0.000000
-8.136700 0.000000
-8.105200 0.000000
-8.073600 0.000000
-8.042000 0.000000
-8.010500 0.000000
-7.978900 0.000000
-7.947400 0.000000
-7.915800 0.000000
-7.884200 0.000000
-7.852700 0.000000
-7.821100 0.000000
-7.789600 0.000000
-7.758000 0.000000
-7.726500 0.000000
-7.694900 0.000000
-7.663300 0.000000
-7.631800 0.000000
-7.600200 0.000000
-7.568700 0.000000
-7.537100 0.000000
-7.505500 0.000000
-7.474000 0.000000
-7.442400 0.000000
-7.410900 0.000000
-7.379300 0.000000
-7.347700 0.000000
-7.316200 0.000000
-7.284600 0.000000
-7.253100 0.000000
-7.221500 0.017800
-7.190000 0.064700
-7.158400 0.068800
-7.126800 0.084500
-7.095300 0.101700
-7.063700 0.114800
-7.032200 0.120500
-7.000600 0.128900
-6.969000 0.138700
-6.937500 0.149000
-6.905900 0.157000
-6.874400 0.166400
-6.842800 0.173900
-6.811200 0.179300
-6.779700 0.185900
-6.748100 0.192900
-6.716600 0.199800
-6.685000 0.206600
-6.653500 0.213200
-6.621900 0.220400
-6.590300 0.227900
-6.558800 0.233500
-6.527200 0.238800
-6.495700 0.244200
-6.464100 0.250200
-6.432500 0.256300
-6.401000 0.261800
-6.369400 0.267500
-6.337900 0.273300
-6.306300 0.279100
-6.274700 0.285200
-6.243200 0.291400
-6.211600 0.297500
-6.180100 0.302800
-6.148500 0.308200
-6.117000 0.313700
-6.085400 0.319000
-6.053800 0.324200
-6.022300 0.329400
-5.990700 0.334800
-5.959200 0.340400
-5.927600 0.346400
-5.896000 0.352400
-5.864500 0.358600
-5.832900 0.364900
-5.801400 0.371300
-5.769800 0.377000
-5.738200 0.382600
-5.706700 0.388400
-5.675100 0.394200
-5.643600 0.400400
-5.612000 0.407000
-5.580500 0.413900
-5.548900 0.421200
-5.517300 0.428800
-5.485800 0.437100
-5.454200 0.446200
-5.422700 0.456400
-5.391100 0.470600
-5.359500 0.482700
-5.328000 0.499300
-5.296400 0.495400
-5.264900 0.505400
-5.233300 0.497800
-5.201800 0.499800
-5.170200 0.516200
-5.138600 0.511600
-5.107100 0.509000
-5.075500 0.507600
-5.044000 0.507800
-5.012400 0.509100
-4.980800 0.510900
-4.949300 0.513600
-4.917700 0.518000
-4.886200 0.521500
-4.854600 0.521400
-4.823000 0.523100
-4.791500 0.524400
-4.759900 0.527000
-4.728400 0.529400
-4.696800 0.531200
-4.665300 0.532900
-4.633700 0.534300
-4.602100 0.535000
-4.570600 0.536400
-4.539000 0.539400
-4.507500 0.541300
-4.475900 0.544900
-4.444300 0.548400
-4.412800 0.551400
-4.381200 0.554200
-4.349700 0.557200
-4.318100 0.559900
-4.286500 0.562100
-4.255000 0.570400
-4.223400 0.593700
-4.191900 0.592500
-4.160300 0.602900
-4.128800 0.620200
-4.097200 0.626100
-4.065600 0.636100
-4.034100 0.646400
-4.002500 0.658000
-3.971000 0.669300
-3.939400 0.682200
-3.907800 0.696200
-3.876300 0.714400
-3.844700 0.729800
-3.813200 0.755200
-3.781600 0.786800
-3.750000 0.812600
-3.718500 0.836500
-3.686900 0.858100
-3.655400 0.874000
-3.623800 0.883900
-3.592300 0.909600
-3.560700 1.000200
-3.529100 0.977700
-3.497600 0.939100
-3.466000 0.900900
-3.434500 0.867900
-3.402900 0.830100
-3.371300 0.820800
-3.339800 0.812900
-3.308200 0.818800
-3.276700 0.824200
-3.245100 0.831500
-3.213500 0.845700
-3.182000 0.876400
-3.150400 0.945700
-3.118900 1.027800
-3.087300 1.180300
-3.055800 1.389000
-3.024200 1.519500
-2.992600 1.011700
-2.961100 0.913100
-2.929500 0.874900
-2.898000 0.867500
-2.866400 0.863300
-2.834800 0.894800
-2.803300 0.845800
-2.771700 0.857000
-2.740200 0.859300
-2.708600 0.854600
-2.677000 0.846700
-2.645500 0.816200
-2.613900 0.800700
-2.582400 0.788500
-2.550800 0.782100
-2.519300 0.777000
-2.487700 0.770700
-2.456100 0.764400
-2.424600 0.757400
-2.393000 0.754400
-2.361500 0.753100
-2.329900 0.751600
-2.298300 0.752200
-2.266800 0.745800
-2.235200 0.741400
-2.203700 0.736600
-2.172100 0.732100
-2.140600 0.728700
-2.109000 0.724400
-2.077400 0.719800
-2.045900 0.715300
-2.014300 0.711500
-1.982800 0.705800
-1.951200 0.702200
-1.919600 0.698900
-1.888100 0.695300
-1.856500 0.688600
-1.825000 0.681800
-1.793400 0.675600
-1.761800 0.669600
-1.730300 0.663800
-1.698700 0.657700
-1.667200 0.651700
-1.635600 0.646000
-1.604100 0.638500
-1.572500 0.631100
-1.540900 0.624500
-1.509400 0.618700
-1.477800 0.613400
-1.446300 0.608200
-1.414700 0.601400
-1.383100 0.593700
-1.351600 0.585900
-1.320000 0.578000
-1.288500 0.570100
-1.256900 0.562800
-1.225300 0.555500
-1.193800 0.547800
-1.162200 0.539800
-1.130700 0.531600
-1.099100 0.524400
-1.067600 0.517100
-1.036000 0.510000
-1.004400 0.503500
-0.972900 0.496100
-0.941300 0.488900
-0.909800 0.481900
-0.878200 0.474300
-0.846600 0.466100
-0.815100 0.458300
-0.783500 0.450300
-0.752000 0.442200
-0.720400 0.433900
-0.688800 0.425100
-0.657300 0.415900
-0.625700 0.407200
-0.594200 0.398100
-0.562600 0.409700
-0.531100 0.459200
-0.499500 0.455900
-0.467900 0.447300
-0.436400 0.446100
-0.404800 0.446800
-0.373300 0.449000
-0.341700 0.450300
-0.310100 0.455600
-0.278600 0.456900
-0.247000 0.457200
-0.215500 0.457700
-0.183900 0.457400
-0.152300 0.457400
-0.120800 0.458400
-0.089200 0.457600
-0.057700 0.457400
-0.026100 0.456200
0.005400 0.456200
0.037000 0.454000
0.068600 0.451300
0.100100 0.451600
0.131700 0.453900
0.163200 0.459800
0.194800 0.466900
0.226400 0.474400
0.257900 0.483800
0.289500 0.496200
0.321000 0.511300
0.352600 0.526500
0.384100 0.535500
0.415700 0.552000
0.447300 0.574600
0.478800 0.583900
0.510400 0.594000
0.541900 0.618300
0.573500 0.652800
0.605100 0.706200
0.636600 0.903500
0.668200 0.952300
0.699700 1.032000
0.731300 1.129000
0.762900 1.161100
0.794400 1.198500
0.826000 1.249100
0.857500 1.290100
0.889100 1.314000
0.920600 1.304500
0.952200 1.306300
0.983800 1.300400
1.015300 1.298600
1.046900 1.325700
1.078400 1.377500
1.110000 1.389100
1.141600 1.425300
1.173100 1.416700
1.204700 1.418300
1.236200 1.408000
1.267800 1.393200
1.299400 1.341600
1.330900 1.351100
1.362500 1.371300
1.394000 1.367700
1.425600 1.351300
1.457100 1.347000
1.488700 1.319600
1.520300 1.245700
1.551800 1.179900
1.583400 1.132100
1.614900 1.153400
1.646500 1.087000
1.678100 0.952800
1.709600 0.802600
1.741200 0.732100
1.772700 0.691300
1.804300 0.686100
1.835900 0.676100
1.867400 0.679100
1.899000 0.684200
1.930500 0.689100
1.962100 0.705900
1.993600 0.750900
2.025200 0.829500
2.056800 0.907600
2.088300 0.964600
2.119900 0.998100
2.151400 1.016900
2.183000 1.049500
2.214600 1.053300
2.246100 1.072600
2.277700 1.083200
2.309200 1.120600
2.340800 1.173600
2.372400 1.238600
2.403900 1.269800
2.435500 1.281400
2.467000 1.321800
2.498600 1.373100
2.530100 1.368000
2.561700 1.364900
2.593300 1.381200
2.624800 1.402900
2.656400 1.434600
2.687900 1.454300
2.719500 1.417600
2.751100 1.396200
2.782600 1.356600
2.814200 1.311700
2.845700 1.267300
2.877300 1.233800
2.908800 1.214200
2.940400 1.155100
2.972000 1.110900
3.003500 1.092500
3.035100 1.089800
3.066600 1.103200
3.098200 1.120100
3.129800 1.164000
3.161300 1.258500
3.192900 1.322800
3.224400 1.396000
3.256000 1.419400
3.287600 1.449600
3.319100 1.482900
3.350700 1.501600
3.382200 1.523100
3.413800 1.630400
3.445300 1.620900
3.476900 1.659100
3.508500 1.725400
3.540000 1.796000
3.571600 1.843800
3.603100 1.844600
3.634700 1.832000
3.666300 1.847000
3.697800 1.833200
3.729400 1.820300
3.760900 1.873700
3.792500 1.991300
3.824100 2.060900
3.855600 2.071400
3.887200 1.685300
3.918700 1.931000
3.950300 2.097900
3.981800 2.267100
4.013400 2.849700
4.045000 2.919500
4.076500 3.239900
4.108100 3.353500
4.139600 3.195500
4.171200 3.238200
4.202800 3.353800
4.234300 3.523500
4.265900 3.841100
4.297400 4.692300
4.329000 4.567400
4.360600 4.571700
4.392100 4.590900
4.423700 4.700800
4.455200 5.139700
4.486800 5.659900
4.518300 6.152500
4.549900 6.480200
4.581500 5.481000
4.613000 4.736500
4.644600 4.054300
4.676100 3.390900
4.707700 3.100500
4.739300 2.866300
4.770800 2.629600
4.802400 2.366000
4.833900 2.186800
4.865500 2.039200
4.897100 1.905500
4.928600 1.784100
4.960200 1.665700
4.991700 1.484500
5.023300 1.370700
5.054800 1.320200
5.086400 1.269300
5.118000 1.246900
5.149500 1.218900
5.181100 1.229400
5.212600 1.180400
5.244200 1.159600
5.275800 1.136100
5.307300 1.117000
5.338900 1.085000
5.370400 1.054900
5.402000 1.029500
5.433600 1.007400
5.465100 0.986700
5.496700 0.963900
5.528200 0.945400
5.559800 0.928700
5.591300 0.914100
5.622900 0.899700
5.654500 0.887200
5.686000 0.877200
5.717600 0.858800
5.749100 0.848500
5.780700 0.838400
5.812300 0.849500
5.843800 0.836200
5.875400 0.815100
5.906900 0.822300
5.938500 0.834000
5.970000 0.849600
6.001600 0.879900
6.033200 0.912900
6.064700 0.910900
6.096300 0.916100
6.127800 0.917600
6.159400 0.930600
6.191000 0.952300
6.222500 0.997400
6.254100 1.083900
6.285600 1.115800
6.317200 1.125200
6.348800 1.051500
6.380300 0.957000
6.411900 0.918300
6.443400 0.908000
6.475000 0.897300
6.506500 0.905900
6.538100 0.887800
6.569700 0.906300
6.601200 0.941300
6.632800 0.937400
6.664300 0.790700
6.695900 0.642100
6.727500 0.628500
6.759000 0.622800
6.790600 0.625100
6.822100 0.629900
6.853700 0.630600
6.885300 0.637000
6.916800 0.649300
6.948400 0.664900
6.979900 0.686900
7.011500 0.666600
7.043000 0.669400
7.074600 0.728900
7.106200 0.833900
7.137700 0.886400
7.169300 0.928700
7.200800 0.953300
7.232400 0.966300
7.264000 0.948900
7.295500 0.959900
7.327100 0.974100
7.358600 0.982900
7.390200 1.002700
7.421800 1.029500
7.453300 1.049100
7.484900 1.055400
7.516400 1.055000
7.548000 1.053200
7.579500 1.102800
7.611100 1.143900
7.642700 1.179600
7.674200 1.207200
7.705800 1.243400
7.737300 1.316100
7.768900 1.373600
7.800500 1.437300
7.832000 1.489600
7.863600 1.520300
7.895100 1.564300
7.926700 1.614200
7.958300 1.716300
7.989800 1.839000
8.021400 1.860800
8.052900 1.845100
8.084500 1.847800
8.116000 1.848100
8.147600 1.867500
8.179200 1.919000
8.210700 1.983600
8.242300 2.056300
8.273800 2.130100
8.305400 2.213600
8.337000 2.267400
8.368500 2.371800
8.400100 2.471000
8.431600 2.624600
8.463200 2.756900
8.494700 2.905400
8.526300 2.940000
8.557900 2.714100
8.589400 2.586200
8.621000 2.494300
8.652500 2.530900
8.684100 2.601500
8.715700 2.687600
8.747200 2.847000
8.778800 3.333200
8.810300 3.257200
8.841900 2.588400
8.873500 2.183900
8.905000 2.057600
8.936600 1.904200
8.968100 1.791100
8.999700 1.860600
9.031200 1.562000
9.062800 1.413300
9.094400 1.298600
9.125900 1.248600
9.157500 1.216800
9.189000 1.217800
9.220600 1.186800
9.252200 1.224200
9.283700 1.265000
9.315300 1.309100
9.346800 1.254400
9.378400 1.213000
9.410000 1.193500
9.441500 1.186900
9.473100 1.188200
9.504600 1.196300
9.536200 1.185600
9.567700 1.192000
9.599300 1.222600
9.630900 1.340900
9.662400 1.502500
9.694000 1.627800
9.725500 1.777600
9.757100 1.933000
9.788700 1.919000
9.820200 2.001700
9.851800 2.135000
9.883300 2.239200
9.914900 2.361900
9.946500 2.600700
9.978000 2.840300
10.009600 2.805400
10.041100 2.871600
10.072700 2.684400
10.104200 2.733600
10.135800 2.746500
10.167400 2.790000
10.198900 3.009200
10.230500 3.027300
10.262000 2.700700
10.293600 2.548600
10.325200 2.673700
10.356700 2.811600
10.388300 2.488600
10.419800 2.322900
10.451400 2.189400
10.483000 2.142900
10.514500 2.107600
10.546100 2.099200
10.577600 2.099500
10.609200 2.082600
10.640700 2.077900
10.672300 2.028900
10.703900 1.961800
10.735400 1.873800
10.767000 1.772000
10.798500 1.695300
10.830100 1.620300
10.861700 1.549800
10.893200 1.445000
10.924800 1.298500
10.956300 1.232700
10.987900 1.196600
11.019400 1.209900
11.051000 1.205000
11.082600 1.183400
11.114100 1.159000
11.145700 1.150200
11.177200 1.157200
11.208800 1.183500
11.240400 1.215800
11.271900 1.248600
11.303500 1.272600
11.335000 1.290500
11.366600 1.281800
11.398200 1.296700
11.429700 1.308200
11.461300 1.322500
11.492800 1.347200
11.524400 1.372300
11.555900 1.388700
11.587500 1.401900
11.619100 1.405900
11.650600 1.419100
11.682200 1.413600
11.713700 1.419300
11.745300 1.435100
11.776900 1.503000
11.808400 1.513000
11.840000 1.538500
11.871500 1.564600
11.903100 1.591400
11.934700 1.605400
11.966200 1.596400
11.997800 1.613900
12.029300 1.628500
12.060900 1.647700
12.092400 1.601900
12.124000 1.605600
12.155600 1.604900
12.187100 1.587300
12.218700 1.555100
12.250200 1.526600
12.281800 1.531700
12.313400 1.558600
12.344900 1.609700
12.376500 1.590400
12.408000 1.594500
12.439600 1.595000
12.471200 1.587600
12.502700 1.592700
12.534300 1.596200
12.565800 1.587400
12.597400 1.588300
12.628900 1.590300
12.660500 1.599700
12.692100 1.611500
12.723600 1.630500
12.755200 1.642700
12.786700 1.650500
12.818300 1.666600
12.849900 1.685200
12.881400 1.716600
12.913000 1.721300
12.944500 1.716000
12.976100 1.660400
13.007700 1.622100
13.039200 1.555800
13.070800 1.508700
13.102300 1.478500
13.133900 1.489800
13.165400 1.509600
13.197000 1.537400
13.228600 1.558800
13.260100 1.591800
13.291700 1.634400
13.323200 1.679400
13.354800 1.720100
13.386400 1.736400
13.417900 1.737300
13.449500 1.648200
13.481000 1.569900
13.512600 1.502400
13.544100 1.473700
13.575700 1.476000
13.607300 1.356800
13.638800 1.285400
13.670400 1.286500
13.701900 1.305300
13.733500 1.349400
13.765100 1.433700
13.796600 1.624500
13.828200 1.763400
13.859700 1.865800
13.891300 2.020600
13.922900 2.085500
13.954400 2.086200
13.986000 2.063300
14.017500 1.938900
14.049100 1.866800
14.080600 1.810800
14.112200 1.788100
14.143800 1.782500
14.175300 1.782800
14.206900 1.755800
14.238400 1.697600
14.270000 1.632000
14.301600 1.594800
14.333100 1.587500
14.364700 1.585300
14.396200 1.606600
14.427800 1.571300
14.459400 1.543500
14.490900 1.547100
14.522500 1.556900
14.554000 1.576600
14.585600 1.548000
14.617100 1.521400
14.648700 1.525700
14.680300 1.529900
14.711800 1.520600
14.743400 1.499600
14.774900 1.479600
14.806500 1.492300
14.838100 1.408500
14.869600 1.404400
14.901200 1.380700
14.932700 1.327900
14.964300 1.280900
14.995900 1.261400
15.027400 1.239300
15.059000 1.210400
15.090500 1.146700
15.122100 1.076000
15.153600 1.024400
15.185200 1.035300
15.216800 1.048500
15.248300 1.085300
15.279900 1.087300
15.311400 1.091800
15.343000 1.114900
15.374600 1.124500
15.406100 1.127000
15.437700 1.123500
15.469200 1.153800
15.500800 1.190400
15.532400 1.166700
15.563900 1.171600
15.595500 1.200100
15.627000 1.235500
15.658600 1.266200
15.690100 1.304300
15.721700 1.373400
15.753300 1.439800
15.784800 1.482500
15.816400 1.504900
15.847900 1.518400
15.879500 1.528200
15.911100 1.527200
15.942600 1.535600
15.974200 1.534500
16.005700 1.512400
16.037300 1.465300
16.068900 1.418000
16.100400 1.388200
16.132000 1.343300
16.163500 1.314800
16.195100 1.287400
16.226600 1.244000
16.258200 1.191400
16.289800 1.138500
16.321300 1.133900
16.352900 1.130800
16.384400 1.120800
16.416000 1.085000
16.447600 1.045100
16.479100 0.999700
16.510700 0.965200
16.542200 0.937500
16.573800 0.916400
16.605300 0.899500
16.636900 0.888600
16.668500 0.897400
16.700000 0.910800
16.731600 0.936800
16.763100 0.974400
16.794700 0.986000
16.826300 1.033500
16.857800 1.111800
16.889400 1.153400
16.920900 1.201000
16.952500 1.231700
16.984100 1.252700
17.015600 1.275000
17.047200 1.300800
17.078700 1.316800
17.110300 1.335800
17.141800 1.367400
17.173400 1.375400
17.205000 1.369000
17.236500 1.354800
17.268100 1.351200
17.299600 1.340300
17.331200 1.338800
17.362800 1.337800
17.394300 1.346000
17.425900 1.368200
17.457400 1.373100
17.489000 1.364500
17.520600 1.373400
17.552100 1.383200
17.583700 1.371300
17.615200 1.388700
17.646800 1.415200
17.678300 1.448600
17.709900 1.477900
17.741500 1.459500
17.773000 1.438900
17.804600 1.421600
17.836100 1.431200
17.867700 1.448400
17.899300 1.471400
17.930800 1.476300
17.962400 1.474200
17.993900 1.482700
18.025500 1.509400
18.057100 1.489800
18.088600 1.506400
18.120200 1.527500
18.151700 1.515000
18.183300 1.518700
18.214800 1.534700
18.246400 1.524200
18.278000 1.512300
18.309500 1.508800
18.341100 1.537100
18.372600 1.565300
18.404200 1.552800
18.435800 1.529800
18.467300 1.524200
18.498900 1.546100
18.530400 1.561000
18.562000 1.579300
18.593600 1.616300
18.625100 1.641900
18.656700 1.642400
18.688200 1.604300
18.719800 1.595500
18.751300 1.558900
18.782900 1.512100
18.814500 1.488700
18.846000 1.478600
18.877600 1.457700
18.909100 1.442800
18.940700 1.415800
18.972300 1.393600
19.003800 1.374500
19.035400 1.364800
19.066900 1.362800
19.098500 1.340100
19.130000 1.326800
19.161600 1.328500
19.193200 1.331100
19.224700 1.376600
19.256300 1.402900
19.287800 1.356400
19.319400 1.320000
19.351000 1.301200
19.382500 1.288700
19.414100 1.284500
19.445600 1.287200
19.477200 1.304700
19.508800 1.330100
19.540300 1.352700
19.571900 1.376500
19.603400 1.395500
19.635000 1.415800
19.666500 1.446100
19.698100 1.486600
19.729700 1.521800
19.761200 1.606800
19.792800 1.831700
19.824300 1.592700
19.855900 1.520500
19.887500 1.484000
19.919000 1.434200
19.950600 1.407400
19.982100 1.374500
20.013700 1.343600
20.045300 1.320600
20.076800 1.304600
20.108400 1.283200
20.139900 1.247200
20.171500 1.315200
20.203000 1.200300
20.234600 1.197600
20.266200 1.192300
20.297700 1.213600
20.329300 1.223100
20.360800 1.235500
20.392400 1.212700
20.424000 1.206700
20.455500 1.218600
20.487100 1.261900
20.518600 1.292600
20.550200 1.348000
20.581800 1.420600
20.613300 1.432300
20.644900 1.438600
20.676400 1.385800
20.708000 1.349500
20.739500 1.327900
20.771100 1.314400
20.802700 1.284700
20.834200 1.256000
20.865800 1.229500
20.897300 1.201200
20.928900 1.169700
20.960500 1.143100
20.992000 1.092500
21.023600 1.051000
21.055100 1.031400
21.086700 1.024700
21.118300 1.020000
21.149800 1.017700
21.181400 1.018900
21.212900 1.021100
21.244500 1.024200
21.276000 1.036900
21.307600 1.061300
21.339200 1.094900
21.370700 1.156300
21.402300 1.293000
21.433800 1.509600
21.465400 1.594100
21.497000 1.515800
21.528500 1.463400
21.560100 1.403400
21.591600 1.376400
21.623200 1.359700
21.654700 1.322700
21.686300 1.292900
21.717900 1.276000
21.749400 1.240500
21.781000 1.174800
21.812500 1.159900
21.844100 1.167300
21.875700 1.150600
21.907200 1.136900
21.938800 1.135500
21.970300 1.172400
22.001900 1.225500
22.033500 1.219300
22.065000 1.180600
22.096600 1.161900
22.128100 1.158500
22.159700 1.162300
22.191200 1.171200
22.222800 1.165400
22.254400 1.171300
22.285900 1.298600
22.317500 1.216400
22.349000 1.133500
22.380600 1.023100
22.412200 0.914700
22.443700 0.860100
22.475300 0.812400
22.506800 0.767400
22.538400 0.733600
22.570000 0.700700
22.601500 0.660300
22.633100 0.622600
22.664600 0.528500
22.696200 0.506800
22.727700 0.479800
22.759300 0.462900
22.790900 0.446200
22.822400 0.432700
22.854000 0.451600
22.885500 0.483000
22.917100 0.474400
22.948700 0.442100
22.980200 0.409200
23.011800 0.361200
23.043300 0.321100
23.074900 0.278000
23.106500 0.253100
23.138000 0.229100
23.169600 0.217700
23.201100 0.209600
23.232700 0.202800
23.264200 0.196600
23.295800 0.191000
23.327400 0.186100
23.358900 0.181900
23.390500 0.178300
23.422000 0.175200
23.453600 0.172700
23.485200 0.170600
23.516700 0.168600
23.548300 0.166800
23.579800 0.163900
23.611400 0.162200
23.643000 0.161500
23.674500 0.161100
23.706100 0.161400
23.737600 0.161400
23.769200 0.161300
23.800700 0.158100
23.832300 0.156000
23.863900 0.153700
23.895400 0.151400
23.927000 0.149100
23.958500 0.146800
23.990100 0.144300
24.021700 0.141700
24.053200 0.139200
24.084800 0.136000
24.116300 0.132800
24.147900 0.131400
24.179500 0.130000
24.211000 0.128700
24.242600 0.127500
24.274100 0.128600
24.305700 0.129300
24.337200 0.132600
24.368800 0.138400
24.400400 0.139600
24.431900 0.139400
24.463500 0.152700
24.495000 0.139100
24.526600 0.135400
24.558200 0.131800
24.589700 0.128400
24.621300 0.125000
24.652800 0.122900
24.684400 0.120700
24.715900 0.119300
24.747500 0.119000
24.779100 0.117500
24.810600 0.109300
24.842200 0.098400
24.873700 0.088600
24.905300 0.083300
24.936900 0.078300
24.968400 0.073900
25.000000 0.070800
25.031500 0.068500
25.063100 0.066600
25.094700 0.065200
25.126200 0.064000
25.157800 0.062800
25.189300 0.061800
25.220900 0.061100
25.252400 0.057900
25.284000 0.049200
25.315600 0.046300
25.347100 0.044200
25.378700 0.042800
25.410200 0.056100
25.441800 0.051100
25.473400 0.037500
25.504900 0.025100
25.536500 0.018500
25.568000 0.013400
25.599600 0.008800
25.631200 0.004900
25.662700 0.001600
25.694300 0.000000
25.725800 0.000000
25.757400 0.000000
25.788900 0.000000
25.820500 0.000000
25.852100 0.000000
25.883600 0.000000
25.915200 0.000000
25.946700 0.000000
25.978300 0.000000
26.009900 0.000000
26.041400 0.000000
26.073000 0.000000
26.104500 0.000000
26.136100 0.000000
26.167700 0.000000
26.199200 0.000000
26.230800 0.000000
26.262300 0.000000
26.293900 0.000000
26.325400 0.000000
26.357000 0.000000
26.388600 0.000000
26.420100 0.000000
26.451700 0.000000
26.483200 0.000000
26.514800 0.000000
26.546400 0.000000
26.577900 0.000000
26.609500 0.000000
26.641000 0.000000
26.672600 0.000000
26.704200 0.000000
26.735700 0.000000
26.767300 0.000000
26.798800 0.000000
26.830400 0.000000
26.861900 0.000000
26.893500 0.000000
26.925100 0.000000
26.956600 0.000000
26.988200 0.000000
27.019700 0.000000
27.051300 0.000000
27.082900 0.000000
27.114400 0.000000
27.146000 0.000000
27.177500 0.000000
27.209100 0.000000
27.240600 0.000000
27.272200 0.000000
27.303800 0.000000
27.335300 0.000000
27.366900 0.000000
27.398400 0.000000
27.430000 0.000000
27.461600 0.000000
27.493100 0.000000
27.524700 0.000000
27.556200 0.000000
27.587800 0.000000
27.619400 0.000000
27.650900 0.000000
27.682500 0.000000
27.714000 0.000000
27.745600 0.000000
27.777100 0.000000
27.808700 0.000000
27.840300 0.000000
27.871800 0.000000
27.903400 0.000000
27.934900 0.000000
27.966500 0.000000
27.998100 0.000000
28.029600 0.000000
28.061200 0.000000
28.092700 0.000000
28.124300 0.000000
28.155900 0.000000
28.187400 0.000000
28.219000 0.000000
28.250500 0.000000
28.282100 0.000000
28.313600 0.000000
28.345200 0.000000
28.376800 0.000000
28.408300 0.000000
28.439900 0.000000
28.471400 0.000000
28.503000 0.000000
28.534600 0.000000
28.566100 0.000000
e
