set title 'mp-2097 - Density of States'
set xlabel 'Energy (eV)'
set ylabel 'DOS (states/eV)'
set grid
set xrange [-10:10]
set yrange [0:4.000]
set xzeroaxis lt -1
set terminal png size 800,600
set output 'mp-2097_dos_gnuplot.png'
plot '-' using 1:2 with lines title 'DOS'
-17.450400 0.000000
-17.429700 0.000000
-17.409000 0.000000
-17.388300 0.000000
-17.367700 0.000000
-17.347000 0.000000
-17.326300 0.000000
-17.305600 0.000000
-17.284900 0.000000
-17.264300 0.000000
-17.243600 0.000000
-17.222900 0.000000
-17.202200 0.000000
-17.181500 0.000000
-17.160900 0.000000
-17.140200 0.000000
-17.119500 0.000000
-17.098800 0.000000
-17.078100 0.000000
-17.057500 0.000000
-17.036800 0.000000
-17.016100 0.000000
-16.995400 0.000000
-16.974700 0.000000
-16.954100 0.000000
-16.933400 0.000000
-16.912700 0.000000
-16.892000 0.000000
-16.871300 0.000000
-16.850700 0.000000
-16.830000 0.000000
-16.809300 0.000000
-16.788600 0.000000
-16.767900 0.000000
-16.747300 0.000000
-16.726600 0.000000
-16.705900 0.000000
-16.685200 0.000000
-16.664600 0.000000
-16.643900 0.000000
-16.623200 0.000000
-16.602500 0.000000
-16.581800 0.000000
-16.561200 0.000000
-16.540500 0.000000
-16.519800 0.000000
-16.499100 0.000000
-16.478400 0.000000
-16.457800 0.000000
-16.437100 0.000000
-16.416400 0.000000
-16.395700 0.000000
-16.375000 0.000000
-16.354400 0.000000
-16.333700 0.000000
-16.313000 0.000000
-16.292300 0.000000
-16.271600 0.000000
-16.251000 0.000000
-16.230300 0.000000
-16.209600 0.000000
-16.188900 0.000000
-16.168200 0.000000
-16.147600 0.000000
-16.126900 0.000000
-16.106200 0.000000
-16.085500 0.000000
-16.064800 0.000000
-16.044200 0.000000
-16.023500 0.000000
-16.002800 0.000000
-15.982100 0.000000
-15.961500 0.000000
-15.940800 0.000000
-15.920100 0.000000
-15.899400 0.000000
-15.878700 0.000000
-15.858100 0.000000
-15.837400 0.000000
-15.816700 0.000000
-15.796000 0.000000
-15.775300 0.000000
-15.754700 0.000000
-15.734000 0.000000
-15.713300 0.000000
-15.692600 0.000000
-15.671900 0.000000
-15.651300 0.000000
-15.630600 0.000000
-15.609900 0.000000
-15.589200 0.000000
-15.568500 3.598000
-15.547900 15.570400
-15.527200 18.505500
-15.506500 32.859200
-15.485800 28.219100
-15.465100 13.250700
-15.444500 13.601700
-15.423800 10.074900
-15.403100 8.385100
-15.382400 7.154600
-15.361700 6.304300
-15.341100 5.561800
-15.320400 4.954500
-15.299700 4.548700
-15.279000 4.131900
-15.258300 4.195300
-15.237700 4.338100
-15.217000 2.978900
-15.196300 228.146200
-15.175600 120.512900
-15.155000 24.539100
-15.134300 123.515000
-15.113600 387.025200
-15.092900 0.000000
-15.072200 0.000000
-15.051600 0.000000
-15.030900 0.000000
-15.010200 0.000000
-14.989500 0.000000
-14.968800 0.000000
-14.948200 0.000000
-14.927500 0.000000
-14.906800 0.000000
-14.886100 0.000000
-14.865400 0.000000
-14.844800 0.000000
-14.824100 0.000000
-14.803400 0.000000
-14.782700 0.000000
-14.762000 0.000000
-14.741400 0.000000
-14.720700 0.000000
-14.700000 0.000000
-14.679300 0.000000
-14.658600 0.000000
-14.638000 0.000000
-14.617300 0.000000
-14.596600 0.000000
-14.575900 0.000000
-14.555200 0.000000
-14.534600 0.000000
-14.513900 0.000000
-14.493200 0.000000
-14.472500 0.000000
-14.451900 0.000000
-14.431200 0.000000
-14.410500 0.000000
-14.389800 0.000000
-14.369100 0.000000
-14.348500 0.000000
-14.327800 0.000000
-14.307100 0.000000
-14.286400 0.000000
-14.265700 0.000000
-14.245100 0.000000
-14.224400 0.000000
-14.203700 0.000000
-14.183000 0.000000
-14.162300 0.000000
-14.141700 0.000000
-14.121000 0.000000
-14.100300 0.000000
-14.079600 0.000000
-14.058900 0.000000
-14.038300 0.000000
-14.017600 0.000000
-13.996900 0.000000
-13.976200 0.000000
-13.955500 0.000000
-13.934900 0.000000
-13.914200 0.000000
-13.893500 0.000000
-13.872800 0.000000
-13.852100 0.000000
-13.831500 0.000000
-13.810800 0.000000
-13.790100 0.000000
-13.769400 0.000000
-13.748800 0.000000
-13.728100 0.000000
-13.707400 0.000000
-13.686700 0.000000
-13.666000 0.000000
-13.645400 0.000000
-13.624700 0.000000
-13.604000 0.000000
-13.583300 0.000000
-13.562600 0.000000
-13.542000 0.000000
-13.521300 0.000000
-13.500600 0.000000
-13.479900 0.000000
-13.459200 0.000000
-13.438600 0.476800
-13.417900 0.735600
-13.397200 0.941200
-13.376500 0.945000
-13.355800 0.869200
-13.335200 0.876700
-13.314500 0.913400
-13.293800 0.977000
-13.273100 0.989400
-13.252400 0.950600
-13.231800 0.942600
-13.211100 0.958300
-13.190400 0.986100
-13.169700 1.012500
-13.149000 1.039000
-13.128400 1.053300
-13.107700 1.040600
-13.087000 1.044400
-13.066300 1.053300
-13.045700 1.067400
-13.025000 1.081600
-13.004300 1.095800
-12.983600 1.120700
-12.962900 1.148700
-12.942300 1.164000
-12.921600 1.160400
-12.900900 1.163600
-12.880200 1.171400
-12.859500 1.185500
-12.838900 1.207100
-12.818200 1.228700
-12.797500 1.247500
-12.776800 1.265700
-12.756100 1.283900
-12.735500 1.298300
-12.714800 1.307600
-12.694100 1.327400
-12.673400 1.344400
-12.652700 1.362000
-12.632100 1.379500
-12.611400 1.396100
-12.590700 1.412300
-12.570000 1.436300
-12.549300 1.470000
-12.528700 1.499700
-12.508000 1.521700
-12.487300 1.538300
-12.466600 1.556500
-12.445900 1.575500
-12.425300 1.609200
-12.404600 1.648700
-12.383900 1.679900
-12.363200 1.711000
-12.342500 1.739600
-12.321900 1.765700
-12.301200 1.799900
-12.280500 3.258900
-12.259800 2.950900
-12.239200 2.261500
-12.218500 2.047000
-12.197800 1.827000
-12.177100 1.758400
-12.156400 1.649900
-12.135800 1.572800
-12.115100 1.505400
-12.094400 1.412200
-12.073700 1.350200
-12.053000 1.360000
-12.032400 3.700700
-12.011700 3.182900
-11.991000 3.341100
-11.970300 3.457900
-11.949600 3.592200
-11.929000 5.432900
-11.908300 3.466700
-11.887600 3.116300
-11.866900 2.875300
-11.846200 2.757000
-11.825600 2.645100
-11.804900 2.666400
-11.784200 2.501200
-11.763500 2.351900
-11.742800 2.284400
-11.722200 2.231100
-11.701500 2.095100
-11.680800 2.078800
-11.660100 2.059200
-11.639400 2.041400
-11.618800 2.019300
-11.598100 1.963700
-11.577400 1.915600
-11.556700 1.867400
-11.536100 1.780200
-11.515400 1.770100
-11.494700 1.755600
-11.474000 1.740600
-11.453300 1.767700
-11.432700 1.720300
-11.412000 1.673100
-11.391300 1.625900
-11.370600 1.571100
-11.349900 1.570700
-11.329300 1.602500
-11.308600 1.612400
-11.287900 1.544100
-11.267200 1.494900
-11.246500 1.435600
-11.225900 1.487300
-11.205200 1.563100
-11.184500 1.394800
-11.163800 1.379400
-11.143100 1.678100
-11.122500 1.135300
-11.101800 0.000000
-11.081100 0.000000
-11.060400 0.000000
-11.039700 0.000000
-11.019100 0.000000
-10.998400 0.000000
-10.977700 0.000000
-10.957000 0.000000
-10.936300 0.000000
-10.915700 0.000000
-10.895000 0.000000
-10.874300 0.000000
-10.853600 0.000000
-10.833000 0.000000
-10.812300 0.000000
-10.791600 0.000000
-10.770900 0.000000
-10.750200 0.000000
-10.729600 0.000000
-10.708900 0.000000
-10.688200 0.000000
-10.667500 0.000000
-10.646800 0.000000
-10.626200 0.000000
-10.605500 0.000000
-10.584800 0.000000
-10.564100 0.000000
-10.543400 0.000000
-10.522800 0.000000
-10.502100 0.000000
-10.481400 0.000000
-10.460700 0.000000
-10.440000 0.000000
-10.419400 0.000000
-10.398700 0.000000
-10.378000 0.000000
-10.357300 0.000000
-10.336600 0.000000
-10.316000 0.000000
-10.295300 0.000000
-10.274600 0.000000
-10.253900 0.000000
-10.233200 0.000000
-10.212600 0.000000
-10.191900 0.000000
-10.171200 0.000000
-10.150500 0.000000
-10.129900 0.000000
-10.109200 0.000000
-10.088500 0.000000
-10.067800 0.000000
-10.047100 0.000000
-10.026500 0.000000
-10.005800 0.000000
-9.985100 0.000000
-9.964400 0.000000
-9.943700 0.000000
-9.923100 0.000000
-9.902400 0.000000
-9.881700 0.000000
-9.861000 0.000000
-9.840300 0.000000
-9.819700 0.000000
-9.799000 0.000000
-9.778300 0.000000
-9.757600 0.000000
-9.736900 0.000000
-9.716300 0.000000
-9.695600 0.000000
-9.674900 0.000000
-9.654200 0.000000
-9.633500 0.000000
-9.612900 0.000000
-9.592200 0.000000
-9.571500 0.000000
-9.550800 0.000000
-9.530100 0.000000
-9.509500 0.000000
-9.488800 0.000000
-9.468100 0.000000
-9.447400 0.000000
-9.426700 0.000000
-9.406100 0.000000
-9.385400 0.000000
-9.364700 0.000000
-9.344000 0.000000
-9.323400 0.000000
-9.302700 0.000000
-9.282000 0.000000
-9.261300 0.000000
-9.240600 0.000000
-9.220000 0.000000
-9.199300 0.000000
-9.178600 0.000000
-9.157900 0.000000
-9.137200 0.000000
-9.116600 0.000000
-9.095900 0.000000
-9.075200 0.000000
-9.054500 0.000000
-9.033800 0.000000
-9.013200 0.000000
-8.992500 0.000000
-8.971800 0.000000
-8.951100 0.000000
-8.930400 0.000000
-8.909800 0.000000
-8.889100 0.000000
-8.868400 0.000000
-8.847700 0.000000
-8.827000 0.000000
-8.806400 0.000000
-8.785700 0.000000
-8.765000 0.000000
-8.744300 0.000000
-8.723600 0.000000
-8.703000 0.000000
-8.682300 0.000000
-8.661600 0.000000
-8.640900 0.000000
-8.620300 0.000000
-8.599600 0.000000
-8.578900 0.000000
-8.558200 0.000000
-8.537500 0.000000
-8.516900 0.000000
-8.496200 0.000000
-8.475500 0.000000
-8.454800 0.000000
-8.434100 0.000000
-8.413500 0.000000
-8.392800 0.000000
-8.372100 0.000000
-8.351400 0.000000
-8.330700 0.000000
-8.310100 0.000000
-8.289400 0.000000
-8.268700 0.000000
-8.248000 0.000000
-8.227300 0.000000
-8.206700 0.000000
-8.186000 0.000000
-8.165300 0.000000
-8.144600 0.000000
-8.123900 0.000000
-8.103300 0.000000
-8.082600 0.000000
-8.061900 0.000000
-8.041200 0.000000
-8.020500 0.000000
-7.999900 0.000000
-7.979200 0.000000
-7.958500 0.000000
-7.937800 0.000000
-7.917200 0.000000
-7.896500 0.000000
-7.875800 0.000000
-7.855100 0.000000
-7.834400 0.000000
-7.813800 0.000000
-7.793100 0.000000
-7.772400 0.000000
-7.751700 0.000000
-7.731000 0.000000
-7.710400 0.000000
-7.689700 0.000000
-7.669000 0.000000
-7.648300 0.000000
-7.627600 0.000000
-7.607000 0.000000
-7.586300 0.000000
-7.565600 0.000000
-7.544900 0.000000
-7.524200 0.000000
-7.503600 0.000000
-7.482900 0.000000
-7.462200 0.000000
-7.441500 0.000000
-7.420800 0.000000
-7.400200 0.000000
-7.379500 0.000000
-7.358800 0.000000
-7.338100 0.000000
-7.317400 0.000000
-7.296800 0.000000
-7.276100 0.000000
-7.255400 0.000000
-7.234700 0.000000
-7.214100 0.000000
-7.193400 0.000000
-7.172700 0.000000
-7.152000 0.000000
-7.131300 0.000000
-7.110700 0.000000
-7.090000 0.000000
-7.069300 0.000000
-7.048600 0.000000
-7.027900 0.000000
-7.007300 0.000000
-6.986600 0.000000
-6.965900 0.000000
-6.945200 0.000000
-6.924500 0.000000
-6.903900 0.000000
-6.883200 0.000000
-6.862500 0.000000
-6.841800 0.000000
-6.821100 0.000000
-6.800500 0.000000
-6.779800 0.000000
-6.759100 0.000000
-6.738400 0.000000
-6.717700 0.000000
-6.697100 0.000000
-6.676400 0.000000
-6.655700 0.000000
-6.635000 0.000000
-6.614300 0.000000
-6.593700 0.000000
-6.573000 0.000000
-6.552300 0.000000
-6.531600 0.000000
-6.510900 0.000000
-6.490300 0.000000
-6.469600 0.000000
-6.448900 0.000000
-6.428200 0.000000
-6.407600 0.000000
-6.386900 0.000000
-6.366200 0.000000
-6.345500 0.000000
-6.324800 0.000000
-6.304200 0.000000
-6.283500 0.000000
-6.262800 0.000000
-6.242100 0.000000
-6.221400 0.000000
-6.200800 0.000000
-6.180100 0.000000
-6.159400 0.000000
-6.138700 0.000000
-6.118000 0.000000
-6.097400 0.000000
-6.076700 0.000000
-6.056000 0.000000
-6.035300 0.000000
-6.014600 0.000000
-5.994000 0.000000
-5.973300 0.000000
-5.952600 0.000000
-5.931900 0.000000
-5.911200 0.000000
-5.890600 0.000000
-5.869900 0.000000
-5.849200 0.000000
-5.828500 0.000000
-5.807800 0.000000
-5.787200 0.000000
-5.766500 0.000000
-5.745800 0.000000
-5.725100 0.000000
-5.704500 0.000000
-5.683800 0.000000
-5.663100 0.000000
-5.642400 0.000000
-5.621700 0.000000
-5.601100 0.000000
-5.580400 0.000000
-5.559700 0.000000
-5.539000 0.000000
-5.518300 0.000000
-5.497700 0.000000
-5.477000 0.000000
-5.456300 0.000000
-5.435600 0.000000
-5.414900 0.000000
-5.394300 0.000000
-5.373600 0.000000
-5.352900 0.000000
-5.332200 0.000000
-5.311500 0.000000
-5.290900 0.000000
-5.270200 0.000000
-5.249500 0.000000
-5.228800 0.000000
-5.208100 0.000000
-5.187500 0.000000
-5.166800 0.000000
-5.146100 0.000000
-5.125400 0.000000
-5.104700 0.000000
-5.084100 0.000000
-5.063400 0.000000
-5.042700 0.000000
-5.022000 0.000000
-5.001400 0.000000
-4.980700 0.000000
-4.960000 0.000000
-4.939300 0.000000
-4.918600 0.000000
-4.898000 0.000000
-4.877300 0.000000
-4.856600 0.000000
-4.835900 0.000000
-4.815200 0.000000
-4.794600 0.000000
-4.773900 0.000000
-4.753200 0.000000
-4.732500 0.000000
-4.711800 0.000000
-4.691200 0.000000
-4.670500 0.000000
-4.649800 0.000000
-4.629100 0.000000
-4.608400 0.000000
-4.587800 0.000000
-4.567100 0.000000
-4.546400 0.000000
-4.525700 0.000000
-4.505000 0.000000
-4.484400 0.000000
-4.463700 0.000000
-4.443000 0.000000
-4.422300 0.000000
-4.401600 0.000000
-4.381000 0.000000
-4.360300 0.000000
-4.339600 0.000000
-4.318900 0.000000
-4.298300 0.000000
-4.277600 0.000000
-4.256900 0.000000
-4.236200 0.000000
-4.215500 0.000000
-4.194900 0.000000
-4.174200 0.000000
-4.153500 0.000000
-4.132800 0.000000
-4.112100 0.000000
-4.091500 0.000000
-4.070800 0.000000
-4.050100 0.000000
-4.029400 0.000000
-4.008700 0.000000
-3.988100 0.000000
-3.967400 0.000000
-3.946700 0.000000
-3.926000 0.000000
-3.905300 0.000000
-3.884700 0.000000
-3.864000 0.000000
-3.843300 0.000000
-3.822600 0.000000
-3.801900 0.000000
-3.781300 0.000000
-3.760600 0.000000
-3.739900 0.000000
-3.719200 0.000000
-3.698500 0.000000
-3.677900 0.000000
-3.657200 0.000000
-3.636500 0.000000
-3.615800 0.000000
-3.595100 0.000000
-3.574500 0.000000
-3.553800 0.000000
-3.533100 0.000000
-3.512400 0.000000
-3.491800 0.000000
-3.471100 0.000000
-3.450400 0.000000
-3.429700 0.000000
-3.409000 0.000000
-3.388400 0.000000
-3.367700 0.000000
-3.347000 0.000000
-3.326300 0.000000
-3.305600 0.000000
-3.285000 0.000000
-3.264300 0.000000
-3.243600 0.000000
-3.222900 0.000000
-3.202200 0.000000
-3.181600 0.000000
-3.160900 0.000000
-3.140200 0.000000
-3.119500 0.000000
-3.098800 0.000000
-3.078200 0.000000
-3.057500 0.000000
-3.036800 0.000000
-3.016100 0.000000
-2.995400 0.000000
-2.974800 0.000000
-2.954100 0.000000
-2.933400 0.000000
-2.912700 0.000000
-2.892000 0.000000
-2.871400 0.000000
-2.850700 0.000000
-2.830000 0.000000
-2.809300 0.000000
-2.788700 0.000000
-2.768000 0.000000
-2.747300 0.000000
-2.726600 0.000000
-2.705900 0.000000
-2.685300 0.000000
-2.664600 0.000000
-2.643900 0.000000
-2.623200 0.000000
-2.602500 0.000000
-2.581900 0.000000
-2.561200 0.000000
-2.540500 0.000000
-2.519800 0.000000
-2.499100 0.000000
-2.478500 0.000000
-2.457800 0.000000
-2.437100 0.000000
-2.416400 0.000000
-2.395700 0.000000
-2.375100 0.000000
-2.354400 0.205500
-2.333700 0.618500
-2.313000 0.866100
-2.292300 1.246800
-2.271700 1.421900
-2.251000 1.576400
-2.230300 1.698200
-2.209600 1.629700
-2.188900 1.738800
-2.168300 1.858200
-2.147600 1.957200
-2.126900 2.044300
-2.106200 2.010900
-2.085600 2.042700
-2.064900 2.154300
-2.044200 2.299300
-2.023500 2.428800
-2.002800 2.797200
-1.982200 2.942600
-1.961500 2.888700
-1.940800 2.819900
-1.920100 2.741800
-1.899400 2.691000
-1.878800 2.651500
-1.858100 2.624800
-1.837400 2.608500
-1.816700 2.585900
-1.796000 2.538200
-1.775400 2.508600
-1.754700 2.479900
-1.734000 2.443600
-1.713300 2.414800
-1.692600 2.385100
-1.672000 2.356100
-1.651300 2.329100
-1.630600 2.290900
-1.609900 2.266300
-1.589200 2.244800
-1.568600 2.224900
-1.547900 2.211900
-1.527200 2.199700
-1.506500 2.181700
-1.485800 2.157900
-1.465200 2.130300
-1.444500 2.112300
-1.423800 2.120900
-1.403100 2.113600
-1.382500 2.095300
-1.361800 2.058400
-1.341100 2.046400
-1.320400 2.017800
-1.299700 1.981400
-1.279100 1.934300
-1.258400 2.184900
-1.237700 1.860200
-1.217000 1.684100
-1.196300 1.613200
-1.175700 1.559200
-1.155000 1.367800
-1.134300 1.161300
-1.113600 1.089000
-1.092900 1.037000
-1.072300 0.994800
-1.051600 0.947600
-1.030900 0.939100
-1.010200 0.747700
-0.989500 0.760000
-0.968900 0.772200
-0.948200 0.860300
-0.927500 0.924300
-0.906800 0.949400
-0.886100 0.974600
-0.865500 1.000000
-0.844800 1.025600
-0.824100 0.898400
-0.803400 0.889100
-0.782700 0.879900
-0.762100 0.870800
-0.741400 0.862500
-0.720700 0.858500
-0.700000 0.853200
-0.679300 0.847000
-0.658700 0.840700
-0.638000 0.834500
-0.617300 0.828100
-0.596600 0.821700
-0.576000 0.815900
-0.555300 0.810300
-0.534600 0.804600
-0.513900 0.799100
-0.493200 0.794600
-0.472600 0.793800
-0.451900 0.794400
-0.431200 0.794100
-0.410500 0.793600
-0.389800 0.794500
-0.369200 0.798900
-0.348500 0.802800
-0.327800 0.805600
-0.307100 0.807800
-0.286400 0.810500
-0.265800 0.823100
-0.245100 0.834700
-0.224400 0.847000
-0.203700 0.858100
-0.183000 0.877800
-0.162400 0.893100
-0.141700 0.909300
-0.121000 0.941600
-0.100300 0.970300
-0.079600 0.998800
-0.059000 1.057300
-0.038300 1.114000
-0.017600 1.158000
0.003100 1.290800
0.023800 1.371100
0.044400 1.423400
0.065100 1.245200
0.085800 1.274100
0.106500 1.290800
0.127100 1.331200
0.147800 1.353700
0.168500 1.375000
0.189200 1.386600
0.209900 1.406500
0.230500 1.435200
0.251200 1.463600
0.271900 1.532100
0.292600 1.573700
0.313300 1.615700
0.333900 1.695300
0.354600 1.813200
0.375300 2.274900
0.396000 1.796700
0.416700 2.330600
0.437300 2.177500
0.458000 2.316200
0.478700 2.361500
0.499400 2.734300
0.520100 2.948900
0.540700 2.945000
0.561400 3.272500
0.582100 3.097000
0.602800 3.109200
0.623500 3.096500
0.644100 3.090000
0.664800 3.279500
0.685500 3.245700
0.706200 3.287800
0.726900 3.312200
0.747500 3.465200
0.768200 3.119400
0.788900 2.883900
0.809600 2.706400
0.830200 2.499700
0.850900 2.412700
0.871600 2.268300
0.892300 2.173700
0.913000 2.100300
0.933600 2.043100
0.954300 2.021400
0.975000 2.016300
0.995700 2.472500
1.016400 2.672300
1.037000 2.690400
1.057700 2.649100
1.078400 2.685500
1.099100 2.742300
1.119800 2.796500
1.140400 2.849800
1.161100 3.041600
1.181800 3.057200
1.202500 2.974200
1.223200 2.973900
1.243800 2.970900
1.264500 2.915600
1.285200 2.831000
1.305900 2.822200
1.326600 2.826000
1.347200 2.923400
1.367900 2.931800
1.388600 2.895700
1.409300 3.026800
1.430000 3.075900
1.450600 3.073800
1.471300 3.026600
1.492000 3.181300
1.512700 2.750100
1.533300 2.531400
1.554000 2.404800
1.574700 2.263700
1.595400 2.162400
1.616100 2.079500
1.636700 2.099200
1.657400 2.006900
1.678100 1.870700
1.698800 1.931700
1.719500 2.111900
1.740100 2.055600
1.760800 1.982200
1.781500 1.906100
1.802200 1.858600
1.822900 1.819500
1.843500 1.801200
1.864200 1.785800
1.884900 1.750800
1.905600 1.526600
1.926300 1.427200
1.946900 1.387500
1.967600 1.366000
1.988300 2.053400
2.009000 1.693000
2.029700 1.823100
2.050300 1.926200
2.071000 2.013300
2.091700 2.075900
2.112400 2.061400
2.133100 2.128000
2.153700 2.209100
2.174400 2.260900
2.195100 2.300600
2.215800 2.251600
2.236500 2.142700
2.257100 2.091400
2.277800 2.031500
2.298500 1.996700
2.319200 1.987000
2.339800 1.983300
2.360500 1.989400
2.381200 1.995500
2.401900 2.011800
2.422600 2.012100
2.443200 2.008900
2.463900 2.017500
2.484600 2.251200
2.505300 2.288100
2.526000 2.410000
2.546600 2.584300
2.567300 2.549500
2.588000 2.568700
2.608700 2.608300
2.629400 2.601500
2.650000 2.603700
2.670700 2.584900
2.691400 2.556100
2.712100 2.514600
2.732800 2.486800
2.753400 2.466900
2.774100 2.473500
2.794800 2.479300
2.815500 2.460100
2.836200 2.435600
2.856800 2.414400
2.877500 2.403900
2.898200 2.415000
2.918900 2.458800
2.939600 2.391400
2.960200 2.310400
2.980900 2.358600
3.001600 2.123600
3.022300 2.053300
3.042900 1.854900
3.063600 2.034200
3.084300 2.034300
3.105000 2.076400
3.125700 2.126700
3.146300 2.189100
3.167000 2.241000
3.187700 2.317200
3.208400 2.389800
3.229100 2.456100
3.249700 2.517600
3.270400 2.583000
3.291100 2.702300
3.311800 2.890200
3.332500 2.865500
3.353100 3.636500
3.373800 3.140700
3.394500 2.956000
3.415200 2.938900
3.435900 2.954900
3.456500 3.309100
3.477200 2.912400
3.497900 2.855400
3.518600 2.808100
3.539300 2.858500
3.559900 2.899200
3.580600 2.841700
3.601300 2.789600
3.622000 2.757600
3.642700 2.744700
3.663300 2.873000
3.684000 2.937500
3.704700 2.831600
3.725400 2.807200
3.746000 2.802400
3.766700 2.968500
3.787400 2.972300
3.808100 2.933800
3.828800 2.905400
3.849400 2.901300
3.870100 2.710800
3.890800 3.051700
3.911500 3.511600
3.932200 3.182900
3.952800 2.540600
3.973500 2.343800
3.994200 2.386800
4.014900 2.451100
4.035600 2.479200
4.056200 2.447300
4.076900 2.446400
4.097600 2.557900
4.118300 2.454700
4.139000 2.248800
4.159600 2.141200
4.180300 2.120900
4.201000 2.089200
4.221700 2.044900
4.242400 2.182200
4.263000 2.225100
4.283700 2.242800
4.304400 2.185000
4.325100 2.219900
4.345800 2.373700
4.366400 2.748700
4.387100 2.407100
4.407800 2.328100
4.428500 2.336800
4.449100 2.265000
4.469800 2.221500
4.490500 2.174900
4.511200 2.029500
4.531900 2.006000
4.552500 1.965200
4.573200 1.927000
4.593900 1.955300
4.614600 1.929500
4.635300 1.857200
4.655900 1.943300
4.676600 1.972000
4.697300 1.967400
4.718000 1.825500
4.738700 1.798800
4.759300 1.760700
4.780000 1.759100
4.800700 1.712500
4.821400 1.628800
4.842100 1.360000
4.862700 1.309300
4.883400 1.261100
4.904100 1.215600
4.924800 1.172600
4.945500 1.132300
4.966100 1.095600
4.986800 1.063800
5.007500 1.037800
5.028200 1.016000
5.048900 0.995500
5.069500 0.976700
5.090200 0.951600
5.110900 0.916400
5.131600 0.903000
5.152300 0.879400
5.172900 0.868600
5.193600 0.850000
5.214300 0.823500
5.235000 0.798100
5.255600 0.774100
5.276300 0.751400
5.297000 0.730000
5.317700 0.710300
5.338400 0.693300
5.359000 0.679800
5.379700 0.668100
5.400400 0.656500
5.421100 0.645400
5.441800 0.635900
5.462400 0.627300
5.483100 0.619000
5.503800 0.607600
5.524500 0.596700
5.545200 0.585900
5.565800 0.572500
5.586500 0.564700
5.607200 0.556900
5.627900 0.549600
5.648600 0.542700
5.669200 0.524500
5.689900 0.507500
5.710600 0.491600
5.731300 0.478300
5.752000 0.469200
5.772600 0.461200
5.793300 0.453800
5.814000 0.452800
5.834700 0.465200
5.855400 0.459400
5.876000 0.443100
5.896700 0.428800
5.917400 0.421100
5.938100 0.415500
5.958700 0.412900
5.979400 0.408800
6.000100 0.408400
6.020800 0.386000
6.041500 0.365800
6.062100 0.352500
6.082800 0.360900
6.103500 0.411200
6.124200 0.383600
6.144900 0.355200
6.165500 0.345400
6.186200 0.353200
6.206900 0.285200
6.227600 0.573200
6.248300 0.000000
6.268900 0.000000
6.289600 0.000000
6.310300 0.000000
6.331000 0.000000
6.351700 0.000000
6.372300 0.000000
6.393000 0.000000
6.413700 0.000000
6.434400 0.000000
6.455100 0.000000
6.475700 0.000000
6.496400 0.000000
6.517100 0.000000
6.537800 0.000000
6.558500 0.000000
6.579100 0.000000
6.599800 0.000000
6.620500 0.000000
6.641200 0.000000
6.661800 0.000000
6.682500 0.000000
6.703200 0.000000
6.723900 0.019200
6.744600 0.023500
6.765200 0.028200
6.785900 0.050300
6.806600 0.058600
6.827300 0.067300
6.848000 0.076600
6.868600 0.086300
6.889300 0.096500
6.910000 0.103700
6.930700 0.114600
6.951400 0.124100
6.972000 0.130800
6.992700 0.136700
7.013400 0.141900
7.034100 0.146700
7.054800 0.153800
7.075400 0.161100
7.096100 0.164800
7.116800 0.170900
7.137500 0.177400
7.158200 0.184400
7.178800 0.191800
7.199500 0.199700
7.220200 0.209200
7.240900 0.218400
7.261600 0.226700
7.282200 0.235000
7.302900 0.243300
7.323600 0.251600
7.344300 0.263100
7.364900 0.266200
7.385600 0.272400
7.406300 0.278800
7.427000 0.286000
7.447700 0.293500
7.468300 0.302100
7.489000 0.311200
7.509700 0.319700
7.530400 0.328600
7.551100 0.336900
7.571700 0.345700
7.592400 0.354800
7.613100 0.364100
7.633800 0.373600
7.654500 0.383200
7.675100 0.393000
7.695800 0.403000
7.716500 0.412700
7.737200 0.423500
7.757900 0.434600
7.778500 0.446000
7.799200 0.458500
7.819900 0.605600
7.840600 0.722800
7.861300 0.839900
7.881900 0.972300
7.902600 1.193600
7.923300 1.151900
7.944000 1.205300
7.964700 1.370200
7.985300 1.427300
8.006000 1.462000
8.026700 1.477100
8.047400 1.523700
8.068100 1.578300
8.088700 1.637400
8.109400 1.696200
8.130100 1.760100
8.150800 1.845700
8.171400 1.999500
8.192100 2.156200
8.212800 2.211700
8.233500 2.163600
8.254200 2.172800
8.274800 2.231400
8.295500 2.208200
8.316200 2.252700
8.336900 2.315800
8.357600 2.406600
8.378200 2.571000
8.398900 2.535500
8.419600 2.463400
8.440300 2.330100
8.461000 2.258500
8.481600 2.224400
8.502300 2.200900
8.523000 2.241200
8.543700 2.268300
8.564400 2.418000
8.585000 2.436800
8.605700 2.477200
8.626400 2.510200
8.647100 2.513200
8.667800 2.528500
8.688400 2.380300
8.709100 2.408100
8.729800 2.395900
8.750500 2.362600
8.771200 2.431700
8.791800 2.287100
8.812500 2.238200
8.833200 2.184800
8.853900 2.063600
8.874500 2.058800
8.895200 2.073300
8.915900 2.154800
8.936600 2.384200
8.957300 2.539900
8.977900 2.643300
8.998600 2.666200
9.019300 2.659300
9.040000 2.527400
9.060700 2.400400
9.081300 2.356900
9.102000 2.255200
9.122700 2.206200
9.143400 2.154800
9.164100 2.102300
9.184700 2.131800
9.205400 1.947000
9.226100 1.909000
9.246800 1.900600
9.267500 1.920800
9.288100 1.982100
9.308800 2.088700
9.329500 2.296900
9.350200 2.483600
9.370900 2.563900
9.391500 2.651500
9.412200 2.685400
9.432900 2.665600
9.453600 2.608900
9.474300 2.508100
9.494900 2.315100
9.515600 2.204200
9.536300 2.024200
9.557000 1.917600
9.577600 1.941400
9.598300 1.631700
9.619000 1.540300
9.639700 1.443200
9.660400 1.391900
9.681000 1.191400
9.701700 1.115000
9.722400 1.146800
9.743100 1.180100
9.763800 1.204200
9.784400 1.271800
9.805100 1.544200
9.825800 1.350300
9.846500 1.371300
9.867200 1.380100
9.887800 1.372000
9.908500 1.343100
9.929200 1.344600
9.949900 1.265900
9.970600 1.245800
9.991200 1.234100
10.011900 1.227900
10.032600 1.205400
10.053300 1.194000
10.074000 1.197500
10.094600 1.281300
10.115300 1.305200
10.136000 1.349400
10.156700 1.356300
10.177400 1.349900
10.198000 1.312100
10.218700 1.310400
10.239400 1.308700
10.260100 1.324400
10.280700 1.337700
10.301400 1.341600
10.322100 1.346100
10.342800 1.357100
10.363500 1.359600
10.384100 1.328000
10.404800 1.338600
10.425500 1.349700
10.446200 1.362900
10.466900 1.378400
10.487500 1.398300
10.508200 1.415200
10.528900 1.442300
10.549600 1.476400
10.570300 1.485500
10.590900 1.493100
10.611600 1.545000
10.632300 1.606300
10.653000 1.643100
10.673700 1.679100
10.694300 1.732000
10.715000 1.762800
10.735700 1.791500
10.756400 1.907500
10.777100 1.999600
10.797700 2.146700
10.818400 2.160700
10.839100 2.240300
10.859800 2.113700
10.880500 2.000400
10.901100 1.782400
10.921800 1.758000
10.942500 1.766600
10.963200 1.810700
10.983900 1.869500
11.004500 2.047700
11.025200 2.174800
11.045900 2.279100
11.066600 2.369700
11.087200 2.393900
11.107900 2.481400
11.128600 2.263000
11.149300 2.309600
11.170000 2.424100
11.190600 2.453900
11.211300 2.466000
11.232000 2.452100
11.252700 2.347900
11.273400 2.321100
11.294000 2.393400
11.314700 2.488300
11.335400 2.414000
11.356100 2.365800
11.376800 2.268900
11.397400 2.233500
11.418100 2.196400
11.438800 2.301800
11.459500 2.114300
11.480200 2.006700
11.500800 1.953000
11.521500 1.950600
11.542200 1.953600
11.562900 1.960700
11.583600 1.974000
11.604200 2.008400
11.624900 2.032400
11.645600 2.080800
11.666300 2.134100
11.687000 2.174900
11.707600 2.174500
11.728300 2.162400
11.749000 2.167600
11.769700 2.139700
11.790300 2.061500
11.811000 1.983900
11.831700 1.972300
11.852400 1.957900
11.873100 1.948200
11.893700 2.040400
11.914400 2.193300
11.935100 2.319200
11.955800 2.270200
11.976500 3.616500
11.997100 2.129200
12.017800 2.171900
12.038500 2.206600
12.059200 2.243300
12.079900 2.285700
12.100500 2.478300
12.121200 3.175400
12.141900 3.047500
12.162600 2.915900
12.183300 3.259100
12.203900 3.365500
12.224600 3.574900
12.245300 3.705500
12.266000 4.186100
12.286700 3.783900
12.307300 3.813600
12.328000 3.782700
12.348700 3.763600
12.369400 3.653600
12.390100 3.611600
12.410700 3.624800
12.431400 3.545400
12.452100 3.410300
12.472800 3.277500
12.493400 3.178100
12.514100 3.151100
12.534800 3.032700
12.555500 2.770700
12.576200 2.549900
12.596800 2.485200
12.617500 2.465300
12.638200 2.433300
12.658900 2.393100
12.679600 2.447500
12.700200 2.559300
12.720900 2.843900
12.741600 3.055300
12.762300 3.104300
12.783000 3.251100
12.803600 3.417200
12.824300 3.588700
12.845000 3.463700
12.865700 3.259800
12.886400 3.054900
12.907000 2.948700
12.927700 2.797000
12.948400 2.623600
12.969100 2.573700
12.989800 2.535500
13.010400 2.502500
13.031100 2.352200
13.051800 2.433900
13.072500 2.118000
13.093200 1.917700
13.113800 1.805500
13.134500 1.605000
13.155200 1.485400
13.175900 1.392400
13.196500 1.288300
13.217200 1.194900
13.237900 1.173500
13.258600 0.964300
13.279300 0.870200
13.299900 0.754500
13.320600 0.710200
13.341300 0.630400
13.362000 0.591600
13.382700 0.612200
13.403300 0.632000
13.424000 0.652700
13.444700 0.792900
13.465400 0.722500
13.486100 0.751200
13.506700 0.770600
13.527400 0.785900
13.548100 0.799500
13.568800 0.812600
13.589500 0.917400
13.610100 0.927700
13.630800 0.868600
13.651500 0.868400
13.672200 0.875500
13.692900 0.891200
13.713500 0.888100
13.734200 0.937400
13.754900 0.960400
13.775600 1.020600
13.796300 1.057900
13.816900 1.096900
13.837600 1.153100
13.858300 1.180400
13.879000 1.207900
13.899700 1.250600
13.920300 1.240300
13.941000 1.173300
13.961700 1.189100
13.982400 1.208400
14.003000 1.237900
14.023700 1.256000
14.044400 1.274800
14.065100 1.290900
14.085800 1.301100
14.106400 1.313400
14.127100 1.322400
14.147800 1.335200
14.168500 1.353400
14.189200 1.372100
14.209800 1.390300
14.230500 1.412300
14.251200 1.428400
14.271900 1.455000
14.292600 1.480400
14.313200 1.505400
14.333900 1.537400
14.354600 1.568200
14.375300 1.608800
14.396000 1.714100
14.416600 1.800300
14.437300 1.870900
14.458000 1.907800
14.478700 1.946500
14.499400 1.983900
14.520000 2.009200
14.540700 2.026700
14.561400 2.026900
14.582100 2.000300
14.602800 1.979700
14.623400 1.976000
14.644100 2.091800
14.664800 1.954800
14.685500 1.886700
14.706100 1.812000
14.726800 1.745200
14.747500 1.687900
14.768200 1.640400
14.788900 1.597500
14.809500 1.556800
14.830200 1.515400
14.850900 1.492800
14.871600 1.483100
14.892300 1.469400
14.912900 1.457900
14.933600 1.441600
14.954300 1.429800
14.975000 1.418100
14.995700 1.408400
15.016300 1.402000
15.037000 1.395500
15.057700 1.391200
15.078400 1.388200
15.099100 1.386600
15.119700 1.382500
15.140400 1.392100
15.161100 1.389200
15.181800 1.387000
15.202500 1.404800
15.223100 1.400200
15.243800 1.397000
15.264500 1.394900
15.285200 4.748600
15.305900 1.355200
15.326500 1.315300
15.347200 1.311900
15.367900 1.310400
15.388600 1.311000
15.409200 1.310600
15.429900 1.311100
15.450600 1.313600
15.471300 1.319200
15.492000 1.320100
15.512600 1.327200
15.533300 1.379800
15.554000 1.400000
15.574700 1.435400
15.595400 1.465000
15.616000 1.636300
15.636700 1.706300
15.657400 1.715800
15.678100 1.628500
15.698800 1.643800
15.719400 1.659000
15.740100 1.683200
15.760800 1.818300
15.781500 1.640700
15.802200 1.552900
15.822800 1.388700
15.843500 1.577900
15.864200 1.452600
15.884900 1.421500
15.905600 1.344800
15.926200 1.333500
15.946900 1.315000
15.967600 1.293500
15.988300 1.268400
16.009000 1.221100
16.029600 1.388400
16.050300 1.296500
16.071000 1.301500
16.091700 1.301800
16.112300 1.262400
16.133000 1.138000
16.153700 1.050900
16.174400 0.984800
16.195100 0.941300
16.215700 0.892600
16.236400 0.833900
16.257100 0.793000
16.277800 0.721600
16.298500 0.672200
16.319100 0.661500
16.339800 0.491300
16.360500 0.489200
16.381200 0.494600
16.401900 0.595300
16.422500 0.519900
16.443200 0.526100
16.463900 0.495600
16.484600 0.448100
16.505300 0.415900
16.525900 0.420600
16.546600 0.420200
16.567300 0.425600
16.588000 0.454500
16.608700 0.469500
16.629300 0.474900
16.650000 0.472800
16.670700 0.502500
16.691400 0.516500
16.712100 0.524600
16.732700 0.528000
16.753400 0.527000
16.774100 0.530200
16.794800 0.514900
16.815500 0.522900
16.836100 0.554500
16.856800 0.578200
16.877500 0.604000
16.898200 0.631000
16.918800 0.659000
16.939500 0.688800
16.960200 0.765400
16.980900 0.819600
17.001600 0.864600
17.022200 0.908400
17.042900 0.950600
17.063600 0.996400
17.084300 1.039500
17.105000 1.086300
17.125600 1.135500
17.146300 1.175700
17.167000 1.231200
17.187700 1.610400
17.208400 1.483000
17.229000 1.539300
17.249700 1.617100
17.270400 1.701600
17.291100 1.798600
17.311800 1.956100
17.332400 2.130000
17.353100 2.330200
17.373800 2.627400
17.394500 2.857200
17.415200 2.720800
17.435800 2.627900
17.456500 2.517600
17.477200 2.389800
17.497900 2.328900
17.518600 2.291100
17.539200 2.433400
17.559900 2.548900
17.580600 3.058900
17.601300 2.719800
17.621900 2.527200
17.642600 2.441400
17.663300 2.324300
17.684000 2.250600
17.704700 2.244900
17.725300 2.045000
17.746000 1.976500
17.766700 1.894400
17.787400 1.829300
17.808100 1.802400
17.828700 1.734500
17.849400 1.632000
17.870100 1.607100
17.890800 1.706800
17.911500 1.486800
17.932100 1.424800
17.952800 1.338100
17.973500 1.355500
17.994200 1.427600
18.014900 1.511700
18.035500 1.557300
18.056200 1.630800
18.076900 1.693500
18.097600 1.731900
18.118300 1.837800
18.138900 2.212800
18.159600 2.413200
18.180300 2.549200
18.201000 2.533100
18.221700 2.747300
18.242300 2.840600
18.263000 2.900600
18.283700 2.942400
18.304400 3.010700
18.325000 3.105900
18.345700 3.212400
18.366400 3.291100
18.387100 3.321400
18.407800 3.315100
18.428400 3.359500
18.449100 3.360700
18.469800 3.367400
18.490500 3.482500
18.511200 3.642100
18.531800 3.857900
18.552500 4.164100
18.573200 4.186300
18.593900 4.052400
18.614600 4.056500
18.635200 4.097100
18.655900 4.024700
18.676600 3.696200
18.697300 3.643100
18.718000 3.606700
18.738600 3.471600
18.759300 3.312000
18.780000 3.225200
18.800700 3.162000
18.821400 3.152700
18.842000 3.314600
18.862700 3.225600
18.883400 3.125800
18.904100 3.028100
18.924800 2.924900
18.945400 2.885000
18.966100 2.830000
18.986800 2.508100
19.007500 2.286300
19.028100 2.216500
19.048800 2.233300
19.069500 2.225100
19.090200 2.255800
19.110900 2.288200
19.131500 2.327200
19.152200 2.391300
19.172900 2.428400
19.193600 2.467100
19.214300 2.388600
19.234900 2.400600
19.255600 2.416400
19.276300 2.417800
19.297000 2.330200
19.317700 2.305400
19.338300 2.310900
19.359000 2.366600
19.379700 2.270200
19.400400 2.205100
19.421100 2.103100
19.441700 1.973000
19.462400 1.850000
19.483100 1.802200
19.503800 1.774700
19.524500 1.726200
19.545100 1.687400
19.565800 1.675000
19.586500 1.743400
19.607200 1.748400
19.627900 1.684900
19.648500 1.634300
19.669200 1.595600
19.689900 1.563300
19.710600 1.520800
19.731300 1.465100
19.751900 1.424800
19.772600 1.386500
19.793300 1.335900
19.814000 1.295200
19.834600 1.262100
19.855300 1.256700
19.876000 1.246900
19.896700 1.241100
19.917400 1.219700
19.938000 1.274300
19.958700 1.280300
19.979400 1.293100
20.000100 1.342000
20.020800 1.266300
20.041400 1.217900
20.062100 1.146400
20.082800 1.052400
20.103500 1.035700
20.124200 1.019500
20.144800 1.008300
20.165500 0.987900
20.186200 0.966000
20.206900 0.945300
20.227600 0.965600
20.248200 0.948500
20.268900 0.869000
20.289600 0.831800
20.310300 0.803100
20.331000 0.777100
20.351600 0.750000
20.372300 0.721500
20.393000 0.680700
20.413700 0.653000
20.434400 0.631900
20.455000 0.614600
20.475700 0.602600
20.496400 0.593200
20.517100 0.586200
20.537700 0.581200
20.558400 0.577800
20.579100 0.571600
20.599800 0.562200
20.620500 0.551100
20.641100 0.541600
20.661800 0.538600
20.682500 0.524700
20.703200 0.508200
20.723900 0.492500
20.744500 0.474500
20.765200 0.458300
20.785900 0.430200
20.806600 0.417400
20.827300 0.405500
20.847900 0.396200
20.868600 0.385500
20.889300 0.375800
20.910000 0.367300
20.930700 0.366300
20.951300 0.356500
20.972000 0.347000
20.992700 0.337800
21.013400 0.329100
21.034100 0.320400
21.054700 0.311000
21.075400 0.302000
21.096100 0.294400
21.116800 0.270600
21.137500 0.266300
21.158100 0.265100
21.178800 0.260900
21.199500 0.256700
21.220200 0.252600
21.240800 0.248700
21.261500 0.244900
21.282200 0.240800
21.302900 0.237300
21.323600 0.234200
21.344200 0.232200
21.364900 0.228900
21.385600 0.226000
21.406300 0.227900
21.427000 0.229600
21.447600 0.225300
21.468300 0.221100
21.489000 0.217300
21.509700 0.213700
21.530400 0.210300
21.551000 0.207100
21.571700 0.208400
21.592400 0.222400
21.613100 0.215500
21.633800 0.211800
21.654400 0.208100
21.675100 0.210200
21.695800 0.205600
21.716500 0.201200
21.737200 0.197000
21.757800 0.192800
21.778500 0.205600
21.799200 0.232700
21.819900 0.218800
21.840600 0.231300
21.861200 0.212200
21.881900 0.161000
21.902600 0.141500
21.923300 0.121200
21.943900 0.102300
21.964600 0.083600
21.985300 0.065400
22.006000 0.077000
22.026700 0.055000
22.047300 0.000000
22.068000 0.000000
22.088700 0.000000
22.109400 0.000000
22.130100 0.000000
22.150700 0.000000
22.171400 0.000000
22.192100 0.000000
22.212800 0.000000
22.233500 0.000000
22.254100 0.000000
22.274800 0.000000
22.295500 0.000000
22.316200 0.000000
22.336900 0.000000
22.357500 0.000000
22.378200 0.000000
22.398900 0.000000
22.419600 0.000000
22.440300 0.000000
22.460900 0.000000
22.481600 0.000000
22.502300 0.000000
22.523000 0.000000
22.543700 0.000000
22.564300 0.000000
22.585000 0.000000
22.605700 0.000000
22.626400 0.000000
22.647100 0.000000
22.667700 0.000000
22.688400 0.000000
22.709100 0.000000
22.729800 0.000000
22.750400 0.000000
22.771100 0.000000
22.791800 0.000000
22.812500 0.000000
22.833200 0.000000
22.853800 0.000000
22.874500 0.000000
22.895200 0.000000
22.915900 0.000000
22.936600 0.000000
22.957200 0.000000
22.977900 0.000000
22.998600 0.000000
23.019300 0.000000
23.040000 0.000000
23.060600 0.000000
23.081300 0.000000
23.102000 0.000000
23.122700 0.000000
23.143400 0.000000
23.164000 0.000000
23.184700 0.000000
23.205400 0.000000
23.226100 0.000000
23.246800 0.000000
23.267400 0.000000
23.288100 0.000000
23.308800 0.000000
23.329500 0.000000
23.350200 0.000000
23.370800 0.000000
23.391500 0.000000
23.412200 0.000000
23.432900 0.000000
23.453500 0.000000
23.474200 0.000000
23.494900 0.000000
23.515600 0.000000
23.536300 0.000000
23.556900 0.000000
23.577600 0.000000
23.598300 0.000000
23.619000 0.000000
23.639700 0.000000
23.660300 0.000000
23.681000 0.000000
23.701700 0.000000
23.722400 0.000000
23.743100 0.000000
23.763700 0.000000
23.784400 0.000000
23.805100 0.000000
23.825800 0.000000
23.846500 0.000000
23.867100 0.000000
23.887800 0.000000
23.908500 0.000000
e
