set title 'mp-2592 - Density of States'
set xlabel 'Energy (eV)'
set ylabel 'DOS (states/eV)'
set grid
set xrange [-10:10]
set yrange [0:6.786]
set xzeroaxis lt -1
set terminal png size 800,600
set output 'mp-2592_dos_gnuplot.png'
plot '-' using 1:2 with lines title 'DOS'
-27.044500 0.000000
-27.016700 0.000000
-26.989000 0.000000
-26.961300 0.000000
-26.933500 0.000000
-26.905800 0.000000
-26.878100 0.000000
-26.850300 0.000000
-26.822600 0.000000
-26.794900 0.000000
-26.767100 0.000000
-26.739400 0.000000
-26.711700 0.000000
-26.683900 0.000000
-26.656200 0.000000
-26.628500 0.000000
-26.600700 0.000000
-26.573000 0.000000
-26.545300 0.000000
-26.517500 0.000000
-26.489800 0.000000
-26.462100 0.000000
-26.434300 0.000000
-26.406600 0.000000
-26.378900 0.000000
-26.351100 0.000000
-26.323400 0.000000
-26.295700 0.000000
-26.267900 0.000000
-26.240200 0.000000
-26.212500 0.000000
-26.184700 0.000000
-26.157000 0.000000
-26.129300 0.000000
-26.101500 0.000000
-26.073800 0.000000
-26.046100 0.000000
-26.018300 0.000000
-25.990600 0.000000
-25.962900 0.000000
-25.935100 0.000000
-25.907400 0.000000
-25.879700 0.000000
-25.851900 0.000000
-25.824200 0.000000
-25.796500 0.000000
-25.768700 0.000000
-25.741000 0.000000
-25.713300 0.000000
-25.685500 0.000000
-25.657800 0.000000
-25.630100 0.000000
-25.602300 0.000000
-25.574600 0.000000
-25.546900 0.000000
-25.519100 0.000000
-25.491400 0.000000
-25.463700 0.000000
-25.435900 0.000000
-25.408200 0.000000
-25.380500 0.000000
-25.352700 0.000000
-25.325000 0.000000
-25.297300 0.000000
-25.269500 0.000000
-25.241800 0.000000
-25.214100 0.000000
-25.186300 0.000000
-25.158600 0.000000
-25.130900 0.000000
-25.103100 0.000000
-25.075400 0.000000
-25.047700 0.000000
-25.019900 0.000000
-24.992200 0.000000
-24.964500 0.000000
-24.936700 0.000000
-24.909000 0.000000
-24.881300 0.000000
-24.853500 0.000000
-24.825800 0.000000
-24.798100 0.000000
-24.770300 0.000000
-24.742600 0.000000
-24.714900 0.000000
-24.687100 0.000000
-24.659400 0.000000
-24.631700 0.000000
-24.603900 0.000000
-24.576200 0.000000
-24.548500 0.000000
-24.520700 11.973800
-24.493000 21.824400
-24.465300 19.391900
-24.437500 11.830400
-24.409800 10.820500
-24.382100 11.722300
-24.354300 34.392100
-24.326600 53.752900
-24.298900 18.781700
-24.271100 18.737300
-24.243400 0.000000
-24.215700 0.000000
-24.187900 0.000000
-24.160200 0.000000
-24.132500 0.000000
-24.104700 0.000000
-24.077000 0.000000
-24.049300 0.000000
-24.021600 0.000000
-23.993800 0.000000
-23.966100 0.000000
-23.938400 0.000000
-23.910600 0.000000
-23.882900 0.000000
-23.855200 0.000000
-23.827400 0.000000
-23.799700 0.000000
-23.772000 0.000000
-23.744200 0.000000
-23.716500 0.000000
-23.688800 0.000000
-23.661000 0.000000
-23.633300 0.000000
-23.605600 0.000000
-23.577800 0.000000
-23.550100 0.000000
-23.522400 0.000000
-23.494600 0.000000
-23.466900 0.000000
-23.439200 0.000000
-23.411400 0.000000
-23.383700 0.000000
-23.356000 0.000000
-23.328200 0.000000
-23.300500 0.000000
-23.272800 0.000000
-23.245000 0.000000
-23.217300 0.000000
-23.189600 0.000000
-23.161800 0.000000
-23.134100 0.000000
-23.106400 0.000000
-23.078600 0.000000
-23.050900 0.000000
-23.023200 0.000000
-22.995400 0.000000
-22.967700 0.000000
-22.940000 0.000000
-22.912200 0.000000
-22.884500 0.000000
-22.856800 0.000000
-22.829000 0.000000
-22.801300 0.000000
-22.773600 0.000000
-22.745800 0.000000
-22.718100 0.000000
-22.690400 0.000000
-22.662600 0.000000
-22.634900 0.000000
-22.607200 0.000000
-22.579400 0.000000
-22.551700 0.000000
-22.524000 0.000000
-22.496200 0.000000
-22.468500 0.000000
-22.440800 0.000000
-22.413000 0.000000
-22.385300 0.000000
-22.357600 0.000000
-22.329800 0.000000
-22.302100 0.000000
-22.274400 0.000000
-22.246600 0.000000
-22.218900 0.000000
-22.191200 0.000000
-22.163400 0.000000
-22.135700 0.000000
-22.108000 0.000000
-22.080200 0.000000
-22.052500 0.000000
-22.024800 0.000000
-21.997000 0.000000
-21.969300 0.000000
-21.941600 0.000000
-21.913800 0.000000
-21.886100 0.000000
-21.858400 0.000000
-21.830600 0.000000
-21.802900 0.000000
-21.775200 0.000000
-21.747400 0.000000
-21.719700 0.000000
-21.692000 0.000000
-21.664200 0.000000
-21.636500 0.000000
-21.608800 0.000000
-21.581000 0.000000
-21.553300 0.000000
-21.525600 0.000000
-21.497800 0.000000
-21.470100 0.000000
-21.442400 0.000000
-21.414600 0.000000
-21.386900 0.000000
-21.359200 0.000000
-21.331400 0.000000
-21.303700 0.000000
-21.276000 0.000000
-21.248200 0.000000
-21.220500 0.000000
-21.192800 0.000000
-21.165000 0.000000
-21.137300 0.000000
-21.109600 0.000000
-21.081800 0.000000
-21.054100 0.000000
-21.026400 0.000000
-20.998600 0.000000
-20.970900 0.000000
-20.943200 0.000000
-20.915400 0.000000
-20.887700 0.000000
-20.860000 0.000000
-20.832200 0.000000
-20.804500 0.000000
-20.776800 0.000000
-20.749000 0.000000
-20.721300 0.000000
-20.693600 0.000000
-20.665800 0.000000
-20.638100 0.000000
-20.610400 0.000000
-20.582600 0.000000
-20.554900 0.000000
-20.527200 0.000000
-20.499400 0.000000
-20.471700 0.000000
-20.444000 0.000000
-20.416200 0.000000
-20.388500 0.000000
-20.360800 0.000000
-20.333000 0.000000
-20.305300 0.000000
-20.277600 0.000000
-20.249900 0.000000
-20.222100 0.000000
-20.194400 0.000000
-20.166700 0.000000
-20.138900 0.000000
-20.111200 0.000000
-20.083500 0.000000
-20.055700 0.000000
-20.028000 0.000000
-20.000300 0.000000
-19.972500 0.000000
-19.944800 0.000000
-19.917100 0.000000
-19.889300 0.000000
-19.861600 0.000000
-19.833900 0.000000
-19.806100 0.000000
-19.778400 0.000000
-19.750700 0.000000
-19.722900 0.000000
-19.695200 0.000000
-19.667500 0.000000
-19.639700 0.000000
-19.612000 0.000000
-19.584300 0.000000
-19.556500 0.000000
-19.528800 0.000000
-19.501100 0.000000
-19.473300 0.000000
-19.445600 0.000000
-19.417900 0.000000
-19.390100 0.000000
-19.362400 0.000000
-19.334700 0.000000
-19.306900 0.000000
-19.279200 0.000000
-19.251500 0.000000
-19.223700 0.000000
-19.196000 0.000000
-19.168300 0.000000
-19.140500 0.000000
-19.112800 0.000000
-19.085100 0.000000
-19.057300 0.000000
-19.029600 0.000000
-19.001900 0.000000
-18.974100 0.000000
-18.946400 0.000000
-18.918700 0.000000
-18.890900 0.000000
-18.863200 0.000000
-18.835500 0.000000
-18.807700 0.000000
-18.780000 0.000000
-18.752300 0.000000
-18.724500 0.000000
-18.696800 0.000000
-18.669100 0.000000
-18.641300 0.000000
-18.613600 0.000000
-18.585900 0.000000
-18.558100 0.000000
-18.530400 0.000000
-18.502700 0.000000
-18.474900 0.000000
-18.447200 0.000000
-18.419500 0.000000
-18.391700 0.000000
-18.364000 0.000000
-18.336300 0.000000
-18.308500 0.000000
-18.280800 0.000000
-18.253100 0.000000
-18.225300 0.000000
-18.197600 0.000000
-18.169900 0.000000
-18.142100 0.000000
-18.114400 0.000000
-18.086700 0.000000
-18.058900 0.000000
-18.031200 0.000000
-18.003500 0.000000
-17.975700 0.000000
-17.948000 0.000000
-17.920300 0.000000
-17.892500 0.000000
-17.864800 0.000000
-17.837100 0.000000
-17.809300 0.000000
-17.781600 0.000000
-17.753900 0.000000
-17.726100 0.000000
-17.698400 0.000000
-17.670700 0.000000
-17.642900 0.000000
-17.615200 0.000000
-17.587500 0.000000
-17.559700 0.000000
-17.532000 0.000000
-17.504300 0.000000
-17.476500 0.000000
-17.448800 0.000000
-17.421100 0.000000
-17.393300 0.000000
-17.365600 0.000000
-17.337900 0.000000
-17.310100 0.000000
-17.282400 0.000000
-17.254700 0.000000
-17.226900 0.000000
-17.199200 0.000000
-17.171500 0.000000
-17.143700 0.000000
-17.116000 0.000000
-17.088300 0.000000
-17.060500 0.000000
-17.032800 0.000000
-17.005100 0.000000
-16.977300 0.000000
-16.949600 0.000000
-16.921900 0.000000
-16.894100 0.000000
-16.866400 0.000000
-16.838700 0.000000
-16.810900 0.000000
-16.783200 0.000000
-16.755500 0.000000
-16.727700 0.000000
-16.700000 0.000000
-16.672300 0.000000
-16.644500 0.000000
-16.616800 0.000000
-16.589100 0.000000
-16.561300 0.000000
-16.533600 0.000000
-16.505900 0.000000
-16.478100 0.000000
-16.450400 0.000000
-16.422700 0.000000
-16.395000 0.000000
-16.367200 0.000000
-16.339500 0.000000
-16.311800 0.000000
-16.284000 0.000000
-16.256300 0.000000
-16.228600 0.000000
-16.200800 0.000000
-16.173100 0.000000
-16.145400 0.000000
-16.117600 0.000000
-16.089900 0.000000
-16.062200 0.000000
-16.034400 0.000000
-16.006700 0.000000
-15.979000 0.000000
-15.951200 0.000000
-15.923500 0.000000
-15.895800 0.000000
-15.868000 0.000000
-15.840300 0.000000
-15.812600 0.000000
-15.784800 0.000000
-15.757100 0.000000
-15.729400 0.000000
-15.701600 0.000000
-15.673900 0.000000
-15.646200 0.000000
-15.618400 0.000000
-15.590700 0.000000
-15.563000 0.000000
-15.535200 0.000000
-15.507500 0.000000
-15.479800 0.000000
-15.452000 0.000000
-15.424300 0.000000
-15.396600 0.000000
-15.368800 0.000000
-15.341100 0.000000
-15.313400 0.000000
-15.285600 0.000000
-15.257900 0.000000
-15.230200 0.000000
-15.202400 0.000000
-15.174700 0.000000
-15.147000 0.000000
-15.119200 0.000000
-15.091500 0.000000
-15.063800 0.000000
-15.036000 0.000000
-15.008300 0.000000
-14.980600 0.000000
-14.952800 0.000000
-14.925100 0.000000
-14.897400 0.000000
-14.869600 0.000000
-14.841900 0.000000
-14.814200 0.000000
-14.786400 0.000000
-14.758700 0.000000
-14.731000 0.000000
-14.703200 0.000000
-14.675500 0.000000
-14.647800 0.000000
-14.620000 0.000000
-14.592300 0.000000
-14.564600 0.000000
-14.536800 0.000000
-14.509100 0.000000
-14.481400 0.000000
-14.453600 0.000000
-14.425900 0.000000
-14.398200 0.000000
-14.370400 0.000000
-14.342700 0.000000
-14.315000 0.000000
-14.287200 0.000000
-14.259500 0.000000
-14.231800 0.000000
-14.204000 0.000000
-14.176300 0.000000
-14.148600 0.000000
-14.120800 0.000000
-14.093100 0.000000
-14.065400 0.000000
-14.037600 0.000000
-14.009900 0.000000
-13.982200 0.000000
-13.954400 0.000000
-13.926700 0.000000
-13.899000 0.000000
-13.871200 0.000000
-13.843500 0.000000
-13.815800 0.000000
-13.788000 0.000000
-13.760300 0.000000
-13.732600 0.000000
-13.704800 0.000000
-13.677100 0.000000
-13.649400 0.000000
-13.621600 0.000000
-13.593900 0.000000
-13.566200 0.000000
-13.538400 0.000000
-13.510700 0.000000
-13.483000 0.000000
-13.455200 0.000000
-13.427500 0.000000
-13.399800 0.000000
-13.372000 0.000000
-13.344300 0.000000
-13.316600 0.000000
-13.288800 0.000000
-13.261100 0.000000
-13.233400 0.000000
-13.205600 0.000000
-13.177900 0.000000
-13.150200 0.000000
-13.122400 0.000000
-13.094700 0.000000
-13.067000 0.000000
-13.039200 0.000000
-13.011500 0.000000
-12.983800 0.000000
-12.956000 0.000000
-12.928300 0.000000
-12.900600 0.000000
-12.872800 0.000000
-12.845100 0.000000
-12.817400 0.000000
-12.789600 0.000000
-12.761900 0.000000
-12.734200 0.000000
-12.706400 0.000000
-12.678700 0.000000
-12.651000 0.000000
-12.623300 0.000000
-12.595500 0.000000
-12.567800 0.000000
-12.540100 0.000000
-12.512300 0.000000
-12.484600 0.000000
-12.456900 0.000000
-12.429100 0.000000
-12.401400 0.000000
-12.373700 0.000000
-12.345900 0.000000
-12.318200 0.000000
-12.290500 0.000000
-12.262700 0.000000
-12.235000 0.000000
-12.207300 0.000000
-12.179500 0.000000
-12.151800 0.000000
-12.124100 0.000000
-12.096300 0.000000
-12.068600 0.000000
-12.040900 0.000000
-12.013100 0.000000
-11.985400 0.000000
-11.957700 0.000000
-11.929900 0.000000
-11.902200 0.000000
-11.874500 0.000000
-11.846700 0.000000
-11.819000 0.000000
-11.791300 0.000000
-11.763500 0.000000
-11.735800 0.000000
-11.708100 0.000000
-11.680300 0.000000
-11.652600 0.000000
-11.624900 0.000000
-11.597100 0.000000
-11.569400 0.000000
-11.541700 0.000000
-11.513900 0.000000
-11.486200 0.000000
-11.458500 0.000000
-11.430700 0.000000
-11.403000 0.000000
-11.375300 0.000000
-11.347500 0.000000
-11.319800 0.000000
-11.292100 0.000000
-11.264300 0.000000
-11.236600 0.000000
-11.208900 0.000000
-11.181100 0.000000
-11.153400 0.000000
-11.125700 0.000000
-11.097900 0.000000
-11.070200 0.000000
-11.042500 0.000000
-11.014700 0.000000
-10.987000 0.000000
-10.959300 0.000000
-10.931500 0.000000
-10.903800 0.000000
-10.876100 0.000000
-10.848300 0.000000
-10.820600 0.000000
-10.792900 0.000000
-10.765100 0.000000
-10.737400 0.000000
-10.709700 0.000000
-10.681900 0.000000
-10.654200 0.000000
-10.626500 0.000000
-10.598700 0.000000
-10.571000 0.000000
-10.543300 0.000000
-10.515500 0.000000
-10.487800 0.000000
-10.460100 0.000000
-10.432300 0.000000
-10.404600 0.000000
-10.376900 0.000000
-10.349100 0.000000
-10.321400 0.000000
-10.293700 0.000000
-10.265900 0.000000
-10.238200 0.000000
-10.210500 0.000000
-10.182700 0.000000
-10.155000 0.000000
-10.127300 0.000000
-10.099500 0.000000
-10.071800 0.000000
-10.044100 0.000000
-10.016300 0.000000
-9.988600 0.000000
-9.960900 0.000000
-9.933100 0.000000
-9.905400 0.000000
-9.877700 0.000000
-9.849900 0.000000
-9.822200 0.000000
-9.794500 0.000000
-9.766700 0.000000
-9.739000 0.000000
-9.711300 0.000000
-9.683500 0.000000
-9.655800 0.000000
-9.628100 0.000000
-9.600300 0.000000
-9.572600 0.000000
-9.544900 0.000000
-9.517100 0.000000
-9.489400 0.000000
-9.461700 0.000000
-9.433900 0.000000
-9.406200 0.000000
-9.378500 0.000000
-9.350700 0.000000
-9.323000 0.000000
-9.295300 0.000000
-9.267500 0.000000
-9.239800 0.000000
-9.212100 0.000000
-9.184300 0.000000
-9.156600 0.000000
-9.128900 0.000000
-9.101100 0.000000
-9.073400 0.000000
-9.045700 0.000000
-9.017900 0.000000
-8.990200 0.000000
-8.962500 0.000000
-8.934700 0.000000
-8.907000 0.000000
-8.879300 0.000000
-8.851500 0.000000
-8.823800 0.000000
-8.796100 0.000000
-8.768400 0.000000
-8.740600 0.000000
-8.712900 0.000000
-8.685200 0.000000
-8.657400 0.000000
-8.629700 0.000000
-8.602000 0.000000
-8.574200 0.000000
-8.546500 0.000000
-8.518800 0.000000
-8.491000 0.000000
-8.463300 0.000000
-8.435600 0.000000
-8.407800 0.000000
-8.380100 0.000000
-8.352400 0.000000
-8.324600 0.000000
-8.296900 0.000000
-8.269200 0.000000
-8.241400 0.000000
-8.213700 0.000000
-8.186000 0.000000
-8.158200 0.000000
-8.130500 0.000000
-8.102800 0.000000
-8.075000 0.000000
-8.047300 0.000000
-8.019600 0.000000
-7.991800 0.000000
-7.964100 0.000000
-7.936400 0.000000
-7.908600 0.000000
-7.880900 0.000000
-7.853200 0.000000
-7.825400 0.000000
-7.797700 0.000000
-7.770000 0.000000
-7.742200 0.000000
-7.714500 0.000000
-7.686800 0.000000
-7.659000 0.000000
-7.631300 0.000000
-7.603600 0.000000
-7.575800 0.000000
-7.548100 0.000000
-7.520400 0.000000
-7.492600 0.000000
-7.464900 0.000000
-7.437200 0.000000
-7.409400 0.000000
-7.381700 0.000000
-7.354000 0.000000
-7.326200 0.000000
-7.298500 0.000000
-7.270800 0.000000
-7.243000 0.000000
-7.215300 0.000000
-7.187600 0.000000
-7.159800 0.000000
-7.132100 0.000000
-7.104400 0.000000
-7.076600 0.000000
-7.048900 0.000000
-7.021200 0.000000
-6.993400 0.000000
-6.965700 0.000000
-6.938000 0.000000
-6.910200 0.000000
-6.882500 0.000000
-6.854800 0.000000
-6.827000 0.000000
-6.799300 0.000000
-6.771600 0.000000
-6.743800 0.000000
-6.716100 0.000000
-6.688400 0.000000
-6.660600 0.000000
-6.632900 0.000000
-6.605200 0.000000
-6.577400 0.000000
-6.549700 0.000000
-6.522000 0.000000
-6.494200 0.000000
-6.466500 0.000000
-6.438800 0.000000
-6.411000 0.000000
-6.383300 0.000000
-6.355600 0.000000
-6.327800 0.000000
-6.300100 0.000000
-6.272400 0.000000
-6.244600 0.000000
-6.216900 0.000000
-6.189200 0.000000
-6.161400 0.000000
-6.133700 0.000000
-6.106000 0.000000
-6.078200 0.000000
-6.050500 0.000000
-6.022800 0.000000
-5.995000 0.000000
-5.967300 0.000000
-5.939600 0.000000
-5.911800 0.000000
-5.884100 0.000000
-5.856400 0.000000
-5.828600 0.000000
-5.800900 0.000000
-5.773200 0.000000
-5.745400 0.000000
-5.717700 0.000000
-5.690000 0.000000
-5.662200 0.000000
-5.634500 0.000000
-5.606800 0.000000
-5.579000 0.000000
-5.551300 0.000000
-5.523600 0.000000
-5.495800 0.000000
-5.468100 0.000000
-5.440400 0.000000
-5.412600 0.000000
-5.384900 0.000000
-5.357200 0.000000
-5.329400 0.000000
-5.301700 0.000000
-5.274000 0.000000
-5.246200 0.000000
-5.218500 0.000000
-5.190800 0.000000
-5.163000 0.000000
-5.135300 0.000000
-5.107600 0.000000
-5.079800 0.000000
-5.052100 0.000000
-5.024400 0.000000
-4.996700 0.000000
-4.968900 0.000000
-4.941200 0.000000
-4.913500 0.000000
-4.885700 0.000000
-4.858000 0.000000
-4.830300 0.000000
-4.802500 0.000000
-4.774800 0.000000
-4.747100 0.000000
-4.719300 0.000000
-4.691600 0.000000
-4.663900 0.000000
-4.636100 0.000000
-4.608400 0.000000
-4.580700 0.000000
-4.552900 0.000000
-4.525200 0.000000
-4.497500 0.000000
-4.469700 0.000000
-4.442000 0.000000
-4.414300 0.000000
-4.386500 0.000000
-4.358800 0.000000
-4.331100 0.000000
-4.303300 0.000000
-4.275600 0.000000
-4.247900 0.000000
-4.220100 0.000000
-4.192400 0.000000
-4.164700 0.000000
-4.136900 0.000000
-4.109200 0.000000
-4.081500 0.000000
-4.053700 0.000000
-4.026000 0.000000
-3.998300 0.000000
-3.970500 0.000000
-3.942800 0.000000
-3.915100 0.000000
-3.887300 0.000000
-3.859600 0.000000
-3.831900 0.000000
-3.804100 0.000000
-3.776400 0.000000
-3.748700 0.000000
-3.720900 0.000000
-3.693200 0.000000
-3.665500 0.000000
-3.637700 0.000000
-3.610000 0.000000
-3.582300 0.000000
-3.554500 0.000000
-3.526800 0.000000
-3.499100 0.000000
-3.471300 0.000000
-3.443600 0.000000
-3.415900 0.000000
-3.388100 0.000000
-3.360400 0.000000
-3.332700 0.000000
-3.304900 0.000000
-3.277200 0.000000
-3.249500 0.000000
-3.221700 0.000000
-3.194000 0.000000
-3.166300 0.000000
-3.138500 0.000000
-3.110800 0.000000
-3.083100 0.000000
-3.055300 0.000000
-3.027600 0.000000
-2.999900 0.000000
-2.972100 0.000000
-2.944400 0.000000
-2.916700 0.000000
-2.888900 0.000000
-2.861200 0.000000
-2.833500 0.000000
-2.805700 0.000000
-2.778000 0.000000
-2.750300 0.033800
-2.722500 0.051400
-2.694800 0.069700
-2.667100 0.082700
-2.639300 0.091700
-2.611600 0.097900
-2.583900 0.107600
-2.556100 0.118600
-2.528400 0.129000
-2.500700 0.135300
-2.472900 0.140600
-2.445200 0.145700
-2.417500 0.152000
-2.389700 0.159100
-2.362000 0.166500
-2.334300 0.174100
-2.306500 0.181700
-2.278800 0.186400
-2.251100 0.191100
-2.223300 0.195900
-2.195600 0.201000
-2.167900 0.206200
-2.140100 0.211700
-2.112400 0.217400
-2.084700 0.223300
-2.056900 0.229600
-2.029200 0.235900
-2.001500 0.241300
-1.973700 0.245600
-1.946000 0.249900
-1.918300 0.254500
-1.890500 0.259300
-1.862800 0.264000
-1.835100 0.269000
-1.807300 0.274200
-1.779600 0.279600
-1.751900 0.285200
-1.724100 0.290800
-1.696400 0.296000
-1.668700 0.301400
-1.640900 0.306600
-1.613200 0.311000
-1.585500 0.315600
-1.557700 0.320500
-1.530000 0.325500
-1.502300 0.330700
-1.474500 0.335900
-1.446800 0.341200
-1.419100 0.346500
-1.391300 0.352000
-1.363600 0.357400
-1.335900 0.362900
-1.308100 0.368600
-1.280400 0.374600
-1.252700 0.380800
-1.224900 0.387200
-1.197200 0.393400
-1.169500 0.399500
-1.141800 0.405900
-1.114000 0.412600
-1.086300 0.419700
-1.058600 0.427300
-1.030800 0.435300
-1.003100 0.444000
-0.975400 0.454200
-0.947600 0.468800
-0.919900 0.490500
-0.892200 0.492400
-0.864400 0.495900
-0.836700 0.503500
-0.809000 0.509300
-0.781200 0.508100
-0.753500 0.504100
-0.725800 0.503700
-0.698000 0.504400
-0.670300 0.507500
-0.642600 0.511900
-0.614800 0.513500
-0.587100 0.512100
-0.559400 0.512800
-0.531600 0.514700
-0.503900 0.516300
-0.476200 0.517400
-0.448400 0.518500
-0.420700 0.519600
-0.393000 0.520900
-0.365200 0.521400
-0.337500 0.521500
-0.309800 0.523700
-0.282000 0.525600
-0.254300 0.527700
-0.226600 0.530200
-0.198800 0.532700
-0.171100 0.534500
-0.143400 0.535100
-0.115600 0.534800
-0.087900 0.535700
-0.060200 0.537000
-0.032400 0.538700
-0.004700 0.540400
0.023000 0.541800
0.050800 0.544300
0.078500 0.546800
0.106200 0.549200
0.134000 0.551200
0.161700 0.552700
0.189400 0.553800
0.217200 0.555300
0.244900 0.557400
0.272600 0.559800
0.300400 0.562100
0.328100 0.564500
0.355800 0.566900
0.383600 0.569900
0.411300 0.573100
0.439000 0.576000
0.466800 0.579100
0.494500 0.582100
0.522200 0.585300
0.550000 0.593700
0.577700 0.605000
0.605400 0.657800
0.633200 0.629500
0.660900 0.640900
0.688600 0.654000
0.716400 0.671500
0.744100 0.694100
0.771800 0.722300
0.799600 0.741200
0.827300 0.759800
0.855000 0.768400
0.882800 0.782900
0.910500 0.787200
0.938200 0.814100
0.966000 0.901900
0.993700 0.912500
1.021400 0.858600
1.049200 0.829100
1.076900 0.805600
1.104600 0.772400
1.132400 0.757200
1.160100 0.756700
1.187800 0.756500
1.215600 0.775000
1.243300 0.801700
1.271000 0.823000
1.298800 0.855900
1.326500 0.908500
1.354200 0.964900
1.382000 1.036400
1.409700 1.115600
1.437400 1.240300
1.465200 1.366100
1.492900 1.444100
1.520600 1.595600
1.548400 0.925300
1.576100 0.848000
1.603800 0.790700
1.631600 0.767500
1.659300 0.755200
1.687000 0.722600
1.714800 0.712400
1.742500 0.701900
1.770200 0.719500
1.798000 0.753100
1.825700 0.784900
1.853400 0.823400
1.881200 1.032300
1.908900 1.068700
1.936600 1.137800
1.964400 1.137500
1.992100 1.078800
2.019800 0.998200
2.047600 0.954800
2.075300 0.928200
2.103000 0.909200
2.130800 0.895700
2.158500 0.883700
2.186200 0.867800
2.214000 0.853500
2.241700 0.841100
2.269400 0.832100
2.297200 0.822700
2.324900 0.813600
2.352600 0.805000
2.380400 0.797200
2.408100 0.790500
2.435800 0.783900
2.463600 0.776700
2.491300 0.769700
2.519000 0.762700
2.546800 0.756500
2.574500 0.748900
2.602200 0.740300
2.629900 0.730900
2.657700 0.722800
2.685400 0.715300
2.713100 0.708100
2.740900 0.700800
2.768600 0.694000
2.796300 0.687400
2.824100 0.681000
2.851800 0.674700
2.879500 0.668700
2.907300 0.662600
2.935000 0.656000
2.962700 0.646800
2.990500 0.637800
3.018200 0.629500
3.045900 0.621400
3.073700 0.613800
3.101400 0.606300
3.129100 0.598400
3.156900 0.591100
3.184600 0.584100
3.212300 0.577200
3.240100 0.570700
3.267800 0.564300
3.295500 0.557800
3.323300 0.551100
3.351000 0.543900
3.378700 0.536000
3.406500 0.528700
3.434200 0.521400
3.461900 0.514200
3.489700 0.506500
3.517400 0.499800
3.545100 0.493200
3.572900 0.487800
3.600600 0.482000
3.628300 0.475200
3.656100 0.468100
3.683800 0.460900
3.711500 0.453700
3.739300 0.454000
3.767000 0.463700
3.794700 0.486500
3.822500 0.514100
3.850200 0.537800
3.877900 0.538900
3.905700 0.533700
3.933400 0.534500
3.961100 0.534800
3.988900 0.532000
4.016600 0.519300
4.044300 0.506600
4.072100 0.494900
4.099800 0.489700
4.127500 0.491100
4.155300 0.497800
4.183000 0.507900
4.210700 0.532100
4.238500 0.556900
4.266200 0.578000
4.293900 0.619300
4.321700 0.671200
4.349400 0.732100
4.377100 0.818100
4.404900 0.934900
4.432600 1.035600
4.460300 1.116800
4.488100 1.375500
4.515800 1.480700
4.543500 1.456000
4.571300 1.421600
4.599000 1.410500
4.626700 1.423500
4.654500 1.405100
4.682200 1.382600
4.709900 1.364500
4.737700 1.344300
4.765400 1.323900
4.793100 1.306600
4.820900 1.301900
4.848600 1.281900
4.876300 1.260200
4.904100 1.235300
4.931800 1.202100
4.959500 1.164800
4.987300 1.136200
5.015000 1.094800
5.042700 1.077700
5.070500 1.080500
5.098200 1.084600
5.125900 1.092800
5.153700 1.078000
5.181400 1.092800
5.209100 1.186900
5.236900 1.208700
5.264600 1.229500
5.292300 1.206600
5.320100 1.199700
5.347800 1.206500
5.375500 1.214200
5.403300 1.235900
5.431000 1.286600
5.458700 1.318800
5.486500 1.341000
5.514200 1.403700
5.541900 1.406600
5.569700 1.156500
5.597400 1.029200
5.625100 0.920500
5.652900 0.812100
5.680600 0.746000
5.708300 0.685500
5.736100 0.642600
5.763800 0.614600
5.791500 0.602900
5.819300 0.591300
5.847000 0.585100
5.874700 0.582300
5.902500 0.584800
5.930200 0.590800
5.957900 0.579300
5.985700 0.570600
6.013400 0.586500
6.041100 0.611000
6.068900 0.646200
6.096600 0.700600
6.124300 0.762200
6.152100 0.822900
6.179800 0.898200
6.207500 0.938100
6.235300 0.941000
6.263000 0.948200
6.290700 0.960700
6.318500 1.001800
6.346200 1.044900
6.373900 1.040300
6.401700 1.054900
6.429400 1.063300
6.457100 1.081000
6.484800 1.104900
6.512600 1.136100
6.540300 1.166700
6.568000 1.201100
6.595800 1.244300
6.623500 1.297000
6.651200 1.369300
6.679000 1.491700
6.706700 1.592600
6.734400 1.679400
6.762200 1.720100
6.789900 1.743300
6.817600 1.783000
6.845400 1.852900
6.873100 1.851700
6.900800 1.838400
6.928600 1.804300
6.956300 1.783100
6.984000 1.767700
7.011800 1.686900
7.039500 1.542800
7.067200 1.463800
7.095000 1.420100
7.122700 1.367500
7.150400 1.323300
7.178200 1.285600
7.205900 1.259600
7.233600 1.239200
7.261400 1.302200
7.289100 1.367300
7.316800 1.449800
7.344600 1.545900
7.372300 1.717800
7.400000 1.912900
7.427800 1.903000
7.455500 1.813300
7.483200 1.790700
7.511000 1.843900
7.538700 2.037500
7.566400 2.093400
7.594200 1.970400
7.621900 2.057700
7.649600 2.235000
7.677400 2.425300
7.705100 2.533100
7.732800 2.688400
7.760600 2.724500
7.788300 2.641700
7.816000 2.549700
7.843800 2.402200
7.871500 2.359900
7.899200 2.470700
7.927000 2.594500
7.954700 2.857800
7.982400 3.339100
8.010200 6.168800
8.037900 4.741500
8.065600 4.492300
8.093400 4.521600
8.121100 4.342100
8.148800 4.644100
8.176600 5.265000
8.204300 4.807000
8.232000 4.709300
8.259800 4.464500
8.287500 4.495900
8.315200 4.793800
8.343000 4.970000
8.370700 5.138700
8.398400 4.989100
8.426200 4.871900
8.453900 4.302100
8.481600 4.197400
8.509400 4.270500
8.537100 4.057600
8.564800 3.905400
8.592600 3.742800
8.620300 3.481300
8.648000 3.295800
8.675800 2.722700
8.703500 2.293000
8.731200 2.100300
8.759000 1.955700
8.786700 1.842700
8.814400 1.755500
8.842200 1.681200
8.869900 1.620600
8.897600 1.566600
8.925400 1.529000
8.953100 1.569100
8.980800 1.637000
9.008600 1.789700
9.036300 1.608600
9.064000 1.537900
9.091800 1.486900
9.119500 1.432600
9.147200 1.377300
9.175000 1.344300
9.202700 1.259900
9.230400 1.177400
9.258200 1.131100
9.285900 1.081900
9.313600 1.061100
9.341400 1.045600
9.369100 1.034300
9.396800 1.024700
9.424600 1.013500
9.452300 1.001500
9.480000 0.992600
9.507800 0.986000
9.535500 0.980900
9.563200 0.981100
9.591000 0.980100
9.618700 0.988800
9.646400 0.975400
9.674200 0.973700
9.701900 0.975300
9.729600 0.990000
9.757400 1.009500
9.785100 1.013200
9.812800 1.012100
9.840600 1.037000
9.868300 1.049300
9.896000 1.058200
9.923800 1.044900
9.951500 1.059500
9.979200 1.089800
10.007000 1.123600
10.034700 1.053900
10.062400 1.027200
10.090200 0.849000
10.117900 0.717900
10.145600 0.593000
10.173400 0.492300
10.201100 0.387900
10.228800 0.223000
10.256500 0.219600
10.284300 0.232700
10.312000 0.229600
10.339700 0.220300
10.367500 0.220800
10.395200 0.223500
10.422900 0.232200
10.450700 0.230500
10.478400 0.232500
10.506100 0.233600
10.533900 0.234600
10.561600 0.244400
10.589300 0.249600
10.617100 0.250800
10.644800 0.251400
10.672500 0.252800
10.700300 0.254900
10.728000 0.256300
10.755700 0.257000
10.783500 0.257600
10.811200 0.319600
10.838900 0.278800
10.866700 0.217300
10.894400 0.232600
10.922100 0.264300
10.949900 0.382700
10.977600 0.668600
11.005300 0.712700
11.033100 0.702600
11.060800 0.697000
11.088500 0.719600
11.116300 0.703100
11.144000 0.707000
11.171700 0.719400
11.199500 0.725600
11.227200 0.732800
11.254900 0.749400
11.282700 0.772800
11.310400 0.805700
11.338100 0.844600
11.365900 0.891700
11.393600 0.903100
11.421300 0.890300
11.449100 0.893700
11.476800 0.893600
11.504500 0.893900
11.532300 0.890300
11.560000 0.891700
11.587700 0.896600
11.615500 0.913600
11.643200 0.939800
11.670900 0.971900
11.698700 0.998100
11.726400 1.025400
11.754100 1.055600
11.781900 1.087900
11.809600 1.121500
11.837300 1.158900
11.865100 1.199600
11.892800 1.240900
11.920500 1.283400
11.948300 1.330000
11.976000 1.372200
12.003700 1.429000
12.031500 1.489800
12.059200 1.555300
12.086900 1.613600
12.114700 1.690700
12.142400 1.829500
12.170100 1.939900
12.197900 2.080200
12.225600 2.085000
12.253300 2.110600
12.281100 2.138100
12.308800 2.170600
12.336500 2.208700
12.364300 2.282300
12.392000 2.341900
12.419700 2.391100
12.447500 2.450200
12.475200 2.658300
12.502900 2.710400
12.530700 2.735900
12.558400 2.850500
12.586100 2.977300
12.613900 2.867300
12.641600 2.752000
12.669300 2.942700
12.697100 3.163600
12.724800 3.008500
12.752500 2.836900
12.780300 2.541000
12.808000 2.437200
12.835700 2.430800
12.863500 2.436900
12.891200 2.343300
12.918900 2.305500
12.946700 2.169100
12.974400 2.062300
13.002100 1.945500
13.029900 1.870600
13.057600 1.801400
13.085300 1.727900
13.113100 1.587700
13.140800 1.460900
13.168500 1.397200
13.196300 1.367200
13.224000 1.345900
13.251700 1.328600
13.279500 1.306300
13.307200 1.289200
13.334900 1.283100
13.362700 1.279000
13.390400 1.279400
13.418100 1.300900
13.445900 1.344700
13.473600 1.391800
13.501300 1.399100
13.529100 1.434100
13.556800 1.602700
13.584500 1.546800
13.612300 1.477100
13.640000 1.469600
13.667700 1.457200
13.695500 1.486700
13.723200 1.546500
13.750900 1.674700
13.778700 1.795600
13.806400 1.890200
13.834100 2.054200
13.861900 2.047900
13.889600 2.133200
13.917300 2.169100
13.945100 2.225800
13.972800 2.344600
14.000500 2.395300
14.028300 2.322600
14.056000 2.211000
14.083700 2.161800
14.111400 2.138100
14.139200 2.097700
14.166900 2.067000
14.194600 2.099100
14.222400 2.009000
14.250100 1.923200
14.277800 1.730800
14.305600 1.658600
14.333300 1.731800
14.361000 1.792600
14.388800 1.780900
14.416500 1.812000
14.444200 1.877100
14.472000 1.864900
14.499700 1.888700
14.527400 1.923900
14.555200 1.976500
14.582900 2.033800
14.610600 2.063500
14.638400 2.073700
14.666100 2.158700
14.693800 2.135600
14.721600 2.134800
14.749300 2.168400
14.777000 2.186600
14.804800 2.197900
14.832500 2.201700
14.860200 2.256100
14.888000 2.385900
14.915700 2.475200
14.943400 2.324500
14.971200 2.209700
14.998900 2.107800
15.026600 2.038200
15.054400 2.004900
15.082100 1.902900
15.109800 1.792200
15.137600 1.706800
15.165300 1.659200
15.193000 1.698900
15.220800 1.743800
15.248500 1.755800
15.276200 1.754800
15.304000 1.711000
15.331700 1.682200
15.359400 1.664400
15.387200 1.661900
15.414900 1.676700
15.442600 1.675000
15.470400 1.672400
15.498100 1.677800
15.525800 1.678800
15.553600 1.678100
15.581300 1.615900
15.609000 1.607000
15.636800 1.592500
15.664500 1.603100
15.692200 1.582800
15.720000 1.590500
15.747700 1.575600
15.775400 1.568100
15.803200 1.574800
15.830900 1.603400
15.858600 1.610500
15.886400 1.603600
15.914100 1.619500
15.941800 1.692200
15.969600 1.718900
15.997300 1.747000
16.025000 1.743500
16.052800 1.654000
16.080500 1.661300
16.108200 1.653900
16.136000 1.642700
16.163700 1.644800
16.191400 1.664900
16.219200 1.665200
16.246900 1.661000
16.274600 1.675200
16.302400 1.708800
16.330100 1.755400
16.357800 1.800800
16.385600 1.782300
16.413300 1.718900
16.441000 1.682500
16.468800 1.657300
16.496500 1.621300
16.524200 1.600800
16.552000 1.597900
16.579700 1.599600
16.607400 1.596100
16.635200 1.591900
16.662900 1.570100
16.690600 1.576000
16.718400 1.578200
16.746100 1.577000
16.773800 1.586000
16.801600 1.563800
16.829300 1.539000
16.857000 1.515700
16.884800 1.497100
16.912500 1.496300
16.940200 1.511100
16.968000 1.496700
16.995700 1.464300
17.023400 1.461100
17.051200 1.466700
17.078900 1.486600
17.106600 1.468500
17.134400 1.461800
17.162100 1.454700
17.189800 1.472300
17.217600 1.499500
17.245300 1.527400
17.273000 1.563100
17.300800 1.611300
17.328500 1.673700
17.356200 1.689000
17.384000 1.676600
17.411700 1.637900
17.439400 1.612100
17.467200 1.592200
17.494900 1.564900
17.522600 1.531800
17.550400 1.494900
17.578100 1.465800
17.605800 1.457100
17.633600 1.468300
17.661300 1.482600
17.689000 1.506200
17.716800 1.534600
17.744500 1.583700
17.772200 1.562800
17.800000 1.542200
17.827700 1.539300
17.855400 1.542100
17.883100 1.479200
17.910900 1.523500
17.938600 1.530500
17.966300 1.524700
17.994100 1.477400
18.021800 1.491600
18.049500 1.452800
18.077300 1.440500
18.105000 1.423500
18.132700 1.376900
18.160500 1.385500
18.188200 1.417400
18.215900 1.457500
18.243700 1.509900
18.271400 1.555300
18.299100 1.556500
18.326900 1.543800
18.354600 1.542700
18.382300 1.484500
18.410100 1.464000
18.437800 1.437300
18.465500 1.393000
18.493300 1.294000
18.521000 1.260100
18.548700 1.240700
18.576500 1.235000
18.604200 1.235700
18.631900 1.242100
18.659700 1.253100
18.687400 1.265900
18.715100 1.281200
18.742900 1.305500
18.770600 1.329800
18.798300 1.355200
18.826100 1.392100
18.853800 1.458100
18.881500 1.515900
18.909300 1.559300
18.937000 1.585000
18.964700 1.616700
18.992500 1.619700
19.020200 1.612100
19.047900 1.614500
19.075700 1.597600
19.103400 1.575400
19.131100 1.549400
19.158900 1.523700
19.186600 1.492200
19.214300 1.428000
19.242100 1.378800
19.269800 1.350000
19.297500 1.319500
19.325300 1.269800
19.353000 1.245800
19.380700 1.253900
19.408500 1.253500
19.436200 1.234800
19.463900 1.237300
19.491700 1.240300
19.519400 1.242100
19.547100 1.232700
19.574900 1.233700
19.602600 1.268100
19.630300 1.314900
19.658100 1.335800
19.685800 1.327900
19.713500 1.309300
19.741300 1.325400
19.769000 1.348200
19.796700 1.324500
19.824500 1.322000
19.852200 1.325700
19.879900 1.332500
19.907700 1.311200
19.935400 1.334400
19.963100 1.396000
19.990900 1.394400
20.018600 1.434900
20.046300 1.480600
20.074100 1.516600
20.101800 1.531300
20.129500 1.538300
20.157300 1.508600
20.185000 1.471600
20.212700 1.467800
20.240500 1.491500
20.268200 1.394400
20.295900 1.309500
20.323700 1.274600
20.351400 1.275100
20.379100 1.292300
20.406900 1.317000
20.434600 1.322300
20.462300 1.342600
20.490100 1.379600
20.517800 1.417800
20.545500 1.454800
20.573300 1.501200
20.601000 1.551800
20.628700 1.588700
20.656500 1.627800
20.684200 1.662300
20.711900 1.707700
20.739700 1.720200
20.767400 1.738900
20.795100 1.743100
20.822900 1.737000
20.850600 1.737800
20.878300 1.749300
20.906100 1.756100
20.933800 1.740700
20.961500 1.711200
20.989300 1.701900
21.017000 1.699600
21.044700 1.696600
21.072500 1.688900
21.100200 1.684400
21.127900 1.668100
21.155700 1.653300
21.183400 1.637700
21.211100 1.604500
21.238900 1.591700
21.266600 1.590900
21.294300 1.605800
21.322100 1.617900
21.349800 1.636200
21.377500 1.654000
21.405300 1.657300
21.433000 1.663200
21.460700 1.670300
21.488500 1.683200
21.516200 1.691000
21.543900 1.683600
21.571700 1.624100
21.599400 1.587800
21.627100 1.555300
21.654900 1.537400
21.682600 1.518200
21.710300 1.512700
21.738000 1.528500
21.765800 1.536700
21.793500 1.541500
21.821200 1.539800
21.849000 1.539600
21.876700 1.558700
21.904400 1.607600
21.932200 1.596200
21.959900 1.627100
21.987600 1.647100
22.015400 1.670000
22.043100 1.675200
22.070800 1.659200
22.098600 1.639500
22.126300 1.656300
22.154000 1.621900
22.181800 1.597600
22.209500 1.592400
22.237200 1.605700
22.265000 1.533000
22.292700 1.487700
22.320400 1.436900
22.348200 1.385200
22.375900 1.335000
22.403600 1.290500
22.431400 1.251400
22.459100 1.215400
22.486800 1.177700
22.514600 1.139100
22.542300 1.108700
22.570000 1.072600
22.597800 1.044500
22.625500 1.017700
22.653200 0.993500
22.681000 0.977700
22.708700 0.977900
22.736400 0.977600
22.764200 0.978400
22.791900 0.981800
22.819600 0.963500
22.847400 0.960100
22.875100 0.954200
22.902800 0.948100
22.930600 0.948100
22.958300 0.949600
22.986000 0.952300
23.013800 0.954100
23.041500 0.960900
23.069200 0.977800
23.097000 0.999400
23.124700 1.035700
23.152400 1.080500
23.180200 1.062900
23.207900 1.065100
23.235600 1.044500
23.263400 1.013600
23.291100 0.972600
23.318800 0.889000
23.346600 0.828000
23.374300 0.787400
23.402000 0.740000
23.429800 0.668500
23.457500 0.606600
23.485200 0.556300
23.513000 0.529200
23.540700 0.506600
23.568400 0.487000
23.596200 0.472400
23.623900 0.459900
23.651600 0.446900
23.679400 0.438600
23.707100 0.409600
23.734800 0.396600
23.762600 0.384400
23.790300 0.372900
23.818000 0.362200
23.845800 0.352100
23.873500 0.344000
23.901200 0.333400
23.929000 0.315600
23.956700 0.309200
23.984400 0.304100
24.012200 0.302100
24.039900 0.299100
24.067600 0.279500
24.095400 0.269200
24.123100 0.260200
24.150800 0.244700
24.178600 0.230200
24.206300 0.216800
24.234000 0.208800
24.261800 0.203200
24.289500 0.197900
24.317200 0.192600
24.345000 0.187300
24.372700 0.182300
24.400400 0.177300
24.428200 0.172400
24.455900 0.167800
24.483600 0.163100
24.511400 0.158500
24.539100 0.154200
24.566800 0.150200
24.594600 0.146700
24.622300 0.143500
24.650000 0.140600
24.677800 0.137900
24.705500 0.135300
24.733200 0.132300
24.761000 0.129200
24.788700 0.126200
24.816400 0.123200
24.844200 0.120200
24.871900 0.117000
24.899600 0.113900
24.927400 0.111300
24.955100 0.109000
24.982800 0.106700
25.010600 0.104400
25.038300 0.102500
25.066000 0.100900
25.093800 0.099400
25.121500 0.098200
25.149200 0.097700
25.177000 0.096300
25.204700 0.094400
25.232400 0.095700
25.260200 0.095700
25.287900 0.094400
25.315600 0.093100
25.343400 0.092000
25.371100 0.091200
25.398800 0.090500
25.426600 0.090000
25.454300 0.094700
25.482000 0.100000
25.509800 0.096100
25.537500 0.093700
25.565200 0.079400
25.592900 0.056500
25.620700 0.044000
25.648400 0.034500
25.676100 0.026800
25.703900 0.011000
25.731600 0.006700
25.759300 0.003600
25.787100 0.002400
25.814800 0.001800
25.842500 0.001300
25.870300 0.000700
25.898000 0.000100
25.925700 0.000000
25.953500 0.000000
25.981200 0.000000
26.008900 0.000000
26.036700 0.000000
26.064400 0.000000
26.092100 0.000000
26.119900 0.000000
26.147600 0.000000
26.175300 0.000000
26.203100 0.000000
26.230800 0.000000
26.258500 0.000000
26.286300 0.000000
26.314000 0.000000
26.341700 0.000000
26.369500 0.000000
26.397200 0.000000
26.424900 0.000000
26.452700 0.000000
26.480400 0.000000
26.508100 0.000000
26.535900 0.000000
26.563600 0.000000
26.591300 0.000000
26.619100 0.000000
26.646800 0.000000
26.674500 0.000000
26.702300 0.000000
26.730000 0.000000
26.757700 0.000000
26.785500 0.000000
26.813200 0.000000
26.840900 0.000000
26.868700 0.000000
26.896400 0.000000
26.924100 0.000000
26.951900 0.000000
26.979600 0.000000
27.007300 0.000000
27.035100 0.000000
27.062800 0.000000
27.090500 0.000000
27.118300 0.000000
27.146000 0.000000
27.173700 0.000000
27.201500 0.000000
27.229200 0.000000
27.256900 0.000000
27.284700 0.000000
27.312400 0.000000
27.340100 0.000000
27.367900 0.000000
27.395600 0.000000
27.423300 0.000000
27.451100 0.000000
27.478800 0.000000
27.506500 0.000000
27.534300 0.000000
27.562000 0.000000
27.589700 0.000000
27.617500 0.000000
27.645200 0.000000
27.672900 0.000000
27.700700 0.000000
27.728400 0.000000
27.756100 0.000000
27.783900 0.000000
27.811600 0.000000
27.839300 0.000000
27.867100 0.000000
27.894800 0.000000
27.922500 0.000000
27.950300 0.000000
27.978000 0.000000
28.005700 0.000000
28.033500 0.000000
28.061200 0.000000
28.088900 0.000000
28.116700 0.000000
28.144400 0.000000
28.172100 0.000000
28.199900 0.000000
28.227600 0.000000
28.255300 0.000000
28.283100 0.000000
28.310800 0.000000
28.338500 0.000000
28.366300 0.000000
28.394000 0.000000
28.421700 0.000000
e
