set title 'mp-1187584 - Density of States'
set xlabel 'Energy (eV)'
set ylabel 'DOS (states/eV)'
set grid
set xrange [-10:10]
set yrange [0:12.456]
set xzeroaxis lt -1
set terminal png size 800,600
set output 'mp-1187584_dos_gnuplot.png'
plot '-' using 1:2 with lines title 'DOS'
-24.754300 0.000000
-24.729400 0.000000
-24.704400 0.000000
-24.679500 0.000000
-24.654600 0.000000
-24.629600 0.000000
-24.604700 0.000000
-24.579800 0.000000
-24.554900 0.000000
-24.529900 0.000000
-24.505000 0.000000
-24.480100 0.000000
-24.455100 0.000000
-24.430200 0.000000
-24.405300 0.000000
-24.380300 0.000000
-24.355400 0.000000
-24.330500 0.000000
-24.305600 0.000000
-24.280600 0.000000
-24.255700 0.000000
-24.230800 0.000000
-24.205800 0.000000
-24.180900 0.000000
-24.156000 0.000000
-24.131000 0.000000
-24.106100 0.000000
-24.081200 0.000000
-24.056300 0.000000
-24.031300 0.000000
-24.006400 0.000000
-23.981500 0.000000
-23.956500 0.000000
-23.931600 0.000000
-23.906700 0.000000
-23.881700 0.000000
-23.856800 0.000000
-23.831900 0.000000
-23.806900 0.000000
-23.782000 0.000000
-23.757100 0.000000
-23.732200 0.000000
-23.707200 0.000000
-23.682300 0.000000
-23.657400 0.000000
-23.632400 0.000000
-23.607500 0.000000
-23.582600 0.000000
-23.557600 0.000000
-23.532700 0.000000
-23.507800 0.000000
-23.482900 0.000000
-23.457900 0.000000
-23.433000 0.000000
-23.408100 0.000000
-23.383100 0.000000
-23.358200 0.000000
-23.333300 0.000000
-23.308300 0.000000
-23.283400 0.000000
-23.258500 0.000000
-23.233600 0.000000
-23.208600 0.000000
-23.183700 0.000000
-23.158800 0.000000
-23.133800 0.000000
-23.108900 0.000000
-23.084000 0.000000
-23.059000 0.000000
-23.034100 0.000000
-23.009200 0.000000
-22.984200 0.000000
-22.959300 0.000000
-22.934400 0.000000
-22.909500 0.000000
-22.884500 0.000000
-22.859600 0.000000
-22.834700 0.000000
-22.809700 0.000000
-22.784800 0.000000
-22.759900 0.000000
-22.734900 0.000000
-22.710000 0.000000
-22.685100 0.000000
-22.660200 0.000000
-22.635200 0.000000
-22.610300 0.000000
-22.585400 0.000000
-22.560400 0.000000
-22.535500 0.000000
-22.510600 0.000000
-22.485600 2.218400
-22.460700 23.940400
-22.435800 53.186800
-22.410900 123.739300
-22.385900 0.000000
-22.361000 1.253300
-22.336100 28.351700
-22.311100 44.477000
-22.286200 15.228600
-22.261300 12.561500
-22.236300 16.653500
-22.211400 18.738000
-22.186500 23.508400
-22.161500 31.683700
-22.136600 65.761000
-22.111700 32.859700
-22.086800 28.319800
-22.061800 0.000000
-22.036900 0.000000
-22.012000 0.000000
-21.987000 0.000000
-21.962100 0.000000
-21.937200 0.000000
-21.912200 0.000000
-21.887300 0.000000
-21.862400 0.000000
-21.837500 0.000000
-21.812500 0.000000
-21.787600 0.000000
-21.762700 0.000000
-21.737700 0.000000
-21.712800 0.000000
-21.687900 0.000000
-21.662900 0.000000
-21.638000 0.000000
-21.613100 0.000000
-21.588200 0.000000
-21.563200 0.000000
-21.538300 0.000000
-21.513400 0.000000
-21.488400 0.000000
-21.463500 0.000000
-21.438600 0.000000
-21.413600 0.000000
-21.388700 0.000000
-21.363800 0.000000
-21.338900 0.000000
-21.313900 0.000000
-21.289000 0.000000
-21.264100 0.000000
-21.239100 0.000000
-21.214200 0.000000
-21.189300 0.000000
-21.164300 0.000000
-21.139400 0.000000
-21.114500 0.000000
-21.089500 0.000000
-21.064600 0.000000
-21.039700 0.000000
-21.014800 0.000000
-20.989800 0.000000
-20.964900 0.000000
-20.940000 0.000000
-20.915000 0.000000
-20.890100 0.000000
-20.865200 0.000000
-20.840200 0.000000
-20.815300 0.000000
-20.790400 0.000000
-20.765500 0.000000
-20.740500 0.000000
-20.715600 0.000000
-20.690700 0.000000
-20.665700 0.000000
-20.640800 0.000000
-20.615900 0.000000
-20.590900 0.000000
-20.566000 0.000000
-20.541100 0.000000
-20.516200 0.000000
-20.491200 0.000000
-20.466300 0.000000
-20.441400 0.000000
-20.416400 0.000000
-20.391500 0.000000
-20.366600 0.000000
-20.341600 0.000000
-20.316700 0.000000
-20.291800 0.000000
-20.266800 0.000000
-20.241900 0.000000
-20.217000 0.000000
-20.192100 0.000000
-20.167100 0.000000
-20.142200 0.000000
-20.117300 0.000000
-20.092300 0.000000
-20.067400 0.000000
-20.042500 0.000000
-20.017500 0.000000
-19.992600 0.000000
-19.967700 0.000000
-19.942800 0.000000
-19.917800 0.000000
-19.892900 0.000000
-19.868000 0.000000
-19.843000 0.000000
-19.818100 0.000000
-19.793200 0.000000
-19.768200 0.000000
-19.743300 0.000000
-19.718400 0.000000
-19.693500 0.000000
-19.668500 0.000000
-19.643600 0.000000
-19.618700 0.000000
-19.593700 0.000000
-19.568800 0.000000
-19.543900 0.000000
-19.518900 0.000000
-19.494000 0.000000
-19.469100 0.000000
-19.444100 0.000000
-19.419200 0.000000
-19.394300 0.000000
-19.369400 0.000000
-19.344400 0.000000
-19.319500 0.000000
-19.294600 0.000000
-19.269600 0.000000
-19.244700 0.000000
-19.219800 0.000000
-19.194800 0.000000
-19.169900 0.000000
-19.145000 0.000000
-19.120100 0.000000
-19.095100 0.000000
-19.070200 0.000000
-19.045300 0.000000
-19.020300 0.000000
-18.995400 0.000000
-18.970500 0.000000
-18.945500 0.000000
-18.920600 0.000000
-18.895700 0.000000
-18.870800 0.000000
-18.845800 0.000000
-18.820900 0.000000
-18.796000 0.000000
-18.771000 0.000000
-18.746100 0.000000
-18.721200 0.000000
-18.696200 0.000000
-18.671300 0.000000
-18.646400 0.000000
-18.621400 0.000000
-18.596500 0.000000
-18.571600 0.000000
-18.546700 0.000000
-18.521700 0.000000
-18.496800 0.000000
-18.471900 0.000000
-18.446900 0.000000
-18.422000 0.000000
-18.397100 0.000000
-18.372100 0.000000
-18.347200 0.000000
-18.322300 0.000000
-18.297400 0.000000
-18.272400 0.000000
-18.247500 0.000000
-18.222600 0.000000
-18.197600 0.000000
-18.172700 0.000000
-18.147800 0.000000
-18.122800 0.000000
-18.097900 0.000000
-18.073000 0.000000
-18.048100 0.000000
-18.023100 0.000000
-17.998200 0.000000
-17.973300 0.000000
-17.948300 0.000000
-17.923400 0.000000
-17.898500 0.000000
-17.873500 0.000000
-17.848600 0.000000
-17.823700 0.000000
-17.798800 0.000000
-17.773800 0.000000
-17.748900 0.000000
-17.724000 0.000000
-17.699000 0.000000
-17.674100 0.000000
-17.649200 0.000000
-17.624200 0.000000
-17.599300 0.000000
-17.574400 0.000000
-17.549400 0.000000
-17.524500 0.000000
-17.499600 0.000000
-17.474700 0.000000
-17.449700 0.000000
-17.424800 0.000000
-17.399900 0.000000
-17.374900 0.000000
-17.350000 0.000000
-17.325100 0.000000
-17.300100 0.000000
-17.275200 0.000000
-17.250300 0.000000
-17.225400 0.000000
-17.200400 0.000000
-17.175500 0.000000
-17.150600 0.000000
-17.125600 0.000000
-17.100700 0.000000
-17.075800 0.000000
-17.050800 0.000000
-17.025900 0.000000
-17.001000 0.000000
-16.976100 0.000000
-16.951100 0.000000
-16.926200 0.000000
-16.901300 0.000000
-16.876300 0.000000
-16.851400 0.000000
-16.826500 0.000000
-16.801500 0.000000
-16.776600 0.000000
-16.751700 0.000000
-16.726700 0.000000
-16.701800 0.000000
-16.676900 0.000000
-16.652000 0.000000
-16.627000 0.000000
-16.602100 0.000000
-16.577200 0.000000
-16.552200 0.000000
-16.527300 0.000000
-16.502400 0.000000
-16.477400 0.000000
-16.452500 0.000000
-16.427600 0.000000
-16.402700 0.000000
-16.377700 0.000000
-16.352800 0.000000
-16.327900 0.000000
-16.302900 0.000000
-16.278000 0.000000
-16.253100 0.000000
-16.228100 0.000000
-16.203200 0.000000
-16.178300 0.000000
-16.153400 0.000000
-16.128400 0.000000
-16.103500 0.000000
-16.078600 0.000000
-16.053600 0.000000
-16.028700 0.000000
-16.003800 0.000000
-15.978800 0.000000
-15.953900 0.000000
-15.929000 0.000000
-15.904000 0.000000
-15.879100 0.000000
-15.854200 0.000000
-15.829300 0.000000
-15.804300 0.000000
-15.779400 0.000000
-15.754500 0.000000
-15.729500 0.000000
-15.704600 0.000000
-15.679700 0.000000
-15.654700 0.000000
-15.629800 0.000000
-15.604900 0.000000
-15.580000 0.000000
-15.555000 0.000000
-15.530100 0.000000
-15.505200 0.000000
-15.480200 0.000000
-15.455300 0.000000
-15.430400 0.000000
-15.405400 0.000000
-15.380500 0.000000
-15.355600 0.000000
-15.330700 0.000000
-15.305700 0.000000
-15.280800 0.000000
-15.255900 0.000000
-15.230900 0.000000
-15.206000 0.000000
-15.181100 0.000000
-15.156100 0.000000
-15.131200 0.000000
-15.106300 0.000000
-15.081400 0.000000
-15.056400 0.000000
-15.031500 0.000000
-15.006600 0.000000
-14.981600 0.000000
-14.956700 0.000000
-14.931800 0.000000
-14.906800 0.000000
-14.881900 0.000000
-14.857000 0.000000
-14.832000 0.000000
-14.807100 0.000000
-14.782200 0.000000
-14.757300 0.000000
-14.732300 0.000000
-14.707400 0.000000
-14.682500 0.000000
-14.657500 0.000000
-14.632600 0.000000
-14.607700 0.000000
-14.582700 0.000000
-14.557800 0.000000
-14.532900 0.000000
-14.508000 0.000000
-14.483000 0.000000
-14.458100 0.000000
-14.433200 0.000000
-14.408200 0.000000
-14.383300 0.000000
-14.358400 0.000000
-14.333400 0.000000
-14.308500 0.000000
-14.283600 0.000000
-14.258700 0.000000
-14.233700 0.000000
-14.208800 0.000000
-14.183900 0.000000
-14.158900 0.000000
-14.134000 0.000000
-14.109100 0.000000
-14.084100 0.000000
-14.059200 0.000000
-14.034300 0.000000
-14.009300 0.000000
-13.984400 0.000000
-13.959500 0.000000
-13.934600 0.000000
-13.909600 0.000000
-13.884700 0.000000
-13.859800 0.000000
-13.834800 0.000000
-13.809900 0.000000
-13.785000 0.000000
-13.760000 0.000000
-13.735100 0.000000
-13.710200 0.000000
-13.685300 0.000000
-13.660300 0.000000
-13.635400 0.000000
-13.610500 0.000000
-13.585500 0.000000
-13.560600 0.000000
-13.535700 0.000000
-13.510700 0.000000
-13.485800 0.000000
-13.460900 0.000000
-13.436000 0.000000
-13.411000 0.000000
-13.386100 0.000000
-13.361200 0.000000
-13.336200 0.000000
-13.311300 0.000000
-13.286400 0.299500
-13.261400 0.739000
-13.236500 1.022700
-13.211600 1.576300
-13.186600 1.536400
-13.161700 1.632300
-13.136800 2.253300
-13.111900 2.489800
-13.086900 2.985400
-13.062000 3.681800
-13.037100 3.797800
-13.012100 3.975900
-12.987200 4.132600
-12.962300 4.344000
-12.937300 4.539000
-12.912400 4.772100
-12.887500 5.098500
-12.862600 5.487700
-12.837600 5.905200
-12.812700 6.360600
-12.787800 7.040300
-12.762800 8.155900
-12.737900 9.505600
-12.713000 11.740900
-12.688000 14.833700
-12.663100 14.188300
-12.638200 17.509000
-12.613300 10.988800
-12.588300 0.000000
-12.563400 0.000000
-12.538500 0.000000
-12.513500 0.000000
-12.488600 0.000000
-12.463700 0.000000
-12.438700 0.000000
-12.413800 0.000000
-12.388900 0.000000
-12.364000 0.000000
-12.339000 0.000000
-12.314100 0.000000
-12.289200 0.000000
-12.264200 0.000000
-12.239300 0.000000
-12.214400 0.000000
-12.189400 0.000000
-12.164500 0.000000
-12.139600 0.000000
-12.114600 0.000000
-12.089700 0.000000
-12.064800 0.000000
-12.039900 0.000000
-12.014900 0.000000
-11.990000 0.000000
-11.965100 0.000000
-11.940100 0.000000
-11.915200 0.000000
-11.890300 0.000000
-11.865300 0.000000
-11.840400 0.000000
-11.815500 0.000000
-11.790600 0.000000
-11.765600 0.000000
-11.740700 0.000000
-11.715800 0.000000
-11.690800 0.000000
-11.665900 0.000000
-11.641000 0.000000
-11.616000 0.000000
-11.591100 0.000000
-11.566200 0.000000
-11.541300 0.000000
-11.516300 0.000000
-11.491400 0.000000
-11.466500 0.000000
-11.441500 0.000000
-11.416600 0.000000
-11.391700 0.000000
-11.366700 0.000000
-11.341800 0.000000
-11.316900 0.000000
-11.291900 0.000000
-11.267000 0.000000
-11.242100 0.000000
-11.217200 0.000000
-11.192200 0.000000
-11.167300 0.000000
-11.142400 0.000000
-11.117400 0.000000
-11.092500 0.000000
-11.067600 0.000000
-11.042600 0.000000
-11.017700 0.000000
-10.992800 0.000000
-10.967900 0.000000
-10.942900 0.000000
-10.918000 0.000000
-10.893100 0.000000
-10.868100 0.000000
-10.843200 0.000000
-10.818300 0.000000
-10.793300 0.000000
-10.768400 0.000000
-10.743500 0.000000
-10.718600 0.000000
-10.693600 0.000000
-10.668700 0.000000
-10.643800 0.000000
-10.618800 0.000000
-10.593900 0.000000
-10.569000 0.000000
-10.544000 0.000000
-10.519100 0.000000
-10.494200 0.000000
-10.469200 0.000000
-10.444300 0.000000
-10.419400 0.000000
-10.394500 0.000000
-10.369500 0.000000
-10.344600 0.000000
-10.319700 0.000000
-10.294700 0.000000
-10.269800 0.000000
-10.244900 0.000000
-10.219900 0.000000
-10.195000 0.000000
-10.170100 0.000000
-10.145200 0.000000
-10.120200 0.000000
-10.095300 0.000000
-10.070400 0.000000
-10.045400 0.000000
-10.020500 0.000000
-9.995600 0.000000
-9.970600 0.000000
-9.945700 0.000000
-9.920800 0.000000
-9.895900 0.000000
-9.870900 0.000000
-9.846000 0.000000
-9.821100 0.000000
-9.796100 0.000000
-9.771200 0.000000
-9.746300 0.000000
-9.721300 0.000000
-9.696400 0.000000
-9.671500 0.000000
-9.646500 0.000000
-9.621600 0.000000
-9.596700 0.000000
-9.571800 0.000000
-9.546800 0.000000
-9.521900 0.000000
-9.497000 0.000000
-9.472000 0.000000
-9.447100 0.000000
-9.422200 0.000000
-9.397200 0.000000
-9.372300 0.000000
-9.347400 0.000000
-9.322500 0.000000
-9.297500 0.000000
-9.272600 0.000000
-9.247700 0.000000
-9.222700 0.000000
-9.197800 0.000000
-9.172900 0.000000
-9.147900 0.000000
-9.123000 0.000000
-9.098100 0.000000
-9.073200 0.000000
-9.048200 0.000000
-9.023300 0.000000
-8.998400 0.000000
-8.973400 0.000000
-8.948500 0.000000
-8.923600 0.000000
-8.898600 0.000000
-8.873700 0.000000
-8.848800 0.000000
-8.823900 0.000000
-8.798900 0.000000
-8.774000 0.000000
-8.749100 0.000000
-8.724100 0.000000
-8.699200 0.000000
-8.674300 0.000000
-8.649300 0.000000
-8.624400 0.000000
-8.599500 0.000000
-8.574500 0.000000
-8.549600 0.000000
-8.524700 0.000000
-8.499800 0.000000
-8.474800 0.000000
-8.449900 0.000000
-8.425000 0.000000
-8.400000 0.000000
-8.375100 0.000000
-8.350200 0.000000
-8.325200 0.000000
-8.300300 0.000000
-8.275400 0.000000
-8.250500 0.000000
-8.225500 0.000000
-8.200600 0.000000
-8.175700 0.000000
-8.150700 0.000000
-8.125800 0.000000
-8.100900 0.000000
-8.075900 0.000000
-8.051000 0.000000
-8.026100 0.000000
-8.001200 0.000000
-7.976200 0.000000
-7.951300 0.000000
-7.926400 0.000000
-7.901400 0.000000
-7.876500 0.000000
-7.851600 0.000000
-7.826600 0.000000
-7.801700 0.000000
-7.776800 0.000000
-7.751800 0.000000
-7.726900 0.000000
-7.702000 0.000000
-7.677100 0.000000
-7.652100 0.000000
-7.627200 0.000000
-7.602300 0.000000
-7.577300 0.000000
-7.552400 0.000000
-7.527500 0.000000
-7.502500 0.000000
-7.477600 0.000000
-7.452700 0.000000
-7.427800 0.000000
-7.402800 0.000000
-7.377900 0.000000
-7.353000 0.000000
-7.328000 0.000000
-7.303100 0.000000
-7.278200 0.000000
-7.253200 0.000000
-7.228300 0.000000
-7.203400 0.000000
-7.178500 0.000000
-7.153500 0.000000
-7.128600 0.000000
-7.103700 0.000000
-7.078700 0.000000
-7.053800 0.000000
-7.028900 0.000000
-7.003900 0.000000
-6.979000 0.000000
-6.954100 0.000000
-6.929100 0.000000
-6.904200 0.000000
-6.879300 0.000000
-6.854400 0.000000
-6.829400 0.000000
-6.804500 0.000000
-6.779600 0.000000
-6.754600 0.000000
-6.729700 0.000000
-6.704800 0.000000
-6.679800 0.000000
-6.654900 0.000000
-6.630000 0.000000
-6.605100 0.000000
-6.580100 0.000000
-6.555200 0.000000
-6.530300 0.000000
-6.505300 0.000000
-6.480400 0.000000
-6.455500 0.000000
-6.430500 0.000000
-6.405600 0.000000
-6.380700 0.000000
-6.355800 0.000000
-6.330800 0.000000
-6.305900 0.000000
-6.281000 0.000000
-6.256000 0.000000
-6.231100 0.000000
-6.206200 0.000000
-6.181200 0.000000
-6.156300 0.000000
-6.131400 0.000000
-6.106500 0.000000
-6.081500 0.000000
-6.056600 0.000000
-6.031700 0.000000
-6.006700 0.000000
-5.981800 0.000000
-5.956900 0.000000
-5.931900 0.000000
-5.907000 0.000000
-5.882100 0.000000
-5.857100 0.000000
-5.832200 0.000000
-5.807300 0.000000
-5.782400 0.000000
-5.757400 0.000000
-5.732500 0.000000
-5.707600 0.000000
-5.682600 0.000000
-5.657700 0.000000
-5.632800 0.000000
-5.607800 0.000000
-5.582900 0.000000
-5.558000 0.000000
-5.533100 0.000000
-5.508100 0.000000
-5.483200 0.000000
-5.458300 0.000000
-5.433300 0.000000
-5.408400 0.000000
-5.383500 0.000000
-5.358500 0.000000
-5.333600 0.000000
-5.308700 0.000000
-5.283800 0.000000
-5.258800 0.000000
-5.233900 0.000000
-5.209000 0.000000
-5.184000 0.000000
-5.159100 0.000000
-5.134200 0.000000
-5.109200 0.000000
-5.084300 0.000000
-5.059400 0.000000
-5.034400 0.000000
-5.009500 0.000000
-4.984600 0.000000
-4.959700 0.000000
-4.934700 0.000000
-4.909800 0.000000
-4.884900 0.000000
-4.859900 0.000000
-4.835000 0.000000
-4.810100 0.000000
-4.785100 0.000000
-4.760200 0.000000
-4.735300 0.000000
-4.710400 0.000000
-4.685400 0.000000
-4.660500 0.000000
-4.635600 0.000000
-4.610600 0.000000
-4.585700 0.000000
-4.560800 0.000000
-4.535800 0.000000
-4.510900 0.000000
-4.486000 0.000000
-4.461100 0.000000
-4.436100 0.000000
-4.411200 0.000000
-4.386300 0.000000
-4.361300 0.000000
-4.336400 0.000000
-4.311500 0.000000
-4.286500 0.000000
-4.261600 0.000000
-4.236700 0.000000
-4.211700 0.000000
-4.186800 0.000000
-4.161900 0.000000
-4.137000 0.000000
-4.112000 0.000000
-4.087100 0.000000
-4.062200 0.000000
-4.037200 0.000000
-4.012300 0.000000
-3.987400 0.000000
-3.962400 0.000000
-3.937500 0.000000
-3.912600 0.000000
-3.887700 0.000000
-3.862700 0.000000
-3.837800 0.000000
-3.812900 0.000000
-3.787900 0.000000
-3.763000 0.000000
-3.738100 0.000000
-3.713100 0.000000
-3.688200 0.000000
-3.663300 0.000000
-3.638400 0.000000
-3.613400 0.000000
-3.588500 0.000000
-3.563600 0.000000
-3.538600 0.000000
-3.513700 0.000000
-3.488800 0.000000
-3.463800 0.000000
-3.438900 0.000000
-3.414000 0.000000
-3.389000 0.000000
-3.364100 0.000000
-3.339200 0.000000
-3.314300 0.000000
-3.289300 0.000000
-3.264400 0.000000
-3.239500 0.000000
-3.214500 0.001900
-3.189600 0.036900
-3.164700 0.116300
-3.139700 0.184400
-3.114800 0.244500
-3.089900 0.281300
-3.065000 0.299800
-3.040000 0.340900
-3.015100 0.378100
-2.990200 0.409000
-2.965200 0.436200
-2.940300 0.464200
-2.915400 0.498000
-2.890400 0.537200
-2.865500 0.594800
-2.840600 0.735000
-2.815700 0.736300
-2.790700 0.761800
-2.765800 0.785200
-2.740900 0.810700
-2.715900 0.835500
-2.691000 0.846600
-2.666100 0.922700
-2.641100 1.325900
-2.616200 1.931300
-2.591300 2.430300
-2.566400 3.387200
-2.541400 4.291800
-2.516500 4.544500
-2.491600 4.565800
-2.466600 4.953300
-2.441700 5.127600
-2.416800 5.463000
-2.391800 5.989300
-2.366900 6.592200
-2.342000 7.048700
-2.317000 7.019000
-2.292100 7.126300
-2.267200 7.261200
-2.242300 8.483900
-2.217300 7.835100
-2.192400 9.512300
-2.167500 6.796900
-2.142500 5.259400
-2.117600 4.901700
-2.092700 5.368600
-2.067700 3.989500
-2.042800 3.026100
-2.017900 2.452700
-1.993000 2.358900
-1.968000 2.199500
-1.943100 2.148000
-1.918200 2.354100
-1.893200 1.806400
-1.868300 1.345600
-1.843400 3.621000
-1.818400 5.591000
-1.793500 8.081600
-1.768600 9.304700
-1.743700 8.798900
-1.718700 7.709800
-1.693800 6.876800
-1.668900 6.349500
-1.643900 10.867100
-1.619000 6.911600
-1.594100 6.824600
-1.569100 8.332300
-1.544200 10.613200
-1.519300 7.879600
-1.494300 2.212100
-1.469400 1.494700
-1.444500 1.455000
-1.419600 1.415700
-1.394600 2.072000
-1.369700 2.807900
-1.344800 2.368400
-1.319800 2.220900
-1.294900 2.151000
-1.270000 2.115300
-1.245000 2.084700
-1.220100 2.060900
-1.195200 2.054700
-1.170300 2.056500
-1.145300 2.065300
-1.120400 2.030800
-1.095500 2.024300
-1.070500 2.047800
-1.045600 2.057100
-1.020700 2.063300
-0.995700 2.064100
-0.970800 2.084500
-0.945900 2.111800
-0.921000 2.123900
-0.896000 2.148900
-0.871100 2.173600
-0.846200 2.207400
-0.821200 2.220900
-0.796300 2.231200
-0.771400 2.247300
-0.746400 2.278100
-0.721500 2.316700
-0.696600 2.355000
-0.671600 2.400200
-0.646700 2.444600
-0.621800 2.502700
-0.596900 2.568500
-0.571900 2.650700
-0.547000 2.724100
-0.522100 2.785200
-0.497100 2.841600
-0.472200 2.897900
-0.447300 2.949000
-0.422300 3.138800
-0.397400 3.337100
-0.372500 3.564900
-0.347600 3.850900
-0.322600 4.064300
-0.297700 4.167000
-0.272800 4.181200
-0.247800 4.232700
-0.222900 4.284300
-0.198000 4.340800
-0.173000 4.394200
-0.148100 4.314400
-0.123200 4.127900
-0.098300 3.961000
-0.073300 3.658900
-0.048400 3.426800
-0.023500 3.312500
0.001500 3.173300
0.026400 3.052500
0.051300 2.951700
0.076300 2.873600
0.101200 2.781800
0.126100 2.702200
0.151000 2.700000
0.176000 2.654200
0.200900 2.598800
0.225800 2.473500
0.250800 2.419300
0.275700 2.346500
0.300600 2.509300
0.325600 2.484500
0.350500 2.535800
0.375400 2.203900
0.400400 1.795800
0.425300 1.520300
0.450200 1.370900
0.475100 1.286700
0.500100 0.961200
0.525000 0.683600
0.549900 0.182400
0.574900 0.000000
0.599800 0.000000
0.624700 0.000000
0.649700 0.000000
0.674600 0.000000
0.699500 0.000000
0.724400 0.000000
0.749400 0.000000
0.774300 0.000000
0.799200 0.000000
0.824200 0.000000
0.849100 0.000000
0.874000 0.000000
0.899000 0.000000
0.923900 0.000000
0.948800 0.000000
0.973700 0.000000
0.998700 0.000000
1.023600 0.000000
1.048500 0.000500
1.073500 0.002600
1.098400 0.006500
1.123300 0.012100
1.148300 0.019500
1.173200 0.028600
1.198100 0.039400
1.223100 0.052300
1.248000 0.068900
1.272900 0.085000
1.297800 0.095800
1.322800 0.105400
1.347700 0.113800
1.372600 0.121100
1.397600 0.127100
1.422500 0.137300
1.447400 0.148400
1.472400 0.159800
1.497300 0.171600
1.522200 0.183700
1.547100 0.196200
1.572100 0.208900
1.597000 0.221400
1.621900 0.237700
1.646900 0.267900
1.671800 0.295100
1.696700 0.320500
1.721700 0.345700
1.746600 0.328000
1.771500 0.337100
1.796400 0.345400
1.821400 0.353200
1.846300 0.360700
1.871200 0.367800
1.896200 0.374600
1.921100 0.380900
1.946000 0.386000
1.971000 0.389300
1.995900 0.393600
2.020800 0.398500
2.045800 0.424400
2.070700 0.491100
2.095600 0.567000
2.120500 0.562500
2.145500 0.591800
2.170400 0.622200
2.195300 0.653700
2.220300 0.686700
2.245200 0.721300
2.270100 0.751000
2.295100 0.776200
2.320000 0.807100
2.344900 0.861100
2.369800 0.945100
2.394800 1.033600
2.419700 1.113700
2.444600 1.163800
2.469600 1.173500
2.494500 1.204100
2.519400 1.239900
2.544400 1.269700
2.569300 1.298800
2.594200 1.329700
2.619100 1.368400
2.644100 1.414700
2.669000 1.465600
2.693900 1.525500
2.718900 1.588500
2.743800 1.653900
2.768700 1.721900
2.793700 1.791700
2.818600 1.862500
2.843500 1.948300
2.868400 2.184600
2.893400 2.504900
2.918300 2.856300
2.943200 3.256600
2.968200 3.623200
2.993100 3.885100
3.018000 3.864300
3.043000 3.852100
3.067900 4.650800
3.092800 4.780800
3.117800 4.835600
3.142700 4.651000
3.167600 4.066100
3.192500 3.709700
3.217500 3.298600
3.242400 2.908600
3.267300 2.686100
3.292300 2.593200
3.317200 2.504100
3.342100 2.415400
3.367100 2.320400
3.392000 2.206600
3.416900 2.097100
3.441800 2.027500
3.466800 1.962900
3.491700 1.902900
3.516600 1.840800
3.541600 1.778800
3.566500 1.727200
3.591400 1.628900
3.616400 1.562200
3.641300 1.511300
3.666200 1.481700
3.691100 1.452200
3.716100 1.423100
3.741000 1.372800
3.765900 1.336100
3.790900 1.298300
3.815800 1.256600
3.840700 1.214700
3.865700 1.173000
3.890600 1.132900
3.915500 1.093700
3.940500 1.047900
3.965400 1.034000
3.990300 1.019200
4.015200 1.004600
4.040200 1.003800
4.065100 1.006500
4.090000 0.523300
4.115000 0.520400
4.139900 0.402500
4.164800 0.358300
4.189800 0.313100
4.214700 0.267300
4.239600 0.530700
4.264500 1.345800
4.289500 2.256000
4.314400 3.222200
4.339300 3.527800
4.364300 3.795700
4.389200 4.799800
4.414100 7.218900
4.439100 10.377500
4.464000 11.323700
4.488900 8.604500
4.513800 8.608000
4.538800 9.132700
4.563700 10.111800
4.588600 7.165000
4.613600 7.938900
4.638500 6.617100
4.663400 6.175600
4.688400 4.534800
4.713300 3.864400
4.738200 3.365200
4.763200 1.939200
4.788100 1.752000
4.813000 1.653400
4.837900 1.574100
4.862900 1.492700
4.887800 1.392500
4.912700 1.330200
4.937700 1.273600
4.962600 1.210300
4.987500 1.170200
5.012500 1.132400
5.037400 1.096800
5.062300 1.057700
5.087200 1.032400
5.112200 1.007200
5.137100 0.968900
5.162000 1.059400
5.187000 1.057900
5.211900 1.066600
5.236800 1.089800
5.261800 1.127800
5.286700 1.155800
5.311600 1.135400
5.336500 1.200000
5.361500 1.383100
5.386400 1.588600
5.411300 1.792000
5.436300 1.970500
5.461200 2.126800
5.486100 2.286800
5.511100 2.408700
5.536000 2.489800
5.560900 2.485700
5.585900 2.443900
5.610800 2.418600
5.635700 2.397500
5.660600 2.357700
5.685600 2.370800
5.710500 2.666500
5.735400 2.949200
5.760400 2.684400
5.785300 2.623600
5.810200 2.637800
5.835200 2.939900
5.860100 3.817200
5.885000 4.311300
5.909900 4.996200
5.934900 6.122400
5.959800 6.633100
5.984700 6.385900
6.009700 5.246900
6.034600 4.997100
6.059500 5.479000
6.084500 5.002900
6.109400 4.985300
6.134300 5.335200
6.159200 5.582500
6.184200 5.335300
6.209100 5.320000
6.234000 5.971300
6.259000 7.002400
6.283900 7.410600
6.308800 6.606300
6.333800 6.144600
6.358700 5.559200
6.383600 5.510800
6.408500 5.567800
6.433500 5.894500
6.458400 4.799100
6.483300 4.152400
6.508300 3.680400
6.533200 3.676600
6.558100 3.923700
6.583100 4.207000
6.608000 4.416200
6.632900 4.623200
6.657900 5.017100
6.682800 5.671000
6.707700 8.433900
6.732600 5.374900
6.757600 4.483500
6.782500 4.156100
6.807400 5.142600
6.832400 5.597700
6.857300 5.114500
6.882200 6.658500
6.907200 3.812200
6.932100 3.294300
6.957000 3.314400
6.981900 3.317500
7.006900 3.258000
7.031800 3.304100
7.056700 3.448500
7.081700 3.400700
7.106600 3.441000
7.131500 3.744700
7.156500 3.637900
7.181400 4.379200
7.206300 4.340300
7.231200 3.734600
7.256200 3.564700
7.281100 3.483800
7.306000 3.489500
7.331000 3.475200
7.355900 3.283400
7.380800 5.030800
7.405800 4.327200
7.430700 4.625000
7.455600 4.889300
7.480600 4.989900
7.505500 5.208800
7.530400 5.216100
7.555300 5.040800
7.580300 4.991300
7.605200 4.965800
7.630100 5.054200
7.655100 5.220800
7.680000 5.202300
7.704900 5.161600
7.729900 5.171800
7.754800 5.109600
7.779700 5.186000
7.804600 5.574700
7.829600 5.654400
7.854500 5.642900
7.879400 5.738900
7.904400 5.441800
7.929300 5.219800
7.954200 5.229600
7.979200 5.508000
8.004100 6.358700
8.029000 5.537500
8.053900 5.313700
8.078900 4.896200
8.103800 4.720500
8.128700 4.507900
8.153700 4.309500
8.178600 4.667000
8.203500 4.239500
8.228500 3.699400
8.253400 3.350000
8.278300 3.029400
8.303300 2.898800
8.328200 2.854300
8.353100 2.844800
8.378000 2.878500
8.403000 2.931000
8.427900 2.982700
8.452800 3.063500
8.477800 3.138700
8.502700 3.179800
8.527600 3.135500
8.552600 3.090000
8.577500 2.882400
8.602400 2.784800
8.627300 2.816700
8.652300 2.818400
8.677200 2.823600
8.702100 2.757600
8.727100 2.702300
8.752000 2.630400
8.776900 2.491100
8.801900 2.343000
8.826800 2.311100
8.851700 2.292900
8.876600 2.282300
8.901600 2.279700
8.926500 2.286100
8.951400 2.297800
8.976400 2.337400
9.001300 2.401600
9.026200 2.517000
9.051200 3.031200
9.076100 3.165000
9.101000 3.082000
9.125900 3.190000
9.150900 3.384000
9.175800 3.540200
9.200700 3.730100
9.225700 3.980400
9.250600 4.249600
9.275500 4.159500
9.300500 3.909900
9.325400 3.598400
9.350300 3.201700
9.375300 2.805700
9.400200 2.018100
9.425100 1.657000
9.450000 1.539900
9.475000 1.123600
9.499900 1.397000
9.524800 1.861500
9.549800 2.136500
9.574700 2.487800
9.599600 2.758100
9.624600 2.716500
9.649500 2.776400
9.674400 3.078300
9.699300 3.402100
9.724300 3.627500
9.749200 3.992100
9.774100 4.425300
9.799100 4.475800
9.824000 3.769700
9.848900 3.705900
9.873900 3.695100
9.898800 3.693600
9.923700 3.724900
9.948600 3.679200
9.973600 3.600200
9.998500 3.687000
10.023400 3.780000
10.048400 3.869500
10.073300 3.910400
10.098200 3.916700
10.123200 3.905500
10.148100 3.978800
10.173000 4.059300
10.198000 4.105700
10.222900 4.105800
10.247800 3.954400
10.272700 3.916500
10.297700 3.796100
10.322600 3.662900
10.347500 3.506100
10.372500 3.316500
10.397400 3.150400
10.422300 3.026800
10.447300 2.919900
10.472200 2.813400
10.497100 2.712400
10.522000 2.619900
10.547000 2.495900
10.571900 2.317600
10.596800 2.580200
10.621800 2.050800
10.646700 1.879000
10.671600 1.842400
10.696600 1.866500
10.721500 1.784400
10.746400 1.888900
10.771300 2.102100
10.796300 2.406000
10.821200 3.247900
10.846100 2.650900
10.871100 2.749700
10.896000 2.817200
10.920900 2.832700
10.945900 2.812400
10.970800 2.834200
10.995700 2.919200
11.020700 3.012700
11.045600 3.199800
11.070500 3.347100
11.095400 3.495600
11.120400 3.693700
11.145300 3.644500
11.170200 3.429600
11.195200 3.378500
11.220100 3.333000
11.245000 3.308300
11.270000 3.464100
11.294900 3.922200
11.319800 4.167100
11.344700 4.138100
11.369700 4.080400
11.394600 4.350700
11.419500 4.163800
11.444500 2.819900
11.469400 2.953300
11.494300 3.093700
11.519300 3.350000
11.544200 3.323000
11.569100 3.710600
11.594000 3.309800
11.619000 3.511600
11.643900 3.398900
11.668800 3.185700
11.693800 2.812900
11.718700 2.538600
11.743600 2.338200
11.768600 2.035400
11.793500 1.617300
11.818400 1.607300
11.843400 1.699400
11.868300 1.818500
11.893200 1.994000
11.918100 2.199700
11.943100 2.086100
11.968000 2.153900
11.992900 2.258100
12.017900 2.432700
12.042800 2.820000
12.067700 2.985700
12.092700 3.102200
12.117600 3.306000
12.142500 3.814600
12.167400 3.904700
12.192400 3.932000
12.217300 4.152300
12.242200 4.487200
12.267200 4.738000
12.292100 4.398800
12.317000 5.356300
12.342000 5.587200
12.366900 5.346100
12.391800 5.220700
12.416700 5.274900
12.441700 5.169900
12.466600 5.067400
12.491500 5.479900
12.516500 5.958900
12.541400 6.670200
12.566300 7.581300
12.591300 7.435500
12.616200 6.486800
12.641100 5.859000
12.666000 4.470400
12.691000 3.297500
12.715900 2.764800
12.740800 2.371500
12.765800 2.399700
12.790700 2.143500
12.815600 2.300100
12.840600 2.462200
12.865500 2.754400
12.890400 3.445100
12.915400 4.108100
12.940300 4.635100
12.965200 4.797900
12.990100 4.817300
13.015100 4.624800
13.040000 4.474800
13.064900 4.396200
13.089900 4.268700
13.114800 4.248400
13.139700 4.176900
13.164700 4.880600
13.189600 5.174000
13.214500 4.926400
13.239400 4.842800
13.264400 4.928700
13.289300 5.224000
13.314200 4.013800
13.339200 3.630300
13.364100 3.422200
13.389000 3.322100
13.414000 3.239100
13.438900 3.213000
13.463800 3.254400
13.488700 4.111800
13.513700 4.064200
13.538600 3.842300
13.563500 3.850000
13.588500 3.779600
13.613400 3.725100
13.638300 3.636800
13.663300 3.518500
13.688200 3.520900
13.713100 3.548500
13.738100 3.928300
13.763000 4.308600
13.787900 4.258000
13.812800 4.690700
13.837800 4.574900
13.862700 4.365500
13.887600 4.119400
13.912600 3.703700
13.937500 3.460200
13.962400 3.723000
13.987400 3.538600
14.012300 3.484400
14.037200 3.466600
14.062100 3.553500
14.087100 3.561200
14.112000 3.499500
14.136900 3.464700
14.161900 3.517300
14.186800 3.519500
14.211700 3.464900
14.236700 3.177800
14.261600 3.039200
14.286500 3.015400
14.311400 3.025500
14.336400 3.071500
14.361300 3.138800
14.386200 3.153600
14.411200 3.139000
14.436100 3.185600
14.461000 3.255100
14.486000 3.416600
14.510900 3.449800
14.535800 3.397500
14.560800 3.766700
14.585700 3.833600
14.610600 3.559900
14.635500 3.198700
14.660500 2.925100
14.685400 2.815000
14.710300 2.816700
14.735300 2.840000
14.760200 2.867400
14.785100 2.827400
14.810100 2.737000
14.835000 2.645900
14.859900 2.420000
14.884800 2.451700
14.909800 2.609600
14.934700 2.875200
14.959600 2.960400
14.984600 2.915100
15.009500 3.130000
15.034400 2.829000
15.059400 2.606300
15.084300 2.294500
15.109200 1.548900
15.134100 1.155200
15.159100 1.196200
15.184000 1.273300
15.208900 1.343900
15.233900 1.348500
15.258800 0.998100
15.283700 0.943200
15.308700 0.896200
15.333600 1.051900
15.358500 1.337100
15.383400 1.475100
15.408400 1.518600
15.433300 1.304500
15.458200 1.625800
15.483200 1.458100
15.508100 1.506000
15.533000 1.547200
15.558000 1.582100
15.582900 1.610800
15.607800 1.607000
15.632800 1.817000
15.657700 2.224500
15.682600 2.734600
15.707500 2.454700
15.732500 1.996100
15.757400 1.701900
15.782300 1.623200
15.807300 1.676400
15.832200 1.894300
15.857100 2.142000
15.882100 2.284100
15.907000 2.441400
15.931900 2.414100
15.956800 2.483700
15.981800 2.586400
16.006700 3.376000
16.031600 4.629100
16.056600 3.164800
16.081500 3.734100
16.106400 3.566100
16.131400 3.518100
16.156300 3.639700
16.181200 3.718400
16.206100 3.723700
16.231100 3.751200
16.256000 3.732600
16.280900 3.742000
16.305900 3.856500
16.330800 4.007400
16.355700 4.112700
16.380700 4.143500
16.405600 4.263500
16.430500 4.578300
16.455500 4.717800
16.480400 4.107700
16.505300 3.844300
16.530200 3.608400
16.555200 3.527000
16.580100 3.436100
16.605000 3.659200
16.630000 4.059800
16.654900 4.273100
16.679800 4.434100
16.704800 4.502400
16.729700 4.345600
16.754600 4.019700
16.779500 3.720200
16.804500 3.567500
16.829400 3.306300
16.854300 3.213100
16.879300 3.163700
16.904200 3.125100
16.929100 3.093800
16.954100 3.069800
16.979000 3.069500
17.003900 3.355000
17.028800 3.340500
17.053800 3.299200
17.078700 3.324500
17.103600 3.353400
17.128600 3.389200
17.153500 3.433200
17.178400 3.419000
17.203400 3.359600
17.228300 3.258400
17.253200 3.192900
17.278200 3.154200
17.303100 3.116500
17.328000 3.109600
17.352900 3.105900
17.377900 3.145000
17.402800 3.235900
17.427700 3.352600
17.452700 3.516600
17.477600 3.681800
17.502500 3.823200
17.527500 3.671000
17.552400 3.522200
17.577300 3.553100
17.602200 3.645800
17.627200 3.768200
17.652100 3.818100
17.677000 3.606300
17.702000 3.474200
17.726900 3.894500
17.751800 3.500800
17.776800 3.464100
17.801700 3.419500
17.826600 3.135200
17.851500 3.005600
17.876500 2.930100
17.901400 2.778800
17.926300 2.669100
17.951300 2.662500
17.976200 2.563900
18.001100 2.547100
18.026100 2.381300
18.051000 2.372600
18.075900 2.402500
18.100800 2.385700
18.125800 2.232800
18.150700 3.157300
18.175600 2.634700
18.200600 2.372000
18.225500 2.406300
18.250400 2.361600
18.275400 2.233500
18.300300 2.181700
18.325200 2.225400
18.350200 2.288100
18.375100 2.365600
18.400000 2.524000
18.424900 2.692000
18.449900 2.801400
18.474800 2.948400
18.499700 2.696000
18.524700 3.031600
18.549600 3.231400
18.574500 3.335900
18.599500 3.474400
18.624400 3.565000
18.649300 3.632500
18.674200 3.848800
18.699200 3.802400
18.724100 3.834300
18.749000 3.870200
18.774000 3.941700
18.798900 3.981800
18.823800 4.078500
18.848800 4.343400
18.873700 4.709300
18.898600 4.469000
18.923500 4.838200
18.948500 3.865600
18.973400 4.003000
18.998300 4.102700
19.023300 4.355500
19.048200 4.590500
19.073100 4.884900
19.098100 5.087300
19.123000 5.165600
19.147900 5.717800
19.172900 5.507000
19.197800 7.576200
19.222700 6.507300
19.247600 6.311700
19.272600 5.956500
19.297500 4.788000
19.322400 4.715500
19.347400 4.753400
19.372300 4.570300
19.397200 5.007100
19.422200 4.261900
19.447100 4.082800
19.472000 4.489300
19.496900 4.523400
19.521900 4.682700
19.546800 4.248600
19.571700 3.775100
19.596700 3.592700
19.621600 3.704600
19.646500 4.015800
19.671500 4.649300
19.696400 4.437900
19.721300 4.033700
19.746200 4.023900
19.771200 4.002000
19.796100 4.100400
19.821000 4.260100
19.846000 4.787100
19.870900 5.575500
19.895800 4.974100
19.920800 4.400800
19.945700 4.387400
19.970600 4.182700
19.995600 3.971300
20.020500 3.714400
20.045400 3.491800
20.070300 3.479900
20.095300 3.435600
20.120200 3.436200
20.145100 3.464600
20.170100 3.427800
20.195000 3.373000
20.219900 3.421800
20.244900 3.425400
20.269800 3.330600
20.294700 3.338400
20.319600 3.338800
20.344600 3.515200
20.369500 3.643800
20.394400 3.703400
20.419400 3.720800
20.444300 3.729600
20.469200 3.770000
20.494200 3.741100
20.519100 3.662900
20.544000 3.587900
20.568900 3.589100
20.593900 3.820300
20.618800 4.261900
20.643700 4.114100
20.668700 4.107400
20.693600 4.270600
20.718500 4.392900
20.743500 4.367200
20.768400 4.786400
20.793300 5.135900
20.818300 4.935700
20.843200 4.997600
20.868100 4.483800
20.893000 4.037000
20.918000 3.693200
20.942900 3.382100
20.967800 3.178700
20.992800 3.133600
21.017700 2.723100
21.042600 2.689600
21.067600 2.756600
21.092500 2.527500
21.117400 2.414500
21.142300 2.904100
21.167300 3.624700
21.192200 3.391100
21.217100 3.420600
21.242100 3.417300
21.267000 3.365400
21.291900 3.299400
21.316900 3.176600
21.341800 3.071800
21.366700 2.991600
21.391600 2.906200
21.416600 2.806900
21.441500 2.677800
21.466400 2.594700
21.491400 2.623500
21.516300 2.800300
21.541200 3.089700
21.566200 3.692500
21.591100 4.052200
21.616000 3.931200
21.640900 3.952600
21.665900 4.083800
21.690800 4.440400
21.715700 4.666700
21.740700 5.071100
21.765600 5.380800
21.790500 4.742000
21.815500 3.790200
21.840400 3.401800
21.865300 3.061700
21.890300 2.779600
21.915200 2.515400
21.940100 2.243400
21.965000 1.989900
21.990000 1.774300
22.014900 1.585100
22.039800 1.490300
22.064800 1.413800
22.089700 1.320300
22.114600 1.314500
22.139600 1.199200
22.164500 1.082700
22.189400 1.023900
22.214300 0.937900
22.239300 0.844400
22.264200 0.768000
22.289100 0.708700
22.314100 0.668000
22.339000 0.633300
22.363900 0.600500
22.388900 0.601800
22.413800 0.555800
22.438700 0.511900
22.463600 0.470200
22.488600 0.430700
22.513500 0.393500
22.538400 0.370600
22.563400 0.269800
22.588300 0.235400
22.613200 0.204200
22.638200 0.177100
22.663100 0.155200
22.688000 0.138100
22.713000 0.103100
22.737900 0.096000
22.762800 0.088900
22.787700 0.081700
22.812700 0.074400
22.837600 0.067100
22.862500 0.000000
22.887500 0.000000
22.912400 0.000000
22.937300 0.000000
22.962300 0.000000
22.987200 0.000000
23.012100 0.000000
23.037000 0.000000
23.062000 0.000000
23.086900 0.000000
23.111800 0.000000
23.136800 0.000000
23.161700 0.000000
23.186600 0.000000
23.211600 0.000000
23.236500 0.000000
23.261400 0.000000
23.286300 0.000000
23.311300 0.000000
23.336200 0.000000
23.361100 0.000000
23.386100 0.000000
23.411000 0.000000
23.435900 0.000000
23.460900 0.000000
23.485800 0.000000
23.510700 0.000000
23.535700 0.000000
23.560600 0.000000
23.585500 0.000000
23.610400 0.000000
23.635400 0.000000
23.660300 0.000000
23.685200 0.000000
23.710200 0.000000
23.735100 0.000000
23.760000 0.000000
23.785000 0.000000
23.809900 0.000000
23.834800 0.000000
23.859700 0.000000
23.884700 0.000000
23.909600 0.000000
23.934500 0.000000
23.959500 0.000000
23.984400 0.000000
24.009300 0.000000
24.034300 0.000000
24.059200 0.000000
24.084100 0.000000
24.109000 0.000000
24.134000 0.000000
24.158900 0.000000
24.183800 0.000000
24.208800 0.000000
24.233700 0.000000
24.258600 0.000000
24.283600 0.000000
24.308500 0.000000
24.333400 0.000000
24.358300 0.000000
24.383300 0.000000
24.408200 0.000000
24.433100 0.000000
24.458100 0.000000
24.483000 0.000000
24.507900 0.000000
24.532900 0.000000
24.557800 0.000000
24.582700 0.000000
24.607700 0.000000
24.632600 0.000000
24.657500 0.000000
24.682400 0.000000
24.707400 0.000000
24.732300 0.000000
24.757200 0.000000
24.782200 0.000000
24.807100 0.000000
24.832000 0.000000
24.857000 0.000000
24.881900 0.000000
24.906800 0.000000
24.931700 0.000000
24.956700 0.000000
24.981600 0.000000
25.006500 0.000000
25.031500 0.000000
25.056400 0.000000
25.081300 0.000000
25.106300 0.000000
e
