set title 'mp-1416 - Density of States'
set xlabel 'Energy (eV)'
set ylabel 'DOS (states/eV)'
set grid
set xrange [-10:10]
set yrange [0:10.947]
set xzeroaxis lt -1
set terminal png size 800,600
set output 'mp-1416_dos_gnuplot.png'
plot '-' using 1:2 with lines title 'DOS'
-37.210700 0.000000
-37.166100 0.000000
-37.121400 0.000000
-37.076800 0.000000
-37.032100 0.000000
-36.987500 0.000000
-36.942900 0.000000
-36.898200 0.000000
-36.853600 0.000000
-36.808900 0.000000
-36.764300 0.000000
-36.719700 0.000000
-36.675000 0.000000
-36.630400 0.000000
-36.585700 0.000000
-36.541100 0.000000
-36.496500 0.000000
-36.451800 0.000000
-36.407200 0.000000
-36.362500 0.000000
-36.317900 0.000000
-36.273300 0.000000
-36.228600 0.000000
-36.184000 0.000000
-36.139300 0.000000
-36.094700 0.000000
-36.050100 0.000000
-36.005400 0.000000
-35.960800 0.000000
-35.916100 0.000000
-35.871500 0.000000
-35.826800 0.000000
-35.782200 0.000000
-35.737600 0.000000
-35.692900 0.000000
-35.648300 0.000000
-35.603600 0.000000
-35.559000 0.000000
-35.514400 0.000000
-35.469700 0.000000
-35.425100 0.000000
-35.380400 0.000000
-35.335800 0.000000
-35.291200 0.000000
-35.246500 0.000000
-35.201900 0.000000
-35.157200 0.000000
-35.112600 0.000000
-35.068000 0.000000
-35.023300 0.000000
-34.978700 0.000000
-34.934000 0.000000
-34.889400 0.000000
-34.844700 0.000000
-34.800100 0.000000
-34.755500 0.000000
-34.710800 0.000000
-34.666200 0.000000
-34.621500 0.000000
-34.576900 0.000000
-34.532300 0.000000
-34.487600 0.000000
-34.443000 0.000000
-34.398300 0.000000
-34.353700 0.000000
-34.309100 0.000000
-34.264400 0.000000
-34.219800 0.000000
-34.175100 0.000000
-34.130500 0.000000
-34.085900 0.000000
-34.041200 0.000000
-33.996600 0.000000
-33.951900 0.000000
-33.907300 0.000000
-33.862700 0.000000
-33.818000 0.000000
-33.773400 0.000000
-33.728700 0.000000
-33.684100 0.000000
-33.639400 0.000000
-33.594800 0.000000
-33.550200 0.000000
-33.505500 0.000000
-33.460900 0.000000
-33.416200 0.000000
-33.371600 0.000000
-33.327000 0.000000
-33.282300 0.000000
-33.237700 0.000000
-33.193000 0.000000
-33.148400 77.625800
-33.103800 0.000000
-33.059100 0.000000
-33.014500 0.000000
-32.969800 0.000000
-32.925200 0.000000
-32.880600 0.000000
-32.835900 0.000000
-32.791300 8.303900
-32.746600 7.475400
-32.702000 9.599900
-32.657400 25.487100
-32.612700 0.000000
-32.568100 0.000000
-32.523400 0.000000
-32.478800 0.000000
-32.434100 0.000000
-32.389500 0.000000
-32.344900 0.000000
-32.300200 0.000000
-32.255600 0.000000
-32.210900 0.000000
-32.166300 0.000000
-32.121700 0.000000
-32.077000 0.000000
-32.032400 0.000000
-31.987700 0.000000
-31.943100 0.000000
-31.898500 0.000000
-31.853800 0.000000
-31.809200 0.000000
-31.764500 0.000000
-31.719900 0.000000
-31.675300 0.000000
-31.630600 0.000000
-31.586000 0.000000
-31.541300 0.000000
-31.496700 0.000000
-31.452000 0.000000
-31.407400 0.000000
-31.362800 0.000000
-31.318100 0.000000
-31.273500 0.000000
-31.228800 0.000000
-31.184200 0.000000
-31.139600 0.000000
-31.094900 0.000000
-31.050300 0.000000
-31.005600 0.000000
-30.961000 0.000000
-30.916400 0.000000
-30.871700 0.000000
-30.827100 0.000000
-30.782400 0.000000
-30.737800 0.000000
-30.693200 0.000000
-30.648500 0.000000
-30.603900 0.000000
-30.559200 0.000000
-30.514600 0.000000
-30.470000 0.000000
-30.425300 0.000000
-30.380700 0.000000
-30.336000 0.000000
-30.291400 0.000000
-30.246700 0.000000
-30.202100 0.000000
-30.157500 0.000000
-30.112800 0.000000
-30.068200 0.000000
-30.023500 0.000000
-29.978900 0.000000
-29.934300 0.000000
-29.889600 0.000000
-29.845000 0.000000
-29.800300 0.000000
-29.755700 0.000000
-29.711100 0.000000
-29.666400 0.000000
-29.621800 0.000000
-29.577100 0.000000
-29.532500 0.000000
-29.487900 0.000000
-29.443200 0.000000
-29.398600 0.000000
-29.353900 0.000000
-29.309300 0.000000
-29.264600 0.000000
-29.220000 0.000000
-29.175400 0.000000
-29.130700 0.000000
-29.086100 0.000000
-29.041400 0.000000
-28.996800 0.000000
-28.952200 0.000000
-28.907500 0.000000
-28.862900 0.000000
-28.818200 0.000000
-28.773600 0.000000
-28.729000 0.000000
-28.684300 0.000000
-28.639700 0.000000
-28.595000 0.000000
-28.550400 0.000000
-28.505800 0.000000
-28.461100 0.000000
-28.416500 0.000000
-28.371800 0.000000
-28.327200 0.000000
-28.282600 0.000000
-28.237900 0.000000
-28.193300 0.000000
-28.148600 0.000000
-28.104000 0.000000
-28.059300 0.000000
-28.014700 0.000000
-27.970100 0.000000
-27.925400 0.000000
-27.880800 0.000000
-27.836100 0.000000
-27.791500 0.000000
-27.746900 0.000000
-27.702200 0.000000
-27.657600 0.000000
-27.612900 0.000000
-27.568300 0.000000
-27.523700 0.000000
-27.479000 0.000000
-27.434400 0.000000
-27.389700 0.000000
-27.345100 0.000000
-27.300500 0.000000
-27.255800 0.000000
-27.211200 0.000000
-27.166500 0.000000
-27.121900 0.000000
-27.077200 0.000000
-27.032600 0.000000
-26.988000 0.000000
-26.943300 0.000000
-26.898700 0.000000
-26.854000 0.000000
-26.809400 0.000000
-26.764800 0.000000
-26.720100 0.000000
-26.675500 0.000000
-26.630800 0.000000
-26.586200 0.000000
-26.541600 0.000000
-26.496900 0.000000
-26.452300 0.000000
-26.407600 0.000000
-26.363000 0.000000
-26.318400 0.000000
-26.273700 0.000000
-26.229100 0.000000
-26.184400 0.000000
-26.139800 0.000000
-26.095200 0.000000
-26.050500 0.000000
-26.005900 0.000000
-25.961200 0.000000
-25.916600 0.000000
-25.871900 0.000000
-25.827300 0.000000
-25.782700 0.000000
-25.738000 0.000000
-25.693400 0.000000
-25.648700 0.000000
-25.604100 0.000000
-25.559500 0.000000
-25.514800 0.000000
-25.470200 0.000000
-25.425500 0.000000
-25.380900 0.000000
-25.336300 0.000000
-25.291600 0.000000
-25.247000 0.000000
-25.202300 0.000000
-25.157700 0.000000
-25.113100 0.000000
-25.068400 0.000000
-25.023800 0.000000
-24.979100 0.000000
-24.934500 0.000000
-24.889800 0.000000
-24.845200 0.000000
-24.800600 0.000000
-24.755900 0.000000
-24.711300 0.000000
-24.666600 0.000000
-24.622000 0.000000
-24.577400 0.000000
-24.532700 0.000000
-24.488100 0.000000
-24.443400 0.000000
-24.398800 0.000000
-24.354200 0.000000
-24.309500 0.000000
-24.264900 0.000000
-24.220200 0.000000
-24.175600 0.000000
-24.131000 0.000000
-24.086300 0.027900
-24.041700 1.693200
-23.997000 6.009000
-23.952400 2.219000
-23.907800 2.803600
-23.863100 2.926800
-23.818500 2.504200
-23.773800 2.146700
-23.729200 2.183000
-23.684500 2.528600
-23.639900 2.272600
-23.595300 2.310200
-23.550600 2.347800
-23.506000 3.737000
-23.461300 3.833300
-23.416700 0.000000
-23.372100 0.000000
-23.327400 0.000000
-23.282800 0.000000
-23.238100 2.074500
-23.193500 6.835100
-23.148900 6.551500
-23.104200 1.810900
-23.059600 0.000000
-23.014900 0.000000
-22.970300 0.000000
-22.925700 0.000000
-22.881000 0.000000
-22.836400 0.000000
-22.791700 0.000000
-22.747100 0.000000
-22.702400 0.000000
-22.657800 0.000000
-22.613200 0.000000
-22.568500 0.000000
-22.523900 0.000000
-22.479200 0.000000
-22.434600 0.000000
-22.390000 1.200100
-22.345300 4.001700
-22.300700 18.728900
-22.256000 3.516900
-22.211400 0.243200
-22.166800 0.000000
-22.122100 0.000000
-22.077500 0.000000
-22.032800 0.000000
-21.988200 0.000000
-21.943600 0.000000
-21.898900 0.000000
-21.854300 0.000000
-21.809600 0.000000
-21.765000 0.000000
-21.720400 0.000000
-21.675700 0.000000
-21.631100 0.000000
-21.586400 0.000000
-21.541800 0.000000
-21.497100 0.000000
-21.452500 0.000000
-21.407900 0.000000
-21.363200 0.000000
-21.318600 0.000000
-21.273900 0.000000
-21.229300 0.000000
-21.184700 0.000000
-21.140000 0.000000
-21.095400 0.000000
-21.050700 0.000000
-21.006100 0.000000
-20.961500 0.000000
-20.916800 0.000000
-20.872200 0.000000
-20.827500 0.000000
-20.782900 0.000000
-20.738300 0.000000
-20.693600 0.000000
-20.649000 0.000000
-20.604300 0.000000
-20.559700 0.000000
-20.515000 0.000000
-20.470400 0.000000
-20.425800 0.000000
-20.381100 0.000000
-20.336500 0.000000
-20.291800 0.000000
-20.247200 0.000000
-20.202600 0.000000
-20.157900 0.000000
-20.113300 0.000000
-20.068600 0.000000
-20.024000 0.000000
-19.979400 0.000000
-19.934700 0.000000
-19.890100 0.000000
-19.845400 0.000000
-19.800800 0.000000
-19.756200 0.000000
-19.711500 0.000000
-19.666900 0.000000
-19.622200 0.000000
-19.577600 0.000000
-19.533000 0.000000
-19.488300 0.000000
-19.443700 0.000000
-19.399000 0.000000
-19.354400 0.000000
-19.309700 0.000000
-19.265100 0.000000
-19.220500 0.000000
-19.175800 0.000000
-19.131200 0.000000
-19.086500 0.000000
-19.041900 0.000000
-18.997300 0.000000
-18.952600 0.000000
-18.908000 0.000000
-18.863300 0.000000
-18.818700 0.000000
-18.774100 0.000000
-18.729400 0.000000
-18.684800 0.000000
-18.640100 0.000000
-18.595500 0.000000
-18.550900 0.000000
-18.506200 0.000000
-18.461600 0.000000
-18.416900 0.000000
-18.372300 0.000000
-18.327600 0.000000
-18.283000 0.000000
-18.238400 0.000000
-18.193700 0.000000
-18.149100 0.000000
-18.104400 0.000000
-18.059800 0.000000
-18.015200 0.000000
-17.970500 0.000000
-17.925900 0.000000
-17.881200 0.000000
-17.836600 0.000000
-17.792000 0.000000
-17.747300 0.000000
-17.702700 0.000000
-17.658000 0.000000
-17.613400 0.000000
-17.568800 0.000000
-17.524100 0.000000
-17.479500 0.000000
-17.434800 0.000000
-17.390200 0.000000
-17.345600 0.000000
-17.300900 0.000000
-17.256300 0.000000
-17.211600 0.000000
-17.167000 0.000000
-17.122300 0.000000
-17.077700 0.000000
-17.033100 0.000000
-16.988400 0.000000
-16.943800 0.000000
-16.899100 0.000000
-16.854500 0.000000
-16.809900 0.000000
-16.765200 0.000000
-16.720600 0.000000
-16.675900 0.000000
-16.631300 0.000000
-16.586700 0.000000
-16.542000 0.000000
-16.497400 0.000000
-16.452700 0.000000
-16.408100 0.000000
-16.363500 0.000000
-16.318800 0.000000
-16.274200 0.000000
-16.229500 0.000000
-16.184900 0.000000
-16.140200 0.000000
-16.095600 0.000000
-16.051000 0.000000
-16.006300 0.000000
-15.961700 0.000000
-15.917000 0.000000
-15.872400 0.000000
-15.827800 0.000000
-15.783100 0.000000
-15.738500 0.000000
-15.693800 0.000000
-15.649200 0.000000
-15.604600 0.000000
-15.559900 0.000000
-15.515300 0.000000
-15.470600 0.000000
-15.426000 0.000000
-15.381400 0.000000
-15.336700 0.000000
-15.292100 0.000000
-15.247400 0.000000
-15.202800 0.000000
-15.158200 0.000000
-15.113500 0.000000
-15.068900 0.000000
-15.024200 0.000000
-14.979600 0.000000
-14.934900 0.000000
-14.890300 0.000000
-14.845700 0.000000
-14.801000 0.000000
-14.756400 0.000000
-14.711700 0.000000
-14.667100 0.000000
-14.622500 0.000000
-14.577800 0.000000
-14.533200 0.000000
-14.488500 0.000000
-14.443900 0.000000
-14.399300 0.000000
-14.354600 0.000000
-14.310000 0.000000
-14.265300 0.000000
-14.220700 0.000000
-14.176100 0.000000
-14.131400 0.000000
-14.086800 0.000000
-14.042100 0.000000
-13.997500 0.000000
-13.952800 0.000000
-13.908200 0.000000
-13.863600 0.000000
-13.818900 0.000000
-13.774300 0.000000
-13.729600 0.000000
-13.685000 0.000000
-13.640400 0.000000
-13.595700 0.000000
-13.551100 0.000000
-13.506400 0.000000
-13.461800 0.000000
-13.417200 0.000000
-13.372500 0.000000
-13.327900 0.000000
-13.283200 0.000000
-13.238600 0.000000
-13.194000 0.000000
-13.149300 0.000000
-13.104700 0.000000
-13.060000 0.000000
-13.015400 0.000000
-12.970800 0.000000
-12.926100 0.000000
-12.881500 0.000000
-12.836800 0.000000
-12.792200 0.000000
-12.747500 0.000000
-12.702900 0.000000
-12.658300 0.000000
-12.613600 0.000000
-12.569000 0.000000
-12.524300 0.000000
-12.479700 0.000000
-12.435100 0.000000
-12.390400 0.000000
-12.345800 0.000000
-12.301100 0.000000
-12.256500 0.000000
-12.211900 0.000000
-12.167200 0.000000
-12.122600 0.000000
-12.077900 0.000000
-12.033300 0.000000
-11.988700 0.000000
-11.944000 0.000000
-11.899400 0.000000
-11.854700 0.000000
-11.810100 0.000000
-11.765400 0.000000
-11.720800 0.000000
-11.676200 0.000000
-11.631500 0.000000
-11.586900 0.000000
-11.542200 0.000000
-11.497600 0.000000
-11.453000 0.000000
-11.408300 0.000000
-11.363700 0.000000
-11.319000 0.000000
-11.274400 0.000000
-11.229800 0.000000
-11.185100 0.000000
-11.140500 0.000000
-11.095800 0.000000
-11.051200 0.000000
-11.006600 0.000000
-10.961900 0.000000
-10.917300 0.000000
-10.872600 0.000000
-10.828000 0.000000
-10.783400 0.000000
-10.738700 0.000000
-10.694100 0.000000
-10.649400 0.000000
-10.604800 0.000000
-10.560100 0.000000
-10.515500 0.000000
-10.470900 0.000000
-10.426200 0.000000
-10.381600 0.000000
-10.336900 0.000000
-10.292300 0.000000
-10.247700 0.000000
-10.203000 0.000000
-10.158400 0.000000
-10.113700 0.000000
-10.069100 0.000000
-10.024500 0.000000
-9.979800 0.000000
-9.935200 0.000000
-9.890500 0.000000
-9.845900 0.000000
-9.801300 0.000000
-9.756600 0.000000
-9.712000 0.000000
-9.667300 0.000000
-9.622700 0.000000
-9.578000 0.000000
-9.533400 0.000000
-9.488800 0.000000
-9.444100 0.000000
-9.399500 0.000000
-9.354800 0.000000
-9.310200 0.000000
-9.265600 0.000000
-9.220900 0.000000
-9.176300 0.000000
-9.131600 0.000000
-9.087000 0.000000
-9.042400 0.000000
-8.997700 0.000000
-8.953100 0.000000
-8.908400 0.000000
-8.863800 0.000000
-8.819200 0.000000
-8.774500 0.000000
-8.729900 0.000000
-8.685200 0.000000
-8.640600 0.000000
-8.596000 0.000000
-8.551300 0.000000
-8.506700 0.000000
-8.462000 0.000000
-8.417400 0.000000
-8.372700 0.000000
-8.328100 0.000000
-8.283500 0.000000
-8.238800 0.000000
-8.194200 0.000000
-8.149500 0.000000
-8.104900 0.000000
-8.060300 0.000000
-8.015600 0.000000
-7.971000 0.000000
-7.926300 0.000000
-7.881700 0.000000
-7.837100 0.915400
-7.792400 1.169800
-7.747800 1.133900
-7.703100 1.276000
-7.658500 1.278400
-7.613900 1.280700
-7.569200 1.284500
-7.524600 0.852400
-7.479900 0.748700
-7.435300 0.726300
-7.390600 0.727600
-7.346000 0.729000
-7.301400 0.730300
-7.256700 0.731700
-7.212100 0.733000
-7.167400 0.734300
-7.122800 0.735700
-7.078200 0.737000
-7.033500 0.988900
-6.988900 0.642000
-6.944200 0.641800
-6.899600 0.641600
-6.855000 0.641400
-6.810300 0.641200
-6.765700 0.641000
-6.721000 0.640800
-6.676400 0.640600
-6.631800 0.640400
-6.587100 0.640200
-6.542500 0.966100
-6.497800 1.437700
-6.453200 1.634400
-6.408600 1.692600
-6.363900 1.711700
-6.319300 2.080100
-6.274600 2.363300
-6.230000 3.636500
-6.185300 4.450700
-6.140700 5.285500
-6.096100 4.154800
-6.051400 3.688200
-6.006800 3.967100
-5.962100 4.095900
-5.917500 4.586900
-5.872900 4.822500
-5.828200 4.328100
-5.783600 4.629100
-5.738900 4.346000
-5.694300 3.406800
-5.649700 3.066400
-5.605000 2.944000
-5.560400 2.714300
-5.515700 2.666000
-5.471100 2.691300
-5.426500 2.598500
-5.381800 2.243300
-5.337200 2.180800
-5.292500 1.968900
-5.247900 1.894500
-5.203200 1.851200
-5.158600 2.052600
-5.114000 2.059300
-5.069300 2.389700
-5.024700 2.195700
-4.980000 1.617900
-4.935400 1.114700
-4.890800 2.338700
-4.846100 2.665900
-4.801500 2.962900
-4.756800 3.833000
-4.712200 2.889100
-4.667600 2.481300
-4.622900 2.635000
-4.578300 2.843700
-4.533600 2.781900
-4.489000 2.656100
-4.444400 2.768000
-4.399700 2.233400
-4.355100 2.164400
-4.310400 3.081500
-4.265800 5.504300
-4.221200 4.320000
-4.176500 3.630000
-4.131900 4.956100
-4.087200 6.917500
-4.042600 7.108200
-3.997900 5.613100
-3.953300 5.768500
-3.908700 9.951400
-3.864000 5.286800
-3.819400 9.380800
-3.774700 4.486000
-3.730100 5.422800
-3.685500 8.094800
-3.640800 4.812800
-3.596200 3.829200
-3.551500 1.792200
-3.506900 0.000000
-3.462300 0.000000
-3.417600 0.000000
-3.373000 0.000000
-3.328300 0.000000
-3.283700 0.000000
-3.239100 0.000000
-3.194400 0.000000
-3.149800 0.000000
-3.105100 0.000000
-3.060500 0.000000
-3.015800 0.000000
-2.971200 0.000000
-2.926600 0.000000
-2.881900 0.000000
-2.837300 0.000000
-2.792600 0.000000
-2.748000 0.000000
-2.703400 0.000000
-2.658700 0.000000
-2.614100 0.000000
-2.569400 0.000000
-2.524800 0.000000
-2.480200 0.000000
-2.435500 0.000000
-2.390900 0.000000
-2.346200 0.000000
-2.301600 0.000000
-2.257000 0.000000
-2.212300 0.000000
-2.167700 0.000000
-2.123000 0.000000
-2.078400 0.000000
-2.033800 0.000000
-1.989100 0.000000
-1.944500 0.000000
-1.899800 0.000000
-1.855200 0.000000
-1.810500 0.000000
-1.765900 0.000000
-1.721300 0.000000
-1.676600 0.000000
-1.632000 0.000000
-1.587300 0.000000
-1.542700 0.000000
-1.498100 0.000000
-1.453400 0.000000
-1.408800 0.000000
-1.364100 0.000000
-1.319500 0.000000
-1.274900 0.000000
-1.230200 0.000000
-1.185600 0.000000
-1.140900 0.000000
-1.096300 0.000000
-1.051700 0.000000
-1.007000 0.000000
-0.962400 0.000000
-0.917700 0.000000
-0.873100 0.000000
-0.828400 0.000000
-0.783800 0.000000
-0.739200 0.000000
-0.694500 0.000000
-0.649900 0.000000
-0.605200 0.000000
-0.560600 0.000000
-0.516000 0.000000
-0.471300 0.000000
-0.426700 0.000000
-0.382000 0.000000
-0.337400 0.000000
-0.292800 0.000000
-0.248100 0.000000
-0.203500 0.000000
-0.158800 0.085500
-0.114200 0.243400
-0.069600 0.337400
-0.024900 0.294800
0.019700 0.272100
0.064400 0.298500
0.109000 0.324900
0.153600 0.351300
0.198300 0.355500
0.242900 0.349000
0.287600 0.367800
0.332200 0.382500
0.376900 0.397200
0.421500 0.411900
0.466100 0.426700
0.510800 0.455000
0.555400 0.491100
0.600100 0.514900
0.644700 0.537000
0.689300 0.559000
0.734000 0.581100
0.778600 0.616800
0.823300 0.753600
0.867900 0.847500
0.912500 0.911100
0.957200 1.433700
1.001800 1.208400
1.046500 0.817500
1.091100 0.762800
1.135700 0.708100
1.180400 0.605500
1.225000 0.583700
1.269700 0.565900
1.314300 0.540700
1.359000 0.515500
1.403600 0.490900
1.448200 0.700700
1.492900 1.876700
1.537500 3.738500
1.582200 5.095800
1.626800 3.242400
1.671400 2.826600
1.716100 2.538400
1.760700 1.989200
1.805400 1.735900
1.850000 1.735200
1.894600 1.875000
1.939300 1.919100
1.983900 1.808000
2.028600 1.812200
2.073200 1.816400
2.117800 2.504100
2.162500 2.972400
2.207100 2.975700
2.251800 3.973200
2.296400 0.000000
2.341000 0.000000
2.385700 0.000000
2.430300 0.043100
2.475000 0.109300
2.519600 0.175500
2.564300 0.205200
2.608900 0.212700
2.653500 0.220100
2.698200 0.227500
2.742800 0.233800
2.787500 0.240000
2.832100 0.255500
2.876700 0.289900
2.921400 0.325100
2.966000 0.360200
3.010700 0.398500
3.055300 0.426800
3.099900 0.497700
3.144600 0.602700
3.189200 0.869300
3.233900 0.832400
3.278500 0.785800
3.323100 0.721800
3.367800 0.653000
3.412400 0.552600
3.457100 0.382200
3.501700 0.373100
3.546300 0.366700
3.591000 0.361900
3.635600 0.365000
3.680300 0.378200
3.724900 0.397400
3.769600 0.418900
3.814200 0.421600
3.858800 0.423000
3.903500 0.408100
3.948100 0.416800
3.992800 0.436400
4.037400 0.459700
4.082000 0.468800
4.126700 0.460000
4.171300 0.446100
4.216000 0.434700
4.260600 0.427900
4.305200 0.430400
4.349900 0.430300
4.394500 0.429500
4.439200 0.427300
4.483800 0.424300
4.528400 0.422600
4.573100 0.423200
4.617700 0.419700
4.662400 0.419600
4.707000 0.423500
4.751700 0.426000
4.796300 0.429000
4.840900 0.417800
4.885600 0.418000
4.930200 0.430800
4.974900 0.435900
5.019500 0.436100
5.064100 0.444100
5.108800 0.446500
5.153400 0.448600
5.198100 0.449800
5.242700 0.450700
5.287300 0.452200
5.332000 0.455700
5.376600 0.460000
5.421300 0.464900
5.465900 0.482800
5.510500 0.515300
5.555200 0.601900
5.599800 0.605600
5.644500 0.660700
5.689100 0.688200
5.733700 0.718100
5.778400 0.744000
5.823000 0.775900
5.867700 0.809600
5.912300 0.850000
5.957000 0.909900
6.001600 1.042000
6.046200 1.025600
6.090900 1.070200
6.135500 1.308400
6.180200 1.715600
6.224800 2.644900
6.269400 1.146600
6.314100 0.990900
6.358700 0.217300
6.403400 0.222000
6.448000 0.226800
6.492600 0.232000
6.537300 0.235600
6.581900 0.237200
6.626600 0.240600
6.671200 0.244200
6.715800 0.247900
6.760500 0.251600
6.805100 0.255500
6.849800 0.259800
6.894400 0.263900
6.939100 0.268300
6.983700 0.272900
7.028300 0.277700
7.073000 0.282600
7.117600 0.287600
7.162300 0.292900
7.206900 0.299000
7.251500 0.305200
7.296200 0.311500
7.340800 0.317700
7.385500 0.324500
7.430100 0.331500
7.474700 0.339300
7.519400 0.347700
7.564000 0.356600
7.608700 0.371300
7.653300 0.385800
7.697900 0.404100
7.742600 0.426200
7.787200 0.428600
7.831900 0.430700
7.876500 0.434800
7.921100 0.437500
7.965800 0.436700
8.010400 0.430000
8.055100 0.437600
8.099700 0.425000
8.144400 0.418200
8.189000 0.423600
8.233600 0.435800
8.278300 0.401200
8.322900 0.381900
8.367600 0.353700
8.412200 0.327700
8.456800 0.312400
8.501500 0.301800
8.546100 0.314100
8.590800 0.359700
8.635400 0.402200
8.680000 0.464900
8.724700 0.481300
8.769300 0.450100
8.814000 0.463900
8.858600 0.498000
8.903200 0.562000
8.947900 0.607200
8.992500 0.599300
9.037200 0.627900
9.081800 0.646100
9.126500 0.644300
9.171100 0.641500
9.215700 0.669300
9.260400 0.641000
9.305000 0.635100
9.349700 0.644800
9.394300 0.638300
9.438900 0.650300
9.483600 0.648100
9.528200 0.656500
9.572900 0.664600
9.617500 0.673500
9.662100 0.691200
9.706800 0.711100
9.751400 0.725300
9.796100 0.742300
9.840700 0.744300
9.885300 0.720500
9.930000 0.703800
9.974600 0.702400
10.019300 0.706600
10.063900 0.705200
10.108500 0.717200
10.153200 0.730700
10.197800 0.766500
10.242500 0.792500
10.287100 0.797400
10.331800 0.795200
10.376400 0.790200
10.421000 0.798700
10.465700 0.814500
10.510300 0.854000
10.555000 0.884000
10.599600 0.907100
10.644200 0.928600
10.688900 0.969500
10.733500 1.023800
10.778200 1.004200
10.822800 1.067900
10.867400 1.101200
10.912100 1.028700
10.956700 0.988100
11.001400 0.960700
11.046000 0.936900
11.090600 0.923800
11.135300 0.898300
11.179900 0.870300
11.224600 0.859400
11.269200 0.797700
11.313900 0.768300
11.358500 0.749200
11.403100 0.698000
11.447800 0.652000
11.492400 0.663500
11.537100 0.661300
11.581700 0.655100
11.626300 0.629300
11.671000 0.594500
11.715600 0.569500
11.760300 0.554600
11.804900 0.541300
11.849500 0.532300
11.894200 0.581000
11.938800 0.676100
11.983500 0.698600
12.028100 0.923700
12.072700 0.994400
12.117400 0.876100
12.162000 0.861300
12.206700 0.875200
12.251300 0.874300
12.295900 0.866800
12.340600 0.913200
12.385200 0.946700
12.429900 0.960500
12.474500 0.964200
12.519200 0.995900
12.563800 1.141600
12.608400 1.349200
12.653100 1.528000
12.697700 1.585300
12.742400 1.486400
12.787000 1.401100
12.831600 1.364400
12.876300 1.629900
12.920900 1.505000
12.965600 1.390300
13.010200 1.392000
13.054800 1.358800
13.099500 1.342900
13.144100 1.344600
13.188800 1.347500
13.233400 1.505800
13.278000 1.666400
13.322700 1.722000
13.367300 1.722300
13.412000 1.785200
13.456600 1.799600
13.501300 1.713200
13.545900 1.658000
13.590500 1.610300
13.635200 1.518100
13.679800 1.393600
13.724500 1.222400
13.769100 1.168600
13.813700 1.101300
13.858400 1.086200
13.903000 1.069500
13.947700 1.041500
13.992300 1.011800
14.036900 0.992200
14.081600 0.996000
14.126200 1.006900
14.170900 1.016900
14.215500 1.031200
14.260100 1.063000
14.304800 1.119400
14.349400 1.145500
14.394100 1.195500
14.438700 1.162000
14.483300 1.083300
14.528000 1.037800
14.572600 1.005900
14.617300 0.994300
14.661900 0.941600
14.706600 0.885200
14.751200 0.824000
14.795800 0.760800
14.840500 0.728800
14.885100 0.701400
14.929800 0.912800
14.974400 0.889900
15.019000 0.930200
15.063700 1.005100
15.108300 1.142100
15.153000 1.116300
15.197600 0.939000
15.242200 0.973900
15.286900 1.034200
15.331500 1.091200
15.376200 1.105800
15.420800 1.149600
15.465400 1.167100
15.510100 1.160300
15.554700 1.153400
15.599400 1.154000
15.644000 1.108000
15.688700 1.016800
15.733300 0.991500
15.777900 0.965900
15.822600 0.976500
15.867200 1.008900
15.911900 1.049300
15.956500 1.067700
16.001100 1.023700
16.045800 0.963300
16.090400 0.963300
16.135100 1.013800
16.179700 0.940000
16.224300 0.854200
16.269000 0.798400
16.313600 0.732400
16.358300 0.687300
16.402900 0.652300
16.447500 0.717600
16.492200 0.797400
16.536800 0.879000
16.581500 0.926900
16.626100 0.993600
16.670700 1.061900
16.715400 1.240800
16.760000 1.334600
16.804700 1.576100
16.849300 1.676000
16.894000 1.831700
16.938600 1.724800
16.983200 1.454600
17.027900 1.347000
17.072500 1.295500
17.117200 1.227700
17.161800 1.190900
17.206400 1.205700
17.251100 1.172000
17.295700 1.174500
17.340400 1.190100
17.385000 1.235000
17.429600 1.091200
17.474300 0.912000
17.518900 0.772100
17.563600 0.690000
17.608200 0.610100
17.652800 0.561600
17.697500 0.532300
17.742100 0.506800
17.786800 0.511100
17.831400 0.479400
17.876100 0.456800
17.920700 0.435000
17.965300 0.410000
18.010000 0.384000
18.054600 0.399400
18.099300 0.349800
18.143900 0.369900
18.188500 0.368200
18.233200 0.302600
18.277800 0.286700
18.322500 0.273000
18.367100 0.261300
18.411700 0.252600
18.456400 0.249500
18.501000 0.249700
18.545700 0.284900
18.590300 0.336200
18.634900 0.379200
18.679600 0.418900
18.724200 0.463100
18.768900 0.501100
18.813500 0.537300
18.858100 0.654600
18.902800 0.749300
18.947400 0.860100
18.992100 0.978300
19.036700 1.086600
19.081400 1.214500
19.126000 1.367400
19.170600 1.340100
19.215300 1.373300
19.259900 1.375800
19.304600 1.361600
19.349200 1.320100
19.393800 1.406500
19.438500 1.296500
19.483100 1.141500
19.527800 1.157600
19.572400 1.187000
19.617000 1.317600
19.661700 1.451000
19.706300 1.627200
19.751000 1.861800
19.795600 2.024200
19.840200 2.230800
19.884900 2.203300
19.929500 2.450700
19.974200 2.303000
20.018800 1.512000
20.063500 1.175100
20.108100 1.012500
20.152700 0.885000
20.197400 0.810100
20.242000 0.871400
20.286700 0.722300
20.331300 0.711400
20.375900 0.728600
20.420600 0.881700
20.465200 1.036400
20.509900 1.175400
20.554500 1.303700
20.599100 1.428900
20.643800 1.501200
20.688400 1.506000
20.733100 1.443100
20.777700 1.487300
20.822300 1.522600
20.867000 1.498400
20.911600 1.482700
20.956300 1.450900
21.000900 1.536100
21.045500 1.572200
21.090200 1.594500
21.134800 1.702600
21.179500 1.578500
21.224100 1.581600
21.268800 1.649200
21.313400 1.794500
21.358000 1.883700
21.402700 2.036900
21.447300 2.091500
21.492000 2.120200
21.536600 2.081200
21.581200 1.812800
21.625900 1.621400
21.670500 2.143400
21.715200 2.687100
21.759800 2.516200
21.804400 1.999200
21.849100 1.561900
21.893700 1.372900
21.938400 1.328100
21.983000 1.343100
22.027600 1.421000
22.072300 1.518100
22.116900 1.527400
22.161600 1.566300
22.206200 1.616700
22.250900 1.636500
22.295500 1.611500
22.340100 1.447600
22.384800 1.266600
22.429400 1.175500
22.474100 1.061200
22.518700 0.897900
22.563300 0.771400
22.608000 0.682800
22.652600 0.639800
22.697300 0.648900
22.741900 0.685900
22.786500 0.748400
22.831200 0.795000
22.875800 0.871900
22.920500 0.956700
22.965100 1.044000
23.009700 1.118600
23.054400 1.163300
23.099000 1.195200
23.143700 1.262000
23.188300 1.306900
23.232900 1.248600
23.277600 1.202200
23.322200 1.104700
23.366900 1.130100
23.411500 1.135200
23.456200 1.139800
23.500800 1.155200
23.545400 1.205100
23.590100 1.238600
23.634700 1.281600
23.679400 1.355100
23.724000 1.250300
23.768600 1.094400
23.813300 0.997700
23.857900 0.956500
23.902600 0.951300
23.947200 0.965200
23.991800 1.009300
24.036500 1.042200
24.081100 1.087900
24.125800 1.116200
24.170400 1.127500
24.215000 1.150700
24.259700 1.159200
24.304300 1.171300
24.349000 1.264800
24.393600 1.299300
24.438300 1.302500
24.482900 1.282200
24.527500 1.300900
24.572200 1.250900
24.616800 1.203800
24.661500 1.151800
24.706100 1.151800
24.750700 1.132400
24.795400 1.130300
24.840000 1.096400
24.884700 1.062400
24.929300 1.117600
24.973900 1.060200
25.018600 1.009900
25.063200 1.003700
25.107900 1.024600
25.152500 1.073600
25.197100 1.208100
25.241800 1.285100
25.286400 1.303600
25.331100 1.295900
25.375700 1.181900
25.420300 1.141200
25.465000 1.079900
25.509600 1.119600
25.554300 1.156300
25.598900 1.171300
25.643600 1.172200
25.688200 1.188300
25.732800 1.182700
25.777500 1.102100
25.822100 1.107100
25.866800 0.987100
25.911400 0.924800
25.956000 0.875200
26.000700 0.884700
26.045300 0.927900
26.090000 0.985600
26.134600 1.037700
26.179200 1.082000
26.223900 1.173400
26.268500 1.285000
26.313200 1.325400
26.357800 1.389900
26.402400 1.394800
26.447100 1.377100
26.491700 1.376000
26.536400 1.348300
26.581000 1.278400
26.625700 1.202500
26.670300 1.146800
26.714900 1.116400
26.759600 1.098700
26.804200 1.115600
26.848900 1.148600
26.893500 1.116900
26.938100 1.008400
26.982800 0.896800
27.027400 0.832400
27.072100 0.832400
27.116700 0.866600
27.161300 0.877000
27.206000 0.893700
27.250600 0.984900
27.295300 0.906300
27.339900 0.827900
27.384500 0.832100
27.429200 0.905600
27.473800 0.922300
27.518500 1.066900
27.563100 0.942600
27.607700 0.975800
27.652400 1.070300
27.697000 1.176800
27.741700 1.393900
27.786300 1.639500
27.831000 1.845300
27.875600 1.969200
27.920200 1.885900
27.964900 1.609800
28.009500 1.074600
28.054200 0.994100
28.098800 0.962600
28.143400 0.873300
28.188100 0.875400
28.232700 1.006600
28.277400 1.258400
28.322000 1.578000
28.366600 1.505900
28.411300 1.400800
28.455900 1.378900
28.500600 1.443900
28.545200 1.485300
28.589800 1.575600
28.634500 1.681500
28.679100 1.736200
28.723800 1.685400
28.768400 1.885200
28.813100 1.976400
28.857700 1.854000
28.902300 2.307100
28.947000 2.150900
28.991600 1.860600
29.036300 1.878100
29.080900 1.918500
29.125500 1.873400
29.170200 1.784100
29.214800 1.620700
29.259500 1.519200
29.304100 1.553300
29.348700 1.460700
29.393400 1.453300
29.438000 1.455900
29.482700 1.426800
29.527300 1.430900
29.571900 1.435900
29.616600 1.469900
29.661200 1.477800
29.705900 1.428700
29.750500 1.442300
29.795100 1.609000
29.839800 2.007100
29.884400 1.913600
29.929100 1.910500
29.973700 1.746200
30.018400 1.481100
30.063000 1.354300
30.107600 1.324500
30.152300 1.295500
30.196900 1.260000
30.241600 1.311900
30.286200 1.349000
30.330800 1.646600
30.375500 1.767200
30.420100 1.863600
30.464800 2.209300
30.509400 2.106200
30.554000 2.010400
30.598700 1.985800
30.643300 1.818100
30.688000 1.614500
30.732600 1.462400
30.777200 1.403500
30.821900 1.452800
30.866500 1.567300
30.911200 1.680500
30.955800 1.742900
31.000500 2.116100
31.045100 1.886600
31.089700 2.085300
31.134400 1.893200
31.179000 1.887300
31.223700 1.865900
31.268300 1.901900
31.312900 1.627500
31.357600 1.527100
31.402200 1.430600
31.446900 1.986500
31.491500 1.555000
31.536100 1.668200
31.580800 1.880200
31.625400 2.102100
31.670100 2.073100
31.714700 2.063600
31.759300 2.067300
31.804000 1.939800
31.848600 1.792100
31.893300 1.655300
31.937900 1.626400
31.982500 1.731100
32.027200 1.872100
32.071800 2.010800
32.116500 2.168200
32.161100 2.364400
32.205800 2.239500
32.250400 2.319200
32.295000 2.726800
32.339700 2.492200
32.384300 2.255000
32.429000 2.174300
32.473600 1.949400
32.518200 1.914900
32.562900 1.988100
32.607500 2.280400
32.652200 2.193600
32.696800 2.234100
32.741400 2.241100
32.786100 2.362100
32.830700 2.462700
32.875400 2.611800
32.920000 2.495500
32.964600 2.648100
33.009300 2.889100
33.053900 3.771500
33.098600 4.438600
33.143200 5.874200
33.187900 4.188300
33.232500 3.547800
33.277100 2.690500
33.321800 2.641000
33.366400 2.322100
33.411100 2.319000
33.455700 2.223200
33.500300 2.194500
33.545000 2.174800
33.589600 2.191200
33.634300 2.222000
33.678900 2.242200
33.723500 2.276600
33.768200 2.370600
33.812800 2.544400
33.857500 2.577400
33.902100 2.512400
33.946700 2.493000
33.991400 2.486600
34.036000 2.539600
34.080700 2.747300
34.125300 2.364300
34.169900 2.206300
34.214600 2.017500
34.259200 1.926700
34.303900 1.856300
34.348500 1.878400
34.393200 2.006900
34.437800 2.038100
34.482400 2.086300
34.527100 2.249500
34.571700 2.316500
34.616400 2.383900
34.661000 2.405300
34.705600 2.299100
34.750300 2.454600
34.794900 2.243800
34.839600 2.106500
34.884200 2.176800
34.928800 2.072600
34.973500 1.884800
35.018100 1.730800
35.062800 1.671600
35.107400 1.622000
35.152000 1.605900
35.196700 1.656900
35.241300 1.879800
35.286000 1.953200
35.330600 1.995500
35.375300 2.000700
35.419900 1.985400
35.464500 1.937900
35.509200 1.832700
35.553800 1.738900
35.598500 1.531900
35.643100 1.439300
35.687700 1.397600
35.732400 1.358100
35.777000 1.362100
35.821700 1.439700
35.866300 1.549100
35.910900 1.851100
35.955600 1.976900
36.000200 2.057200
36.044900 1.944500
36.089500 1.963000
36.134100 1.944300
36.178800 1.759300
36.223400 1.491700
36.268100 1.415700
36.312700 1.282500
36.357300 1.216700
36.402000 1.208400
36.446600 1.351500
36.491300 1.821600
36.535900 1.921800
36.580600 1.901400
36.625200 1.981000
36.669800 2.272900
36.714500 2.181800
36.759100 2.339100
36.803800 2.156700
36.848400 2.097100
36.893000 1.889500
36.937700 1.755900
36.982300 1.917200
37.027000 2.087800
37.071600 2.347200
37.116200 2.258700
37.160900 2.154900
37.205500 2.055700
37.250200 2.054200
37.294800 1.886900
37.339400 1.814000
37.384100 1.744400
37.428700 1.769900
37.473400 1.741200
37.518000 1.882700
37.562700 2.101000
37.607300 1.723200
37.651900 1.476500
37.696600 1.346700
37.741200 1.365500
37.785900 1.397900
37.830500 1.493300
37.875100 1.500900
37.919800 1.570000
37.964400 1.589700
38.009100 1.559500
38.053700 1.511900
38.098300 1.516400
38.143000 1.517500
38.187600 1.495100
38.232300 1.468700
38.276900 1.587300
38.321500 1.315700
38.366200 1.171700
38.410800 1.127900
38.455500 1.020100
38.500100 0.910000
38.544700 0.842200
38.589400 0.836700
38.634000 0.845700
38.678700 0.875600
38.723300 1.008600
38.768000 1.153600
38.812600 1.376500
38.857200 1.584600
38.901900 1.617200
38.946500 1.651500
38.991200 1.624900
39.035800 1.622200
39.080400 1.802200
39.125100 1.456000
39.169700 1.363400
39.214400 1.321800
39.259000 1.292400
39.303600 1.320400
39.348300 1.368100
39.392900 1.435200
39.437600 1.589400
39.482200 1.510800
39.526800 1.403100
39.571500 1.307300
39.616100 1.241300
39.660800 1.249500
39.705400 1.279100
39.750000 1.336700
39.794700 1.392000
39.839300 1.477800
39.884000 1.533300
39.928600 1.673800
39.973300 1.618100
40.017900 1.635600
40.062500 1.677000
40.107200 1.600400
40.151800 1.623600
40.196500 1.837600
40.241100 1.762700
40.285700 1.575200
40.330400 1.445300
40.375000 1.375700
40.419700 1.336500
40.464300 1.345900
40.508900 1.318600
40.553600 1.310700
40.598200 1.291800
40.642900 1.291700
40.687500 1.343000
40.732100 1.460300
40.776800 1.570900
40.821400 1.718900
40.866100 1.927300
40.910700 1.932000
40.955400 1.961900
41.000000 1.819000
41.044600 1.471200
41.089300 1.264200
41.133900 1.287100
41.178600 1.283200
41.223200 1.498600
41.267800 1.509800
41.312500 1.459900
41.357100 1.423400
41.401800 1.398400
41.446400 1.512000
41.491000 1.626700
41.535700 1.955500
41.580300 1.660300
41.625000 1.390300
41.669600 1.344800
41.714200 1.406300
41.758900 1.552500
41.803500 1.584400
41.848200 1.593800
41.892800 1.595800
41.937400 1.642900
41.982100 1.821200
42.026700 1.937300
42.071400 1.826800
42.116000 1.688100
42.160700 1.517200
42.205300 1.482400
42.249900 1.517300
42.294600 1.554100
42.339200 1.604600
42.383900 1.670800
42.428500 1.640000
42.473100 1.636600
42.517800 1.716100
42.562400 1.838800
42.607100 1.899000
42.651700 1.910300
42.696300 1.835100
42.741000 1.690700
42.785600 1.591000
42.830300 1.528600
42.874900 1.765600
42.919500 1.810600
42.964200 1.772600
43.008800 1.796900
43.053500 1.876700
43.098100 1.971600
43.142800 2.057300
43.187400 2.026100
43.232000 2.084900
43.276700 2.113300
43.321300 2.109600
43.366000 2.058500
43.410600 2.173700
43.455200 2.476800
43.499900 2.141200
43.544500 1.942300
43.589200 1.701800
43.633800 1.604300
43.678400 1.526600
43.723100 1.472100
43.767700 1.507500
43.812400 1.682000
43.857000 1.844600
43.901600 2.028400
43.946300 2.179600
43.990900 2.184600
44.035600 2.073300
44.080200 1.894100
44.124800 1.685000
44.169500 1.613500
44.214100 1.589400
44.258800 1.633000
44.303400 1.801300
44.348100 1.965000
44.392700 2.063300
44.437300 2.014900
44.482000 2.014900
44.526600 1.902800
44.571300 1.803400
44.615900 1.743200
44.660500 1.678300
44.705200 1.676100
44.749800 1.673700
44.794500 1.665300
44.839100 1.667200
44.883700 1.680100
44.928400 1.741800
44.973000 1.740400
45.017700 1.677500
45.062300 1.631000
45.106900 1.608600
45.151600 1.580400
45.196200 1.546500
45.240900 1.524300
45.285500 1.586400
45.330200 1.639400
45.374800 1.592800
45.419400 1.520800
45.464100 1.511900
45.508700 1.450400
45.553400 1.426500
45.598000 1.477000
45.642600 1.519200
45.687300 1.492800
45.731900 1.527100
45.776600 1.530800
45.821200 1.494100
45.865800 1.418800
45.910500 1.355200
45.955100 1.370700
45.999800 1.366000
46.044400 1.360900
46.089000 1.476100
46.133700 1.601300
46.178300 1.610000
46.223000 1.648300
46.267600 1.677500
46.312200 1.732900
46.356900 1.703900
46.401500 1.605100
46.446200 1.597600
46.490800 1.606000
46.535500 1.597300
46.580100 1.668800
46.624700 1.590400
46.669400 1.523000
46.714000 1.569600
46.758700 1.588000
46.803300 1.599800
46.847900 1.615100
46.892600 1.584100
46.937200 1.467300
46.981900 1.572400
47.026500 1.655300
47.071100 1.734600
47.115800 1.971800
47.160400 1.800500
47.205100 1.606100
47.249700 1.548700
47.294300 1.368500
47.339000 1.175700
47.383600 0.922600
47.428300 0.610700
47.472900 0.470400
47.517600 0.362000
47.562200 0.259400
47.606800 0.157700
47.651500 0.097400
47.696100 0.062600
47.740800 0.036400
47.785400 0.013700
47.830000 0.007700
47.874700 0.003000
47.919300 0.000000
47.964000 0.000000
48.008600 0.000000
48.053200 0.000000
48.097900 0.000000
48.142500 0.000000
48.187200 0.000000
48.231800 0.000000
48.276400 0.000000
48.321100 0.000000
48.365700 0.000000
48.410400 0.000000
48.455000 0.000000
48.499600 0.000000
48.544300 0.000000
48.588900 0.000000
48.633600 0.000000
48.678200 0.000000
48.722900 0.000000
48.767500 0.000000
48.812100 0.000000
48.856800 0.000000
48.901400 0.000000
48.946100 0.000000
48.990700 0.000000
49.035300 0.000000
49.080000 0.000000
49.124600 0.000000
49.169300 0.000000
49.213900 0.000000
49.258500 0.000000
49.303200 0.000000
49.347800 0.000000
49.392500 0.000000
49.437100 0.000000
49.481700 0.000000
49.526400 0.000000
49.571000 0.000000
49.615700 0.000000
49.660300 0.000000
49.705000 0.000000
49.749600 0.000000
49.794200 0.000000
49.838900 0.000000
49.883500 0.000000
49.928200 0.000000
49.972800 0.000000
50.017400 0.000000
50.062100 0.000000
50.106700 0.000000
50.151400 0.000000
50.196000 0.000000
50.240600 0.000000
50.285300 0.000000
50.329900 0.000000
50.374600 0.000000
50.419200 0.000000
50.463800 0.000000
50.508500 0.000000
50.553100 0.000000
50.597800 0.000000
50.642400 0.000000
50.687000 0.000000
50.731700 0.000000
50.776300 0.000000
50.821000 0.000000
50.865600 0.000000
50.910300 0.000000
50.954900 0.000000
50.999500 0.000000
51.044200 0.000000
51.088800 0.000000
51.133500 0.000000
51.178100 0.000000
51.222700 0.000000
51.267400 0.000000
51.312000 0.000000
51.356700 0.000000
51.401300 0.000000
51.445900 0.000000
51.490600 0.000000
51.535200 0.000000
51.579900 0.000000
51.624500 0.000000
51.669100 0.000000
51.713800 0.000000
51.758400 0.000000
51.803100 0.000000
51.847700 0.000000
51.892400 0.000000
51.937000 0.000000
51.981600 0.000000
52.026300 0.000000
52.070900 0.000000
e
