set title 'mp-1078815 - Density of States'
set xlabel 'Energy (eV)'
set ylabel 'DOS (states/eV)'
set grid
set xrange [-10:10]
set yrange [0:26.140]
set xzeroaxis lt -1
set terminal png size 800,600
set output 'mp-1078815_dos_gnuplot.png'
plot '-' using 1:2 with lines title 'DOS'
-30.203000 0.000000
-30.177000 0.000000
-30.151000 0.000000
-30.124900 0.000000
-30.098900 0.000000
-30.072900 0.000000
-30.046800 0.000000
-30.020800 0.000000
-29.994800 0.000000
-29.968800 0.000000
-29.942700 0.000000
-29.916700 0.000000
-29.890700 0.000000
-29.864700 0.000000
-29.838600 0.000000
-29.812600 0.000000
-29.786600 0.000000
-29.760500 0.000000
-29.734500 0.000000
-29.708500 0.000000
-29.682500 0.000000
-29.656400 0.000000
-29.630400 0.000000
-29.604400 0.000000
-29.578300 0.000000
-29.552300 0.000000
-29.526300 0.000000
-29.500300 0.000000
-29.474200 0.000000
-29.448200 0.000000
-29.422200 0.000000
-29.396100 0.000000
-29.370100 0.000000
-29.344100 0.000000
-29.318100 0.000000
-29.292000 0.000000
-29.266000 0.000000
-29.240000 0.000000
-29.213900 0.000000
-29.187900 0.000000
-29.161900 0.000000
-29.135900 0.000000
-29.109800 0.000000
-29.083800 0.000000
-29.057800 0.000000
-29.031800 0.000000
-29.005700 0.000000
-28.979700 0.000000
-28.953700 0.000000
-28.927600 0.000000
-28.901600 0.000000
-28.875600 0.000000
-28.849600 0.000000
-28.823500 0.000000
-28.797500 0.000000
-28.771500 0.000000
-28.745400 0.000000
-28.719400 0.000000
-28.693400 0.000000
-28.667400 0.000000
-28.641300 0.000000
-28.615300 0.000000
-28.589300 0.000000
-28.563200 0.000000
-28.537200 0.000000
-28.511200 0.000000
-28.485200 0.000000
-28.459100 0.000000
-28.433100 0.000000
-28.407100 0.000000
-28.381000 0.000000
-28.355000 0.000000
-28.329000 0.000000
-28.303000 0.000000
-28.276900 0.000000
-28.250900 0.000000
-28.224900 0.000000
-28.198900 0.000000
-28.172800 0.000000
-28.146800 0.000000
-28.120800 0.000000
-28.094700 0.000000
-28.068700 0.000000
-28.042700 0.000000
-28.016700 0.000000
-27.990600 0.000000
-27.964600 0.000000
-27.938600 0.000000
-27.912500 0.000000
-27.886500 0.000000
-27.860500 0.000000
-27.834500 38.191200
-27.808400 13.559200
-27.782400 13.559200
-27.756400 9.294300
-27.730300 9.294300
-27.704300 0.000000
-27.678300 0.000000
-27.652300 0.000000
-27.626200 29.613600
-27.600200 17.490600
-27.574200 12.976200
-27.548200 12.976200
-27.522100 0.000000
-27.496100 0.000000
-27.470100 0.000000
-27.444000 0.000000
-27.418000 0.000000
-27.392000 0.000000
-27.366000 0.000000
-27.339900 0.000000
-27.313900 0.000000
-27.287900 0.000000
-27.261800 0.000000
-27.235800 0.000000
-27.209800 0.000000
-27.183800 0.000000
-27.157700 0.000000
-27.131700 0.000000
-27.105700 0.000000
-27.079600 0.000000
-27.053600 0.000000
-27.027600 0.000000
-27.001600 0.000000
-26.975500 0.000000
-26.949500 0.000000
-26.923500 0.000000
-26.897400 0.000000
-26.871400 0.000000
-26.845400 0.000000
-26.819400 0.000000
-26.793300 0.000000
-26.767300 0.000000
-26.741300 0.000000
-26.715300 0.000000
-26.689200 0.000000
-26.663200 0.000000
-26.637200 0.000000
-26.611100 0.000000
-26.585100 0.000000
-26.559100 0.000000
-26.533100 0.000000
-26.507000 0.000000
-26.481000 0.000000
-26.455000 0.000000
-26.428900 0.000000
-26.402900 0.000000
-26.376900 0.000000
-26.350900 0.000000
-26.324800 0.000000
-26.298800 0.000000
-26.272800 0.000000
-26.246700 0.000000
-26.220700 0.000000
-26.194700 0.000000
-26.168700 0.000000
-26.142600 0.000000
-26.116600 0.000000
-26.090600 0.000000
-26.064500 0.000000
-26.038500 0.000000
-26.012500 0.000000
-25.986500 0.000000
-25.960400 0.000000
-25.934400 0.000000
-25.908400 0.000000
-25.882400 0.000000
-25.856300 0.000000
-25.830300 0.000000
-25.804300 0.000000
-25.778200 0.000000
-25.752200 0.000000
-25.726200 0.000000
-25.700200 0.000000
-25.674100 0.000000
-25.648100 0.000000
-25.622100 0.000000
-25.596000 0.000000
-25.570000 0.000000
-25.544000 0.000000
-25.518000 0.000000
-25.491900 0.000000
-25.465900 0.000000
-25.439900 0.000000
-25.413800 0.000000
-25.387800 0.000000
-25.361800 0.000000
-25.335800 0.000000
-25.309700 0.000000
-25.283700 0.000000
-25.257700 0.000000
-25.231700 0.000000
-25.205600 0.000000
-25.179600 0.000000
-25.153600 0.000000
-25.127500 0.000000
-25.101500 0.000000
-25.075500 0.000000
-25.049500 0.000000
-25.023400 0.000000
-24.997400 0.000000
-24.971400 0.000000
-24.945300 0.000000
-24.919300 0.000000
-24.893300 0.000000
-24.867300 0.000000
-24.841200 0.000000
-24.815200 0.000000
-24.789200 0.000000
-24.763100 0.000000
-24.737100 0.000000
-24.711100 0.000000
-24.685100 0.000000
-24.659000 0.000000
-24.633000 0.000000
-24.607000 0.000000
-24.580900 0.000000
-24.554900 0.000000
-24.528900 0.000000
-24.502900 0.000000
-24.476800 0.000000
-24.450800 0.000000
-24.424800 0.000000
-24.398800 0.000000
-24.372700 0.000000
-24.346700 0.000000
-24.320700 0.000000
-24.294600 0.000000
-24.268600 0.000000
-24.242600 0.000000
-24.216600 0.000000
-24.190500 0.000000
-24.164500 0.000000
-24.138500 0.000000
-24.112400 0.000000
-24.086400 0.000000
-24.060400 0.000000
-24.034400 0.000000
-24.008300 0.000000
-23.982300 0.000000
-23.956300 0.000000
-23.930200 0.000000
-23.904200 0.000000
-23.878200 0.000000
-23.852200 0.000000
-23.826100 0.000000
-23.800100 0.000000
-23.774100 0.000000
-23.748000 0.000000
-23.722000 0.000000
-23.696000 0.000000
-23.670000 0.000000
-23.643900 0.000000
-23.617900 0.000000
-23.591900 0.000000
-23.565900 0.000000
-23.539800 0.000000
-23.513800 0.000000
-23.487800 0.000000
-23.461700 0.000000
-23.435700 0.000000
-23.409700 0.000000
-23.383700 0.000000
-23.357600 0.000000
-23.331600 0.000000
-23.305600 0.000000
-23.279500 0.000000
-23.253500 0.000000
-23.227500 0.000000
-23.201500 0.000000
-23.175400 0.000000
-23.149400 0.000000
-23.123400 0.000000
-23.097300 0.000000
-23.071300 0.000000
-23.045300 0.000000
-23.019300 0.000000
-22.993200 0.000000
-22.967200 0.000000
-22.941200 0.000000
-22.915200 0.000000
-22.889100 0.000000
-22.863100 0.000000
-22.837100 0.000000
-22.811000 0.000000
-22.785000 0.000000
-22.759000 0.000000
-22.733000 0.000000
-22.706900 0.000000
-22.680900 0.000000
-22.654900 0.000000
-22.628800 0.000000
-22.602800 0.000000
-22.576800 0.000000
-22.550800 0.000000
-22.524700 0.000000
-22.498700 0.000000
-22.472700 0.000000
-22.446600 0.000000
-22.420600 0.000000
-22.394600 0.000000
-22.368600 0.000000
-22.342500 0.000000
-22.316500 0.000000
-22.290500 0.000000
-22.264400 0.000000
-22.238400 0.000000
-22.212400 0.000000
-22.186400 0.000000
-22.160300 0.000000
-22.134300 0.000000
-22.108300 0.000000
-22.082300 0.000000
-22.056200 0.000000
-22.030200 0.000000
-22.004200 0.000000
-21.978100 0.000000
-21.952100 0.000000
-21.926100 0.000000
-21.900100 0.000000
-21.874000 0.000000
-21.848000 0.000000
-21.822000 0.000000
-21.795900 0.000000
-21.769900 0.000000
-21.743900 0.000000
-21.717900 0.000000
-21.691800 0.000000
-21.665800 0.000000
-21.639800 0.000000
-21.613700 0.000000
-21.587700 0.000000
-21.561700 0.000000
-21.535700 0.000000
-21.509600 0.000000
-21.483600 0.000000
-21.457600 0.000000
-21.431600 0.000000
-21.405500 0.000000
-21.379500 0.000000
-21.353500 0.000000
-21.327400 0.000000
-21.301400 0.000000
-21.275400 0.000000
-21.249400 0.000000
-21.223300 0.000000
-21.197300 0.000000
-21.171300 0.000000
-21.145200 0.000000
-21.119200 0.000000
-21.093200 0.000000
-21.067200 0.000000
-21.041100 0.000000
-21.015100 0.000000
-20.989100 0.000000
-20.963000 0.000000
-20.937000 0.000000
-20.911000 0.000000
-20.885000 0.000000
-20.858900 0.000000
-20.832900 0.000000
-20.806900 0.000000
-20.780800 0.000000
-20.754800 0.000000
-20.728800 0.000000
-20.702800 0.000000
-20.676700 0.000000
-20.650700 0.000000
-20.624700 0.000000
-20.598700 0.000000
-20.572600 0.000000
-20.546600 0.000000
-20.520600 0.000000
-20.494500 0.000000
-20.468500 0.000000
-20.442500 0.000000
-20.416500 0.000000
-20.390400 0.000000
-20.364400 0.000000
-20.338400 0.000000
-20.312300 0.000000
-20.286300 0.000000
-20.260300 0.000000
-20.234300 0.000000
-20.208200 0.000000
-20.182200 0.000000
-20.156200 0.000000
-20.130100 0.000000
-20.104100 0.000000
-20.078100 0.000000
-20.052100 0.000000
-20.026000 0.000000
-20.000000 0.000000
-19.974000 0.000000
-19.947900 0.000000
-19.921900 0.000000
-19.895900 0.000000
-19.869900 0.000000
-19.843800 0.000000
-19.817800 0.000000
-19.791800 0.000000
-19.765800 0.000000
-19.739700 0.000000
-19.713700 0.000000
-19.687700 0.000000
-19.661600 0.000000
-19.635600 0.000000
-19.609600 0.000000
-19.583600 0.000000
-19.557500 0.000000
-19.531500 0.000000
-19.505500 0.000000
-19.479400 0.000000
-19.453400 0.000000
-19.427400 0.000000
-19.401400 0.000000
-19.375300 0.000000
-19.349300 0.000000
-19.323300 0.000000
-19.297200 0.000000
-19.271200 0.000000
-19.245200 0.000000
-19.219200 0.000000
-19.193100 0.000000
-19.167100 0.000000
-19.141100 0.000000
-19.115100 0.000000
-19.089000 0.000000
-19.063000 0.000000
-19.037000 0.000000
-19.010900 0.000000
-18.984900 0.000000
-18.958900 0.000000
-18.932900 0.000000
-18.906800 0.000000
-18.880800 0.000000
-18.854800 0.000000
-18.828700 0.000000
-18.802700 0.000000
-18.776700 0.000000
-18.750700 0.000000
-18.724600 0.000000
-18.698600 0.000000
-18.672600 0.000000
-18.646500 0.000000
-18.620500 0.000000
-18.594500 0.000000
-18.568500 0.000000
-18.542400 0.000000
-18.516400 0.000000
-18.490400 0.000000
-18.464300 0.000000
-18.438300 0.000000
-18.412300 0.000000
-18.386300 0.000000
-18.360200 0.000000
-18.334200 0.000000
-18.308200 0.000000
-18.282200 0.000000
-18.256100 0.000000
-18.230100 0.000000
-18.204100 0.000000
-18.178000 0.000000
-18.152000 0.000000
-18.126000 0.000000
-18.100000 0.000000
-18.073900 0.000000
-18.047900 0.000000
-18.021900 0.000000
-17.995800 0.000000
-17.969800 0.000000
-17.943800 0.000000
-17.917800 0.000000
-17.891700 0.000000
-17.865700 0.000000
-17.839700 0.000000
-17.813600 0.000000
-17.787600 0.000000
-17.761600 0.000000
-17.735600 0.000000
-17.709500 0.000000
-17.683500 0.000000
-17.657500 0.000000
-17.631400 0.000000
-17.605400 0.000000
-17.579400 0.000000
-17.553400 0.000000
-17.527300 0.000000
-17.501300 0.000000
-17.475300 0.000000
-17.449300 0.000000
-17.423200 0.000000
-17.397200 0.000000
-17.371200 0.000000
-17.345100 0.000000
-17.319100 0.000000
-17.293100 0.000000
-17.267100 0.000000
-17.241000 0.000000
-17.215000 0.000000
-17.189000 0.000000
-17.162900 0.000000
-17.136900 0.000000
-17.110900 0.000000
-17.084900 0.000000
-17.058800 0.000000
-17.032800 0.000000
-17.006800 0.000000
-16.980700 0.000000
-16.954700 0.000000
-16.928700 0.000000
-16.902700 0.000000
-16.876600 0.000000
-16.850600 0.000000
-16.824600 0.000000
-16.798600 0.000000
-16.772500 0.000000
-16.746500 0.000000
-16.720500 0.000000
-16.694400 0.000000
-16.668400 0.000000
-16.642400 0.000000
-16.616400 0.000000
-16.590300 0.000000
-16.564300 0.000000
-16.538300 0.000000
-16.512200 0.000000
-16.486200 0.000000
-16.460200 0.000000
-16.434200 0.000000
-16.408100 0.000000
-16.382100 0.000000
-16.356100 0.000000
-16.330000 0.000000
-16.304000 0.000000
-16.278000 0.000000
-16.252000 0.000000
-16.225900 0.000000
-16.199900 0.000000
-16.173900 0.000000
-16.147800 0.000000
-16.121800 0.000000
-16.095800 0.000000
-16.069800 0.000000
-16.043700 0.000000
-16.017700 0.000000
-15.991700 0.000000
-15.965700 0.000000
-15.939600 0.000000
-15.913600 0.000000
-15.887600 0.000000
-15.861500 0.000000
-15.835500 0.000000
-15.809500 0.000000
-15.783500 0.000000
-15.757400 0.000000
-15.731400 0.000000
-15.705400 0.000000
-15.679300 0.000000
-15.653300 0.000000
-15.627300 0.000000
-15.601300 0.000000
-15.575200 0.000000
-15.549200 0.000000
-15.523200 0.000000
-15.497100 0.000000
-15.471100 0.000000
-15.445100 0.000000
-15.419100 0.000000
-15.393000 0.000000
-15.367000 0.000000
-15.341000 0.000000
-15.314900 0.000000
-15.288900 0.000000
-15.262900 0.000000
-15.236900 0.000000
-15.210800 0.000000
-15.184800 0.000000
-15.158800 0.000000
-15.132800 0.000000
-15.106700 0.000000
-15.080700 0.000000
-15.054700 0.000000
-15.028600 0.000000
-15.002600 0.000000
-14.976600 0.000000
-14.950600 0.000000
-14.924500 0.000000
-14.898500 0.000000
-14.872500 0.000000
-14.846400 0.000000
-14.820400 0.000000
-14.794400 0.000000
-14.768400 0.000000
-14.742300 0.000000
-14.716300 0.000000
-14.690300 0.000000
-14.664200 0.000000
-14.638200 0.000000
-14.612200 0.000000
-14.586200 0.000000
-14.560100 0.000000
-14.534100 0.000000
-14.508100 0.000000
-14.482100 0.000000
-14.456000 0.000000
-14.430000 0.000000
-14.404000 0.000000
-14.377900 0.000000
-14.351900 0.000000
-14.325900 0.000000
-14.299900 0.000000
-14.273800 0.000000
-14.247800 0.000000
-14.221800 0.000000
-14.195700 0.000000
-14.169700 0.000000
-14.143700 0.000000
-14.117700 0.000000
-14.091600 0.000000
-14.065600 0.000000
-14.039600 0.000000
-14.013500 0.000000
-13.987500 0.000000
-13.961500 0.000000
-13.935500 0.000000
-13.909400 0.000000
-13.883400 0.000000
-13.857400 0.000000
-13.831300 0.000000
-13.805300 0.000000
-13.779300 0.000000
-13.753300 0.000000
-13.727200 0.000000
-13.701200 0.000000
-13.675200 0.000000
-13.649200 0.000000
-13.623100 0.000000
-13.597100 0.000000
-13.571100 0.000000
-13.545000 0.000000
-13.519000 0.000000
-13.493000 0.000000
-13.467000 0.000000
-13.440900 0.000000
-13.414900 0.000000
-13.388900 0.000000
-13.362800 0.000000
-13.336800 0.000000
-13.310800 0.000000
-13.284800 0.000000
-13.258700 0.000000
-13.232700 0.000000
-13.206700 0.000000
-13.180600 0.000000
-13.154600 0.000000
-13.128600 0.000000
-13.102600 0.000000
-13.076500 0.000000
-13.050500 0.000000
-13.024500 0.000000
-12.998400 0.000000
-12.972400 0.000000
-12.946400 0.000000
-12.920400 0.000000
-12.894300 0.000000
-12.868300 0.000000
-12.842300 0.000000
-12.816300 0.000000
-12.790200 0.000000
-12.764200 0.000000
-12.738200 0.000000
-12.712100 0.000000
-12.686100 0.000000
-12.660100 0.000000
-12.634100 0.000000
-12.608000 0.000000
-12.582000 0.000000
-12.556000 0.000000
-12.529900 0.000000
-12.503900 0.000000
-12.477900 0.000000
-12.451900 0.000000
-12.425800 0.000000
-12.399800 0.000000
-12.373800 0.000000
-12.347700 0.000000
-12.321700 0.000000
-12.295700 0.000000
-12.269700 0.000000
-12.243600 0.000000
-12.217600 0.000000
-12.191600 0.000000
-12.165600 0.000000
-12.139500 0.000000
-12.113500 0.000000
-12.087500 0.000000
-12.061400 0.000000
-12.035400 0.000000
-12.009400 0.000000
-11.983400 0.000000
-11.957300 0.000000
-11.931300 0.000000
-11.905300 0.000000
-11.879200 0.000000
-11.853200 0.000000
-11.827200 0.000000
-11.801200 0.000000
-11.775100 0.000000
-11.749100 0.000000
-11.723100 0.000000
-11.697000 0.000000
-11.671000 0.000000
-11.645000 0.000000
-11.619000 0.000000
-11.592900 0.000000
-11.566900 0.000000
-11.540900 0.000000
-11.514800 0.000000
-11.488800 0.000000
-11.462800 0.000000
-11.436800 0.000000
-11.410700 0.000000
-11.384700 0.000000
-11.358700 0.000000
-11.332700 0.000000
-11.306600 0.000000
-11.280600 0.000000
-11.254600 0.051300
-11.228500 0.338200
-11.202500 0.689900
-11.176500 0.805300
-11.150500 0.874200
-11.124400 1.023800
-11.098400 1.197700
-11.072400 1.349500
-11.046300 1.432100
-11.020300 1.503300
-10.994300 1.608300
-10.968300 1.720700
-10.942200 1.833000
-10.916200 1.975900
-10.890200 2.307100
-10.864100 2.447300
-10.838100 2.461100
-10.812100 2.596900
-10.786100 2.731700
-10.760000 2.862200
-10.734000 2.956300
-10.708000 2.982800
-10.682000 3.087600
-10.655900 3.321200
-10.629900 3.251200
-10.603900 3.240000
-10.577800 3.278400
-10.551800 3.318100
-10.525800 3.327400
-10.499800 3.308300
-10.473700 3.322000
-10.447700 3.359100
-10.421700 3.408300
-10.395600 3.454800
-10.369600 3.380300
-10.343600 3.390200
-10.317600 3.523100
-10.291500 3.810800
-10.265500 4.308700
-10.239500 5.237200
-10.213400 6.261400
-10.187400 8.330000
-10.161400 8.703100
-10.135400 8.301800
-10.109300 8.202100
-10.083300 8.738400
-10.057300 4.608700
-10.031200 1.378400
-10.005200 3.103100
-9.979200 7.060200
-9.953200 8.787400
-9.927100 9.220900
-9.901100 8.406000
-9.875100 7.955600
-9.849100 7.559000
-9.823000 7.594100
-9.797000 7.262200
-9.771000 7.270400
-9.744900 6.165100
-9.718900 5.606900
-9.692900 5.127500
-9.666900 4.761700
-9.640800 4.474200
-9.614800 4.142900
-9.588800 3.823800
-9.562700 3.617000
-9.536700 3.415700
-9.510700 3.284000
-9.484700 3.144700
-9.458600 3.061800
-9.432600 2.888700
-9.406600 2.733100
-9.380500 2.555300
-9.354500 2.388500
-9.328500 2.184500
-9.302500 2.029400
-9.276400 1.870500
-9.250400 1.790100
-9.224400 1.760800
-9.198300 1.725700
-9.172300 1.619400
-9.146300 1.562500
-9.120300 1.503000
-9.094200 1.463400
-9.068200 1.421000
-9.042200 1.406400
-9.016200 1.322900
-8.990100 1.250700
-8.964100 1.193800
-8.938100 1.158500
-8.912000 1.094500
-8.886000 1.083700
-8.860000 1.119500
-8.834000 1.192800
-8.807900 1.385000
-8.781900 1.546200
-8.755900 1.720300
-8.729800 1.850700
-8.703800 1.927600
-8.677800 2.036400
-8.651800 2.178600
-8.625700 2.382500
-8.599700 2.552000
-8.573700 2.750600
-8.547600 2.997200
-8.521600 3.373300
-8.495600 3.686100
-8.469600 4.008700
-8.443500 4.807900
-8.417500 5.675200
-8.391500 6.830700
-8.365500 7.981900
-8.339400 8.900300
-8.313400 10.943500
-8.287400 13.133100
-8.261300 17.362300
-8.235300 14.568800
-8.209300 10.052200
-8.183300 6.823800
-8.157200 2.140600
-8.131200 3.218500
-8.105200 4.099300
-8.079100 4.735200
-8.053100 5.029600
-8.027100 5.764300
-8.001100 7.228000
-7.975000 8.855600
-7.949000 13.536500
-7.923000 21.416100
-7.896900 16.836700
-7.870900 11.593200
-7.844900 9.463500
-7.818900 12.070100
-7.792800 4.161400
-7.766800 4.434100
-7.740800 5.180100
-7.714700 3.842200
-7.688700 3.488000
-7.662700 3.195300
-7.636700 2.500600
-7.610600 1.867400
-7.584600 0.637200
-7.558600 0.000000
-7.532600 0.000000
-7.506500 0.000000
-7.480500 0.000000
-7.454500 0.000000
-7.428400 0.000000
-7.402400 0.000000
-7.376400 0.000000
-7.350400 0.000000
-7.324300 0.000000
-7.298300 0.000000
-7.272300 0.000000
-7.246200 0.000000
-7.220200 0.000000
-7.194200 0.000000
-7.168200 0.000000
-7.142100 0.000000
-7.116100 0.000000
-7.090100 0.000000
-7.064000 0.000000
-7.038000 0.000000
-7.012000 0.000000
-6.986000 0.000000
-6.959900 0.000000
-6.933900 0.000000
-6.907900 0.000000
-6.881800 0.000000
-6.855800 0.000000
-6.829800 0.000000
-6.803800 0.000000
-6.777700 0.000000
-6.751700 0.000000
-6.725700 0.000000
-6.699700 0.000000
-6.673600 0.000000
-6.647600 0.000000
-6.621600 0.000000
-6.595500 0.000000
-6.569500 0.000000
-6.543500 0.000000
-6.517500 0.000000
-6.491400 0.000000
-6.465400 0.000000
-6.439400 0.000000
-6.413300 0.000000
-6.387300 0.000000
-6.361300 0.000000
-6.335300 0.000000
-6.309200 0.000000
-6.283200 0.000000
-6.257200 0.000000
-6.231100 0.000000
-6.205100 0.000000
-6.179100 0.000000
-6.153100 0.000000
-6.127000 0.000000
-6.101000 0.000000
-6.075000 0.000000
-6.049000 0.000000
-6.022900 0.000000
-5.996900 0.000000
-5.970900 0.000000
-5.944800 0.000000
-5.918800 0.000000
-5.892800 0.000000
-5.866800 0.000000
-5.840700 0.000000
-5.814700 0.000000
-5.788700 0.000000
-5.762600 0.000000
-5.736600 0.000000
-5.710600 0.000000
-5.684600 0.000000
-5.658500 0.000000
-5.632500 0.000000
-5.606500 0.000000
-5.580400 0.000000
-5.554400 0.000000
-5.528400 0.000000
-5.502400 0.000000
-5.476300 0.000000
-5.450300 0.000000
-5.424300 0.000000
-5.398200 0.000000
-5.372200 0.000000
-5.346200 0.000000
-5.320200 0.000000
-5.294100 0.000000
-5.268100 0.000000
-5.242100 0.000000
-5.216100 0.000000
-5.190000 0.000000
-5.164000 0.000000
-5.138000 0.000000
-5.111900 0.000000
-5.085900 0.000000
-5.059900 0.000000
-5.033900 0.000000
-5.007800 0.000000
-4.981800 0.000000
-4.955800 0.000000
-4.929700 0.000000
-4.903700 0.000000
-4.877700 0.000000
-4.851700 0.000000
-4.825600 0.000000
-4.799600 0.000000
-4.773600 0.000000
-4.747500 0.000000
-4.721500 0.000000
-4.695500 0.000000
-4.669500 0.000000
-4.643400 0.000000
-4.617400 0.000000
-4.591400 0.000000
-4.565300 0.000000
-4.539300 0.000000
-4.513300 0.000000
-4.487300 0.000000
-4.461200 0.000000
-4.435200 0.000000
-4.409200 0.000000
-4.383200 0.000000
-4.357100 0.000000
-4.331100 0.000000
-4.305100 0.000000
-4.279000 0.000000
-4.253000 0.000000
-4.227000 0.000000
-4.201000 0.000000
-4.174900 0.000000
-4.148900 0.000000
-4.122900 0.000000
-4.096800 0.000000
-4.070800 0.000000
-4.044800 0.000000
-4.018800 0.000000
-3.992700 0.000000
-3.966700 0.000000
-3.940700 0.000000
-3.914600 0.000000
-3.888600 0.000000
-3.862600 0.000000
-3.836600 0.000000
-3.810500 0.000000
-3.784500 0.000000
-3.758500 0.000000
-3.732500 0.000000
-3.706400 0.000000
-3.680400 0.000000
-3.654400 0.000000
-3.628300 0.000000
-3.602300 0.000000
-3.576300 0.000000
-3.550300 0.000000
-3.524200 0.000000
-3.498200 0.000000
-3.472200 0.000000
-3.446100 0.000000
-3.420100 0.000000
-3.394100 0.000000
-3.368100 0.000000
-3.342000 0.000000
-3.316000 0.000000
-3.290000 0.000000
-3.263900 0.000000
-3.237900 0.000000
-3.211900 0.000000
-3.185900 0.000000
-3.159800 0.000000
-3.133800 0.000000
-3.107800 0.000000
-3.081700 0.000000
-3.055700 0.000000
-3.029700 0.000000
-3.003700 0.000000
-2.977600 0.000000
-2.951600 0.000000
-2.925600 0.000000
-2.899600 0.000000
-2.873500 0.000000
-2.847500 0.000000
-2.821500 0.000000
-2.795400 0.000000
-2.769400 0.000000
-2.743400 0.000000
-2.717400 0.000000
-2.691300 0.000000
-2.665300 0.000000
-2.639300 0.000000
-2.613200 0.000000
-2.587200 0.000000
-2.561200 0.000000
-2.535200 0.000000
-2.509100 0.000000
-2.483100 0.000000
-2.457100 0.000000
-2.431000 0.000000
-2.405000 0.000000
-2.379000 0.000000
-2.353000 0.000000
-2.326900 0.000000
-2.300900 0.000000
-2.274900 0.000000
-2.248800 0.000000
-2.222800 0.000000
-2.196800 0.000000
-2.170800 0.216200
-2.144700 1.190500
-2.118700 3.067000
-2.092700 5.771300
-2.066700 7.914300
-2.040600 7.006800
-2.014600 6.720500
-1.988600 6.988600
-1.962500 6.922900
-1.936500 7.036500
-1.910500 7.356500
-1.884500 7.705600
-1.858400 9.089700
-1.832400 10.707700
-1.806400 11.405600
-1.780300 7.873100
-1.754300 6.229100
-1.728300 5.762700
-1.702300 5.637000
-1.676200 5.314000
-1.650200 5.137100
-1.624200 5.139500
-1.598100 5.092400
-1.572100 5.023400
-1.546100 5.675900
-1.520100 6.858900
-1.494000 8.125500
-1.468000 8.965700
-1.442000 8.339400
-1.416000 7.747400
-1.389900 5.460500
-1.363900 5.515400
-1.337900 5.514400
-1.311800 5.467600
-1.285800 5.489500
-1.259800 5.585600
-1.233800 5.631400
-1.207700 6.010800
-1.181700 5.532600
-1.155700 5.745800
-1.129600 6.887900
-1.103600 5.350000
-1.077600 4.904500
-1.051600 4.512900
-1.025500 4.193200
-0.999500 4.183900
-0.973500 4.517100
-0.947400 4.757300
-0.921400 5.014400
-0.895400 5.150400
-0.869400 5.282500
-0.843300 4.852100
-0.817300 4.627800
-0.791300 4.600400
-0.765200 5.007900
-0.739200 5.368100
-0.713200 5.471100
-0.687200 4.922300
-0.661100 4.457300
-0.635100 4.274900
-0.609100 4.069200
-0.583100 4.093400
-0.557000 4.421900
-0.531000 4.705100
-0.505000 5.351100
-0.478900 5.750400
-0.452900 6.465800
-0.426900 12.193100
-0.400900 12.724200
-0.374800 9.870100
-0.348800 7.674500
-0.322800 6.683300
-0.296700 6.774000
-0.270700 7.033400
-0.244700 7.799300
-0.218700 9.664000
-0.192600 8.882300
-0.166600 8.063900
-0.140600 7.000100
-0.114500 6.321700
-0.088500 5.885700
-0.062500 6.005100
-0.036500 6.705100
-0.010400 7.012800
0.015600 5.878800
0.041600 6.939100
0.067700 7.725500
0.093700 6.474800
0.119700 6.464200
0.145700 6.320800
0.171800 5.660200
0.197800 4.949200
0.223800 4.479600
0.249800 4.510500
0.275900 4.570800
0.301900 4.867600
0.327900 5.096500
0.354000 5.318400
0.380000 5.941500
0.406000 6.542600
0.432000 7.008700
0.458100 7.903900
0.484100 6.815800
0.510100 4.597200
0.536200 4.515700
0.562200 5.236800
0.588200 5.501100
0.614200 6.667100
0.640300 7.596400
0.666300 7.503200
0.692300 8.259500
0.718400 8.951900
0.744400 8.907000
0.770400 8.411400
0.796400 7.652300
0.822500 7.737600
0.848500 7.641400
0.874500 7.779600
0.900500 7.859900
0.926600 8.113900
0.952600 8.669900
0.978600 9.237500
1.004700 8.758400
1.030700 8.562300
1.056700 9.409400
1.082700 11.897000
1.108800 13.138400
1.134800 11.279000
1.160800 10.548500
1.186900 10.361000
1.212900 9.693600
1.238900 8.983700
1.264900 9.492600
1.291000 9.622000
1.317000 11.127300
1.343000 12.428300
1.369100 10.138400
1.395100 10.536100
1.421100 13.866500
1.447100 15.102700
1.473200 14.151600
1.499200 12.558300
1.525200 10.434300
1.551300 10.208400
1.577300 10.381300
1.603300 11.018600
1.629300 8.947200
1.655400 8.413100
1.681400 8.385300
1.707400 9.062700
1.733400 9.820400
1.759500 9.897700
1.785500 11.974700
1.811500 10.949600
1.837600 11.146600
1.863600 11.683100
1.889600 13.854100
1.915600 14.042800
1.941700 13.844000
1.967700 12.631200
1.993700 12.920700
2.019800 10.699100
2.045800 9.401800
2.071800 8.563000
2.097800 8.360700
2.123900 8.417300
2.149900 9.187100
2.175900 9.057500
2.202000 9.594400
2.228000 9.591300
2.254000 9.327000
2.280000 9.493800
2.306100 8.186800
2.332100 7.637600
2.358100 7.553800
2.384100 6.705100
2.410200 6.947700
2.436200 8.750300
2.462200 8.235600
2.488300 8.518500
2.514300 8.629700
2.540300 8.641000
2.566300 7.835600
2.592400 7.335300
2.618400 6.849400
2.644400 7.876600
2.670500 8.686200
2.696500 7.566100
2.722500 6.660600
2.748500 5.836500
2.774600 5.227400
2.800600 4.972200
2.826600 5.008200
2.852700 6.021000
2.878700 5.122800
2.904700 4.636600
2.930700 4.300900
2.956800 4.129600
2.982800 3.942400
3.008800 3.657200
3.034900 3.678800
3.060900 4.062800
3.086900 4.473300
3.112900 4.975400
3.139000 4.199700
3.165000 3.589300
3.191000 2.804700
3.217000 2.485300
3.243100 2.431000
3.269100 2.463800
3.295100 2.597400
3.321200 2.718500
3.347200 2.834700
3.373200 2.873200
3.399200 2.870900
3.425300 2.671200
3.451300 2.715400
3.477300 2.515300
3.503400 2.495100
3.529400 2.459700
3.555400 2.366100
3.581400 2.283900
3.607500 2.220600
3.633500 2.232100
3.659500 2.268400
3.685600 2.291900
3.711600 2.308600
3.737600 2.324400
3.763600 2.360000
3.789700 2.467200
3.815700 2.581500
3.841700 2.727800
3.867800 3.248000
3.893800 2.853600
3.919800 2.673600
3.945800 2.577900
3.971900 2.548400
3.997900 2.537000
4.023900 2.536400
4.049900 2.544700
4.076000 2.554200
4.102000 2.573600
4.128000 2.600500
4.154100 2.635800
4.180100 2.669700
4.206100 2.704600
4.232100 2.791400
4.258200 3.008300
4.284200 3.465400
4.310200 4.288700
4.336300 5.283600
4.362300 3.943400
4.388300 2.684200
4.414300 2.642500
4.440400 2.651800
4.466400 2.664100
4.492400 2.782100
4.518500 3.117200
4.544500 3.944100
4.570500 3.523200
4.596500 2.648200
4.622600 2.073000
4.648600 1.631800
4.674600 1.487200
4.700600 4.098000
4.726700 5.846200
4.752700 4.274100
4.778700 4.070000
4.804800 4.075200
4.830800 4.049500
4.856800 4.001900
4.882800 4.210900
4.908900 4.431600
4.934900 4.257200
4.960900 4.269100
4.987000 4.417400
5.013000 4.657500
5.039000 4.863900
5.065000 5.274300
5.091100 6.216800
5.117100 6.832800
5.143100 7.146500
5.169200 6.719900
5.195200 6.495000
5.221200 6.950400
5.247200 4.710800
5.273300 4.576900
5.299300 4.311200
5.325300 4.133900
5.351400 4.181300
5.377400 4.283000
5.403400 4.493200
5.429400 4.781500
5.455500 5.103800
5.481500 5.748900
5.507500 6.651800
5.533500 6.989100
5.559600 7.217000
5.585600 8.066100
5.611600 8.534800
5.637700 7.960700
5.663700 7.721100
5.689700 8.006200
5.715700 8.208500
5.741800 7.827700
5.767800 7.050200
5.793800 7.087100
5.819900 7.719200
5.845900 8.951500
5.871900 11.010300
5.897900 9.485100
5.924000 9.742700
5.950000 10.546600
5.976000 10.317200
6.002100 10.919100
6.028100 11.051600
6.054100 12.049400
6.080100 18.029500
6.106200 23.763900
6.132200 18.506400
6.158200 13.783100
6.184300 15.292700
6.210300 12.743300
6.236300 11.736200
6.262300 6.659600
6.288400 6.474900
6.314400 6.110100
6.340400 7.390100
6.366400 13.484700
6.392500 22.172600
6.418500 15.536900
6.444500 14.521000
6.470600 15.408100
6.496600 14.800600
6.522600 11.727000
6.548600 9.152600
6.574700 7.539000
6.600700 7.696000
6.626700 8.095500
6.652800 9.174900
6.678800 10.207900
6.704800 11.308400
6.730800 10.626900
6.756900 8.483800
6.782900 7.074900
6.808900 7.472100
6.835000 8.179400
6.861000 8.872900
6.887000 9.288500
6.913000 9.649400
6.939100 10.620500
6.965100 6.338600
6.991100 5.481100
7.017100 3.774800
7.043200 3.528200
7.069200 3.306200
7.095200 3.093800
7.121300 2.903200
7.147300 2.694300
7.173300 2.623200
7.199300 2.746300
7.225400 3.121000
7.251400 3.939300
7.277400 6.121000
7.303500 4.723300
7.329500 5.344800
7.355500 6.366500
7.381500 6.021600
7.407600 6.297300
7.433600 6.340600
7.459600 6.259800
7.485700 6.249500
7.511700 6.335600
7.537700 5.467400
7.563700 5.407900
7.589800 4.989300
7.615800 4.697100
7.641800 6.004700
7.667900 6.147400
7.693900 4.193800
7.719900 4.197600
7.745900 4.238800
7.772000 4.529400
7.798000 4.804600
7.824000 4.533200
7.850000 4.145100
7.876100 3.467400
7.902100 3.186100
7.928100 3.183500
7.954200 3.024900
7.980200 2.898800
8.006200 2.791300
8.032200 2.786700
8.058300 2.508000
8.084300 2.241600
8.110300 1.939300
8.136400 1.601500
8.162400 1.226400
8.188400 0.810700
8.214400 0.253800
8.240500 0.081500
8.266500 0.025800
8.292500 0.001500
8.318600 0.000000
8.344600 0.000000
8.370600 0.000000
8.396600 0.000000
8.422700 0.000000
8.448700 0.000000
8.474700 0.000000
8.500800 0.000000
8.526800 0.000000
8.552800 0.000000
8.578800 0.000000
8.604900 0.000000
8.630900 0.000000
8.656900 0.000000
8.682900 0.006000
8.709000 0.023000
8.735000 0.051200
8.761000 0.090600
8.787100 0.136100
8.813100 0.175400
8.839100 0.207400
8.865100 0.231200
8.891200 0.247400
8.917200 0.259700
8.943200 0.269100
8.969300 0.276500
8.995300 0.285900
9.021300 0.297600
9.047300 0.311700
9.073400 0.328000
9.099400 0.346200
9.125400 0.364800
9.151500 0.382600
9.177500 0.399800
9.203500 0.416200
9.229500 0.432000
9.255600 0.448400
9.281600 0.465600
9.307600 0.483700
9.333600 0.503800
9.359700 0.527400
9.385700 0.553900
9.411700 0.583700
9.437800 0.620100
9.463800 0.663200
9.489800 1.561500
9.515800 1.747300
9.541900 1.931300
9.567900 2.061800
9.593900 2.679100
9.620000 3.123000
9.646000 3.723000
9.672000 4.279200
9.698000 4.792100
9.724100 5.333300
9.750100 6.082100
9.776100 6.540000
9.802200 6.813500
9.828200 7.030200
9.854200 7.245000
9.880200 7.598200
9.906300 7.122200
9.932300 6.025900
9.958300 4.903000
9.984400 4.661100
10.010400 4.501700
10.036400 4.292000
10.062400 3.695400
10.088500 3.252600
10.114500 3.096900
10.140500 2.901800
10.166500 2.722100
10.192600 2.275600
10.218600 2.161700
10.244600 2.065400
10.270700 1.990100
10.296700 2.217400
10.322700 2.553200
10.348700 2.860100
10.374800 3.104000
10.400800 3.263500
10.426800 3.492500
10.452900 4.029600
10.478900 5.053400
10.504900 6.802500
10.530900 7.805200
10.557000 7.433000
10.583000 7.109400
10.609000 7.180900
10.635100 7.792900
10.661100 9.085200
10.687100 9.358700
10.713100 9.310400
10.739200 9.343200
10.765200 9.408200
10.791200 9.137400
10.817300 8.115300
10.843300 6.647200
10.869300 6.032700
10.895300 5.557300
10.921400 5.522400
10.947400 6.087200
10.973400 6.020300
10.999400 5.947800
11.025500 5.474500
11.051500 5.202000
11.077500 5.218900
11.103600 5.667600
11.129600 5.654500
11.155600 5.792800
11.181600 6.272800
11.207700 6.265700
11.233700 6.490300
11.259700 6.132700
11.285800 6.272700
11.311800 6.951600
11.337800 8.199700
11.363800 8.640900
11.389900 6.477100
11.415900 5.490900
11.441900 7.338200
11.468000 7.518800
11.494000 7.328800
11.520000 6.881200
11.546000 6.248500
11.572100 5.980600
11.598100 5.993500
11.624100 6.413400
11.650100 6.555200
11.676200 6.946900
11.702200 7.774500
11.728200 8.782200
11.754300 7.086900
11.780300 5.972600
11.806300 6.078700
11.832300 6.620200
11.858400 8.807500
11.884400 10.858800
11.910400 10.509300
11.936500 9.084300
11.962500 8.543600
11.988500 7.338300
12.014500 6.830000
12.040600 5.888200
12.066600 5.421500
12.092600 5.835600
12.118700 6.616100
12.144700 6.777300
12.170700 6.714600
12.196700 6.776700
12.222800 6.710300
12.248800 6.599000
12.274800 6.446200
12.300900 6.943200
12.326900 8.749300
12.352900 9.808500
12.378900 9.688200
12.405000 8.138800
12.431000 7.313700
12.457000 6.922600
12.483000 6.343800
12.509100 6.216800
12.535100 6.493100
12.561100 6.417300
12.587200 6.015300
12.613200 5.999700
12.639200 6.117300
12.665200 5.585500
12.691300 5.402400
12.717300 5.557300
12.743300 5.390200
12.769400 4.986900
12.795400 4.547100
12.821400 4.208300
12.847400 4.469000
12.873500 4.772200
12.899500 4.867100
12.925500 5.075100
12.951600 5.441900
12.977600 5.961800
13.003600 6.486600
13.029600 7.075400
13.055700 7.242100
13.081700 6.555000
13.107700 6.985300
13.133700 7.077300
13.159800 7.416100
13.185800 8.068300
13.211800 7.781700
13.237900 8.295300
13.263900 8.552500
13.289900 8.404900
13.315900 8.146800
13.342000 8.032700
13.368000 7.829000
13.394000 7.475700
13.420100 6.923800
13.446100 6.229500
13.472100 6.438200
13.498100 6.311100
13.524200 6.138500
13.550200 6.029400
13.576200 5.860200
13.602300 5.708200
13.628300 5.607600
13.654300 5.474400
13.680300 5.413000
13.706400 5.367900
13.732400 5.480000
13.758400 5.705700
13.784500 6.007300
13.810500 6.375400
13.836500 6.799400
13.862500 7.426600
13.888600 7.635900
13.914600 8.142300
13.940600 8.584500
13.966600 8.631000
13.992700 9.400500
14.018700 8.148600
14.044700 7.651100
14.070800 7.658900
14.096800 8.494500
14.122800 8.411300
14.148800 8.539000
14.174900 8.454900
14.200900 8.357400
14.226900 8.362900
14.253000 8.527500
14.279000 8.439400
14.305000 8.444700
14.331000 8.489800
14.357100 8.697000
14.383100 8.804100
14.409100 8.963200
14.435200 9.167000
14.461200 9.483500
14.487200 9.909900
14.513200 10.007700
14.539300 9.926900
14.565300 9.222600
14.591300 8.395300
14.617400 8.108600
14.643400 7.721100
14.669400 7.659000
14.695400 7.684500
14.721500 7.936700
14.747500 7.976300
14.773500 8.563300
14.799500 9.236400
14.825600 9.569300
14.851600 9.543000
14.877600 8.688000
14.903700 8.804100
14.929700 8.877300
14.955700 10.146100
14.981700 8.453600
15.007800 8.550400
15.033800 8.966300
15.059800 10.473000
15.085900 10.398000
15.111900 8.719700
15.137900 7.873600
15.163900 7.811700
15.190000 8.012300
15.216000 8.815700
15.242000 9.602900
15.268100 10.005900
15.294100 9.767400
15.320100 8.990900
15.346100 8.522900
15.372200 6.835600
15.398200 6.086500
15.424200 6.772000
15.450200 7.515600
15.476300 7.475700
15.502300 7.704400
15.528300 8.066500
15.554400 7.814900
15.580400 7.061400
15.606400 7.282600
15.632400 6.979900
15.658500 6.608700
15.684500 6.013300
15.710500 5.873600
15.736600 5.859800
15.762600 6.357300
15.788600 7.412100
15.814600 7.511900
15.840700 7.861800
15.866700 8.108700
15.892700 8.972600
15.918800 8.517900
15.944800 7.369700
15.970800 6.946900
15.996800 7.065500
16.022900 8.646700
16.048900 11.166900
16.074900 12.028800
16.101000 9.351600
16.127000 8.311500
16.153000 8.935800
16.179000 9.582800
16.205100 9.547800
16.231100 8.451700
16.257100 7.842500
16.283100 7.402800
16.309200 6.981200
16.335200 6.674100
16.361200 6.434400
16.387300 6.431400
16.413300 6.834000
16.439300 7.187600
16.465300 7.309100
16.491400 7.288300
16.517400 7.310000
16.543400 7.453400
16.569500 7.963500
16.595500 6.927900
16.621500 7.290300
16.647500 7.654200
16.673600 8.089200
16.699600 8.083800
16.725600 7.086200
16.751700 6.579000
16.777700 6.388900
16.803700 7.191800
16.829700 8.827300
16.855800 8.490000
16.881800 7.972800
16.907800 8.112900
16.933900 7.731100
16.959900 7.641800
16.985900 7.736200
17.011900 7.192600
17.038000 6.883200
17.064000 6.667800
17.090000 6.637100
17.116000 5.855700
17.142100 5.571100
17.168100 5.921200
17.194100 6.098900
17.220200 6.435700
17.246200 7.074700
17.272200 6.888100
17.298200 6.518000
17.324300 6.541200
17.350300 7.093600
17.376300 7.136500
17.402400 7.109000
17.428400 6.733900
17.454400 6.493700
17.480400 5.826600
17.506500 5.845000
17.532500 5.591600
17.558500 5.253500
17.584600 5.017100
17.610600 5.087000
17.636600 5.456100
17.662600 5.740900
17.688700 6.541800
17.714700 7.115600
17.740700 7.599900
17.766700 7.904600
17.792800 8.098000
17.818800 8.086000
17.844800 8.465200
17.870900 10.098600
17.896900 9.074600
17.922900 8.277700
17.948900 7.333400
17.975000 7.089800
18.001000 7.011300
18.027000 6.913300
18.053100 7.289900
18.079100 6.743200
18.105100 6.681400
18.131100 6.585500
18.157200 6.516700
18.183200 6.238000
18.209200 6.001500
18.235300 6.081200
18.261300 6.367500
18.287300 6.156000
18.313300 5.599100
18.339400 5.612600
18.365400 6.211200
18.391400 6.824600
18.417500 6.553400
18.443500 6.491300
18.469500 5.150600
18.495500 4.446900
18.521600 3.939200
18.547600 3.610500
18.573600 3.339600
18.599600 3.111800
18.625700 2.886300
18.651700 2.680400
18.677700 2.476900
18.703800 2.317000
18.729800 2.072500
18.755800 1.790900
18.781800 1.592600
18.807900 1.452000
18.833900 1.324500
18.859900 1.209200
18.886000 1.120200
18.912000 1.023100
18.938000 0.877300
18.964000 0.760100
18.990100 0.693500
19.016100 0.644200
19.042100 0.593600
19.068200 0.490300
19.094200 0.397300
19.120200 0.346500
19.146200 0.300700
19.172300 0.249200
19.198300 0.181700
19.224300 0.153200
19.250400 0.130000
19.276400 0.108500
19.302400 0.088600
19.328400 0.070400
19.354500 0.053800
19.380500 0.038900
19.406500 0.025600
19.432500 0.015800
19.458600 0.007600
19.484600 0.000600
19.510600 0.000000
19.536700 0.000000
19.562700 0.000000
19.588700 0.000000
19.614700 0.000000
19.640800 0.000000
19.666800 0.000000
19.692800 0.000000
19.718900 0.000000
19.744900 0.000000
19.770900 0.000000
19.796900 0.000000
19.823000 0.000000
19.849000 0.000000
19.875000 0.000000
19.901100 0.000000
19.927100 0.000000
19.953100 0.000000
19.979100 0.000000
20.005200 0.000000
20.031200 0.000000
20.057200 0.000000
20.083200 0.000000
20.109300 0.000000
20.135300 0.000000
20.161300 0.000000
20.187400 0.000000
20.213400 0.000000
20.239400 0.000000
20.265400 0.000000
20.291500 0.000000
20.317500 0.000000
20.343500 0.000000
20.369600 0.000000
20.395600 0.000000
20.421600 0.000000
20.447600 0.000000
20.473700 0.000000
20.499700 0.000000
20.525700 0.000000
20.551800 0.000000
20.577800 0.000000
20.603800 0.000000
20.629800 0.000000
20.655900 0.000000
20.681900 0.000000
20.707900 0.000000
20.734000 0.000000
20.760000 0.000000
20.786000 0.000000
20.812000 0.000000
20.838100 0.000000
20.864100 0.000000
20.890100 0.000000
20.916100 0.000000
20.942200 0.000000
20.968200 0.000000
20.994200 0.000000
21.020300 0.000000
21.046300 0.000000
21.072300 0.000000
21.098300 0.000000
21.124400 0.000000
21.150400 0.000000
21.176400 0.000000
21.202500 0.000000
21.228500 0.000000
21.254500 0.000000
21.280500 0.000000
21.306600 0.000000
21.332600 0.000000
21.358600 0.000000
21.384700 0.000000
21.410700 0.000000
21.436700 0.000000
21.462700 0.000000
21.488800 0.000000
21.514800 0.000000
21.540800 0.000000
21.566900 0.000000
21.592900 0.000000
21.618900 0.000000
21.644900 0.000000
21.671000 0.000000
21.697000 0.000000
21.723000 0.000000
21.749000 0.000000
21.775100 0.000000
21.801100 0.000000
21.827100 0.000000
21.853200 0.000000
e
