set title 'mp-1058581 - Density of States'
set xlabel 'Energy (eV)'
set ylabel 'DOS (states/eV)'
set grid
set xrange [-10:10]
set yrange [0:7.801]
set xzeroaxis lt -1
set terminal png size 800,600
set output 'mp-1058581_dos_gnuplot.png'
plot '-' using 1:2 with lines title 'DOS'
-30.312500 0.000000
-30.277900 0.000000
-30.243300 0.000000
-30.208700 0.000000
-30.174100 0.000000
-30.139600 0.000000
-30.105000 0.000000
-30.070400 0.000000
-30.035800 0.000000
-30.001300 0.000000
-29.966700 0.000000
-29.932100 0.000000
-29.897500 0.000000
-29.863000 0.000000
-29.828400 0.000000
-29.793800 0.000000
-29.759200 0.000000
-29.724600 0.000000
-29.690100 0.000000
-29.655500 0.000000
-29.620900 0.000000
-29.586300 0.000000
-29.551800 0.000000
-29.517200 0.000000
-29.482600 0.000000
-29.448000 0.000000
-29.413500 0.000000
-29.378900 0.000000
-29.344300 0.000000
-29.309700 0.000000
-29.275100 0.000000
-29.240600 0.000000
-29.206000 0.000000
-29.171400 0.000000
-29.136800 0.000000
-29.102300 0.000000
-29.067700 0.000000
-29.033100 0.000000
-28.998500 0.000000
-28.964000 0.000000
-28.929400 0.000000
-28.894800 0.000000
-28.860200 0.000000
-28.825600 0.000000
-28.791100 0.000000
-28.756500 0.000000
-28.721900 0.000000
-28.687300 0.000000
-28.652800 0.000000
-28.618200 0.000000
-28.583600 0.000000
-28.549000 0.000000
-28.514500 0.000000
-28.479900 0.000000
-28.445300 0.000000
-28.410700 0.000000
-28.376100 0.000000
-28.341600 0.000000
-28.307000 0.000000
-28.272400 0.000000
-28.237800 0.000000
-28.203300 0.000000
-28.168700 0.000000
-28.134100 0.000000
-28.099500 0.000000
-28.065000 0.000000
-28.030400 0.000000
-27.995800 0.000000
-27.961200 0.000000
-27.926600 0.000000
-27.892100 0.000000
-27.857500 0.000000
-27.822900 0.000000
-27.788300 0.000000
-27.753800 0.000000
-27.719200 0.000000
-27.684600 0.000000
-27.650000 0.000000
-27.615500 0.000000
-27.580900 0.000000
-27.546300 0.000000
-27.511700 0.000000
-27.477100 0.000000
-27.442600 0.000000
-27.408000 0.000000
-27.373400 0.000000
-27.338800 0.000000
-27.304300 0.000000
-27.269700 0.000000
-27.235100 0.000000
-27.200500 0.000000
-27.166000 7.637100
-27.131400 108.990900
-27.096800 0.000000
-27.062200 0.000000
-27.027600 0.000000
-26.993100 0.000000
-26.958500 0.000000
-26.923900 0.000000
-26.889300 0.000000
-26.854800 0.000000
-26.820200 0.000000
-26.785600 0.000000
-26.751000 0.000000
-26.716500 0.000000
-26.681900 0.000000
-26.647300 0.000000
-26.612700 0.000000
-26.578100 0.000000
-26.543600 0.000000
-26.509000 0.000000
-26.474400 0.000000
-26.439800 0.000000
-26.405300 0.000000
-26.370700 0.000000
-26.336100 0.000000
-26.301500 0.000000
-26.267000 0.000000
-26.232400 0.000000
-26.197800 0.000000
-26.163200 0.000000
-26.128600 0.000000
-26.094100 0.000000
-26.059500 0.000000
-26.024900 0.000000
-25.990300 0.000000
-25.955800 0.000000
-25.921200 0.000000
-25.886600 0.000000
-25.852000 0.000000
-25.817500 0.000000
-25.782900 0.000000
-25.748300 0.000000
-25.713700 0.000000
-25.679100 0.000000
-25.644600 0.000000
-25.610000 0.000000
-25.575400 0.000000
-25.540800 0.000000
-25.506300 0.000000
-25.471700 0.000000
-25.437100 0.000000
-25.402500 0.000000
-25.368000 0.000000
-25.333400 0.000000
-25.298800 0.000000
-25.264200 0.000000
-25.229600 0.000000
-25.195100 0.000000
-25.160500 0.000000
-25.125900 0.000000
-25.091300 0.000000
-25.056800 0.000000
-25.022200 0.000000
-24.987600 0.000000
-24.953000 0.000000
-24.918500 0.000000
-24.883900 0.000000
-24.849300 0.000000
-24.814700 0.000000
-24.780100 0.000000
-24.745600 0.000000
-24.711000 0.000000
-24.676400 0.000000
-24.641800 0.000000
-24.607300 0.000000
-24.572700 0.000000
-24.538100 0.000000
-24.503500 0.000000
-24.469000 0.000000
-24.434400 0.000000
-24.399800 0.000000
-24.365200 0.000000
-24.330600 0.000000
-24.296100 0.000000
-24.261500 0.000000
-24.226900 0.000000
-24.192300 0.000000
-24.157800 0.000000
-24.123200 0.000000
-24.088600 0.000000
-24.054000 0.000000
-24.019500 0.000000
-23.984900 0.000000
-23.950300 0.000000
-23.915700 0.000000
-23.881100 0.000000
-23.846600 0.000000
-23.812000 0.000000
-23.777400 0.000000
-23.742800 0.000000
-23.708300 0.000000
-23.673700 0.000000
-23.639100 0.000000
-23.604500 0.000000
-23.570000 0.000000
-23.535400 0.000000
-23.500800 0.000000
-23.466200 0.000000
-23.431600 0.000000
-23.397100 0.000000
-23.362500 0.000000
-23.327900 0.000000
-23.293300 0.000000
-23.258800 0.000000
-23.224200 0.000000
-23.189600 0.000000
-23.155000 0.000000
-23.120500 0.000000
-23.085900 0.000000
-23.051300 0.000000
-23.016700 0.000000
-22.982100 0.000000
-22.947600 0.000000
-22.913000 0.000000
-22.878400 0.000000
-22.843800 0.000000
-22.809300 0.000000
-22.774700 0.000000
-22.740100 0.000000
-22.705500 0.000000
-22.671000 0.000000
-22.636400 0.000000
-22.601800 0.000000
-22.567200 0.000000
-22.532600 0.000000
-22.498100 0.000000
-22.463500 0.000000
-22.428900 0.000000
-22.394300 0.000000
-22.359800 0.000000
-22.325200 0.000000
-22.290600 0.000000
-22.256000 0.000000
-22.221500 0.000000
-22.186900 0.000000
-22.152300 0.000000
-22.117700 0.000000
-22.083100 0.000000
-22.048600 0.000000
-22.014000 0.000000
-21.979400 0.000000
-21.944800 0.000000
-21.910300 0.000000
-21.875700 0.000000
-21.841100 0.000000
-21.806500 0.000000
-21.772000 0.000000
-21.737400 0.000000
-21.702800 0.000000
-21.668200 0.000000
-21.633600 0.000000
-21.599100 0.000000
-21.564500 0.000000
-21.529900 0.000000
-21.495300 0.000000
-21.460800 0.000000
-21.426200 0.000000
-21.391600 0.000000
-21.357000 0.000000
-21.322500 0.000000
-21.287900 0.000000
-21.253300 0.000000
-21.218700 0.000000
-21.184100 0.000000
-21.149600 0.000000
-21.115000 0.000000
-21.080400 0.000000
-21.045800 0.000000
-21.011300 0.000000
-20.976700 0.000000
-20.942100 0.000000
-20.907500 0.000000
-20.873000 0.000000
-20.838400 0.000000
-20.803800 0.000000
-20.769200 0.000000
-20.734600 0.000000
-20.700100 0.000000
-20.665500 0.000000
-20.630900 0.000000
-20.596300 0.000000
-20.561800 0.000000
-20.527200 0.000000
-20.492600 0.000000
-20.458000 0.000000
-20.423500 0.000000
-20.388900 0.000000
-20.354300 0.000000
-20.319700 0.000000
-20.285100 0.000000
-20.250600 0.000000
-20.216000 0.000000
-20.181400 0.000000
-20.146800 0.000000
-20.112300 0.000000
-20.077700 0.000000
-20.043100 0.000000
-20.008500 0.000000
-19.974000 0.000000
-19.939400 0.000000
-19.904800 0.000000
-19.870200 0.000000
-19.835600 0.000000
-19.801100 0.000000
-19.766500 0.000000
-19.731900 0.000000
-19.697300 0.000000
-19.662800 0.000000
-19.628200 0.000000
-19.593600 0.000000
-19.559000 0.000000
-19.524500 0.000000
-19.489900 0.000000
-19.455300 0.000000
-19.420700 0.000000
-19.386100 0.000000
-19.351600 0.000000
-19.317000 0.000000
-19.282400 0.000000
-19.247800 0.000000
-19.213300 0.000000
-19.178700 0.000000
-19.144100 0.000000
-19.109500 0.000000
-19.075000 0.000000
-19.040400 0.000000
-19.005800 0.000000
-18.971200 0.000000
-18.936600 0.000000
-18.902100 0.000000
-18.867500 0.000000
-18.832900 0.000000
-18.798300 0.000000
-18.763800 0.000000
-18.729200 0.000000
-18.694600 0.000000
-18.660000 0.000000
-18.625500 0.000000
-18.590900 0.000000
-18.556300 0.000000
-18.521700 0.000000
-18.487100 0.000000
-18.452600 0.000000
-18.418000 0.000000
-18.383400 0.000000
-18.348800 0.000000
-18.314300 0.000000
-18.279700 0.000000
-18.245100 0.000000
-18.210500 0.000000
-18.176000 0.000000
-18.141400 0.000000
-18.106800 0.000000
-18.072200 0.000000
-18.037600 0.000000
-18.003100 0.000000
-17.968500 0.000000
-17.933900 0.000000
-17.899300 0.000000
-17.864800 0.000000
-17.830200 0.000000
-17.795600 0.000000
-17.761000 0.000000
-17.726500 0.000000
-17.691900 0.000000
-17.657300 0.000000
-17.622700 0.000000
-17.588100 0.000000
-17.553600 0.000000
-17.519000 0.000000
-17.484400 0.000000
-17.449800 0.000000
-17.415300 0.000000
-17.380700 0.000000
-17.346100 0.000000
-17.311500 0.000000
-17.277000 0.000000
-17.242400 0.000000
-17.207800 0.000000
-17.173200 0.000000
-17.138600 0.000000
-17.104100 0.000000
-17.069500 0.000000
-17.034900 0.000000
-17.000300 0.000000
-16.965800 0.000000
-16.931200 0.000000
-16.896600 0.000000
-16.862000 0.000000
-16.827500 0.000000
-16.792900 0.000000
-16.758300 0.000000
-16.723700 0.000000
-16.689100 0.000000
-16.654600 0.000000
-16.620000 0.000000
-16.585400 0.000000
-16.550800 0.000000
-16.516300 0.000000
-16.481700 0.000000
-16.447100 0.000000
-16.412500 0.000000
-16.378000 0.000000
-16.343400 0.000000
-16.308800 0.000000
-16.274200 0.000000
-16.239600 0.000000
-16.205100 0.000000
-16.170500 0.000000
-16.135900 0.000000
-16.101300 0.000000
-16.066800 0.000000
-16.032200 0.000000
-15.997600 0.000000
-15.963000 0.000000
-15.928500 0.000000
-15.893900 0.000000
-15.859300 0.000000
-15.824700 0.000000
-15.790100 0.000000
-15.755600 0.000000
-15.721000 0.000000
-15.686400 0.000000
-15.651800 0.000000
-15.617300 0.000000
-15.582700 0.000000
-15.548100 0.000000
-15.513500 0.000000
-15.478900 0.000000
-15.444400 0.000000
-15.409800 0.000000
-15.375200 0.000000
-15.340600 0.000000
-15.306100 0.000000
-15.271500 0.000000
-15.236900 0.000000
-15.202300 0.000000
-15.167800 0.000000
-15.133200 0.000000
-15.098600 0.000000
-15.064000 0.000000
-15.029400 0.000000
-14.994900 0.000000
-14.960300 0.000000
-14.925700 0.000000
-14.891100 0.000000
-14.856600 0.000000
-14.822000 0.000000
-14.787400 0.000000
-14.752800 0.000000
-14.718300 0.000000
-14.683700 0.000000
-14.649100 0.000000
-14.614500 0.000000
-14.579900 0.000000
-14.545400 0.000000
-14.510800 0.000000
-14.476200 0.000000
-14.441600 0.000000
-14.407100 0.000000
-14.372500 0.000000
-14.337900 0.000000
-14.303300 0.000000
-14.268800 0.000000
-14.234200 0.000000
-14.199600 0.000000
-14.165000 0.000000
-14.130400 0.000000
-14.095900 0.000000
-14.061300 0.000000
-14.026700 0.000000
-13.992100 0.000000
-13.957600 0.000000
-13.923000 0.000000
-13.888400 0.000000
-13.853800 0.000000
-13.819300 0.000000
-13.784700 0.000000
-13.750100 0.000000
-13.715500 0.000000
-13.680900 0.000000
-13.646400 0.000000
-13.611800 0.000000
-13.577200 0.000000
-13.542600 0.000000
-13.508100 0.000000
-13.473500 0.000000
-13.438900 0.000000
-13.404300 0.000000
-13.369800 0.000000
-13.335200 0.000000
-13.300600 0.000000
-13.266000 0.000000
-13.231400 0.000000
-13.196900 0.000000
-13.162300 0.000000
-13.127700 0.000000
-13.093100 0.000000
-13.058600 0.000000
-13.024000 0.000000
-12.989400 0.000000
-12.954800 0.000000
-12.920300 0.000000
-12.885700 0.000000
-12.851100 0.000000
-12.816500 0.000000
-12.781900 0.000000
-12.747400 0.000000
-12.712800 0.000000
-12.678200 0.000000
-12.643600 0.021500
-12.609100 16.630900
-12.574500 35.809500
-12.539900 27.152700
-12.505300 13.482100
-12.470800 14.081500
-12.436200 19.094900
-12.401600 25.489900
-12.367000 33.518100
-12.332400 31.358500
-12.297900 48.893500
-12.263300 45.689400
-12.228700 23.918500
-12.194100 0.838700
-12.159600 0.000000
-12.125000 0.000000
-12.090400 0.000000
-12.055800 0.000000
-12.021300 0.000000
-11.986700 0.000000
-11.952100 0.000000
-11.917500 0.000000
-11.882900 0.000000
-11.848400 0.000000
-11.813800 0.000000
-11.779200 0.000000
-11.744600 0.000000
-11.710100 0.000000
-11.675500 0.000000
-11.640900 0.000000
-11.606300 0.000000
-11.571800 0.000000
-11.537200 0.000000
-11.502600 0.000000
-11.468000 0.000000
-11.433400 0.000000
-11.398900 0.000000
-11.364300 0.000000
-11.329700 0.000000
-11.295100 0.000000
-11.260600 0.000000
-11.226000 0.000000
-11.191400 0.000000
-11.156800 0.000000
-11.122300 0.000000
-11.087700 0.000000
-11.053100 0.000000
-11.018500 0.000000
-10.983900 0.000000
-10.949400 0.000000
-10.914800 0.000000
-10.880200 0.000000
-10.845600 0.000000
-10.811100 0.000000
-10.776500 0.000000
-10.741900 0.000000
-10.707300 0.000000
-10.672800 0.000000
-10.638200 0.000000
-10.603600 0.000000
-10.569000 0.000000
-10.534400 0.000000
-10.499900 0.000000
-10.465300 0.000000
-10.430700 0.000000
-10.396100 0.000000
-10.361600 0.000000
-10.327000 0.000000
-10.292400 0.000000
-10.257800 0.000000
-10.223300 0.000000
-10.188700 0.000000
-10.154100 0.000000
-10.119500 0.000000
-10.084900 0.000000
-10.050400 0.000000
-10.015800 0.000000
-9.981200 0.000000
-9.946600 0.000000
-9.912100 0.000000
-9.877500 0.000000
-9.842900 0.000000
-9.808300 0.000000
-9.773800 0.000000
-9.739200 0.000000
-9.704600 0.000000
-9.670000 0.000000
-9.635400 0.000000
-9.600900 0.000000
-9.566300 0.000000
-9.531700 0.000000
-9.497100 0.000000
-9.462600 0.000000
-9.428000 0.000000
-9.393400 0.000000
-9.358800 0.000000
-9.324300 0.000000
-9.289700 0.000000
-9.255100 0.000000
-9.220500 0.000000
-9.185900 0.000000
-9.151400 0.000000
-9.116800 0.000000
-9.082200 0.000000
-9.047600 0.000000
-9.013100 0.000000
-8.978500 0.000000
-8.943900 0.000000
-8.909300 0.000000
-8.874800 0.000000
-8.840200 0.000000
-8.805600 0.000000
-8.771000 0.000000
-8.736400 0.000000
-8.701900 0.000000
-8.667300 0.000000
-8.632700 0.000000
-8.598100 0.000000
-8.563600 0.000000
-8.529000 0.000000
-8.494400 0.000000
-8.459800 0.000000
-8.425300 0.000000
-8.390700 0.000000
-8.356100 0.000000
-8.321500 0.000000
-8.286900 0.000000
-8.252400 0.000000
-8.217800 0.000000
-8.183200 0.000000
-8.148600 0.000000
-8.114100 0.000000
-8.079500 0.000000
-8.044900 0.000000
-8.010300 0.000000
-7.975800 0.000000
-7.941200 0.000000
-7.906600 0.000000
-7.872000 0.000000
-7.837400 0.000000
-7.802900 0.000000
-7.768300 0.000000
-7.733700 0.000000
-7.699100 0.000000
-7.664600 0.000000
-7.630000 0.000000
-7.595400 0.000000
-7.560800 0.000000
-7.526300 0.000000
-7.491700 0.000000
-7.457100 0.000000
-7.422500 0.000000
-7.387900 0.000000
-7.353400 0.000000
-7.318800 0.000000
-7.284200 0.000000
-7.249600 0.000000
-7.215100 0.000000
-7.180500 0.000000
-7.145900 0.000000
-7.111300 0.000000
-7.076800 0.000000
-7.042200 0.000000
-7.007600 0.000000
-6.973000 0.000000
-6.938400 0.000000
-6.903900 0.000000
-6.869300 0.000000
-6.834700 0.000000
-6.800100 0.000000
-6.765600 0.000000
-6.731000 0.000000
-6.696400 0.000000
-6.661800 0.000000
-6.627300 0.000000
-6.592700 0.000000
-6.558100 0.000000
-6.523500 0.000000
-6.488900 0.000000
-6.454400 0.000000
-6.419800 0.000000
-6.385200 0.000000
-6.350600 0.000000
-6.316100 0.000000
-6.281500 0.000000
-6.246900 0.000000
-6.212300 0.000000
-6.177800 0.000000
-6.143200 0.000000
-6.108600 0.000000
-6.074000 0.000000
-6.039400 0.000000
-6.004900 0.000000
-5.970300 0.000000
-5.935700 0.000000
-5.901100 0.000000
-5.866600 0.000000
-5.832000 0.000000
-5.797400 0.000000
-5.762800 0.000000
-5.728300 0.000000
-5.693700 0.000000
-5.659100 0.000000
-5.624500 0.000000
-5.589900 0.000000
-5.555400 0.000000
-5.520800 0.000000
-5.486200 0.000000
-5.451600 0.000000
-5.417100 0.000000
-5.382500 0.000000
-5.347900 0.000000
-5.313300 0.000000
-5.278800 0.000000
-5.244200 0.000000
-5.209600 0.000000
-5.175000 0.000000
-5.140400 0.000000
-5.105900 0.000000
-5.071300 0.000000
-5.036700 0.000000
-5.002100 0.000000
-4.967600 0.000000
-4.933000 0.000000
-4.898400 0.000000
-4.863800 0.000000
-4.829300 0.000000
-4.794700 0.000000
-4.760100 0.000000
-4.725500 0.000000
-4.690900 0.000000
-4.656400 0.000000
-4.621800 0.000000
-4.587200 0.000000
-4.552600 0.000000
-4.518100 0.000000
-4.483500 0.000000
-4.448900 0.000000
-4.414300 0.000000
-4.379800 0.000000
-4.345200 0.000000
-4.310600 0.000000
-4.276000 0.000000
-4.241400 0.000000
-4.206900 0.000000
-4.172300 0.000000
-4.137700 0.000000
-4.103100 0.000000
-4.068600 0.000000
-4.034000 0.000000
-3.999400 0.000000
-3.964800 0.000000
-3.930300 0.000000
-3.895700 0.000000
-3.861100 0.000000
-3.826500 0.000000
-3.791900 0.000000
-3.757400 0.000000
-3.722800 0.000000
-3.688200 0.000000
-3.653600 0.000000
-3.619100 0.000000
-3.584500 0.000000
-3.549900 0.000000
-3.515300 0.000000
-3.480800 0.000000
-3.446200 0.000000
-3.411600 0.000000
-3.377000 0.000000
-3.342400 0.000000
-3.307900 0.000000
-3.273300 0.000000
-3.238700 0.000000
-3.204100 0.000000
-3.169600 0.000000
-3.135000 0.000000
-3.100400 0.000000
-3.065800 0.000000
-3.031300 0.000000
-2.996700 0.000000
-2.962100 0.000000
-2.927500 0.000000
-2.892900 0.000000
-2.858400 0.000000
-2.823800 0.000000
-2.789200 0.000000
-2.754600 0.000000
-2.720100 0.000000
-2.685500 0.000000
-2.650900 0.000000
-2.616300 0.000000
-2.581800 0.000000
-2.547200 0.000000
-2.512600 0.000000
-2.478000 0.000000
-2.443400 0.000000
-2.408900 0.000000
-2.374300 0.000000
-2.339700 0.000000
-2.305100 0.000000
-2.270600 0.000000
-2.236000 0.000000
-2.201400 0.000000
-2.166800 0.000000
-2.132300 0.000000
-2.097700 0.000000
-2.063100 0.000000
-2.028500 0.000000
-1.993900 0.000000
-1.959400 0.000000
-1.924800 0.000000
-1.890200 0.000000
-1.855600 0.000000
-1.821100 0.000000
-1.786500 0.000000
-1.751900 0.000000
-1.717300 0.000000
-1.682800 0.000000
-1.648200 0.000000
-1.613600 0.000000
-1.579000 0.000000
-1.544400 0.000000
-1.509900 0.000000
-1.475300 0.000000
-1.440700 0.000000
-1.406100 0.000000
-1.371600 0.000000
-1.337000 0.000000
-1.302400 0.000000
-1.267800 0.000000
-1.233300 0.000000
-1.198700 0.000000
-1.164100 0.000000
-1.129500 0.000000
-1.094900 0.002200
-1.060400 0.023700
-1.025800 0.068100
-0.991200 0.130100
-0.956600 0.167500
-0.922100 0.179200
-0.887500 0.183100
-0.852900 0.206200
-0.818300 0.230100
-0.783800 0.254800
-0.749200 0.280000
-0.714600 0.302500
-0.680000 0.319500
-0.645400 0.331800
-0.610900 0.345500
-0.576300 0.360100
-0.541700 0.376800
-0.507100 0.394900
-0.472600 0.413300
-0.438000 0.431900
-0.403400 0.450900
-0.368800 0.493800
-0.334300 0.543300
-0.299700 0.587500
-0.265100 0.562300
-0.230500 0.573800
-0.195900 0.585200
-0.161400 0.596600
-0.126800 0.607700
-0.092200 0.618400
-0.057600 0.628500
-0.023100 0.637800
0.011500 0.647600
0.046100 0.670300
0.080700 0.726100
0.115200 0.789100
0.149800 0.852100
0.184400 0.841700
0.219000 0.875700
0.253600 0.910600
0.288100 0.947000
0.322700 0.987700
0.357300 1.033600
0.391900 1.080800
0.426400 1.130300
0.461000 1.186000
0.495600 1.254600
0.530200 1.334800
0.564700 1.414700
0.599300 1.498400
0.633900 1.595600
0.668500 1.730300
0.703100 1.896600
0.737600 2.093200
0.772200 2.472900
0.806800 3.063800
0.841400 3.127300
0.875900 2.999800
0.910500 2.889800
0.945100 2.611600
0.979700 2.476500
1.014200 2.682900
1.048800 2.861100
1.083400 2.896700
1.118000 2.790200
1.152600 2.755200
1.187100 2.757500
1.221700 2.919000
1.256300 3.168600
1.290900 3.546500
1.325400 3.498500
1.360000 3.408000
1.394600 3.523300
1.429200 3.783900
1.463700 3.918400
1.498300 4.276100
1.532900 3.402300
1.567500 2.885200
1.602100 2.960700
1.636600 2.592900
1.671200 2.223600
1.705800 2.165700
1.740400 2.257400
1.774900 2.655900
1.809500 3.627000
1.844100 3.804300
1.878700 3.807600
1.913200 3.536400
1.947800 3.889900
1.982400 5.002700
2.017000 5.166700
2.051600 6.067400
2.086100 6.502700
2.120700 6.418700
2.155300 6.812600
2.189900 6.486100
2.224400 7.092000
2.259000 5.947100
2.293600 4.869100
2.328200 3.418900
2.362700 2.915000
2.397300 2.569000
2.431900 2.788000
2.466500 3.808900
2.501100 2.402200
2.535600 2.543100
2.570200 2.394700
2.604800 3.568000
2.639400 4.231700
2.673900 4.722000
2.708500 4.830600
2.743100 4.171600
2.777700 4.195500
2.812200 4.323900
2.846800 4.636900
2.881400 5.124600
2.916000 6.030200
2.950600 6.055100
2.985100 6.401700
3.019700 6.613100
3.054300 6.464200
3.088900 6.793100
3.123400 6.577700
3.158000 5.719500
3.192600 4.880800
3.227200 4.090300
3.261700 3.964700
3.296300 4.219800
3.330900 3.600400
3.365500 2.466800
3.400100 2.384800
3.434600 2.922600
3.469200 3.500800
3.503800 3.854500
3.538400 4.150000
3.572900 4.440200
3.607500 4.545600
3.642100 4.774200
3.676700 4.645900
3.711200 4.705700
3.745800 4.384800
3.780400 3.835600
3.815000 3.651100
3.849600 3.526500
3.884100 3.597700
3.918700 4.358100
3.953300 3.525200
3.987900 2.537800
4.022400 1.783000
4.057000 1.758100
4.091600 1.840400
4.126200 2.093400
4.160700 2.281700
4.195300 2.911400
4.229900 2.482600
4.264500 2.495500
4.299100 2.448200
4.333600 2.588200
4.368200 2.675800
4.402800 2.823400
4.437400 2.784100
4.471900 2.536600
4.506500 2.531000
4.541100 2.566600
4.575700 2.579700
4.610200 2.562400
4.644800 2.532600
4.679400 2.520000
4.714000 2.525100
4.748600 2.629000
4.783100 2.756400
4.817700 2.794000
4.852300 2.752200
4.886900 2.920600
4.921400 2.954900
4.956000 3.009500
4.990600 3.106500
5.025200 3.205800
5.059700 3.479400
5.094300 3.088700
5.128900 3.056300
5.163500 3.022000
5.198100 2.930900
5.232600 2.859600
5.267200 3.028300
5.301800 3.267300
5.336400 3.806500
5.370900 4.192400
5.405500 4.901200
5.440100 4.680900
5.474700 4.362200
5.509200 4.202400
5.543800 4.124100
5.578400 4.452100
5.613000 4.746600
5.647600 5.412100
5.682100 5.446700
5.716700 5.483600
5.751300 5.629500
5.785900 5.699200
5.820400 5.558300
5.855000 5.109100
5.889600 4.831600
5.924200 4.523700
5.958700 4.415900
5.993300 4.305800
6.027900 4.125100
6.062500 4.224600
6.097100 3.625300
6.131600 2.879900
6.166200 2.838300
6.200800 3.256100
6.235400 3.826600
6.269900 4.596600
6.304500 4.087200
6.339100 4.193400
6.373700 3.866000
6.408200 3.503200
6.442800 3.155800
6.477400 2.735200
6.512000 2.508300
6.546600 2.710700
6.581100 3.179800
6.615700 3.353400
6.650300 3.305100
6.684900 3.102800
6.719400 2.865500
6.754000 2.668800
6.788600 2.823400
6.823200 2.350900
6.857700 1.672000
6.892300 0.971700
6.926900 0.719400
6.961500 0.783400
6.996100 0.894100
7.030600 0.966000
7.065200 1.013300
7.099800 1.182600
7.134400 1.457000
7.168900 1.981900
7.203500 2.479300
7.238100 2.661700
7.272700 2.974700
7.307200 3.181000
7.341800 3.623900
7.376400 3.735100
7.411000 3.560700
7.445600 3.622900
7.480100 3.644600
7.514700 3.341600
7.549300 3.371200
7.583900 3.142300
7.618400 3.244800
7.653000 3.535800
7.687600 3.270600
7.722200 3.184700
7.756700 3.027800
7.791300 2.870800
7.825900 2.710300
7.860500 2.520300
7.895100 2.361100
7.929600 2.255000
7.964200 2.188300
7.998800 2.156000
8.033400 2.145100
8.067900 2.121800
8.102500 2.120100
8.137100 2.123800
8.171700 2.149700
8.206200 2.177200
8.240800 2.150900
8.275400 2.135900
8.310000 2.064500
8.344600 2.171600
8.379100 2.301200
8.413700 2.443700
8.448300 2.590500
8.482900 2.899900
8.517400 3.060200
8.552000 3.366700
8.586600 3.640400
8.621200 3.771100
8.655700 3.931300
8.690300 3.794500
8.724900 3.891200
8.759500 4.129800
8.794100 4.017500
8.828600 3.926400
8.863200 3.978300
8.897800 3.912100
8.932400 3.835000
8.966900 4.085300
9.001500 3.982100
9.036100 3.910100
9.070700 3.830600
9.105200 3.785300
9.139800 3.752500
9.174400 3.776300
9.209000 3.735600
9.243600 3.661600
9.278100 3.966400
9.312700 3.343600
9.347300 3.222000
9.381900 3.174100
9.416400 3.163900
9.451000 3.100500
9.485600 3.074700
9.520200 3.175000
9.554700 3.343400
9.589300 3.506700
9.623900 3.881100
9.658500 4.077600
9.693100 4.114800
9.727600 4.685100
9.762200 4.392000
9.796800 3.560900
9.831400 3.153500
9.865900 3.192400
9.900500 3.626600
9.935100 3.857100
9.969700 3.921500
10.004200 4.388100
10.038800 4.597400
10.073400 4.738500
10.108000 4.671100
10.142600 4.181000
10.177100 4.127100
10.211700 3.955000
10.246300 4.049700
10.280900 4.605100
10.315400 4.479000
10.350000 4.281000
10.384600 4.153200
10.419200 4.169000
10.453700 3.958400
10.488300 3.455700
10.522900 3.147700
10.557500 3.058600
10.592100 3.078300
10.626600 2.953000
10.661200 2.895900
10.695800 2.791500
10.730400 2.739800
10.764900 2.774200
10.799500 3.024900
10.834100 3.095300
10.868700 3.128000
10.903200 3.273500
10.937800 3.192000
10.972400 3.353300
11.007000 3.439100
11.041600 3.418900
11.076100 3.320200
11.110700 3.319000
11.145300 3.166200
11.179900 3.079400
11.214400 2.772400
11.249000 2.479500
11.283600 2.207200
11.318200 2.144300
11.352700 2.180400
11.387300 2.081000
11.421900 2.135900
11.456500 2.267900
11.491100 2.587200
11.525600 2.878200
11.560200 2.917700
11.594800 3.133100
11.629400 3.508600
11.663900 3.758200
11.698500 4.082600
11.733100 3.876200
11.767700 3.646100
11.802200 3.346500
11.836800 3.008700
11.871400 2.702200
11.906000 2.604100
11.940600 2.497200
11.975100 2.463900
12.009700 2.762100
12.044300 2.720200
12.078900 2.665800
12.113400 2.634800
12.148000 2.531700
12.182600 2.391500
12.217200 2.290800
12.251700 2.322400
12.286300 2.363800
12.320900 2.451000
12.355500 3.065700
12.390100 2.997500
12.424600 2.624900
12.459200 2.706300
12.493800 2.691900
12.528400 2.981500
12.562900 2.985100
12.597500 2.940800
12.632100 2.962200
12.666700 3.122600
12.701200 3.344500
12.735800 3.170000
12.770400 2.974500
12.805000 2.816800
12.839600 2.778700
12.874100 2.703500
12.908700 2.697100
12.943300 2.754500
12.977900 2.825200
13.012400 2.907700
13.047000 2.909000
13.081600 3.192200
13.116200 2.970600
13.150700 2.940300
13.185300 3.109900
13.219900 3.264900
13.254500 3.839600
13.289100 4.164000
13.323600 4.429500
13.358200 4.184200
13.392800 4.360600
13.427400 4.271900
13.461900 4.655100
13.496500 3.981300
13.531100 3.917300
13.565700 4.331900
13.600200 4.443600
13.634800 4.364000
13.669400 4.358000
13.704000 4.496800
13.738600 4.610600
13.773100 4.646500
13.807700 4.173800
13.842300 3.959100
13.876900 3.927300
13.911400 3.873400
13.946000 3.962300
13.980600 3.846100
14.015200 3.901100
14.049700 3.924400
14.084300 3.892600
14.118900 3.791400
14.153500 3.695600
14.188100 3.603200
14.222600 3.651900
14.257200 3.295400
14.291800 3.187600
14.326400 3.400500
14.360900 3.785000
14.395500 3.848300
14.430100 3.880600
14.464700 4.172900
14.499200 4.370400
14.533800 4.431200
14.568400 4.407000
14.603000 4.429700
14.637600 4.323300
14.672100 3.991700
14.706700 3.750900
14.741300 3.654400
14.775900 3.636000
14.810400 3.773200
14.845000 3.729600
14.879600 3.800400
14.914200 3.744800
14.948700 3.824000
14.983300 3.770000
15.017900 3.680000
15.052500 3.581000
15.087100 3.492200
15.121600 3.306100
15.156200 3.214000
15.190800 3.109900
15.225400 3.154100
15.259900 3.187600
15.294500 3.217800
15.329100 3.519300
15.363700 3.769400
15.398200 3.849000
15.432800 3.938900
15.467400 4.154100
15.502000 4.217500
15.536600 4.395700
15.571100 4.671700
15.605700 4.526500
15.640300 3.946100
15.674900 3.692300
15.709400 3.917500
15.744000 4.000800
15.778600 3.904100
15.813200 3.689600
15.847700 3.724000
15.882300 3.852100
15.916900 4.035600
15.951500 4.493400
15.986100 4.714400
16.020600 4.661700
16.055200 4.628500
16.089800 4.657500
16.124400 4.242100
16.158900 3.683000
16.193500 3.406900
16.228100 3.647800
16.262700 3.136600
16.297200 3.253000
16.331800 3.332100
16.366400 3.636900
16.401000 4.020100
16.435600 4.055300
16.470100 3.988700
16.504700 3.985900
16.539300 4.079200
16.573900 4.131900
16.608400 3.964800
16.643000 4.253400
16.677600 4.575300
16.712200 4.997500
16.746700 4.974200
16.781300 4.910400
16.815900 5.313000
16.850500 5.367900
16.885100 5.156900
16.919600 4.879300
16.954200 4.917700
16.988800 4.499200
17.023400 4.122100
17.057900 4.519500
17.092500 4.615300
17.127100 4.705300
17.161700 4.703800
17.196200 4.775300
17.230800 5.423400
17.265400 4.874300
17.300000 4.848400
17.334600 4.946700
17.369100 5.036500
17.403700 5.123600
17.438300 5.199300
17.472900 5.273000
17.507400 4.858800
17.542000 5.405100
17.576600 4.562600
17.611200 4.031200
17.645700 3.692900
17.680300 3.579600
17.714900 3.582100
17.749500 3.666000
17.784100 3.931600
17.818600 4.458700
17.853200 4.289900
17.887800 4.118400
17.922400 4.020100
17.956900 3.972400
17.991500 3.806700
18.026100 3.721600
18.060700 3.687200
18.095200 3.285100
18.129800 3.233400
18.164400 3.273600
18.199000 3.461900
18.233600 4.054000
18.268100 4.344200
18.302700 4.205500
18.337300 4.327500
18.371900 4.532600
18.406400 4.365300
18.441000 4.293400
18.475600 3.862500
18.510200 3.748400
18.544800 3.908300
18.579300 4.269700
18.613900 4.679000
18.648500 4.465200
18.683100 4.414500
18.717600 4.480500
18.752200 4.172100
18.786800 3.990600
18.821400 3.794000
18.855900 3.521600
18.890500 3.175800
18.925100 3.322500
18.959700 3.446300
18.994300 3.927100
19.028800 4.382700
19.063400 4.567300
19.098000 4.806600
19.132600 4.638800
19.167100 4.407300
19.201700 4.294300
19.236300 4.232400
19.270900 4.144100
19.305400 4.181000
19.340000 4.135400
19.374600 3.998700
19.409200 4.167700
19.443800 4.580300
19.478300 4.727200
19.512900 4.667000
19.547500 4.675600
19.582100 4.251900
19.616600 4.147200
19.651200 4.070700
19.685800 3.981500
19.720400 4.046700
19.754900 4.337200
19.789500 4.337100
19.824100 4.257500
19.858700 4.335300
19.893300 4.188800
19.927800 4.342400
19.962400 4.139200
19.997000 4.200100
20.031600 4.437700
20.066100 4.521000
20.100700 4.318000
20.135300 4.287800
20.169900 4.308300
20.204400 4.344800
20.239000 4.312800
20.273600 4.050800
20.308200 3.987200
20.342800 4.099700
20.377300 4.190400
20.411900 4.404200
20.446500 4.520400
20.481100 4.590400
20.515600 4.581700
20.550200 4.885000
20.584800 4.561100
20.619400 4.732800
20.653900 5.042500
20.688500 5.237700
20.723100 4.930700
20.757700 4.793700
20.792300 4.833200
20.826800 4.674600
20.861400 4.760700
20.896000 5.152800
20.930600 5.623400
20.965100 5.623500
20.999700 5.544100
21.034300 5.515800
21.068900 4.915800
21.103400 4.774300
21.138000 4.707000
21.172600 4.819400
21.207200 4.736500
21.241800 4.569200
21.276300 4.382600
21.310900 4.360600
21.345500 4.314700
21.380100 4.391400
21.414600 4.288000
21.449200 4.446000
21.483800 4.087500
21.518400 3.959700
21.552900 3.911800
21.587500 3.817300
21.622100 4.010400
21.656700 3.998000
21.691300 3.885600
21.725800 3.793000
21.760400 3.944100
21.795000 4.189400
21.829600 4.964800
21.864100 5.155000
21.898700 4.847200
21.933300 4.653200
21.967900 4.659900
22.002400 4.888000
22.037000 5.038900
22.071600 4.883000
22.106200 4.900100
22.140800 4.751100
22.175300 4.826100
22.209900 4.660200
22.244500 4.675100
22.279100 4.864000
22.313600 4.908700
22.348200 4.882100
22.382800 5.077800
22.417400 5.100600
22.451900 5.096700
22.486500 4.992200
22.521100 4.654500
22.555700 4.537000
22.590300 4.353800
22.624800 4.171000
22.659400 3.977400
22.694000 3.848900
22.728600 3.829500
22.763100 3.943500
22.797700 4.067100
22.832300 4.175800
22.866900 4.215900
22.901400 4.292600
22.936000 4.342000
22.970600 4.484900
23.005200 4.659900
23.039800 4.821300
23.074300 4.862100
23.108900 5.272000
23.143500 5.184700
23.178100 5.529300
23.212600 4.603800
23.247200 4.681000
23.281800 4.508900
23.316400 4.359800
23.350900 4.480700
23.385500 4.309500
23.420100 4.384300
23.454700 4.283100
23.489300 4.242800
23.523800 4.197700
23.558400 4.200100
23.593000 4.259500
23.627600 4.312800
23.662100 4.419300
23.696700 4.594000
23.731300 4.666200
23.765900 4.939000
23.800400 5.278300
23.835000 4.794300
23.869600 4.741100
23.904200 4.832800
23.938800 4.954300
23.973300 4.940300
24.007900 4.882600
24.042500 4.751600
24.077100 4.522100
24.111600 4.506200
24.146200 4.420400
24.180800 4.403900
24.215400 4.436400
24.249900 4.585400
24.284500 4.492400
24.319100 4.649100
24.353700 4.833400
24.388300 5.021100
24.422800 5.040900
24.457400 4.922700
24.492000 4.901700
24.526600 4.865400
24.561100 4.949400
24.595700 5.114300
24.630300 5.337000
24.664900 5.479500
24.699400 5.254200
24.734000 5.247200
24.768600 5.192700
24.803200 5.181900
24.837800 5.158500
24.872300 5.099600
24.906900 5.581900
24.941500 5.148700
24.976100 5.166500
25.010600 5.305100
25.045200 4.995000
25.079800 4.897000
25.114400 4.893700
25.148900 4.824900
25.183500 4.817200
25.218100 5.023400
25.252700 5.008100
25.287300 4.829900
25.321800 4.651200
25.356400 4.493000
25.391000 4.774900
25.425600 5.074400
25.460100 4.883900
25.494700 4.528300
25.529300 4.230900
25.563900 4.163400
25.598400 4.042500
25.633000 4.186400
25.667600 4.186900
25.702200 4.328000
25.736800 4.464700
25.771300 4.835200
25.805900 5.041500
25.840500 4.822700
25.875100 4.678600
25.909600 4.549000
25.944200 4.618000
25.978800 4.678700
26.013400 5.232600
26.047900 5.439600
26.082500 5.729700
26.117100 5.357700
26.151700 5.281700
26.186300 5.192200
26.220800 5.052300
26.255400 4.998800
26.290000 5.663700
26.324600 5.510800
26.359100 5.687900
26.393700 5.672100
26.428300 5.349700
26.462900 5.156700
26.497400 5.628600
26.532000 4.933400
26.566600 5.003000
26.601200 5.125200
26.635800 4.993100
26.670300 4.895500
26.704900 5.004500
26.739500 5.064100
26.774100 5.140100
26.808600 5.144000
26.843200 4.983600
26.877800 4.762300
26.912400 4.689600
26.946900 4.738600
26.981500 4.747600
27.016100 4.657000
27.050700 4.826500
27.085300 5.001000
27.119800 5.031500
27.154400 5.039800
27.189000 4.942500
27.223600 5.018200
27.258100 5.222300
27.292700 5.162100
27.327300 5.086600
27.361900 4.995300
27.396400 4.985400
27.431000 4.852100
27.465600 4.809400
27.500200 5.010400
27.534800 5.268000
27.569300 5.031800
27.603900 4.792100
27.638500 4.931900
27.673100 4.894600
27.707600 5.120600
27.742200 5.282100
27.776800 5.211700
27.811400 5.401900
27.845900 5.453500
27.880500 5.478300
27.915100 5.516400
27.949700 5.525500
27.984300 5.553100
28.018800 5.678200
28.053400 5.508400
28.088000 5.312200
28.122600 5.193600
28.157100 5.084600
28.191700 5.015100
28.226300 5.138000
28.260900 5.263700
28.295400 5.367700
28.330000 5.220100
28.364600 5.023700
28.399200 5.092300
28.433800 4.861000
28.468300 4.895100
28.502900 4.999200
28.537500 5.055400
28.572100 4.954600
28.606600 4.804000
28.641200 4.702500
28.675800 4.742600
28.710400 4.589200
28.744900 4.562700
28.779500 4.670200
28.814100 4.734800
28.848700 4.840500
28.883300 5.006600
28.917800 4.942400
28.952400 5.076800
28.987000 5.200900
29.021600 4.986500
29.056100 4.922100
29.090700 4.910500
29.125300 5.145200
29.159900 5.110500
29.194400 4.655700
29.229000 4.607900
29.263600 4.707400
29.298200 4.754100
29.332800 4.861100
29.367300 5.022300
29.401900 5.432800
29.436500 5.398700
29.471100 5.420200
29.505600 5.321800
29.540200 5.364700
29.574800 5.325100
29.609400 5.518000
29.643900 5.405900
29.678500 5.537900
29.713100 5.628300
29.747700 5.788600
29.782300 5.468900
29.816800 5.307100
29.851400 5.193000
29.886000 5.250000
29.920600 5.295600
29.955100 5.423100
29.989700 5.341700
30.024300 5.204800
30.058900 5.135600
30.093400 4.896800
30.128000 4.687000
30.162600 4.565600
30.197200 4.826400
30.231800 4.999000
30.266300 5.391900
30.300900 5.546400
30.335500 5.551700
30.370100 5.361500
30.404600 5.270100
30.439200 5.212300
30.473800 5.288600
30.508400 5.336100
30.542900 5.489000
30.577500 5.579400
30.612100 5.594800
30.646700 5.269900
30.681300 5.329200
30.715800 5.546000
30.750400 5.728000
30.785000 5.977400
30.819600 5.576100
30.854100 5.386000
30.888700 5.219300
30.923300 5.136900
30.957900 5.190700
30.992400 5.427400
31.027000 5.718000
31.061600 5.283400
31.096200 4.931700
31.130800 4.783500
31.165300 4.932700
31.199900 5.269000
31.234500 5.279700
31.269100 5.300500
31.303600 5.272700
31.338200 5.183100
31.372800 5.096800
31.407400 4.721600
31.441900 4.650800
31.476500 4.756700
31.511100 4.766700
31.545700 4.802700
31.580300 4.984300
31.614800 5.478000
31.649400 5.266400
31.684000 5.241800
31.718600 5.421200
31.753100 5.559000
31.787700 5.591600
31.822300 5.876700
31.856900 5.971000
31.891400 5.783500
31.926000 5.769300
31.960600 5.504100
31.995200 5.393800
32.029800 5.221400
32.064300 5.276800
32.098900 5.233900
32.133500 5.354600
32.168100 5.144400
32.202600 5.133400
32.237200 5.128100
32.271800 5.284200
32.306400 5.067100
32.340900 4.984600
32.375500 5.062900
32.410100 5.237600
32.444700 5.512200
32.479300 5.694000
32.513800 5.668400
32.548400 5.801800
32.583000 5.942400
32.617600 6.027400
32.652100 5.919000
32.686700 5.847800
32.721300 5.815400
32.755900 5.999000
32.790400 5.977200
32.825000 5.815400
32.859600 5.751000
32.894200 5.638200
32.928800 5.741200
32.963300 5.764000
32.997900 5.476000
33.032500 5.271400
33.067100 5.238600
33.101600 5.308200
33.136200 5.397800
33.170800 5.501800
33.205400 5.539900
33.239900 5.561100
33.274500 5.608600
33.309100 5.576300
33.343700 5.556600
33.378300 5.545200
33.412800 5.389000
33.447400 5.129500
33.482000 5.278700
33.516600 5.211200
33.551100 5.293200
33.585700 5.209700
33.620300 5.224300
33.654900 4.806700
33.689400 4.806600
33.724000 4.857600
33.758600 4.750100
33.793200 4.852700
33.827800 5.004500
33.862300 5.020200
33.896900 5.360400
33.931500 5.453600
33.966100 5.195300
34.000600 5.026800
34.035200 5.137400
34.069800 5.262600
34.104400 4.964600
34.138900 4.788500
34.173500 4.196400
34.208100 3.819100
34.242700 3.546100
34.277300 3.372800
34.311800 3.177500
34.346400 3.077500
34.381000 3.123900
34.415600 3.305100
34.450100 2.733500
34.484700 2.527900
34.519300 2.355200
34.553900 2.211200
34.588400 2.193800
34.623000 2.134000
34.657600 1.985000
34.692200 1.821300
34.726800 1.710200
34.761300 1.690800
34.795900 1.455000
34.830500 1.218400
34.865100 1.099300
34.899600 0.917600
34.934200 0.749500
34.968800 0.639400
35.003400 0.558500
35.037900 0.477300
35.072500 0.374200
35.107100 0.267500
35.141700 0.181400
35.176300 0.137200
35.210800 0.117000
35.245400 0.108200
35.280000 0.101300
35.314600 0.095100
35.349100 0.089600
35.383700 0.084900
35.418300 0.080900
35.452900 0.077500
35.487400 0.073900
35.522000 0.070100
35.556600 0.051600
35.591200 0.024600
35.625800 0.007500
35.660300 0.001400
35.694900 0.000000
35.729500 0.000000
35.764100 0.000000
35.798600 0.000000
35.833200 0.000000
35.867800 0.000000
35.902400 0.000000
35.936900 0.000000
35.971500 0.000000
36.006100 0.000000
36.040700 0.000000
36.075300 0.000000
36.109800 0.000000
36.144400 0.000000
36.179000 0.000000
36.213600 0.000000
36.248100 0.000000
36.282700 0.000000
36.317300 0.000000
36.351900 0.000000
36.386400 0.000000
36.421000 0.000000
36.455600 0.000000
36.490200 0.000000
36.524800 0.000000
36.559300 0.000000
36.593900 0.000000
36.628500 0.000000
36.663100 0.000000
36.697600 0.000000
36.732200 0.000000
36.766800 0.000000
36.801400 0.000000
36.835900 0.000000
36.870500 0.000000
36.905100 0.000000
36.939700 0.000000
36.974300 0.000000
37.008800 0.000000
37.043400 0.000000
37.078000 0.000000
37.112600 0.000000
37.147100 0.000000
37.181700 0.000000
37.216300 0.000000
37.250900 0.000000
37.285400 0.000000
37.320000 0.000000
37.354600 0.000000
37.389200 0.000000
37.423800 0.000000
37.458300 0.000000
37.492900 0.000000
37.527500 0.000000
37.562100 0.000000
37.596600 0.000000
37.631200 0.000000
37.665800 0.000000
37.700400 0.000000
37.734900 0.000000
37.769500 0.000000
37.804100 0.000000
37.838700 0.000000
37.873300 0.000000
37.907800 0.000000
37.942400 0.000000
37.977000 0.000000
38.011600 0.000000
38.046100 0.000000
38.080700 0.000000
38.115300 0.000000
38.149900 0.000000
38.184400 0.000000
38.219000 0.000000
38.253600 0.000000
38.288200 0.000000
38.322800 0.000000
38.357300 0.000000
38.391900 0.000000
38.426500 0.000000
38.461100 0.000000
38.495600 0.000000
38.530200 0.000000
38.564800 0.000000
38.599400 0.000000
38.633900 0.000000
38.668500 0.000000
38.703100 0.000000
38.737700 0.000000
38.772300 0.000000
38.806800 0.000000
38.841400 0.000000
e
