set title 'mp-972202 - Density of States'
set xlabel 'Energy (eV)'
set ylabel 'DOS (states/eV)'
set grid
set xrange [-10:10]
set yrange [0:6.477]
set xzeroaxis lt -1
set terminal png size 800,600
set output 'mp-972202_dos_gnuplot.png'
plot '-' using 1:2 with lines title 'DOS'
-34.194600 0.000000
-34.157300 0.000000
-34.120000 0.000000
-34.082700 0.000000
-34.045300 0.000000
-34.008000 0.000000
-33.970700 0.000000
-33.933400 0.000000
-33.896100 0.000000
-33.858800 0.000000
-33.821500 0.000000
-33.784100 0.000000
-33.746800 0.000000
-33.709500 0.000000
-33.672200 0.000000
-33.634900 0.000000
-33.597600 0.000000
-33.560300 0.000000
-33.522900 0.000000
-33.485600 0.000000
-33.448300 0.000000
-33.411000 0.000000
-33.373700 0.000000
-33.336400 0.000000
-33.299100 0.000000
-33.261700 0.000000
-33.224400 0.000000
-33.187100 0.000000
-33.149800 0.000000
-33.112500 0.000000
-33.075200 0.000000
-33.037900 0.000000
-33.000500 0.000000
-32.963200 0.000000
-32.925900 0.000000
-32.888600 0.000000
-32.851300 0.000000
-32.814000 0.000000
-32.776700 0.000000
-32.739300 0.000000
-32.702000 0.000000
-32.664700 0.000000
-32.627400 0.000000
-32.590100 0.000000
-32.552800 0.000000
-32.515500 0.000000
-32.478100 0.000000
-32.440800 0.000000
-32.403500 0.000000
-32.366200 0.000000
-32.328900 0.000000
-32.291600 0.000000
-32.254300 0.000000
-32.216900 0.000000
-32.179600 0.000000
-32.142300 0.000000
-32.105000 0.000000
-32.067700 0.000000
-32.030400 0.000000
-31.993100 0.000000
-31.955700 0.000000
-31.918400 0.000000
-31.881100 0.000000
-31.843800 0.000000
-31.806500 0.000000
-31.769200 0.000000
-31.731900 0.000000
-31.694500 0.000000
-31.657200 0.000000
-31.619900 0.000000
-31.582600 0.000000
-31.545300 0.000000
-31.508000 0.000000
-31.470700 0.000000
-31.433300 0.000000
-31.396000 0.000000
-31.358700 0.000000
-31.321400 0.000000
-31.284100 0.000000
-31.246800 0.000000
-31.209500 0.000000
-31.172100 0.000000
-31.134800 0.000000
-31.097500 0.000000
-31.060200 0.000000
-31.022900 0.000000
-30.985600 0.000000
-30.948300 0.000700
-30.910900 0.046700
-30.873600 1.164200
-30.836300 11.062900
-30.799000 41.377500
-30.761700 61.744300
-30.724400 36.414300
-30.687100 8.266000
-30.649700 0.698400
-30.612400 0.021300
-30.575100 0.000200
-30.537800 0.000000
-30.500500 0.000000
-30.463200 0.000000
-30.425900 0.000000
-30.388500 0.000000
-30.351200 0.000000
-30.313900 0.000000
-30.276600 0.000000
-30.239300 0.000000
-30.202000 0.000000
-30.164700 0.000000
-30.127300 0.000000
-30.090000 0.000000
-30.052700 0.000000
-30.015400 0.000000
-29.978100 0.000000
-29.940800 0.000000
-29.903500 0.000000
-29.866100 0.000000
-29.828800 0.000000
-29.791500 0.000000
-29.754200 0.000000
-29.716900 0.000000
-29.679600 0.000000
-29.642300 0.000000
-29.605000 0.000000
-29.567600 0.000000
-29.530300 0.000000
-29.493000 0.000000
-29.455700 0.000000
-29.418400 0.000000
-29.381100 0.000000
-29.343800 0.000000
-29.306400 0.000000
-29.269100 0.000000
-29.231800 0.000000
-29.194500 0.000000
-29.157200 0.000000
-29.119900 0.000000
-29.082600 0.000000
-29.045200 0.000000
-29.007900 0.000000
-28.970600 0.000000
-28.933300 0.000000
-28.896000 0.000000
-28.858700 0.000000
-28.821400 0.000000
-28.784000 0.000000
-28.746700 0.000000
-28.709400 0.000000
-28.672100 0.000000
-28.634800 0.000000
-28.597500 0.000000
-28.560200 0.000000
-28.522800 0.000000
-28.485500 0.000000
-28.448200 0.000000
-28.410900 0.000000
-28.373600 0.000000
-28.336300 0.000000
-28.299000 0.000000
-28.261600 0.000000
-28.224300 0.000000
-28.187000 0.000000
-28.149700 0.000000
-28.112400 0.000000
-28.075100 0.000000
-28.037800 0.000000
-28.000400 0.000000
-27.963100 0.000000
-27.925800 0.000000
-27.888500 0.000000
-27.851200 0.000000
-27.813900 0.000000
-27.776600 0.000000
-27.739200 0.000000
-27.701900 0.000000
-27.664600 0.000000
-27.627300 0.000000
-27.590000 0.000000
-27.552700 0.000000
-27.515400 0.000000
-27.478000 0.000000
-27.440700 0.000000
-27.403400 0.000000
-27.366100 0.000000
-27.328800 0.000000
-27.291500 0.000000
-27.254200 0.000000
-27.216800 0.000000
-27.179500 0.000000
-27.142200 0.000000
-27.104900 0.000000
-27.067600 0.000000
-27.030300 0.000000
-26.993000 0.000000
-26.955600 0.000000
-26.918300 0.000000
-26.881000 0.000000
-26.843700 0.000000
-26.806400 0.000000
-26.769100 0.000000
-26.731800 0.000000
-26.694400 0.000000
-26.657100 0.000000
-26.619800 0.000000
-26.582500 0.000000
-26.545200 0.000000
-26.507900 0.000000
-26.470600 0.000000
-26.433200 0.000000
-26.395900 0.000000
-26.358600 0.000000
-26.321300 0.000000
-26.284000 0.000000
-26.246700 0.000000
-26.209400 0.000000
-26.172000 0.000000
-26.134700 0.000000
-26.097400 0.000000
-26.060100 0.000000
-26.022800 0.000000
-25.985500 0.000000
-25.948200 0.000000
-25.910800 0.000000
-25.873500 0.000000
-25.836200 0.000000
-25.798900 0.000000
-25.761600 0.000000
-25.724300 0.000000
-25.687000 0.000000
-25.649600 0.000000
-25.612300 0.000000
-25.575000 0.000000
-25.537700 0.000000
-25.500400 0.000000
-25.463100 0.000000
-25.425800 0.000000
-25.388400 0.000000
-25.351100 0.000000
-25.313800 0.000000
-25.276500 0.000000
-25.239200 0.000000
-25.201900 0.000000
-25.164600 0.000000
-25.127200 0.000000
-25.089900 0.000000
-25.052600 0.000000
-25.015300 0.000000
-24.978000 0.000000
-24.940700 0.000000
-24.903400 0.000000
-24.866000 0.000000
-24.828700 0.000000
-24.791400 0.000000
-24.754100 0.000000
-24.716800 0.000000
-24.679500 0.000000
-24.642200 0.000000
-24.604800 0.000000
-24.567500 0.000000
-24.530200 0.000000
-24.492900 0.000000
-24.455600 0.000000
-24.418300 0.000000
-24.381000 0.000000
-24.343600 0.000000
-24.306300 0.000000
-24.269000 0.000000
-24.231700 0.000000
-24.194400 0.000000
-24.157100 0.000000
-24.119800 0.000000
-24.082400 0.000000
-24.045100 0.000000
-24.007800 0.000000
-23.970500 0.000000
-23.933200 0.000000
-23.895900 0.000000
-23.858600 0.000000
-23.821200 0.000000
-23.783900 0.000000
-23.746600 0.000000
-23.709300 0.000000
-23.672000 0.000000
-23.634700 0.000000
-23.597400 0.000000
-23.560000 0.000000
-23.522700 0.000000
-23.485400 0.000000
-23.448100 0.000000
-23.410800 0.000000
-23.373500 0.000000
-23.336200 0.000000
-23.298800 0.000000
-23.261500 0.000000
-23.224200 0.000000
-23.186900 0.000000
-23.149600 0.000000
-23.112300 0.000000
-23.075000 0.000000
-23.037600 0.000000
-23.000300 0.000000
-22.963000 0.000000
-22.925700 0.000000
-22.888400 0.000000
-22.851100 0.000000
-22.813800 0.000000
-22.776400 0.000000
-22.739100 0.000000
-22.701800 0.000000
-22.664500 0.000000
-22.627200 0.000000
-22.589900 0.000000
-22.552600 0.000000
-22.515200 0.000000
-22.477900 0.000000
-22.440600 0.000000
-22.403300 0.000000
-22.366000 0.000000
-22.328700 0.000000
-22.291400 0.000000
-22.254000 0.000000
-22.216700 0.000000
-22.179400 0.000000
-22.142100 0.000000
-22.104800 0.000000
-22.067500 0.000000
-22.030200 0.000000
-21.992800 0.000000
-21.955500 0.000000
-21.918200 0.000000
-21.880900 0.000000
-21.843600 0.000000
-21.806300 0.000000
-21.769000 0.000000
-21.731600 0.000000
-21.694300 0.000000
-21.657000 0.000000
-21.619700 0.000000
-21.582400 0.000000
-21.545100 0.000000
-21.507800 0.000000
-21.470400 0.000000
-21.433100 0.000000
-21.395800 0.000000
-21.358500 0.000000
-21.321200 0.000000
-21.283900 0.000000
-21.246600 0.000000
-21.209200 0.000000
-21.171900 0.000000
-21.134600 0.000000
-21.097300 0.000000
-21.060000 0.000000
-21.022700 0.000000
-20.985400 0.000000
-20.948000 0.000000
-20.910700 0.000000
-20.873400 0.000000
-20.836100 0.000000
-20.798800 0.000000
-20.761500 0.000000
-20.724200 0.000000
-20.686800 0.000000
-20.649500 0.000000
-20.612200 0.000000
-20.574900 0.000000
-20.537600 0.000000
-20.500300 0.000000
-20.463000 0.000000
-20.425600 0.000000
-20.388300 0.000000
-20.351000 0.000000
-20.313700 0.000000
-20.276400 0.000000
-20.239100 0.000000
-20.201800 0.000000
-20.164400 0.000000
-20.127100 0.000000
-20.089800 0.000000
-20.052500 0.000000
-20.015200 0.000000
-19.977900 0.000000
-19.940600 0.000000
-19.903200 0.000000
-19.865900 0.000000
-19.828600 0.000000
-19.791300 0.000000
-19.754000 0.000000
-19.716700 0.000000
-19.679400 0.000000
-19.642000 0.000000
-19.604700 0.000000
-19.567400 0.000000
-19.530100 0.000000
-19.492800 0.000000
-19.455500 0.000000
-19.418200 0.000000
-19.380800 0.000000
-19.343500 0.000000
-19.306200 0.000000
-19.268900 0.000000
-19.231600 0.000000
-19.194300 0.000000
-19.157000 0.000000
-19.119600 0.000000
-19.082300 0.000000
-19.045000 0.000000
-19.007700 0.000000
-18.970400 0.000000
-18.933100 0.000000
-18.895800 0.000000
-18.858400 0.000000
-18.821100 0.000000
-18.783800 0.000000
-18.746500 0.000000
-18.709200 0.000000
-18.671900 0.000000
-18.634600 0.000000
-18.597200 0.000000
-18.559900 0.000000
-18.522600 0.000000
-18.485300 0.000000
-18.448000 0.000000
-18.410700 0.000000
-18.373400 0.000000
-18.336000 0.000000
-18.298700 0.000000
-18.261400 0.000000
-18.224100 0.000000
-18.186800 0.000000
-18.149500 0.000000
-18.112200 0.000000
-18.074800 0.000000
-18.037500 0.000000
-18.000200 0.000000
-17.962900 0.000000
-17.925600 0.000000
-17.888300 0.000000
-17.851000 0.000000
-17.813600 0.000000
-17.776300 0.000000
-17.739000 0.000000
-17.701700 0.000000
-17.664400 0.000000
-17.627100 0.000000
-17.589800 0.000000
-17.552400 0.000000
-17.515100 0.000000
-17.477800 0.000000
-17.440500 0.000000
-17.403200 0.000000
-17.365900 0.000000
-17.328600 0.000000
-17.291200 0.000000
-17.253900 0.000000
-17.216600 0.000000
-17.179300 0.000000
-17.142000 0.000000
-17.104700 0.000000
-17.067400 0.000000
-17.030000 0.000000
-16.992700 0.000000
-16.955400 0.000000
-16.918100 0.000000
-16.880800 0.000000
-16.843500 0.000000
-16.806200 0.000000
-16.768800 0.000000
-16.731500 0.000000
-16.694200 0.000000
-16.656900 0.000000
-16.619600 0.000000
-16.582300 0.000000
-16.545000 0.000000
-16.507600 0.000000
-16.470300 0.000000
-16.433000 0.000000
-16.395700 0.000000
-16.358400 0.000000
-16.321100 0.000000
-16.283800 0.000000
-16.246400 0.000000
-16.209100 0.000000
-16.171800 0.000000
-16.134500 0.000000
-16.097200 0.000000
-16.059900 0.000000
-16.022600 0.000000
-15.985200 0.000000
-15.947900 0.000000
-15.910600 0.000000
-15.873300 0.000000
-15.836000 0.000000
-15.798700 0.000000
-15.761400 0.000000
-15.724000 0.000000
-15.686700 0.000000
-15.649400 0.000000
-15.612100 0.000000
-15.574800 0.000000
-15.537500 0.000000
-15.500200 0.000000
-15.462800 0.000000
-15.425500 0.000000
-15.388200 0.000000
-15.350900 0.000000
-15.313600 0.000000
-15.276300 0.000000
-15.239000 0.000000
-15.201600 0.000000
-15.164300 0.000000
-15.127000 0.000000
-15.089700 0.000000
-15.052400 0.000000
-15.015100 0.000000
-14.977800 0.000000
-14.940400 0.000000
-14.903100 0.000000
-14.865800 0.000000
-14.828500 0.000000
-14.791200 0.000000
-14.753900 0.000000
-14.716600 0.000000
-14.679200 0.000000
-14.641900 0.000000
-14.604600 0.000000
-14.567300 0.000000
-14.530000 0.000000
-14.492700 0.000000
-14.455400 0.000000
-14.418000 0.000000
-14.380700 0.000000
-14.343400 0.000000
-14.306100 0.000000
-14.268800 0.000000
-14.231500 0.000000
-14.194200 0.000000
-14.156800 0.000000
-14.119500 0.000000
-14.082200 0.000000
-14.044900 0.000000
-14.007600 0.000000
-13.970300 0.000000
-13.933000 0.000000
-13.895600 0.000000
-13.858300 0.000000
-13.821000 0.000000
-13.783700 0.000000
-13.746400 0.000000
-13.709100 0.000000
-13.671800 0.000000
-13.634400 0.000000
-13.597100 0.000000
-13.559800 0.000000
-13.522500 0.000000
-13.485200 0.000000
-13.447900 0.000000
-13.410600 0.000000
-13.373200 0.000000
-13.335900 0.000000
-13.298600 0.000000
-13.261300 0.000000
-13.224000 0.000000
-13.186700 0.000000
-13.149400 0.000000
-13.112000 0.000000
-13.074700 0.000000
-13.037400 0.000000
-13.000100 0.000000
-12.962800 0.000000
-12.925500 0.000000
-12.888200 0.000000
-12.850800 0.000000
-12.813500 0.000000
-12.776200 0.000000
-12.738900 0.000000
-12.701600 0.000000
-12.664300 0.000000
-12.627000 0.000000
-12.589600 0.000000
-12.552300 0.000000
-12.515000 0.000000
-12.477700 0.000000
-12.440400 0.000000
-12.403100 0.000000
-12.365800 0.000000
-12.328400 0.000000
-12.291100 0.000000
-12.253800 0.000000
-12.216500 0.000000
-12.179200 0.000000
-12.141900 0.000000
-12.104600 0.000000
-12.067200 0.000000
-12.029900 0.000000
-11.992600 0.000000
-11.955300 0.000000
-11.918000 0.000000
-11.880700 0.000000
-11.843400 0.000000
-11.806000 0.000000
-11.768700 0.000000
-11.731400 0.000000
-11.694100 0.000000
-11.656800 0.000000
-11.619500 0.000000
-11.582200 0.000000
-11.544800 0.000000
-11.507500 0.000000
-11.470200 0.000000
-11.432900 0.000000
-11.395600 0.000000
-11.358300 0.000000
-11.321000 0.000000
-11.283600 0.000000
-11.246300 0.000000
-11.209000 0.000000
-11.171700 0.000000
-11.134400 0.000000
-11.097100 0.000000
-11.059800 0.000000
-11.022400 0.000000
-10.985100 0.000000
-10.947800 0.000000
-10.910500 0.000000
-10.873200 0.000000
-10.835900 0.000000
-10.798600 0.000000
-10.761300 0.000000
-10.723900 0.000000
-10.686600 0.000000
-10.649300 0.000000
-10.612000 0.000000
-10.574700 0.000000
-10.537400 0.000000
-10.500100 0.000000
-10.462700 0.000000
-10.425400 0.000000
-10.388100 0.000000
-10.350800 0.000000
-10.313500 0.000000
-10.276200 0.000000
-10.238900 0.000000
-10.201500 0.000000
-10.164200 0.000000
-10.126900 0.000000
-10.089600 0.000000
-10.052300 0.000000
-10.015000 0.000000
-9.977700 0.000000
-9.940300 0.000000
-9.903000 0.000000
-9.865700 0.000000
-9.828400 0.000000
-9.791100 0.000000
-9.753800 0.000000
-9.716500 0.000000
-9.679100 0.000000
-9.641800 0.000000
-9.604500 0.000000
-9.567200 0.000000
-9.529900 0.000000
-9.492600 0.000000
-9.455300 0.000000
-9.417900 0.000000
-9.380600 0.000000
-9.343300 0.000000
-9.306000 0.000000
-9.268700 0.000000
-9.231400 0.000000
-9.194100 0.000000
-9.156700 0.000000
-9.119400 0.000000
-9.082100 0.000000
-9.044800 0.000000
-9.007500 0.000000
-8.970200 0.000000
-8.932900 0.000000
-8.895500 0.000000
-8.858200 0.000000
-8.820900 0.000000
-8.783600 0.000000
-8.746300 0.000000
-8.709000 0.000000
-8.671700 0.000000
-8.634300 0.000000
-8.597000 0.000000
-8.559700 0.000000
-8.522400 0.000000
-8.485100 0.000000
-8.447800 0.000000
-8.410500 0.000000
-8.373100 0.000000
-8.335800 0.000000
-8.298500 0.000000
-8.261200 0.000000
-8.223900 0.000000
-8.186600 0.000000
-8.149300 0.000000
-8.111900 0.000000
-8.074600 0.000000
-8.037300 0.000000
-8.000000 0.000000
-7.962700 0.000000
-7.925400 0.000000
-7.888100 0.000000
-7.850700 0.000000
-7.813400 0.000000
-7.776100 0.000000
-7.738800 0.000000
-7.701500 0.000000
-7.664200 0.000000
-7.626900 0.000000
-7.589500 0.000000
-7.552200 0.001100
-7.514900 0.010700
-7.477600 0.042700
-7.440300 0.081400
-7.403000 0.124800
-7.365700 0.201400
-7.328300 0.198900
-7.291000 0.172500
-7.253700 0.228700
-7.216400 0.269400
-7.179100 0.300300
-7.141800 0.349100
-7.104500 0.360300
-7.067100 0.297500
-7.029800 0.217200
-6.992500 0.288200
-6.955200 0.449800
-6.917900 0.503500
-6.880600 0.450200
-6.843300 0.407100
-6.805900 0.467300
-6.768600 0.491500
-6.731300 0.429200
-6.694000 0.374800
-6.656700 0.312500
-6.619400 0.344000
-6.582100 0.568000
-6.544700 0.822800
-6.507400 0.917600
-6.470100 0.632700
-6.432800 0.344500
-6.395500 0.367300
-6.358200 0.570900
-6.320900 0.605100
-6.283500 0.476600
-6.246200 0.551600
-6.208900 0.721900
-6.171600 0.739300
-6.134300 0.699000
-6.097000 0.730900
-6.059700 0.918900
-6.022300 1.047200
-5.985000 0.913500
-5.947700 0.514700
-5.910400 0.274300
-5.873100 0.494400
-5.835800 0.927500
-5.798500 0.943200
-5.761100 0.777200
-5.723800 0.939200
-5.686500 1.069800
-5.649200 0.986400
-5.611900 0.879100
-5.574600 1.101800
-5.537300 1.521100
-5.499900 1.534800
-5.462600 1.039600
-5.425300 0.611400
-5.388000 0.618500
-5.350700 0.880500
-5.313400 1.129900
-5.276100 1.106500
-5.238700 1.091900
-5.201400 1.182600
-5.164100 1.157000
-5.126800 0.934700
-5.089500 0.953200
-5.052200 1.099700
-5.014900 0.886200
-4.977500 0.640800
-4.940200 0.580300
-4.902900 0.660200
-4.865600 0.675000
-4.828300 0.727200
-4.791000 0.832300
-4.753700 0.789600
-4.716300 0.584200
-4.679000 0.582400
-4.641700 0.720200
-4.604400 0.713500
-4.567100 0.546200
-4.529800 0.400500
-4.492500 0.392800
-4.455100 0.412500
-4.417800 0.406400
-4.380500 0.508700
-4.343200 0.618900
-4.305900 0.478300
-4.268600 0.437300
-4.231300 0.896000
-4.193900 1.417000
-4.156600 1.437600
-4.119300 1.143800
-4.082000 0.926300
-4.044700 0.823400
-4.007400 1.064200
-3.970100 1.556200
-3.932700 1.889000
-3.895400 1.712700
-3.858100 1.337900
-3.820800 1.142400
-3.783500 1.554300
-3.746200 2.113000
-3.708900 1.954200
-3.671500 1.591600
-3.634200 1.210400
-3.596900 0.882900
-3.559600 0.743300
-3.522300 0.798300
-3.485000 1.009300
-3.447700 1.066200
-3.410300 1.177300
-3.373000 1.585200
-3.335700 2.120900
-3.298400 2.187400
-3.261100 1.578500
-3.223800 1.217700
-3.186500 1.223000
-3.149100 1.388400
-3.111800 1.552500
-3.074500 1.355500
-3.037200 1.258900
-2.999900 1.532600
-2.962600 1.715000
-2.925300 1.515600
-2.887900 1.279600
-2.850600 1.153500
-2.813300 1.243400
-2.776000 1.572500
-2.738700 1.772900
-2.701400 1.681300
-2.664100 1.518300
-2.626700 1.493400
-2.589400 1.372500
-2.552100 1.039100
-2.514800 0.738800
-2.477500 0.964900
-2.440200 1.402700
-2.402900 1.330300
-2.365500 1.147600
-2.328200 1.190200
-2.290900 1.068400
-2.253600 0.953500
-2.216300 1.023300
-2.179000 1.056300
-2.141700 1.140200
-2.104300 1.207000
-2.067000 1.310800
-2.029700 1.492000
-1.992400 1.283900
-1.955100 0.666200
-1.917800 0.258100
-1.880500 0.322300
-1.843100 0.654100
-1.805800 1.022800
-1.768500 1.090300
-1.731200 0.933200
-1.693900 1.059600
-1.656600 1.080100
-1.619300 0.694200
-1.581900 0.409300
-1.544600 0.577300
-1.507300 0.983200
-1.470000 1.164400
-1.432700 0.971900
-1.395400 0.704500
-1.358100 0.618600
-1.320700 0.554500
-1.283400 0.462700
-1.246100 0.576300
-1.208800 0.657900
-1.171500 0.513500
-1.134200 0.416000
-1.096900 0.635000
-1.059500 0.900600
-1.022200 0.778700
-0.984900 0.466300
-0.947600 0.238800
-0.910300 0.201600
-0.873000 0.348700
-0.835700 0.465200
-0.798300 0.369100
-0.761000 0.146400
-0.723700 0.025500
-0.686400 0.020600
-0.649100 0.102700
-0.611800 0.204800
-0.574500 0.198200
-0.537100 0.249700
-0.499800 0.375300
-0.462500 0.319100
-0.425200 0.149500
-0.387900 0.142000
-0.350600 0.212000
-0.313300 0.144400
-0.275900 0.045000
-0.238600 0.007400
-0.201300 0.001100
-0.164000 0.008500
-0.126700 0.052500
-0.089400 0.137600
-0.052100 0.196100
-0.014700 0.191800
0.022600 0.117900
0.059900 0.038400
0.097200 0.032100
0.134500 0.084100
0.171800 0.091500
0.209100 0.036100
0.246500 0.005400
0.283800 0.004800
0.321100 0.029200
0.358400 0.069200
0.395700 0.060700
0.433000 0.019900
0.470300 0.005500
0.507700 0.020600
0.545000 0.048000
0.582300 0.049500
0.619600 0.068100
0.656900 0.137400
0.694200 0.197000
0.731500 0.260600
0.768900 0.389500
0.806200 0.502200
0.843500 0.441500
0.880800 0.318600
0.918100 0.380700
0.955400 0.663000
0.992700 0.736100
1.030100 0.657700
1.067400 0.685900
1.104700 0.656700
1.142000 0.700700
1.179300 0.758300
1.216600 0.718300
1.253900 0.881600
1.291300 1.328400
1.328600 1.455200
1.365900 1.224400
1.403200 1.237800
1.440500 1.317400
1.477800 1.075800
1.515100 1.098100
1.552500 1.403200
1.589800 1.687200
1.627100 1.702600
1.664400 1.329000
1.701700 1.122100
1.739000 1.417600
1.776300 1.955900
1.813700 2.211200
1.851000 2.490800
1.888300 2.755000
1.925600 2.406100
1.962900 1.934100
2.000200 2.067800
2.037500 2.539300
2.074900 2.489800
2.112200 2.156100
2.149500 2.124600
2.186800 2.154400
2.224100 2.140500
2.261400 1.955600
2.298700 1.762800
2.336100 1.704500
2.373400 1.678900
2.410700 1.781900
2.448000 2.136200
2.485300 2.526900
2.522600 2.582800
2.559900 2.183600
2.597300 2.048400
2.634600 2.358700
2.671900 2.408300
2.709200 2.145200
2.746500 1.987600
2.783800 1.739500
2.821100 1.795700
2.858500 2.318700
2.895800 2.378300
2.933100 1.644700
2.970400 0.804000
3.007700 0.650800
3.045000 1.187600
3.082300 1.657900
3.119700 1.676800
3.157000 1.511400
3.194300 1.348900
3.231600 1.313600
3.268900 1.303400
3.306200 1.350600
3.343500 1.622600
3.380900 1.854700
3.418200 1.572000
3.455500 1.014000
3.492800 0.862700
3.530100 1.340700
3.567400 1.989100
3.604700 2.328700
3.642100 2.261300
3.679400 1.899400
3.716700 1.823800
3.754000 1.832600
3.791300 1.424700
3.828600 1.193000
3.865900 1.545200
3.903300 2.260500
3.940600 2.398200
3.977900 1.958000
4.015200 1.828600
4.052500 1.918500
4.089800 1.738700
4.127100 1.459200
4.164500 1.564100
4.201800 1.993700
4.239100 2.258700
4.276400 2.131300
4.313700 1.771400
4.351000 1.335400
4.388300 0.741300
4.425700 0.575200
4.463000 0.800300
4.500300 1.125700
4.537600 1.589900
4.574900 1.801400
4.612200 1.604500
4.649500 1.512700
4.686900 1.678600
4.724200 1.952300
4.761500 2.137500
4.798800 2.116900
4.836100 2.246900
4.873400 2.463400
4.910700 2.377500
4.948100 2.479200
4.985400 3.479900
5.022700 4.003200
5.060000 2.901700
5.097300 2.058900
5.134600 2.466500
5.171900 3.098600
5.209300 2.849800
5.246600 2.240100
5.283900 2.092200
5.321200 2.169000
5.358500 2.481400
5.395800 2.812500
5.433100 2.972800
5.470500 3.236700
5.507800 3.235500
5.545100 3.078900
5.582400 3.032800
5.619700 3.226200
5.657000 3.147600
5.694300 2.758100
5.731700 2.672900
5.769000 2.853400
5.806300 2.860600
5.843600 2.642700
5.880900 2.284300
5.918200 1.864300
5.955500 1.856100
5.992900 2.444100
6.030200 2.815200
6.067500 2.847200
6.104800 3.270300
6.142100 3.537000
6.179400 3.020000
6.216700 2.631000
6.254100 2.783900
6.291400 3.346100
6.328700 3.962100
6.366000 3.845600
6.403300 3.237000
6.440600 2.900300
6.477900 3.200200
6.515300 3.776200
6.552600 4.763500
6.589900 5.676800
6.627200 5.464500
6.664500 4.724000
6.701800 4.315300
6.739100 4.523000
6.776500 4.806500
6.813800 4.477000
6.851100 4.488700
6.888400 5.589700
6.925700 5.887900
6.963000 4.553600
7.000300 3.435400
7.037700 3.010900
7.075000 3.257600
7.112300 3.682300
7.149600 4.349300
7.186900 4.671100
7.224200 4.412100
7.261500 4.244400
7.298900 4.171700
7.336200 3.567900
7.373500 2.842500
7.410800 2.546700
7.448100 2.434600
7.485400 2.153700
7.522700 1.936000
7.560100 2.070200
7.597400 2.329700
7.634700 2.224900
7.672000 1.776400
7.709300 1.455600
7.746600 1.621500
7.783900 1.796700
7.821300 1.820400
7.858600 1.869500
7.895900 1.823900
7.933200 1.792100
7.970500 1.972600
8.007800 2.322000
8.045100 2.952200
8.082500 3.426600
8.119800 3.207500
8.157100 2.815700
8.194400 3.342000
8.231700 3.708000
8.269000 3.295500
8.306300 3.118400
8.343600 3.380800
8.381000 3.609300
8.418300 3.306000
8.455600 2.824100
8.492900 2.546400
8.530200 2.179600
8.567500 1.828100
8.604800 1.935600
8.642200 2.362400
8.679500 2.644700
8.716800 2.373000
8.754100 2.285800
8.791400 2.784100
8.828700 3.099900
8.866000 2.922400
8.903400 2.553200
8.940700 1.980200
8.978000 1.861800
9.015300 2.268500
9.052600 2.420700
9.089900 2.074400
9.127200 1.542200
9.164600 1.158300
9.201900 1.098800
9.239200 1.456700
9.276500 1.974800
9.313800 2.309100
9.351100 1.990900
9.388400 1.557900
9.425800 1.594100
9.463100 1.861600
9.500400 2.216100
9.537700 2.332600
9.575000 2.238900
9.612300 2.065900
9.649600 1.856700
9.687000 2.176200
9.724300 2.506500
9.761600 2.135300
9.798900 1.798100
9.836200 1.793400
9.873500 1.644700
9.910800 1.857900
9.948200 2.415000
9.985500 2.706800
10.022800 2.550300
10.060100 2.519900
10.097400 3.250100
10.134700 3.628700
10.172000 3.230000
10.209400 3.384900
10.246700 4.071500
10.284000 4.095100
10.321300 3.282500
10.358600 3.162100
10.395900 3.834300
10.433200 3.844100
10.470600 3.399900
10.507900 3.259200
10.545200 2.898200
10.582500 2.503300
10.619800 2.447900
10.657100 2.486300
10.694400 2.144000
10.731800 1.942200
10.769100 2.112700
10.806400 2.107500
10.843700 2.046300
10.881000 2.617300
10.918300 2.996400
10.955600 2.738400
10.993000 2.708700
11.030300 2.487500
11.067600 1.971800
11.104900 2.016400
11.142200 2.236400
11.179500 2.287900
11.216800 2.498600
11.254200 2.452400
11.291500 2.392400
11.328800 2.423800
11.366100 2.246800
11.403400 2.123400
11.440700 2.134600
11.478000 2.060400
11.515400 1.836600
11.552700 2.336100
11.590000 3.158800
11.627300 3.239600
11.664600 3.045300
11.701900 3.260300
11.739200 3.679700
11.776600 3.520500
11.813900 2.502600
11.851200 1.706700
11.888500 1.386800
11.925800 1.310300
11.963100 1.387000
12.000400 1.240000
12.037800 1.107400
12.075100 1.418000
12.112400 1.720900
12.149700 1.544700
12.187000 1.373300
12.224300 1.486600
12.261600 1.701400
12.299000 1.707200
12.336300 1.548700
12.373600 1.398600
12.410900 1.455600
12.448200 1.742700
12.485500 1.965500
12.522800 1.822000
12.560200 1.563400
12.597500 1.597700
12.634800 1.577100
12.672100 1.529100
12.709400 1.243000
12.746700 0.836000
12.784000 0.782600
12.821400 0.951100
12.858700 1.245800
12.896000 1.294600
12.933300 0.960900
12.970600 0.993000
13.007900 1.552000
13.045200 1.828700
13.082600 1.432200
13.119900 0.975700
13.157200 0.607600
13.194500 0.536100
13.231800 0.710600
13.269100 0.749500
13.306400 0.736100
13.343800 0.681100
13.381100 0.399700
13.418400 0.307900
13.455700 0.550800
13.493000 0.770700
13.530300 0.760400
13.567600 0.629500
13.605000 0.714800
13.642300 0.899600
13.679600 0.922600
13.716900 0.877300
13.754200 0.806000
13.791500 0.894800
13.828800 1.078500
13.866200 1.218200
13.903500 1.365800
13.940800 1.594200
13.978100 1.790900
14.015400 2.014300
14.052700 2.011500
14.090000 2.029600
14.127400 2.267100
14.164700 2.395300
14.202000 2.149900
14.239300 1.499000
14.276600 1.287700
14.313900 1.804800
14.351200 2.117700
14.388600 1.929800
14.425900 1.710900
14.463200 1.724800
14.500500 1.878900
14.537800 1.934100
14.575100 1.555400
14.612400 0.882300
14.649800 0.681700
14.687100 0.824800
14.724400 0.827500
14.761700 0.687400
14.799000 0.482800
14.836300 0.373600
14.873600 0.441900
14.911000 0.494300
14.948300 0.635600
14.985600 0.961700
15.022900 1.281100
15.060200 1.300000
15.097500 1.291500
15.134800 1.466300
15.172200 1.390100
15.209500 1.162300
15.246800 1.346400
15.284100 1.546000
15.321400 1.313800
15.358700 0.951900
15.396000 1.090000
15.433400 1.794200
15.470700 2.251000
15.508000 2.412200
15.545300 2.303300
15.582600 2.165000
15.619900 2.273700
15.657200 2.000100
15.694600 1.947000
15.731900 2.377100
15.769200 2.159500
15.806500 1.866000
15.843800 2.246400
15.881100 2.527000
15.918400 2.451200
15.955800 2.382400
15.993100 2.291500
16.030400 2.154900
16.067700 2.101300
16.105000 2.478300
16.142300 2.951400
16.179600 2.881000
16.217000 3.014500
16.254300 3.007100
16.291600 2.218400
16.328900 1.576300
16.366200 1.562300
16.403500 2.059300
16.440800 2.259700
16.478200 2.297500
16.515500 2.393400
16.552800 2.552400
16.590100 2.710500
16.627400 2.530900
16.664700 2.309100
16.702000 2.172900
16.739400 2.148900
16.776700 2.490200
16.814000 3.369100
16.851300 3.437200
16.888600 2.581600
16.925900 2.233900
16.963200 2.205500
17.000600 2.134100
17.037900 2.197700
17.075200 2.264700
17.112500 2.130000
17.149800 1.959500
17.187100 1.828600
17.224400 1.667600
17.261800 1.829000
17.299100 2.060700
17.336400 2.003800
17.373700 1.965900
17.411000 2.117100
17.448300 2.192900
17.485600 2.209300
17.523000 2.059200
17.560300 1.803800
17.597600 1.698800
17.634900 1.433300
17.672200 1.245300
17.709500 1.599500
17.746800 2.380400
17.784200 2.704600
17.821500 2.504400
17.858800 2.010100
17.896100 1.293200
17.933400 0.895400
17.970700 0.704600
18.008000 0.588100
18.045400 0.768200
18.082700 1.078900
18.120000 1.430400
18.157300 1.969400
18.194600 2.054000
18.231900 1.742000
18.269200 1.887300
18.306600 2.293800
18.343900 2.115100
18.381200 1.827500
18.418500 1.874800
18.455800 1.555700
18.493100 0.994100
18.530400 0.751700
18.567800 0.716600
18.605100 0.832100
18.642400 1.064700
18.679700 1.033800
18.717000 0.953300
18.754300 1.339900
18.791600 2.222700
18.829000 3.145000
18.866300 2.845000
18.903600 2.023800
18.940900 2.018800
18.978200 2.219600
19.015500 2.090800
19.052800 2.157500
19.090200 2.218800
19.127500 2.215600
19.164800 2.662000
19.202100 2.789300
19.239400 2.236600
19.276700 2.017800
19.314000 2.121400
19.351400 2.353000
19.388700 2.580600
19.426000 2.631100
19.463300 2.800300
19.500600 2.477600
19.537900 1.845400
19.575200 1.678700
19.612600 1.916400
19.649900 2.190000
19.687200 2.371500
19.724500 2.292900
19.761800 1.971700
19.799100 3.472800
19.836400 12.784200
19.873800 24.147400
19.911100 18.484300
19.948400 6.811700
19.985700 2.514900
20.023000 1.744900
20.060300 1.715800
20.097600 2.065200
20.135000 2.597000
20.172300 3.090000
20.209600 2.781800
20.246900 2.160100
20.284200 2.051700
20.321500 2.179400
20.358800 2.280600
20.396200 2.232800
20.433500 1.982000
20.470800 1.727800
20.508100 1.548200
20.545400 1.531800
20.582700 1.641500
20.620000 2.122600
20.657400 2.498600
20.694700 2.308700
20.732000 2.113200
20.769300 2.035100
20.806600 1.822700
20.843900 1.635400
20.881200 1.779400
20.918600 2.243600
20.955900 2.471900
20.993200 3.090100
21.030500 3.355000
21.067800 2.785300
21.105100 2.782400
21.142400 3.051600
21.179800 2.453300
21.217100 1.672700
21.254400 1.556800
21.291700 2.046800
21.329000 2.585800
21.366300 2.532300
21.403600 2.208300
21.441000 2.350500
21.478300 2.834000
21.515600 3.143100
21.552900 2.847700
21.590200 2.365200
21.627500 2.336200
21.664800 2.822500
21.702200 2.519600
21.739500 1.780800
21.776800 1.474000
21.814100 1.603800
21.851400 2.195400
21.888700 2.802100
21.926000 2.972400
21.963400 2.756200
22.000700 2.594200
22.038000 2.391700
22.075300 2.195200
22.112600 2.237700
22.149900 2.343000
22.187200 2.309400
22.224600 2.425500
22.261900 2.607000
22.299200 2.472000
22.336500 2.500900
22.373800 2.445600
22.411100 2.451100
22.448400 2.494500
22.485800 2.285200
22.523100 2.564500
22.560400 3.043500
22.597700 2.931300
22.635000 2.523800
22.672300 2.467500
22.709600 2.713300
22.747000 2.705900
22.784300 2.655900
22.821600 2.961600
22.858900 2.940500
22.896200 2.287400
22.933500 2.093400
22.970800 2.055100
23.008200 1.911500
23.045500 1.955200
23.082800 1.958000
23.120100 1.979500
23.157400 1.904300
23.194700 1.980400
23.232000 2.393300
23.269400 2.689800
23.306700 2.587000
23.344000 2.320600
23.381300 2.107600
23.418600 2.078200
23.455900 2.129200
23.493200 2.259200
23.530600 2.969400
23.567900 3.583300
23.605200 3.342300
23.642500 3.220100
23.679800 3.393600
23.717100 3.029100
23.754400 2.693300
23.791800 2.769800
23.829100 2.788700
23.866400 2.835300
23.903700 2.919600
23.941000 2.889400
23.978300 2.922900
24.015600 2.847800
24.053000 2.318300
24.090300 1.834800
24.127600 1.885400
24.164900 1.994400
24.202200 2.117800
24.239500 2.810100
24.276800 3.461400
24.314200 3.117900
24.351500 2.397300
24.388800 1.778500
24.426100 1.252700
24.463400 1.389700
24.500700 1.894000
24.538000 2.202900
24.575400 2.674100
24.612700 3.083300
24.650000 3.262000
24.687300 3.520800
24.724600 3.852800
24.761900 3.926700
24.799200 3.545500
24.836600 2.952900
24.873900 2.210500
24.911200 1.490300
24.948500 1.206200
24.985800 1.472700
25.023100 2.220100
25.060400 2.899100
25.097800 2.824900
25.135100 2.633000
25.172400 2.817700
25.209700 3.011000
25.247000 3.166500
25.284300 2.914400
25.321600 2.614600
25.359000 2.644000
25.396300 2.660300
25.433600 2.452400
25.470900 2.241900
25.508200 2.082600
25.545500 1.993400
25.582800 2.120600
25.620200 2.714500
25.657500 3.335400
25.694800 3.425800
25.732100 3.039000
25.769400 2.682200
25.806700 2.573700
25.844000 2.811100
25.881400 3.032400
25.918700 2.753200
25.956000 2.463700
25.993300 2.363300
26.030600 2.211400
26.067900 2.488900
26.105200 2.783000
26.142600 2.726000
26.179900 2.931000
26.217200 2.931000
26.254500 2.671000
26.291800 2.331100
26.329100 1.983300
26.366400 2.212300
26.403800 2.884700
26.441100 3.418900
26.478400 3.380200
26.515700 3.041800
26.553000 2.914800
26.590300 2.746100
26.627600 2.467800
26.665000 2.321000
26.702300 2.575200
26.739600 2.753300
26.776900 2.745200
26.814200 2.848300
26.851500 2.655300
26.888800 2.192600
26.926200 2.299200
26.963500 2.864200
27.000800 2.997600
27.038100 2.686700
27.075400 2.340300
27.112700 2.606300
27.150000 3.117900
27.187400 3.008500
27.224700 2.558200
27.262000 2.448300
27.299300 2.720900
27.336600 2.618500
27.373900 1.962000
27.411200 1.910300
27.448500 2.550100
27.485900 2.805100
27.523200 2.592500
27.560500 2.296100
27.597800 2.435100
27.635100 2.747100
27.672400 2.664700
27.709700 2.721100
27.747100 2.981600
27.784400 2.921700
27.821700 2.536100
27.859000 2.180900
27.896300 2.098400
27.933600 2.393900
27.970900 2.743700
28.008300 2.709100
28.045600 2.672600
28.082900 2.845700
28.120200 3.000700
28.157500 2.926400
28.194800 2.831900
28.232100 2.774600
28.269500 2.553300
28.306800 2.405200
28.344100 2.334800
28.381400 2.306600
28.418700 2.489100
28.456000 2.936200
28.493300 3.148800
28.530700 3.016000
28.568000 2.865600
28.605300 2.621400
28.642600 2.739700
28.679900 3.289400
28.717200 3.259300
28.754500 2.691000
28.791900 2.469600
28.829200 2.429000
28.866500 2.264500
28.903800 2.298200
28.941100 2.522600
28.978400 2.742800
29.015700 2.849800
29.053100 2.770400
29.090400 2.570500
29.127700 2.613700
29.165000 2.634900
29.202300 2.511800
29.239600 2.907300
29.276900 3.084600
29.314300 3.049600
29.351600 3.334400
29.388900 2.852000
29.426200 1.987100
29.463500 1.808400
29.500800 1.867300
29.538100 2.242200
29.575500 3.139100
29.612800 3.744700
29.650100 3.765500
29.687400 3.602100
29.724700 3.219200
29.762000 2.904200
29.799300 2.831700
29.836700 2.672100
29.874000 2.709000
29.911300 2.893500
29.948600 2.962700
29.985900 2.708700
30.023200 2.253000
30.060500 2.637500
30.097900 3.597600
30.135200 3.574600
30.172500 2.774500
30.209800 2.399700
30.247100 2.620900
30.284400 2.466900
30.321700 2.067200
30.359100 2.462200
30.396400 3.244000
30.433700 3.361000
30.471000 3.009600
30.508300 2.778500
30.545600 2.699800
30.582900 2.698700
30.620300 2.776000
30.657600 3.000100
30.694900 3.258400
30.732200 3.350900
30.769500 3.144700
30.806800 3.028300
30.844100 3.028000
30.881500 2.951700
30.918800 2.908300
30.956100 2.844400
30.993400 2.796700
31.030700 2.933100
31.068000 2.820900
31.105300 2.674300
31.142700 2.813000
31.180000 3.426800
31.217300 3.475600
31.254600 2.675900
31.291900 2.569000
31.329200 3.121600
31.366500 3.716800
31.403900 4.283600
31.441200 4.117600
31.478500 3.207000
31.515800 2.648900
31.553100 2.448100
31.590400 2.277700
31.627700 2.228300
31.665100 2.283000
31.702400 2.241300
31.739700 2.481900
31.777000 3.189300
31.814300 3.859700
31.851600 3.808800
31.888900 3.220500
31.926300 2.831400
31.963600 2.847300
32.000900 2.905500
32.038200 2.974000
32.075500 3.208100
32.112800 3.190500
32.150100 3.099000
32.187500 2.834900
32.224800 2.798300
32.262100 3.305000
32.299400 3.508500
32.336700 3.188700
32.374000 3.062300
32.411300 3.012500
32.448700 2.894600
32.486000 2.985300
32.523300 2.657900
32.560600 2.341000
32.597900 2.766500
32.635200 3.344400
32.672500 3.215400
32.709900 2.699300
32.747200 2.127600
32.784500 2.022100
32.821800 2.620200
32.859100 2.793700
32.896400 2.700600
32.933700 2.979000
32.971100 3.436000
33.008400 3.372000
33.045700 2.380200
33.083000 1.951100
33.120300 2.518900
33.157600 2.761800
33.194900 2.607500
33.232300 2.496000
33.269600 2.276300
33.306900 1.990900
33.344200 1.863800
33.381500 2.381800
33.418800 3.282700
33.456100 3.551800
33.493500 2.886500
33.530800 2.359800
33.568100 2.488400
33.605400 2.857500
33.642700 3.126300
33.680000 3.383100
33.717300 3.809600
33.754700 4.236700
33.792000 3.990300
33.829300 3.244100
33.866600 2.360800
33.903900 1.754800
33.941200 1.938100
33.978500 2.563400
34.015900 3.321900
34.053200 4.129000
34.090500 3.797500
34.127800 2.637100
34.165100 2.213100
34.202400 2.256700
34.239700 2.318400
34.277100 2.247700
34.314400 2.460800
34.351700 3.069600
34.389000 2.937100
34.426300 2.330200
34.463600 1.747900
34.500900 1.830600
34.538300 2.363100
34.575600 2.500800
34.612900 2.862000
34.650200 3.276200
34.687500 3.431900
34.724800 3.256900
34.762100 2.766300
34.799500 2.921800
34.836800 3.508100
34.874100 3.938900
34.911400 3.647600
34.948700 2.653100
34.986000 1.892400
35.023300 1.900300
35.060700 2.067800
35.098000 1.949800
35.135300 1.903800
35.172600 1.865100
35.209900 1.973900
35.247200 1.993800
35.284500 1.940100
35.321900 2.094000
35.359200 1.849900
35.396500 1.617300
35.433800 1.669000
35.471100 1.844600
35.508400 1.826100
35.545700 1.514800
35.583100 1.265900
35.620400 1.294300
35.657700 1.433100
35.695000 1.473000
35.732300 1.294400
35.769600 0.738100
35.806900 0.298500
35.844300 0.240300
35.881600 0.563900
35.918900 1.077100
35.956200 1.232000
35.993500 0.805900
36.030800 0.369200
36.068100 0.351400
36.105500 0.469700
36.142800 0.470300
36.180100 0.439000
36.217400 0.532000
36.254700 0.578300
36.292000 0.365900
36.329300 0.194900
36.366700 0.196400
36.404000 0.202100
36.441300 0.319400
36.478600 0.571300
36.515900 0.582000
36.553200 0.396400
36.590500 0.271100
36.627900 0.240700
36.665200 0.252400
36.702500 0.208400
36.739800 0.164100
36.777100 0.139900
36.814400 0.105500
36.851700 0.103500
36.889100 0.094400
36.926400 0.051900
36.963700 0.087800
37.001000 0.175200
37.038300 0.184500
37.075600 0.117100
37.112900 0.038700
37.150300 0.005300
37.187600 0.000300
37.224900 0.000000
37.262200 0.000000
37.299500 0.000000
37.336800 0.000000
37.374100 0.000000
37.411500 0.000000
37.448800 0.000000
37.486100 0.000000
37.523400 0.000000
37.560700 0.000000
37.598000 0.000000
37.635300 0.000000
37.672700 0.000000
37.710000 0.000000
37.747300 0.000000
37.784600 0.000000
37.821900 0.000000
37.859200 0.000000
37.896500 0.000000
37.933900 0.000000
37.971200 0.000000
38.008500 0.000000
38.045800 0.000000
38.083100 0.000000
38.120400 0.000000
38.157700 0.000000
38.195100 0.000000
38.232400 0.000000
38.269700 0.000000
38.307000 0.000000
38.344300 0.000000
38.381600 0.000000
38.418900 0.000000
38.456300 0.000000
38.493600 0.000000
38.530900 0.000000
38.568200 0.000000
38.605500 0.000000
38.642800 0.000000
38.680100 0.000000
38.717500 0.000000
38.754800 0.000000
38.792100 0.000000
38.829400 0.000000
38.866700 0.000000
38.904000 0.000000
38.941300 0.000000
38.978700 0.000000
39.016000 0.000000
39.053300 0.000000
39.090600 0.000000
39.127900 0.000000
39.165200 0.000000
39.202500 0.000000
39.239900 0.000000
39.277200 0.000000
39.314500 0.000000
39.351800 0.000000
39.389100 0.000000
39.426400 0.000000
39.463700 0.000000
39.501100 0.000000
39.538400 0.000000
39.575700 0.000000
39.613000 0.000000
39.650300 0.000000
39.687600 0.000000
39.724900 0.000000
39.762300 0.000000
39.799600 0.000000
39.836900 0.000000
39.874200 0.000000
39.911500 0.000000
39.948800 0.000000
39.986100 0.000000
40.023500 0.000000
40.060800 0.000000
40.098100 0.000000
40.135400 0.000000
40.172700 0.000000
40.210000 0.000000
40.247300 0.000000
40.284700 0.000000
40.322000 0.000000
40.359300 0.000000
40.396600 0.000000
40.433900 0.000000
e
