set title 'mp-30883 - Density of States'
set xlabel 'Energy (eV)'
set ylabel 'DOS (states/eV)'
set grid
set xrange [-10:10]
set yrange [0:122.785]
set xzeroaxis lt -1
set terminal png size 800,600
set output 'mp-30883_dos_gnuplot.png'
plot '-' using 1:2 with lines title 'DOS'
-37.358200 0.000000
-37.319700 0.000000
-37.281100 0.000000
-37.242600 0.000000
-37.204100 0.000000
-37.165600 0.000000
-37.127100 0.000000
-37.088600 0.000000
-37.050000 0.000000
-37.011500 0.000000
-36.973000 0.000000
-36.934500 0.000000
-36.896000 0.000000
-36.857400 0.000000
-36.818900 0.000000
-36.780400 0.000000
-36.741900 0.000000
-36.703400 0.000000
-36.664900 0.000000
-36.626300 0.000000
-36.587800 0.000000
-36.549300 0.000000
-36.510800 0.000000
-36.472300 0.000000
-36.433700 0.000000
-36.395200 0.000000
-36.356700 0.000000
-36.318200 0.000000
-36.279700 0.000000
-36.241100 0.000000
-36.202600 0.000000
-36.164100 0.000000
-36.125600 0.000000
-36.087100 0.000000
-36.048600 0.000000
-36.010000 0.000000
-35.971500 0.000000
-35.933000 0.000000
-35.894500 0.000000
-35.856000 0.000000
-35.817400 0.000000
-35.778900 0.000000
-35.740400 0.000000
-35.701900 0.000000
-35.663400 0.000000
-35.624900 0.000000
-35.586300 0.000000
-35.547800 0.000000
-35.509300 0.000000
-35.470800 0.000000
-35.432300 0.000000
-35.393700 0.000000
-35.355200 0.000000
-35.316700 0.000000
-35.278200 0.000000
-35.239700 0.000000
-35.201200 0.000000
-35.162600 0.000000
-35.124100 0.000000
-35.085600 0.000000
-35.047100 0.000000
-35.008600 0.000000
-34.970000 0.000000
-34.931500 0.000000
-34.893000 0.000000
-34.854500 0.000000
-34.816000 0.000000
-34.777400 0.000000
-34.738900 0.000000
-34.700400 0.000000
-34.661900 0.000000
-34.623400 0.000000
-34.584900 0.000000
-34.546300 0.000000
-34.507800 0.000000
-34.469300 0.000000
-34.430800 0.000000
-34.392300 0.000000
-34.353700 0.000000
-34.315200 0.000000
-34.276700 0.000000
-34.238200 0.000000
-34.199700 0.000000
-34.161200 0.000000
-34.122600 0.000000
-34.084100 0.000000
-34.045600 0.000000
-34.007100 0.000000
-33.968600 0.000000
-33.930000 0.000000
-33.891500 0.000000
-33.853000 195.849200
-33.814500 12.281800
-33.776000 8.087000
-33.737500 35.737700
-33.698900 17.746000
-33.660400 52.346100
-33.621900 6.403300
-33.583400 5.275500
-33.544900 5.275500
-33.506300 0.000000
-33.467800 0.000000
-33.429300 259.543700
-33.390800 5.478000
-33.352300 5.478000
-33.313800 22.801700
-33.275200 143.598200
-33.236700 142.483200
-33.198200 89.170100
-33.159700 0.000000
-33.121200 0.000000
-33.082600 0.000000
-33.044100 0.000000
-33.005600 0.000000
-32.967100 0.000000
-32.928600 0.000000
-32.890000 0.000000
-32.851500 0.000000
-32.813000 0.000000
-32.774500 0.000000
-32.736000 0.000000
-32.697500 0.000000
-32.658900 0.000000
-32.620400 0.000000
-32.581900 0.000000
-32.543400 0.000000
-32.504900 0.000000
-32.466300 0.000000
-32.427800 0.000000
-32.389300 0.000000
-32.350800 0.000000
-32.312300 0.000000
-32.273800 0.000000
-32.235200 0.000000
-32.196700 0.000000
-32.158200 0.000000
-32.119700 0.000000
-32.081200 0.000000
-32.042600 0.000000
-32.004100 0.000000
-31.965600 0.000000
-31.927100 0.000000
-31.888600 0.000000
-31.850100 0.000000
-31.811500 0.000000
-31.773000 0.000000
-31.734500 0.000000
-31.696000 0.000000
-31.657500 0.000000
-31.618900 0.000000
-31.580400 0.000000
-31.541900 0.000000
-31.503400 0.000000
-31.464900 0.000000
-31.426400 0.000000
-31.387800 0.000000
-31.349300 0.000000
-31.310800 0.000000
-31.272300 0.000000
-31.233800 0.000000
-31.195200 0.000000
-31.156700 0.000000
-31.118200 0.000000
-31.079700 0.000000
-31.041200 0.000000
-31.002600 0.000000
-30.964100 0.000000
-30.925600 0.000000
-30.887100 0.000000
-30.848600 0.000000
-30.810100 0.000000
-30.771500 0.000000
-30.733000 0.000000
-30.694500 0.000000
-30.656000 0.000000
-30.617500 0.000000
-30.578900 0.000000
-30.540400 0.000000
-30.501900 0.000000
-30.463400 0.000000
-30.424900 0.000000
-30.386400 0.000000
-30.347800 0.000000
-30.309300 0.000000
-30.270800 0.000000
-30.232300 0.000000
-30.193800 0.000000
-30.155200 0.000000
-30.116700 0.000000
-30.078200 0.000000
-30.039700 0.000000
-30.001200 0.000000
-29.962700 0.000000
-29.924100 0.000000
-29.885600 0.000000
-29.847100 0.000000
-29.808600 0.000000
-29.770100 0.000000
-29.731500 0.000000
-29.693000 0.000000
-29.654500 0.000000
-29.616000 0.000000
-29.577500 0.000000
-29.538900 0.000000
-29.500400 0.000000
-29.461900 0.000000
-29.423400 0.000000
-29.384900 0.000000
-29.346400 0.000000
-29.307800 0.000000
-29.269300 0.000000
-29.230800 0.000000
-29.192300 0.000000
-29.153800 0.000000
-29.115200 0.000000
-29.076700 0.000000
-29.038200 0.000000
-28.999700 0.000000
-28.961200 0.000000
-28.922700 0.000000
-28.884100 0.000000
-28.845600 0.000000
-28.807100 0.000000
-28.768600 0.000000
-28.730100 0.000000
-28.691500 0.000000
-28.653000 0.000000
-28.614500 0.000000
-28.576000 0.000000
-28.537500 0.000000
-28.499000 0.000000
-28.460400 0.000000
-28.421900 0.000000
-28.383400 0.000000
-28.344900 0.000000
-28.306400 0.000000
-28.267800 0.000000
-28.229300 0.000000
-28.190800 0.000000
-28.152300 0.000000
-28.113800 0.000000
-28.075300 0.000000
-28.036700 0.000000
-27.998200 0.000000
-27.959700 0.000000
-27.921200 0.000000
-27.882700 0.000000
-27.844100 0.000000
-27.805600 0.000000
-27.767100 0.000000
-27.728600 0.000000
-27.690100 0.000000
-27.651500 0.000000
-27.613000 0.000000
-27.574500 0.000000
-27.536000 0.000000
-27.497500 0.000000
-27.459000 0.000000
-27.420400 0.000000
-27.381900 0.000000
-27.343400 0.000000
-27.304900 0.000000
-27.266400 0.000000
-27.227800 0.000000
-27.189300 0.000000
-27.150800 0.000000
-27.112300 0.000000
-27.073800 0.000000
-27.035300 0.000000
-26.996700 0.000000
-26.958200 0.000000
-26.919700 0.000000
-26.881200 0.000000
-26.842700 0.000000
-26.804100 0.000000
-26.765600 0.000000
-26.727100 0.000000
-26.688600 0.000000
-26.650100 0.000000
-26.611600 0.000000
-26.573000 0.000000
-26.534500 0.000000
-26.496000 0.000000
-26.457500 0.000000
-26.419000 0.000000
-26.380400 0.000000
-26.341900 0.000000
-26.303400 0.000000
-26.264900 0.000000
-26.226400 0.000000
-26.187900 0.000000
-26.149300 0.000000
-26.110800 0.000000
-26.072300 0.000000
-26.033800 0.000000
-25.995300 0.000000
-25.956700 0.000000
-25.918200 0.000000
-25.879700 0.000000
-25.841200 0.000000
-25.802700 0.000000
-25.764100 0.000000
-25.725600 0.000000
-25.687100 0.000000
-25.648600 0.000000
-25.610100 0.000000
-25.571600 0.000000
-25.533000 0.000000
-25.494500 0.000000
-25.456000 0.000000
-25.417500 0.000000
-25.379000 0.000000
-25.340400 0.000000
-25.301900 0.000000
-25.263400 0.000000
-25.224900 0.000000
-25.186400 0.000000
-25.147900 0.000000
-25.109300 0.000000
-25.070800 0.000000
-25.032300 0.000000
-24.993800 0.000000
-24.955300 0.000000
-24.916700 0.000000
-24.878200 0.000000
-24.839700 0.000000
-24.801200 0.000000
-24.762700 0.000000
-24.724200 0.000000
-24.685600 0.000000
-24.647100 0.000000
-24.608600 0.000000
-24.570100 0.000000
-24.531600 0.000000
-24.493000 0.000000
-24.454500 0.000000
-24.416000 0.000000
-24.377500 0.000000
-24.339000 0.000000
-24.300500 0.000000
-24.261900 0.000000
-24.223400 0.000000
-24.184900 0.000000
-24.146400 0.000000
-24.107900 0.000000
-24.069300 0.000000
-24.030800 0.000000
-23.992300 0.000000
-23.953800 0.000000
-23.915300 0.000000
-23.876700 0.000000
-23.838200 0.000000
-23.799700 0.000000
-23.761200 0.000000
-23.722700 0.000000
-23.684200 0.000000
-23.645600 0.000000
-23.607100 0.000000
-23.568600 0.000000
-23.530100 0.000000
-23.491600 0.000000
-23.453000 0.000000
-23.414500 0.000000
-23.376000 0.000000
-23.337500 0.000000
-23.299000 0.000000
-23.260500 0.000000
-23.221900 0.000000
-23.183400 0.000000
-23.144900 0.000000
-23.106400 0.000000
-23.067900 0.000000
-23.029300 0.000000
-22.990800 0.000000
-22.952300 0.000000
-22.913800 0.000000
-22.875300 0.000000
-22.836800 0.000000
-22.798200 0.000000
-22.759700 0.000000
-22.721200 0.000000
-22.682700 0.000000
-22.644200 0.000000
-22.605600 0.000000
-22.567100 0.000000
-22.528600 0.000000
-22.490100 0.000000
-22.451600 0.000000
-22.413000 0.000000
-22.374500 0.000000
-22.336000 0.000000
-22.297500 0.000000
-22.259000 0.000000
-22.220500 0.000000
-22.181900 0.000000
-22.143400 0.000000
-22.104900 0.000000
-22.066400 0.000000
-22.027900 0.000000
-21.989300 0.000000
-21.950800 0.000000
-21.912300 0.000000
-21.873800 0.000000
-21.835300 0.000000
-21.796800 0.000000
-21.758200 0.000000
-21.719700 0.000000
-21.681200 0.000000
-21.642700 0.000000
-21.604200 0.000000
-21.565600 0.000000
-21.527100 0.000000
-21.488600 0.000000
-21.450100 0.000000
-21.411600 0.000000
-21.373100 0.000000
-21.334500 0.000000
-21.296000 0.000000
-21.257500 0.000000
-21.219000 0.000000
-21.180500 0.000000
-21.141900 0.000000
-21.103400 0.000000
-21.064900 0.000000
-21.026400 0.000000
-20.987900 0.000000
-20.949400 0.000000
-20.910800 0.000000
-20.872300 0.000000
-20.833800 0.000000
-20.795300 0.000000
-20.756800 0.000000
-20.718200 0.000000
-20.679700 0.000000
-20.641200 0.000000
-20.602700 0.000000
-20.564200 0.000000
-20.525600 0.000000
-20.487100 0.000000
-20.448600 0.000000
-20.410100 0.000000
-20.371600 0.000000
-20.333100 0.000000
-20.294500 0.000000
-20.256000 0.000000
-20.217500 0.000000
-20.179000 0.000000
-20.140500 0.000000
-20.101900 0.000000
-20.063400 0.000000
-20.024900 0.000000
-19.986400 0.000000
-19.947900 0.000000
-19.909400 0.000000
-19.870800 0.000000
-19.832300 0.000000
-19.793800 0.000000
-19.755300 0.000000
-19.716800 0.000000
-19.678200 0.000000
-19.639700 0.000000
-19.601200 0.000000
-19.562700 0.000000
-19.524200 0.000000
-19.485700 0.000000
-19.447100 0.000000
-19.408600 0.000000
-19.370100 0.000000
-19.331600 0.000000
-19.293100 0.000000
-19.254500 0.000000
-19.216000 0.000000
-19.177500 0.000000
-19.139000 0.000000
-19.100500 0.000000
-19.062000 0.000000
-19.023400 0.000000
-18.984900 0.000000
-18.946400 0.000000
-18.907900 0.000000
-18.869400 0.000000
-18.830800 0.000000
-18.792300 0.000000
-18.753800 0.000000
-18.715300 0.000000
-18.676800 0.000000
-18.638200 0.000000
-18.599700 0.000000
-18.561200 0.000000
-18.522700 0.000000
-18.484200 0.000000
-18.445700 0.000000
-18.407100 0.000000
-18.368600 0.000000
-18.330100 0.000000
-18.291600 0.000000
-18.253100 0.000000
-18.214500 0.000000
-18.176000 0.000000
-18.137500 0.000000
-18.099000 0.000000
-18.060500 0.000000
-18.022000 0.000000
-17.983400 0.000000
-17.944900 0.000000
-17.906400 0.000000
-17.867900 0.000000
-17.829400 0.000000
-17.790800 0.000000
-17.752300 0.000000
-17.713800 0.000000
-17.675300 0.000000
-17.636800 0.000000
-17.598300 0.000000
-17.559700 0.000000
-17.521200 0.000000
-17.482700 0.000000
-17.444200 0.000000
-17.405700 0.000000
-17.367100 0.000000
-17.328600 0.000000
-17.290100 0.000000
-17.251600 0.000000
-17.213100 0.000000
-17.174500 0.000000
-17.136000 0.000000
-17.097500 0.000000
-17.059000 0.000000
-17.020500 0.000000
-16.982000 0.000000
-16.943400 0.000000
-16.904900 0.000000
-16.866400 0.000000
-16.827900 0.000000
-16.789400 0.000000
-16.750800 0.000000
-16.712300 0.000000
-16.673800 0.000000
-16.635300 0.000000
-16.596800 0.000000
-16.558300 0.000000
-16.519700 0.000000
-16.481200 0.000000
-16.442700 0.000000
-16.404200 0.000000
-16.365700 0.000000
-16.327100 0.000000
-16.288600 0.000000
-16.250100 0.000000
-16.211600 0.000000
-16.173100 0.000000
-16.134600 0.000000
-16.096000 0.000000
-16.057500 0.000000
-16.019000 0.000000
-15.980500 0.000000
-15.942000 0.000000
-15.903400 0.000000
-15.864900 0.000000
-15.826400 0.000000
-15.787900 0.000000
-15.749400 0.000000
-15.710900 0.000000
-15.672300 0.000000
-15.633800 0.000000
-15.595300 0.000000
-15.556800 0.000000
-15.518300 0.000000
-15.479700 0.000000
-15.441200 0.000000
-15.402700 0.000000
-15.364200 0.000000
-15.325700 0.000000
-15.287100 0.000000
-15.248600 0.000000
-15.210100 0.000000
-15.171600 0.000000
-15.133100 0.000000
-15.094600 0.000000
-15.056000 0.000000
-15.017500 0.000000
-14.979000 0.000000
-14.940500 0.000000
-14.902000 0.000000
-14.863400 0.000000
-14.824900 0.000000
-14.786400 0.000000
-14.747900 0.000000
-14.709400 0.000000
-14.670900 0.000000
-14.632300 0.000000
-14.593800 0.000000
-14.555300 0.000000
-14.516800 0.000000
-14.478300 0.000000
-14.439700 0.000000
-14.401200 0.000000
-14.362700 0.000000
-14.324200 0.000000
-14.285700 0.000000
-14.247200 0.000000
-14.208600 0.000000
-14.170100 0.000000
-14.131600 0.000000
-14.093100 0.000000
-14.054600 0.000000
-14.016000 0.000000
-13.977500 0.000000
-13.939000 0.000000
-13.900500 0.000000
-13.862000 0.000000
-13.823500 0.000000
-13.784900 0.000000
-13.746400 0.000000
-13.707900 0.000000
-13.669400 0.000000
-13.630900 0.000000
-13.592300 0.000000
-13.553800 0.000000
-13.515300 0.000000
-13.476800 0.000000
-13.438300 0.000000
-13.399700 0.000000
-13.361200 0.000000
-13.322700 0.000000
-13.284200 0.000000
-13.245700 0.000000
-13.207200 0.000000
-13.168600 0.000000
-13.130100 0.000000
-13.091600 0.000000
-13.053100 0.000000
-13.014600 0.000000
-12.976000 0.000000
-12.937500 0.000000
-12.899000 0.000000
-12.860500 0.000000
-12.822000 0.000000
-12.783500 0.000000
-12.744900 0.000000
-12.706400 0.000000
-12.667900 0.000000
-12.629400 0.000000
-12.590900 0.000000
-12.552300 0.000000
-12.513800 0.000000
-12.475300 0.000000
-12.436800 0.000000
-12.398300 0.000000
-12.359800 0.000000
-12.321200 0.000000
-12.282700 0.000000
-12.244200 0.000000
-12.205700 0.000000
-12.167200 0.000000
-12.128600 0.000000
-12.090100 0.000000
-12.051600 0.000000
-12.013100 0.000000
-11.974600 0.000000
-11.936100 0.000000
-11.897500 0.000000
-11.859000 0.000000
-11.820500 0.000000
-11.782000 0.000000
-11.743500 0.000000
-11.704900 0.000000
-11.666400 0.000000
-11.627900 0.000000
-11.589400 0.000000
-11.550900 0.000000
-11.512300 0.000000
-11.473800 0.000000
-11.435300 0.000000
-11.396800 0.000000
-11.358300 0.000000
-11.319800 0.000000
-11.281200 0.000000
-11.242700 0.000000
-11.204200 0.000000
-11.165700 0.000000
-11.127200 0.000000
-11.088600 0.000000
-11.050100 0.000000
-11.011600 0.000000
-10.973100 0.000000
-10.934600 0.000000
-10.896100 0.000000
-10.857500 0.000000
-10.819000 0.000000
-10.780500 0.000000
-10.742000 0.000000
-10.703500 0.000000
-10.664900 0.000000
-10.626400 0.000000
-10.587900 0.000000
-10.549400 0.000000
-10.510900 0.000000
-10.472400 0.000000
-10.433800 0.000000
-10.395300 0.000000
-10.356800 0.000000
-10.318300 0.000000
-10.279800 0.000000
-10.241200 0.000000
-10.202700 0.000000
-10.164200 0.000000
-10.125700 0.000000
-10.087200 0.000000
-10.048600 0.000000
-10.010100 0.000000
-9.971600 0.000000
-9.933100 0.000000
-9.894600 0.000000
-9.856100 0.000000
-9.817500 0.000000
-9.779000 0.000000
-9.740500 0.000000
-9.702000 0.000000
-9.663500 0.000000
-9.624900 0.000000
-9.586400 0.000000
-9.547900 0.000000
-9.509400 0.000000
-9.470900 0.000000
-9.432400 0.000000
-9.393800 0.000000
-9.355300 0.000000
-9.316800 0.000000
-9.278300 0.000000
-9.239800 0.000000
-9.201200 0.000000
-9.162700 0.000000
-9.124200 0.000000
-9.085700 0.000000
-9.047200 0.000000
-9.008700 0.000000
-8.970100 0.000000
-8.931600 0.000000
-8.893100 0.000000
-8.854600 0.000000
-8.816100 0.000000
-8.777500 0.000000
-8.739000 0.000000
-8.700500 0.000000
-8.662000 0.000000
-8.623500 0.000000
-8.585000 0.000000
-8.546400 0.000000
-8.507900 0.000000
-8.469400 0.000000
-8.430900 0.000000
-8.392400 0.000000
-8.353800 0.000000
-8.315300 0.000000
-8.276800 0.000000
-8.238300 0.000000
-8.199800 0.000000
-8.161200 0.000000
-8.122700 0.000000
-8.084200 0.000000
-8.045700 0.000000
-8.007200 0.000000
-7.968700 0.000000
-7.930100 0.000000
-7.891600 0.000000
-7.853100 0.000000
-7.814600 0.000000
-7.776100 0.000000
-7.737500 0.000000
-7.699000 0.000000
-7.660500 0.000000
-7.622000 0.000000
-7.583500 0.000000
-7.545000 0.000000
-7.506400 0.000000
-7.467900 0.000000
-7.429400 0.000000
-7.390900 0.000000
-7.352400 0.000000
-7.313800 0.000000
-7.275300 0.000000
-7.236800 0.000000
-7.198300 0.000000
-7.159800 0.000000
-7.121300 0.000000
-7.082700 0.000000
-7.044200 0.000000
-7.005700 0.000000
-6.967200 0.000000
-6.928700 0.000000
-6.890100 0.000000
-6.851600 0.000000
-6.813100 0.000000
-6.774600 0.000000
-6.736100 0.000000
-6.697600 0.000000
-6.659000 0.000000
-6.620500 0.000000
-6.582000 0.000000
-6.543500 0.000000
-6.505000 0.000000
-6.466400 0.000000
-6.427900 0.000000
-6.389400 0.000000
-6.350900 0.000000
-6.312400 0.000000
-6.273800 0.000000
-6.235300 0.000000
-6.196800 0.000000
-6.158300 0.000000
-6.119800 0.000000
-6.081300 0.000000
-6.042700 0.000000
-6.004200 0.000000
-5.965700 0.000000
-5.927200 0.000000
-5.888700 0.000000
-5.850100 0.000000
-5.811600 0.000000
-5.773100 0.000000
-5.734600 0.000000
-5.696100 0.000000
-5.657600 0.000000
-5.619000 0.000000
-5.580500 0.000000
-5.542000 0.000000
-5.503500 0.000000
-5.465000 0.000000
-5.426400 0.000000
-5.387900 0.000000
-5.349400 0.000000
-5.310900 0.000000
-5.272400 0.000000
-5.233900 0.000000
-5.195300 0.000000
-5.156800 0.000000
-5.118300 0.000000
-5.079800 0.000000
-5.041300 0.000000
-5.002700 0.045000
-4.964200 0.136400
-4.925700 0.210400
-4.887200 0.296400
-4.848700 0.390800
-4.810100 0.441100
-4.771600 0.481800
-4.733100 0.515100
-4.694600 0.558100
-4.656100 0.612100
-4.617600 0.670700
-4.579000 0.726600
-4.540500 0.787800
-4.502000 0.892600
-4.463500 1.038300
-4.425000 1.084900
-4.386400 1.119100
-4.347900 1.114200
-4.309400 1.078000
-4.270900 1.053500
-4.232400 1.038000
-4.193900 1.036000
-4.155300 1.039700
-4.116800 1.042500
-4.078300 1.049800
-4.039800 1.055100
-4.001300 1.065100
-3.962700 1.082500
-3.924200 1.106300
-3.885700 1.176100
-3.847200 1.153700
-3.808700 1.174400
-3.770200 1.208100
-3.731600 1.242200
-3.693100 1.302700
-3.654600 1.359700
-3.616100 2.247400
-3.577600 5.251600
-3.539000 16.675900
-3.500500 27.129300
-3.462000 23.968500
-3.423500 17.686500
-3.385000 16.421700
-3.346500 28.967200
-3.307900 50.167000
-3.269400 52.405000
-3.230900 49.612600
-3.192400 25.858100
-3.153900 28.175800
-3.115300 28.046400
-3.076800 32.189900
-3.038300 43.237400
-2.999800 49.294300
-2.961300 56.340800
-2.922700 32.581000
-2.884200 31.809100
-2.845700 54.757400
-2.807200 44.965800
-2.768700 50.495000
-2.730200 50.245500
-2.691600 38.622100
-2.653100 40.489100
-2.614600 54.442200
-2.576100 60.841600
-2.537600 64.537400
-2.499000 45.092800
-2.460500 111.622500
-2.422000 41.019200
-2.383500 25.567600
-2.345000 11.119600
-2.306500 12.269100
-2.267900 8.328100
-2.229400 4.735000
-2.190900 3.833700
-2.152400 6.230600
-2.113900 3.685100
-2.075300 3.231700
-2.036800 2.310100
-1.998300 2.108600
-1.959800 1.948300
-1.921300 1.833300
-1.882800 1.780100
-1.844200 1.728000
-1.805700 1.757400
-1.767200 1.688000
-1.728700 1.671100
-1.690200 1.700300
-1.651600 1.696800
-1.613100 1.681400
-1.574600 1.684700
-1.536100 1.686700
-1.497600 1.687500
-1.459100 1.697100
-1.420500 1.712400
-1.382000 1.751400
-1.343500 1.845600
-1.305000 1.933100
-1.266500 2.095700
-1.227900 2.194100
-1.189400 2.242500
-1.150900 2.231700
-1.112400 1.711400
-1.073900 1.581600
-1.035300 1.489400
-0.996800 1.452100
-0.958300 1.428900
-0.919800 1.415400
-0.881300 1.409000
-0.842800 1.413300
-0.804200 1.479500
-0.765700 1.546000
-0.727200 1.473700
-0.688700 1.222700
-0.650200 1.207300
-0.611600 1.142700
-0.573100 1.167800
-0.534600 1.191300
-0.496100 1.223700
-0.457600 1.258700
-0.419100 1.293000
-0.380500 1.328800
-0.342000 1.362100
-0.303500 1.392300
-0.265000 1.428600
-0.226500 1.653800
-0.187900 1.739700
-0.149400 1.812400
-0.110900 1.867200
-0.072400 1.914300
-0.033900 1.995300
0.004600 2.102200
0.043200 2.270900
0.081700 2.391500
0.120200 2.605000
0.158700 2.765700
0.197200 3.090800
0.235800 3.233600
0.274300 2.807500
0.312800 2.627800
0.351300 2.473700
0.389800 2.332600
0.428400 2.186300
0.466900 2.061700
0.505400 1.954200
0.543900 1.848800
0.582400 1.604100
0.620900 1.532000
0.659500 1.503100
0.698000 1.572700
0.736500 1.856300
0.775000 1.936000
0.813500 2.019000
0.852100 2.073700
0.890600 2.162200
0.929100 2.247800
0.967600 2.434700
1.006100 2.443900
1.044600 2.323500
1.083200 2.254500
1.121700 2.712600
1.160200 3.197900
1.198700 2.873300
1.237200 2.868400
1.275800 2.811300
1.314300 2.671900
1.352800 2.309700
1.391300 2.414800
1.429800 2.637200
1.468300 3.675100
1.506900 4.576100
1.545400 4.462300
1.583900 4.642500
1.622400 4.811200
1.660900 5.285000
1.699500 5.669300
1.738000 5.727300
1.776500 5.875800
1.815000 6.076500
1.853500 5.546100
1.892000 6.273600
1.930600 6.289300
1.969100 6.396600
2.007600 5.537700
2.046100 4.954200
2.084600 4.519300
2.123200 4.500900
2.161700 4.917200
2.200200 5.607600
2.238700 6.647600
2.277200 6.757700
2.315800 7.843700
2.354300 10.806900
2.392800 7.920000
2.431300 10.017500
2.469800 9.719100
2.508300 11.004600
2.546900 8.527500
2.585400 7.172600
2.623900 3.752900
2.662400 4.927200
2.700900 6.374200
2.739500 6.039500
2.778000 6.059300
2.816500 8.098600
2.855000 11.284900
2.893500 10.757700
2.932000 8.688400
2.970600 8.544100
3.009100 7.513200
3.047600 7.739700
3.086100 9.803300
3.124600 13.919400
3.163200 14.691600
3.201700 18.203600
3.240200 17.135300
3.278700 17.164800
3.317200 12.852500
3.355700 10.747700
3.394300 8.278100
3.432800 7.155000
3.471300 8.102200
3.509800 8.663500
3.548300 7.374600
3.586900 7.186200
3.625400 7.708800
3.663900 7.611000
3.702400 5.566200
3.740900 4.990100
3.779400 4.665800
3.818000 4.459700
3.856500 5.448100
3.895000 5.528800
3.933500 5.629400
3.972000 5.990100
4.010600 5.762100
4.049100 5.285800
4.087600 5.091200
4.126100 5.001100
4.164600 4.748300
4.203200 4.518600
4.241700 4.830400
4.280200 5.498400
4.318700 6.368900
4.357200 6.340100
4.395700 8.297300
4.434300 9.086000
4.472800 7.624200
4.511300 7.406100
4.549800 8.157700
4.588300 7.067500
4.626900 6.751400
4.665400 6.348100
4.703900 5.564100
4.742400 4.967300
4.780900 4.041200
4.819400 3.889300
4.858000 3.079500
4.896500 3.223400
4.935000 3.415100
4.973500 3.825600
5.012000 4.791100
5.050600 5.418300
5.089100 5.972800
5.127600 6.097900
5.166100 5.652700
5.204600 5.233800
5.243100 5.200100
5.281700 5.738500
5.320200 8.058600
5.358700 11.373500
5.397200 11.956500
5.435700 7.205800
5.474300 5.828800
5.512800 5.585700
5.551300 5.653700
5.589800 6.118300
5.628300 7.630000
5.666800 10.147400
5.705400 11.963800
5.743900 13.087700
5.782400 12.923300
5.820900 13.311200
5.859400 13.147100
5.898000 10.325400
5.936500 11.692900
5.975000 14.711400
6.013500 18.442300
6.052000 13.977000
6.090600 6.289700
6.129100 13.828100
6.167600 17.780000
6.206100 13.538200
6.244600 12.482500
6.283100 13.424300
6.321700 11.871300
6.360200 10.739500
6.398700 6.192600
6.437200 6.604200
6.475700 10.702200
6.514300 8.429200
6.552800 8.675200
6.591300 6.641700
6.629800 4.818900
6.668300 6.651900
6.706800 7.090700
6.745400 5.828900
6.783900 3.571600
6.822400 3.519700
6.860900 3.512500
6.899400 3.619400
6.938000 4.010100
6.976500 4.131300
7.015000 4.292900
7.053500 4.213000
7.092000 4.329900
7.130500 5.310600
7.169100 6.755700
7.207600 7.113900
7.246100 6.324500
7.284600 6.677600
7.323100 9.394600
7.361700 9.989600
7.400200 5.965600
7.438700 4.310600
7.477200 3.777000
7.515700 3.634200
7.554300 3.411900
7.592800 3.503900
7.631300 3.726400
7.669800 3.770100
7.708300 3.806400
7.746800 4.135800
7.785400 5.058000
7.823900 6.372100
7.862400 7.582200
7.900900 4.386300
7.939400 4.083100
7.978000 3.797600
8.016500 3.406500
8.055000 2.932900
8.093500 2.591900
8.132000 2.435900
8.170500 2.407100
8.209100 2.079400
8.247600 1.850200
8.286100 3.688400
8.324600 4.093000
8.363100 3.835100
8.401700 3.764400
8.440200 3.586800
8.478700 3.378300
8.517200 3.150600
8.555700 2.982400
8.594200 2.987100
8.632800 3.028800
8.671300 3.206700
8.709800 3.644500
8.748300 3.886800
8.786800 4.294000
8.825400 4.548200
8.863900 4.520100
8.902400 4.646000
8.940900 3.933100
8.979400 3.600500
9.017900 3.278200
9.056500 2.800300
9.095000 2.723800
9.133500 2.812200
9.172000 3.480000
9.210500 4.813500
9.249100 5.820700
9.287600 4.653400
9.326100 4.228200
9.364600 3.642800
9.403100 3.319200
9.441700 3.297800
9.480200 3.226600
9.518700 3.181500
9.557200 3.592900
9.595700 3.737800
9.634200 3.573300
9.672800 3.415200
9.711300 3.272300
9.749800 3.078800
9.788300 2.866800
9.826800 2.770400
9.865400 2.722100
9.903900 2.697500
9.942400 2.626600
9.980900 2.825700
10.019400 3.087600
10.057900 2.795800
10.096500 2.901700
10.135000 3.062200
10.173500 3.180300
10.212000 3.524200
10.250500 3.948800
10.289100 3.992800
10.327600 4.866500
10.366100 4.398800
10.404600 4.169100
10.443100 3.578300
10.481600 3.519000
10.520200 3.572000
10.558700 3.548200
10.597200 3.417600
10.635700 3.343200
10.674200 3.257300
10.712800 3.242200
10.751300 3.733900
10.789800 3.670600
10.828300 3.450600
10.866800 3.319100
10.905300 3.222700
10.943900 3.055600
10.982400 3.100700
11.020900 3.069200
11.059400 3.076200
11.097900 3.162000
11.136500 3.291200
11.175000 3.095900
11.213500 3.078600
11.252000 2.957300
11.290500 2.873700
11.329100 2.851700
11.367600 2.877800
11.406100 2.777400
11.444600 2.709400
11.483100 2.660800
11.521600 2.642700
11.560200 2.696300
11.598700 2.860500
11.637200 2.982500
11.675700 3.305200
11.714200 3.616500
11.752800 3.792200
11.791300 3.913100
11.829800 3.733800
11.868300 3.477900
11.906800 3.312500
11.945300 2.867600
11.983900 2.754200
12.022400 2.701700
12.060900 2.720600
12.099400 2.725600
12.137900 2.769400
12.176500 2.812000
12.215000 2.875900
12.253500 2.982700
12.292000 3.089400
12.330500 3.205500
12.369000 3.307700
12.407600 3.494200
12.446100 3.542000
12.484600 2.841600
12.523100 2.660300
12.561600 2.609900
12.600200 2.591700
12.638700 2.600700
12.677200 2.628800
12.715700 2.705500
12.754200 2.948100
12.792800 2.885000
12.831300 2.868800
12.869800 2.984500
12.908300 3.143700
12.946800 3.348700
12.985300 3.507600
13.023900 3.464300
13.062400 3.563500
13.100900 3.682600
13.139400 3.762900
13.177900 3.769800
13.216500 3.946700
13.255000 3.915900
13.293500 3.929700
13.332000 3.979900
13.370500 4.022400
13.409000 4.068900
13.447600 4.143900
13.486100 4.175500
13.524600 4.253000
13.563100 4.189400
13.601600 4.222500
13.640200 4.225800
13.678700 4.305300
13.717200 4.712800
13.755700 4.718800
13.794200 4.815700
13.832700 4.636600
13.871300 4.530600
13.909800 4.331700
13.948300 4.118100
13.986800 3.888500
14.025300 3.895000
14.063900 3.959900
14.102400 3.981800
14.140900 3.959500
14.179400 3.935200
14.217900 3.954800
14.256400 3.854100
14.295000 3.844600
14.333500 3.832100
14.372000 3.610700
14.410500 3.528000
14.449000 3.606500
14.487600 3.137800
14.526100 3.071800
14.564600 3.115600
14.603100 3.172300
14.641600 3.228800
14.680200 3.400900
14.718700 3.372600
14.757200 3.924000
14.795700 3.844800
14.834200 3.864100
14.872700 3.729700
14.911300 3.687100
14.949800 3.438300
14.988300 3.429900
15.026800 3.515500
15.065300 3.555700
15.103900 3.188400
15.142400 2.960300
15.180900 2.879400
15.219400 3.224700
15.257900 3.300800
15.296400 3.294900
15.335000 3.587700
15.373500 3.782300
15.412000 3.930600
15.450500 4.094700
15.489000 3.975800
15.527600 3.885900
15.566100 3.866900
15.604600 3.852400
15.643100 3.984600
15.681600 4.147400
15.720100 4.233700
15.758700 4.016800
15.797200 3.848400
15.835700 3.674900
15.874200 3.719500
15.912700 3.767000
15.951300 3.831000
15.989800 3.806100
16.028300 3.666300
16.066800 3.631400
16.105300 3.497400
16.143800 3.323600
16.182400 3.289400
16.220900 3.491300
16.259400 3.710800
16.297900 3.912100
16.336400 4.068500
16.375000 4.008800
16.413500 3.783700
16.452000 3.709300
16.490500 3.661100
16.529000 3.568000
16.567600 3.603800
16.606100 3.640700
16.644600 3.677200
16.683100 3.694800
16.721600 3.615700
16.760100 3.302900
16.798700 2.988600
16.837200 2.809000
16.875700 2.835700
16.914200 3.078900
16.952700 3.348500
16.991300 3.502300
17.029800 3.510100
17.068300 3.610700
17.106800 3.646600
17.145300 3.689200
17.183800 3.767700
17.222400 3.868100
17.260900 3.786000
17.299400 3.814700
17.337900 3.890500
17.376400 3.993200
17.415000 4.068100
17.453500 4.140600
17.492000 4.458900
17.530500 4.423100
17.569000 4.335300
17.607500 4.146100
17.646100 3.959900
17.684600 3.923000
17.723100 3.966100
17.761600 3.998500
17.800100 4.303400
17.838700 4.583700
17.877200 4.805800
17.915700 5.136100
17.954200 5.217100
17.992700 5.096600
18.031300 4.762900
18.069800 4.547300
18.108300 4.512500
18.146800 4.666700
18.185300 4.731700
18.223800 4.651600
18.262400 4.596400
18.300900 4.633500
18.339400 4.935700
18.377900 5.276200
18.416400 4.961700
18.455000 4.805000
18.493500 4.694800
18.532000 4.516300
18.570500 4.376300
18.609000 4.364000
18.647500 4.320200
18.686100 4.329600
18.724600 4.336600
18.763100 4.379300
18.801600 4.492600
18.840100 4.499500
18.878700 4.679500
18.917200 4.855400
18.955700 4.814800
18.994200 4.691800
19.032700 4.667100
19.071200 4.594400
19.109800 4.617000
19.148300 4.669600
19.186800 4.766900
19.225300 4.748800
19.263800 4.798200
19.302400 4.958000
19.340900 5.127300
19.379400 5.046100
19.417900 4.979400
19.456400 5.110500
19.494900 5.378400
19.533500 5.391700
19.572000 5.335300
19.610500 5.031300
19.649000 5.093700
19.687500 4.738500
19.726100 4.429900
19.764600 4.183400
19.803100 4.227300
19.841600 3.674300
19.880100 3.448700
19.918700 3.356700
19.957200 3.343700
19.995700 3.386600
20.034200 3.662500
20.072700 3.569000
20.111200 3.451500
20.149800 3.341400
20.188300 3.292600
20.226800 3.491800
20.265300 3.615000
20.303800 3.642000
20.342400 3.734800
20.380900 3.884700
20.419400 4.104700
20.457900 4.189600
20.496400 4.165600
20.534900 4.220000
20.573500 4.211000
20.612000 4.239200
20.650500 4.277100
20.689000 4.194800
20.727500 4.070400
20.766100 3.987100
20.804600 3.959800
20.843100 4.095600
20.881600 4.265200
20.920100 4.392700
20.958600 4.335400
20.997200 4.265700
21.035700 4.254900
21.074200 4.521100
21.112700 4.867900
21.151200 5.060700
21.189800 5.020800
21.228300 4.729700
21.266800 4.508300
21.305300 4.370200
21.343800 4.493400
21.382300 4.888900
21.420900 4.751300
21.459400 4.683600
21.497900 5.126400
21.536400 5.655800
21.574900 5.468900
21.613500 5.254800
21.652000 5.135800
21.690500 4.960000
21.729000 4.780600
21.767500 5.035000
21.806100 4.776200
21.844600 4.906600
21.883100 4.879500
21.921600 4.649100
21.960100 4.477500
21.998600 4.497400
22.037200 4.465900
22.075700 4.227800
22.114200 4.226700
22.152700 4.140000
22.191200 4.093600
22.229800 4.034900
22.268300 3.959100
22.306800 3.685900
22.345300 3.592900
22.383800 3.661700
22.422300 4.340100
22.460900 4.624800
22.499400 5.069500
22.537900 4.206300
22.576400 3.836800
22.614900 3.763300
22.653500 3.664900
22.692000 3.552300
22.730500 3.487800
22.769000 3.382300
22.807500 3.350200
22.846000 3.327200
22.884600 3.507300
22.923100 3.640200
22.961600 3.510500
23.000100 3.417200
23.038600 3.552400
23.077200 3.689400
23.115700 3.682200
23.154200 3.634700
23.192700 3.582200
23.231200 3.485300
23.269700 3.392000
23.308300 3.381900
23.346800 3.427600
23.385300 3.701800
23.423800 3.875000
23.462300 3.880900
23.500900 3.731500
23.539400 3.695300
23.577900 3.641300
23.616400 3.548700
23.654900 3.552900
23.693500 3.644000
23.732000 3.739500
23.770500 3.892700
23.809000 4.083000
23.847500 4.355000
23.886000 4.359800
23.924600 4.369600
23.963100 4.654500
24.001600 4.751100
24.040100 4.808900
24.078600 4.736800
24.117200 4.715900
24.155700 4.645400
24.194200 4.529900
24.232700 4.312200
24.271200 4.625700
24.309700 4.533300
24.348300 4.805300
24.386800 4.961100
24.425300 4.685500
24.463800 4.387800
24.502300 4.463400
24.540900 4.529400
24.579400 4.740300
24.617900 5.075000
24.656400 4.519300
24.694900 4.583100
24.733400 4.695700
24.772000 4.899600
24.810500 4.997700
24.849000 5.376000
24.887500 5.060000
24.926000 5.005100
24.964600 4.927900
25.003100 4.796900
25.041600 4.760000
25.080100 4.776400
25.118600 5.072300
25.157200 5.115200
25.195700 5.262600
25.234200 5.483300
25.272700 5.658500
25.311200 5.486400
25.349700 4.965800
25.388300 4.964300
25.426800 5.119300
25.465300 5.291500
25.503800 5.404500
25.542300 5.312000
25.580900 5.285000
25.619400 5.140400
25.657900 4.867200
25.696400 5.012700
25.734900 5.625200
25.773400 5.250800
25.812000 4.590500
25.850500 4.562600
25.889000 4.602300
25.927500 4.453000
25.966000 4.325400
26.004600 4.271200
26.043100 4.258100
26.081600 5.076200
26.120100 4.855800
26.158600 4.806200
26.197100 4.634500
26.235700 4.531300
26.274200 4.436700
26.312700 4.428100
26.351200 4.457100
26.389700 4.791200
26.428300 5.165100
26.466800 4.940600
26.505300 4.821400
26.543800 4.777700
26.582300 4.763000
26.620800 4.851600
26.659400 5.032000
26.697900 5.126200
26.736400 5.000700
26.774900 4.891200
26.813400 4.937000
26.852000 5.132700
26.890500 5.186000
26.929000 5.044500
26.967500 4.859600
27.006000 4.709000
27.044600 4.695900
27.083100 4.691600
27.121600 4.728900
27.160100 4.758600
27.198600 4.829300
27.237100 4.886200
27.275700 4.806700
27.314200 4.657000
27.352700 4.744900
27.391200 4.697600
27.429700 4.594200
27.468300 4.839700
27.506800 5.180100
27.545300 5.127900
27.583800 5.152000
27.622300 5.615100
27.660800 5.140500
27.699400 5.275200
27.737900 5.323900
27.776400 5.368400
27.814900 5.379800
27.853400 5.430500
27.892000 5.592900
27.930500 5.572900
27.969000 5.410500
28.007500 5.396600
28.046000 5.351900
28.084500 5.197700
28.123100 5.271100
28.161600 5.388100
28.200100 5.473900
28.238600 5.371600
28.277100 5.204500
28.315700 5.175200
28.354200 5.279400
28.392700 5.279300
28.431200 5.283300
28.469700 5.312600
28.508200 5.733700
28.546800 5.555300
28.585300 5.354000
28.623800 5.288100
28.662300 5.253100
28.700800 5.657700
28.739400 5.182400
28.777900 5.061700
28.816400 5.138200
28.854900 5.055000
28.893400 4.932000
28.932000 4.880600
28.970500 4.845900
29.009000 4.900200
29.047500 5.017300
29.086000 5.018000
29.124500 5.097800
29.163100 5.171900
29.201600 5.096500
29.240100 5.146900
29.278600 5.174300
29.317100 5.212500
29.355700 5.219100
29.394200 5.311600
29.432700 5.266000
29.471200 5.297800
29.509700 5.336200
29.548200 5.364700
29.586800 5.404600
29.625300 5.404300
29.663800 5.240900
29.702300 5.405500
29.740800 5.554300
29.779400 5.694500
29.817900 5.820000
29.856400 6.824900
29.894900 5.066800
29.933400 4.999100
29.971900 4.945600
30.010500 5.035300
30.049000 5.084400
30.087500 5.319100
30.126000 5.346300
30.164500 5.393900
30.203100 5.277900
30.241600 5.243800
30.280100 5.583100
30.318600 5.425700
30.357100 5.092700
30.395700 4.971100
30.434200 5.269700
30.472700 5.223600
30.511200 5.319800
30.549700 5.375900
30.588200 5.396700
30.626800 5.328200
30.665300 5.413400
30.703800 5.549300
30.742300 5.469100
30.780800 4.920300
30.819400 4.824000
30.857900 4.765800
30.896400 4.793000
30.934900 4.839400
30.973400 4.869900
31.011900 4.976100
31.050500 5.332600
31.089000 5.341000
31.127500 5.251600
31.166000 5.216200
31.204500 4.799000
31.243100 4.709300
31.281600 4.694900
31.320100 4.605400
31.358600 4.565900
31.397100 4.759600
31.435600 5.059700
31.474200 5.109100
31.512700 5.076100
31.551200 5.163600
31.589700 5.241600
31.628200 5.323400
31.666800 6.052400
31.705300 5.761800
31.743800 5.700300
31.782300 5.665700
31.820800 5.787200
31.859300 5.436300
31.897900 5.379300
31.936400 5.111000
31.974900 4.685100
32.013400 4.599300
32.051900 4.575600
32.090500 4.590600
32.129000 4.761600
32.167500 5.013100
32.206000 5.540000
32.244500 5.945300
32.283100 6.218300
32.321600 6.337800
32.360100 6.181600
32.398600 5.746200
32.437100 5.630500
32.475600 5.769700
32.514200 5.677000
32.552700 5.423400
32.591200 4.382800
32.629700 5.354800
32.668200 5.444100
32.706800 5.487800
32.745300 5.493300
32.783800 5.516800
32.822300 5.699000
32.860800 6.018800
32.899300 6.124200
32.937900 5.928900
32.976400 5.692200
33.014900 5.507900
33.053400 5.409500
33.091900 5.556800
33.130500 6.173600
33.169000 6.268800
33.207500 6.026600
33.246000 5.129400
33.284500 5.270300
33.323000 5.361300
33.361600 5.475300
33.400100 5.469800
33.438600 5.470100
33.477100 5.475400
33.515600 6.020600
33.554200 5.495900
33.592700 5.722500
33.631200 6.019400
33.669700 6.587800
33.708200 7.501900
33.746700 8.234000
33.785300 9.567200
33.823800 12.220700
33.862300 18.367300
33.900800 128.374000
33.939300 31.810000
33.977900 17.319800
34.016400 12.318600
34.054900 9.974100
34.093400 9.221800
34.131900 8.254700
34.170500 7.426600
34.209000 6.571500
34.247500 5.989100
34.286000 5.787900
34.324500 5.630800
34.363000 5.574400
34.401600 5.638200
34.440100 5.808100
34.478600 5.825500
34.517100 5.581400
34.555600 4.889100
34.594200 3.993500
34.632700 3.466700
34.671200 3.209100
34.709700 3.149000
34.748200 3.146600
34.786700 3.155700
34.825300 3.195400
34.863800 3.180100
34.902300 3.112000
34.940800 2.744600
34.979300 2.719900
35.017900 2.701500
35.056400 2.488500
35.094900 2.411300
35.133400 2.256800
35.171900 2.112900
35.210400 1.976700
35.249000 1.874900
35.287500 1.903700
35.326000 1.752300
35.364500 1.444700
35.403000 1.170300
35.441600 1.089500
35.480100 0.917700
35.518600 0.905200
35.557100 0.858900
35.595600 0.804800
35.634100 0.755800
35.672700 0.715100
35.711200 0.684400
35.749700 0.649100
35.788200 0.569800
35.826700 0.479600
35.865300 0.420300
35.903800 0.328300
35.942300 0.162300
35.980800 0.069600
36.019300 0.023500
36.057900 0.007500
36.096400 0.003400
36.134900 0.000900
36.173400 0.000000
36.211900 0.000000
36.250400 0.000000
36.289000 0.000000
36.327500 0.000000
36.366000 0.000000
36.404500 0.000000
36.443000 0.000000
36.481600 0.000000
36.520100 0.000000
36.558600 0.000000
36.597100 0.000000
36.635600 0.000000
36.674100 0.000000
36.712700 0.000000
36.751200 0.000000
36.789700 0.000000
36.828200 0.000000
36.866700 0.000000
36.905300 0.000000
36.943800 0.000000
36.982300 0.000000
37.020800 0.000000
37.059300 0.000000
37.097800 0.000000
37.136400 0.000000
37.174900 0.000000
37.213400 0.000000
37.251900 0.000000
37.290400 0.000000
37.329000 0.000000
37.367500 0.000000
37.406000 0.000000
37.444500 0.000000
37.483000 0.000000
37.521600 0.000000
37.560100 0.000000
37.598600 0.000000
37.637100 0.000000
37.675600 0.000000
37.714100 0.000000
37.752700 0.000000
37.791200 0.000000
37.829700 0.000000
37.868200 0.000000
37.906700 0.000000
37.945300 0.000000
37.983800 0.000000
38.022300 0.000000
38.060800 0.000000
38.099300 0.000000
38.137800 0.000000
38.176400 0.000000
38.214900 0.000000
38.253400 0.000000
38.291900 0.000000
38.330400 0.000000
38.369000 0.000000
38.407500 0.000000
38.446000 0.000000
38.484500 0.000000
38.523000 0.000000
38.561500 0.000000
38.600100 0.000000
38.638600 0.000000
38.677100 0.000000
38.715600 0.000000
38.754100 0.000000
38.792700 0.000000
38.831200 0.000000
38.869700 0.000000
38.908200 0.000000
38.946700 0.000000
38.985200 0.000000
39.023800 0.000000
39.062300 0.000000
39.100800 0.000000
39.139300 0.000000
39.177800 0.000000
39.216400 0.000000
39.254900 0.000000
39.293400 0.000000
39.331900 0.000000
39.370400 0.000000
39.409000 0.000000
39.447500 0.000000
39.486000 0.000000
39.524500 0.000000
39.563000 0.000000
39.601500 0.000000
39.640100 0.000000
39.678600 0.000000
e
