set title 'mp-1226026 - Density of States'
set xlabel 'Energy (eV)'
set ylabel 'DOS (states/eV)'
set grid
set xrange [-10:10]
set yrange [0:4.019]
set xzeroaxis lt -1
set terminal png size 800,600
set output 'mp-1226026_dos_gnuplot.png'
plot '-' using 1:2 with lines title 'DOS'
-46.694400 0.000000
-46.632400 0.000000
-46.570300 0.000000
-46.508300 0.000000
-46.446200 0.000000
-46.384100 0.000000
-46.322100 0.000000
-46.260000 0.000000
-46.198000 0.000000
-46.135900 0.000000
-46.073900 0.000000
-46.011800 0.000000
-45.949700 0.000000
-45.887700 0.000000
-45.825600 0.000000
-45.763600 0.000000
-45.701500 0.000000
-45.639500 0.000000
-45.577400 0.000000
-45.515400 0.000000
-45.453300 0.000000
-45.391200 0.000000
-45.329200 0.000000
-45.267100 0.000000
-45.205100 0.000000
-45.143000 0.000000
-45.081000 0.000000
-45.018900 0.000000
-44.956900 0.000000
-44.894800 0.000000
-44.832700 0.000000
-44.770700 0.000000
-44.708600 0.000000
-44.646600 0.000000
-44.584500 0.000000
-44.522500 0.000000
-44.460400 0.000000
-44.398300 0.000000
-44.336300 0.000000
-44.274200 0.000000
-44.212200 0.000000
-44.150100 0.000000
-44.088100 0.000000
-44.026000 0.000000
-43.964000 0.000000
-43.901900 0.000000
-43.839800 0.000000
-43.777800 0.000000
-43.715700 0.000000
-43.653700 0.000000
-43.591600 0.000000
-43.529600 0.000000
-43.467500 0.000000
-43.405500 0.000000
-43.343400 0.000000
-43.281300 0.000000
-43.219300 0.000000
-43.157200 0.000000
-43.095200 0.000000
-43.033100 0.000000
-42.971100 0.000000
-42.909000 0.000000
-42.846900 0.000000
-42.784900 0.000000
-42.722800 0.000000
-42.660800 0.000000
-42.598700 0.000000
-42.536700 0.000000
-42.474600 0.000000
-42.412600 0.000000
-42.350500 0.000000
-42.288400 0.000000
-42.226400 0.000000
-42.164300 0.000000
-42.102300 0.000000
-42.040200 0.000000
-41.978200 0.000000
-41.916100 0.000000
-41.854100 0.000000
-41.792000 0.000000
-41.729900 0.000000
-41.667900 0.000000
-41.605800 0.000000
-41.543800 0.000000
-41.481700 0.000000
-41.419700 0.000000
-41.357600 0.000000
-41.295500 0.000000
-41.233500 0.000000
-41.171400 0.000000
-41.109400 0.000000
-41.047300 1.477100
-40.985300 3.469300
-40.923200 3.936600
-40.861200 1.614300
-40.799100 1.886900
-40.737000 2.220700
-40.675000 3.172200
-40.612900 11.815600
-40.550900 21.061000
-40.488800 3.659100
-40.426800 1.919900
-40.364700 0.000000
-40.302700 0.000000
-40.240600 0.000000
-40.178500 0.000000
-40.116500 0.000000
-40.054400 0.000000
-39.992400 0.000000
-39.930300 0.000000
-39.868300 0.000000
-39.806200 0.000000
-39.744100 0.000000
-39.682100 0.000000
-39.620000 0.000000
-39.558000 0.000000
-39.495900 0.000000
-39.433900 0.000000
-39.371800 0.000000
-39.309800 0.000000
-39.247700 0.000000
-39.185600 0.000000
-39.123600 0.000000
-39.061500 0.000000
-38.999500 0.000000
-38.937400 0.000000
-38.875400 0.000000
-38.813300 0.000000
-38.751300 0.000000
-38.689200 0.000000
-38.627100 0.000000
-38.565100 0.000000
-38.503000 0.000000
-38.441000 0.000000
-38.378900 0.000000
-38.316900 0.000000
-38.254800 0.000000
-38.192700 0.000000
-38.130700 0.000000
-38.068600 0.000000
-38.006600 0.000000
-37.944500 0.000000
-37.882500 0.000000
-37.820400 0.000000
-37.758400 0.000000
-37.696300 0.000000
-37.634200 0.000000
-37.572200 0.000000
-37.510100 0.000000
-37.448100 0.000000
-37.386000 0.000000
-37.324000 0.000000
-37.261900 0.000000
-37.199900 0.000000
-37.137800 0.000000
-37.075700 0.000000
-37.013700 0.000000
-36.951600 0.000000
-36.889600 0.000000
-36.827500 0.000000
-36.765500 0.000000
-36.703400 0.000000
-36.641300 0.000000
-36.579300 0.000000
-36.517200 0.000000
-36.455200 0.000000
-36.393100 0.000000
-36.331100 0.000000
-36.269000 0.000000
-36.207000 0.000000
-36.144900 0.000000
-36.082800 0.000000
-36.020800 0.000000
-35.958700 0.000000
-35.896700 0.000000
-35.834600 0.000000
-35.772600 0.000000
-35.710500 0.000000
-35.648500 0.000000
-35.586400 0.000000
-35.524300 0.000000
-35.462300 0.000000
-35.400200 0.000000
-35.338200 0.000000
-35.276100 0.000000
-35.214100 0.000000
-35.152000 0.000000
-35.089900 0.000000
-35.027900 0.000000
-34.965800 0.000000
-34.903800 0.000000
-34.841700 0.000000
-34.779700 0.000000
-34.717600 0.000000
-34.655600 0.000000
-34.593500 0.000000
-34.531400 0.000000
-34.469400 0.000000
-34.407300 0.000000
-34.345300 0.000000
-34.283200 0.000000
-34.221200 0.000000
-34.159100 0.000000
-34.097100 0.000000
-34.035000 0.000000
-33.972900 0.000000
-33.910900 0.000000
-33.848800 0.000000
-33.786800 0.000000
-33.724700 0.000000
-33.662700 0.000000
-33.600600 0.000000
-33.538500 0.000000
-33.476500 0.000000
-33.414400 0.000000
-33.352400 0.000000
-33.290300 0.000000
-33.228300 0.000000
-33.166200 0.000000
-33.104200 0.000000
-33.042100 0.000000
-32.980000 0.000000
-32.918000 0.000000
-32.855900 0.000000
-32.793900 0.000000
-32.731800 0.000000
-32.669800 0.000000
-32.607700 0.000000
-32.545700 0.000000
-32.483600 0.000000
-32.421500 0.000000
-32.359500 0.000000
-32.297400 0.000000
-32.235400 0.000000
-32.173300 0.000000
-32.111300 0.000000
-32.049200 0.000000
-31.987100 0.000000
-31.925100 0.000000
-31.863000 0.000000
-31.801000 0.000000
-31.738900 0.000000
-31.676900 0.000000
-31.614800 0.000000
-31.552800 0.000000
-31.490700 0.000000
-31.428600 0.000000
-31.366600 0.000000
-31.304500 0.000000
-31.242500 0.000000
-31.180400 0.000000
-31.118400 0.000000
-31.056300 0.000000
-30.994300 0.000000
-30.932200 0.000000
-30.870100 0.000000
-30.808100 0.000000
-30.746000 0.000000
-30.684000 0.000000
-30.621900 0.000000
-30.559900 0.000000
-30.497800 0.000000
-30.435700 0.000000
-30.373700 0.000000
-30.311600 0.000000
-30.249600 0.000000
-30.187500 0.000000
-30.125500 0.000000
-30.063400 0.000000
-30.001400 0.000000
-29.939300 0.000000
-29.877200 0.000000
-29.815200 0.000000
-29.753100 0.000000
-29.691100 0.000000
-29.629000 0.000000
-29.567000 0.000000
-29.504900 0.000000
-29.442900 0.000000
-29.380800 0.000000
-29.318700 0.000000
-29.256700 0.000000
-29.194600 0.000000
-29.132600 0.000000
-29.070500 0.000000
-29.008500 0.000000
-28.946400 0.000000
-28.884300 0.000000
-28.822300 0.000000
-28.760200 0.000000
-28.698200 0.000000
-28.636100 0.000000
-28.574100 0.000000
-28.512000 0.000000
-28.450000 0.000000
-28.387900 0.000000
-28.325800 0.000000
-28.263800 0.000000
-28.201700 0.000000
-28.139700 0.000000
-28.077600 0.000000
-28.015600 0.000000
-27.953500 0.000000
-27.891500 0.000000
-27.829400 0.000000
-27.767300 0.000000
-27.705300 0.000000
-27.643200 0.000000
-27.581200 0.000000
-27.519100 0.000000
-27.457100 0.000000
-27.395000 0.000000
-27.332900 0.000000
-27.270900 0.000000
-27.208800 0.000000
-27.146800 0.000000
-27.084700 0.000000
-27.022700 0.000000
-26.960600 0.000000
-26.898600 0.000000
-26.836500 0.000000
-26.774400 0.000000
-26.712400 0.000000
-26.650300 0.000000
-26.588300 0.000000
-26.526200 0.000000
-26.464200 0.000000
-26.402100 0.000000
-26.340100 0.000000
-26.278000 0.000000
-26.215900 0.000000
-26.153900 0.000000
-26.091800 0.000000
-26.029800 0.000000
-25.967700 0.000000
-25.905700 0.000000
-25.843600 0.000000
-25.781500 0.000000
-25.719500 0.000000
-25.657400 0.000000
-25.595400 0.000000
-25.533300 0.000000
-25.471300 0.000000
-25.409200 0.000000
-25.347200 0.000000
-25.285100 0.000000
-25.223000 0.000000
-25.161000 0.000000
-25.098900 0.000000
-25.036900 0.000000
-24.974800 0.000000
-24.912800 0.000000
-24.850700 0.000000
-24.788700 0.000000
-24.726600 0.000000
-24.664500 0.000000
-24.602500 0.000000
-24.540400 0.000000
-24.478400 0.000000
-24.416300 0.000000
-24.354300 0.000000
-24.292200 0.000000
-24.230100 0.000000
-24.168100 0.000000
-24.106000 0.000000
-24.044000 0.000000
-23.981900 0.000000
-23.919900 0.000000
-23.857800 0.000000
-23.795800 0.000000
-23.733700 0.000000
-23.671600 0.000000
-23.609600 0.000000
-23.547500 0.000000
-23.485500 0.000000
-23.423400 0.000000
-23.361400 0.000000
-23.299300 0.000000
-23.237300 0.000000
-23.175200 0.000000
-23.113100 0.000000
-23.051100 0.000000
-22.989000 0.000000
-22.927000 0.000000
-22.864900 0.000000
-22.802900 0.000000
-22.740800 0.000000
-22.678700 0.000000
-22.616700 0.000000
-22.554600 0.000000
-22.492600 0.000000
-22.430500 0.000000
-22.368500 0.000000
-22.306400 0.000000
-22.244400 0.000000
-22.182300 0.000000
-22.120200 0.000000
-22.058200 0.000000
-21.996100 0.000000
-21.934100 0.000000
-21.872000 0.000000
-21.810000 0.000000
-21.747900 0.000000
-21.685900 0.000000
-21.623800 0.000000
-21.561700 0.000000
-21.499700 0.000000
-21.437600 0.000000
-21.375600 0.000000
-21.313500 0.000000
-21.251500 0.000000
-21.189400 0.000000
-21.127300 0.000000
-21.065300 0.000000
-21.003200 0.000000
-20.941200 0.000000
-20.879100 0.000000
-20.817100 0.000000
-20.755000 0.000000
-20.693000 0.000000
-20.630900 0.000000
-20.568800 0.000000
-20.506800 0.000000
-20.444700 0.000000
-20.382700 0.000000
-20.320600 0.000000
-20.258600 0.000000
-20.196500 0.000000
-20.134500 0.000000
-20.072400 0.000000
-20.010300 0.000000
-19.948300 0.000000
-19.886200 0.000000
-19.824200 0.000000
-19.762100 0.000000
-19.700100 0.000000
-19.638000 0.000000
-19.575900 0.000000
-19.513900 0.000000
-19.451800 0.000000
-19.389800 0.000000
-19.327700 0.000000
-19.265700 0.000000
-19.203600 0.000000
-19.141600 0.000000
-19.079500 0.000000
-19.017400 0.000000
-18.955400 0.000000
-18.893300 0.000000
-18.831300 0.000000
-18.769200 0.000000
-18.707200 0.000000
-18.645100 0.000000
-18.583100 0.000000
-18.521000 0.000000
-18.458900 0.000000
-18.396900 0.000000
-18.334800 0.000000
-18.272800 0.000000
-18.210700 0.000000
-18.148700 0.000000
-18.086600 0.000000
-18.024500 0.000000
-17.962500 0.000000
-17.900400 0.000000
-17.838400 0.000000
-17.776300 0.000000
-17.714300 0.000000
-17.652200 0.000000
-17.590200 0.000000
-17.528100 0.000000
-17.466000 0.000000
-17.404000 0.000000
-17.341900 0.000000
-17.279900 0.000000
-17.217800 0.000000
-17.155800 0.000000
-17.093700 0.000000
-17.031700 0.000000
-16.969600 0.000000
-16.907500 0.000000
-16.845500 0.000000
-16.783400 0.000000
-16.721400 0.000000
-16.659300 0.000000
-16.597300 0.000000
-16.535200 0.000000
-16.473100 0.000000
-16.411100 0.000000
-16.349000 0.000000
-16.287000 0.000000
-16.224900 0.000000
-16.162900 0.000000
-16.100800 0.000000
-16.038800 0.000000
-15.976700 0.000000
-15.914600 0.000000
-15.852600 0.000000
-15.790500 0.000000
-15.728500 0.000000
-15.666400 0.000000
-15.604400 0.000000
-15.542300 0.000000
-15.480300 0.000000
-15.418200 0.000000
-15.356100 0.000000
-15.294100 0.000000
-15.232000 0.000000
-15.170000 0.000000
-15.107900 0.000000
-15.045900 0.000000
-14.983800 0.000000
-14.921800 0.000000
-14.859700 0.000000
-14.797600 0.000000
-14.735600 0.000000
-14.673500 0.000000
-14.611500 0.000000
-14.549400 0.000000
-14.487400 0.000000
-14.425300 0.000000
-14.363200 0.000000
-14.301200 0.000000
-14.239100 0.000000
-14.177100 0.000000
-14.115000 0.000000
-14.053000 0.000000
-13.990900 0.000000
-13.928900 0.000000
-13.866800 0.000000
-13.804700 0.000000
-13.742700 0.000000
-13.680600 0.000000
-13.618600 0.000000
-13.556500 0.000000
-13.494500 0.000000
-13.432400 0.000000
-13.370400 0.000000
-13.308300 0.000000
-13.246200 0.000000
-13.184200 0.000000
-13.122100 0.000000
-13.060100 0.000000
-12.998000 0.000000
-12.936000 0.000000
-12.873900 0.000000
-12.811800 0.000000
-12.749800 0.000000
-12.687700 0.000000
-12.625700 0.000000
-12.563600 0.000000
-12.501600 0.000000
-12.439500 0.000000
-12.377500 0.000000
-12.315400 0.000000
-12.253300 0.000000
-12.191300 0.000000
-12.129200 0.000000
-12.067200 0.000000
-12.005100 0.000000
-11.943100 0.000000
-11.881000 0.000000
-11.819000 0.000000
-11.756900 0.000000
-11.694800 0.000000
-11.632800 0.000000
-11.570700 0.000000
-11.508700 0.000000
-11.446600 0.000000
-11.384600 0.000000
-11.322500 0.000000
-11.260400 0.000000
-11.198400 0.000000
-11.136300 0.000000
-11.074300 0.000000
-11.012200 0.000000
-10.950200 0.000000
-10.888100 0.000000
-10.826100 0.000000
-10.764000 0.000000
-10.701900 0.000000
-10.639900 0.000000
-10.577800 0.000000
-10.515800 0.000000
-10.453700 0.000000
-10.391700 0.000000
-10.329600 0.000000
-10.267600 0.000000
-10.205500 0.000000
-10.143400 0.000000
-10.081400 0.000000
-10.019300 0.000000
-9.957300 0.000000
-9.895200 0.000000
-9.833200 0.000000
-9.771100 0.000000
-9.709000 0.000000
-9.647000 0.000000
-9.584900 0.000000
-9.522900 0.000000
-9.460800 0.000000
-9.398800 0.000000
-9.336700 0.000000
-9.274700 0.000000
-9.212600 0.000000
-9.150500 0.000000
-9.088500 0.000000
-9.026400 0.000000
-8.964400 0.000000
-8.902300 0.000000
-8.840300 0.000000
-8.778200 0.000000
-8.716200 0.000000
-8.654100 0.000000
-8.592000 0.000000
-8.530000 0.000000
-8.467900 0.000000
-8.405900 0.000000
-8.343800 0.000000
-8.281800 0.000000
-8.219700 0.000000
-8.157600 0.000000
-8.095600 0.000000
-8.033500 0.000000
-7.971500 0.000000
-7.909400 0.000000
-7.847400 0.000000
-7.785300 0.000000
-7.723300 0.000000
-7.661200 0.000000
-7.599100 0.000000
-7.537100 0.000000
-7.475000 0.000000
-7.413000 0.000000
-7.350900 0.000000
-7.288900 0.000000
-7.226800 0.000000
-7.164800 0.000000
-7.102700 0.000000
-7.040600 0.000000
-6.978600 0.000000
-6.916500 0.000000
-6.854500 0.000000
-6.792400 0.000000
-6.730400 0.000000
-6.668300 0.000000
-6.606200 0.000000
-6.544200 0.000000
-6.482100 0.000000
-6.420100 0.000000
-6.358000 0.000000
-6.296000 0.000000
-6.233900 0.000000
-6.171900 0.000000
-6.109800 0.000000
-6.047700 0.000000
-5.985700 0.000000
-5.923600 0.000000
-5.861600 0.000000
-5.799500 0.000000
-5.737500 0.000000
-5.675400 0.000000
-5.613400 0.000000
-5.551300 0.000000
-5.489200 0.000000
-5.427200 0.000000
-5.365100 0.000000
-5.303100 0.000000
-5.241000 0.000000
-5.179000 0.000000
-5.116900 0.000000
-5.054800 0.000000
-4.992800 0.000000
-4.930700 0.000000
-4.868700 0.000000
-4.806600 0.000000
-4.744600 0.000000
-4.682500 0.000000
-4.620500 0.000000
-4.558400 0.000000
-4.496300 0.000000
-4.434300 0.000000
-4.372200 0.000000
-4.310200 0.000000
-4.248100 0.000000
-4.186100 0.000000
-4.124000 0.000000
-4.062000 0.000000
-3.999900 0.000000
-3.937800 0.000000
-3.875800 0.000000
-3.813700 0.000000
-3.751700 0.000000
-3.689600 0.000000
-3.627600 0.000000
-3.565500 0.000000
-3.503400 0.000000
-3.441400 0.000000
-3.379300 0.000000
-3.317300 0.000000
-3.255200 0.000000
-3.193200 0.000000
-3.131100 0.000000
-3.069100 0.000000
-3.007000 0.000000
-2.944900 0.000000
-2.882900 0.000000
-2.820800 0.000000
-2.758800 0.000000
-2.696700 0.000000
-2.634700 0.000000
-2.572600 0.000000
-2.510600 0.000000
-2.448500 0.000000
-2.386400 0.000000
-2.324400 0.000000
-2.262300 0.000000
-2.200300 0.000000
-2.138200 0.003800
-2.076200 0.017600
-2.014100 0.024800
-1.952000 0.029800
-1.890000 0.034800
-1.827900 0.040100
-1.765900 0.045500
-1.703800 0.049200
-1.641800 0.052000
-1.579700 0.055600
-1.517700 0.059400
-1.455600 0.063500
-1.393500 0.067400
-1.331500 0.071400
-1.269400 0.074900
-1.207400 0.078400
-1.145300 0.082000
-1.083300 0.085600
-1.021200 0.089500
-0.959200 0.093600
-0.897100 0.097900
-0.835000 0.102400
-0.773000 0.107000
-0.710900 0.111800
-0.648900 0.116600
-0.586800 0.121900
-0.524800 0.127600
-0.462700 0.133800
-0.400600 0.141400
-0.338600 0.150800
-0.276500 0.158200
-0.214500 0.163500
-0.152400 0.171000
-0.090400 0.179200
-0.028300 0.188000
0.033700 0.257500
0.095800 0.399200
0.157900 0.520300
0.219900 0.653900
0.282000 0.751400
0.344000 0.894900
0.406100 1.108100
0.468100 1.268600
0.530200 1.369200
0.592200 1.508500
0.654300 1.403600
0.716400 1.492700
0.778400 1.239200
0.840500 1.205100
0.902500 1.213000
0.964600 1.204400
1.026600 1.230700
1.088700 1.219600
1.150800 1.208300
1.212800 1.280500
1.274900 1.635500
1.336900 1.826400
1.399000 1.792200
1.461000 1.647700
1.523100 1.705600
1.585100 1.628400
1.647200 1.544200
1.709300 1.424200
1.771300 1.393800
1.833400 1.374500
1.895400 1.339900
1.957500 1.264600
2.019500 1.306700
2.081600 1.282600
2.143600 1.145700
2.205700 1.554100
2.267800 1.617000
2.329800 1.676500
2.391900 1.993900
2.453900 1.846900
2.516000 1.645300
2.578000 1.617600
2.640100 1.655900
2.702200 1.845700
2.764200 1.957700
2.826300 2.103600
2.888300 2.572300
2.950400 2.245000
3.012400 2.579800
3.074500 2.699100
3.136500 3.011600
3.198600 3.653900
3.260700 3.415400
3.322700 3.341200
3.384800 2.494600
3.446800 2.305500
3.508900 2.167800
3.570900 2.214100
3.633000 1.715900
3.695000 1.746000
3.757100 2.019200
3.819200 2.244200
3.881200 2.154900
3.943300 2.244100
4.005300 2.363700
4.067400 1.980700
4.129400 1.508500
4.191500 1.612000
4.253600 1.720100
4.315600 2.058000
4.377700 2.227200
4.439700 2.367200
4.501800 2.383500
4.563800 1.945700
4.625900 1.827200
4.687900 1.659900
4.750000 1.671600
4.812100 1.631700
4.874100 1.734900
4.936200 2.324200
4.998200 1.643400
5.060300 1.311500
5.122300 1.220500
5.184400 1.313700
5.246400 1.590300
5.308500 2.126200
5.370600 1.826200
5.432600 1.788200
5.494700 1.838800
5.556700 1.666000
5.618800 1.552800
5.680800 1.423000
5.742900 1.187100
5.805000 0.885100
5.867000 0.837400
5.929100 0.783900
5.991100 0.793600
6.053200 0.529200
6.115200 0.477200
6.177300 0.433600
6.239300 0.413600
6.301400 0.402500
6.363500 0.398200
6.425500 0.393600
6.487600 0.388000
6.549600 0.377700
6.611700 0.350300
6.673700 0.321600
6.735800 0.311200
6.797800 0.312500
6.859900 0.312400
6.922000 0.311500
6.984000 0.306700
7.046100 0.303000
7.108100 0.299200
7.170200 0.294600
7.232200 0.292800
7.294300 0.293100
7.356400 0.293900
7.418400 0.294000
7.480500 0.294700
7.542500 0.295800
7.604600 0.296600
7.666600 0.296600
7.728700 0.296200
7.790700 0.295400
7.852800 0.294600
7.914900 0.294300
7.976900 0.293900
8.039000 0.295800
8.101000 0.306800
8.163100 0.287300
8.225100 0.273100
8.287200 0.268800
8.349200 0.266200
8.411300 0.265600
8.473400 0.264100
8.535400 0.261300
8.597500 0.258500
8.659500 0.255800
8.721600 0.254300
8.783600 0.253400
8.845700 0.253700
8.907800 0.254300
8.969800 0.254600
9.031900 0.254100
9.093900 0.253400
9.156000 0.260300
9.218000 0.259200
9.280100 0.246700
9.342100 0.237200
9.404200 0.233100
9.466300 0.231800
9.528300 0.232400
9.590400 0.231900
9.652400 0.230600
9.714500 0.231100
9.776500 0.231200
9.838600 0.232800
9.900600 0.234000
9.962700 0.234800
10.024800 0.237100
10.086800 0.241100
10.148900 0.243200
10.210900 0.241700
10.273000 0.252000
10.335000 0.275700
10.397100 0.224900
10.459200 0.208900
10.521200 0.190400
10.583300 0.182300
10.645300 0.181100
10.707400 0.189300
10.769400 0.198500
10.831500 0.194900
10.893500 0.183700
10.955600 0.178700
11.017700 0.176100
11.079700 0.174800
11.141800 0.174100
11.203800 0.176100
11.265900 0.178000
11.327900 0.177600
11.390000 0.177300
11.452000 0.177200
11.514100 0.177400
11.576200 0.177800
11.638200 0.178300
11.700300 0.188200
11.762300 0.219600
11.824400 0.180500
11.886400 0.152600
11.948500 0.147500
12.010600 0.143500
12.072600 0.140400
12.134700 0.136500
12.196700 0.129000
12.258800 0.121700
12.320800 0.115300
12.382900 0.108200
12.444900 0.100200
12.507000 0.090300
12.569100 0.077700
12.631100 0.068300
12.693200 0.073300
12.755200 0.162600
12.817300 0.252900
12.879300 0.294100
12.941400 0.286300
13.003400 0.281200
13.065500 0.308900
13.127600 0.325100
13.189600 0.388000
13.251700 0.360700
13.313700 0.368800
13.375800 0.361500
13.437800 0.351000
13.499900 0.336700
13.562000 0.338400
13.624000 0.344300
13.686100 0.351000
13.748100 0.352300
13.810200 0.349400
13.872200 0.346300
13.934300 0.332500
13.996300 0.328200
14.058400 0.322600
14.120500 0.319400
14.182500 0.319400
14.244600 0.313700
14.306600 0.323800
14.368700 0.318200
14.430700 0.311200
14.492800 0.291100
14.554800 0.284200
14.616900 0.277400
14.679000 0.274800
14.741000 0.256100
14.803100 0.248900
14.865100 0.242400
14.927200 0.236600
14.989200 0.234500
15.051300 0.233600
15.113400 0.226400
15.175400 0.217400
15.237500 0.211400
15.299500 0.207400
15.361600 0.205100
15.423600 0.204200
15.485700 0.203200
15.547700 0.201500
15.609800 0.199900
15.671900 0.200000
15.733900 0.198000
15.796000 0.192700
15.858000 0.191100
15.920100 0.190200
15.982100 0.192400
16.044200 0.203400
16.106200 0.216400
16.168300 0.233100
16.230400 0.249500
16.292400 0.262400
16.354500 0.288500
16.416500 0.299900
16.478600 0.334300
16.540600 0.448900
16.602700 0.497400
16.664800 0.459300
16.726800 0.448100
16.788900 0.442000
16.850900 0.440900
16.913000 0.431900
16.975000 0.438000
17.037100 0.451800
17.099100 0.475100
17.161200 0.490300
17.223300 0.505700
17.285300 0.508100
17.347400 0.516200
17.409400 0.512400
17.471500 0.494200
17.533500 0.478900
17.595600 0.455700
17.657600 0.448100
17.719700 0.442800
17.781800 0.430600
17.843800 0.424500
17.905900 0.424900
17.967900 0.431600
18.030000 0.446100
18.092000 0.449300
18.154100 0.446300
18.216100 0.451000
18.278200 0.449300
18.340300 0.450400
18.402300 0.449200
18.464400 0.450300
18.526400 0.458000
18.588500 0.463600
18.650500 0.470100
18.712600 0.470600
18.774700 0.470900
18.836700 0.474300
18.898800 0.475000
18.960800 0.487500
19.022900 0.487300
19.084900 0.489600
19.147000 0.492400
19.209000 0.488200
19.271100 0.489800
19.333200 0.491900
19.395200 0.493000
19.457300 0.490400
19.519300 0.493000
19.581400 0.494700
19.643400 0.491100
19.705500 0.497100
19.767500 0.498500
19.829600 0.497500
19.891700 0.495300
19.953700 0.494100
20.015800 0.492900
20.077800 0.491300
20.139900 0.485400
20.201900 0.484300
20.264000 0.480800
20.326100 0.476000
20.388100 0.464400
20.450200 0.454900
20.512200 0.453000
20.574300 0.452000
20.636300 0.449000
20.698400 0.449400
20.760400 0.450000
20.822500 0.451500
20.884600 0.451200
20.946600 0.448700
21.008700 0.445100
21.070700 0.443300
21.132800 0.437300
21.194800 0.428300
21.256900 0.422800
21.318900 0.424200
21.381000 0.421500
21.443100 0.417700
21.505100 0.415800
21.567200 0.414300
21.629200 0.409700
21.691300 0.398800
21.753300 0.399400
21.815400 0.398400
21.877500 0.395100
21.939500 0.391200
22.001600 0.385300
22.063600 0.376900
22.125700 0.368900
22.187700 0.365000
22.249800 0.367100
22.311800 0.376800
22.373900 0.387400
22.436000 0.388300
22.498000 0.396600
22.560100 0.405700
22.622100 0.406100
22.684200 0.408200
22.746200 0.431000
22.808300 0.461800
22.870300 0.461200
22.932400 0.467100
22.994500 0.476900
23.056500 0.486100
23.118600 0.494400
23.180600 0.503200
23.242700 0.508300
23.304700 0.517000
23.366800 0.519300
23.428900 0.514900
23.490900 0.525800
23.553000 0.541600
23.615000 0.609000
23.677100 0.550100
23.739100 0.530000
23.801200 0.523100
23.863200 0.514700
23.925300 0.510600
23.987400 0.487700
24.049400 0.485900
24.111500 0.497300
24.173500 0.505600
24.235600 0.552700
24.297600 0.493900
24.359700 0.493400
24.421700 0.495300
24.483800 0.511400
24.545900 0.481800
24.607900 0.464100
24.670000 0.452900
24.732000 0.444100
24.794100 0.438800
24.856100 0.434600
24.918200 0.430000
24.980300 0.428300
25.042300 0.427300
25.104400 0.423800
25.166400 0.420700
25.228500 0.418500
25.290500 0.414800
25.352600 0.408600
25.414600 0.405000
25.476700 0.396700
25.538800 0.390200
25.600800 0.400000
25.662900 0.397800
25.724900 0.390800
25.787000 0.383200
25.849000 0.372200
25.911100 0.367400
25.973100 0.373800
26.035200 0.383700
26.097300 0.407400
26.159300 0.419600
26.221400 0.422300
26.283400 0.433600
26.345500 0.458500
26.407500 0.507200
26.469600 0.539100
26.531700 0.568500
26.593700 0.576400
26.655800 0.550800
26.717800 0.504800
26.779900 0.484500
26.841900 0.519500
26.904000 0.647100
26.966000 0.585900
27.028100 0.558200
27.090200 0.592500
27.152200 0.611000
27.214300 0.620500
27.276300 0.639400
27.338400 0.646600
27.400400 0.613600
27.462500 0.588200
27.524500 0.567900
27.586600 0.565100
27.648700 0.566300
27.710700 0.531900
27.772800 0.519700
27.834800 0.520600
27.896900 0.526700
27.958900 0.535800
28.021000 0.555500
28.083100 0.564300
28.145100 0.572100
28.207200 0.575500
28.269200 0.575200
28.331300 0.577500
28.393300 0.597400
28.455400 0.622100
28.517400 0.647300
28.579500 0.643700
28.641600 0.629700
28.703600 0.600500
28.765700 0.572100
28.827700 0.555400
28.889800 0.547500
28.951800 0.536900
29.013900 0.537800
29.075900 0.537300
29.138000 0.543700
29.200100 0.556500
29.262100 0.570000
29.324200 0.585300
29.386200 0.593300
29.448300 0.614100
29.510300 0.618200
29.572400 0.624100
29.634500 0.630700
29.696500 0.644900
29.758600 0.680600
29.820600 0.685000
29.882700 0.723400
29.944700 0.779800
30.006800 0.855300
30.068800 1.009700
30.130900 1.291500
30.193000 2.148000
30.255000 5.604700
30.317100 1.303000
30.379100 0.976100
30.441200 0.859900
30.503200 0.735000
30.565300 0.653400
30.627300 0.610200
30.689400 0.562800
30.751500 0.512100
30.813500 0.485200
30.875600 0.469400
30.937600 0.446500
30.999700 0.440800
31.061700 0.437200
31.123800 0.455800
31.185900 0.431800
31.247900 0.406500
31.310000 0.371100
31.372000 0.331400
31.434100 0.294800
31.496100 0.274900
31.558200 0.257200
31.620200 0.243400
31.682300 0.233200
31.744400 0.224200
31.806400 0.219100
31.868500 0.218700
31.930500 0.221900
31.992600 0.225200
32.054600 0.230000
32.116700 0.238500
32.178700 0.251400
32.240800 0.271800
32.302900 0.297400
32.364900 0.345500
32.427000 0.401300
32.489000 0.456200
32.551100 0.483900
32.613100 0.512800
32.675200 0.508900
32.737300 0.515800
32.799300 0.515700
32.861400 0.514300
32.923400 0.535100
32.985500 0.556000
33.047500 0.561500
33.109600 0.559200
33.171600 0.562300
33.233700 0.574300
33.295800 0.581600
33.357800 0.587400
33.419900 0.561700
33.481900 0.552900
33.544000 0.564400
33.606000 0.575000
33.668100 0.605900
33.730100 0.646100
33.792200 0.694000
33.854300 0.662500
33.916300 0.656500
33.978400 0.678200
34.040400 0.704500
34.102500 0.734600
34.164500 0.773600
34.226600 0.789800
34.288700 0.774900
34.350700 0.759100
34.412800 0.736600
34.474800 0.691300
34.536900 0.660400
34.598900 0.638100
34.661000 0.614100
34.723000 0.601000
34.785100 0.584100
34.847200 0.564700
34.909200 0.548600
34.971300 0.524600
35.033300 0.502400
35.095400 0.473200
35.157400 0.468400
35.219500 0.475100
35.281500 0.484900
35.343600 0.489300
35.405700 0.503300
35.467700 0.512600
35.529800 0.528200
35.591800 0.553200
35.653900 0.559400
35.715900 0.562500
35.778000 0.561700
35.840100 0.550700
35.902100 0.547600
35.964200 0.544500
36.026200 0.540700
36.088300 0.536200
36.150300 0.526200
36.212400 0.534300
36.274400 0.549000
36.336500 0.560300
36.398600 0.567800
36.460600 0.577200
36.522700 0.571100
36.584700 0.578600
36.646800 0.603700
36.708800 0.642500
36.770900 0.612700
36.832900 0.610500
36.895000 0.615500
36.957100 0.636700
37.019100 0.668600
37.081200 0.700000
37.143200 0.718400
37.205300 0.680400
37.267300 0.629500
37.329400 0.612500
37.391500 0.582500
37.453500 0.569500
37.515600 0.569600
37.577600 0.575300
37.639700 0.596300
37.701700 0.610500
37.763800 0.626200
37.825800 0.648700
37.887900 0.660400
37.950000 0.698200
38.012000 0.628200
38.074100 0.618800
38.136100 0.623500
38.198200 0.613600
38.260200 0.600500
38.322300 0.593700
38.384300 0.601400
38.446400 0.579500
38.508500 0.578500
38.570500 0.581700
38.632600 0.603000
38.694600 0.604200
38.756700 0.605500
38.818700 0.599100
38.880800 0.597400
38.942900 0.601600
39.004900 0.594800
39.067000 0.607400
39.129000 0.636000
39.191100 0.615000
39.253100 0.598200
39.315200 0.600200
39.377200 0.606500
39.439300 0.602200
39.501400 0.608100
39.563400 0.600900
39.625500 0.578100
39.687500 0.558700
39.749600 0.547500
39.811600 0.538400
39.873700 0.534000
39.935700 0.520900
39.997800 0.511500
40.059900 0.504100
40.121900 0.500800
40.184000 0.503000
40.246000 0.516300
40.308100 0.526200
40.370100 0.540500
40.432200 0.542100
40.494300 0.556600
40.556300 0.555300
40.618400 0.544500
40.680400 0.545500
40.742500 0.564800
40.804500 0.555100
40.866600 0.539600
40.928600 0.536500
40.990700 0.543900
41.052800 0.554600
41.114800 0.559600
41.176900 0.572700
41.238900 0.575700
41.301000 0.578500
41.363000 0.571500
41.425100 0.578900
41.487100 0.611400
41.549200 0.626700
41.611300 0.588100
41.673300 0.586700
41.735400 0.585800
41.797400 0.586100
41.859500 0.583800
41.921500 0.576200
41.983600 0.566800
42.045700 0.557400
42.107700 0.554600
42.169800 0.563500
42.231800 0.572200
42.293900 0.552800
42.355900 0.550300
42.418000 0.539700
42.480000 0.526000
42.542100 0.521800
42.604200 0.536500
42.666200 0.540300
42.728300 0.553700
42.790300 0.573600
42.852400 0.602000
42.914400 0.631200
42.976500 0.641900
43.038500 0.652600
43.100600 0.653900
43.162700 0.658300
43.224700 0.664000
43.286800 0.646300
43.348800 0.635100
43.410900 0.640600
43.472900 0.650400
43.535000 0.643400
43.597100 0.638200
43.659100 0.634900
43.721200 0.637700
43.783200 0.644400
43.845300 0.643100
43.907300 0.645200
43.969400 0.639200
44.031400 0.636100
44.093500 0.631100
44.155600 0.616700
44.217600 0.606900
44.279700 0.605400
44.341700 0.605200
44.403800 0.596100
44.465800 0.576100
44.527900 0.562900
44.589900 0.561900
44.652000 0.568600
44.714100 0.579300
44.776100 0.599800
44.838200 0.634900
44.900200 0.655700
44.962300 0.681700
45.024300 0.703000
45.086400 0.719100
45.148500 0.736400
45.210500 0.720200
45.272600 0.727000
45.334600 0.727000
45.396700 0.725400
45.458700 0.737300
45.520800 0.746300
45.582800 0.750200
45.644900 0.728700
45.707000 0.681800
45.769000 0.700000
45.831100 0.725900
45.893100 0.733900
45.955200 0.752300
46.017200 0.722600
46.079300 0.712400
46.141300 0.706100
46.203400 0.711500
46.265500 0.703800
46.327500 0.708400
46.389600 0.719100
46.451600 0.727900
46.513700 0.730700
46.575700 0.733600
46.637800 0.736000
46.699900 0.736400
46.761900 0.739000
46.824000 0.745100
46.886000 0.747700
46.948100 0.758200
47.010100 0.758700
47.072200 0.752600
47.134200 0.734400
47.196300 0.698100
47.258400 0.681400
47.320400 0.666100
47.382500 0.659400
47.444500 0.653900
47.506600 0.645800
47.568600 0.651700
47.630700 0.662800
47.692700 0.668400
47.754800 0.678800
47.816900 0.699500
47.878900 0.719500
47.941000 0.764900
48.003000 0.809100
48.065100 0.812400
48.127100 0.822100
48.189200 0.822300
48.251300 0.836100
48.313300 0.804500
48.375400 0.751000
48.437400 0.697000
48.499500 0.666900
48.561500 0.654600
48.623600 0.652600
48.685600 0.655400
48.747700 0.675500
48.809800 0.697300
48.871800 0.711200
48.933900 0.726400
48.995900 0.745700
49.058000 0.789100
49.120000 0.783400
49.182100 0.781200
49.244100 0.770400
49.306200 0.754500
49.368300 0.744800
49.430300 0.734700
49.492400 0.717600
49.554400 0.725500
49.616500 0.723100
49.678500 0.711700
49.740600 0.694600
49.802700 0.678000
49.864700 0.657600
49.926800 0.633000
49.988800 0.611700
50.050900 0.601100
50.112900 0.587900
50.175000 0.564100
50.237000 0.534600
50.299100 0.515900
50.361200 0.505200
50.423200 0.501200
50.485300 0.524700
50.547300 0.543300
50.609400 0.568600
50.671400 0.585300
50.733500 0.606100
50.795500 0.637600
50.857600 0.661100
50.919700 0.706600
50.981700 0.710100
51.043800 0.687200
51.105800 0.684200
51.167900 0.676800
51.229900 0.680800
51.292000 0.692400
51.354000 0.691600
51.416100 0.689800
51.478200 0.694800
51.540200 0.699000
51.602300 0.644400
51.664300 0.624800
51.726400 0.622400
51.788400 0.630500
51.850500 0.628900
51.912600 0.609200
51.974600 0.581800
52.036700 0.566600
52.098700 0.552800
52.160800 0.546700
52.222800 0.548200
52.284900 0.557800
52.346900 0.551000
52.409000 0.549500
52.471100 0.574800
52.533100 0.599300
52.595200 0.637400
52.657200 0.679700
52.719300 0.717800
52.781300 0.729600
52.843400 0.704900
52.905400 0.667500
52.967500 0.653200
53.029600 0.667400
53.091600 0.678700
53.153700 0.688200
53.215700 0.696600
53.277800 0.735100
53.339800 0.728300
53.401900 0.716900
53.464000 0.718600
53.526000 0.735600
53.588100 0.762300
53.650100 0.763400
53.712200 0.748300
53.774200 0.735600
53.836300 0.707500
53.898300 0.666300
53.960400 0.644500
54.022500 0.645900
54.084500 0.640700
54.146600 0.645400
54.208600 0.645800
54.270700 0.658600
54.332700 0.684000
54.394800 0.693200
54.456800 0.700100
54.518900 0.692900
54.581000 0.692700
54.643000 0.691400
54.705100 0.679600
54.767100 0.674200
54.829200 0.656300
54.891200 0.637600
54.953300 0.619700
55.015400 0.611600
55.077400 0.603800
55.139500 0.598100
55.201500 0.598300
55.263600 0.571400
55.325600 0.562700
55.387700 0.570400
55.449700 0.567400
55.511800 0.579500
55.573900 0.625000
55.635900 0.675500
55.698000 0.710300
55.760000 0.719700
55.822100 0.729300
55.884100 0.743800
55.946200 0.759200
56.008200 0.765400
56.070300 0.797900
56.132400 0.790500
56.194400 0.772700
56.256500 0.778300
56.318500 0.775800
56.380600 0.769400
56.442600 0.747100
56.504700 0.752500
56.566800 0.771700
56.628800 0.794800
56.690900 0.793500
56.752900 0.779700
56.815000 0.792000
56.877000 0.815500
56.939100 0.810500
57.001100 0.808400
57.063200 0.814900
57.125300 0.816200
57.187300 0.814500
57.249400 0.840500
57.311400 0.838600
57.373500 0.848200
57.435500 0.806000
57.497600 0.789700
57.559600 0.799000
57.621700 0.802800
57.683800 0.788400
57.745800 0.762500
57.807900 0.745500
57.869900 0.741900
57.932000 0.724000
57.994000 0.698500
58.056100 0.700600
58.118200 0.730800
58.180200 0.783300
58.242300 0.825500
58.304300 0.843200
58.366400 0.863900
58.428400 0.911900
58.490500 0.907100
58.552500 0.880100
58.614600 0.857200
58.676700 0.881600
58.738700 0.795300
58.800800 0.746700
58.862800 0.708200
58.924900 0.703000
58.986900 0.745000
59.049000 0.809300
59.111000 0.795500
59.173100 0.785600
59.235200 0.759700
59.297200 0.748500
59.359300 0.716700
59.421300 0.702300
59.483400 0.687800
59.545400 0.697300
59.607500 0.682800
59.669600 0.695200
59.731600 0.705200
59.793700 0.711400
59.855700 0.737200
59.917800 0.724000
59.979800 0.713800
60.041900 0.714900
60.103900 0.720300
60.166000 0.743500
60.228100 0.784700
60.290100 0.780800
60.352200 0.784700
60.414200 0.773100
60.476300 0.755400
60.538300 0.755200
60.600400 0.761100
60.662400 0.773000
60.724500 0.789900
60.786600 0.810200
60.848600 0.816700
60.910700 0.755000
60.972700 0.761100
61.034800 0.736300
61.096800 0.719400
61.158900 0.722900
61.221000 0.716300
61.283000 0.750200
61.345100 0.791200
61.407100 0.837500
61.469200 0.845700
61.531200 0.824700
61.593300 0.792000
61.655300 0.757700
61.717400 0.750800
61.779500 0.745600
61.841500 0.728600
61.903600 0.692400
61.965600 0.696600
62.027700 0.709000
62.089700 0.732800
62.151800 0.737000
62.213800 0.759000
62.275900 0.806100
62.338000 0.799400
62.400000 0.840800
62.462100 0.833600
62.524100 0.839400
62.586200 0.858000
62.648200 0.846600
62.710300 0.847300
62.772400 0.835500
62.834400 0.821200
62.896500 0.819200
62.958500 0.784400
63.020600 0.770800
63.082600 0.786600
63.144700 0.767200
63.206700 0.741200
63.268800 0.749000
63.330900 0.760100
63.392900 0.753000
63.455000 0.766600
63.517000 0.764200
63.579100 0.783000
63.641100 0.764200
63.703200 0.756400
63.765200 0.761900
63.827300 0.737300
63.889400 0.717100
63.951400 0.713600
64.013500 0.685200
64.075500 0.676900
64.137600 0.675700
64.199600 0.687200
64.261700 0.744300
64.323800 0.724900
64.385800 0.745600
64.447900 0.756000
64.509900 0.746400
64.572000 0.747800
64.634000 0.760700
64.696100 0.794200
64.758100 0.828900
64.820200 0.814900
64.882300 0.799300
64.944300 0.794300
65.006400 0.792300
65.068400 0.805800
65.130500 0.834900
65.192500 0.842300
65.254600 0.865600
65.316600 0.909700
65.378700 0.967800
65.440800 0.856600
65.502800 0.796400
65.564900 0.761700
65.626900 0.724600
65.689000 0.652800
65.751000 0.621400
65.813100 0.594800
65.875200 0.590400
65.937200 0.587200
65.999300 0.582100
66.061300 0.573800
66.123400 0.573300
66.185400 0.583400
66.247500 0.576800
66.309500 0.570900
66.371600 0.541300
66.433700 0.514900
66.495700 0.507900
66.557800 0.495500
66.619800 0.483600
66.681900 0.480400
66.743900 0.490300
66.806000 0.484100
66.868000 0.441700
66.930100 0.414300
66.992200 0.392100
67.054200 0.379600
67.116300 0.354200
67.178300 0.329900
67.240400 0.311600
67.302400 0.300300
67.364500 0.290600
67.426600 0.276600
67.488600 0.262100
67.550700 0.251400
67.612700 0.243900
67.674800 0.237500
67.736800 0.228700
67.798900 0.226700
67.860900 0.229500
67.923000 0.237600
67.985100 0.218900
68.047100 0.201600
68.109200 0.191500
68.171200 0.183300
68.233300 0.186400
68.295300 0.175700
68.357400 0.157600
68.419400 0.135800
68.481500 0.119500
68.543600 0.115500
68.605600 0.109300
68.667700 0.105200
68.729700 0.097000
68.791800 0.096400
68.853800 0.097100
68.915900 0.099000
68.978000 0.102300
69.040000 0.102900
69.102100 0.104300
69.164100 0.102600
69.226200 0.099600
69.288200 0.093300
69.350300 0.085800
69.412300 0.087400
69.474400 0.076000
69.536500 0.077300
69.598500 0.082900
69.660600 0.083300
69.722600 0.074300
69.784700 0.055400
69.846700 0.039000
69.908800 0.028900
69.970800 0.023600
70.032900 0.020200
70.095000 0.017100
70.157000 0.014200
70.219100 0.011600
70.281100 0.009300
70.343200 0.007100
70.405200 0.005300
70.467300 0.003700
70.529400 0.002600
70.591400 0.002100
70.653500 0.001700
70.715500 0.001500
70.777600 0.001200
70.839600 0.001000
70.901700 0.000800
70.963700 0.000600
71.025800 0.000400
71.087900 0.000300
71.149900 0.000200
71.212000 0.000100
71.274000 0.000000
71.336100 0.000000
71.398100 0.000000
71.460200 0.000000
71.522200 0.000000
71.584300 0.000000
71.646400 0.000000
71.708400 0.000000
71.770500 0.000000
71.832500 0.000000
71.894600 0.000000
71.956600 0.000000
72.018700 0.000000
72.080800 0.000000
72.142800 0.000000
72.204900 0.000000
72.266900 0.000000
72.329000 0.000000
72.391000 0.000000
72.453100 0.000000
72.515100 0.000000
72.577200 0.000000
72.639300 0.000000
72.701300 0.000000
72.763400 0.000000
72.825400 0.000000
72.887500 0.000000
72.949500 0.000000
73.011600 0.000000
73.073600 0.000000
73.135700 0.000000
73.197800 0.000000
73.259800 0.000000
73.321900 0.000000
73.383900 0.000000
73.446000 0.000000
73.508000 0.000000
73.570100 0.000000
73.632200 0.000000
73.694200 0.000000
73.756300 0.000000
73.818300 0.000000
73.880400 0.000000
73.942400 0.000000
74.004500 0.000000
74.066500 0.000000
74.128600 0.000000
74.190700 0.000000
74.252700 0.000000
74.314800 0.000000
74.376800 0.000000
74.438900 0.000000
74.500900 0.000000
74.563000 0.000000
74.625000 0.000000
74.687100 0.000000
74.749200 0.000000
74.811200 0.000000
74.873300 0.000000
74.935300 0.000000
74.997400 0.000000
75.059400 0.000000
75.121500 0.000000
75.183600 0.000000
75.245600 0.000000
75.307700 0.000000
75.369700 0.000000
75.431800 0.000000
75.493800 0.000000
75.555900 0.000000
75.617900 0.000000
75.680000 0.000000
75.742100 0.000000
75.804100 0.000000
75.866200 0.000000
75.928200 0.000000
75.990300 0.000000
76.052300 0.000000
76.114400 0.000000
76.176400 0.000000
76.238500 0.000000
76.300600 0.000000
76.362600 0.000000
76.424700 0.000000
76.486700 0.000000
76.548800 0.000000
76.610800 0.000000
76.672900 0.000000
76.735000 0.000000
76.797000 0.000000
76.859100 0.000000
76.921100 0.000000
76.983200 0.000000
77.045200 0.000000
77.107300 0.000000
77.169300 0.000000
77.231400 0.000000
77.293500 0.000000
77.355500 0.000000
77.417600 0.000000
e
