set title 'mp-1055908 - Density of States'
set xlabel 'Energy (eV)'
set ylabel 'DOS (states/eV)'
set grid
set xrange [-10:10]
set yrange [0:2.556]
set xzeroaxis lt -1
set terminal png size 800,600
set output 'mp-1055908_dos_gnuplot.png'
plot '-' using 1:2 with lines title 'DOS'
-47.232100 0.000000
-47.178200 0.000000
-47.124400 0.000000
-47.070500 0.000000
-47.016700 0.000000
-46.962800 0.000000
-46.908900 0.000000
-46.855100 0.000000
-46.801200 0.000000
-46.747400 0.000000
-46.693500 0.000000
-46.639700 0.000000
-46.585800 0.000000
-46.531900 0.000000
-46.478100 0.000000
-46.424200 0.000000
-46.370400 0.000000
-46.316500 0.000000
-46.262700 0.000000
-46.208800 0.000000
-46.155000 0.000000
-46.101100 0.000000
-46.047200 0.000000
-45.993400 0.000000
-45.939500 0.000000
-45.885700 0.000000
-45.831800 0.000000
-45.778000 0.000000
-45.724100 0.000000
-45.670200 0.000000
-45.616400 0.000000
-45.562500 0.000000
-45.508700 0.000000
-45.454800 0.000000
-45.401000 0.000000
-45.347100 0.000000
-45.293200 0.000000
-45.239400 0.000000
-45.185500 0.000000
-45.131700 0.000000
-45.077800 0.000000
-45.024000 0.000000
-44.970100 0.000000
-44.916200 0.000000
-44.862400 0.000000
-44.808500 0.000000
-44.754700 0.000000
-44.700800 0.000000
-44.647000 0.000000
-44.593100 0.000000
-44.539200 0.000000
-44.485400 0.000000
-44.431500 0.000000
-44.377700 0.000000
-44.323800 0.000000
-44.270000 0.000000
-44.216100 0.000000
-44.162200 0.000000
-44.108400 0.000000
-44.054500 0.000000
-44.000700 0.000000
-43.946800 0.000000
-43.893000 0.000000
-43.839100 0.000000
-43.785200 0.000000
-43.731400 0.000000
-43.677500 0.000000
-43.623700 0.000000
-43.569800 0.000000
-43.516000 0.000000
-43.462100 0.000000
-43.408300 0.000000
-43.354400 0.000000
-43.300500 0.000000
-43.246700 0.000000
-43.192800 0.000000
-43.139000 0.000000
-43.085100 0.000000
-43.031300 0.000000
-42.977400 0.000000
-42.923500 0.000000
-42.869700 0.000000
-42.815800 0.000000
-42.762000 0.000000
-42.708100 0.000000
-42.654300 0.000000
-42.600400 0.000000
-42.546500 0.000000
-42.492700 0.000000
-42.438800 0.000000
-42.385000 0.000000
-42.331100 0.515400
-42.277300 2.274800
-42.223400 4.657100
-42.169500 4.728600
-42.115700 2.700300
-42.061800 2.828800
-42.008000 3.175700
-41.954100 4.004400
-41.900300 4.888600
-41.846400 4.734200
-41.792500 4.278500
-41.738700 5.415200
-41.684800 7.110200
-41.631000 0.000000
-41.577100 0.000000
-41.523300 0.000000
-41.469400 0.000000
-41.415500 0.000000
-41.361700 0.000000
-41.307800 0.000000
-41.254000 0.000000
-41.200100 0.000000
-41.146300 0.000000
-41.092400 0.000000
-41.038600 0.000000
-40.984700 0.000000
-40.930800 0.000000
-40.877000 0.000000
-40.823100 0.000000
-40.769300 0.000000
-40.715400 0.000000
-40.661600 0.000000
-40.607700 0.000000
-40.553800 0.000000
-40.500000 0.000000
-40.446100 0.000000
-40.392300 0.000000
-40.338400 0.000000
-40.284600 0.000000
-40.230700 0.000000
-40.176800 0.000000
-40.123000 0.000000
-40.069100 0.000000
-40.015300 0.000000
-39.961400 0.000000
-39.907600 0.000000
-39.853700 0.000000
-39.799800 0.000000
-39.746000 0.000000
-39.692100 0.000000
-39.638300 0.000000
-39.584400 0.000000
-39.530600 0.000000
-39.476700 0.000000
-39.422800 0.000000
-39.369000 0.000000
-39.315100 0.000000
-39.261300 0.000000
-39.207400 0.000000
-39.153600 0.000000
-39.099700 0.000000
-39.045800 0.000000
-38.992000 0.000000
-38.938100 0.000000
-38.884300 0.000000
-38.830400 0.000000
-38.776600 0.000000
-38.722700 0.000000
-38.668900 0.000000
-38.615000 0.000000
-38.561100 0.000000
-38.507300 0.000000
-38.453400 0.000000
-38.399600 0.000000
-38.345700 0.000000
-38.291900 0.000000
-38.238000 0.000000
-38.184100 0.000000
-38.130300 0.000000
-38.076400 0.000000
-38.022600 0.000000
-37.968700 0.000000
-37.914900 0.000000
-37.861000 0.000000
-37.807100 0.000000
-37.753300 0.000000
-37.699400 0.000000
-37.645600 0.000000
-37.591700 0.000000
-37.537900 0.000000
-37.484000 0.000000
-37.430100 0.000000
-37.376300 0.000000
-37.322400 0.000000
-37.268600 0.000000
-37.214700 0.000000
-37.160900 0.000000
-37.107000 0.000000
-37.053100 0.000000
-36.999300 0.000000
-36.945400 0.000000
-36.891600 0.000000
-36.837700 0.000000
-36.783900 0.000000
-36.730000 0.000000
-36.676100 0.000000
-36.622300 0.000000
-36.568400 0.000000
-36.514600 0.000000
-36.460700 0.000000
-36.406900 0.000000
-36.353000 0.000000
-36.299100 0.000000
-36.245300 0.000000
-36.191400 0.000000
-36.137600 0.000000
-36.083700 0.000000
-36.029900 0.000000
-35.976000 0.000000
-35.922200 0.000000
-35.868300 0.000000
-35.814400 0.000000
-35.760600 0.000000
-35.706700 0.000000
-35.652900 0.000000
-35.599000 0.000000
-35.545200 0.000000
-35.491300 0.000000
-35.437400 0.000000
-35.383600 0.000000
-35.329700 0.000000
-35.275900 0.000000
-35.222000 0.000000
-35.168200 0.000000
-35.114300 0.000000
-35.060400 0.000000
-35.006600 0.000000
-34.952700 0.000000
-34.898900 0.000000
-34.845000 0.000000
-34.791200 0.000000
-34.737300 0.000000
-34.683400 0.000000
-34.629600 0.000000
-34.575700 0.000000
-34.521900 0.000000
-34.468000 0.000000
-34.414200 0.000000
-34.360300 0.000000
-34.306400 0.000000
-34.252600 0.000000
-34.198700 0.000000
-34.144900 0.000000
-34.091000 0.000000
-34.037200 0.000000
-33.983300 0.000000
-33.929400 0.000000
-33.875600 0.000000
-33.821700 0.000000
-33.767900 0.000000
-33.714000 0.000000
-33.660200 0.000000
-33.606300 0.000000
-33.552500 0.000000
-33.498600 0.000000
-33.444700 0.000000
-33.390900 0.000000
-33.337000 0.000000
-33.283200 0.000000
-33.229300 0.000000
-33.175500 0.000000
-33.121600 0.000000
-33.067700 0.000000
-33.013900 0.000000
-32.960000 0.000000
-32.906200 0.000000
-32.852300 0.000000
-32.798500 0.000000
-32.744600 0.000000
-32.690700 0.000000
-32.636900 0.000000
-32.583000 0.000000
-32.529200 0.000000
-32.475300 0.000000
-32.421500 0.000000
-32.367600 0.000000
-32.313700 0.000000
-32.259900 0.000000
-32.206000 0.000000
-32.152200 0.000000
-32.098300 0.000000
-32.044500 0.000000
-31.990600 0.000000
-31.936700 0.000000
-31.882900 0.000000
-31.829000 0.000000
-31.775200 0.000000
-31.721300 0.000000
-31.667500 0.000000
-31.613600 0.000000
-31.559700 0.000000
-31.505900 0.000000
-31.452000 0.000000
-31.398200 0.000000
-31.344300 0.000000
-31.290500 0.000000
-31.236600 0.000000
-31.182800 0.000000
-31.128900 0.000000
-31.075000 0.000000
-31.021200 0.000000
-30.967300 0.000000
-30.913500 0.000000
-30.859600 0.000000
-30.805800 0.000000
-30.751900 0.000000
-30.698000 0.000000
-30.644200 0.000000
-30.590300 0.000000
-30.536500 0.000000
-30.482600 0.000000
-30.428800 0.000000
-30.374900 0.000000
-30.321000 0.000000
-30.267200 0.000000
-30.213300 0.000000
-30.159500 0.000000
-30.105600 0.000000
-30.051800 0.000000
-29.997900 0.000000
-29.944000 0.000000
-29.890200 0.000000
-29.836300 0.000000
-29.782500 0.000000
-29.728600 0.000000
-29.674800 0.000000
-29.620900 0.000000
-29.567000 0.000000
-29.513200 0.000000
-29.459300 0.000000
-29.405500 0.000000
-29.351600 0.000000
-29.297800 0.000000
-29.243900 0.000000
-29.190000 0.000000
-29.136200 0.000000
-29.082300 0.000000
-29.028500 0.000000
-28.974600 0.000000
-28.920800 0.000000
-28.866900 0.000000
-28.813000 0.000000
-28.759200 0.000000
-28.705300 0.000000
-28.651500 0.000000
-28.597600 0.000000
-28.543800 0.000000
-28.489900 0.000000
-28.436100 0.000000
-28.382200 0.000000
-28.328300 0.000000
-28.274500 0.000000
-28.220600 0.000000
-28.166800 0.000000
-28.112900 0.000000
-28.059100 0.000000
-28.005200 0.000000
-27.951300 0.000000
-27.897500 0.000000
-27.843600 0.000000
-27.789800 0.000000
-27.735900 0.000000
-27.682100 0.000000
-27.628200 0.000000
-27.574300 0.000000
-27.520500 0.000000
-27.466600 0.000000
-27.412800 0.000000
-27.358900 0.000000
-27.305100 0.000000
-27.251200 0.000000
-27.197300 0.000000
-27.143500 0.000000
-27.089600 0.000000
-27.035800 0.000000
-26.981900 0.000000
-26.928100 0.000000
-26.874200 0.000000
-26.820300 0.000000
-26.766500 0.000000
-26.712600 0.000000
-26.658800 0.000000
-26.604900 0.000000
-26.551100 0.000000
-26.497200 0.000000
-26.443300 0.000000
-26.389500 0.000000
-26.335600 0.000000
-26.281800 0.000000
-26.227900 0.000000
-26.174100 0.000000
-26.120200 0.000000
-26.066400 0.000000
-26.012500 0.000000
-25.958600 0.000000
-25.904800 0.000000
-25.850900 0.000000
-25.797100 0.000000
-25.743200 0.000000
-25.689400 0.000000
-25.635500 0.000000
-25.581600 0.000000
-25.527800 0.000000
-25.473900 0.000000
-25.420100 0.000000
-25.366200 0.000000
-25.312400 0.000000
-25.258500 0.000000
-25.204600 0.000000
-25.150800 0.000000
-25.096900 0.000000
-25.043100 0.000000
-24.989200 0.000000
-24.935400 0.000000
-24.881500 0.000000
-24.827600 0.000000
-24.773800 0.000000
-24.719900 0.000000
-24.666100 0.000000
-24.612200 0.000000
-24.558400 0.000000
-24.504500 0.000000
-24.450600 0.000000
-24.396800 0.000000
-24.342900 0.000000
-24.289100 0.000000
-24.235200 0.000000
-24.181400 0.000000
-24.127500 0.000000
-24.073600 0.000000
-24.019800 0.000000
-23.965900 0.000000
-23.912100 0.000000
-23.858200 0.000000
-23.804400 0.000000
-23.750500 0.000000
-23.696700 0.000000
-23.642800 0.000000
-23.588900 0.000000
-23.535100 0.000000
-23.481200 0.000000
-23.427400 0.000000
-23.373500 0.000000
-23.319700 0.000000
-23.265800 0.000000
-23.211900 0.000000
-23.158100 0.000000
-23.104200 0.000000
-23.050400 0.000000
-22.996500 0.000000
-22.942700 0.000000
-22.888800 0.000000
-22.834900 0.000000
-22.781100 0.000000
-22.727200 0.000000
-22.673400 0.000000
-22.619500 0.000000
-22.565700 0.000000
-22.511800 0.000000
-22.457900 0.000000
-22.404100 0.000000
-22.350200 0.000000
-22.296400 0.000000
-22.242500 0.000000
-22.188700 0.000000
-22.134800 0.000000
-22.080900 0.000000
-22.027100 0.000000
-21.973200 0.000000
-21.919400 0.000000
-21.865500 0.000000
-21.811700 0.000000
-21.757800 0.000000
-21.703900 0.000000
-21.650100 0.000000
-21.596200 0.000000
-21.542400 0.000000
-21.488500 0.000000
-21.434700 0.000000
-21.380800 0.000000
-21.326900 0.000000
-21.273100 0.000000
-21.219200 0.000000
-21.165400 0.000000
-21.111500 0.000000
-21.057700 0.000000
-21.003800 0.000000
-20.950000 0.000000
-20.896100 0.000000
-20.842200 0.000000
-20.788400 0.000000
-20.734500 0.000000
-20.680700 0.000000
-20.626800 0.000000
-20.573000 0.000000
-20.519100 0.000000
-20.465200 0.000000
-20.411400 0.000000
-20.357500 0.000000
-20.303700 0.000000
-20.249800 0.000000
-20.196000 0.000000
-20.142100 0.000000
-20.088200 0.000000
-20.034400 0.000000
-19.980500 0.000000
-19.926700 0.000000
-19.872800 0.000000
-19.819000 0.000000
-19.765100 0.000000
-19.711200 0.000000
-19.657400 0.000000
-19.603500 0.000000
-19.549700 0.000000
-19.495800 0.000000
-19.442000 0.000000
-19.388100 0.000000
-19.334200 0.000000
-19.280400 0.000000
-19.226500 0.000000
-19.172700 0.000000
-19.118800 0.000000
-19.065000 0.000000
-19.011100 0.000000
-18.957200 0.000000
-18.903400 0.000000
-18.849500 0.000000
-18.795700 0.000000
-18.741800 0.000000
-18.688000 0.000000
-18.634100 0.000000
-18.580300 0.000000
-18.526400 0.000000
-18.472500 0.000000
-18.418700 0.000000
-18.364800 0.000000
-18.311000 0.000000
-18.257100 0.000000
-18.203300 0.000000
-18.149400 0.000000
-18.095500 0.000000
-18.041700 0.000000
-17.987800 0.000000
-17.934000 0.000000
-17.880100 0.000000
-17.826300 0.000000
-17.772400 0.000000
-17.718500 0.000000
-17.664700 0.000000
-17.610800 0.000000
-17.557000 0.000000
-17.503100 0.000000
-17.449300 0.000000
-17.395400 0.000000
-17.341500 0.000000
-17.287700 0.000000
-17.233800 0.000000
-17.180000 0.000000
-17.126100 0.000000
-17.072300 0.000000
-17.018400 0.000000
-16.964500 0.000000
-16.910700 0.000000
-16.856800 0.000000
-16.803000 0.000000
-16.749100 0.000000
-16.695300 0.000000
-16.641400 0.000000
-16.587500 0.000000
-16.533700 0.000000
-16.479800 0.000000
-16.426000 0.000000
-16.372100 0.000000
-16.318300 0.000000
-16.264400 0.000000
-16.210600 0.000000
-16.156700 0.000000
-16.102800 0.000000
-16.049000 0.000000
-15.995100 0.000000
-15.941300 0.000000
-15.887400 0.000000
-15.833600 0.000000
-15.779700 0.000000
-15.725800 0.000000
-15.672000 0.000000
-15.618100 0.000000
-15.564300 0.000000
-15.510400 0.000000
-15.456600 0.000000
-15.402700 0.000000
-15.348800 0.000000
-15.295000 0.000000
-15.241100 0.000000
-15.187300 0.000000
-15.133400 0.000000
-15.079600 0.000000
-15.025700 0.000000
-14.971800 0.000000
-14.918000 0.000000
-14.864100 0.000000
-14.810300 0.000000
-14.756400 0.000000
-14.702600 0.000000
-14.648700 0.000000
-14.594800 0.000000
-14.541000 0.000000
-14.487100 0.000000
-14.433300 0.000000
-14.379400 0.000000
-14.325600 0.000000
-14.271700 0.000000
-14.217800 0.000000
-14.164000 0.000000
-14.110100 0.000000
-14.056300 0.000000
-14.002400 0.000000
-13.948600 0.000000
-13.894700 0.000000
-13.840900 0.000000
-13.787000 0.000000
-13.733100 0.000000
-13.679300 0.000000
-13.625400 0.000000
-13.571600 0.000000
-13.517700 0.000000
-13.463900 0.000000
-13.410000 0.000000
-13.356100 0.000000
-13.302300 0.000000
-13.248400 0.000000
-13.194600 0.000000
-13.140700 0.000000
-13.086900 0.000000
-13.033000 0.000000
-12.979100 0.000000
-12.925300 0.000000
-12.871400 0.000000
-12.817600 0.000000
-12.763700 0.000000
-12.709900 0.000000
-12.656000 0.000000
-12.602100 0.000000
-12.548300 0.000000
-12.494400 0.000000
-12.440600 0.000000
-12.386700 0.000000
-12.332900 0.000000
-12.279000 0.000000
-12.225100 0.000000
-12.171300 0.000000
-12.117400 0.000000
-12.063600 0.000000
-12.009700 0.000000
-11.955900 0.000000
-11.902000 0.000000
-11.848100 0.000000
-11.794300 0.000000
-11.740400 0.000000
-11.686600 0.000000
-11.632700 0.000000
-11.578900 0.000000
-11.525000 0.000000
-11.471100 0.000000
-11.417300 0.000000
-11.363400 0.000000
-11.309600 0.000000
-11.255700 0.000000
-11.201900 0.000000
-11.148000 0.000000
-11.094200 0.000000
-11.040300 0.000000
-10.986400 0.000000
-10.932600 0.000000
-10.878700 0.000000
-10.824900 0.000000
-10.771000 0.000000
-10.717200 0.000000
-10.663300 0.000000
-10.609400 0.000000
-10.555600 0.000000
-10.501700 0.000000
-10.447900 0.000000
-10.394000 0.000000
-10.340200 0.000000
-10.286300 0.000000
-10.232400 0.000000
-10.178600 0.000000
-10.124700 0.000000
-10.070900 0.000000
-10.017000 0.000000
-9.963200 0.000000
-9.909300 0.000000
-9.855400 0.000000
-9.801600 0.000000
-9.747700 0.000000
-9.693900 0.000000
-9.640000 0.000000
-9.586200 0.000000
-9.532300 0.000000
-9.478400 0.000000
-9.424600 0.000000
-9.370700 0.000000
-9.316900 0.000000
-9.263000 0.000000
-9.209200 0.000000
-9.155300 0.000000
-9.101400 0.000000
-9.047600 0.000000
-8.993700 0.000000
-8.939900 0.000000
-8.886000 0.000000
-8.832200 0.000000
-8.778300 0.000000
-8.724500 0.000000
-8.670600 0.000000
-8.616700 0.000000
-8.562900 0.000000
-8.509000 0.000000
-8.455200 0.000000
-8.401300 0.000000
-8.347500 0.000000
-8.293600 0.000000
-8.239700 0.000000
-8.185900 0.000000
-8.132000 0.000000
-8.078200 0.000000
-8.024300 0.000000
-7.970500 0.000000
-7.916600 0.000000
-7.862700 0.000000
-7.808900 0.000000
-7.755000 0.000000
-7.701200 0.000000
-7.647300 0.000000
-7.593500 0.000000
-7.539600 0.000000
-7.485700 0.000000
-7.431900 0.000000
-7.378000 0.000000
-7.324200 0.000000
-7.270300 0.000000
-7.216500 0.000000
-7.162600 0.000000
-7.108700 0.000000
-7.054900 0.000000
-7.001000 0.000000
-6.947200 0.000000
-6.893300 0.000000
-6.839500 0.000000
-6.785600 0.000000
-6.731700 0.000000
-6.677900 0.000000
-6.624000 0.000000
-6.570200 0.000000
-6.516300 0.000000
-6.462500 0.000000
-6.408600 0.000000
-6.354800 0.000000
-6.300900 0.000000
-6.247000 0.000000
-6.193200 0.000000
-6.139300 0.000000
-6.085500 0.000000
-6.031600 0.000000
-5.977800 0.000000
-5.923900 0.000000
-5.870000 0.000000
-5.816200 0.000000
-5.762300 0.000000
-5.708500 0.000000
-5.654600 0.000000
-5.600800 0.000000
-5.546900 0.000000
-5.493000 0.000000
-5.439200 0.000000
-5.385300 0.000000
-5.331500 0.000000
-5.277600 0.000000
-5.223800 0.000000
-5.169900 0.000000
-5.116000 0.000000
-5.062200 0.000000
-5.008300 0.000000
-4.954500 0.000000
-4.900600 0.000000
-4.846800 0.000000
-4.792900 0.000000
-4.739000 0.000000
-4.685200 0.000000
-4.631300 0.000000
-4.577500 0.000000
-4.523600 0.000000
-4.469800 0.000000
-4.415900 0.000000
-4.362000 0.000000
-4.308200 0.000000
-4.254300 0.000000
-4.200500 0.000000
-4.146600 0.000000
-4.092800 0.000000
-4.038900 0.000000
-3.985000 0.000000
-3.931200 0.000000
-3.877300 0.000000
-3.823500 0.000000
-3.769600 0.000000
-3.715800 0.000000
-3.661900 0.000000
-3.608100 0.000000
-3.554200 0.000000
-3.500300 0.000000
-3.446500 0.000000
-3.392600 0.000000
-3.338800 0.000000
-3.284900 0.000000
-3.231100 0.000000
-3.177200 0.000000
-3.123300 0.000000
-3.069500 0.000000
-3.015600 0.000000
-2.961800 0.000000
-2.907900 0.000000
-2.854100 0.000000
-2.800200 0.000000
-2.746300 0.000000
-2.692500 0.000000
-2.638600 0.000000
-2.584800 0.000000
-2.530900 0.000000
-2.477100 0.000000
-2.423200 0.000000
-2.369300 0.000000
-2.315500 0.000000
-2.261600 0.000000
-2.207800 0.000000
-2.153900 0.000000
-2.100100 0.000000
-2.046200 0.000000
-1.992300 0.000000
-1.938500 0.000000
-1.884600 0.000000
-1.830800 0.003300
-1.776900 0.007700
-1.723100 0.010100
-1.669200 0.012600
-1.615300 0.015000
-1.561500 0.016800
-1.507600 0.017700
-1.453800 0.019700
-1.399900 0.021900
-1.346100 0.022600
-1.292200 0.023800
-1.238400 0.025100
-1.184500 0.026600
-1.130600 0.028200
-1.076800 0.029200
-1.022900 0.030300
-0.969100 0.031300
-0.915200 0.032700
-0.861400 0.034100
-0.807500 0.035300
-0.753600 0.036500
-0.699800 0.037600
-0.645900 0.038800
-0.592100 0.040000
-0.538200 0.041200
-0.484400 0.042500
-0.430500 0.043900
-0.376600 0.045300
-0.322800 0.046400
-0.268900 0.047700
-0.215100 0.049100
-0.161200 0.050500
-0.107400 0.051800
-0.053500 0.053200
0.000400 0.054700
0.054200 0.056400
0.108100 0.057900
0.161900 0.059500
0.215800 0.061100
0.269600 0.062700
0.323500 0.064600
0.377400 0.066400
0.431200 0.068400
0.485100 0.070300
0.538900 0.072700
0.592800 0.074800
0.646600 0.077100
0.700500 0.079500
0.754400 0.082100
0.808200 0.085000
0.862100 0.088100
0.915900 0.091200
0.969800 0.094500
1.023600 0.098500
1.077500 0.102600
1.131300 0.107100
1.185200 0.112200
1.239100 0.118100
1.292900 0.124500
1.346800 0.131800
1.400600 0.140600
1.454500 0.150600
1.508300 0.163600
1.562200 0.184700
1.616100 0.217400
1.669900 0.385400
1.723800 0.402200
1.777600 0.426300
1.831500 0.452100
1.885300 0.471700
1.939200 0.497600
1.993100 0.510000
2.046900 0.523700
2.100800 0.548200
2.154600 0.566500
2.208500 0.585000
2.262300 0.609100
2.316200 0.639400
2.370100 0.678800
2.423900 0.724000
2.477800 0.797900
2.531600 0.943400
2.585500 0.978100
2.639300 0.802000
2.693200 0.667000
2.747100 0.601600
2.800900 0.557700
2.854800 0.537700
2.908600 0.505900
2.962500 0.509800
3.016300 0.444000
3.070200 0.370400
3.124100 0.319500
3.177900 0.299100
3.231800 0.275400
3.285600 0.265400
3.339500 0.263000
3.393300 0.852400
3.447200 1.278800
3.501100 1.522000
3.554900 1.515500
3.608800 1.315800
3.662600 1.094700
3.716500 0.983400
3.770300 0.896600
3.824200 0.871700
3.878000 0.884300
3.931900 0.878500
3.985800 0.886700
4.039600 0.891800
4.093500 0.888300
4.147300 0.840600
4.201200 0.857600
4.255000 0.902400
4.308900 0.969000
4.362800 1.053500
4.416600 1.272900
4.470500 1.439900
4.524300 1.255100
4.578200 1.191500
4.632000 1.077100
4.685900 0.954200
4.739800 0.894700
4.793600 0.876100
4.847500 0.466000
4.901300 0.408600
4.955200 0.381900
5.009000 0.363900
5.062900 0.340300
5.116800 0.327000
5.170600 0.318600
5.224500 0.315600
5.278300 0.313000
5.332200 0.316100
5.386000 0.319500
5.439900 0.327400
5.493800 0.334000
5.547600 0.344700
5.601500 0.360900
5.655300 0.381600
5.709200 0.401700
5.763000 0.429500
5.816900 0.467100
5.870800 0.515900
5.924600 0.591600
5.978500 0.755600
6.032300 0.836800
6.086200 0.883300
6.140000 0.932800
6.193900 0.991000
6.247700 1.080400
6.301600 1.265100
6.355500 1.346900
6.409300 1.352800
6.463200 1.320000
6.517000 1.344100
6.570900 1.382000
6.624700 1.629800
6.678600 1.616900
6.732500 1.545000
6.786300 1.566500
6.840200 1.606200
6.894000 1.815900
6.947900 2.323500
7.001700 1.340400
7.055600 1.135900
7.109500 1.007100
7.163300 0.903000
7.217200 0.837000
7.271000 0.789100
7.324900 0.744500
7.378700 0.725500
7.432600 0.692100
7.486500 0.675900
7.540300 0.678200
7.594200 0.661600
7.648000 0.644700
7.701900 0.647700
7.755700 0.633900
7.809600 0.648200
7.863500 0.527100
7.917300 0.427700
7.971200 0.355400
8.025000 0.294200
8.078900 0.225200
8.132700 0.174400
8.186600 0.165100
8.240500 0.164000
8.294300 0.163400
8.348200 0.162400
8.402000 0.159400
8.455900 0.156600
8.509700 0.154800
8.563600 0.153900
8.617400 0.153100
8.671300 0.152300
8.725200 0.151500
8.779000 0.150800
8.832900 0.149300
8.886700 0.148400
8.940600 0.147300
8.994400 0.146600
9.048300 0.146000
9.102200 0.145400
9.156000 0.144900
9.209900 0.144500
9.263700 0.144000
9.317600 0.143500
9.371400 0.142800
9.425300 0.142000
9.479200 0.140900
9.533000 0.139700
9.586900 0.138900
9.640700 0.138200
9.694600 0.137600
9.748400 0.136900
9.802300 0.136300
9.856200 0.135700
9.910000 0.135100
9.963900 0.134400
10.017700 0.133800
10.071600 0.133000
10.125400 0.132000
10.179300 0.131000
10.233200 0.129700
10.287000 0.128900
10.340900 0.128100
10.394700 0.127200
10.448600 0.126300
10.502400 0.125500
10.556300 0.124700
10.610200 0.123900
10.664000 0.123100
10.717900 0.122300
10.771700 0.121500
10.825600 0.120600
10.879400 0.119700
10.933300 0.118500
10.987200 0.117100
11.041000 0.116000
11.094900 0.114900
11.148700 0.114000
11.202600 0.113100
11.256400 0.112100
11.310300 0.111100
11.364100 0.110100
11.418000 0.109100
11.471900 0.108100
11.525700 0.107200
11.579600 0.106100
11.633400 0.105100
11.687300 0.104100
11.741100 0.102900
11.795000 0.101600
11.848900 0.100100
11.902700 0.098900
11.956600 0.097600
12.010400 0.096500
12.064300 0.095500
12.118100 0.094500
12.172000 0.093400
12.225900 0.092200
12.279700 0.091100
12.333600 0.089800
12.387400 0.088600
12.441300 0.087200
12.495100 0.086000
12.549000 0.084800
12.602900 0.083700
12.656700 0.082400
12.710600 0.081100
12.764400 0.079600
12.818300 0.078200
12.872100 0.077000
12.926000 0.075700
12.979900 0.074200
13.033700 0.072900
13.087600 0.071700
13.141400 0.070400
13.195300 0.069100
13.249100 0.067600
13.303000 0.066000
13.356900 0.064500
13.410700 0.063200
13.464600 0.062300
13.518400 0.060800
13.572300 0.059300
13.626100 0.057800
13.680000 0.056400
13.733800 0.055600
13.787700 0.054100
13.841600 0.052300
13.895400 0.050200
13.949300 0.050700
14.003100 0.044600
14.057000 0.041900
14.110800 0.039400
14.164700 0.037900
14.218600 0.036500
14.272400 0.035100
14.326300 0.033800
14.380100 0.032700
14.434000 0.031400
14.487800 0.031100
14.541700 0.029600
14.595600 0.027900
14.649400 0.026400
14.703300 0.022900
14.757100 0.022700
14.811000 0.021800
14.864800 0.021800
14.918700 0.022000
14.972600 0.022400
15.026400 0.024500
15.080300 0.026300
15.134100 0.035000
15.188000 0.031900
15.241800 0.034200
15.295700 0.035500
15.349600 0.037300
15.403400 0.039800
15.457300 0.045700
15.511100 0.053000
15.565000 0.175500
15.618800 0.362800
15.672700 0.382300
15.726600 0.336600
15.780400 0.318700
15.834300 0.295400
15.888100 0.282400
15.942000 0.266000
15.995800 0.254000
16.049700 0.247000
16.103500 0.235800
16.157400 0.227900
16.211300 0.226800
16.265100 0.219100
16.319000 0.210000
16.372800 0.203900
16.426700 0.198500
16.480500 0.194700
16.534400 0.189800
16.588300 0.187500
16.642100 0.181500
16.696000 0.178400
16.749800 0.176200
16.803700 0.174000
16.857500 0.170700
16.911400 0.168300
16.965300 0.170800
17.019100 0.170900
17.073000 0.163900
17.126800 0.161700
17.180700 0.160300
17.234500 0.161800
17.288400 0.154200
17.342300 0.152600
17.396100 0.151900
17.450000 0.157100
17.503800 0.221400
17.557700 0.205400
17.611500 0.208400
17.665400 0.209900
17.719300 0.208800
17.773100 0.206400
17.827000 0.206800
17.880800 0.205200
17.934700 0.204700
17.988500 0.204300
18.042400 0.203700
18.096300 0.202400
18.150100 0.202100
18.204000 0.201300
18.257800 0.200200
18.311700 0.199400
18.365500 0.198400
18.419400 0.197800
18.473300 0.197200
18.527100 0.196800
18.581000 0.196100
18.634800 0.195700
18.688700 0.194700
18.742500 0.193700
18.796400 0.192900
18.850200 0.192200
18.904100 0.191600
18.958000 0.191400
19.011800 0.191100
19.065700 0.192300
19.119500 0.191900
19.173400 0.191200
19.227200 0.190700
19.281100 0.190600
19.335000 0.190800
19.388800 0.191100
19.442700 0.191200
19.496500 0.191000
19.550400 0.190400
19.604200 0.190100
19.658100 0.189700
19.712000 0.188800
19.765800 0.188100
19.819700 0.187600
19.873500 0.187600
19.927400 0.187600
19.981200 0.187500
20.035100 0.187300
20.089000 0.186800
20.142800 0.186700
20.196700 0.186600
20.250500 0.186800
20.304400 0.186400
20.358200 0.186000
20.412100 0.186300
20.466000 0.186200
20.519800 0.185900
20.573700 0.185600
20.627500 0.185300
20.681400 0.185100
20.735200 0.184800
20.789100 0.184400
20.843000 0.184000
20.896800 0.183600
20.950700 0.183300
21.004500 0.183200
21.058400 0.183200
21.112200 0.183200
21.166100 0.183100
21.219900 0.182500
21.273800 0.182100
21.327700 0.181800
21.381500 0.181400
21.435400 0.181000
21.489200 0.180700
21.543100 0.180600
21.596900 0.180500
21.650800 0.180400
21.704700 0.180300
21.758500 0.180300
21.812400 0.180300
21.866200 0.180100
21.920100 0.179800
21.973900 0.179400
22.027800 0.179800
22.081700 0.179300
22.135500 0.178600
22.189400 0.178400
22.243200 0.178300
22.297100 0.178100
22.350900 0.177800
22.404800 0.177600
22.458700 0.177400
22.512500 0.177200
22.566400 0.177000
22.620200 0.176800
22.674100 0.176700
22.727900 0.176500
22.781800 0.176000
22.835700 0.175800
22.889500 0.175600
22.943400 0.176300
22.997200 0.176400
23.051100 0.175800
23.104900 0.175700
23.158800 0.175500
23.212700 0.175200
23.266500 0.175100
23.320400 0.175000
23.374200 0.176500
23.428100 0.179700
23.481900 0.186400
23.535800 0.194200
23.589600 0.196600
23.643500 0.199400
23.697400 0.203700
23.751200 0.205100
23.805100 0.206500
23.858900 0.211300
23.912800 0.213200
23.966600 0.215400
24.020500 0.218200
24.074400 0.219800
24.128200 0.223100
24.182100 0.227500
24.235900 0.230200
24.289800 0.232300
24.343600 0.236500
24.397500 0.242800
24.451400 0.248200
24.505200 0.252200
24.559100 0.256800
24.612900 0.266700
24.666800 0.273100
24.720600 0.282500
24.774500 0.291300
24.828400 0.292200
24.882200 0.279000
24.936100 0.274000
24.989900 0.267400
25.043800 0.260500
25.097600 0.257800
25.151500 0.255000
25.205400 0.252400
25.259200 0.250900
25.313100 0.249000
25.366900 0.250400
25.420800 0.242500
25.474600 0.241100
25.528500 0.240000
25.582400 0.238400
25.636200 0.237500
25.690100 0.237200
25.743900 0.235700
25.797800 0.235100
25.851600 0.234300
25.905500 0.233100
25.959300 0.232600
26.013200 0.232500
26.067100 0.232000
26.120900 0.231800
26.174800 0.232000
26.228600 0.234400
26.282500 0.233900
26.336300 0.233000
26.390200 0.233000
26.444100 0.233300
26.497900 0.234200
26.551800 0.235800
26.605600 0.235800
26.659500 0.236700
26.713300 0.238100
26.767200 0.239600
26.821100 0.241200
26.874900 0.242300
26.928800 0.243600
26.982600 0.246100
27.036500 0.250100
27.090300 0.255100
27.144200 0.261100
27.198100 0.267200
27.251900 0.273100
27.305800 0.275400
27.359600 0.274100
27.413500 0.273900
27.467300 0.273200
27.521200 0.270900
27.575100 0.268500
27.628900 0.266700
27.682800 0.264200
27.736600 0.261700
27.790500 0.259400
27.844300 0.257100
27.898200 0.254600
27.952100 0.251900
28.005900 0.249100
28.059800 0.248100
28.113600 0.251500
28.167500 0.240300
28.221300 0.237700
28.275200 0.234000
28.329100 0.230800
28.382900 0.227700
28.436800 0.224200
28.490600 0.221200
28.544500 0.219000
28.598300 0.217000
28.652200 0.214700
28.706000 0.212100
28.759900 0.209600
28.813800 0.207300
28.867600 0.204900
28.921500 0.203100
28.975300 0.201300
29.029200 0.198400
29.083000 0.196300
29.136900 0.194300
29.190800 0.191400
29.244600 0.189100
29.298500 0.187400
29.352300 0.184900
29.406200 0.182100
29.460000 0.179700
29.513900 0.177800
29.567800 0.175300
29.621600 0.172500
29.675500 0.167400
29.729300 0.163900
29.783200 0.160400
29.837000 0.158000
29.890900 0.155400
29.944800 0.153100
29.998600 0.151800
30.052500 0.150100
30.106300 0.147300
30.160200 0.145800
30.214000 0.146400
30.267900 0.143800
30.321800 0.144200
30.375600 0.144900
30.429500 0.145400
30.483300 0.147000
30.537200 0.149000
30.591000 0.150100
30.644900 0.151800
30.698800 0.154900
30.752600 0.158700
30.806500 0.158800
30.860300 0.172100
30.914200 0.169300
30.968000 0.229600
31.021900 0.196200
31.075700 0.185100
31.129600 0.204400
31.183500 0.192400
31.237300 0.188900
31.291200 0.188600
31.345000 0.189900
31.398900 0.191400
31.452700 0.194000
31.506600 0.187500
31.560500 0.192400
31.614300 0.189700
31.668200 0.193200
31.722000 0.197100
31.775900 0.204100
31.829700 0.212600
31.883600 0.229400
31.937500 0.245000
31.991300 0.267200
32.045200 0.298300
32.099000 0.324600
32.152900 0.336200
32.206700 0.350200
32.260600 0.355100
32.314500 0.357400
32.368300 0.346900
32.422200 0.321600
32.476000 0.297000
32.529900 0.281900
32.583700 0.269100
32.637600 0.255100
32.691500 0.245500
32.745300 0.237400
32.799200 0.230200
32.853000 0.223700
32.906900 0.218200
32.960700 0.212800
33.014600 0.207800
33.068500 0.203700
33.122300 0.199700
33.176200 0.195800
33.230000 0.193000
33.283900 0.189200
33.337700 0.185900
33.391600 0.183200
33.445400 0.180900
33.499300 0.178300
33.553200 0.174800
33.607000 0.169800
33.660900 0.165700
33.714700 0.161300
33.768600 0.157200
33.822400 0.153500
33.876300 0.150700
33.930200 0.148700
33.984000 0.147100
34.037900 0.145600
34.091700 0.144100
34.145600 0.144000
34.199400 0.145400
34.253300 0.146200
34.307200 0.146900
34.361000 0.150800
34.414900 0.147200
34.468700 0.147100
34.522600 0.146900
34.576400 0.148100
34.630300 0.149500
34.684200 0.151700
34.738000 0.155900
34.791900 0.160900
34.845700 0.169200
34.899600 0.181600
34.953400 0.197700
35.007300 0.221900
35.061200 0.259200
35.115000 0.307300
35.168900 0.335600
35.222700 0.348400
35.276600 0.349300
35.330400 0.345400
35.384300 0.343500
35.438200 0.346000
35.492000 0.341100
35.545900 0.333500
35.599700 0.319700
35.653600 0.306000
35.707400 0.298800
35.761300 0.292600
35.815200 0.288700
35.869000 0.285500
35.922900 0.281400
35.976700 0.274800
36.030600 0.270600
36.084400 0.267600
36.138300 0.259900
36.192100 0.253200
36.246000 0.247400
36.299900 0.242500
36.353700 0.238100
36.407600 0.233800
36.461400 0.230600
36.515300 0.227100
36.569100 0.223300
36.623000 0.223400
36.676900 0.227600
36.730700 0.232700
36.784600 0.223200
36.838400 0.223400
36.892300 0.222300
36.946100 0.221900
37.000000 0.219900
37.053900 0.220300
37.107700 0.229800
37.161600 0.226100
37.215400 0.226600
37.269300 0.227000
37.323100 0.228900
37.377000 0.232100
37.430900 0.236100
37.484700 0.242000
37.538600 0.253000
37.592400 0.262900
37.646300 0.270300
37.700100 0.277600
37.754000 0.278600
37.807900 0.277000
37.861700 0.270200
37.915600 0.267100
37.969400 0.263400
38.023300 0.264800
38.077100 0.266100
38.131000 0.267500
38.184900 0.268000
38.238700 0.269300
38.292600 0.262400
38.346400 0.256000
38.400300 0.252000
38.454100 0.249900
38.508000 0.248000
38.561800 0.246400
38.615700 0.245800
38.669600 0.245600
38.723400 0.246300
38.777300 0.247800
38.831100 0.250600
38.885000 0.251300
38.938800 0.250900
38.992700 0.249800
39.046600 0.251100
39.100400 0.251000
39.154300 0.263700
39.208100 0.279400
39.262000 0.290500
39.315800 0.297200
39.369700 0.293300
39.423600 0.294100
39.477400 0.293200
39.531300 0.291300
39.585100 0.289500
39.639000 0.287200
39.692800 0.283700
39.746700 0.277900
39.800600 0.275600
39.854400 0.271600
39.908300 0.268700
39.962100 0.265300
40.016000 0.262900
40.069800 0.263600
40.123700 0.259600
40.177600 0.256500
40.231400 0.255200
40.285300 0.253400
40.339100 0.252500
40.393000 0.253200
40.446800 0.254300
40.500700 0.253900
40.554600 0.254800
40.608400 0.255100
40.662300 0.254300
40.716100 0.254400
40.770000 0.254800
40.823800 0.258500
40.877700 0.260300
40.931500 0.264100
40.985400 0.256200
41.039300 0.249100
41.093100 0.243200
41.147000 0.241000
41.200800 0.236700
41.254700 0.241800
41.308500 0.233700
41.362400 0.231300
41.416300 0.236800
41.470100 0.219500
41.524000 0.216600
41.577800 0.215300
41.631700 0.216100
41.685500 0.214300
41.739400 0.218200
41.793300 0.214000
41.847100 0.211500
41.901000 0.210700
41.954800 0.206400
42.008700 0.203000
42.062500 0.200100
42.116400 0.197300
42.170300 0.195500
42.224100 0.193600
42.278000 0.191400
42.331800 0.188200
42.385700 0.187200
42.439500 0.189000
42.493400 0.191800
42.547300 0.195700
42.601100 0.201700
42.655000 0.206500
42.708800 0.211300
42.762700 0.213800
42.816500 0.215200
42.870400 0.215100
42.924300 0.216100
42.978100 0.217900
43.032000 0.220700
43.085800 0.223800
43.139700 0.225700
43.193500 0.229600
43.247400 0.232900
43.301300 0.237700
43.355100 0.243900
43.409000 0.242700
43.462800 0.244700
43.516700 0.246300
43.570500 0.245800
43.624400 0.244900
43.678200 0.243200
43.732100 0.242100
43.786000 0.242200
43.839800 0.242400
43.893700 0.241900
43.947500 0.241300
44.001400 0.241600
44.055200 0.240400
44.109100 0.240200
44.163000 0.240600
44.216800 0.239800
44.270700 0.240400
44.324500 0.240200
44.378400 0.237800
44.432200 0.237600
44.486100 0.237700
44.540000 0.237500
44.593800 0.238000
44.647700 0.237100
44.701500 0.237000
44.755400 0.234900
44.809200 0.233900
44.863100 0.231200
44.917000 0.232400
44.970800 0.235900
45.024700 0.235700
45.078500 0.235500
45.132400 0.233100
45.186200 0.232500
45.240100 0.232400
45.294000 0.232400
45.347800 0.231000
45.401700 0.230200
45.455500 0.229700
45.509400 0.229400
45.563200 0.229300
45.617100 0.228600
45.671000 0.230300
45.724800 0.233700
45.778700 0.230100
45.832500 0.227300
45.886400 0.219000
45.940200 0.218700
45.994100 0.219700
46.047900 0.221400
46.101800 0.219100
46.155700 0.212500
46.209500 0.200800
46.263400 0.184100
46.317200 0.171900
46.371100 0.163300
46.424900 0.144800
46.478800 0.134400
46.532700 0.126900
46.586500 0.121400
46.640400 0.115800
46.694200 0.111900
46.748100 0.110800
46.801900 0.107400
46.855800 0.103300
46.909700 0.099100
46.963500 0.097000
47.017400 0.094100
47.071200 0.091600
47.125100 0.088600
47.178900 0.085000
47.232800 0.080500
47.286700 0.076300
47.340500 0.072800
47.394400 0.069300
47.448200 0.065200
47.502100 0.060900
47.555900 0.057500
47.609800 0.054600
47.663700 0.052000
47.717500 0.049700
47.771400 0.047700
47.825200 0.046000
47.879100 0.044400
47.932900 0.042700
47.986800 0.041100
48.040700 0.039800
48.094500 0.038600
48.148400 0.036900
48.202200 0.035500
48.256100 0.034400
48.309900 0.032900
48.363800 0.033600
48.417600 0.031200
48.471500 0.029900
48.525400 0.028700
48.579200 0.028100
48.633100 0.027000
48.686900 0.025900
48.740800 0.023100
48.794600 0.021900
48.848500 0.021100
48.902400 0.019600
48.956200 0.018000
49.010100 0.015800
49.063900 0.014800
49.117800 0.014000
49.171600 0.013200
49.225500 0.012300
49.279400 0.011800
49.333200 0.011300
49.387100 0.010900
49.440900 0.010500
49.494800 0.010500
49.548600 0.010100
49.602500 0.009700
49.656400 0.009400
49.710200 0.009000
49.764100 0.008700
49.817900 0.008400
49.871800 0.008200
49.925600 0.008000
49.979500 0.007700
50.033400 0.007500
50.087200 0.007100
50.141100 0.006900
50.194900 0.006800
50.248800 0.006600
50.302600 0.006400
50.356500 0.006300
50.410400 0.006100
50.464200 0.006000
50.518100 0.005800
50.571900 0.005700
50.625800 0.005500
50.679600 0.005300
50.733500 0.005200
50.787400 0.005100
50.841200 0.005000
50.895100 0.004800
50.948900 0.004700
51.002800 0.004600
51.056600 0.004500
51.110500 0.004400
51.164300 0.004200
51.218200 0.004100
51.272100 0.004000
51.325900 0.003900
51.379800 0.003800
51.433600 0.003700
51.487500 0.003500
51.541300 0.003400
51.595200 0.003300
51.649100 0.003200
51.702900 0.003200
51.756800 0.003100
51.810600 0.003000
51.864500 0.003000
51.918300 0.002900
51.972200 0.002800
52.026100 0.002700
52.079900 0.002700
52.133800 0.002600
52.187600 0.002500
52.241500 0.002400
52.295300 0.002400
52.349200 0.002300
52.403100 0.002200
52.456900 0.002100
52.510800 0.002000
52.564600 0.002000
52.618500 0.001900
52.672300 0.001900
52.726200 0.001800
52.780100 0.001800
52.833900 0.001700
52.887800 0.001700
52.941600 0.001600
52.995500 0.001600
53.049300 0.001600
53.103200 0.001500
53.157100 0.001500
53.210900 0.001400
53.264800 0.001400
53.318600 0.001300
53.372500 0.001300
53.426300 0.001300
53.480200 0.001200
53.534000 0.001200
53.587900 0.001100
53.641800 0.001100
53.695600 0.001100
53.749500 0.001000
53.803300 0.001000
53.857200 0.001000
53.911000 0.000900
53.964900 0.000900
54.018800 0.000800
54.072600 0.000700
54.126500 0.000700
54.180300 0.000600
54.234200 0.000600
54.288000 0.000500
54.341900 0.000500
54.395800 0.000500
54.449600 0.000500
54.503500 0.000500
54.557300 0.000400
54.611200 0.000400
54.665000 0.000400
54.718900 0.000400
54.772800 0.000300
54.826600 0.000300
54.880500 0.000300
54.934300 0.000300
54.988200 0.000300
55.042000 0.000200
55.095900 0.000200
55.149800 0.000200
55.203600 0.000200
55.257500 0.000200
55.311300 0.000100
55.365200 0.000000
55.419000 0.000000
55.472900 0.000000
55.526800 0.000000
55.580600 0.000000
55.634500 0.000000
55.688300 0.000000
55.742200 0.000000
55.796000 0.000000
55.849900 0.000000
55.903700 0.000000
55.957600 0.000000
56.011500 0.000000
56.065300 0.000000
56.119200 0.000000
56.173000 0.000000
56.226900 0.000000
56.280700 0.000000
56.334600 0.000000
56.388500 0.000000
56.442300 0.000000
56.496200 0.000000
56.550000 0.000000
56.603900 0.000000
56.657700 0.000000
56.711600 0.000000
56.765500 0.000000
56.819300 0.000000
56.873200 0.000000
56.927000 0.000000
56.980900 0.000000
57.034700 0.000000
57.088600 0.000000
57.142500 0.000000
57.196300 0.000000
57.250200 0.000000
57.304000 0.000000
57.357900 0.000000
57.411700 0.000000
57.465600 0.000000
57.519500 0.000000
57.573300 0.000000
57.627200 0.000000
57.681000 0.000000
57.734900 0.000000
57.788700 0.000000
57.842600 0.000000
57.896500 0.000000
57.950300 0.000000
58.004200 0.000000
58.058000 0.000000
58.111900 0.000000
58.165700 0.000000
58.219600 0.000000
58.273500 0.000000
58.327300 0.000000
58.381200 0.000000
58.435000 0.000000
58.488900 0.000000
58.542700 0.000000
58.596600 0.000000
58.650400 0.000000
58.704300 0.000000
58.758200 0.000000
58.812000 0.000000
58.865900 0.000000
58.919700 0.000000
58.973600 0.000000
59.027400 0.000000
59.081300 0.000000
59.135200 0.000000
59.189000 0.000000
59.242900 0.000000
59.296700 0.000000
59.350600 0.000000
59.404400 0.000000
59.458300 0.000000
59.512200 0.000000
59.566000 0.000000
59.619900 0.000000
59.673700 0.000000
59.727600 0.000000
59.781400 0.000000
59.835300 0.000000
59.889200 0.000000
59.943000 0.000000
59.996900 0.000000
60.050700 0.000000
60.104600 0.000000
60.158400 0.000000
60.212300 0.000000
60.266200 0.000000
60.320000 0.000000
60.373900 0.000000
60.427700 0.000000
60.481600 0.000000
e
