set title 'mp-1225701 - Density of States'
set xlabel 'Energy (eV)'
set ylabel 'DOS (states/eV)'
set grid
set xrange [-10:10]
set yrange [0:8.945]
set xzeroaxis lt -1
set terminal png size 800,600
set output 'mp-1225701_dos_gnuplot.png'
plot '-' using 1:2 with lines title 'DOS'
-70.271600 0.000000
-70.201600 0.000000
-70.131700 0.000000
-70.061800 0.000000
-69.991900 0.000000
-69.921900 0.000000
-69.852000 0.000000
-69.782100 0.000000
-69.712100 0.000000
-69.642200 0.000000
-69.572300 0.000000
-69.502400 0.000000
-69.432400 0.000000
-69.362500 0.000000
-69.292600 0.000000
-69.222600 0.000000
-69.152700 0.000000
-69.082800 0.000000
-69.012900 0.000000
-68.942900 0.000000
-68.873000 0.000000
-68.803100 0.000000
-68.733100 0.000000
-68.663200 0.000000
-68.593300 0.000000
-68.523400 0.000000
-68.453400 0.000000
-68.383500 0.000000
-68.313600 0.000000
-68.243600 0.000000
-68.173700 0.000000
-68.103800 0.000000
-68.033900 0.000000
-67.963900 0.000000
-67.894000 0.000000
-67.824100 0.000000
-67.754100 0.000000
-67.684200 0.000000
-67.614300 0.000000
-67.544400 0.000000
-67.474400 0.000000
-67.404500 0.000000
-67.334600 0.000000
-67.264600 0.000000
-67.194700 0.000000
-67.124800 0.000000
-67.054900 0.000000
-66.984900 0.000000
-66.915000 0.000000
-66.845100 0.000000
-66.775100 0.000000
-66.705200 0.000000
-66.635300 0.000000
-66.565400 0.000000
-66.495400 0.000000
-66.425500 0.000000
-66.355600 0.000000
-66.285700 0.000000
-66.215700 0.000000
-66.145800 0.000000
-66.075900 0.000000
-66.005900 0.000000
-65.936000 0.000000
-65.866100 0.000000
-65.796200 0.000000
-65.726200 0.000000
-65.656300 0.000000
-65.586400 0.000000
-65.516400 0.000000
-65.446500 0.000000
-65.376600 0.000000
-65.306700 0.000000
-65.236700 0.000000
-65.166800 0.000000
-65.096900 0.000000
-65.026900 0.000000
-64.957000 0.000000
-64.887100 0.000000
-64.817200 0.000000
-64.747200 0.000000
-64.677300 0.000000
-64.607400 0.000000
-64.537400 0.000000
-64.467500 0.000000
-64.397600 0.000000
-64.327700 0.000000
-64.257700 0.000000
-64.187800 0.000000
-64.117900 0.000000
-64.047900 0.000000
-63.978000 0.000000
-63.908100 0.000000
-63.838200 0.000000
-63.768200 0.000000
-63.698300 0.000000
-63.628400 0.000000
-63.558400 0.000000
-63.488500 0.000000
-63.418600 0.000000
-63.348700 0.000000
-63.278700 0.000000
-63.208800 0.000000
-63.138900 0.000000
-63.068900 0.000000
-62.999000 0.000000
-62.929100 0.000000
-62.859200 0.000000
-62.789200 0.000000
-62.719300 0.000000
-62.649400 0.000000
-62.579400 0.000000
-62.509500 0.000000
-62.439600 0.000000
-62.369700 0.000000
-62.299700 0.000000
-62.229800 0.000000
-62.159900 0.000000
-62.089900 0.000000
-62.020000 0.000000
-61.950100 0.000000
-61.880200 0.000000
-61.810200 0.000000
-61.740300 0.000000
-61.670400 0.000000
-61.600400 0.000000
-61.530500 0.000000
-61.460600 0.000000
-61.390700 0.000000
-61.320700 0.000000
-61.250800 0.000000
-61.180900 0.000000
-61.110900 0.000000
-61.041000 0.000000
-60.971100 0.000000
-60.901200 0.000000
-60.831200 0.000000
-60.761300 0.000000
-60.691400 0.000000
-60.621500 0.000000
-60.551500 0.000000
-60.481600 0.000000
-60.411700 0.000000
-60.341700 0.000000
-60.271800 0.000000
-60.201900 0.000000
-60.132000 0.000000
-60.062000 0.000000
-59.992100 0.000000
-59.922200 0.000000
-59.852200 0.000000
-59.782300 0.000000
-59.712400 0.000000
-59.642500 0.000000
-59.572500 0.000000
-59.502600 0.000000
-59.432700 0.000000
-59.362700 0.000000
-59.292800 0.000000
-59.222900 0.000000
-59.153000 0.000000
-59.083000 0.000000
-59.013100 0.000000
-58.943200 0.000000
-58.873200 0.000000
-58.803300 0.000000
-58.733400 0.000000
-58.663500 0.000000
-58.593500 0.000000
-58.523600 0.000000
-58.453700 0.000000
-58.383700 0.000000
-58.313800 0.000000
-58.243900 0.000000
-58.174000 0.000000
-58.104000 0.000000
-58.034100 0.000000
-57.964200 0.000000
-57.894200 0.000000
-57.824300 0.000000
-57.754400 0.000000
-57.684500 0.000000
-57.614500 0.000000
-57.544600 0.000000
-57.474700 0.000000
-57.404700 0.000000
-57.334800 0.000000
-57.264900 0.000000
-57.195000 0.000000
-57.125000 0.000000
-57.055100 0.000000
-56.985200 0.000000
-56.915200 0.000000
-56.845300 0.000000
-56.775400 0.000000
-56.705500 0.000000
-56.635500 0.000000
-56.565600 0.000000
-56.495700 0.000000
-56.425700 0.000000
-56.355800 0.000000
-56.285900 0.000000
-56.216000 0.000000
-56.146000 0.000000
-56.076100 0.000000
-56.006200 0.000000
-55.936200 0.000000
-55.866300 0.000000
-55.796400 0.000000
-55.726500 0.000000
-55.656500 0.000000
-55.586600 0.000000
-55.516700 0.000000
-55.446800 0.000000
-55.376800 0.000000
-55.306900 0.000000
-55.237000 0.000000
-55.167000 0.000000
-55.097100 0.000000
-55.027200 0.000000
-54.957300 0.000000
-54.887300 0.000000
-54.817400 0.000000
-54.747500 0.000000
-54.677500 0.000000
-54.607600 0.000000
-54.537700 0.000000
-54.467800 0.000000
-54.397800 0.000000
-54.327900 0.000000
-54.258000 0.000000
-54.188000 0.000000
-54.118100 0.000000
-54.048200 0.000000
-53.978300 0.000000
-53.908300 0.000000
-53.838400 0.000000
-53.768500 0.000000
-53.698500 0.000000
-53.628600 0.000000
-53.558700 0.000000
-53.488800 0.000000
-53.418800 0.000000
-53.348900 0.000000
-53.279000 0.000000
-53.209000 0.000000
-53.139100 0.000000
-53.069200 0.000000
-52.999300 0.000000
-52.929300 0.000000
-52.859400 0.000000
-52.789500 0.000000
-52.719500 0.000000
-52.649600 0.000000
-52.579700 0.000000
-52.509800 0.000000
-52.439800 0.000000
-52.369900 0.000000
-52.300000 0.000000
-52.230000 0.000000
-52.160100 0.000000
-52.090200 0.000000
-52.020300 0.000000
-51.950300 0.000000
-51.880400 0.000000
-51.810500 0.000000
-51.740500 0.000000
-51.670600 0.000000
-51.600700 0.000000
-51.530800 0.000000
-51.460800 0.000000
-51.390900 0.000000
-51.321000 0.000000
-51.251000 0.000000
-51.181100 0.000000
-51.111200 0.000000
-51.041300 0.000000
-50.971300 0.000000
-50.901400 0.000000
-50.831500 0.000000
-50.761500 0.000000
-50.691600 0.000000
-50.621700 0.000000
-50.551800 0.000000
-50.481800 0.000000
-50.411900 0.000000
-50.342000 0.000000
-50.272100 0.000000
-50.202100 0.000000
-50.132200 0.000000
-50.062300 0.000000
-49.992300 0.000000
-49.922400 0.000000
-49.852500 0.000000
-49.782600 0.000000
-49.712600 0.000000
-49.642700 0.000000
-49.572800 0.000000
-49.502800 0.000000
-49.432900 0.000000
-49.363000 0.000000
-49.293100 0.000000
-49.223100 0.000000
-49.153200 0.000000
-49.083300 0.000000
-49.013300 0.000000
-48.943400 0.000000
-48.873500 0.000000
-48.803600 0.000000
-48.733600 0.000000
-48.663700 0.000000
-48.593800 0.000000
-48.523800 0.000000
-48.453900 0.000000
-48.384000 0.000000
-48.314100 0.000000
-48.244100 0.000000
-48.174200 0.000000
-48.104300 0.000000
-48.034300 0.000000
-47.964400 0.000000
-47.894500 0.000000
-47.824600 0.000000
-47.754600 0.000000
-47.684700 0.000000
-47.614800 0.000000
-47.544800 0.000000
-47.474900 0.000000
-47.405000 0.000000
-47.335100 0.000000
-47.265100 0.000000
-47.195200 0.000000
-47.125300 0.000000
-47.055300 0.000000
-46.985400 0.000000
-46.915500 0.000000
-46.845600 0.000000
-46.775600 0.000000
-46.705700 0.000000
-46.635800 0.000000
-46.565800 0.000000
-46.495900 0.000000
-46.426000 0.000000
-46.356100 0.000000
-46.286100 0.000000
-46.216200 0.000000
-46.146300 0.000000
-46.076300 0.000000
-46.006400 0.000000
-45.936500 0.000000
-45.866600 0.000000
-45.796600 0.000000
-45.726700 0.000000
-45.656800 0.000000
-45.586800 0.000000
-45.516900 0.000000
-45.447000 0.000000
-45.377100 0.000000
-45.307100 0.000000
-45.237200 0.000000
-45.167300 0.000000
-45.097400 0.000000
-45.027400 0.000000
-44.957500 0.000000
-44.887600 0.000000
-44.817600 0.000000
-44.747700 0.000000
-44.677800 0.000000
-44.607900 0.000000
-44.537900 0.000000
-44.468000 0.000000
-44.398100 0.000000
-44.328100 0.000000
-44.258200 0.000000
-44.188300 0.000000
-44.118400 0.000000
-44.048400 0.000000
-43.978500 0.000000
-43.908600 0.000000
-43.838600 0.000000
-43.768700 0.000000
-43.698800 0.000000
-43.628900 0.000000
-43.558900 0.000000
-43.489000 0.000000
-43.419100 0.000000
-43.349100 0.000000
-43.279200 0.000000
-43.209300 0.000000
-43.139400 0.000000
-43.069400 0.000000
-42.999500 0.000000
-42.929600 0.000000
-42.859600 0.000000
-42.789700 0.000000
-42.719800 0.000000
-42.649900 0.000000
-42.579900 0.000000
-42.510000 0.000000
-42.440100 0.000000
-42.370100 0.000000
-42.300200 0.000000
-42.230300 0.000000
-42.160400 0.000000
-42.090400 0.000000
-42.020500 0.000000
-41.950600 0.000000
-41.880600 0.000000
-41.810700 0.000000
-41.740800 0.000000
-41.670900 0.000000
-41.600900 0.000000
-41.531000 0.000000
-41.461100 0.000000
-41.391100 0.000000
-41.321200 0.000000
-41.251300 0.000000
-41.181400 0.000000
-41.111400 0.000000
-41.041500 0.000000
-40.971600 0.000000
-40.901600 0.000000
-40.831700 0.000000
-40.761800 0.000000
-40.691900 0.000000
-40.621900 0.000000
-40.552000 0.000000
-40.482100 0.000000
-40.412100 0.000000
-40.342200 0.000000
-40.272300 0.000000
-40.202400 0.000000
-40.132400 0.000000
-40.062500 0.000000
-39.992600 0.000000
-39.922600 0.000000
-39.852700 0.000000
-39.782800 0.000000
-39.712900 0.000000
-39.642900 0.000000
-39.573000 0.000000
-39.503100 0.000000
-39.433200 0.000000
-39.363200 0.000000
-39.293300 0.000000
-39.223400 0.000000
-39.153400 0.000000
-39.083500 0.000000
-39.013600 0.000000
-38.943700 0.000000
-38.873700 0.000000
-38.803800 0.000000
-38.733900 0.000000
-38.663900 0.000000
-38.594000 0.000000
-38.524100 0.000000
-38.454200 0.000000
-38.384200 0.000000
-38.314300 0.000000
-38.244400 0.000000
-38.174400 0.000000
-38.104500 0.000000
-38.034600 0.000000
-37.964700 0.000000
-37.894700 0.000000
-37.824800 0.000000
-37.754900 0.000000
-37.684900 0.000000
-37.615000 0.000000
-37.545100 0.000000
-37.475200 0.000000
-37.405200 0.000000
-37.335300 0.000000
-37.265400 0.000000
-37.195400 0.000000
-37.125500 0.000000
-37.055600 0.000000
-36.985700 0.000000
-36.915700 0.000000
-36.845800 0.000000
-36.775900 0.000000
-36.705900 0.000000
-36.636000 0.000000
-36.566100 0.000000
-36.496200 0.000000
-36.426200 0.000000
-36.356300 0.000000
-36.286400 0.000000
-36.216400 0.000000
-36.146500 0.000000
-36.076600 0.000000
-36.006700 0.000000
-35.936700 0.000000
-35.866800 0.000000
-35.796900 0.000000
-35.726900 0.000000
-35.657000 0.000000
-35.587100 0.000000
-35.517200 0.000000
-35.447200 0.000000
-35.377300 0.000000
-35.307400 0.000000
-35.237400 0.000000
-35.167500 0.000000
-35.097600 0.000000
-35.027700 0.000000
-34.957700 0.000000
-34.887800 0.000000
-34.817900 0.000000
-34.747900 0.000000
-34.678000 0.000000
-34.608100 0.000000
-34.538200 0.000000
-34.468200 0.000000
-34.398300 0.000000
-34.328400 0.000000
-34.258500 0.000000
-34.188500 0.000000
-34.118600 0.000000
-34.048700 0.000000
-33.978700 0.000000
-33.908800 0.000000
-33.838900 0.000000
-33.769000 0.000000
-33.699000 0.000000
-33.629100 0.000000
-33.559200 0.000000
-33.489200 0.000000
-33.419300 0.000000
-33.349400 0.000000
-33.279500 0.000000
-33.209500 0.000000
-33.139600 0.000000
-33.069700 0.000000
-32.999700 0.000000
-32.929800 0.000000
-32.859900 0.000000
-32.790000 0.000000
-32.720000 0.000000
-32.650100 0.000000
-32.580200 0.000000
-32.510200 0.000000
-32.440300 0.000000
-32.370400 0.000000
-32.300500 0.000000
-32.230500 0.000000
-32.160600 0.000000
-32.090700 0.000000
-32.020700 0.000000
-31.950800 0.000000
-31.880900 0.000000
-31.811000 0.000000
-31.741000 0.000000
-31.671100 0.000000
-31.601200 0.000000
-31.531200 0.000000
-31.461300 0.000000
-31.391400 0.000000
-31.321500 0.000000
-31.251500 0.000000
-31.181600 0.000000
-31.111700 0.000000
-31.041700 0.000000
-30.971800 0.000000
-30.901900 0.000000
-30.832000 0.000000
-30.762000 0.000000
-30.692100 0.000000
-30.622200 0.000000
-30.552200 0.000000
-30.482300 0.000000
-30.412400 0.000000
-30.342500 0.000000
-30.272500 0.000000
-30.202600 0.000000
-30.132700 0.000000
-30.062700 0.000000
-29.992800 0.000000
-29.922900 0.000000
-29.853000 0.000000
-29.783000 0.000000
-29.713100 0.000000
-29.643200 0.000000
-29.573200 0.000000
-29.503300 0.000000
-29.433400 0.000000
-29.363500 0.000000
-29.293500 0.000000
-29.223600 0.000000
-29.153700 0.000000
-29.083800 0.000000
-29.013800 0.000000
-28.943900 0.000000
-28.874000 0.000000
-28.804000 0.000000
-28.734100 0.000000
-28.664200 0.000000
-28.594300 0.000000
-28.524300 0.000000
-28.454400 0.000000
-28.384500 0.000000
-28.314500 0.000000
-28.244600 0.000000
-28.174700 0.000000
-28.104800 0.000000
-28.034800 0.000000
-27.964900 0.000000
-27.895000 0.000000
-27.825000 0.000000
-27.755100 0.000000
-27.685200 0.000000
-27.615300 0.000000
-27.545300 0.000000
-27.475400 0.000000
-27.405500 0.000000
-27.335500 0.000000
-27.265600 0.000000
-27.195700 0.000000
-27.125800 0.000000
-27.055800 0.000000
-26.985900 0.000000
-26.916000 0.000000
-26.846000 0.000000
-26.776100 0.000000
-26.706200 0.000000
-26.636300 0.000000
-26.566300 0.000000
-26.496400 0.000000
-26.426500 0.000000
-26.356500 0.000000
-26.286600 0.000000
-26.216700 0.000000
-26.146800 0.000000
-26.076800 0.000000
-26.006900 0.000000
-25.937000 0.000000
-25.867000 0.000000
-25.797100 0.000000
-25.727200 0.000000
-25.657300 0.000000
-25.587300 0.000000
-25.517400 0.000000
-25.447500 0.000000
-25.377500 0.000000
-25.307600 0.000000
-25.237700 0.000000
-25.167800 0.000000
-25.097800 0.000000
-25.027900 0.000000
-24.958000 0.000000
-24.888000 0.000000
-24.818100 0.000000
-24.748200 0.000000
-24.678300 0.000000
-24.608300 0.000000
-24.538400 0.000000
-24.468500 0.000000
-24.398500 0.000000
-24.328600 0.000000
-24.258700 0.000000
-24.188800 0.000000
-24.118800 0.000000
-24.048900 0.000000
-23.979000 0.000000
-23.909100 0.000000
-23.839100 0.000000
-23.769200 0.000000
-23.699300 0.000000
-23.629300 0.000000
-23.559400 0.000000
-23.489500 0.000000
-23.419600 0.000000
-23.349600 0.000000
-23.279700 0.000000
-23.209800 0.000000
-23.139800 0.000000
-23.069900 0.000000
-23.000000 0.000000
-22.930100 0.000000
-22.860100 0.000000
-22.790200 0.000000
-22.720300 0.000000
-22.650300 0.000000
-22.580400 0.000000
-22.510500 0.000000
-22.440600 0.000000
-22.370600 0.000000
-22.300700 0.000000
-22.230800 0.000000
-22.160800 0.000000
-22.090900 0.000000
-22.021000 0.000000
-21.951100 0.000000
-21.881100 0.000000
-21.811200 0.000000
-21.741300 0.000000
-21.671300 0.000000
-21.601400 0.000000
-21.531500 0.000000
-21.461600 0.000000
-21.391600 0.000000
-21.321700 0.000000
-21.251800 0.000000
-21.181800 0.000000
-21.111900 0.000000
-21.042000 0.000000
-20.972100 0.000000
-20.902100 0.000000
-20.832200 0.000000
-20.762300 0.000000
-20.692300 0.000000
-20.622400 0.000000
-20.552500 0.000000
-20.482600 0.000000
-20.412600 0.000000
-20.342700 0.000000
-20.272800 0.000000
-20.202800 0.000000
-20.132900 0.000000
-20.063000 0.000000
-19.993100 0.000000
-19.923100 0.000000
-19.853200 0.000000
-19.783300 0.000000
-19.713300 0.000000
-19.643400 0.000000
-19.573500 0.000000
-19.503600 0.000000
-19.433600 0.000000
-19.363700 0.000000
-19.293800 0.000000
-19.223800 0.000000
-19.153900 0.000000
-19.084000 0.000000
-19.014100 0.000000
-18.944100 0.000000
-18.874200 0.000000
-18.804300 0.000000
-18.734300 0.000000
-18.664400 0.000000
-18.594500 0.000000
-18.524600 0.000000
-18.454600 0.000000
-18.384700 0.000000
-18.314800 0.000000
-18.244900 0.000000
-18.174900 0.000000
-18.105000 0.000000
-18.035100 0.000000
-17.965100 0.000000
-17.895200 0.000000
-17.825300 0.000000
-17.755400 0.000000
-17.685400 0.000000
-17.615500 0.000000
-17.545600 0.000000
-17.475600 0.000000
-17.405700 0.000000
-17.335800 0.000000
-17.265900 0.000000
-17.195900 0.000000
-17.126000 0.000000
-17.056100 0.000000
-16.986100 0.000000
-16.916200 0.000000
-16.846300 0.000000
-16.776400 0.000000
-16.706400 0.000000
-16.636500 0.000000
-16.566600 0.000000
-16.496600 0.000000
-16.426700 0.000000
-16.356800 0.000000
-16.286900 0.000000
-16.216900 0.000000
-16.147000 0.000000
-16.077100 0.000000
-16.007100 0.000000
-15.937200 0.000000
-15.867300 0.000000
-15.797400 0.000000
-15.727400 0.000000
-15.657500 0.000000
-15.587600 0.000000
-15.517600 0.000000
-15.447700 0.000000
-15.377800 0.000000
-15.307900 0.000000
-15.237900 0.000000
-15.168000 0.000000
-15.098100 0.000000
-15.028100 0.000000
-14.958200 0.000000
-14.888300 0.000000
-14.818400 0.000000
-14.748400 0.000000
-14.678500 0.000000
-14.608600 0.000000
-14.538600 0.000000
-14.468700 0.000000
-14.398800 0.000000
-14.328900 0.000000
-14.258900 0.000000
-14.189000 0.000000
-14.119100 0.000000
-14.049100 0.000000
-13.979200 0.000000
-13.909300 0.000000
-13.839400 0.000000
-13.769400 0.000000
-13.699500 0.000000
-13.629600 0.000000
-13.559600 0.000000
-13.489700 0.000000
-13.419800 0.000000
-13.349900 0.000000
-13.279900 0.000000
-13.210000 0.000000
-13.140100 0.000000
-13.070200 0.000000
-13.000200 0.000000
-12.930300 0.000000
-12.860400 0.000000
-12.790400 0.000000
-12.720500 0.000000
-12.650600 0.000000
-12.580700 0.000000
-12.510700 0.000000
-12.440800 0.000000
-12.370900 0.000000
-12.300900 0.000000
-12.231000 0.000000
-12.161100 0.000000
-12.091200 0.000000
-12.021200 0.000000
-11.951300 0.000000
-11.881400 0.000000
-11.811400 0.000000
-11.741500 0.000000
-11.671600 0.000000
-11.601700 0.000000
-11.531700 0.000000
-11.461800 0.000000
-11.391900 0.000000
-11.321900 0.000000
-11.252000 0.000000
-11.182100 0.000000
-11.112200 0.000000
-11.042200 0.000000
-10.972300 0.000000
-10.902400 0.000000
-10.832400 0.000000
-10.762500 0.000000
-10.692600 0.000000
-10.622700 0.000000
-10.552700 0.000000
-10.482800 0.000000
-10.412900 0.000000
-10.342900 0.000000
-10.273000 0.000000
-10.203100 0.000000
-10.133200 0.000000
-10.063200 0.000000
-9.993300 0.000000
-9.923400 0.000000
-9.853400 0.000000
-9.783500 0.000000
-9.713600 0.000000
-9.643700 0.000000
-9.573700 0.000000
-9.503800 0.000000
-9.433900 0.000000
-9.363900 0.000000
-9.294000 0.000000
-9.224100 0.000000
-9.154200 0.000000
-9.084200 0.000000
-9.014300 0.000000
-8.944400 0.000000
-8.874400 0.000000
-8.804500 0.000000
-8.734600 0.000000
-8.664700 0.000000
-8.594700 0.000000
-8.524800 0.000000
-8.454900 0.000000
-8.384900 0.000000
-8.315000 0.000000
-8.245100 0.000000
-8.175200 0.000000
-8.105200 0.000000
-8.035300 0.000000
-7.965400 0.000000
-7.895500 0.000000
-7.825500 0.000000
-7.755600 0.000000
-7.685700 0.000000
-7.615700 0.000000
-7.545800 0.000000
-7.475900 0.000000
-7.406000 0.000000
-7.336000 0.000000
-7.266100 0.000000
-7.196200 0.000000
-7.126200 0.000000
-7.056300 0.000000
-6.986400 0.000000
-6.916500 0.000000
-6.846500 0.000000
-6.776600 0.000000
-6.706700 0.000000
-6.636700 0.000000
-6.566800 0.000000
-6.496900 0.000000
-6.427000 0.000000
-6.357000 0.000000
-6.287100 0.000000
-6.217200 0.000000
-6.147200 0.000000
-6.077300 0.000000
-6.007400 0.000000
-5.937500 0.000000
-5.867500 0.000000
-5.797600 0.000000
-5.727700 0.000000
-5.657700 0.000000
-5.587800 0.000000
-5.517900 0.000000
-5.448000 0.000000
-5.378000 0.000000
-5.308100 0.000000
-5.238200 0.000000
-5.168200 0.000000
-5.098300 0.000000
-5.028400 0.000000
-4.958500 0.000000
-4.888500 0.000000
-4.818600 0.000000
-4.748700 0.000000
-4.678700 0.000000
-4.608800 0.000000
-4.538900 0.000000
-4.469000 0.000000
-4.399000 0.000000
-4.329100 0.000000
-4.259200 0.000000
-4.189200 0.000000
-4.119300 0.000000
-4.049400 0.000000
-3.979500 0.000000
-3.909500 0.000000
-3.839600 0.000000
-3.769700 0.000000
-3.699700 0.000000
-3.629800 0.000000
-3.559900 0.000000
-3.490000 0.000000
-3.420000 0.000000
-3.350100 0.000000
-3.280200 0.000000
-3.210200 0.000000
-3.140300 0.000000
-3.070400 0.000000
-3.000500 0.000000
-2.930500 0.000000
-2.860600 0.000000
-2.790700 0.000000
-2.720800 0.000000
-2.650800 0.000000
-2.580900 0.000000
-2.511000 0.000000
-2.441000 0.021600
-2.371100 0.053700
-2.301200 0.063900
-2.231300 0.077600
-2.161300 0.091900
-2.091400 0.103300
-2.021500 0.110300
-1.951500 0.119200
-1.881600 0.129000
-1.811700 0.139400
-1.741800 0.149100
-1.671800 0.157100
-1.601900 0.165400
-1.532000 0.173800
-1.462000 0.182200
-1.392100 0.191200
-1.322200 0.200800
-1.252300 0.210800
-1.182300 0.220900
-1.112400 0.230600
-1.042500 0.240700
-0.972500 0.251500
-0.902600 0.263000
-0.832700 0.275000
-0.762800 0.289000
-0.692800 0.305000
-0.622900 0.326700
-0.553000 0.344500
-0.483000 0.355200
-0.413100 0.378600
-0.343200 0.389600
-0.273300 0.408400
-0.203300 0.450900
-0.133400 0.486000
-0.063500 0.529500
0.006500 0.585100
0.076400 0.657700
0.146300 1.170900
0.216200 1.412200
0.286200 1.524600
0.356100 1.682800
0.426000 1.824800
0.496000 2.459700
0.565900 2.898100
0.635800 2.584800
0.705700 2.435700
0.775700 2.466000
0.845600 2.591800
0.915500 2.537100
0.985500 2.604800
1.055400 2.662900
1.125300 2.727500
1.195200 3.039200
1.265200 2.826600
1.335100 3.297600
1.405000 3.850100
1.475000 3.882300
1.544900 3.203400
1.614800 3.580000
1.684700 3.405100
1.754700 3.001200
1.824600 2.817500
1.894500 2.399000
1.964500 2.987300
2.034400 3.972600
2.104300 3.644400
2.174200 4.009500
2.244200 3.859100
2.314100 4.063200
2.384000 3.863100
2.454000 4.059000
2.523900 4.225700
2.593800 5.188600
2.663700 5.322700
2.733700 6.014800
2.803600 8.131700
2.873500 5.975600
2.943400 5.830500
3.013400 7.177500
3.083300 5.937000
3.153200 5.241100
3.223200 5.288300
3.293100 5.318000
3.363000 5.322900
3.432900 5.228300
3.502900 5.885700
3.572800 5.678100
3.642700 5.607200
3.712700 4.585800
3.782600 5.580900
3.852500 6.622200
3.922400 5.798400
3.992400 4.844900
4.062300 4.646800
4.132200 4.825600
4.202200 4.254100
4.272100 5.556000
4.342000 4.781900
4.411900 4.063200
4.481900 4.384600
4.551800 4.376300
4.621700 4.504000
4.691700 4.272100
4.761600 3.972600
4.831500 3.385600
4.901400 2.415700
4.971400 2.148800
5.041300 1.501600
5.111200 1.150500
5.181200 1.059800
5.251100 1.027600
5.321000 0.986100
5.390900 0.794700
5.460900 0.675400
5.530800 0.671600
5.600700 0.669700
5.670700 0.668600
5.740600 0.668000
5.810500 0.664300
5.880400 0.647400
5.950400 0.642800
6.020300 0.641500
6.090200 0.639100
6.160200 0.639700
6.230100 0.642000
6.300000 0.643400
6.369900 0.644700
6.439900 0.646500
6.509800 0.647400
6.579700 0.644800
6.649700 0.633500
6.719600 0.647500
6.789500 0.707200
6.859400 0.608100
6.929400 0.585300
6.999300 0.571500
7.069200 0.562900
7.139200 0.569000
7.209100 0.554900
7.279000 0.540900
7.348900 0.529100
7.418900 0.524300
7.488800 0.517100
7.558700 0.513200
7.628700 0.530100
7.698600 0.514900
7.768500 0.493900
7.838400 0.487700
7.908400 0.487400
7.978300 0.495300
8.048200 0.504900
8.118100 0.500900
8.188100 0.504700
8.258000 0.505600
8.327900 0.502500
8.397900 0.504400
8.467800 0.513100
8.537700 0.518400
8.607600 0.524900
8.677600 0.536900
8.747500 0.604100
8.817400 0.528600
8.887400 0.492400
8.957300 0.475700
9.027200 0.459000
9.097100 0.437700
9.167100 0.423100
9.237000 0.452900
9.306900 0.434700
9.376900 0.407800
9.446800 0.398000
9.516700 0.392100
9.586600 0.389800
9.656600 0.388600
9.726500 0.390300
9.796400 0.395700
9.866400 0.398500
9.936300 0.399800
10.006200 0.399900
10.076100 0.400500
10.146100 0.431500
10.216000 0.452300
10.285900 0.419500
10.355900 0.352000
10.425800 0.327400
10.495700 0.312500
10.565600 0.304400
10.635600 0.336300
10.705500 0.410200
10.775400 0.452200
10.845400 0.502300
10.915300 0.536500
10.985200 0.539400
11.055100 0.523900
11.125100 0.548700
11.195000 0.561500
11.264900 0.588100
11.334900 0.568500
11.404800 0.615500
11.474700 0.574900
11.544600 0.527000
11.614600 0.498700
11.684500 0.482100
11.754400 0.531900
11.824400 0.576300
11.894300 0.590500
11.964200 0.618400
12.034100 0.630300
12.104100 0.622500
12.174000 0.620500
12.243900 0.617800
12.313900 0.623500
12.383800 0.646600
12.453700 0.652100
12.523600 0.669100
12.593600 0.634600
12.663500 0.631300
12.733400 0.638700
12.803400 0.635400
12.873300 0.623600
12.943200 0.606700
13.013100 0.585300
13.083100 0.577800
13.153000 0.564300
13.222900 0.542800
13.292800 0.521900
13.362800 0.511300
13.432700 0.502400
13.502600 0.496600
13.572600 0.490900
13.642500 0.479300
13.712400 0.461800
13.782300 0.452300
13.852300 0.444500
13.922200 0.440000
13.992100 0.430200
14.062100 0.416200
14.132000 0.414300
14.201900 0.416100
14.271800 0.423600
14.341800 0.452600
14.411700 0.491400
14.481600 0.513000
14.551600 0.629500
14.621500 0.735700
14.691400 0.752500
14.761300 0.792300
14.831300 0.849100
14.901200 0.835200
14.971100 0.847300
15.041100 0.835600
15.111000 0.863400
15.180900 0.804900
15.250800 0.788400
15.320800 0.789700
15.390700 0.805300
15.460600 0.947900
15.530600 0.974200
15.600500 0.963200
15.670400 0.944000
15.740300 0.926700
15.810300 0.874700
15.880200 0.845400
15.950100 0.828900
16.020100 0.832700
16.090000 0.810000
16.159900 0.805400
16.229800 0.811300
16.299800 0.812400
16.369700 0.830600
16.439600 0.890400
16.509600 0.876800
16.579500 0.889900
16.649400 0.890000
16.719300 0.854800
16.789300 0.851500
16.859200 0.858300
16.929100 0.873300
16.999100 0.886100
17.069000 0.903600
17.138900 0.926600
17.208800 0.925100
17.278800 0.943600
17.348700 0.932700
17.418600 0.926300
17.488600 0.930900
17.558500 0.940100
17.628400 0.936200
17.698300 0.931500
17.768300 0.931600
17.838200 0.938700
17.908100 0.958700
17.978100 0.976300
18.048000 0.976300
18.117900 0.965500
18.187800 0.959000
18.257800 0.953600
18.327700 0.953600
18.397600 0.942900
18.467500 0.935700
18.537500 0.928300
18.607400 0.928900
18.677300 0.930300
18.747300 0.933700
18.817200 0.941800
18.887100 0.956300
18.957000 0.972000
19.027000 0.992300
19.096900 0.979200
19.166800 0.963000
19.236800 0.950700
19.306700 0.944800
19.376600 0.929200
19.446500 0.911900
19.516500 0.894100
19.586400 0.878400
19.656300 0.869400
19.726300 0.870100
19.796200 0.874400
19.866100 0.882900
19.936000 0.862200
20.006000 0.850200
20.075900 0.842700
20.145800 0.855400
20.215800 0.905800
20.285700 0.765700
20.355600 0.751800
20.425500 0.738600
20.495500 0.730000
20.565400 0.723200
20.635300 0.727100
20.705300 0.740900
20.775200 0.736700
20.845100 0.720700
20.915000 0.730200
20.985000 0.752600
21.054900 0.763000
21.124800 0.786900
21.194800 0.828400
21.264700 0.823600
21.334600 0.827000
21.404500 0.824800
21.474500 0.823500
21.544400 0.835900
21.614300 0.894200
21.684300 0.867100
21.754200 0.884300
21.824100 0.881500
21.894000 0.872400
21.964000 0.865300
22.033900 0.858000
22.103800 0.855100
22.173800 0.859500
22.243700 0.867600
22.313600 0.942900
22.383500 0.885300
22.453500 0.874900
22.523400 0.866400
22.593300 0.864800
22.663300 0.871800
22.733200 0.880100
22.803100 0.886700
22.873000 0.893900
22.943000 0.910500
23.012900 0.936700
23.082800 0.976500
23.152800 0.968300
23.222700 0.956700
23.292600 0.940900
23.362500 0.933000
23.432500 0.928400
23.502400 0.925700
23.572300 0.923500
23.642300 0.928100
23.712200 0.947100
23.782100 0.944700
23.852000 0.934000
23.922000 0.918700
23.991900 0.903500
24.061800 0.878100
24.131700 0.850500
24.201700 0.834900
24.271600 0.819900
24.341500 0.809500
24.411500 0.795100
24.481400 0.785500
24.551300 0.850500
24.621200 0.919800
24.691200 0.962300
24.761100 1.002300
24.831000 1.066800
24.901000 1.104900
24.970900 1.093400
25.040800 1.080000
25.110700 0.955500
25.180700 0.941100
25.250600 0.966800
25.320500 1.070000
25.390500 1.061900
25.460400 1.022100
25.530300 0.980300
25.600200 0.987900
25.670200 1.015300
25.740100 1.063300
25.810000 1.175800
25.880000 1.294100
25.949900 1.283600
26.019800 1.235900
26.089700 1.212800
26.159700 1.223700
26.229600 1.272200
26.299500 1.266700
26.369500 1.281000
26.439400 1.348500
26.509300 1.385400
26.579200 1.459500
26.649200 1.478500
26.719100 1.488200
26.789000 1.505400
26.859000 1.556100
26.928900 1.660800
26.998800 1.761800
27.068700 1.927600
27.138700 2.269400
27.208600 2.864000
27.278500 6.507600
27.348500 41.213100
27.418400 3.379700
27.488300 2.440000
27.558200 2.000100
27.628200 1.743900
27.698100 1.589500
27.768000 1.475100
27.838000 1.378100
27.907900 1.315400
27.977800 1.274800
28.047700 1.253200
28.117700 1.239000
28.187600 1.237300
28.257500 1.233800
28.327500 1.220700
28.397400 1.159400
28.467300 1.086000
28.537200 1.034000
28.607200 0.985800
28.677100 0.944800
28.747000 0.895800
28.817000 0.853300
28.886900 0.807400
28.956800 0.795400
29.026700 0.779700
29.096700 0.772900
29.166600 0.772700
29.236500 0.779100
29.306400 0.758800
29.376400 0.750700
29.446300 0.742700
29.516200 0.738200
29.586200 0.739300
29.656100 0.743200
29.726000 0.767500
29.795900 0.771300
29.865900 0.800400
29.935800 0.843300
30.005700 0.905200
30.075700 0.786100
30.145600 0.762700
30.215500 0.761100
30.285400 0.738800
30.355400 0.688400
30.425300 0.658100
30.495200 0.648500
30.565200 0.670100
30.635100 0.646300
30.705000 0.642900
30.774900 0.661300
30.844900 0.743300
30.914800 0.825200
30.984700 0.895700
31.054700 0.910800
31.124600 0.932900
31.194500 0.962300
31.264400 0.996100
31.334400 1.039000
31.404300 1.073300
31.474200 1.013700
31.544200 0.963200
31.614100 0.948400
31.684000 0.962100
31.753900 1.072400
31.823900 1.020400
31.893800 1.030600
31.963700 1.075800
32.033700 1.121900
32.103600 1.169700
32.173500 1.301700
32.243400 1.435300
32.313400 1.535700
32.383300 1.594700
32.453200 1.597200
32.523200 1.561700
32.593100 1.464400
32.663000 1.427900
32.732900 1.256800
32.802900 1.211700
32.872800 1.180800
32.942700 1.133100
33.012700 1.140100
33.082600 1.123800
33.152500 1.032100
33.222400 0.957800
33.292400 0.953900
33.362300 0.948100
33.432200 0.972600
33.502200 0.997500
33.572100 1.039200
33.642000 1.083500
33.711900 1.147600
33.781900 1.198000
33.851800 1.258700
33.921700 1.233400
33.991700 1.179300
34.061600 1.147400
34.131500 1.119500
34.201400 1.036100
34.271400 0.996600
34.341300 0.986600
34.411200 0.982700
34.481100 0.989600
34.551100 1.008700
34.621000 1.059800
34.690900 1.124000
34.760900 1.188800
34.830800 1.242400
34.900700 1.268100
34.970600 1.262200
35.040600 1.239600
35.110500 1.220600
35.180400 1.194800
35.250400 1.169500
35.320300 1.229100
35.390200 1.240300
35.460100 1.218300
35.530100 1.173200
35.600000 1.182600
35.669900 1.203500
35.739900 1.234800
35.809800 1.223800
35.879700 1.253200
35.949600 1.321000
36.019600 1.375500
36.089500 1.370700
36.159400 1.323400
36.229400 1.312800
36.299300 1.362100
36.369200 1.349000
36.439100 1.330000
36.509100 1.281200
36.579000 1.259200
36.648900 1.242600
36.718900 1.215200
36.788800 1.185200
36.858700 1.174200
36.928600 1.197300
36.998600 1.223500
37.068500 1.238200
37.138400 1.257600
37.208400 1.208800
37.278300 1.200300
37.348200 1.186400
37.418100 1.206500
37.488100 1.242500
37.558000 1.260500
37.627900 1.283300
37.697900 1.278400
37.767800 1.232100
37.837700 1.246700
37.907600 1.148000
37.977600 1.140700
38.047500 1.173300
38.117400 1.176500
38.187400 1.196600
38.257300 1.200600
38.327200 1.216400
38.397100 1.236000
38.467100 1.322200
38.537000 1.387800
38.606900 1.446500
38.676900 1.538300
38.746800 1.747300
38.816700 1.806400
38.886600 1.918900
38.956600 2.094200
39.026500 2.337800
39.096400 2.731900
39.166400 3.500100
39.236300 4.573100
39.306200 5.245600
39.376100 3.717500
39.446100 2.644200
39.516000 2.372000
39.585900 2.330100
39.655800 2.191800
39.725800 2.012700
39.795700 1.838300
39.865600 1.719600
39.935600 1.647000
40.005500 1.570400
40.075400 1.486000
40.145300 1.422600
40.215300 1.408500
40.285200 1.375400
40.355100 1.361800
40.425100 1.333400
40.495000 1.351800
40.564900 1.360600
40.634800 1.333900
40.704800 1.306700
40.774700 1.298600
40.844600 1.306100
40.914600 1.304300
40.984500 1.294900
41.054400 1.292200
41.124300 1.287000
41.194300 1.271100
41.264200 1.270000
41.334100 1.294100
41.404100 1.292300
41.474000 1.306000
41.543900 1.344400
41.613800 1.370900
41.683800 1.384400
41.753700 1.420600
41.823600 1.419500
41.893600 1.359000
41.963500 1.310100
42.033400 1.279300
42.103300 1.269800
42.173300 1.251400
42.243200 1.256000
42.313100 1.249800
42.383100 1.230600
42.453000 1.233600
42.522900 1.267700
42.592800 1.327400
42.662800 1.401200
42.732700 1.463400
42.802600 1.495200
42.872600 1.500500
42.942500 1.457000
43.012400 1.412000
43.082300 1.385300
43.152300 1.362300
43.222200 1.361900
43.292100 1.367400
43.362100 1.389600
43.432000 1.404800
43.501900 1.372200
43.571800 1.336200
43.641800 1.323200
43.711700 1.325400
43.781600 1.373700
43.851600 1.411700
43.921500 1.416600
43.991400 1.395600
44.061300 1.374400
44.131300 1.365700
44.201200 1.383200
44.271100 1.437400
44.341100 1.524900
44.411000 1.617800
44.480900 1.581500
44.550800 1.631300
44.620800 1.689300
44.690700 1.743500
44.760600 1.744900
44.830600 1.709100
44.900500 1.609400
44.970400 1.499200
45.040300 1.431300
45.110300 1.399100
45.180200 1.380900
45.250100 1.392100
45.320000 1.420300
45.390000 1.345500
45.459900 1.350900
45.529800 1.375600
45.599800 1.363600
45.669700 1.402500
45.739600 1.346000
45.809500 1.349200
45.879500 1.356200
45.949400 1.421800
46.019300 1.451700
46.089300 1.442700
46.159200 1.489600
46.229100 1.488200
46.299000 1.443400
46.369000 1.454900
46.438900 1.442200
46.508800 1.505600
46.578800 1.357200
46.648700 1.319800
46.718600 1.309900
46.788500 1.331700
46.858500 1.352500
46.928400 1.348700
46.998300 1.337900
47.068300 1.337400
47.138200 1.315500
47.208100 1.322600
47.278000 1.333600
47.348000 1.340900
47.417900 1.365100
47.487800 1.383900
47.557800 1.389500
47.627700 1.389400
47.697600 1.384400
47.767500 1.370700
47.837500 1.426800
47.907400 1.445000
47.977300 1.393200
48.047300 1.386600
48.117200 1.414700
48.187100 1.416300
48.257000 1.462500
48.327000 1.462100
48.396900 1.478400
48.466800 1.445700
48.536800 1.445200
48.606700 1.378200
48.676600 1.368200
48.746500 1.359000
48.816500 1.333700
48.886400 1.319300
48.956300 1.326300
49.026300 1.379100
49.096200 1.344500
49.166100 1.341200
49.236000 1.378000
49.306000 1.470500
49.375900 1.471900
49.445800 1.444700
49.515800 1.393100
49.585700 1.397400
49.655600 1.399700
49.725500 1.416300
49.795500 1.403400
49.865400 1.311500
49.935300 1.194300
50.005300 1.126900
50.075200 1.113900
50.145100 1.140500
50.215000 1.194800
50.285000 1.274800
50.354900 1.309000
50.424800 1.318200
50.494700 1.321600
50.564700 1.337100
50.634600 1.361800
50.704500 1.401600
50.774500 1.366900
50.844400 1.348300
50.914300 1.302700
50.984200 1.291300
51.054200 1.300900
51.124100 1.304800
51.194000 1.294500
51.264000 1.296500
51.333900 1.272500
51.403800 1.270600
51.473700 1.272300
51.543700 1.315400
51.613600 1.336300
51.683500 1.372000
51.753500 1.396800
51.823400 1.376300
51.893300 1.329200
51.963200 1.325800
52.033200 1.364400
52.103100 1.474000
52.173000 1.559500
52.243000 1.481000
52.312900 1.450800
52.382800 1.455300
52.452700 1.448400
52.522700 1.448500
52.592600 1.473300
52.662500 1.485600
52.732500 1.513000
52.802400 1.516700
52.872300 1.446400
52.942200 1.401700
53.012200 1.383400
53.082100 1.353900
53.152000 1.300000
53.222000 1.271000
53.291900 1.241200
53.361800 1.266300
53.431700 1.319400
53.501700 1.379500
53.571600 1.442700
53.641500 1.605900
53.711500 1.651100
53.781400 1.763200
53.851300 1.906000
53.921200 1.866600
53.991200 1.763500
54.061100 1.650400
54.131000 1.671800
54.201000 1.675700
54.270900 1.621600
54.340800 1.612700
54.410700 1.599300
54.480700 1.582300
54.550600 1.572600
54.620500 1.660300
54.690500 1.625900
54.760400 1.597700
54.830300 1.575900
54.900200 1.551900
54.970200 1.558100
55.040100 1.571600
55.110000 1.626300
55.180000 1.663500
55.249900 1.708900
55.319800 1.670700
55.389700 1.653700
55.459700 1.764700
55.529600 1.621700
55.599500 1.520100
55.669400 1.548400
55.739400 1.574200
55.809300 1.598500
55.879200 1.650900
55.949200 1.703500
56.019100 1.763200
56.089000 1.805200
56.158900 1.876700
56.228900 1.909100
56.298800 1.937400
56.368700 2.027500
56.438700 2.149700
56.508600 2.190000
56.578500 2.190600
56.648400 2.217600
56.718400 2.251800
56.788300 2.267500
56.858200 2.180800
56.928200 2.315800
56.998100 2.188400
57.068000 2.155200
57.137900 1.999400
57.207900 1.941800
57.277800 1.969300
57.347700 2.036400
57.417700 2.083100
57.487600 2.148900
57.557500 2.268400
57.627400 2.292600
57.697400 2.239000
57.767300 2.148900
57.837200 2.085000
57.907200 1.851300
57.977100 1.779900
58.047000 1.841900
58.116900 1.939700
58.186900 1.883700
58.256800 1.923700
58.326700 1.934000
58.396700 1.967400
58.466600 1.835800
58.536500 1.747300
58.606400 1.646000
58.676400 1.516100
58.746300 1.354000
58.816200 1.262600
58.886200 1.217800
58.956100 1.271100
59.026000 1.393000
59.095900 1.419500
59.165900 1.447100
59.235800 1.502100
59.305700 1.517300
59.375700 1.317200
59.445600 1.227300
59.515500 1.127600
59.585400 1.036800
59.655400 0.962400
59.725300 0.893600
59.795200 0.849100
59.865200 0.770300
59.935100 0.723200
60.005000 0.680300
60.074900 0.645600
60.144900 0.618600
60.214800 0.594800
60.284700 0.573700
60.354700 0.550900
60.424600 0.528900
60.494500 0.503400
60.564400 0.481300
60.634400 0.435000
60.704300 0.404100
60.774200 0.380800
60.844100 0.362700
60.914100 0.345100
60.984000 0.324500
61.053900 0.304600
61.123900 0.295900
61.193800 0.259500
61.263700 0.192000
61.333600 0.161900
61.403600 0.135900
61.473500 0.116800
61.543400 0.100100
61.613400 0.087800
61.683300 0.083900
61.753200 0.070600
61.823100 0.073700
61.893100 0.065800
61.963000 0.063500
62.032900 0.062100
62.102900 0.061100
62.172800 0.061000
62.242700 0.061100
62.312600 0.060800
62.382600 0.060200
62.452500 0.055700
62.522400 0.051500
62.592400 0.078000
62.662300 0.061600
62.732200 0.038000
62.802100 0.021900
62.872100 0.015300
62.942000 0.009900
63.011900 0.005700
63.081900 0.002600
63.151800 0.000700
63.221700 0.000000
63.291600 0.000000
63.361600 0.000000
63.431500 0.000000
63.501400 0.000000
63.571400 0.000000
63.641300 0.000000
63.711200 0.000000
63.781100 0.000000
63.851100 0.000000
63.921000 0.000000
63.990900 0.000000
64.060900 0.000000
64.130800 0.000000
64.200700 0.000000
64.270600 0.000000
64.340600 0.000000
64.410500 0.000000
64.480400 0.000000
64.550400 0.000000
64.620300 0.000000
64.690200 0.000000
64.760100 0.000000
64.830100 0.000000
64.900000 0.000000
64.969900 0.000000
65.039900 0.000000
65.109800 0.000000
65.179700 0.000000
65.249600 0.000000
65.319600 0.000000
65.389500 0.000000
65.459400 0.000000
65.529400 0.000000
65.599300 0.000000
65.669200 0.000000
65.739100 0.000000
65.809100 0.000000
65.879000 0.000000
65.948900 0.000000
66.018900 0.000000
66.088800 0.000000
66.158700 0.000000
66.228600 0.000000
66.298600 0.000000
66.368500 0.000000
66.438400 0.000000
66.508300 0.000000
66.578300 0.000000
66.648200 0.000000
66.718100 0.000000
66.788100 0.000000
66.858000 0.000000
66.927900 0.000000
66.997800 0.000000
67.067800 0.000000
67.137700 0.000000
67.207600 0.000000
67.277600 0.000000
67.347500 0.000000
67.417400 0.000000
67.487300 0.000000
67.557300 0.000000
67.627200 0.000000
67.697100 0.000000
67.767100 0.000000
67.837000 0.000000
67.906900 0.000000
67.976800 0.000000
68.046800 0.000000
68.116700 0.000000
68.186600 0.000000
68.256600 0.000000
68.326500 0.000000
68.396400 0.000000
68.466300 0.000000
68.536300 0.000000
68.606200 0.000000
68.676100 0.000000
68.746100 0.000000
68.816000 0.000000
68.885900 0.000000
68.955800 0.000000
69.025800 0.000000
69.095700 0.000000
69.165600 0.000000
69.235600 0.000000
69.305500 0.000000
69.375400 0.000000
69.445300 0.000000
69.515300 0.000000
69.585200 0.000000
e
