set title 'mp-990084 - Density of States'
set xlabel 'Energy (eV)'
set ylabel 'DOS (states/eV)'
set grid
set xrange [-10:10]
set yrange [0:13.839]
set xzeroaxis lt -1
set terminal png size 800,600
set output 'mp-990084_dos_gnuplot.png'
plot '-' using 1:2 with lines title 'DOS'
-26.192800 0.000000
-26.162900 0.000000
-26.133100 0.000000
-26.103300 0.000000
-26.073400 0.000000
-26.043600 0.000000
-26.013800 0.000000
-25.983900 0.000000
-25.954100 0.000000
-25.924200 0.000000
-25.894400 0.000000
-25.864600 0.000000
-25.834700 0.000000
-25.804900 0.000000
-25.775000 0.000000
-25.745200 0.000000
-25.715400 0.000000
-25.685500 0.000000
-25.655700 0.000000
-25.625800 0.000000
-25.596000 0.000000
-25.566200 0.000000
-25.536300 0.000000
-25.506500 0.000000
-25.476700 0.000000
-25.446800 0.000000
-25.417000 0.000000
-25.387100 0.000000
-25.357300 0.000000
-25.327500 0.000000
-25.297600 0.000000
-25.267800 0.000000
-25.237900 0.000000
-25.208100 0.000000
-25.178300 0.000000
-25.148400 0.000000
-25.118600 0.000000
-25.088800 0.000000
-25.058900 0.000000
-25.029100 0.000000
-24.999200 0.000000
-24.969400 0.000000
-24.939600 0.000000
-24.909700 0.000000
-24.879900 0.000000
-24.850000 0.000000
-24.820200 0.000000
-24.790400 0.000000
-24.760500 0.000000
-24.730700 0.000000
-24.700900 0.000000
-24.671000 0.000000
-24.641200 0.000000
-24.611300 0.000000
-24.581500 0.000000
-24.551700 0.000000
-24.521800 0.000000
-24.492000 0.000000
-24.462100 0.000000
-24.432300 0.000000
-24.402500 0.000000
-24.372600 0.000000
-24.342800 0.000000
-24.313000 0.000000
-24.283100 0.000000
-24.253300 0.000000
-24.223400 0.000000
-24.193600 0.000000
-24.163800 0.000000
-24.133900 0.000000
-24.104100 0.000000
-24.074200 0.000000
-24.044400 0.000000
-24.014600 0.000000
-23.984700 0.000000
-23.954900 0.000000
-23.925100 0.000000
-23.895200 0.000000
-23.865400 0.000000
-23.835500 0.000000
-23.805700 0.000000
-23.775900 0.000000
-23.746000 0.000000
-23.716200 0.000000
-23.686300 0.000000
-23.656500 0.000000
-23.626700 0.000000
-23.596800 0.000000
-23.567000 0.000000
-23.537200 0.000000
-23.507300 0.000000
-23.477500 256.936900
-23.447600 208.701300
-23.417800 0.000000
-23.388000 0.000000
-23.358100 0.000000
-23.328300 0.000000
-23.298400 0.000000
-23.268600 0.000000
-23.238800 0.000000
-23.208900 0.000000
-23.179100 0.000000
-23.149300 0.000000
-23.119400 0.000000
-23.089600 0.000000
-23.059700 0.000000
-23.029900 0.000000
-23.000100 0.000000
-22.970200 0.000000
-22.940400 0.000000
-22.910500 0.000000
-22.880700 0.000000
-22.850900 0.000000
-22.821000 0.000000
-22.791200 0.000000
-22.761400 0.000000
-22.731500 0.000000
-22.701700 0.000000
-22.671800 0.000000
-22.642000 0.000000
-22.612200 0.000000
-22.582300 0.000000
-22.552500 0.000000
-22.522600 0.000000
-22.492800 0.000000
-22.463000 0.000000
-22.433100 0.000000
-22.403300 0.000000
-22.373400 0.000000
-22.343600 0.000000
-22.313800 0.000000
-22.283900 0.000000
-22.254100 0.000000
-22.224300 0.000000
-22.194400 0.000000
-22.164600 0.000000
-22.134700 0.000000
-22.104900 0.000000
-22.075100 0.000000
-22.045200 0.000000
-22.015400 0.000000
-21.985500 0.000000
-21.955700 0.000000
-21.925900 0.000000
-21.896000 0.000000
-21.866200 0.000000
-21.836400 0.000000
-21.806500 0.000000
-21.776700 0.000000
-21.746800 0.000000
-21.717000 0.000000
-21.687200 0.000000
-21.657300 0.000000
-21.627500 0.000000
-21.597600 0.000000
-21.567800 0.000000
-21.538000 0.000000
-21.508100 0.000000
-21.478300 0.000000
-21.448500 0.000000
-21.418600 0.000000
-21.388800 0.000000
-21.358900 0.000000
-21.329100 0.000000
-21.299300 0.000000
-21.269400 0.000000
-21.239600 0.000000
-21.209700 0.000000
-21.179900 0.000000
-21.150100 0.000000
-21.120200 0.000000
-21.090400 0.000000
-21.060600 0.000000
-21.030700 0.000000
-21.000900 0.000000
-20.971000 0.000000
-20.941200 0.000000
-20.911400 0.000000
-20.881500 0.000000
-20.851700 0.000000
-20.821800 0.000000
-20.792000 0.000000
-20.762200 0.000000
-20.732300 0.000000
-20.702500 0.000000
-20.672700 0.000000
-20.642800 0.000000
-20.613000 0.000000
-20.583100 0.000000
-20.553300 0.000000
-20.523500 0.000000
-20.493600 0.000000
-20.463800 0.000000
-20.433900 0.000000
-20.404100 0.000000
-20.374300 0.000000
-20.344400 0.000000
-20.314600 0.000000
-20.284800 0.000000
-20.254900 0.000000
-20.225100 0.000000
-20.195200 0.000000
-20.165400 0.000000
-20.135600 0.000000
-20.105700 0.000000
-20.075900 0.000000
-20.046000 0.000000
-20.016200 0.000000
-19.986400 0.000000
-19.956500 0.000000
-19.926700 0.000000
-19.896900 0.000000
-19.867000 0.000000
-19.837200 0.000000
-19.807300 0.000000
-19.777500 0.000000
-19.747700 0.000000
-19.717800 0.000000
-19.688000 0.000000
-19.658100 0.000000
-19.628300 0.000000
-19.598500 0.000000
-19.568600 0.000000
-19.538800 0.000000
-19.509000 0.000000
-19.479100 0.000000
-19.449300 0.000000
-19.419400 0.000000
-19.389600 0.000000
-19.359800 0.000000
-19.329900 0.000000
-19.300100 0.000000
-19.270200 0.000000
-19.240400 0.000000
-19.210600 0.000000
-19.180700 0.000000
-19.150900 0.000000
-19.121100 0.000000
-19.091200 0.000000
-19.061400 0.000000
-19.031500 0.000000
-19.001700 0.000000
-18.971900 0.000000
-18.942000 0.000000
-18.912200 0.000000
-18.882300 0.000000
-18.852500 0.000000
-18.822700 0.000000
-18.792800 0.000000
-18.763000 0.000000
-18.733100 0.000000
-18.703300 0.000000
-18.673500 0.000000
-18.643600 0.000000
-18.613800 0.000000
-18.584000 0.000000
-18.554100 0.000000
-18.524300 0.000000
-18.494400 0.000000
-18.464600 0.000000
-18.434800 0.000000
-18.404900 0.000000
-18.375100 0.000000
-18.345200 0.000000
-18.315400 0.000000
-18.285600 0.000000
-18.255700 0.000000
-18.225900 0.000000
-18.196100 0.000000
-18.166200 0.000000
-18.136400 0.000000
-18.106500 0.000000
-18.076700 0.000000
-18.046900 0.000000
-18.017000 0.000000
-17.987200 0.000000
-17.957300 0.000000
-17.927500 0.000000
-17.897700 0.000000
-17.867800 0.000000
-17.838000 0.000000
-17.808200 0.000000
-17.778300 0.000000
-17.748500 0.000000
-17.718600 0.000000
-17.688800 0.000000
-17.659000 0.000000
-17.629100 0.000000
-17.599300 0.000000
-17.569400 0.000000
-17.539600 0.000000
-17.509800 0.000000
-17.479900 0.000000
-17.450100 0.000000
-17.420300 0.000000
-17.390400 0.000000
-17.360600 0.000000
-17.330700 0.000000
-17.300900 0.000000
-17.271100 0.000000
-17.241200 0.000000
-17.211400 0.000000
-17.181500 0.000000
-17.151700 0.000000
-17.121900 0.000000
-17.092000 0.000000
-17.062200 0.000000
-17.032400 0.000000
-17.002500 0.000000
-16.972700 0.000000
-16.942800 0.000000
-16.913000 0.000000
-16.883200 0.000000
-16.853300 0.000000
-16.823500 0.000000
-16.793600 0.000000
-16.763800 0.000000
-16.734000 0.000000
-16.704100 0.000000
-16.674300 0.000000
-16.644500 0.000000
-16.614600 0.000000
-16.584800 0.000000
-16.554900 0.000000
-16.525100 0.000000
-16.495300 0.000000
-16.465400 0.000000
-16.435600 0.000000
-16.405700 0.000000
-16.375900 0.000000
-16.346100 0.000000
-16.316200 0.000000
-16.286400 0.000000
-16.256600 0.000000
-16.226700 0.000000
-16.196900 0.000000
-16.167000 0.000000
-16.137200 0.000000
-16.107400 0.000000
-16.077500 0.000000
-16.047700 0.000000
-16.017800 0.000000
-15.988000 0.000000
-15.958200 0.000000
-15.928300 0.000000
-15.898500 0.000000
-15.868700 0.000000
-15.838800 0.000000
-15.809000 0.000000
-15.779100 0.000000
-15.749300 0.000000
-15.719500 0.000000
-15.689600 0.000000
-15.659800 0.000000
-15.629900 0.000000
-15.600100 0.000000
-15.570300 0.000000
-15.540400 0.000000
-15.510600 0.000000
-15.480800 0.000000
-15.450900 0.000000
-15.421100 0.000000
-15.391200 0.000000
-15.361400 0.000000
-15.331600 0.000000
-15.301700 0.000000
-15.271900 0.000000
-15.242000 0.000000
-15.212200 0.000000
-15.182400 0.000000
-15.152500 0.000000
-15.122700 0.000000
-15.092800 0.000000
-15.063000 0.000000
-15.033200 0.000000
-15.003300 3.476500
-14.973500 4.360500
-14.943700 4.781800
-14.913800 5.654600
-14.884000 6.606200
-14.854100 9.241300
-14.824300 15.225300
-14.794500 18.077600
-14.764600 0.000000
-14.734800 0.000000
-14.704900 0.000000
-14.675100 0.000000
-14.645300 0.000000
-14.615400 0.000000
-14.585600 0.000000
-14.555800 0.000000
-14.525900 0.000000
-14.496100 0.000000
-14.466200 0.000000
-14.436400 0.000000
-14.406600 0.000000
-14.376700 0.000000
-14.346900 0.000000
-14.317000 0.000000
-14.287200 0.000000
-14.257400 0.000000
-14.227500 0.000000
-14.197700 0.000000
-14.167900 0.000000
-14.138000 0.000000
-14.108200 0.000000
-14.078300 0.000000
-14.048500 0.000000
-14.018700 0.000000
-13.988800 0.000000
-13.959000 0.000000
-13.929100 0.000000
-13.899300 0.000000
-13.869500 0.000000
-13.839600 0.000000
-13.809800 0.000000
-13.780000 0.000000
-13.750100 0.000000
-13.720300 0.000000
-13.690400 0.000000
-13.660600 0.000000
-13.630800 0.000000
-13.600900 0.000000
-13.571100 0.000000
-13.541200 0.000000
-13.511400 0.000000
-13.481600 0.000000
-13.451700 0.000000
-13.421900 0.000000
-13.392100 0.000000
-13.362200 0.000000
-13.332400 0.000000
-13.302500 0.000000
-13.272700 0.000000
-13.242900 0.000000
-13.213000 0.000000
-13.183200 0.000000
-13.153300 0.000000
-13.123500 0.000000
-13.093700 0.000000
-13.063800 0.000000
-13.034000 0.000000
-13.004200 0.000000
-12.974300 0.000000
-12.944500 0.000000
-12.914600 0.000000
-12.884800 0.000000
-12.855000 0.000000
-12.825100 0.000000
-12.795300 0.000000
-12.765400 0.000000
-12.735600 0.000000
-12.705800 0.000000
-12.675900 0.000000
-12.646100 0.000000
-12.616300 0.000000
-12.586400 0.000000
-12.556600 0.000000
-12.526700 0.000000
-12.496900 0.000000
-12.467100 0.000000
-12.437200 0.000000
-12.407400 0.000000
-12.377500 0.000000
-12.347700 0.000000
-12.317900 0.000000
-12.288000 0.000000
-12.258200 0.000000
-12.228400 0.000000
-12.198500 0.000000
-12.168700 0.000000
-12.138800 0.000000
-12.109000 0.000000
-12.079200 0.000000
-12.049300 0.000000
-12.019500 0.000000
-11.989600 0.000000
-11.959800 0.000000
-11.930000 0.000000
-11.900100 0.000000
-11.870300 0.000000
-11.840400 0.000000
-11.810600 0.000000
-11.780800 0.000000
-11.750900 0.000000
-11.721100 0.000000
-11.691300 0.000000
-11.661400 0.000000
-11.631600 0.000000
-11.601700 0.000000
-11.571900 0.000000
-11.542100 0.000000
-11.512200 0.000000
-11.482400 0.000000
-11.452500 0.000000
-11.422700 0.000000
-11.392900 0.000000
-11.363000 0.000000
-11.333200 0.000000
-11.303400 0.000000
-11.273500 0.000000
-11.243700 0.000000
-11.213800 0.000000
-11.184000 0.000000
-11.154200 0.000000
-11.124300 0.000000
-11.094500 0.000000
-11.064600 0.000000
-11.034800 0.000000
-11.005000 0.000000
-10.975100 0.000000
-10.945300 0.000000
-10.915500 0.000000
-10.885600 0.000000
-10.855800 0.000000
-10.825900 0.000000
-10.796100 0.000000
-10.766300 0.000000
-10.736400 0.000000
-10.706600 0.000000
-10.676700 0.000000
-10.646900 0.000000
-10.617100 0.000000
-10.587200 0.000000
-10.557400 0.000000
-10.527600 0.000000
-10.497700 0.000000
-10.467900 0.000000
-10.438000 0.000000
-10.408200 0.000000
-10.378400 0.000000
-10.348500 0.000000
-10.318700 0.000000
-10.288800 0.000000
-10.259000 0.000000
-10.229200 0.000000
-10.199300 0.000000
-10.169500 0.000000
-10.139700 0.000000
-10.109800 0.000000
-10.080000 0.000000
-10.050100 0.000000
-10.020300 0.000000
-9.990500 0.000000
-9.960600 0.000000
-9.930800 0.000000
-9.900900 0.000000
-9.871100 0.000000
-9.841300 0.000000
-9.811400 0.000000
-9.781600 0.000000
-9.751800 0.000000
-9.721900 0.000000
-9.692100 0.000000
-9.662200 0.000000
-9.632400 0.000000
-9.602600 0.000000
-9.572700 0.000000
-9.542900 0.000000
-9.513000 0.000000
-9.483200 0.000000
-9.453400 0.000000
-9.423500 0.000000
-9.393700 0.000000
-9.363900 0.000000
-9.334000 0.000000
-9.304200 0.000000
-9.274300 0.000000
-9.244500 0.000000
-9.214700 0.000000
-9.184800 0.000000
-9.155000 0.000000
-9.125100 0.000000
-9.095300 0.000000
-9.065500 0.000000
-9.035600 0.000000
-9.005800 0.000000
-8.976000 0.000000
-8.946100 0.000000
-8.916300 0.000000
-8.886400 0.000000
-8.856600 0.000000
-8.826800 0.000000
-8.796900 0.000000
-8.767100 0.000000
-8.737200 0.000000
-8.707400 0.000000
-8.677600 0.000000
-8.647700 0.000000
-8.617900 0.000000
-8.588100 0.000000
-8.558200 0.000000
-8.528400 0.000000
-8.498500 0.000000
-8.468700 0.000000
-8.438900 0.000000
-8.409000 0.000000
-8.379200 0.000000
-8.349300 0.000000
-8.319500 0.000000
-8.289700 0.000000
-8.259800 0.000000
-8.230000 0.000000
-8.200100 0.000000
-8.170300 0.000000
-8.140500 0.000000
-8.110600 0.000000
-8.080800 0.000000
-8.051000 0.000000
-8.021100 0.000000
-7.991300 0.000000
-7.961400 0.000000
-7.931600 0.000000
-7.901800 0.000000
-7.871900 0.000000
-7.842100 0.000000
-7.812200 0.000000
-7.782400 0.000000
-7.752600 0.000000
-7.722700 0.000000
-7.692900 0.000000
-7.663100 0.000000
-7.633200 0.000000
-7.603400 0.000000
-7.573500 0.000000
-7.543700 0.000000
-7.513900 0.000000
-7.484000 0.000000
-7.454200 0.000000
-7.424300 0.000000
-7.394500 0.000000
-7.364700 0.000000
-7.334800 0.000000
-7.305000 0.000000
-7.275200 0.000000
-7.245300 0.000000
-7.215500 0.000000
-7.185600 0.000000
-7.155800 0.000000
-7.126000 0.000000
-7.096100 0.000000
-7.066300 0.000000
-7.036400 0.000000
-7.006600 0.000000
-6.976800 0.000000
-6.946900 0.000000
-6.917100 0.000000
-6.887300 0.000000
-6.857400 0.000000
-6.827600 0.000000
-6.797700 0.000000
-6.767900 0.000000
-6.738100 0.000000
-6.708200 0.000000
-6.678400 0.000000
-6.648500 0.000000
-6.618700 0.000000
-6.588900 0.000000
-6.559000 0.000000
-6.529200 0.000000
-6.499400 0.000000
-6.469500 0.000000
-6.439700 0.000000
-6.409800 0.000000
-6.380000 0.000000
-6.350200 0.000000
-6.320300 0.000000
-6.290500 0.000000
-6.260600 0.000000
-6.230800 0.000000
-6.201000 0.000000
-6.171100 0.000000
-6.141300 0.000000
-6.111500 0.000000
-6.081600 0.000000
-6.051800 0.000000
-6.021900 0.000000
-5.992100 0.000000
-5.962300 0.000000
-5.932400 0.000000
-5.902600 0.000000
-5.872700 0.000000
-5.842900 0.000000
-5.813100 0.000000
-5.783200 0.000000
-5.753400 0.000000
-5.723600 0.000000
-5.693700 0.000000
-5.663900 0.000000
-5.634000 0.000000
-5.604200 0.000000
-5.574400 0.000000
-5.544500 0.000000
-5.514700 0.000000
-5.484800 0.000000
-5.455000 0.000000
-5.425200 0.000000
-5.395300 0.000000
-5.365500 0.000000
-5.335700 0.000000
-5.305800 0.000000
-5.276000 0.000000
-5.246100 0.000000
-5.216300 0.000000
-5.186500 0.000000
-5.156600 0.000000
-5.126800 0.000000
-5.096900 0.000000
-5.067100 0.000000
-5.037300 0.000000
-5.007400 0.000000
-4.977600 0.000000
-4.947700 0.000000
-4.917900 0.000000
-4.888100 0.000000
-4.858200 0.000000
-4.828400 0.000000
-4.798600 0.000000
-4.768700 0.000000
-4.738900 0.000000
-4.709000 0.000000
-4.679200 0.000000
-4.649400 0.000000
-4.619500 0.000000
-4.589700 0.000000
-4.559800 0.000000
-4.530000 0.000000
-4.500200 0.000000
-4.470300 0.000000
-4.440500 0.000000
-4.410700 0.000000
-4.380800 0.000000
-4.351000 0.000000
-4.321100 0.000000
-4.291300 0.000000
-4.261500 0.000000
-4.231600 0.000000
-4.201800 0.000000
-4.171900 0.000000
-4.142100 0.000000
-4.112300 0.000000
-4.082400 2.140200
-4.052600 2.542000
-4.022800 2.943800
-3.992900 3.280300
-3.963100 3.207900
-3.933200 3.636300
-3.903400 4.068400
-3.873600 4.552400
-3.843700 4.227800
-3.813900 2.641000
-3.784000 2.894100
-3.754200 3.334200
-3.724400 3.633500
-3.694500 3.996700
-3.664700 4.340400
-3.634900 5.899400
-3.605000 3.653300
-3.575200 2.158100
-3.545300 0.011200
-3.515500 12.581000
-3.485700 3.855900
-3.455800 6.364300
-3.426000 8.092200
-3.396100 7.853300
-3.366300 10.660100
-3.336500 12.370600
-3.306600 5.484500
-3.276800 6.406300
-3.247000 3.627700
-3.217100 2.377600
-3.187300 2.409300
-3.157400 2.440900
-3.127600 2.472600
-3.097800 2.567600
-3.067900 2.652600
-3.038100 2.737600
-3.008200 2.822600
-2.978400 3.457200
-2.948600 4.558800
-2.918700 5.181100
-2.888900 5.884900
-2.859100 4.276500
-2.829200 3.627000
-2.799400 3.226100
-2.769500 2.825200
-2.739700 3.191100
-2.709900 2.975700
-2.680000 2.502600
-2.650200 2.913800
-2.620300 2.253700
-2.590500 2.782000
-2.560700 0.000000
-2.530800 0.000000
-2.501000 0.000000
-2.471200 0.000000
-2.441300 0.000000
-2.411500 0.000000
-2.381600 0.000000
-2.351800 0.000000
-2.322000 0.000000
-2.292100 0.000000
-2.262300 0.000000
-2.232400 0.000000
-2.202600 0.000000
-2.172800 0.000000
-2.142900 0.000000
-2.113100 0.000000
-2.083300 0.000000
-2.053400 0.000000
-2.023600 0.000000
-1.993700 0.000000
-1.963900 0.000000
-1.934100 0.000000
-1.904200 0.000000
-1.874400 0.000000
-1.844500 0.000000
-1.814700 0.000000
-1.784900 0.000000
-1.755000 0.000000
-1.725200 0.000000
-1.695400 0.000000
-1.665500 0.000000
-1.635700 0.000000
-1.605800 0.000000
-1.576000 0.000000
-1.546200 0.000000
-1.516300 0.000000
-1.486500 0.000000
-1.456600 0.000000
-1.426800 0.000000
-1.397000 0.000000
-1.367100 0.000000
-1.337300 0.000000
-1.307400 0.000000
-1.277600 0.000000
-1.247800 0.000000
-1.217900 0.000000
-1.188100 0.000000
-1.158300 0.000000
-1.128400 0.000000
-1.098600 0.000000
-1.068700 0.000000
-1.038900 0.000000
-1.009100 0.000000
-0.979200 0.000000
-0.949400 0.000000
-0.919500 0.000000
-0.889700 0.000000
-0.859900 0.000000
-0.830000 0.000000
-0.800200 0.000000
-0.770400 0.000000
-0.740500 0.000000
-0.710700 0.000000
-0.680800 0.000000
-0.651000 0.000000
-0.621200 0.000000
-0.591300 0.000000
-0.561500 0.000000
-0.531600 0.000000
-0.501800 0.000000
-0.472000 0.000000
-0.442100 0.000000
-0.412300 0.000000
-0.382500 0.000000
-0.352600 0.000000
-0.322800 0.000000
-0.292900 0.000000
-0.263100 0.000000
-0.233300 0.009600
-0.203400 0.037200
-0.173600 0.071900
-0.143700 0.110200
-0.113900 0.134800
-0.084100 0.142800
-0.054200 0.159000
-0.024400 0.172100
0.005400 0.187200
0.035300 0.203800
0.065100 0.220900
0.095000 0.238400
0.124800 0.256400
0.154600 0.273800
0.184500 0.288400
0.214300 0.301900
0.244200 0.314800
0.274000 0.328000
0.303800 0.342000
0.333700 0.356700
0.363500 0.373800
0.393300 0.394700
0.423200 0.415900
0.453000 0.437400
0.482900 0.459200
0.512700 0.481200
0.542500 0.503400
0.572400 0.558400
0.602200 0.616500
0.632100 0.633600
0.661900 0.606400
0.691700 0.616100
0.721600 0.623100
0.751400 0.628600
0.781200 0.632600
0.811100 0.630700
0.840900 0.623200
0.870800 0.619100
0.900600 0.622600
0.930400 0.628000
0.960300 0.632700
0.990100 0.636800
1.020000 0.640400
1.049800 0.643400
1.079600 0.645100
1.109500 0.642400
1.139300 0.638900
1.169100 0.639800
1.199000 0.639500
1.228800 0.638900
1.258700 0.638500
1.288500 0.639800
1.318300 0.641900
1.348200 0.644000
1.378000 0.645800
1.407900 0.647200
1.437700 0.648300
1.467500 0.648900
1.497400 0.648100
1.527200 0.645500
1.557000 0.641300
1.586900 0.638600
1.616700 0.639400
1.646600 0.641400
1.676400 0.643500
1.706200 0.645700
1.736100 0.648100
1.765900 0.650700
1.795800 0.653500
1.825600 0.656600
1.855400 0.660300
1.885300 0.662500
1.915100 0.663400
1.945000 0.664700
1.974800 0.665600
2.004600 0.666100
2.034500 0.666000
2.064300 0.664700
2.094100 0.661000
2.124000 0.659800
2.153800 0.661400
2.183700 0.664300
2.213500 0.668500
2.243300 0.674200
2.273200 0.682500
2.303000 0.691100
2.332900 0.699800
2.362700 0.708500
2.392500 0.717100
2.422400 0.735700
2.452200 0.807200
2.482000 0.865100
2.511900 0.918600
2.541700 0.957800
2.571600 0.959600
2.601400 0.934000
2.631200 0.902900
2.661100 0.871700
2.690900 0.838700
2.720800 0.808000
2.750600 1.369400
2.780400 0.924800
2.810300 0.941000
2.840100 1.000900
2.869900 0.906200
2.899800 0.789800
2.929600 0.689300
2.959500 0.604100
2.989300 0.534200
3.019100 0.495500
3.049000 0.478300
3.078800 0.472900
3.108700 0.467800
3.138500 0.462900
3.168300 0.460200
3.198200 0.465800
3.228000 0.478700
3.257800 0.497600
3.287700 0.524600
3.317500 0.554600
3.347400 0.587700
3.377200 0.625300
3.407000 0.676900
3.436900 0.746200
3.466700 0.820200
3.496600 0.882500
3.526400 0.902700
3.556200 0.905500
3.586100 0.906600
3.615900 0.879900
3.645700 0.856600
3.675600 0.899600
3.705400 0.958400
3.735300 1.050100
3.765100 1.146500
3.794900 1.290600
3.824800 1.531300
3.854600 1.486200
3.884500 1.463300
3.914300 1.391000
3.944100 1.382700
3.974000 1.421000
4.003800 1.462400
4.033600 1.507600
4.063500 1.515900
4.093300 1.692100
4.123200 1.663100
4.153000 1.567900
4.182800 1.534100
4.212700 1.514900
4.242500 1.519400
4.272400 1.518400
4.302200 1.508500
4.332000 1.511100
4.361900 1.533200
4.391700 1.559200
4.421500 1.588800
4.451400 1.597400
4.481200 1.588600
4.511100 1.614800
4.540900 1.643600
4.570700 1.641200
4.600600 1.618700
4.630400 1.719900
4.660300 1.797100
4.690100 2.343100
4.719900 1.909600
4.749800 1.572500
4.779600 1.298000
4.809400 1.441900
4.839300 1.069800
4.869100 1.047800
4.899000 1.109400
4.928800 1.201700
4.958600 1.257400
4.988500 1.268400
5.018300 1.300000
5.048200 1.362100
5.078000 1.491300
5.107800 1.612000
5.137700 1.739300
5.167500 1.943400
5.197300 1.810300
5.227200 1.789900
5.257000 1.789600
5.286900 1.797400
5.316700 1.771800
5.346500 1.825800
5.376400 1.931100
5.406200 1.974100
5.436100 1.881400
5.465900 1.793900
5.495700 1.729500
5.525600 1.748800
5.555400 1.888100
5.585300 1.674500
5.615100 1.615000
5.644900 1.437500
5.674800 1.595200
5.704600 1.693400
5.734400 1.846300
5.764300 1.974300
5.794100 2.007400
5.824000 2.090200
5.853800 2.203400
5.883600 2.759200
5.913500 2.376500
5.943300 2.435700
5.973200 2.320300
6.003000 2.284000
6.032800 2.285200
6.062700 2.311700
6.092500 2.293900
6.122300 2.272800
6.152200 2.263800
6.182000 2.138600
6.211900 2.055100
6.241700 2.021900
6.271500 1.999400
6.301400 1.981200
6.331200 2.010400
6.361100 2.101900
6.390900 2.302700
6.420700 2.326300
6.450600 2.283500
6.480400 2.238900
6.510200 2.126800
6.540100 1.915900
6.569900 1.808200
6.599800 1.745500
6.629600 1.760900
6.659400 1.808600
6.689300 1.852800
6.719100 1.830600
6.749000 1.797600
6.778800 1.771500
6.808600 1.741200
6.838500 1.774200
6.868300 1.857600
6.898100 1.918600
6.928000 2.075700
6.957800 2.471200
6.987700 2.777400
7.017500 2.821400
7.047300 2.599300
7.077200 2.485000
7.107000 2.232400
7.136900 2.037500
7.166700 1.823500
7.196500 1.598100
7.226400 1.507700
7.256200 1.479700
7.286000 1.501000
7.315900 1.569100
7.345700 1.670900
7.375600 1.983400
7.405400 2.327800
7.435200 2.493000
7.465100 2.645400
7.494900 2.804000
7.524800 3.053300
7.554600 3.168500
7.584400 3.305800
7.614300 3.573500
7.644100 4.044000
7.673900 4.029600
7.703800 3.345700
7.733600 2.266500
7.763500 2.028000
7.793300 1.913400
7.823100 1.829900
7.853000 1.766200
7.882800 1.714200
7.912700 1.668200
7.942500 1.625400
7.972300 1.612100
8.002200 1.675500
8.032000 1.948600
8.061800 2.170300
8.091700 2.164300
8.121500 2.143100
8.151400 2.165200
8.181200 2.256100
8.211000 2.328700
8.240900 2.384000
8.270700 2.419100
8.300600 2.418700
8.330400 2.364800
8.360200 2.333400
8.390100 2.311600
8.419900 2.287900
8.449700 2.258200
8.479600 2.256800
8.509400 2.274800
8.539300 2.279800
8.569100 2.279700
8.598900 2.279200
8.628800 2.267900
8.658600 2.240800
8.688500 2.305000
8.718300 2.419300
8.748100 2.479400
8.778000 2.613100
8.807800 2.731300
8.837600 3.163900
8.867500 3.244200
8.897300 3.007200
8.927200 2.869800
8.957000 2.849400
8.986800 2.859800
9.016700 3.240500
9.046500 3.544300
9.076400 3.622600
9.106200 3.294600
9.136000 3.146800
9.165900 2.726900
9.195700 2.556400
9.225600 2.657200
9.255400 2.771700
9.285200 2.846400
9.315100 2.838100
9.344900 2.732000
9.374700 2.586400
9.404600 2.523900
9.434400 2.629200
9.464300 2.358200
9.494100 1.932800
9.523900 1.748200
9.553800 1.627800
9.583600 1.617000
9.613500 1.671900
9.643300 1.795900
9.673100 2.213200
9.703000 2.510700
9.732800 2.897800
9.762600 2.923000
9.792500 2.963300
9.822300 3.010700
9.852200 3.086500
9.882000 3.177200
9.911800 3.221800
9.941700 3.286400
9.971500 3.323900
10.001400 3.241600
10.031200 3.056300
10.061000 2.694600
10.090900 2.445100
10.120700 2.379400
10.150500 2.399700
10.180400 2.433000
10.210200 2.453800
10.240100 2.526100
10.269900 2.669600
10.299700 2.931300
10.329600 3.288500
10.359400 3.729700
10.389300 4.494800
10.419100 4.968500
10.448900 4.837000
10.478800 4.808900
10.508600 4.257700
10.538400 3.518900
10.568300 2.973500
10.598100 2.566600
10.628000 2.037200
10.657800 1.734200
10.687600 1.462100
10.717500 1.301000
10.747300 1.220800
10.777200 1.198900
10.807000 1.250700
10.836800 1.407400
10.866700 1.565300
10.896500 1.726200
10.926300 1.958000
10.956200 2.187500
10.986000 2.388900
11.015900 2.517400
11.045700 2.671100
11.075500 2.432400
11.105400 2.411200
11.135200 2.410900
11.165100 2.519700
11.194900 2.618900
11.224700 2.566700
11.254600 2.335700
11.284400 2.219900
11.314200 2.177700
11.344100 2.251300
11.373900 2.278800
11.403800 2.244500
11.433600 2.210100
11.463400 2.206600
11.493300 2.171300
11.523100 2.107000
11.553000 2.029100
11.582800 1.936600
11.612600 1.834100
11.642500 1.707500
11.672300 1.575300
11.702100 1.501900
11.732000 1.503500
11.761800 1.557900
11.791700 1.603400
11.821500 1.629200
11.851300 1.651600
11.881200 1.757100
11.911000 1.873900
11.940900 1.901800
11.970700 1.971800
12.000500 2.057200
12.030400 2.204600
12.060200 2.397500
12.090000 2.483100
12.119900 2.547900
12.149700 2.921700
12.179600 3.527000
12.209400 3.286800
12.239200 3.301800
12.269100 3.208000
12.298900 2.897800
12.328800 3.211000
12.358600 2.750100
12.388400 2.318200
12.418300 2.048400
12.448100 1.808300
12.478000 1.694500
12.507800 1.675100
12.537600 1.675300
12.567500 1.694000
12.597300 1.731500
12.627100 1.807200
12.657000 1.944300
12.686800 2.114100
12.716700 2.321100
12.746500 2.525200
12.776300 2.791400
12.806200 2.760100
12.836000 2.800200
12.865900 3.013000
12.895700 2.736900
12.925500 2.529300
12.955400 2.624600
12.985200 2.840200
13.015000 2.801300
13.044900 2.918200
13.074700 2.766500
13.104600 2.613300
13.134400 2.734700
13.164200 2.814600
13.194100 2.636300
13.223900 2.461500
13.253800 2.166700
13.283600 2.137000
13.313400 1.914400
13.343300 1.912800
13.373100 1.903600
13.402900 1.974300
13.432800 2.362600
13.462600 1.906400
13.492500 1.941300
13.522300 2.037200
13.552100 2.134700
13.582000 2.204500
13.611800 2.306100
13.641700 2.449300
13.671500 2.604500
13.701300 2.803700
13.731200 2.961500
13.761000 3.021600
13.790800 3.100100
13.820700 3.163000
13.850500 3.222000
13.880400 3.283500
13.910200 3.378200
13.940000 3.289300
13.969900 3.086700
13.999700 2.908000
14.029600 2.812900
14.059400 2.704900
14.089200 2.590400
14.119100 2.552800
14.148900 2.729600
14.178700 2.728500
14.208600 2.857200
14.238400 2.957900
14.268300 2.978800
14.298100 3.066100
14.327900 3.155600
14.357800 3.116500
14.387600 3.122700
14.417500 3.062700
14.447300 3.161800
14.477100 3.177600
14.507000 3.019500
14.536800 2.893100
14.566600 2.869900
14.596500 2.856800
14.626300 2.896700
14.656200 3.049200
14.686000 3.261200
14.715800 3.328100
14.745700 3.370200
14.775500 3.419100
14.805400 3.446100
14.835200 3.488900
14.865000 3.588300
14.894900 3.778800
14.924700 3.945300
14.954500 4.041600
14.984400 4.003300
15.014200 3.896800
15.044100 4.205200
15.073900 4.298400
15.103700 4.220300
15.133600 3.884700
15.163400 3.663700
15.193300 3.693300
15.223100 3.682000
15.252900 3.565300
15.282800 3.527000
15.312600 3.296900
15.342400 2.951100
15.372300 2.866900
15.402100 2.758500
15.432000 2.689800
15.461800 2.634700
15.491600 2.672700
15.521500 2.638200
15.551300 2.554500
15.581200 2.556900
15.611000 2.600800
15.640800 2.712200
15.670700 2.775100
15.700500 2.816400
15.730300 2.837300
15.760200 2.859000
15.790000 2.902300
15.819900 2.874100
15.849700 2.925700
15.879500 3.046800
15.909400 3.223300
15.939200 3.433200
15.969100 3.608500
15.998900 3.510700
16.028700 3.273700
16.058600 3.142400
16.088400 3.228100
16.118300 3.055200
16.148100 2.883200
16.177900 2.857400
16.207800 2.900900
16.237600 2.911100
16.267400 2.912700
16.297300 2.973700
16.327100 2.997300
16.357000 3.089200
16.386800 3.173200
16.416600 3.258200
16.446500 3.346000
16.476300 3.495000
16.506200 3.582800
16.536000 3.563300
16.565800 3.533600
16.595700 3.523600
16.625500 3.465900
16.655300 3.467100
16.685200 3.609900
16.715000 3.780600
16.744900 3.830200
16.774700 3.617600
16.804500 3.239600
16.834400 2.969200
16.864200 2.709900
16.894100 2.671300
16.923900 2.211000
16.953700 2.119200
16.983600 2.061700
17.013400 2.035100
17.043200 2.027200
17.073100 2.022000
17.102900 1.930000
17.132800 1.927900
17.162600 1.984200
17.192400 2.107200
17.222300 2.243500
17.252100 2.291500
17.282000 2.276400
17.311800 2.286700
17.341600 2.375000
17.371500 2.480900
17.401300 2.559000
17.431100 2.642200
17.461000 2.733800
17.490800 2.846500
17.520700 2.976000
17.550500 3.344400
17.580300 3.547300
17.610200 3.575300
17.640000 3.554800
17.669900 3.548800
17.699700 3.549300
17.729500 3.626100
17.759400 3.737000
17.789200 3.824200
17.819000 3.931300
17.848900 3.801100
17.878700 3.565300
17.908600 3.358500
17.938400 3.194800
17.968200 3.038600
17.998100 2.927100
18.027900 3.008000
18.057800 2.991700
18.087600 2.867800
18.117400 2.827000
18.147300 2.785500
18.177100 2.797200
18.206900 2.859700
18.236800 2.953100
18.266600 3.140600
18.296500 3.507700
18.326300 3.707600
18.356100 3.816100
18.386000 3.767600
18.415800 3.912700
18.445700 3.954000
18.475500 3.863500
18.505300 3.780200
18.535200 3.766200
18.565000 3.657600
18.594800 3.461600
18.624700 3.355500
18.654500 3.246500
18.684400 3.141400
18.714200 3.020900
18.744000 3.009700
18.773900 3.045800
18.803700 3.153300
18.833600 3.280500
18.863400 3.322300
18.893200 3.508000
18.923100 3.598900
18.952900 3.755500
18.982700 4.028200
19.012600 3.514500
19.042400 3.372400
19.072300 3.265400
19.102100 3.237200
19.131900 3.224000
19.161800 3.220300
19.191600 3.346200
19.221500 3.520900
19.251300 3.397800
19.281100 3.404100
19.311000 3.383100
19.340800 3.342000
19.370700 3.286400
19.400500 3.155000
19.430300 3.003600
19.460200 2.877300
19.490000 2.806000
19.519800 2.974500
19.549700 2.888000
19.579500 2.834100
19.609400 2.844500
19.639200 2.930700
19.669000 3.076700
19.698900 2.897900
19.728700 2.825500
19.758600 2.659000
19.788400 2.666400
19.818200 2.755900
19.848100 2.869500
19.877900 3.003000
19.907700 3.162000
19.937600 3.260700
19.967400 3.357200
19.997300 3.495600
20.027100 3.650200
20.056900 3.570100
20.086800 3.569800
20.116600 3.592100
20.146500 3.374500
20.176300 3.045900
20.206100 2.714100
20.236000 2.308400
20.265800 2.150800
20.295600 2.056200
20.325500 2.015800
20.355300 2.098500
20.385200 2.174200
20.415000 2.219400
20.444800 2.244200
20.474700 2.230700
20.504500 2.122100
20.534400 2.015800
20.564200 1.922000
20.594000 1.916300
20.623900 1.867500
20.653700 1.938400
20.683500 1.939300
20.713400 1.968600
20.743200 1.942600
20.773100 1.994400
20.802900 2.105500
20.832700 2.387600
20.862600 2.648500
20.892400 2.754800
20.922300 2.770900
20.952100 2.818300
20.981900 2.876100
21.011800 2.902900
21.041600 3.000400
21.071400 3.038900
21.101300 3.010800
21.131100 3.031700
21.161000 3.018700
21.190800 2.742100
21.220600 2.727000
21.250500 2.822800
21.280300 2.915200
21.310200 2.972300
21.340000 2.968600
21.369800 2.961000
21.399700 2.937700
21.429500 2.919000
21.459300 2.971500
21.489200 3.070200
21.519000 3.118300
21.548900 3.158800
21.578700 3.203300
21.608500 3.300900
21.638400 3.490000
21.668200 3.363600
21.698100 3.240000
21.727900 3.203500
21.757700 3.272900
21.787600 2.948200
21.817400 2.777300
21.847200 2.667700
21.877100 2.554400
21.906900 2.476100
21.936800 2.427800
21.966600 2.435100
21.996400 2.482800
22.026300 2.565600
22.056100 2.802500
22.086000 2.793800
22.115800 3.194200
22.145600 3.250700
22.175500 3.190600
22.205300 3.513200
22.235100 3.778600
22.265000 3.749800
22.294800 3.696000
22.324700 3.642300
22.354500 3.632900
22.384300 3.410900
22.414200 3.127400
22.444000 2.893600
22.473900 2.769300
22.503700 2.700800
22.533500 2.799800
22.563400 2.936400
22.593200 2.957200
22.623000 2.981900
22.652900 3.057100
22.682700 3.077600
22.712600 3.117800
22.742400 3.163900
22.772200 3.215600
22.802100 3.287300
22.831900 3.249800
22.861800 3.139000
22.891600 3.014700
22.921400 3.056100
22.951300 3.084700
22.981100 3.091100
23.011000 3.049100
23.040800 3.000800
23.070600 3.048500
23.100500 3.227100
23.130300 3.584600
23.160100 3.779000
23.190000 3.784800
23.219800 3.718300
23.249700 3.608200
23.279500 3.493100
23.309300 3.647600
23.339200 3.466700
23.369000 3.352900
23.398900 3.395900
23.428700 3.364600
23.458500 3.458200
23.488400 3.224100
23.518200 2.969100
23.548000 2.895000
23.577900 2.868900
23.607700 2.841600
23.637600 2.812400
23.667400 2.779800
23.697200 2.798700
23.727100 2.912700
23.756900 3.115700
23.786800 3.548800
23.816600 4.052100
23.846400 4.505100
23.876300 4.640000
23.906100 4.713700
23.935900 4.629800
23.965800 4.433200
23.995600 4.284100
24.025500 4.089800
24.055300 3.888500
24.085100 3.768500
24.115000 3.675600
24.144800 3.537200
24.174700 3.326700
24.204500 3.030400
24.234300 2.905300
24.264200 2.931400
24.294000 3.076100
24.323800 3.291300
24.353700 3.496400
24.383500 3.730500
24.413400 3.971700
24.443200 4.119700
24.473000 4.272000
24.502900 4.446200
24.532700 4.564300
24.562600 4.381900
24.592400 4.210100
24.622200 4.146600
24.652100 4.072900
24.681900 3.956600
24.711700 3.816100
24.741600 3.632200
24.771400 3.441800
24.801300 3.311900
24.831100 3.258100
24.860900 3.339300
24.890800 3.388000
24.920600 3.387900
24.950500 3.361600
24.980300 3.340100
25.010100 3.405300
25.040000 3.524800
25.069800 3.633400
25.099600 3.746400
25.129500 3.987800
25.159300 4.107400
25.189200 4.174400
25.219000 4.091900
25.248800 3.983600
25.278700 3.857300
25.308500 3.635600
25.338400 3.412500
25.368200 3.250600
25.398000 2.998300
25.427900 2.840900
25.457700 2.801800
25.487500 2.724500
25.517400 2.639700
25.547200 2.725400
25.577100 2.813800
25.606900 3.152800
25.636700 3.658300
25.666600 3.955200
25.696400 4.160800
25.726300 4.362900
25.756100 4.824400
25.785900 4.723400
25.815800 4.369900
25.845600 4.161200
25.875400 4.048500
25.905300 3.783400
25.935100 3.499300
25.965000 3.161000
25.994800 2.854800
26.024600 2.631500
26.054500 2.499900
26.084300 2.746000
26.114200 3.060600
26.144000 3.218500
26.173800 3.435300
26.203700 3.620100
26.233500 3.676600
26.263300 3.707500
26.293200 3.568900
26.323000 3.553200
26.352900 3.569100
26.382700 3.534500
26.412500 3.607400
26.442400 3.696300
26.472200 3.822900
26.502100 3.851200
26.531900 3.877700
26.561700 3.988800
26.591600 4.061900
26.621400 4.082500
26.651300 4.103800
26.681100 4.007200
26.710900 3.881700
26.740800 3.754400
26.770600 3.661900
26.800400 3.550700
26.830300 3.400100
26.860100 3.350200
26.890000 3.404000
26.919800 3.312400
26.949600 3.011800
26.979500 2.886100
27.009300 2.825500
27.039200 2.895200
27.069000 2.992000
27.098800 3.200200
27.128700 3.405300
27.158500 3.498600
27.188300 3.551600
27.218200 3.584500
27.248000 3.978300
27.277900 3.793100
27.307700 3.580300
27.337500 3.401700
27.367400 3.346300
27.397200 3.352000
27.427100 3.333200
27.456900 3.317800
27.486700 3.348900
27.516600 3.411000
27.546400 3.668700
27.576200 3.943300
27.606100 4.242200
27.635900 4.340600
27.665800 4.360300
27.695600 4.226300
27.725400 3.968000
27.755300 3.325400
27.785100 3.130500
27.815000 3.020000
27.844800 2.945600
27.874600 2.919400
27.904500 2.914200
27.934300 2.947200
27.964100 3.033400
27.994000 3.202800
28.023800 3.402100
28.053700 3.521600
28.083500 3.632400
28.113300 3.731900
28.143200 3.804500
28.173000 3.868300
28.202900 3.982700
28.232700 3.799500
28.262500 3.695400
28.292400 3.625900
28.322200 3.505600
28.352000 3.484900
28.381900 3.458500
28.411700 3.291500
28.441600 3.349700
28.471400 3.504500
28.501200 3.412000
28.531100 3.417100
28.560900 3.607700
28.590800 4.061600
28.620600 4.238000
28.650400 4.475700
28.680300 4.601500
28.710100 4.480300
28.739900 4.419300
28.769800 4.336100
28.799600 4.258300
28.829500 4.214600
28.859300 4.072400
28.889100 3.873200
28.919000 3.622500
28.948800 3.206600
28.978700 3.021500
29.008500 3.268300
29.038300 2.563900
29.068200 2.254700
29.098000 2.053300
29.127800 1.857400
29.157700 1.660400
29.187500 1.517000
29.217400 1.414100
29.247200 1.318700
29.277000 1.262500
29.306900 1.242600
29.336700 1.266700
29.366600 1.281900
29.396400 1.314400
29.426200 1.358100
29.456100 1.394900
29.485900 1.413100
29.515700 1.419600
29.545600 1.410100
29.575400 1.328300
29.605300 1.278200
29.635100 1.270400
29.664900 1.389900
29.694800 1.690400
29.724600 1.124100
29.754500 1.068800
29.784300 1.017500
29.814100 0.945200
29.844000 0.890900
29.873800 0.845500
29.903700 0.800700
29.933500 1.018000
29.963300 1.248100
29.993200 1.021100
30.023000 0.993200
30.052800 0.866700
30.082700 0.680400
30.112500 0.566500
30.142400 0.509700
30.172200 0.465000
30.202000 0.424500
30.231900 0.387700
30.261700 0.353300
30.291600 0.329000
30.321400 0.316300
30.351200 0.242400
30.381100 0.177000
30.410900 0.122300
30.440700 0.078200
30.470600 0.046200
30.500400 0.027200
30.530300 0.017400
30.560100 0.010500
30.589900 0.006000
30.619800 0.003100
30.649600 0.002000
30.679500 0.001100
30.709300 0.000500
30.739100 0.000100
30.769000 0.000000
30.798800 0.000000
30.828600 0.000000
30.858500 0.000000
30.888300 0.000000
30.918200 0.000000
30.948000 0.000000
30.977800 0.000000
31.007700 0.000000
31.037500 0.000000
31.067400 0.000000
31.097200 0.000000
31.127000 0.000000
31.156900 0.000000
31.186700 0.000000
31.216500 0.000000
31.246400 0.000000
31.276200 0.000000
31.306100 0.000000
31.335900 0.000000
31.365700 0.000000
31.395600 0.000000
31.425400 0.000000
31.455300 0.000000
31.485100 0.000000
31.514900 0.000000
31.544800 0.000000
31.574600 0.000000
31.604400 0.000000
31.634300 0.000000
31.664100 0.000000
31.694000 0.000000
31.723800 0.000000
31.753600 0.000000
31.783500 0.000000
31.813300 0.000000
31.843200 0.000000
31.873000 0.000000
31.902800 0.000000
31.932700 0.000000
31.962500 0.000000
31.992300 0.000000
32.022200 0.000000
32.052000 0.000000
32.081900 0.000000
32.111700 0.000000
32.141500 0.000000
32.171400 0.000000
32.201200 0.000000
32.231100 0.000000
32.260900 0.000000
32.290700 0.000000
32.320600 0.000000
32.350400 0.000000
32.380200 0.000000
32.410100 0.000000
32.439900 0.000000
32.469800 0.000000
32.499600 0.000000
32.529400 0.000000
32.559300 0.000000
32.589100 0.000000
32.619000 0.000000
32.648800 0.000000
32.678600 0.000000
32.708500 0.000000
32.738300 0.000000
32.768100 0.000000
32.798000 0.000000
32.827800 0.000000
32.857700 0.000000
32.887500 0.000000
32.917300 0.000000
32.947200 0.000000
32.977000 0.000000
33.006900 0.000000
33.036700 0.000000
33.066500 0.000000
33.096400 0.000000
33.126200 0.000000
33.156000 0.000000
33.185900 0.000000
33.215700 0.000000
33.245600 0.000000
33.275400 0.000000
33.305200 0.000000
33.335100 0.000000
33.364900 0.000000
33.394800 0.000000
33.424600 0.000000
33.454400 0.000000
33.484300 0.000000
e
