set title 'mp-1219507 - Density of States'
set xlabel 'Energy (eV)'
set ylabel 'DOS (states/eV)'
set grid
set xrange [-10:10]
set yrange [0:4.230]
set xzeroaxis lt -1
set terminal png size 800,600
set output 'mp-1219507_dos_gnuplot.png'
plot '-' using 1:2 with lines title 'DOS'
-38.468600 0.000000
-38.425700 0.000000
-38.382700 0.000000
-38.339800 0.000000
-38.296900 0.000000
-38.254000 0.000000
-38.211100 0.000000
-38.168100 0.000000
-38.125200 0.000000
-38.082300 0.000000
-38.039400 0.000000
-37.996500 0.000000
-37.953500 0.000000
-37.910600 0.000000
-37.867700 0.000000
-37.824800 0.000000
-37.781900 0.000000
-37.738900 0.000000
-37.696000 0.000000
-37.653100 0.000000
-37.610200 0.000000
-37.567300 0.000000
-37.524400 0.000000
-37.481400 0.000000
-37.438500 0.000000
-37.395600 0.000000
-37.352700 0.000000
-37.309800 0.000000
-37.266800 0.000000
-37.223900 0.000000
-37.181000 0.000000
-37.138100 0.000000
-37.095200 0.000000
-37.052200 0.000000
-37.009300 0.000000
-36.966400 0.000000
-36.923500 0.000000
-36.880600 0.000000
-36.837600 0.000000
-36.794700 0.000000
-36.751800 0.000000
-36.708900 0.000000
-36.666000 0.000000
-36.623000 0.000000
-36.580100 0.000000
-36.537200 0.000000
-36.494300 0.000000
-36.451400 0.000000
-36.408500 0.000000
-36.365500 0.000000
-36.322600 0.000000
-36.279700 0.000000
-36.236800 0.000000
-36.193900 0.000000
-36.150900 0.000000
-36.108000 0.000000
-36.065100 0.000000
-36.022200 0.000000
-35.979300 0.000000
-35.936300 0.000000
-35.893400 0.000000
-35.850500 0.000000
-35.807600 0.000000
-35.764700 0.000000
-35.721700 0.000000
-35.678800 0.000000
-35.635900 0.000000
-35.593000 0.000000
-35.550100 0.000000
-35.507200 0.000000
-35.464200 0.000000
-35.421300 0.000000
-35.378400 0.000000
-35.335500 0.000000
-35.292600 0.000000
-35.249600 0.000000
-35.206700 0.000000
-35.163800 0.000000
-35.120900 0.000000
-35.078000 0.000000
-35.035000 0.000000
-34.992100 0.000000
-34.949200 0.000000
-34.906300 0.000000
-34.863400 0.000000
-34.820400 0.000000
-34.777500 0.000000
-34.734600 0.000000
-34.691700 0.000000
-34.648800 0.000000
-34.605900 0.000000
-34.562900 8.882800
-34.520000 4.482200
-34.477100 5.351500
-34.434200 7.585100
-34.391300 4.353100
-34.348300 10.030100
-34.305400 12.201400
-34.262500 12.563600
-34.219600 2.016400
-34.176700 3.167000
-34.133700 3.321300
-34.090800 3.842700
-34.047900 4.176700
-34.005000 5.378000
-33.962100 6.475900
-33.919100 9.144800
-33.876200 6.463000
-33.833300 5.471800
-33.790400 4.748900
-33.747500 4.688200
-33.704500 0.000000
-33.661600 0.000000
-33.618700 0.000000
-33.575800 0.000000
-33.532900 0.000000
-33.490000 0.000000
-33.447000 0.000000
-33.404100 0.000000
-33.361200 0.000000
-33.318300 0.000000
-33.275400 0.000000
-33.232400 0.000000
-33.189500 0.000000
-33.146600 0.000000
-33.103700 0.000000
-33.060800 0.000000
-33.017800 0.000000
-32.974900 0.000000
-32.932000 0.000000
-32.889100 0.000000
-32.846200 0.000000
-32.803200 0.000000
-32.760300 0.000000
-32.717400 0.000000
-32.674500 0.000000
-32.631600 0.000000
-32.588700 0.000000
-32.545700 0.000000
-32.502800 0.000000
-32.459900 0.000000
-32.417000 0.000000
-32.374100 0.000000
-32.331100 0.000000
-32.288200 0.000000
-32.245300 0.000000
-32.202400 0.000000
-32.159500 0.000000
-32.116500 0.000000
-32.073600 0.000000
-32.030700 0.000000
-31.987800 0.000000
-31.944900 0.000000
-31.901900 0.000000
-31.859000 0.000000
-31.816100 0.000000
-31.773200 0.000000
-31.730300 0.000000
-31.687400 0.000000
-31.644400 0.000000
-31.601500 0.000000
-31.558600 0.000000
-31.515700 0.000000
-31.472800 0.000000
-31.429800 0.000000
-31.386900 0.000000
-31.344000 0.000000
-31.301100 0.000000
-31.258200 0.000000
-31.215200 0.000000
-31.172300 0.000000
-31.129400 0.000000
-31.086500 0.000000
-31.043600 0.000000
-31.000600 0.000000
-30.957700 0.000000
-30.914800 0.000000
-30.871900 0.000000
-30.829000 0.000000
-30.786000 0.000000
-30.743100 0.000000
-30.700200 0.000000
-30.657300 0.000000
-30.614400 0.000000
-30.571500 0.000000
-30.528500 0.000000
-30.485600 0.000000
-30.442700 0.000000
-30.399800 0.000000
-30.356900 0.000000
-30.313900 0.000000
-30.271000 0.000000
-30.228100 0.000000
-30.185200 0.000000
-30.142300 0.000000
-30.099300 0.000000
-30.056400 0.000000
-30.013500 0.000000
-29.970600 0.000000
-29.927700 0.000000
-29.884700 0.000000
-29.841800 0.000000
-29.798900 0.000000
-29.756000 0.000000
-29.713100 0.000000
-29.670200 0.000000
-29.627200 0.000000
-29.584300 0.000000
-29.541400 0.000000
-29.498500 0.000000
-29.455600 0.000000
-29.412600 0.000000
-29.369700 0.000000
-29.326800 0.000000
-29.283900 0.000000
-29.241000 0.000000
-29.198000 0.000000
-29.155100 0.000000
-29.112200 0.000000
-29.069300 0.000000
-29.026400 0.000000
-28.983400 0.000000
-28.940500 0.000000
-28.897600 0.000000
-28.854700 0.000000
-28.811800 0.000000
-28.768900 0.000000
-28.725900 0.000000
-28.683000 0.000000
-28.640100 0.000000
-28.597200 0.000000
-28.554300 0.000000
-28.511300 0.000000
-28.468400 0.000000
-28.425500 0.000000
-28.382600 0.000000
-28.339700 0.000000
-28.296700 0.000000
-28.253800 0.000000
-28.210900 0.000000
-28.168000 0.000000
-28.125100 0.000000
-28.082100 0.000000
-28.039200 0.000000
-27.996300 0.000000
-27.953400 0.000000
-27.910500 0.000000
-27.867600 0.000000
-27.824600 0.000000
-27.781700 0.000000
-27.738800 0.000000
-27.695900 0.000000
-27.653000 0.000000
-27.610000 0.000000
-27.567100 0.000000
-27.524200 0.000000
-27.481300 0.000000
-27.438400 0.000000
-27.395400 0.000000
-27.352500 0.000000
-27.309600 0.000000
-27.266700 0.000000
-27.223800 0.000000
-27.180800 0.000000
-27.137900 0.000000
-27.095000 0.000000
-27.052100 0.000000
-27.009200 0.000000
-26.966200 0.000000
-26.923300 0.000000
-26.880400 0.000000
-26.837500 0.000000
-26.794600 0.000000
-26.751700 0.000000
-26.708700 0.000000
-26.665800 0.000000
-26.622900 0.000000
-26.580000 0.000000
-26.537100 0.000000
-26.494100 0.000000
-26.451200 0.000000
-26.408300 0.000000
-26.365400 0.000000
-26.322500 0.000000
-26.279500 0.000000
-26.236600 0.000000
-26.193700 0.000000
-26.150800 0.000000
-26.107900 0.000000
-26.064900 0.000000
-26.022000 0.000000
-25.979100 0.000000
-25.936200 0.000000
-25.893300 0.000000
-25.850400 0.000000
-25.807400 0.000000
-25.764500 0.000000
-25.721600 0.000000
-25.678700 0.000000
-25.635800 0.000000
-25.592800 0.000000
-25.549900 0.000000
-25.507000 0.000000
-25.464100 0.000000
-25.421200 0.000000
-25.378200 0.000000
-25.335300 0.000000
-25.292400 0.000000
-25.249500 0.000000
-25.206600 0.000000
-25.163600 0.000000
-25.120700 0.000000
-25.077800 0.000000
-25.034900 0.000000
-24.992000 0.000000
-24.949100 0.000000
-24.906100 0.000000
-24.863200 0.000000
-24.820300 0.000000
-24.777400 0.000000
-24.734500 0.000000
-24.691500 0.000000
-24.648600 0.000000
-24.605700 0.000000
-24.562800 0.000000
-24.519900 0.000000
-24.476900 0.000000
-24.434000 0.000000
-24.391100 0.000000
-24.348200 0.000000
-24.305300 0.000000
-24.262300 0.000000
-24.219400 0.000000
-24.176500 0.000000
-24.133600 0.000000
-24.090700 0.000000
-24.047700 0.000000
-24.004800 0.000000
-23.961900 0.000000
-23.919000 0.000000
-23.876100 0.000000
-23.833200 0.000000
-23.790200 0.000000
-23.747300 0.000000
-23.704400 0.000000
-23.661500 0.000000
-23.618600 0.000000
-23.575600 0.000000
-23.532700 0.000000
-23.489800 0.000000
-23.446900 0.000000
-23.404000 0.000000
-23.361000 0.000000
-23.318100 0.000000
-23.275200 0.000000
-23.232300 0.000000
-23.189400 0.000000
-23.146400 0.000000
-23.103500 0.000000
-23.060600 0.000000
-23.017700 0.000000
-22.974800 0.000000
-22.931900 0.000000
-22.888900 0.000000
-22.846000 0.000000
-22.803100 0.000000
-22.760200 0.000000
-22.717300 0.000000
-22.674300 0.000000
-22.631400 0.000000
-22.588500 0.000000
-22.545600 0.000000
-22.502700 0.000000
-22.459700 0.000000
-22.416800 0.000000
-22.373900 0.000000
-22.331000 0.000000
-22.288100 0.000000
-22.245100 0.000000
-22.202200 0.000000
-22.159300 0.000000
-22.116400 0.000000
-22.073500 0.000000
-22.030600 0.000000
-21.987600 0.000000
-21.944700 0.000000
-21.901800 0.000000
-21.858900 0.000000
-21.816000 0.000000
-21.773000 0.000000
-21.730100 0.000000
-21.687200 0.000000
-21.644300 0.000000
-21.601400 0.000000
-21.558400 0.000000
-21.515500 0.000000
-21.472600 0.000000
-21.429700 0.000000
-21.386800 0.000000
-21.343800 0.000000
-21.300900 0.000000
-21.258000 0.000000
-21.215100 0.000000
-21.172200 0.000000
-21.129200 0.000000
-21.086300 0.000000
-21.043400 0.000000
-21.000500 0.000000
-20.957600 0.000000
-20.914700 0.000000
-20.871700 0.000000
-20.828800 0.000000
-20.785900 0.000000
-20.743000 0.000000
-20.700100 0.000000
-20.657100 0.000000
-20.614200 0.000000
-20.571300 0.000000
-20.528400 0.000000
-20.485500 0.000000
-20.442500 0.000000
-20.399600 0.000000
-20.356700 0.000000
-20.313800 0.000000
-20.270900 0.000000
-20.227900 0.000000
-20.185000 0.000000
-20.142100 0.000000
-20.099200 0.000000
-20.056300 0.000000
-20.013400 0.000000
-19.970400 0.000000
-19.927500 0.000000
-19.884600 0.000000
-19.841700 0.000000
-19.798800 0.000000
-19.755800 0.000000
-19.712900 0.000000
-19.670000 0.000000
-19.627100 0.000000
-19.584200 0.000000
-19.541200 0.000000
-19.498300 0.000000
-19.455400 0.000000
-19.412500 0.000000
-19.369600 0.000000
-19.326600 0.000000
-19.283700 0.000000
-19.240800 0.000000
-19.197900 0.000000
-19.155000 0.000000
-19.112100 0.000000
-19.069100 0.000000
-19.026200 0.000000
-18.983300 0.000000
-18.940400 0.000000
-18.897500 0.000000
-18.854500 0.000000
-18.811600 0.000000
-18.768700 0.000000
-18.725800 0.000000
-18.682900 0.000000
-18.639900 0.000000
-18.597000 0.000000
-18.554100 0.000000
-18.511200 0.000000
-18.468300 0.000000
-18.425300 0.000000
-18.382400 0.000000
-18.339500 0.000000
-18.296600 0.000000
-18.253700 0.000000
-18.210700 0.000000
-18.167800 0.000000
-18.124900 0.000000
-18.082000 0.000000
-18.039100 0.000000
-17.996200 0.000000
-17.953200 0.000000
-17.910300 0.000000
-17.867400 0.000000
-17.824500 0.000000
-17.781600 0.000000
-17.738600 0.000000
-17.695700 0.000000
-17.652800 0.000000
-17.609900 0.000000
-17.567000 0.000000
-17.524000 0.000000
-17.481100 0.000000
-17.438200 0.000000
-17.395300 0.000000
-17.352400 0.000000
-17.309400 0.000000
-17.266500 0.000000
-17.223600 0.000000
-17.180700 0.000000
-17.137800 0.000000
-17.094900 0.000000
-17.051900 0.000000
-17.009000 0.000000
-16.966100 0.000000
-16.923200 0.000000
-16.880300 0.000000
-16.837300 0.000000
-16.794400 0.000000
-16.751500 0.000000
-16.708600 0.000000
-16.665700 0.000000
-16.622700 0.000000
-16.579800 0.000000
-16.536900 0.000000
-16.494000 0.000000
-16.451100 0.000000
-16.408100 0.000000
-16.365200 0.000000
-16.322300 0.000000
-16.279400 0.000000
-16.236500 0.000000
-16.193600 0.000000
-16.150600 0.000000
-16.107700 0.000000
-16.064800 0.000000
-16.021900 0.000000
-15.979000 0.000000
-15.936000 0.000000
-15.893100 0.000000
-15.850200 0.000000
-15.807300 0.000000
-15.764400 0.000000
-15.721400 0.000000
-15.678500 0.000000
-15.635600 0.000000
-15.592700 0.000000
-15.549800 0.000000
-15.506800 0.000000
-15.463900 0.000000
-15.421000 0.000000
-15.378100 0.000000
-15.335200 0.000000
-15.292300 0.000000
-15.249300 0.000000
-15.206400 0.000000
-15.163500 0.000000
-15.120600 0.000000
-15.077700 0.000000
-15.034700 0.000000
-14.991800 0.000000
-14.948900 0.000000
-14.906000 0.000000
-14.863100 0.000000
-14.820100 0.000000
-14.777200 0.000000
-14.734300 0.000000
-14.691400 0.000000
-14.648500 0.000000
-14.605500 0.000000
-14.562600 0.000000
-14.519700 0.000000
-14.476800 0.000000
-14.433900 0.000000
-14.390900 0.000000
-14.348000 0.000000
-14.305100 0.000000
-14.262200 0.000000
-14.219300 0.000000
-14.176400 0.000000
-14.133400 0.000000
-14.090500 0.000000
-14.047600 0.000000
-14.004700 0.000000
-13.961800 0.000000
-13.918800 0.000000
-13.875900 0.000000
-13.833000 0.000000
-13.790100 0.000000
-13.747200 0.000000
-13.704200 0.000000
-13.661300 0.000000
-13.618400 0.000000
-13.575500 0.000000
-13.532600 0.000000
-13.489600 0.000000
-13.446700 0.000000
-13.403800 0.000000
-13.360900 0.000000
-13.318000 0.000000
-13.275100 0.000000
-13.232100 0.000000
-13.189200 0.000000
-13.146300 0.000000
-13.103400 0.000000
-13.060500 0.000000
-13.017500 0.000000
-12.974600 0.000000
-12.931700 0.000000
-12.888800 0.000000
-12.845900 0.000000
-12.802900 0.000000
-12.760000 0.000000
-12.717100 0.000000
-12.674200 0.000000
-12.631300 0.000000
-12.588300 0.000000
-12.545400 0.000000
-12.502500 0.000000
-12.459600 0.000000
-12.416700 0.000000
-12.373800 0.000000
-12.330800 0.000000
-12.287900 0.000000
-12.245000 0.000000
-12.202100 0.000000
-12.159200 0.000000
-12.116200 0.000000
-12.073300 0.000000
-12.030400 0.000000
-11.987500 0.000000
-11.944600 0.000000
-11.901600 0.000000
-11.858700 0.000000
-11.815800 0.000000
-11.772900 0.000000
-11.730000 0.000000
-11.687000 0.000000
-11.644100 0.000000
-11.601200 0.000000
-11.558300 0.000000
-11.515400 0.000000
-11.472400 0.000000
-11.429500 0.000000
-11.386600 0.000000
-11.343700 0.000000
-11.300800 0.000000
-11.257900 0.000000
-11.214900 0.000000
-11.172000 0.000000
-11.129100 0.000000
-11.086200 0.000000
-11.043300 0.000000
-11.000300 0.000000
-10.957400 0.000000
-10.914500 0.000000
-10.871600 0.000000
-10.828700 0.000000
-10.785700 0.000000
-10.742800 0.000000
-10.699900 0.000000
-10.657000 0.000000
-10.614100 0.000000
-10.571100 0.000000
-10.528200 0.000000
-10.485300 0.000000
-10.442400 0.000000
-10.399500 0.000000
-10.356600 0.000000
-10.313600 0.000000
-10.270700 0.000000
-10.227800 0.000000
-10.184900 0.000000
-10.142000 0.000000
-10.099000 0.000000
-10.056100 0.000000
-10.013200 0.000000
-9.970300 0.000000
-9.927400 0.000000
-9.884400 0.000000
-9.841500 0.000000
-9.798600 0.000000
-9.755700 0.000000
-9.712800 0.000000
-9.669800 0.000000
-9.626900 0.000000
-9.584000 0.000000
-9.541100 0.000000
-9.498200 0.000000
-9.455300 0.000000
-9.412300 0.000000
-9.369400 0.000000
-9.326500 0.000000
-9.283600 0.000000
-9.240700 0.000000
-9.197700 0.000000
-9.154800 0.000000
-9.111900 0.000000
-9.069000 0.000000
-9.026100 0.000000
-8.983100 0.000000
-8.940200 0.000000
-8.897300 0.000000
-8.854400 0.000000
-8.811500 0.000000
-8.768500 0.000000
-8.725600 0.000000
-8.682700 0.000000
-8.639800 0.000000
-8.596900 0.000000
-8.553900 0.000000
-8.511000 0.000000
-8.468100 0.000000
-8.425200 0.000000
-8.382300 0.000000
-8.339400 0.000000
-8.296400 0.000000
-8.253500 0.000000
-8.210600 0.000000
-8.167700 0.000000
-8.124800 0.000000
-8.081800 0.000000
-8.038900 0.000000
-7.996000 0.000000
-7.953100 0.000000
-7.910200 0.000000
-7.867200 0.000000
-7.824300 0.000000
-7.781400 0.000000
-7.738500 0.000000
-7.695600 0.000000
-7.652600 0.000000
-7.609700 0.000000
-7.566800 0.000000
-7.523900 0.000000
-7.481000 0.000000
-7.438100 0.000000
-7.395100 0.000000
-7.352200 0.000000
-7.309300 0.000000
-7.266400 0.000000
-7.223500 0.000000
-7.180500 0.000000
-7.137600 0.000000
-7.094700 0.000000
-7.051800 0.000000
-7.008900 0.000000
-6.965900 0.000000
-6.923000 0.000000
-6.880100 0.000000
-6.837200 0.000000
-6.794300 0.000000
-6.751300 0.000000
-6.708400 0.000000
-6.665500 0.000000
-6.622600 0.000000
-6.579700 0.000000
-6.536800 0.000000
-6.493800 0.000000
-6.450900 0.000000
-6.408000 0.000000
-6.365100 0.000000
-6.322200 0.000000
-6.279200 0.000000
-6.236300 0.000000
-6.193400 0.000000
-6.150500 0.000000
-6.107600 0.000000
-6.064600 0.000000
-6.021700 0.000000
-5.978800 0.000000
-5.935900 0.000000
-5.893000 0.000000
-5.850000 0.000000
-5.807100 0.000000
-5.764200 0.000000
-5.721300 0.000000
-5.678400 0.000000
-5.635500 0.000000
-5.592500 0.000000
-5.549600 0.000000
-5.506700 0.000000
-5.463800 0.000000
-5.420900 0.000000
-5.377900 0.000000
-5.335000 0.000000
-5.292100 0.000000
-5.249200 0.000000
-5.206300 0.000000
-5.163300 0.000000
-5.120400 0.000000
-5.077500 0.000000
-5.034600 0.000000
-4.991700 0.000000
-4.948700 0.000000
-4.905800 0.000000
-4.862900 0.000000
-4.820000 0.000000
-4.777100 0.000000
-4.734100 0.000000
-4.691200 0.000000
-4.648300 0.000000
-4.605400 0.000000
-4.562500 0.000000
-4.519600 0.000000
-4.476600 0.000000
-4.433700 0.000000
-4.390800 0.000000
-4.347900 0.000000
-4.305000 0.000000
-4.262000 0.000000
-4.219100 0.000000
-4.176200 0.000000
-4.133300 0.000000
-4.090400 0.000000
-4.047400 0.000000
-4.004500 0.000000
-3.961600 0.000000
-3.918700 0.000000
-3.875800 0.000000
-3.832800 0.000000
-3.789900 0.000000
-3.747000 0.000000
-3.704100 0.000000
-3.661200 0.000000
-3.618300 0.000000
-3.575300 0.000000
-3.532400 0.000000
-3.489500 0.000000
-3.446600 0.000000
-3.403700 0.000000
-3.360700 0.000000
-3.317800 0.000000
-3.274900 0.000000
-3.232000 0.000000
-3.189100 0.000000
-3.146100 0.000000
-3.103200 0.000000
-3.060300 0.000000
-3.017400 0.000000
-2.974500 0.000000
-2.931500 0.000000
-2.888600 0.000000
-2.845700 0.000000
-2.802800 0.000000
-2.759900 0.000000
-2.717000 0.000000
-2.674000 0.000000
-2.631100 0.000000
-2.588200 0.000000
-2.545300 0.000000
-2.502400 0.000000
-2.459400 0.000000
-2.416500 0.001600
-2.373600 0.012000
-2.330700 0.026300
-2.287800 0.043200
-2.244800 0.048300
-2.201900 0.052800
-2.159000 0.056800
-2.116100 0.062600
-2.073200 0.068700
-2.030200 0.075000
-1.987300 0.080300
-1.944400 0.085900
-1.901500 0.091100
-1.858600 0.095200
-1.815600 0.098900
-1.772700 0.102300
-1.729800 0.106000
-1.686900 0.109800
-1.644000 0.114000
-1.601100 0.118300
-1.558100 0.122600
-1.515200 0.127100
-1.472300 0.131800
-1.429400 0.136500
-1.386500 0.141200
-1.343500 0.145800
-1.300600 0.149500
-1.257700 0.153400
-1.214800 0.157600
-1.171900 0.161900
-1.128900 0.166200
-1.086000 0.170600
-1.043100 0.175100
-1.000200 0.179900
-0.957300 0.185000
-0.914300 0.190200
-0.871400 0.195600
-0.828500 0.201200
-0.785600 0.206900
-0.742700 0.212700
-0.699800 0.218800
-0.656800 0.227200
-0.613900 0.238700
-0.571000 0.248000
-0.528100 0.253500
-0.485200 0.255200
-0.442200 0.255700
-0.399300 0.260700
-0.356400 0.265700
-0.313500 0.270800
-0.270600 0.275900
-0.227600 0.280900
-0.184700 0.285400
-0.141800 0.289700
-0.098900 0.294900
-0.056000 0.300900
-0.013000 0.307700
0.029900 0.315100
0.072800 0.327400
0.115700 0.345000
0.158600 0.362400
0.201500 0.377200
0.244500 0.392300
0.287400 0.416000
0.330300 0.444000
0.373200 0.476500
0.416100 0.515200
0.459100 0.560600
0.502000 0.655500
0.544900 0.877700
0.587800 1.045500
0.630700 1.094000
0.673700 1.097000
0.716600 1.053200
0.759500 1.154900
0.802400 1.277200
0.845300 1.387000
0.888300 1.495100
0.931200 1.577900
0.974100 1.680200
1.017000 1.795300
1.059900 1.848600
1.102900 1.860500
1.145800 1.917000
1.188700 1.983500
1.231600 2.089600
1.274500 2.247000
1.317400 2.259600
1.360400 2.234700
1.403300 2.260600
1.446200 2.412600
1.489100 2.405400
1.532000 2.435500
1.575000 2.444600
1.617900 2.440800
1.660800 2.571000
1.703700 2.524300
1.746600 2.518200
1.789600 2.480000
1.832500 2.460100
1.875400 2.458600
1.918300 2.465900
1.961200 2.509200
2.004200 2.515700
2.047100 2.535800
2.090000 2.580200
2.132900 2.662600
2.175800 2.711200
2.218700 2.662900
2.261700 2.619700
2.304600 2.652100
2.347500 2.470900
2.390400 2.111900
2.433300 2.037400
2.476300 2.154700
2.519200 2.069500
2.562100 2.022500
2.605000 1.987400
2.647900 1.960900
2.690900 2.197100
2.733800 2.182500
2.776700 1.947900
2.819600 1.771000
2.862500 1.518200
2.905500 1.333900
2.948400 1.449000
2.991300 1.369200
3.034200 1.335400
3.077100 1.910400
3.120000 1.964000
3.163000 2.509600
3.205900 2.636800
3.248800 2.946600
3.291700 3.112900
3.334600 2.953400
3.377600 3.062300
3.420500 2.902100
3.463400 2.965300
3.506300 2.720000
3.549200 2.561200
3.592200 2.453800
3.635100 2.341100
3.678000 2.272400
3.720900 2.256300
3.763800 2.264900
3.806800 2.293400
3.849700 2.202400
3.892600 2.172200
3.935500 2.274800
3.978400 2.542500
4.021400 2.609300
4.064300 2.674400
4.107200 3.097200
4.150100 3.171900
4.193000 3.337300
4.235900 3.243300
4.278900 3.128300
4.321800 2.859800
4.364700 2.480700
4.407600 2.501300
4.450500 2.499300
4.493500 2.681600
4.536400 2.979300
4.579300 3.452700
4.622200 3.699000
4.665100 3.812200
4.708100 3.845100
4.751000 3.688500
4.793900 3.459800
4.836800 3.462400
4.879700 3.551400
4.922700 3.184700
4.965600 2.877900
5.008500 2.683200
5.051400 2.595700
5.094300 2.310600
5.137200 1.840000
5.180200 1.620200
5.223100 1.535700
5.266000 1.552100
5.308900 1.626600
5.351800 1.768500
5.394800 1.846400
5.437700 2.087100
5.480600 1.936400
5.523500 2.145200
5.566400 2.583000
5.609400 2.253300
5.652300 2.316900
5.695200 2.344100
5.738100 2.349900
5.781000 2.410600
5.824000 2.598300
5.866900 2.913000
5.909800 2.756300
5.952700 2.941200
5.995600 2.765700
6.038500 2.543800
6.081500 2.266100
6.124400 2.031200
6.167300 1.922800
6.210200 1.899000
6.253100 1.962800
6.296100 2.163000
6.339000 2.089700
6.381900 1.800300
6.424800 1.490000
6.467700 1.439400
6.510700 1.468000
6.553600 1.525500
6.596500 1.515600
6.639400 1.497700
6.682300 1.472900
6.725300 1.442000
6.768200 1.431600
6.811100 1.442800
6.854000 1.468300
6.896900 1.628600
6.939800 1.630800
6.982800 1.755800
7.025700 1.914600
7.068600 1.941300
7.111500 1.987400
7.154400 2.019500
7.197400 2.048400
7.240300 2.066000
7.283200 2.200500
7.326100 2.263600
7.369000 2.253000
7.412000 2.205900
7.454900 2.201900
7.497800 2.121100
7.540700 2.142700
7.583600 2.179400
7.626600 2.076200
7.669500 1.957800
7.712400 1.841600
7.755300 1.714600
7.798200 1.593200
7.841200 1.398700
7.884100 1.343100
7.927000 1.290200
7.969900 1.322300
8.012800 1.409500
8.055700 1.768500
8.098700 1.862200
8.141600 2.031900
8.184500 2.119300
8.227400 2.144900
8.270300 2.173900
8.313300 2.073300
8.356200 1.740500
8.399100 1.503900
8.442000 1.376500
8.484900 1.593200
8.527900 1.657600
8.570800 1.720800
8.613700 1.617800
8.656600 1.565700
8.699500 1.566100
8.742500 1.629300
8.785400 1.801700
8.828300 1.860600
8.871200 1.949600
8.914100 1.970300
8.957000 1.959800
9.000000 2.018500
9.042900 2.076000
9.085800 2.184900
9.128700 2.460300
9.171600 2.464100
9.214600 2.281700
9.257500 2.114200
9.300400 2.000900
9.343300 1.850700
9.386200 1.796300
9.429200 1.768700
9.472100 1.805300
9.515000 1.833400
9.557900 1.843600
9.600800 1.837400
9.643800 1.825500
9.686700 1.822200
9.729600 1.840500
9.772500 1.818700
9.815400 1.721300
9.858300 1.663700
9.901300 1.562100
9.944200 1.380600
9.987100 1.217400
10.030000 1.082200
10.072900 1.147000
10.115900 0.804100
10.158800 0.715300
10.201700 0.705200
10.244600 0.701500
10.287500 0.702400
10.330500 0.711900
10.373400 0.730600
10.416300 0.748800
10.459200 0.759500
10.502100 0.758500
10.545100 0.749600
10.588000 0.739500
10.630900 0.730500
10.673800 0.741600
10.716700 0.751300
10.759700 0.759800
10.802600 0.766400
10.845500 0.772300
10.888400 0.777600
10.931300 0.777600
10.974200 0.783000
11.017200 0.786800
11.060100 0.791600
11.103000 0.794100
11.145900 0.794500
11.188800 0.794000
11.231800 0.793500
11.274700 0.794600
11.317600 0.797000
11.360500 0.802400
11.403400 0.811300
11.446400 0.821000
11.489300 0.832200
11.532200 0.847300
11.575100 0.976100
11.618000 0.950800
11.661000 0.925900
11.703900 0.909300
11.746800 0.896700
11.789700 0.881300
11.832600 0.863200
11.875500 0.841100
11.918500 0.819300
11.961400 0.811000
12.004300 0.817300
12.047200 0.825800
12.090100 0.800100
12.133100 0.775200
12.176000 0.739500
12.218900 0.713600
12.261800 0.702200
12.304700 0.696000
12.347700 0.686600
12.390600 0.674600
12.433500 0.662900
12.476400 0.651300
12.519300 0.644900
12.562300 0.642700
12.605200 0.642200
12.648100 0.618600
12.691000 0.587500
12.733900 0.570600
12.776800 0.558200
12.819800 0.550600
12.862700 0.544900
12.905600 0.540500
12.948500 0.538800
12.991400 0.537100
13.034400 0.531700
13.077300 0.523900
13.120200 0.512700
13.163100 0.511300
13.206000 0.479000
13.249000 0.481900
13.291900 0.481400
13.334800 0.453500
13.377700 0.435300
13.420600 0.436000
13.463600 0.441400
13.506500 0.453600
13.549400 0.469400
13.592300 0.488800
13.635200 0.511500
13.678200 0.523900
13.721100 0.531300
13.764000 0.525600
13.806900 0.508900
13.849800 0.519400
13.892700 0.534600
13.935700 0.556800
13.978600 0.612700
14.021500 0.624100
14.064400 0.594900
14.107300 0.592600
14.150300 0.593800
14.193200 0.576200
14.236100 0.538900
14.279000 0.502500
14.321900 0.466700
14.364900 0.431600
14.407800 0.401000
14.450700 0.370800
14.493600 0.338000
14.536500 0.326300
14.579500 0.336600
14.622400 0.349500
14.665300 0.343000
14.708200 0.359400
14.751100 0.391900
14.794000 0.439200
14.837000 0.462800
14.879900 0.512400
14.922800 0.584100
14.965700 0.660400
15.008600 0.767000
15.051600 0.896300
15.094500 0.936900
15.137400 0.920200
15.180300 0.969000
15.223200 0.998900
15.266200 0.993200
15.309100 0.920000
15.352000 0.864600
15.394900 0.819700
15.437800 0.787300
15.480800 0.767400
15.523700 0.770000
15.566600 0.738200
15.609500 0.707400
15.652400 0.717200
15.695300 0.707600
15.738300 0.722100
15.781200 0.714100
15.824100 0.710100
15.867000 0.709400
15.909900 0.710900
15.952900 0.714600
15.995800 0.720200
16.038700 0.727700
16.081600 0.733000
16.124500 0.718700
16.167500 0.705100
16.210400 0.694600
16.253300 0.681800
16.296200 0.672500
16.339100 0.664600
16.382100 0.658500
16.425000 0.657200
16.467900 0.658200
16.510800 0.661100
16.553700 0.665400
16.596600 0.665900
16.639600 0.641000
16.682500 0.624300
16.725400 0.603400
16.768300 0.583300
16.811200 0.565100
16.854200 0.549300
16.897100 0.536800
16.940000 0.525900
16.982900 0.516100
17.025800 0.508000
17.068800 0.498800
17.111700 0.488000
17.154600 0.476300
17.197500 0.473200
17.240400 0.474300
17.283400 0.476700
17.326300 0.484200
17.369200 0.500800
17.412100 0.528700
17.455000 0.569100
17.498000 0.607600
17.540900 0.638700
17.583800 0.667800
17.626700 0.698100
17.669600 0.727800
17.712500 0.739700
17.755500 0.754400
17.798400 0.759800
17.841300 0.746800
17.884200 0.726300
17.927100 0.708300
17.970100 0.696400
18.013000 0.692800
18.055900 0.701600
18.098800 0.686200
18.141700 0.675200
18.184700 0.661200
18.227600 0.645100
18.270500 0.633900
18.313400 0.607300
18.356300 0.574100
18.399300 0.565700
18.442200 0.556900
18.485100 0.549300
18.528000 0.543500
18.570900 0.540500
18.613800 0.543400
18.656800 0.561900
18.699700 0.587400
18.742600 0.615700
18.785500 0.647500
18.828400 0.685400
18.871400 0.730800
18.914300 0.762100
18.957200 0.778200
19.000100 0.785800
19.043000 0.796700
19.086000 0.804600
19.128900 0.806100
19.171800 0.822300
19.214700 0.822300
19.257600 0.817700
19.300600 0.809500
19.343500 0.799100
19.386400 0.777400
19.429300 0.830000
19.472200 0.832100
19.515100 0.914000
19.558100 0.956600
19.601000 0.922900
19.643900 0.895000
19.686800 0.901700
19.729700 0.864900
19.772700 0.846900
19.815600 0.829200
19.858500 0.810600
19.901400 0.798700
19.944300 0.788600
19.987300 0.781000
20.030200 0.776200
20.073100 0.773700
20.116000 0.772800
20.158900 0.773800
20.201900 0.775800
20.244800 0.779500
20.287700 0.784500
20.330600 0.790500
20.373500 0.796600
20.416500 0.801800
20.459400 0.807200
20.502300 0.811200
20.545200 0.815100
20.588100 0.819200
20.631000 0.823900
20.674000 0.827400
20.716900 0.836100
20.759800 0.849900
20.802700 0.858300
20.845600 0.867800
20.888600 0.879300
20.931500 0.916000
20.974400 0.985900
21.017300 1.111100
21.060200 1.065200
21.103200 1.040800
21.146100 1.029900
21.189000 1.027600
21.231900 1.029000
21.274800 1.034400
21.317800 1.032800
21.360700 1.030400
21.403600 1.027900
21.446500 1.021800
21.489400 1.008900
21.532300 0.993500
21.575300 0.981000
21.618200 0.976200
21.661100 0.979900
21.704000 0.992000
21.746900 1.008500
21.789900 1.039800
21.832800 1.076700
21.875700 1.022500
21.918600 1.039500
21.961500 1.064100
22.004500 1.093800
22.047400 1.118500
22.090300 1.140600
22.133200 1.160500
22.176100 1.178700
22.219100 1.221900
22.262000 1.227500
22.304900 1.251600
22.347800 1.278800
22.390700 1.334300
22.433600 1.315100
22.476600 1.299700
22.519500 1.323600
22.562400 1.352400
22.605300 1.381900
22.648200 1.404500
22.691200 1.423100
22.734100 1.441500
22.777000 1.457100
22.819900 1.475600
22.862800 1.510900
22.905800 1.563400
22.948700 1.602700
22.991600 1.652700
23.034500 1.683800
23.077400 1.705900
23.120400 1.708900
23.163300 1.699300
23.206200 1.675400
23.249100 1.650000
23.292000 1.612100
23.335000 1.602400
23.377900 1.588900
23.420800 1.591300
23.463700 1.520600
23.506600 1.471700
23.549500 1.435600
23.592500 1.381900
23.635400 1.361400
23.678300 1.324200
23.721200 1.268800
23.764100 1.181800
23.807100 1.145100
23.850000 1.114500
23.892900 1.119600
23.935800 1.136300
23.978700 1.148800
24.021700 1.149700
24.064600 1.153800
24.107500 1.186400
24.150400 1.245100
24.193300 1.306500
24.236300 1.365000
24.279200 1.402500
24.322100 1.441300
24.365000 1.448100
24.407900 1.461800
24.450800 1.430600
24.493800 1.407100
24.536700 1.414900
24.579600 1.416200
24.622500 1.410900
24.665400 1.405600
24.708400 1.397200
24.751300 1.391100
24.794200 1.372100
24.837100 1.366100
24.880000 1.418000
24.923000 1.505000
24.965900 1.574200
25.008800 1.629900
25.051700 1.712500
25.094600 1.657500
25.137600 1.607600
25.180500 1.565900
25.223400 1.523200
25.266300 1.487000
25.309200 1.457900
25.352100 1.399600
25.395100 1.337100
25.438000 1.275600
25.480900 1.219300
25.523800 1.195500
25.566700 1.145200
25.609700 1.010100
25.652600 0.922200
25.695500 0.851900
25.738400 0.815300
25.781300 0.782800
25.824300 0.755300
25.867200 0.733500
25.910100 0.714100
25.953000 0.689000
25.995900 0.667200
26.038900 0.641600
26.081800 0.613200
26.124700 0.589100
26.167600 0.567800
26.210500 0.552200
26.253500 0.544600
26.296400 0.554000
26.339300 0.562500
26.382200 0.562100
26.425100 0.565300
26.468000 0.573300
26.511000 0.581700
26.553900 0.610000
26.596800 0.645400
26.639700 0.665400
26.682600 0.702600
26.725600 0.731300
26.768500 0.770300
26.811400 0.778300
26.854300 0.797800
26.897200 0.826200
26.940200 0.871400
26.983100 0.943000
27.026000 0.908400
27.068900 0.927800
27.111800 1.001000
27.154800 1.063600
27.197700 1.099300
27.240600 1.146200
27.283500 1.172100
27.326400 1.174300
27.369300 1.155600
27.412300 1.180400
27.455200 1.193400
27.498100 1.205900
27.541000 1.215400
27.583900 1.246900
27.626900 1.279400
27.669800 1.276600
27.712700 1.272600
27.755600 1.274200
27.798500 1.220600
27.841500 1.209900
27.884400 1.217000
27.927300 1.232000
27.970200 1.258300
28.013100 1.294800
28.056100 1.347800
28.099000 1.571100
28.141900 1.463000
28.184800 1.442600
28.227700 1.433500
28.270600 1.446100
28.313600 1.449000
28.356500 1.474400
28.399400 1.509300
28.442300 1.546400
28.485200 1.610700
28.528200 1.588400
28.571100 1.558100
28.614000 1.548700
28.656900 1.565200
28.699800 1.590400
28.742800 1.608500
28.785700 1.582600
28.828600 1.549900
28.871500 1.530900
28.914400 1.515300
28.957400 1.507000
29.000300 1.514100
29.043200 1.493200
29.086100 1.467600
29.129000 1.463500
29.171900 1.478900
29.214900 1.424100
29.257800 1.434700
29.300700 1.430700
29.343600 1.414000
29.386500 1.404100
29.429500 1.383400
29.472400 1.363500
29.515300 1.331200
29.558200 1.285500
29.601100 1.236000
29.644100 1.179500
29.687000 1.118800
29.729900 1.073300
29.772800 1.038400
29.815700 1.005100
29.858700 0.980700
29.901600 0.962100
29.944500 0.945600
29.987400 0.933800
30.030300 0.924100
30.073300 0.911000
30.116200 0.896200
30.159100 0.879900
30.202000 0.833700
30.244900 0.756500
30.287800 0.698200
30.330800 0.675300
30.373700 0.659200
30.416600 0.639000
30.459500 0.619800
30.502400 0.602800
30.545400 0.589300
30.588300 0.574700
30.631200 0.564800
30.674100 0.562100
30.717000 0.561000
30.760000 0.543900
30.802900 0.529100
30.845800 0.532000
30.888700 0.537400
30.931600 0.541900
30.974600 0.547300
31.017500 0.551800
31.060400 0.570800
31.103300 0.592800
31.146200 0.607700
31.189100 0.613700
31.232100 0.608200
31.275000 0.510900
31.317900 0.519200
31.360800 0.521200
31.403700 0.551600
31.446700 0.542800
31.489600 0.539900
31.532500 0.548800
31.575400 0.564800
31.618300 0.584400
31.661300 0.611000
31.704200 0.642300
31.747100 0.679700
31.790000 0.721200
31.832900 0.762600
31.875900 0.803100
31.918800 0.849000
31.961700 0.909500
32.004600 0.977700
32.047500 1.048200
32.090400 1.122800
32.133400 1.234800
32.176300 1.339200
32.219200 1.495000
32.262100 1.428000
32.305000 1.293000
32.348000 1.276100
32.390900 1.221300
32.433800 1.209700
32.476700 1.191600
32.519600 1.131500
32.562600 1.091100
32.605500 1.049100
32.648400 1.012000
32.691300 0.977800
32.734200 0.950300
32.777200 0.938300
32.820100 0.943400
32.863000 0.979000
32.905900 1.042000
32.948800 1.114000
32.991800 1.158400
33.034700 1.151700
33.077600 1.174300
33.120500 1.228200
33.163400 1.289700
33.206300 1.386300
33.249300 1.461200
33.292200 1.464500
33.335100 1.408900
33.378000 1.376800
33.420900 1.306600
33.463900 1.278100
33.506800 1.232400
33.549700 1.170800
33.592600 1.120200
33.635500 1.105700
33.678500 1.097800
33.721400 1.085800
33.764300 1.067100
33.807200 1.040900
33.850100 1.021900
33.893100 1.007800
33.936000 1.002300
33.978900 1.013200
34.021800 1.013000
34.064700 0.997500
34.107600 0.982500
34.150600 0.975900
34.193500 0.989400
34.236400 0.984600
34.279300 0.987900
34.322200 0.997500
34.365200 0.983800
34.408100 0.978600
34.451000 0.977700
34.493900 0.980000
34.536800 0.984400
34.579800 0.992400
34.622700 1.004100
34.665600 1.019900
34.708500 1.038500
34.751400 1.066600
34.794400 1.092900
34.837300 1.116900
34.880200 1.142700
34.923100 1.181100
34.966000 1.251500
35.008900 1.268400
35.051900 1.255200
35.094800 1.246600
35.137700 1.241600
35.180600 1.241700
35.223500 1.252400
35.266500 1.283100
35.309400 1.315700
35.352300 1.417100
35.395200 1.386600
35.438100 1.386300
35.481100 1.390200
35.524000 1.403600
35.566900 1.435700
35.609800 1.453000
35.652700 1.461400
35.695700 1.465900
35.738600 1.522200
35.781500 1.503200
35.824400 1.513100
35.867300 1.554600
35.910300 1.596900
35.953200 1.607800
35.996100 1.610100
36.039000 1.634700
36.081900 1.664700
36.124800 1.651700
36.167800 1.696100
36.210700 1.749000
36.253600 1.823100
36.296500 1.933000
36.339400 2.131800
36.382400 2.158400
36.425300 2.225000
36.468200 2.242500
36.511100 2.116600
36.554000 2.145500
36.597000 2.255100
36.639900 2.496900
36.682800 2.421100
36.725700 2.595800
36.768600 2.438400
36.811600 2.349500
36.854500 2.405700
36.897400 2.547900
36.940300 2.690400
36.983200 2.485400
37.026100 2.413500
37.069100 2.384800
37.112000 2.345300
37.154900 2.251100
37.197800 2.085400
37.240700 2.039000
37.283700 2.038000
37.326600 1.968800
37.369500 1.871400
37.412400 1.810000
37.455300 1.804800
37.498300 1.847500
37.541200 1.795700
37.584100 1.752600
37.627000 1.667500
37.669900 1.601900
37.712900 1.521600
37.755800 1.455000
37.798700 1.417600
37.841600 1.403700
37.884500 1.405500
37.927400 1.406800
37.970400 1.400100
38.013300 1.371400
38.056200 1.286000
38.099100 1.234800
38.142000 1.199800
38.185000 1.182600
38.227900 1.180300
38.270800 1.183900
38.313700 1.178600
38.356600 1.164900
38.399600 1.283000
38.442500 1.157900
38.485400 1.199500
38.528300 1.179900
38.571200 1.171800
38.614200 1.197800
38.657100 1.226800
38.700000 1.263000
38.742900 1.277100
38.785800 1.291000
38.828700 1.328900
38.871700 1.374800
38.914600 1.433400
38.957500 1.479300
39.000400 1.478800
39.043300 1.489100
39.086300 1.516600
39.129200 1.550200
39.172100 1.601300
39.215000 1.638100
39.257900 1.687700
39.300900 1.748000
39.343800 1.816700
39.386700 1.899600
39.429600 1.976900
39.472500 2.147700
39.515500 2.574900
39.558400 2.929500
39.601300 3.474500
39.644200 6.165000
39.687100 5.141500
39.730100 10.907500
39.773000 10.178600
39.815900 9.545400
39.858800 15.238300
39.901700 31.113400
39.944600 9.989800
39.987600 6.915600
40.030500 6.911400
40.073400 4.134100
40.116300 3.088700
40.159200 2.523400
40.202200 2.163400
40.245100 1.959900
40.288000 1.761300
40.330900 1.561400
40.373800 1.385600
40.416800 1.245500
40.459700 1.101000
40.502600 0.982700
40.545500 0.848100
40.588400 0.721400
40.631400 0.607500
40.674300 0.522600
40.717200 0.455100
40.760100 0.397200
40.803000 0.355900
40.845900 0.330000
40.888900 0.310800
40.931800 0.294200
40.974700 0.279400
41.017600 0.266200
41.060500 0.254800
41.103500 0.245100
41.146400 0.236900
41.189300 0.230100
41.232200 0.224300
41.275100 0.219200
41.318100 0.208700
41.361000 0.189800
41.403900 0.167500
41.446800 0.145100
41.489700 0.122900
41.532700 0.101800
41.575600 0.086200
41.618500 0.078000
41.661400 0.070600
41.704300 0.064100
41.747200 0.058500
41.790200 0.053700
41.833100 0.049700
41.876000 0.046300
41.918900 0.043600
41.961800 0.041400
42.004800 0.039800
42.047700 0.038800
42.090600 0.037800
42.133500 0.036500
42.176400 0.035000
42.219400 0.033100
42.262300 0.029700
42.305200 0.026300
42.348100 0.023800
42.391000 0.022000
42.434000 0.020800
42.476900 0.019600
42.519800 0.018500
42.562700 0.017400
42.605600 0.016400
42.648600 0.015400
42.691500 0.014400
42.734400 0.013500
42.777300 0.012600
42.820200 0.011700
42.863100 0.010900
42.906100 0.010100
42.949000 0.009300
42.991900 0.008600
43.034800 0.007900
43.077700 0.007300
43.120700 0.006400
43.163600 0.004900
43.206500 0.003600
43.249400 0.002500
43.292300 0.001600
43.335300 0.000900
43.378200 0.000400
43.421100 0.000100
43.464000 0.000000
43.506900 0.000000
43.549900 0.000000
43.592800 0.000000
43.635700 0.000000
43.678600 0.000000
43.721500 0.000000
43.764400 0.000000
43.807400 0.000000
43.850300 0.000000
43.893200 0.000000
43.936100 0.000000
43.979000 0.000000
44.022000 0.000000
44.064900 0.000000
44.107800 0.000000
44.150700 0.000000
44.193600 0.000000
44.236600 0.000000
44.279500 0.000000
44.322400 0.000000
44.365300 0.000000
44.408200 0.000000
44.451200 0.000000
44.494100 0.000000
44.537000 0.000000
44.579900 0.000000
44.622800 0.000000
44.665700 0.000000
44.708700 0.000000
44.751600 0.000000
44.794500 0.000000
44.837400 0.000000
44.880300 0.000000
44.923300 0.000000
44.966200 0.000000
45.009100 0.000000
45.052000 0.000000
45.094900 0.000000
45.137900 0.000000
45.180800 0.000000
45.223700 0.000000
45.266600 0.000000
45.309500 0.000000
45.352500 0.000000
45.395400 0.000000
45.438300 0.000000
45.481200 0.000000
45.524100 0.000000
45.567100 0.000000
45.610000 0.000000
45.652900 0.000000
45.695800 0.000000
45.738700 0.000000
45.781600 0.000000
45.824600 0.000000
45.867500 0.000000
45.910400 0.000000
45.953300 0.000000
45.996200 0.000000
46.039200 0.000000
46.082100 0.000000
46.125000 0.000000
46.167900 0.000000
46.210800 0.000000
46.253800 0.000000
46.296700 0.000000
46.339600 0.000000
46.382500 0.000000
46.425400 0.000000
46.468400 0.000000
46.511300 0.000000
46.554200 0.000000
46.597100 0.000000
46.640000 0.000000
46.682900 0.000000
46.725900 0.000000
46.768800 0.000000
46.811700 0.000000
46.854600 0.000000
46.897500 0.000000
46.940500 0.000000
46.983400 0.000000
47.026300 0.000000
47.069200 0.000000
47.112100 0.000000
47.155100 0.000000
47.198000 0.000000
47.240900 0.000000
47.283800 0.000000
47.326700 0.000000
47.369700 0.000000
e
