set title 'mp-556588 - Density of States'
set xlabel 'Energy (eV)'
set ylabel 'DOS (states/eV)'
set grid
set xrange [-10:10]
set yrange [0:30.360]
set xzeroaxis lt -1
set terminal png size 800,600
set output 'mp-556588_dos_gnuplot.png'
plot '-' using 1:2 with lines title 'DOS'
-19.179600 0.000000
-19.157400 0.000000
-19.135200 0.000000
-19.113000 0.000000
-19.090900 0.000000
-19.068700 0.000000
-19.046500 0.000000
-19.024300 0.000000
-19.002100 0.000000
-18.980000 0.000000
-18.957800 0.000000
-18.935600 0.000000
-18.913400 0.000000
-18.891200 0.000000
-18.869100 0.000000
-18.846900 0.000000
-18.824700 0.000000
-18.802500 0.000000
-18.780400 0.000000
-18.758200 0.000000
-18.736000 0.000000
-18.713800 0.000000
-18.691600 0.000000
-18.669500 0.000000
-18.647300 0.000000
-18.625100 0.000000
-18.602900 0.000000
-18.580700 0.000000
-18.558600 0.000000
-18.536400 0.000000
-18.514200 0.000000
-18.492000 0.000000
-18.469800 0.000000
-18.447700 0.000000
-18.425500 0.000000
-18.403300 0.000000
-18.381100 0.000000
-18.358900 0.000000
-18.336800 0.000000
-18.314600 0.000000
-18.292400 0.000000
-18.270200 0.000000
-18.248000 0.000000
-18.225900 0.000000
-18.203700 0.000000
-18.181500 0.000000
-18.159300 0.000000
-18.137100 0.000000
-18.115000 0.000000
-18.092800 0.000000
-18.070600 0.000000
-18.048400 0.000000
-18.026300 0.000000
-18.004100 0.000000
-17.981900 0.000000
-17.959700 0.000000
-17.937500 0.000000
-17.915400 0.000000
-17.893200 0.000000
-17.871000 0.000000
-17.848800 0.000000
-17.826600 0.000000
-17.804500 0.000000
-17.782300 0.000000
-17.760100 0.000000
-17.737900 0.000000
-17.715700 0.000000
-17.693600 0.000000
-17.671400 0.000000
-17.649200 0.000000
-17.627000 0.000000
-17.604800 0.000000
-17.582700 0.000000
-17.560500 0.000000
-17.538300 0.000000
-17.516100 0.000000
-17.493900 0.000000
-17.471800 0.000000
-17.449600 0.000000
-17.427400 0.000000
-17.405200 0.000000
-17.383000 0.000000
-17.360900 0.000000
-17.338700 0.000000
-17.316500 0.000000
-17.294300 0.000000
-17.272200 0.000000
-17.250000 0.000000
-17.227800 0.000000
-17.205600 0.000000
-17.183400 0.000000
-17.161300 1.581600
-17.139100 0.832500
-17.116900 1.076700
-17.094700 1.339400
-17.072500 1.620900
-17.050400 1.921000
-17.028200 2.382000
-17.006000 2.554700
-16.983800 2.664500
-16.961600 2.747900
-16.939500 2.825200
-16.917300 2.864600
-16.895100 2.926200
-16.872900 2.972800
-16.850700 3.091900
-16.828600 3.808300
-16.806400 3.666200
-16.784200 3.740600
-16.762000 4.173800
-16.739800 3.198700
-16.717700 3.089200
-16.695500 3.175900
-16.673300 3.334500
-16.651100 3.246100
-16.628900 2.969400
-16.606800 3.043100
-16.584600 3.212300
-16.562400 2.555600
-16.540200 2.391700
-16.518100 2.294700
-16.495900 2.305200
-16.473700 2.099100
-16.451500 1.840600
-16.429300 1.704600
-16.407200 0.852600
-16.385000 0.133200
-16.362800 0.000000
-16.340600 0.000000
-16.318400 0.000000
-16.296300 0.000000
-16.274100 0.185900
-16.251900 2.579300
-16.229700 3.071900
-16.207500 2.913800
-16.185400 2.918700
-16.163200 4.138200
-16.141000 7.752400
-16.118800 7.512200
-16.096600 6.148200
-16.074500 5.530100
-16.052300 8.138600
-16.030100 7.809400
-16.007900 5.837500
-15.985700 4.574300
-15.963600 3.740800
-15.941400 3.203700
-15.919200 2.757300
-15.897000 2.377800
-15.874800 2.282700
-15.852700 2.379200
-15.830500 2.661400
-15.808300 3.149600
-15.786100 3.056400
-15.764000 4.105100
-15.741800 4.192700
-15.719600 4.155200
-15.697400 4.426500
-15.675200 4.718500
-15.653100 5.293800
-15.630900 4.956600
-15.608700 4.804900
-15.586500 5.310000
-15.564300 5.579000
-15.542200 5.624800
-15.520000 5.990400
-15.497800 6.271100
-15.475600 4.465000
-15.453400 3.735600
-15.431300 3.864200
-15.409100 4.218500
-15.386900 4.916400
-15.364700 5.738200
-15.342500 6.672300
-15.320400 7.864800
-15.298200 7.337900
-15.276000 8.416900
-15.253800 7.974900
-15.231600 8.600100
-15.209500 8.621900
-15.187300 9.798300
-15.165100 9.339800
-15.142900 4.477700
-15.120700 2.314700
-15.098600 1.600400
-15.076400 1.012800
-15.054200 0.540800
-15.032000 1.177100
-15.009900 2.775500
-14.987700 6.478200
-14.965500 21.027400
-14.943300 23.994000
-14.921100 19.798200
-14.899000 9.104300
-14.876800 2.794400
-14.854600 0.314000
-14.832400 0.000000
-14.810200 2.102000
-14.788100 7.630900
-14.765900 13.479900
-14.743700 13.878600
-14.721500 14.511200
-14.699300 15.700400
-14.677200 17.095300
-14.655000 7.381400
-14.632800 4.750700
-14.610600 16.975300
-14.588400 21.948400
-14.566300 14.818100
-14.544100 11.387100
-14.521900 8.458300
-14.499700 5.830500
-14.477500 4.386100
-14.455400 3.775700
-14.433200 7.345700
-14.411000 11.362600
-14.388800 15.697800
-14.366600 16.193000
-14.344500 15.023600
-14.322300 11.832500
-14.300100 9.714200
-14.277900 1.897200
-14.255800 0.000000
-14.233600 0.000000
-14.211400 0.000000
-14.189200 0.000000
-14.167000 0.000000
-14.144900 0.000000
-14.122700 0.000000
-14.100500 0.000000
-14.078300 0.000000
-14.056100 0.000000
-14.034000 0.000000
-14.011800 0.000000
-13.989600 0.000000
-13.967400 0.000000
-13.945200 0.000000
-13.923100 0.000000
-13.900900 0.000000
-13.878700 0.000000
-13.856500 0.000000
-13.834300 0.000000
-13.812200 0.000000
-13.790000 0.000000
-13.767800 0.000000
-13.745600 0.000000
-13.723400 0.000000
-13.701300 0.000000
-13.679100 0.000000
-13.656900 0.000000
-13.634700 0.000000
-13.612500 0.000000
-13.590400 0.000000
-13.568200 0.000000
-13.546000 0.000000
-13.523800 0.000000
-13.501700 0.000000
-13.479500 0.000000
-13.457300 0.000000
-13.435100 0.000000
-13.412900 0.000000
-13.390800 0.000000
-13.368600 0.000000
-13.346400 0.000000
-13.324200 0.000000
-13.302000 0.000000
-13.279900 0.000000
-13.257700 0.000000
-13.235500 0.000000
-13.213300 0.000000
-13.191100 0.000000
-13.169000 0.000000
-13.146800 0.000000
-13.124600 0.000000
-13.102400 0.000000
-13.080200 0.000000
-13.058100 0.000000
-13.035900 0.000000
-13.013700 0.000000
-12.991500 0.000000
-12.969300 0.000000
-12.947200 0.000000
-12.925000 0.000000
-12.902800 0.000000
-12.880600 0.000000
-12.858400 0.000000
-12.836300 0.000000
-12.814100 0.000000
-12.791900 0.000000
-12.769700 0.000000
-12.747600 0.000000
-12.725400 0.000000
-12.703200 0.000000
-12.681000 0.000000
-12.658800 0.000000
-12.636700 0.000000
-12.614500 0.000000
-12.592300 0.000000
-12.570100 0.000000
-12.547900 0.000000
-12.525800 0.000000
-12.503600 0.000000
-12.481400 0.000000
-12.459200 0.000000
-12.437000 0.000000
-12.414900 0.000000
-12.392700 0.000000
-12.370500 0.000000
-12.348300 0.000000
-12.326100 0.000000
-12.304000 0.000000
-12.281800 0.000000
-12.259600 0.000000
-12.237400 0.000000
-12.215200 0.000000
-12.193100 0.000000
-12.170900 0.000000
-12.148700 0.000000
-12.126500 0.000000
-12.104400 0.000000
-12.082200 0.000000
-12.060000 0.000000
-12.037800 0.000000
-12.015600 0.000000
-11.993500 0.000000
-11.971300 0.000000
-11.949100 0.000000
-11.926900 0.000000
-11.904700 0.000000
-11.882600 0.000000
-11.860400 0.000000
-11.838200 0.000000
-11.816000 0.000000
-11.793800 0.000000
-11.771700 0.000000
-11.749500 0.000000
-11.727300 0.000000
-11.705100 0.000000
-11.682900 0.000000
-11.660800 0.000000
-11.638600 0.000000
-11.616400 0.000000
-11.594200 0.000000
-11.572000 0.000000
-11.549900 0.000000
-11.527700 0.000000
-11.505500 0.000000
-11.483300 0.000000
-11.461100 0.000000
-11.439000 0.000000
-11.416800 0.000000
-11.394600 0.000000
-11.372400 0.000000
-11.350300 0.000000
-11.328100 0.000000
-11.305900 0.000000
-11.283700 0.000000
-11.261500 0.000000
-11.239400 0.000000
-11.217200 0.000000
-11.195000 0.000000
-11.172800 0.000000
-11.150600 0.000000
-11.128500 0.000000
-11.106300 0.000000
-11.084100 0.000000
-11.061900 0.000000
-11.039700 0.000000
-11.017600 0.000000
-10.995400 0.000000
-10.973200 0.000000
-10.951000 0.000000
-10.928800 0.000000
-10.906700 0.000000
-10.884500 0.000000
-10.862300 0.000000
-10.840100 0.000000
-10.817900 0.000000
-10.795800 0.000000
-10.773600 0.000000
-10.751400 0.000000
-10.729200 0.000000
-10.707000 0.000000
-10.684900 0.000000
-10.662700 0.000000
-10.640500 0.000000
-10.618300 0.000000
-10.596200 0.000000
-10.574000 0.000000
-10.551800 0.000000
-10.529600 0.000000
-10.507400 0.000000
-10.485300 0.000000
-10.463100 0.000000
-10.440900 0.000000
-10.418700 0.000000
-10.396500 0.000000
-10.374400 0.000000
-10.352200 0.000000
-10.330000 0.000000
-10.307800 0.000000
-10.285600 0.000000
-10.263500 0.000000
-10.241300 0.000000
-10.219100 0.000000
-10.196900 0.000000
-10.174700 0.000000
-10.152600 0.000000
-10.130400 0.000000
-10.108200 0.000000
-10.086000 0.000000
-10.063800 0.000000
-10.041700 0.000000
-10.019500 0.000000
-9.997300 0.000000
-9.975100 0.000000
-9.952900 0.000000
-9.930800 0.000000
-9.908600 0.000000
-9.886400 0.000000
-9.864200 0.000000
-9.842100 0.000000
-9.819900 0.000000
-9.797700 0.000000
-9.775500 0.000000
-9.753300 0.000000
-9.731200 0.000000
-9.709000 0.000000
-9.686800 0.000000
-9.664600 0.000000
-9.642400 0.000000
-9.620300 0.000000
-9.598100 0.000000
-9.575900 0.000000
-9.553700 0.000000
-9.531500 0.000000
-9.509400 0.000000
-9.487200 0.000000
-9.465000 0.000000
-9.442800 0.000000
-9.420600 0.000000
-9.398500 0.000000
-9.376300 0.000000
-9.354100 0.000000
-9.331900 0.000000
-9.309700 0.000000
-9.287600 0.000000
-9.265400 0.000000
-9.243200 0.000000
-9.221000 0.000000
-9.198800 0.000000
-9.176700 0.000000
-9.154500 0.000000
-9.132300 0.000000
-9.110100 0.000000
-9.088000 0.000000
-9.065800 0.000000
-9.043600 0.000000
-9.021400 0.000000
-8.999200 0.000000
-8.977100 0.000000
-8.954900 0.000000
-8.932700 0.000000
-8.910500 0.000000
-8.888300 0.000000
-8.866200 0.000000
-8.844000 0.000000
-8.821800 0.000000
-8.799600 0.000000
-8.777400 0.000000
-8.755300 0.000000
-8.733100 0.000000
-8.710900 0.000000
-8.688700 0.000000
-8.666500 0.000000
-8.644400 0.000000
-8.622200 0.000000
-8.600000 0.000000
-8.577800 0.000000
-8.555600 0.000000
-8.533500 0.000000
-8.511300 0.000000
-8.489100 0.000000
-8.466900 0.000000
-8.444700 0.000000
-8.422600 0.000000
-8.400400 0.000000
-8.378200 0.000000
-8.356000 0.000000
-8.333900 0.000000
-8.311700 0.000000
-8.289500 0.000000
-8.267300 0.000000
-8.245100 0.000000
-8.223000 0.000000
-8.200800 0.000000
-8.178600 0.000000
-8.156400 0.000000
-8.134200 0.000000
-8.112100 0.000000
-8.089900 0.000000
-8.067700 0.000000
-8.045500 0.000000
-8.023300 0.000000
-8.001200 0.000000
-7.979000 0.000000
-7.956800 0.000000
-7.934600 0.000000
-7.912400 0.000000
-7.890300 0.000000
-7.868100 0.000000
-7.845900 0.000000
-7.823700 0.000000
-7.801500 0.000000
-7.779400 0.000000
-7.757200 0.000000
-7.735000 0.000000
-7.712800 0.000000
-7.690600 0.000000
-7.668500 0.000000
-7.646300 0.000000
-7.624100 0.000000
-7.601900 0.000000
-7.579800 0.000000
-7.557600 0.000000
-7.535400 0.000000
-7.513200 0.000000
-7.491000 0.000000
-7.468900 0.000000
-7.446700 0.000000
-7.424500 0.000000
-7.402300 0.000000
-7.380100 0.000000
-7.358000 0.000000
-7.335800 0.000000
-7.313600 0.000000
-7.291400 0.000000
-7.269200 0.000000
-7.247100 0.000000
-7.224900 0.000000
-7.202700 0.000000
-7.180500 0.000000
-7.158300 0.000000
-7.136200 0.000000
-7.114000 0.000000
-7.091800 0.000000
-7.069600 0.000000
-7.047400 0.000000
-7.025300 0.000000
-7.003100 0.000000
-6.980900 0.000000
-6.958700 0.000000
-6.936500 0.000000
-6.914400 0.000000
-6.892200 0.000000
-6.870000 0.000000
-6.847800 0.000000
-6.825700 0.000000
-6.803500 0.000000
-6.781300 0.000000
-6.759100 0.000000
-6.736900 0.000000
-6.714800 0.000000
-6.692600 0.000000
-6.670400 0.000000
-6.648200 0.000000
-6.626000 0.000000
-6.603900 0.000000
-6.581700 0.000000
-6.559500 0.000000
-6.537300 0.000000
-6.515100 0.000000
-6.493000 0.000000
-6.470800 0.000000
-6.448600 0.000000
-6.426400 0.000000
-6.404200 0.000000
-6.382100 0.000000
-6.359900 0.000000
-6.337700 0.000000
-6.315500 0.000000
-6.293300 0.000000
-6.271200 0.000000
-6.249000 0.531700
-6.226800 2.926600
-6.204600 3.960700
-6.182400 4.299900
-6.160300 4.668700
-6.138100 4.884700
-6.115900 5.331100
-6.093700 5.164600
-6.071600 4.694300
-6.049400 3.985800
-6.027200 3.817800
-6.005000 3.599400
-5.982800 3.420000
-5.960700 3.259600
-5.938500 3.108100
-5.916300 3.164700
-5.894100 2.978400
-5.871900 2.808200
-5.849800 2.657800
-5.827600 2.531900
-5.805400 2.434600
-5.783200 2.394300
-5.761000 2.497800
-5.738900 2.304700
-5.716700 2.115400
-5.694500 1.939300
-5.672300 1.721000
-5.650100 1.223800
-5.628000 0.756800
-5.605800 0.300000
-5.583600 1.082800
-5.561400 0.973200
-5.539200 1.037200
-5.517100 1.169800
-5.494900 1.297200
-5.472700 1.433800
-5.450500 1.589000
-5.428300 1.625200
-5.406200 1.687500
-5.384000 1.964500
-5.361800 2.417800
-5.339600 2.668200
-5.317500 3.018600
-5.295300 3.302900
-5.273100 3.449800
-5.250900 3.625500
-5.228700 3.735300
-5.206600 3.853700
-5.184400 3.939000
-5.162200 3.923700
-5.140000 3.759500
-5.117800 3.838700
-5.095700 3.984400
-5.073500 4.150900
-5.051300 4.301300
-5.029100 4.267000
-5.006900 3.839200
-4.984800 3.819000
-4.962600 3.359100
-4.940400 2.846800
-4.918200 2.195300
-4.896000 1.660600
-4.873900 0.859200
-4.851700 0.149400
-4.829500 0.000000
-4.807300 0.001300
-4.785100 0.029500
-4.763000 0.095100
-4.740800 0.217000
-4.718600 0.427300
-4.696400 0.585200
-4.674200 0.753400
-4.652100 0.944800
-4.629900 1.169700
-4.607700 1.425900
-4.585500 1.768200
-4.563400 2.207800
-4.541200 2.502000
-4.519000 2.845400
-4.496800 3.143600
-4.474600 4.147000
-4.452500 3.464500
-4.430300 3.426000
-4.408100 3.420300
-4.385900 3.419600
-4.363700 3.519400
-4.341600 3.710400
-4.319400 3.926200
-4.297200 4.079500
-4.275000 4.229300
-4.252800 4.754200
-4.230700 3.987300
-4.208500 3.691700
-4.186300 3.412800
-4.164100 2.994600
-4.141900 2.488700
-4.119800 2.009600
-4.097600 1.624800
-4.075400 1.320200
-4.053200 1.104000
-4.031000 0.982900
-4.008900 0.886500
-3.986700 0.809400
-3.964500 0.746400
-3.942300 0.819300
-3.920100 0.759200
-3.898000 0.689300
-3.875800 0.616200
-3.853600 0.540100
-3.831400 0.460900
-3.809300 0.370400
-3.787100 0.340500
-3.764900 0.772500
-3.742700 1.475700
-3.720500 1.883300
-3.698400 1.760400
-3.676200 1.399500
-3.654000 1.640200
-3.631800 1.906600
-3.609600 2.142200
-3.587500 2.213000
-3.565300 2.404200
-3.543100 2.673100
-3.520900 3.029900
-3.498700 3.876900
-3.476600 4.814800
-3.454400 5.269500
-3.432200 5.409500
-3.410000 5.456200
-3.387800 4.737700
-3.365700 4.538400
-3.343500 4.418900
-3.321300 4.375900
-3.299100 4.325500
-3.276900 4.052900
-3.254800 3.868000
-3.232600 3.466200
-3.210400 2.693000
-3.188200 2.252500
-3.166000 2.148500
-3.143900 2.808300
-3.121700 1.943300
-3.099500 2.826000
-3.077300 5.077400
-3.055200 7.529200
-3.033000 8.736800
-3.010800 9.554200
-2.988600 14.251000
-2.966400 16.279800
-2.944300 10.999000
-2.922100 5.323300
-2.899900 3.350500
-2.877700 2.149700
-2.855500 1.488500
-2.833400 2.208500
-2.811200 3.492700
-2.789000 4.625500
-2.766800 6.237300
-2.744600 10.476500
-2.722500 13.458300
-2.700300 14.803600
-2.678100 13.270700
-2.655900 11.102000
-2.633700 8.180800
-2.611600 1.595700
-2.589400 0.753400
-2.567200 1.103900
-2.545000 1.605900
-2.522800 2.325500
-2.500700 3.343300
-2.478500 5.610300
-2.456300 10.536200
-2.434100 11.738400
-2.411900 13.824200
-2.389800 10.632000
-2.367600 8.747900
-2.345400 7.035300
-2.323200 4.890100
-2.301100 3.146200
-2.278900 2.672000
-2.256700 0.782700
-2.234500 0.340800
-2.212300 0.687000
-2.190200 2.634200
-2.168000 5.477100
-2.145800 10.599000
-2.123600 11.445000
-2.101400 11.194600
-2.079300 12.408600
-2.057100 10.034900
-2.034900 10.185400
-2.012700 9.628900
-1.990500 5.618700
-1.968400 1.048300
-1.946200 0.000000
-1.924000 0.000000
-1.901800 0.000000
-1.879600 0.000000
-1.857500 0.000000
-1.835300 0.000000
-1.813100 0.000000
-1.790900 0.000000
-1.768700 0.000000
-1.746600 0.000000
-1.724400 0.000000
-1.702200 0.000000
-1.680000 0.000000
-1.657800 0.000000
-1.635700 0.000000
-1.613500 0.000000
-1.591300 0.000000
-1.569100 0.305600
-1.547000 1.964800
-1.524800 3.236400
-1.502600 5.470100
-1.480400 8.203700
-1.458200 9.346900
-1.436100 10.838900
-1.413900 13.315400
-1.391700 15.261900
-1.369500 6.923800
-1.347300 4.525900
-1.325200 3.588200
-1.303000 3.371900
-1.280800 1.846300
-1.258600 0.195200
-1.236400 0.000000
-1.214300 0.000000
-1.192100 0.000000
-1.169900 0.000000
-1.147700 0.000000
-1.125500 0.000000
-1.103400 0.000000
-1.081200 0.331200
-1.059000 1.554700
-1.036800 2.138300
-1.014600 2.317100
-0.992500 2.878500
-0.970300 5.614100
-0.948100 9.515600
-0.925900 11.655500
-0.903700 12.984800
-0.881600 11.468700
-0.859400 10.741200
-0.837200 9.025800
-0.815000 6.726500
-0.792900 1.680900
-0.770700 1.766000
-0.748500 3.782900
-0.726300 5.300000
-0.704100 7.429200
-0.682000 6.632700
-0.659800 8.164600
-0.637600 9.483500
-0.615400 10.322300
-0.593200 11.234500
-0.571100 8.934800
-0.548900 5.946200
-0.526700 5.207500
-0.504500 3.091800
-0.482300 1.935600
-0.460200 0.917600
-0.438000 0.948900
-0.415800 0.673400
-0.393600 0.627500
-0.371400 0.714800
-0.349300 0.827500
-0.327100 0.964200
-0.304900 1.126300
-0.282700 1.383500
-0.260500 1.838800
-0.238400 2.539200
-0.216200 3.738500
-0.194000 5.429200
-0.171800 7.610500
-0.149600 11.030800
-0.127500 12.395900
-0.105300 8.876900
-0.083100 7.706300
-0.060900 6.455300
-0.038800 6.379400
-0.016600 5.156000
0.005600 2.942600
0.027800 1.574500
0.050000 1.175400
0.072100 5.087200
0.094300 7.956500
0.116500 11.337000
0.138700 12.615400
0.160900 15.095900
0.183000 15.187300
0.205200 13.351900
0.227400 5.663300
0.249600 2.017100
0.271800 0.603500
0.293900 0.400200
0.316100 0.842100
0.338300 1.876100
0.360500 4.643800
0.382700 7.569500
0.404800 9.885100
0.427000 11.542500
0.449200 12.304300
0.471400 12.032300
0.493600 11.191200
0.515700 8.096200
0.537900 4.476700
0.560100 3.663800
0.582300 2.829300
0.604500 4.098000
0.626600 5.173500
0.648800 5.331400
0.671000 6.376500
0.693200 8.481200
0.715300 10.524900
0.737500 11.120600
0.759700 11.733200
0.781900 7.088000
0.804100 4.669600
0.826200 4.285700
0.848400 3.547000
0.870600 2.223200
0.892800 2.121600
0.915000 4.519400
0.937100 10.227000
0.959300 16.394100
0.981500 15.571800
1.003700 14.312300
1.025900 12.049800
1.048000 7.535000
1.070200 5.531400
1.092400 3.787100
1.114600 3.957100
1.136800 4.944300
1.158900 7.525100
1.181100 9.928700
1.203300 9.711900
1.225500 10.096600
1.247700 13.348100
1.269800 17.885600
1.292000 8.344500
1.314200 4.087600
1.336400 3.317500
1.358600 9.050800
1.380700 16.163300
1.402900 19.994500
1.425100 21.077700
1.447300 16.369000
1.469400 5.809000
1.491600 0.478500
1.513800 4.067700
1.536000 5.724900
1.558200 9.515900
1.580300 14.111000
1.602500 19.345600
1.624700 16.778900
1.646900 9.172400
1.669100 6.523400
1.691200 6.106100
1.713400 9.120000
1.735600 10.069400
1.757800 12.739500
1.780000 18.360000
1.802100 16.163900
1.824300 11.620400
1.846500 8.179800
1.868700 8.699300
1.890900 5.873700
1.913000 10.822000
1.935200 15.095900
1.957400 16.023300
1.979600 14.859300
2.001800 11.103500
2.023900 9.066900
2.046100 13.018700
2.068300 16.699200
2.090500 10.479900
2.112700 9.825500
2.134800 11.142600
2.157000 22.768800
2.179200 11.003700
2.201400 6.448000
2.223500 5.711900
2.245700 6.713300
2.267900 8.380200
2.290100 13.931700
2.312300 17.295500
2.334400 11.839700
2.356600 9.567700
2.378800 6.136900
2.401000 3.002000
2.423200 0.044000
2.445300 0.000000
2.467500 0.000000
2.489700 0.000000
2.511900 0.000000
2.534100 0.000000
2.556200 0.000000
2.578400 0.000000
2.600600 0.000000
2.622800 0.000000
2.645000 0.000000
2.667100 0.000000
2.689300 0.000000
2.711500 0.080800
2.733700 1.646100
2.755900 2.983700
2.778000 7.476100
2.800200 15.893100
2.822400 27.599900
2.844600 16.294500
2.866800 13.189600
2.888900 6.554900
2.911100 1.252500
2.933300 0.000000
2.955500 0.000000
2.977600 0.000000
2.999800 0.000000
3.022000 0.000000
3.044200 0.000000
3.066400 0.000000
3.088500 0.000000
3.110700 0.000000
3.132900 0.000000
3.155100 0.000000
3.177300 0.000000
3.199400 0.000000
3.221600 0.000000
3.243800 0.000000
3.266000 0.000000
3.288200 0.000000
3.310300 0.000000
3.332500 0.000000
3.354700 0.000000
3.376900 0.000000
3.399100 0.000000
3.421200 0.000000
3.443400 0.000000
3.465600 0.000000
3.487800 0.000000
3.510000 0.000000
3.532100 0.000000
3.554300 0.000000
3.576500 0.000000
3.598700 0.000000
3.620900 0.000000
3.643000 0.000000
3.665200 0.000000
3.687400 0.000000
3.709600 0.000000
3.731700 0.000000
3.753900 0.000000
3.776100 0.000000
3.798300 0.000000
3.820500 0.000000
3.842600 0.000000
3.864800 0.000000
3.887000 0.000000
3.909200 0.000000
3.931400 0.000000
3.953500 0.000000
3.975700 0.000000
3.997900 0.000000
4.020100 0.000000
4.042300 0.000000
4.064400 0.000000
4.086600 0.000000
4.108800 0.000000
4.131000 0.000000
4.153200 0.000000
4.175300 0.000000
4.197500 0.000000
4.219700 0.000000
4.241900 0.000000
4.264100 0.000000
4.286200 0.000000
4.308400 0.000000
4.330600 0.000000
4.352800 0.000000
4.375000 0.000000
4.397100 0.000000
4.419300 0.000000
4.441500 0.000000
4.463700 0.000000
4.485800 0.000000
4.508000 0.000000
4.530200 0.000000
4.552400 0.000000
4.574600 0.000000
4.596700 0.000000
4.618900 0.000000
4.641100 0.000000
4.663300 0.000000
4.685500 0.000000
4.707600 0.000000
4.729800 0.000000
4.752000 0.000000
4.774200 0.000000
4.796400 0.000000
4.818500 0.000000
4.840700 0.000000
4.862900 0.000000
4.885100 0.000000
4.907300 0.000000
4.929400 0.000000
4.951600 0.000000
4.973800 0.000000
4.996000 0.000000
5.018200 0.000000
5.040300 0.000000
5.062500 0.000000
5.084700 0.000000
5.106900 0.000000
5.129100 0.000000
5.151200 0.000000
5.173400 0.000000
5.195600 0.000000
5.217800 0.000000
5.239900 0.000000
5.262100 0.000000
5.284300 0.000000
5.306500 0.000000
5.328700 0.000000
5.350800 0.000000
5.373000 0.000000
5.395200 0.000000
5.417400 0.000000
5.439600 0.000000
5.461700 0.000000
5.483900 0.000000
5.506100 0.000000
5.528300 0.000000
5.550500 0.000000
5.572600 0.000000
5.594800 0.000000
5.617000 0.000000
5.639200 0.000000
5.661400 0.000000
5.683500 0.000000
5.705700 0.000000
5.727900 0.000000
5.750100 0.000000
5.772300 0.000000
5.794400 0.000000
5.816600 0.000000
5.838800 0.000000
5.861000 0.000000
5.883200 0.000000
5.905300 0.000000
5.927500 0.000000
5.949700 0.000000
5.971900 0.000000
5.994000 0.000000
6.016200 0.000000
6.038400 0.000000
6.060600 0.000000
6.082800 0.000000
6.104900 0.000000
6.127100 0.000000
6.149300 0.000000
6.171500 0.000000
6.193700 0.000000
6.215800 0.000000
6.238000 0.000000
6.260200 0.000000
6.282400 0.000000
6.304600 0.000000
6.326700 0.000000
6.348900 0.000000
6.371100 0.000000
6.393300 0.000000
6.415500 0.000000
6.437600 0.000000
6.459800 0.000000
6.482000 0.000000
6.504200 0.000000
6.526400 0.000000
6.548500 0.000000
6.570700 0.000000
6.592900 0.000000
6.615100 0.000000
6.637300 0.000000
6.659400 0.000000
6.681600 0.000000
6.703800 0.000000
6.726000 0.000000
6.748100 0.000000
6.770300 0.000000
6.792500 0.000000
6.814700 0.000000
6.836900 0.000000
6.859000 0.000000
6.881200 0.000000
6.903400 0.000000
6.925600 0.000000
6.947800 0.000000
6.969900 0.000000
6.992100 0.000000
7.014300 0.000000
7.036500 0.000000
7.058700 0.000000
7.080800 0.000000
7.103000 0.000000
7.125200 0.000000
7.147400 0.000000
7.169600 0.178600
7.191700 0.179600
7.213900 0.181000
7.236100 0.182600
7.258300 0.184600
7.280500 0.186900
7.302600 0.189400
7.324800 0.195100
7.347000 0.205500
7.369200 0.216600
7.391400 0.227900
7.413500 0.239400
7.435700 0.251000
7.457900 0.262900
7.480100 0.275000
7.502200 0.287300
7.524400 0.299800
7.546600 0.312400
7.568800 0.325300
7.591000 0.338400
7.613100 0.351700
7.635300 0.365100
7.657500 0.378800
7.679700 0.392300
7.701900 0.406100
7.724000 0.420500
7.746200 0.435400
7.768400 0.451300
7.790600 0.468500
7.812800 0.487000
7.834900 0.507700
7.857100 0.529800
7.879300 0.552800
7.901500 0.576900
7.923700 0.602000
7.945800 0.628000
7.968000 0.655000
7.990200 0.752700
8.012400 0.907100
8.034600 0.944300
8.056700 0.980400
8.078900 1.015200
8.101100 1.048100
8.123300 1.077100
8.145500 1.102600
8.167600 1.124300
8.189800 1.146300
8.212000 1.211200
8.234200 1.303000
8.256300 1.402800
8.278500 1.502600
8.300700 1.735500
8.322900 1.794100
8.345100 1.844900
8.367200 1.902300
8.389400 1.942300
8.411600 1.934600
8.433800 1.937800
8.456000 1.861800
8.478100 1.780300
8.500300 1.710600
8.522500 1.677900
8.544700 1.657100
8.566900 1.642600
8.589000 1.634600
8.611200 1.646200
8.633400 1.681600
8.655600 1.722300
8.677800 1.777300
8.699900 1.864100
8.722100 1.982000
8.744300 2.109900
8.766500 2.222200
8.788700 2.381500
8.810800 2.548200
8.833000 2.574700
8.855200 2.128700
8.877400 1.429100
8.899500 1.329700
8.921700 1.247600
8.943900 1.170200
8.966100 1.093400
8.988300 1.011200
9.010400 0.932900
9.032600 0.859000
9.054800 0.739700
9.077000 0.612700
9.099200 0.509900
9.121300 0.412400
9.143500 0.313400
9.165700 0.214600
9.187900 0.116000
9.210100 0.108600
9.232200 0.462100
9.254400 0.580000
9.276600 0.636700
9.298800 0.644600
9.321000 0.772600
9.343100 1.004600
9.365300 1.317700
9.387500 1.712000
9.409700 2.273600
9.431900 3.028200
9.454000 3.608500
9.476200 3.350000
9.498400 3.227300
9.520600 3.218100
9.542800 3.257700
9.564900 3.340500
9.587100 3.717700
9.609300 3.918900
9.631500 4.816800
9.653600 4.892700
9.675800 4.891400
9.698000 4.838700
9.720200 4.845100
9.742400 4.904700
9.764500 4.547600
9.786700 4.340400
9.808900 5.002300
9.831100 2.804000
9.853300 1.577100
9.875400 1.209800
9.897600 0.634300
9.919800 0.245100
9.942000 0.070300
9.964200 0.001200
9.986300 0.000000
10.008500 0.001100
10.030700 0.009600
10.052900 0.026500
10.075100 0.051700
10.097200 0.085300
10.119400 0.127300
10.141600 0.177500
10.163800 0.347000
10.186000 0.485000
10.208100 0.624200
10.230300 0.805000
10.252500 1.027600
10.274700 1.319000
10.296900 1.703900
10.319000 2.099800
10.341200 2.500100
10.363400 2.895500
10.385600 3.260400
10.407700 3.522200
10.429900 3.756600
10.452100 4.102100
10.474300 4.768700
10.496500 6.061700
10.518600 5.702000
10.540800 5.393000
10.563000 5.435400
10.585200 5.595400
10.607400 5.766100
10.629500 5.839200
10.651700 5.405200
10.673900 3.058000
10.696100 2.302700
10.718300 1.794200
10.740400 1.390200
10.762600 0.942200
10.784800 0.682500
10.807000 0.511900
10.829200 0.408100
10.851300 0.370200
10.873500 0.414400
10.895700 0.534600
10.917900 0.701000
10.940100 0.980200
10.962200 1.151700
10.984400 1.363200
11.006600 1.617100
11.028800 1.963600
11.051000 2.429200
11.073100 3.018900
11.095300 4.456900
11.117500 9.087400
11.139700 11.175800
11.161800 10.437000
11.184000 9.654100
11.206200 8.548400
11.228400 7.435800
11.250600 6.149000
11.272700 4.471200
11.294900 3.010900
11.317100 2.771800
11.339300 2.828100
11.361500 3.035300
11.383600 3.554000
11.405800 2.877500
11.428000 2.991000
11.450200 3.179100
11.472400 3.431300
11.494500 4.475500
11.516700 4.412500
11.538900 4.537600
11.561100 5.024700
11.583300 5.165100
11.605400 4.561800
11.627600 4.255800
11.649800 4.345700
11.672000 4.462400
11.694200 4.781700
11.716300 5.323800
11.738500 5.623900
11.760700 5.862200
11.782900 6.117700
11.805100 6.156900
11.827200 6.258500
11.849400 6.381800
11.871600 6.475400
11.893800 6.704400
11.915900 6.508600
11.938100 6.016400
11.960300 5.601200
11.982500 5.240900
12.004700 5.083600
12.026800 4.916000
12.049000 4.819300
12.071200 4.631900
12.093400 4.442900
12.115600 4.771500
12.137700 5.303900
12.159900 6.160900
12.182100 5.623100
12.204300 5.097400
12.226500 5.423300
12.248600 5.702000
12.270800 5.881400
12.293000 8.033300
12.315200 8.758600
12.337400 8.376900
12.359500 7.347800
12.381700 6.089100
12.403900 5.939100
12.426100 5.655600
12.448300 5.287600
12.470400 4.723700
12.492600 4.767200
12.514800 4.875500
12.537000 5.041600
12.559200 5.165100
12.581300 5.391800
12.603500 5.871200
12.625700 7.381600
12.647900 7.640600
12.670000 7.542500
12.692200 6.687200
12.714400 4.758900
12.736600 3.588800
12.758800 2.775400
12.780900 3.113300
12.803100 3.575000
12.825300 3.321200
12.847500 3.425500
12.869700 3.766500
12.891800 4.565000
12.914000 6.903500
12.936200 9.023500
12.958400 10.058700
12.980600 9.409000
13.002700 8.314500
13.024900 6.884900
13.047100 4.697800
13.069300 3.571300
13.091500 2.986900
13.113600 2.615000
13.135800 2.343400
13.158000 2.421600
13.180200 3.274000
13.202400 4.510100
13.224500 5.032400
13.246700 5.521300
13.268900 6.133600
13.291100 6.777000
13.313300 6.811700
13.335400 6.760900
13.357600 6.398700
13.379800 6.257900
13.402000 5.476200
13.424100 5.081500
13.446300 4.664900
13.468500 4.664500
13.490700 4.928300
13.512900 6.079600
13.535000 5.687800
13.557200 5.855600
13.579400 6.050500
13.601600 6.414600
13.623800 6.038500
13.645900 5.917100
13.668100 6.110900
13.690300 5.697000
13.712500 5.101100
13.734700 5.209500
13.756800 4.913100
13.779000 4.427300
13.801200 5.046600
13.823400 5.776900
13.845600 5.605700
13.867700 5.787100
13.889900 4.622900
13.912100 4.340800
13.934300 4.206500
13.956500 4.278700
13.978600 4.415100
14.000800 4.390400
14.023000 4.298800
14.045200 4.294000
14.067400 4.474800
14.089500 4.378800
14.111700 4.902500
14.133900 5.139000
14.156100 5.460100
14.178200 5.861700
14.200400 6.404600
14.222600 6.215900
14.244800 6.036300
14.267000 6.019300
14.289100 6.068400
14.311300 6.223800
14.333500 5.798500
14.355700 5.675400
14.377900 5.593500
14.400000 5.239000
14.422200 5.099000
14.444400 5.155700
14.466600 5.181200
14.488800 5.061500
14.510900 4.972800
14.533100 4.853200
14.555300 4.733600
14.577500 4.768100
14.599700 4.716700
14.621800 4.615300
14.644000 4.507400
14.666200 4.488300
14.688400 4.711700
14.710600 5.090200
14.732700 5.631800
14.754900 5.461300
14.777100 4.776300
14.799300 4.539200
14.821500 4.393700
14.843600 4.391900
14.865800 4.468900
14.888000 5.229100
14.910200 3.684100
14.932300 3.825200
14.954500 4.091200
14.976700 4.228400
14.998900 4.164500
15.021100 4.072800
15.043200 4.142400
15.065400 4.167700
15.087600 4.088200
15.109800 4.845500
15.132000 3.709400
15.154100 2.992700
15.176300 2.423600
15.198500 2.243700
15.220700 3.180900
15.242900 5.945900
15.265000 4.829400
15.287200 4.220200
15.309400 4.170400
15.331600 4.077800
15.353800 4.298100
15.375900 4.722800
15.398100 5.022900
15.420300 5.707500
15.442500 7.002000
15.464700 7.761700
15.486800 6.691500
15.509000 5.835400
15.531200 4.431400
15.553400 2.994100
15.575600 3.125700
15.597700 3.505900
15.619900 3.547000
15.642100 3.477300
15.664300 4.662400
15.686400 2.821400
15.708600 2.071500
15.730800 2.271000
15.753000 2.643300
15.775200 3.345900
15.797300 2.691400
15.819500 2.703900
15.841700 2.779500
15.863900 3.240400
15.886100 3.540400
15.908200 3.990100
15.930400 4.668200
15.952600 5.369100
15.974800 5.925800
15.997000 6.530900
16.019100 6.435800
16.041300 6.288700
16.063500 6.017400
16.085700 5.488100
16.107900 5.317600
16.130000 5.397000
16.152200 5.532200
16.174400 5.709500
16.196600 6.288000
16.218800 6.704600
16.240900 6.096600
16.263100 5.385800
16.285300 5.040200
16.307500 4.889000
16.329700 4.870100
16.351800 4.995400
16.374000 5.177100
16.396200 5.474200
16.418400 5.911500
16.440500 6.207100
16.462700 6.372900
16.484900 6.611800
16.507100 6.537800
16.529300 6.048900
16.551400 5.135700
16.573600 4.893100
16.595800 4.437200
16.618000 4.625500
16.640200 5.531700
16.662300 5.905200
16.684500 6.612500
16.706700 6.440400
16.728900 5.551500
16.751100 4.812600
16.773200 4.134100
16.795400 3.537300
16.817600 2.562800
16.839800 2.279300
16.862000 1.873200
16.884100 1.053100
16.906300 0.336900
16.928500 0.140100
16.950700 0.022800
16.972900 0.000000
16.995000 0.000000
17.017200 0.000000
17.039400 0.000000
17.061600 0.002300
17.083800 0.672100
17.105900 0.763000
17.128100 1.135400
17.150300 1.662800
17.172500 2.637000
17.194600 3.971000
17.216800 5.506300
17.239000 7.032800
17.261200 7.907000
17.283400 8.544600
17.305500 8.623600
17.327700 8.853800
17.349900 8.517300
17.372100 7.221900
17.394300 4.976700
17.416400 3.589600
17.438600 2.569900
17.460800 1.827900
17.483000 1.482900
17.505200 1.314200
17.527300 1.171200
17.549500 1.124000
17.571700 1.181800
17.593900 1.337800
17.616100 1.898700
17.638200 2.384700
17.660400 3.791700
17.682600 7.191500
17.704800 10.127400
17.727000 10.216500
17.749100 9.799000
17.771300 8.964700
17.793500 7.651800
17.815700 7.140000
17.837900 6.991000
17.860000 5.202100
17.882200 3.953100
17.904400 4.243600
17.926600 4.243200
17.948700 4.755700
17.970900 5.181900
17.993100 5.814800
18.015300 6.340900
18.037500 6.651000
18.059600 6.834600
18.081800 7.742700
18.104000 6.778100
18.126200 6.160900
18.148400 5.832200
18.170500 5.371000
18.192700 4.489200
18.214900 3.882400
18.237100 3.182700
18.259300 2.326900
18.281400 1.988700
18.303600 1.733300
18.325800 1.203700
18.348000 2.393500
18.370200 4.823300
18.392300 7.155300
18.414500 9.888100
18.436700 12.102100
18.458900 12.081100
18.481100 9.165400
18.503200 7.486700
18.525400 6.107100
18.547600 4.845800
18.569800 3.815300
18.592000 3.160300
18.614100 2.938700
18.636300 2.200600
18.658500 2.471000
18.680700 2.989200
18.702800 3.795700
18.725000 4.769100
18.747200 5.792200
18.769400 5.708400
18.791600 5.696300
18.813700 5.656500
18.835900 5.751800
18.858100 5.948700
18.880300 5.817700
18.902500 5.474200
18.924600 4.828400
18.946800 4.293600
18.969000 3.799700
18.991200 3.645700
19.013400 3.571900
19.035500 3.429600
19.057700 3.477100
19.079900 2.071200
19.102100 1.461700
19.124300 1.657300
19.146400 2.552500
19.168600 4.661600
19.190800 5.791300
19.213000 7.142300
19.235200 7.830700
19.257300 7.185600
19.279500 7.434300
19.301700 7.429300
19.323900 7.849500
19.346100 5.733000
19.368200 4.988900
19.390400 4.790900
19.412600 4.284900
19.434800 3.900700
19.456900 3.325500
19.479100 2.118400
19.501300 1.189500
19.523500 1.784500
19.545700 2.744900
19.567800 5.127600
19.590000 6.930200
19.612200 8.063400
19.634400 7.788000
19.656600 8.386700
19.678700 8.867700
19.700900 8.065600
19.723100 7.063700
19.745300 6.001500
19.767500 4.471400
19.789600 3.735200
19.811800 3.647600
19.834000 3.562800
19.856200 3.446900
19.878400 3.574300
19.900500 4.000300
19.922700 4.908200
19.944900 6.772200
19.967100 8.178600
19.989300 9.559300
20.011400 8.435800
20.033600 7.575300
20.055800 7.166500
20.078000 5.707700
20.100200 4.447900
20.122300 3.558800
20.144500 3.051700
20.166700 2.740600
20.188900 2.538000
20.211000 2.587700
20.233200 3.392000
20.255400 3.796400
20.277600 3.883700
20.299800 4.175100
20.321900 4.320200
20.344100 4.487500
20.366300 4.691200
20.388500 5.358400
20.410700 6.325100
20.432800 7.584500
20.455000 8.607400
20.477200 8.776800
20.499400 7.370400
20.521600 6.508800
20.543700 4.917400
20.565900 3.597800
20.588100 2.485700
20.610300 1.967600
20.632500 1.868200
20.654600 1.898200
20.676800 2.250300
20.699000 3.063600
20.721200 3.972000
20.743400 4.985000
20.765500 5.153700
20.787700 4.893500
20.809900 5.034700
20.832100 4.747500
20.854300 5.091800
20.876400 5.880300
20.898600 5.712600
20.920800 5.572600
20.943000 5.621100
20.965100 5.697600
20.987300 5.639900
21.009500 4.786900
21.031700 3.738600
21.053900 3.161600
21.076000 3.425600
21.098200 4.192500
21.120400 4.071200
21.142600 3.707100
21.164800 3.682300
21.186900 4.031200
21.209100 4.457700
21.231300 5.299200
21.253500 5.422800
21.275700 5.553700
21.297800 5.581200
21.320000 5.427500
21.342200 5.594900
21.364400 6.635900
21.386600 6.828500
21.408700 6.494900
21.430900 5.354400
21.453100 4.199900
21.475300 3.284700
21.497500 2.682000
21.519600 2.124800
21.541800 1.942800
21.564000 2.415700
21.586200 2.831700
21.608400 3.360500
21.630500 4.280400
21.652700 5.081700
21.674900 5.704600
21.697100 6.333300
21.719200 6.306100
21.741400 6.172900
21.763600 6.197100
21.785800 6.347800
21.808000 5.409000
21.830100 4.978600
21.852300 4.450000
21.874500 3.986900
21.896700 3.422000
21.918900 2.847800
21.941000 2.905900
21.963200 3.374900
21.985400 3.876700
22.007600 4.555300
22.029800 5.279000
22.051900 6.171900
22.074100 8.275300
22.096300 7.948300
22.118500 7.898900
22.140700 6.452800
22.162800 5.668000
22.185000 4.973800
22.207200 4.687500
22.229400 4.579100
22.251600 4.321700
22.273700 4.136700
22.295900 3.992400
22.318100 3.680600
22.340300 3.107700
22.362500 2.543700
22.384600 2.516700
22.406800 2.550600
22.429000 2.590200
22.451200 2.604400
22.473300 2.491200
22.495500 2.287600
22.517700 2.299500
22.539900 2.633500
22.562100 3.235500
22.584200 3.451000
22.606400 3.496200
22.628600 3.613200
22.650800 3.723600
22.673000 4.439200
22.695100 4.278400
22.717300 4.209200
22.739500 4.208300
22.761700 4.167300
22.783900 4.035800
22.806000 3.954200
22.828200 3.641400
22.850400 2.950600
22.872600 2.576200
22.894800 2.272800
22.916900 2.008600
22.939100 1.720400
22.961300 1.407100
22.983500 1.099000
23.005700 0.756100
23.027800 0.438300
23.050000 0.291600
23.072200 0.184200
23.094400 0.105200
23.116600 0.048100
23.138700 0.013100
23.160900 0.000100
23.183100 0.000000
23.205300 0.000000
23.227400 0.000000
23.249600 0.000000
23.271800 0.000000
23.294000 0.000000
23.316200 0.000000
23.338300 0.000000
23.360500 0.000000
23.382700 0.000000
23.404900 0.000000
23.427100 0.000000
23.449200 0.000000
23.471400 0.000000
23.493600 0.000000
23.515800 0.000000
23.538000 0.000000
23.560100 0.000000
23.582300 0.000000
23.604500 0.000000
23.626700 0.000000
23.648900 0.000000
23.671000 0.000000
23.693200 0.000000
23.715400 0.000000
23.737600 0.000000
23.759800 0.000000
23.781900 0.000000
23.804100 0.000000
23.826300 0.000000
23.848500 0.000000
23.870700 0.000000
23.892800 0.000000
23.915000 0.000000
23.937200 0.000000
23.959400 0.000000
23.981500 0.000000
24.003700 0.000000
24.025900 0.000000
24.048100 0.000000
24.070300 0.000000
24.092400 0.000000
24.114600 0.000000
24.136800 0.000000
24.159000 0.000000
24.181200 0.000000
24.203300 0.000000
24.225500 0.000000
24.247700 0.000000
24.269900 0.000000
24.292100 0.000000
24.314200 0.000000
24.336400 0.000000
24.358600 0.000000
24.380800 0.000000
24.403000 0.000000
24.425100 0.000000
24.447300 0.000000
24.469500 0.000000
24.491700 0.000000
24.513900 0.000000
24.536000 0.000000
24.558200 0.000000
24.580400 0.000000
24.602600 0.000000
24.624800 0.000000
24.646900 0.000000
24.669100 0.000000
24.691300 0.000000
24.713500 0.000000
24.735600 0.000000
24.757800 0.000000
24.780000 0.000000
24.802200 0.000000
24.824400 0.000000
24.846500 0.000000
24.868700 0.000000
24.890900 0.000000
24.913100 0.000000
24.935300 0.000000
24.957400 0.000000
24.979600 0.000000
25.001800 0.000000
25.024000 0.000000
25.046200 0.000000
25.068300 0.000000
25.090500 0.000000
25.112700 0.000000
25.134900 0.000000
25.157100 0.000000
25.179200 0.000000
e
