set title 'mp-862982 - Density of States'
set xlabel 'Energy (eV)'
set ylabel 'DOS (states/eV)'
set grid
set xrange [-10:10]
set yrange [0:47.814]
set xzeroaxis lt -1
set terminal png size 800,600
set output 'mp-862982_dos_gnuplot.png'
plot '-' using 1:2 with lines title 'DOS'
-15.429900 0.000000
-15.413600 0.000000
-15.397300 0.000000
-15.380900 0.000000
-15.364600 0.000000
-15.348300 0.000000
-15.332000 0.000000
-15.315700 0.000000
-15.299300 0.000000
-15.283000 0.000000
-15.266700 0.000000
-15.250400 0.000000
-15.234100 0.000000
-15.217700 0.000000
-15.201400 0.000000
-15.185100 0.000000
-15.168800 0.000000
-15.152500 0.000000
-15.136100 0.000000
-15.119800 0.000000
-15.103500 0.000000
-15.087200 0.000000
-15.070900 0.000000
-15.054500 0.000000
-15.038200 0.000000
-15.021900 0.000000
-15.005600 0.000000
-14.989300 0.000000
-14.972900 0.000000
-14.956600 0.000000
-14.940300 0.000000
-14.924000 0.000000
-14.907700 0.000000
-14.891300 0.000000
-14.875000 0.000000
-14.858700 0.000000
-14.842400 0.000000
-14.826100 0.000000
-14.809700 0.000000
-14.793400 0.000000
-14.777100 0.000000
-14.760800 0.000000
-14.744500 0.000000
-14.728100 0.000000
-14.711800 0.000000
-14.695500 0.000000
-14.679200 0.000000
-14.662900 0.000000
-14.646500 0.000000
-14.630200 0.000000
-14.613900 0.000000
-14.597600 0.000000
-14.581300 0.000000
-14.564900 0.000000
-14.548600 0.000000
-14.532300 0.000000
-14.516000 0.000000
-14.499700 0.000000
-14.483300 0.000000
-14.467000 0.000000
-14.450700 0.000000
-14.434400 0.000000
-14.418100 0.000000
-14.401700 0.000000
-14.385400 0.000000
-14.369100 0.000000
-14.352800 0.000000
-14.336500 0.000000
-14.320100 0.000000
-14.303800 0.000000
-14.287500 0.000000
-14.271200 0.000000
-14.254900 0.000000
-14.238500 0.000000
-14.222200 0.000000
-14.205900 0.000000
-14.189600 0.000000
-14.173300 0.000000
-14.156900 0.000000
-14.140600 0.000000
-14.124300 0.000000
-14.108000 0.000000
-14.091700 0.000000
-14.075300 0.000000
-14.059000 0.000000
-14.042700 0.000000
-14.026400 0.000000
-14.010100 0.000000
-13.993700 0.000000
-13.977400 0.000000
-13.961100 0.000000
-13.944800 0.004100
-13.928500 0.585800
-13.912100 1.025300
-13.895800 1.372100
-13.879500 1.746900
-13.863200 2.016100
-13.846900 2.274100
-13.830500 2.574700
-13.814200 2.889300
-13.797900 3.216000
-13.781600 3.573100
-13.765300 4.036800
-13.748900 4.647200
-13.732600 5.448600
-13.716300 6.212200
-13.700000 8.033700
-13.683700 6.401500
-13.667300 4.522300
-13.651000 4.188800
-13.634700 7.864800
-13.618400 11.431000
-13.602100 6.705900
-13.585700 6.385300
-13.569400 8.071000
-13.553100 17.620300
-13.536800 13.173900
-13.520500 20.228600
-13.504100 26.321300
-13.487800 33.540100
-13.471500 38.599400
-13.455200 63.658400
-13.438900 37.386600
-13.422500 23.860500
-13.406200 0.000000
-13.389900 0.000000
-13.373600 0.000000
-13.357300 0.000000
-13.340900 0.000000
-13.324600 0.000000
-13.308300 0.000000
-13.292000 0.000000
-13.275700 0.000000
-13.259300 0.000000
-13.243000 0.000000
-13.226700 0.000000
-13.210400 0.000000
-13.194000 0.000000
-13.177700 0.000000
-13.161400 0.000000
-13.145100 0.000000
-13.128800 0.000000
-13.112400 0.000000
-13.096100 0.000000
-13.079800 0.000000
-13.063500 0.000000
-13.047200 0.000000
-13.030800 0.000000
-13.014500 0.000000
-12.998200 0.000000
-12.981900 0.000000
-12.965600 0.000000
-12.949200 0.000000
-12.932900 0.000000
-12.916600 0.000000
-12.900300 0.000000
-12.884000 0.000000
-12.867600 0.000000
-12.851300 0.000000
-12.835000 0.000000
-12.818700 0.000000
-12.802400 0.000000
-12.786000 0.000000
-12.769700 0.000000
-12.753400 0.000000
-12.737100 0.000000
-12.720800 0.000000
-12.704400 0.000000
-12.688100 0.000000
-12.671800 0.000000
-12.655500 0.000000
-12.639200 0.000000
-12.622800 0.000000
-12.606500 0.000000
-12.590200 0.000000
-12.573900 0.000000
-12.557600 0.000000
-12.541200 0.000000
-12.524900 0.000000
-12.508600 0.000000
-12.492300 0.000000
-12.476000 0.000000
-12.459600 0.000000
-12.443300 0.000000
-12.427000 0.000000
-12.410700 0.000000
-12.394400 0.000000
-12.378000 0.000000
-12.361700 0.000000
-12.345400 0.000000
-12.329100 0.000000
-12.312800 0.000000
-12.296400 0.000000
-12.280100 0.000000
-12.263800 0.000000
-12.247500 0.000000
-12.231200 0.000000
-12.214800 0.000000
-12.198500 0.000000
-12.182200 0.000000
-12.165900 0.000000
-12.149600 0.000000
-12.133200 0.000000
-12.116900 0.000000
-12.100600 0.000000
-12.084300 0.000000
-12.068000 0.000000
-12.051600 0.000000
-12.035300 0.000000
-12.019000 0.000000
-12.002700 0.000000
-11.986400 0.000000
-11.970000 0.000000
-11.953700 0.000000
-11.937400 0.000000
-11.921100 0.000000
-11.904800 0.000000
-11.888400 0.000000
-11.872100 0.000000
-11.855800 0.000000
-11.839500 0.000000
-11.823200 0.000000
-11.806800 0.000000
-11.790500 0.000000
-11.774200 0.000000
-11.757900 0.000000
-11.741600 0.000000
-11.725200 0.000000
-11.708900 0.000000
-11.692600 0.000000
-11.676300 0.000000
-11.660000 0.000000
-11.643600 0.000000
-11.627300 0.000000
-11.611000 0.000000
-11.594700 0.000000
-11.578400 0.000000
-11.562000 0.000000
-11.545700 0.000000
-11.529400 0.000000
-11.513100 0.000000
-11.496800 0.000000
-11.480400 0.000000
-11.464100 0.000000
-11.447800 0.000000
-11.431500 0.000000
-11.415200 0.000000
-11.398800 0.000000
-11.382500 0.000000
-11.366200 0.000000
-11.349900 0.000000
-11.333600 0.000000
-11.317200 0.000000
-11.300900 0.000000
-11.284600 0.000000
-11.268300 0.000000
-11.252000 0.000000
-11.235600 0.000000
-11.219300 0.000000
-11.203000 0.000000
-11.186700 0.000000
-11.170400 0.000000
-11.154000 0.000000
-11.137700 0.000000
-11.121400 0.000000
-11.105100 0.000000
-11.088800 0.000000
-11.072400 0.000000
-11.056100 0.000000
-11.039800 0.000000
-11.023500 0.000000
-11.007200 0.000000
-10.990800 0.000000
-10.974500 0.000000
-10.958200 0.000000
-10.941900 0.000000
-10.925600 0.000000
-10.909200 0.000000
-10.892900 0.000000
-10.876600 0.000000
-10.860300 0.000000
-10.844000 0.000000
-10.827600 0.000000
-10.811300 0.000000
-10.795000 0.000000
-10.778700 0.000000
-10.762400 0.000000
-10.746000 0.000000
-10.729700 0.000000
-10.713400 0.000000
-10.697100 0.000000
-10.680800 0.000000
-10.664400 0.000000
-10.648100 0.000000
-10.631800 0.000000
-10.615500 0.000000
-10.599200 0.000000
-10.582800 0.000000
-10.566500 0.000000
-10.550200 0.000000
-10.533900 0.000000
-10.517600 0.000000
-10.501200 0.000000
-10.484900 0.000000
-10.468600 0.000000
-10.452300 0.000000
-10.436000 0.000000
-10.419600 0.000000
-10.403300 0.000000
-10.387000 0.000000
-10.370700 0.000000
-10.354400 0.000000
-10.338000 0.000000
-10.321700 0.000000
-10.305400 0.000000
-10.289100 0.000000
-10.272800 0.000000
-10.256400 0.000000
-10.240100 0.000000
-10.223800 0.000000
-10.207500 0.000000
-10.191200 0.000000
-10.174800 0.000000
-10.158500 0.000000
-10.142200 0.000000
-10.125900 0.000000
-10.109600 0.000000
-10.093200 0.000000
-10.076900 0.000000
-10.060600 0.000000
-10.044300 0.000000
-10.028000 0.000000
-10.011600 0.000000
-9.995300 0.000000
-9.979000 0.000000
-9.962700 0.000000
-9.946400 0.000000
-9.930000 0.000000
-9.913700 0.000000
-9.897400 0.000000
-9.881100 0.000000
-9.864800 0.000000
-9.848400 0.000000
-9.832100 0.000000
-9.815800 0.000000
-9.799500 0.000000
-9.783200 0.000000
-9.766800 0.000000
-9.750500 0.000000
-9.734200 0.000000
-9.717900 0.000000
-9.701600 0.000000
-9.685200 0.000000
-9.668900 0.000000
-9.652600 0.000000
-9.636300 0.000000
-9.620000 0.000000
-9.603600 0.000000
-9.587300 0.000000
-9.571000 0.000000
-9.554700 0.000000
-9.538400 0.000000
-9.522000 0.000000
-9.505700 0.000000
-9.489400 0.000000
-9.473100 0.000000
-9.456800 0.000000
-9.440400 0.000000
-9.424100 0.000000
-9.407800 0.000000
-9.391500 0.000000
-9.375200 0.000000
-9.358800 0.000000
-9.342500 0.000000
-9.326200 0.000000
-9.309900 0.000000
-9.293500 0.000000
-9.277200 0.000000
-9.260900 0.000000
-9.244600 0.000000
-9.228300 0.000000
-9.211900 0.000000
-9.195600 0.000000
-9.179300 0.000000
-9.163000 0.000000
-9.146700 0.000000
-9.130300 0.000000
-9.114000 0.000000
-9.097700 0.000000
-9.081400 0.000000
-9.065100 0.000000
-9.048700 0.000000
-9.032400 0.000000
-9.016100 0.000000
-8.999800 0.000000
-8.983500 0.000000
-8.967100 0.000000
-8.950800 0.000000
-8.934500 0.000000
-8.918200 0.000000
-8.901900 0.000000
-8.885500 0.000000
-8.869200 0.000000
-8.852900 0.000000
-8.836600 0.000000
-8.820300 0.000000
-8.803900 0.000000
-8.787600 0.000000
-8.771300 0.000000
-8.755000 0.000000
-8.738700 0.000000
-8.722300 0.000000
-8.706000 0.000000
-8.689700 0.000000
-8.673400 0.000000
-8.657100 0.000000
-8.640700 0.000000
-8.624400 0.000000
-8.608100 0.000000
-8.591800 0.000000
-8.575500 0.000000
-8.559100 0.000000
-8.542800 0.000000
-8.526500 0.000000
-8.510200 0.000000
-8.493900 0.000000
-8.477500 0.000000
-8.461200 0.000000
-8.444900 0.000000
-8.428600 0.000000
-8.412300 0.000000
-8.395900 0.000000
-8.379600 0.000000
-8.363300 0.000000
-8.347000 0.000000
-8.330700 0.000000
-8.314300 0.000000
-8.298000 0.000000
-8.281700 0.000000
-8.265400 0.000000
-8.249100 0.000000
-8.232700 0.000000
-8.216400 0.000000
-8.200100 0.000000
-8.183800 0.000000
-8.167500 0.000000
-8.151100 0.000000
-8.134800 0.000000
-8.118500 0.000000
-8.102200 0.000000
-8.085900 0.000000
-8.069500 0.000000
-8.053200 0.000000
-8.036900 0.000000
-8.020600 0.000000
-8.004300 0.000000
-7.987900 0.000000
-7.971600 0.000000
-7.955300 0.000000
-7.939000 0.000000
-7.922700 0.000000
-7.906300 0.000000
-7.890000 0.000000
-7.873700 0.000000
-7.857400 0.000000
-7.841100 0.000000
-7.824700 0.000000
-7.808400 0.000000
-7.792100 0.000000
-7.775800 0.000000
-7.759500 0.000000
-7.743100 0.000000
-7.726800 0.000000
-7.710500 0.000000
-7.694200 0.000000
-7.677900 0.000000
-7.661500 0.000000
-7.645200 0.000000
-7.628900 0.000000
-7.612600 0.000000
-7.596300 0.000000
-7.579900 0.000000
-7.563600 0.000000
-7.547300 0.000000
-7.531000 0.000000
-7.514700 0.000000
-7.498300 0.000000
-7.482000 0.000000
-7.465700 0.000000
-7.449400 0.000000
-7.433100 0.000000
-7.416700 0.000000
-7.400400 0.000000
-7.384100 0.000000
-7.367800 0.000000
-7.351500 0.000000
-7.335100 0.000000
-7.318800 0.000000
-7.302500 0.000000
-7.286200 0.000000
-7.269900 0.000000
-7.253500 0.000000
-7.237200 0.000000
-7.220900 0.000000
-7.204600 0.000000
-7.188300 0.000000
-7.171900 0.000000
-7.155600 0.000000
-7.139300 0.000000
-7.123000 0.000000
-7.106700 0.000000
-7.090300 0.000000
-7.074000 0.000000
-7.057700 0.000000
-7.041400 0.000000
-7.025100 0.000000
-7.008700 0.000000
-6.992400 0.000000
-6.976100 0.000000
-6.959800 0.000000
-6.943500 0.000000
-6.927100 0.000000
-6.910800 0.000000
-6.894500 0.000000
-6.878200 0.000000
-6.861900 0.000000
-6.845500 0.000000
-6.829200 0.000000
-6.812900 0.000000
-6.796600 0.000000
-6.780300 0.000000
-6.763900 0.000000
-6.747600 0.000000
-6.731300 0.000000
-6.715000 0.000000
-6.698700 0.000000
-6.682300 0.000000
-6.666000 0.000000
-6.649700 0.000000
-6.633400 0.000000
-6.617100 0.000000
-6.600700 0.000000
-6.584400 0.000000
-6.568100 0.000000
-6.551800 0.000000
-6.535500 0.000000
-6.519100 0.000000
-6.502800 0.000000
-6.486500 0.000000
-6.470200 0.000000
-6.453900 0.000000
-6.437500 0.000000
-6.421200 0.000000
-6.404900 0.000000
-6.388600 0.000000
-6.372300 0.000000
-6.355900 0.000000
-6.339600 0.000000
-6.323300 0.000000
-6.307000 0.000000
-6.290700 0.000000
-6.274300 0.000000
-6.258000 0.000000
-6.241700 0.000000
-6.225400 0.000000
-6.209100 0.000000
-6.192700 0.000000
-6.176400 0.000000
-6.160100 0.000000
-6.143800 0.000000
-6.127500 0.000000
-6.111100 0.000000
-6.094800 0.000000
-6.078500 0.000000
-6.062200 0.000000
-6.045900 0.000000
-6.029500 0.000000
-6.013200 0.000000
-5.996900 0.000000
-5.980600 0.000000
-5.964300 0.000000
-5.947900 0.000000
-5.931600 0.000000
-5.915300 0.000000
-5.899000 0.000000
-5.882700 0.000000
-5.866300 0.000000
-5.850000 0.000000
-5.833700 0.000000
-5.817400 0.000000
-5.801100 0.000000
-5.784700 0.000000
-5.768400 0.000000
-5.752100 0.000000
-5.735800 0.000000
-5.719500 0.000000
-5.703100 0.000000
-5.686800 0.000000
-5.670500 0.000000
-5.654200 0.000000
-5.637900 0.000000
-5.621500 0.000000
-5.605200 0.000000
-5.588900 0.000000
-5.572600 0.000000
-5.556300 0.000000
-5.539900 0.000000
-5.523600 0.000000
-5.507300 0.000000
-5.491000 0.000000
-5.474700 0.000000
-5.458300 0.000000
-5.442000 0.000000
-5.425700 0.000000
-5.409400 0.000000
-5.393000 0.000000
-5.376700 0.000000
-5.360400 0.000000
-5.344100 0.000000
-5.327800 0.000000
-5.311400 0.000000
-5.295100 0.000000
-5.278800 0.000000
-5.262500 0.000000
-5.246200 0.000000
-5.229800 0.000000
-5.213500 0.000000
-5.197200 0.000000
-5.180900 0.000000
-5.164600 0.000000
-5.148200 0.000000
-5.131900 0.000000
-5.115600 0.000000
-5.099300 0.000000
-5.083000 0.000000
-5.066600 0.000000
-5.050300 0.000000
-5.034000 0.000000
-5.017700 0.000000
-5.001400 0.000000
-4.985000 0.000000
-4.968700 0.000000
-4.952400 0.000000
-4.936100 0.000000
-4.919800 0.000000
-4.903400 0.000000
-4.887100 0.000000
-4.870800 0.000000
-4.854500 0.000000
-4.838200 0.000000
-4.821800 0.000000
-4.805500 0.000000
-4.789200 0.000000
-4.772900 0.000000
-4.756600 0.000000
-4.740200 0.000000
-4.723900 0.000000
-4.707600 0.000000
-4.691300 0.000000
-4.675000 0.000000
-4.658600 0.000000
-4.642300 0.000000
-4.626000 0.000000
-4.609700 0.000000
-4.593400 0.000000
-4.577000 0.000000
-4.560700 0.000000
-4.544400 0.000000
-4.528100 0.000000
-4.511800 0.000000
-4.495400 0.000000
-4.479100 0.000000
-4.462800 0.000000
-4.446500 0.000000
-4.430200 0.000000
-4.413800 0.000000
-4.397500 0.000000
-4.381200 0.000000
-4.364900 0.000000
-4.348600 0.000000
-4.332200 0.000000
-4.315900 0.000000
-4.299600 0.000000
-4.283300 0.000000
-4.267000 0.000000
-4.250600 0.000000
-4.234300 0.000000
-4.218000 0.000000
-4.201700 0.000000
-4.185400 0.000000
-4.169000 0.000000
-4.152700 0.000000
-4.136400 0.000000
-4.120100 0.028400
-4.103800 0.128600
-4.087400 0.301200
-4.071100 0.435000
-4.054800 0.522800
-4.038500 0.636100
-4.022200 0.762800
-4.005800 0.966600
-3.989500 1.971200
-3.973200 3.265400
-3.956900 4.286800
-3.940600 5.085000
-3.924200 5.785800
-3.907900 7.261900
-3.891600 10.425600
-3.875300 13.687500
-3.859000 16.834900
-3.842600 12.518200
-3.826300 11.463100
-3.810000 11.640700
-3.793700 9.297500
-3.777400 8.133000
-3.761000 7.186000
-3.744700 6.022500
-3.728400 6.905600
-3.712100 7.708200
-3.695800 5.813700
-3.679400 5.255800
-3.663100 8.769100
-3.646800 9.056800
-3.630500 9.464100
-3.614200 10.182900
-3.597800 8.836200
-3.581500 9.863400
-3.565200 8.424300
-3.548900 8.045200
-3.532600 10.002400
-3.516200 13.080100
-3.499900 15.236700
-3.483600 13.589000
-3.467300 10.203900
-3.451000 11.091500
-3.434600 7.910900
-3.418300 12.122800
-3.402000 17.606500
-3.385700 13.298100
-3.369400 7.687600
-3.353000 8.893700
-3.336700 8.333700
-3.320400 8.981400
-3.304100 12.080900
-3.287800 12.241500
-3.271400 14.090400
-3.255100 12.492700
-3.238800 8.697700
-3.222500 8.290800
-3.206200 6.971500
-3.189800 6.383400
-3.173500 15.795400
-3.157200 13.083000
-3.140900 10.920400
-3.124600 10.077500
-3.108200 10.388700
-3.091900 8.782700
-3.075600 9.119100
-3.059300 9.951300
-3.043000 10.994400
-3.026600 8.764100
-3.010300 8.543100
-2.994000 9.274500
-2.977700 8.915300
-2.961400 7.771300
-2.945000 7.285100
-2.928700 9.812800
-2.912400 6.647100
-2.896100 5.229700
-2.879800 4.219900
-2.863400 4.167000
-2.847100 4.849300
-2.830800 5.195300
-2.814500 5.404200
-2.798200 5.669500
-2.781800 5.727000
-2.765500 6.830500
-2.749200 6.329200
-2.732900 6.197900
-2.716600 5.981100
-2.700200 6.990100
-2.683900 7.882100
-2.667600 7.053500
-2.651300 7.046600
-2.635000 6.918600
-2.618600 6.987500
-2.602300 8.663000
-2.586000 10.548900
-2.569700 9.702300
-2.553400 8.485100
-2.537000 10.454100
-2.520700 10.399100
-2.504400 11.270900
-2.488100 14.289700
-2.471800 12.212900
-2.455400 12.759400
-2.439100 18.985100
-2.422800 18.644600
-2.406500 15.992400
-2.390200 15.247700
-2.373800 14.364500
-2.357500 16.665600
-2.341200 14.167500
-2.324900 16.747200
-2.308600 25.569600
-2.292200 13.114900
-2.275900 43.467600
-2.259600 16.157600
-2.243300 26.621100
-2.227000 32.319800
-2.210600 25.321200
-2.194300 19.450600
-2.178000 13.267600
-2.161700 5.023600
-2.145400 3.791200
-2.129000 5.236300
-2.112700 8.210100
-2.096400 14.310300
-2.080100 19.436100
-2.063800 17.632900
-2.047400 17.845900
-2.031100 13.178400
-2.014800 14.027500
-1.998500 11.488600
-1.982200 10.935300
-1.965800 8.512400
-1.949500 6.571800
-1.933200 6.658100
-1.916900 9.473800
-1.900600 9.969500
-1.884200 8.714700
-1.867900 6.790400
-1.851600 6.044900
-1.835300 5.303700
-1.819000 6.032000
-1.802600 6.383300
-1.786300 6.966000
-1.770000 9.888400
-1.753700 8.825000
-1.737400 5.494200
-1.721000 2.438100
-1.704700 1.651000
-1.688400 2.971600
-1.672100 8.413000
-1.655800 8.762700
-1.639400 7.194100
-1.623100 5.934900
-1.606800 4.899800
-1.590500 6.635100
-1.574200 8.364100
-1.557800 7.558100
-1.541500 7.952800
-1.525200 7.827400
-1.508900 7.510500
-1.492500 8.909100
-1.476200 9.170800
-1.459900 8.139300
-1.443600 6.789900
-1.427300 6.567600
-1.410900 6.453000
-1.394600 7.176700
-1.378300 9.272900
-1.362000 9.275600
-1.345700 7.952600
-1.329300 7.138700
-1.313000 5.703100
-1.296700 6.351100
-1.280400 4.293900
-1.264100 3.689300
-1.247700 3.748800
-1.231400 3.917000
-1.215100 4.520800
-1.198800 5.175700
-1.182500 8.857000
-1.166100 8.036300
-1.149800 7.060500
-1.133500 7.823500
-1.117200 8.704900
-1.100900 8.293800
-1.084500 6.217000
-1.068200 5.105200
-1.051900 5.355400
-1.035600 6.671400
-1.019300 5.750800
-1.002900 5.847300
-0.986600 4.954200
-0.970300 5.572800
-0.954000 5.815300
-0.937700 5.579900
-0.921300 5.798000
-0.905000 6.223100
-0.888700 4.856100
-0.872400 3.539100
-0.856100 3.050000
-0.839700 2.887600
-0.823400 3.100000
-0.807100 3.793600
-0.790800 4.964500
-0.774500 9.584900
-0.758100 10.003500
-0.741800 8.594300
-0.725500 7.855200
-0.709200 7.476600
-0.692900 6.186800
-0.676500 8.096100
-0.660200 11.130400
-0.643900 9.265800
-0.627600 8.144800
-0.611300 9.040600
-0.594900 8.855600
-0.578600 7.503000
-0.562300 6.301000
-0.546000 3.984700
-0.529700 3.172100
-0.513300 2.534300
-0.497000 2.796700
-0.480700 2.875700
-0.464400 3.323400
-0.448100 5.002000
-0.431700 5.471800
-0.415400 5.549600
-0.399100 6.073900
-0.382800 6.154400
-0.366500 6.504000
-0.350100 5.890200
-0.333800 4.937100
-0.317500 3.868800
-0.301200 3.015500
-0.284900 2.376000
-0.268500 2.255800
-0.252200 2.940600
-0.235900 4.129500
-0.219600 5.501700
-0.203300 6.186200
-0.186900 10.016600
-0.170600 12.247500
-0.154300 10.450000
-0.138000 4.428900
-0.121700 1.515100
-0.105300 0.469300
-0.089000 0.251500
-0.072700 0.692800
-0.056400 1.400400
-0.040100 2.785400
-0.023700 6.489400
-0.007400 8.660300
0.008900 9.836500
0.025200 8.773000
0.041500 7.252200
0.057900 5.672100
0.074200 4.436200
0.090500 4.205000
0.106800 4.009700
0.123100 3.730600
0.139500 4.039600
0.155800 3.605000
0.172100 3.657300
0.188400 4.729700
0.204700 6.453100
0.221100 6.457200
0.237400 6.168200
0.253700 5.852000
0.270000 5.565200
0.286300 5.536600
0.302700 5.276200
0.319000 5.719600
0.335300 6.624300
0.351600 6.853800
0.367900 7.196500
0.384300 8.059100
0.400600 8.822300
0.416900 11.089700
0.433200 8.638800
0.449500 7.924000
0.465900 7.581600
0.482200 7.321800
0.498500 6.943600
0.514800 7.226100
0.531100 5.893700
0.547500 5.399200
0.563800 3.393800
0.580100 1.615800
0.596400 1.029200
0.612700 1.267900
0.629100 0.000000
0.645400 0.000000
0.661700 0.000000
0.678000 0.000000
0.694300 0.000000
0.710700 0.000000
0.727000 0.000000
0.743300 0.000000
0.759600 0.000000
0.775900 0.000000
0.792300 0.000000
0.808600 0.000000
0.824900 0.000000
0.841200 0.000000
0.857500 0.000000
0.873900 0.000000
0.890200 0.000000
0.906500 0.000000
0.922800 0.000000
0.939100 0.000000
0.955500 0.000000
0.971800 0.000000
0.988100 0.000000
1.004400 0.000000
1.020700 0.000000
1.037100 0.000000
1.053400 0.000000
1.069700 0.000000
1.086000 0.000000
1.102300 0.000000
1.118700 0.000000
1.135000 0.000000
1.151300 0.000000
1.167600 0.000000
1.183900 0.000000
1.200300 0.000000
1.216600 0.000000
1.232900 0.000000
1.249200 0.000000
1.265500 0.000000
1.281900 0.000000
1.298200 0.000000
1.314500 0.000000
1.330800 0.000000
1.347100 0.000000
1.363500 0.000000
1.379800 0.000000
1.396100 0.000000
1.412400 0.000000
1.428700 0.000000
1.445100 0.000000
1.461400 0.000000
1.477700 0.000000
1.494000 0.000000
1.510300 0.000000
1.526700 0.000000
1.543000 0.000000
1.559300 0.000000
1.575600 0.000000
1.591900 0.000000
1.608300 0.000000
1.624600 0.000000
1.640900 0.000000
1.657200 0.000000
1.673500 0.000000
1.689900 0.000000
1.706200 0.000000
1.722500 0.000000
1.738800 0.000000
1.755100 0.000000
1.771500 0.000000
1.787800 0.000000
1.804100 0.000000
1.820400 0.000000
1.836700 0.000000
1.853100 0.000000
1.869400 0.000000
1.885700 0.000000
1.902000 0.000000
1.918300 0.000000
1.934700 0.000000
1.951000 0.000000
1.967300 0.000000
1.983600 0.000000
1.999900 0.000000
2.016300 0.000000
2.032600 0.000000
2.048900 0.000000
2.065200 0.000000
2.081500 0.000000
2.097900 0.000000
2.114200 0.000000
2.130500 0.000000
2.146800 0.000000
2.163100 0.000000
2.179500 0.000000
2.195800 0.000000
2.212100 0.000000
2.228400 0.000000
2.244700 0.000000
2.261100 0.000000
2.277400 0.000000
2.293700 0.000000
2.310000 0.000000
2.326300 0.000000
2.342700 0.000000
2.359000 0.000000
2.375300 0.000000
2.391600 0.000000
2.408000 0.000000
2.424300 0.000100
2.440600 0.000500
2.456900 0.001300
2.473200 0.002600
2.489600 0.004200
2.505900 0.006300
2.522200 0.008800
2.538500 0.011700
2.554800 0.015000
2.571200 0.018800
2.587500 0.022900
2.603800 0.027500
2.620100 0.032500
2.636400 0.037800
2.652800 0.043600
2.669100 0.049900
2.685400 0.056500
2.701700 0.062900
2.718000 0.069100
2.734400 0.074900
2.750700 0.080400
2.767000 0.084400
2.783300 0.084500
2.799600 0.085300
2.816000 0.086800
2.832300 0.089000
2.848600 0.091900
2.864900 0.095100
2.881200 0.098300
2.897600 0.101500
2.913900 0.104800
2.930200 0.108100
2.946500 0.111400
2.962800 0.114700
2.979200 0.118100
2.995500 0.121600
3.011800 0.125000
3.028100 0.128500
3.044400 0.132000
3.060800 0.135600
3.077100 0.139100
3.093400 0.142800
3.109700 0.146400
3.126000 0.150100
3.142400 0.153900
3.158700 0.157800
3.175000 0.161800
3.191300 0.165900
3.207600 0.170000
3.224000 0.174300
3.240300 0.178700
3.256600 0.183300
3.272900 0.188000
3.289200 0.192900
3.305600 0.197700
3.321900 0.202800
3.338200 0.207900
3.354500 0.213200
3.370800 0.218700
3.387200 0.224200
3.403500 0.230000
3.419800 0.235900
3.436100 0.241800
3.452400 0.247800
3.468800 0.253700
3.485100 0.259800
3.501400 0.265800
3.517700 0.271900
3.534000 0.278100
3.550400 0.284400
3.566700 0.290700
3.583000 0.297100
3.599300 0.303500
3.615600 0.310000
3.632000 0.316500
3.648300 0.323100
3.664600 0.329800
3.680900 0.336500
3.697200 0.343500
3.713600 0.350700
3.729900 0.358300
3.746200 0.366100
3.762500 0.374200
3.778800 0.382700
3.795200 0.391400
3.811500 0.400500
3.827800 0.409800
3.844100 0.419400
3.860400 0.429000
3.876800 0.438700
3.893100 0.449900
3.909400 0.462900
3.925700 0.475700
3.942000 0.495600
3.958400 0.521500
3.974700 0.548200
3.991000 0.575600
4.007300 0.603200
4.023600 0.631100
4.040000 0.659100
4.056300 0.687300
4.072600 0.715800
4.088900 0.745000
4.105200 0.775100
4.121600 0.807700
4.137900 0.844900
4.154200 0.887100
4.170500 0.934100
4.186800 0.993000
4.203200 1.090800
4.219500 1.161400
4.235800 1.203900
4.252100 1.221700
4.268400 1.248500
4.284800 1.262500
4.301100 1.291100
4.317400 1.339300
4.333700 1.424100
4.350000 1.836600
4.366400 2.314700
4.382700 2.677700
4.399000 2.827400
4.415300 2.929700
4.431600 3.134700
4.448000 3.511000
4.464300 3.805000
4.480600 4.080400
4.496900 5.526100
4.513200 5.247300
4.529600 4.805700
4.545900 3.986600
4.562200 3.480900
4.578500 2.648700
4.594800 2.384600
4.611200 2.260700
4.627500 2.204100
4.643800 2.209200
4.660100 2.243400
4.676400 2.280100
4.692800 2.283300
4.709100 2.275900
4.725400 2.301800
4.741700 2.675000
4.758000 2.670200
4.774400 2.322400
4.790700 2.006500
4.807000 1.714400
4.823300 1.619900
4.839600 2.075700
4.856000 2.309600
4.872300 2.348500
4.888600 2.173300
4.904900 1.940100
4.921200 1.946000
4.937600 2.041900
4.953900 2.100100
4.970200 2.134800
4.986500 2.159800
5.002800 2.170400
5.019200 2.197500
5.035500 2.322800
5.051800 2.550900
5.068100 2.832800
5.084400 2.881600
5.100800 3.280000
5.117100 3.689400
5.133400 3.678500
5.149700 3.514600
5.166000 3.349000
5.182400 3.173100
5.198700 2.971500
5.215000 2.669900
5.231300 2.396100
5.247600 2.192500
5.264000 2.009300
5.280300 1.826700
5.296600 1.803900
5.312900 1.848700
5.329200 1.746900
5.345600 1.681700
5.361900 1.708100
5.378200 1.745500
5.394500 1.761200
5.410800 1.747700
5.427200 1.700300
5.443500 1.618800
5.459800 1.503200
5.476100 1.421200
5.492400 1.347500
5.508800 1.045800
5.525100 1.007300
5.541400 0.970900
5.557700 0.939200
5.574000 0.903300
5.590400 0.863000
5.606700 0.826800
5.623000 0.795100
5.639300 0.767800
5.655600 0.745100
5.672000 0.727100
5.688300 0.711200
5.704600 0.696300
5.720900 0.682200
5.737200 0.669100
5.753600 0.659700
5.769900 0.655800
5.786200 0.656000
5.802500 0.648300
5.818800 0.640500
5.835200 0.633800
5.851500 0.628200
5.867800 0.623600
5.884100 0.620100
5.900400 0.621100
5.916800 0.620400
5.933100 0.628300
5.949400 0.741000
5.965700 0.862300
5.982000 0.962600
5.998400 1.067100
6.014700 0.722400
6.031000 0.581000
6.047300 0.456200
6.063600 0.348000
6.080000 0.256300
6.096300 0.181700
6.112600 0.145000
6.128900 0.157000
6.145200 0.217900
6.161600 0.324700
6.177900 0.404100
6.194200 0.393000
6.210500 0.386600
6.226800 0.438600
6.243200 0.501200
6.259500 0.601100
6.275800 0.753500
6.292100 0.960700
6.308500 1.464600
6.324800 1.582100
6.341100 1.577200
6.357400 1.710300
6.373700 1.847500
6.390100 1.989000
6.406400 2.183900
6.422700 2.251800
6.439000 2.165700
6.455300 2.004000
6.471700 1.926800
6.488000 1.895800
6.504300 1.844900
6.520600 1.770400
6.536900 1.793200
6.553300 1.773400
6.569600 1.709400
6.585900 1.783500
6.602200 1.837400
6.618500 1.701000
6.634900 1.688700
6.651200 1.857200
6.667500 2.179400
6.683800 2.222900
6.700100 2.358300
6.716500 2.439200
6.732800 2.522800
6.749100 2.845000
6.765400 3.120100
6.781700 3.472000
6.798100 3.788700
6.814400 3.950100
6.830700 3.997500
6.847000 3.922500
6.863300 3.747300
6.879700 3.662700
6.896000 3.401200
6.912300 3.084200
6.928600 2.750000
6.944900 2.402300
6.961300 2.147500
6.977600 2.154700
6.993900 2.188600
7.010200 2.289300
7.026500 2.423200
7.042900 2.336400
7.059200 2.198800
7.075500 2.094200
7.091800 2.025300
7.108100 1.988600
7.124500 1.961000
7.140800 1.930000
7.157100 1.897500
7.173400 1.859400
7.189700 1.814000
7.206100 1.759700
7.222400 1.694700
7.238700 1.634400
7.255000 1.582200
7.271300 1.546600
7.287700 1.594100
7.304000 1.601000
7.320300 1.590500
7.336600 1.607500
7.352900 1.636800
7.369300 1.677900
7.385600 1.730000
7.401900 1.791000
7.418200 1.856700
7.434500 1.941900
7.450900 2.022700
7.467200 2.077300
7.483500 2.095800
7.499800 2.150500
7.516100 2.112600
7.532500 2.009700
7.548800 1.972300
7.565100 1.913400
7.581400 1.833500
7.597700 1.772300
7.614100 1.795600
7.630400 1.827000
7.646700 1.866400
7.663000 1.979900
7.679300 1.991800
7.695700 2.110900
7.712000 2.298700
7.728300 2.568300
7.744600 2.576800
7.760900 2.620900
7.777300 2.831600
7.793600 2.896200
7.809900 2.824700
7.826200 2.849900
7.842500 3.036400
7.858900 3.384100
7.875200 4.012700
7.891500 4.308400
7.907800 4.763800
7.924100 4.460400
7.940500 4.025000
7.956800 3.370000
7.973100 1.984000
7.989400 1.410700
8.005700 1.208300
8.022100 1.331800
8.038400 1.807800
8.054700 2.217300
8.071000 2.615000
8.087300 3.027500
8.103700 3.341700
8.120000 3.491800
8.136300 3.605200
8.152600 3.900100
8.168900 4.231900
8.185300 4.587000
8.201600 5.007300
8.217900 5.240100
8.234200 5.119700
8.250500 4.537700
8.266900 4.868000
8.283200 5.385900
8.299500 6.152600
8.315800 6.350300
8.332100 7.904700
8.348500 7.993200
8.364800 5.932000
8.381100 4.329400
8.397400 3.325700
8.413700 3.071500
8.430100 2.608000
8.446400 2.647200
8.462700 5.248700
8.479000 7.163700
8.495300 6.713500
8.511700 7.209700
8.528000 7.157400
8.544300 6.136000
8.560600 4.576100
8.576900 3.164500
8.593300 2.718700
8.609600 2.562500
8.625900 2.365000
8.642200 2.658900
8.658500 3.154500
8.674900 3.947500
8.691200 4.575700
8.707500 5.014000
8.723800 4.810900
8.740100 4.838600
8.756500 6.331200
8.772800 6.891800
8.789100 6.577900
8.805400 6.956600
8.821700 5.524200
8.838100 4.695000
8.854400 4.218400
8.870700 4.039800
8.887000 4.149800
8.903300 3.841200
8.919700 3.878100
8.936000 4.366000
8.952300 4.600800
8.968600 5.289900
8.984900 5.612800
9.001300 5.223300
9.017600 3.791500
9.033900 3.683400
9.050200 3.866000
9.066500 3.949900
9.082900 4.487400
9.099200 5.048500
9.115500 5.076900
9.131800 5.135100
9.148100 5.188600
9.164500 5.369800
9.180800 5.545800
9.197100 5.437400
9.213400 4.659000
9.229700 5.014700
9.246100 5.491600
9.262400 6.775100
9.278700 8.855200
9.295000 7.436400
9.311300 6.822000
9.327700 6.762300
9.344000 7.466400
9.360300 6.945200
9.376600 6.788300
9.392900 6.496200
9.409300 6.100700
9.425600 6.493900
9.441900 7.359600
9.458200 7.495300
9.474500 7.383900
9.490900 7.221500
9.507200 6.561000
9.523500 6.164800
9.539800 5.908300
9.556100 6.292900
9.572500 6.244400
9.588800 5.761200
9.605100 5.512200
9.621400 5.156800
9.637700 5.607100
9.654100 5.170100
9.670400 5.179700
9.686700 5.293500
9.703000 5.139300
9.719300 4.803100
9.735700 4.821800
9.752000 4.617300
9.768300 4.617500
9.784600 4.539600
9.800900 4.383600
9.817300 4.125000
9.833600 3.705900
9.849900 3.516100
9.866200 3.922000
9.882500 4.390600
9.898900 4.452600
9.915200 4.840500
9.931500 5.436300
9.947800 5.878100
9.964100 5.294000
9.980500 4.670800
9.996800 4.486600
10.013100 4.496300
10.029400 4.634100
10.045700 4.916700
10.062100 5.397500
10.078400 5.928700
10.094700 7.023000
10.111000 8.009100
10.127300 7.324400
10.143700 5.645700
10.160000 5.359200
10.176300 6.079400
10.192600 6.207300
10.209000 4.924400
10.225300 4.901900
10.241600 5.565500
10.257900 4.952200
10.274200 4.618700
10.290600 4.298800
10.306900 4.094100
10.323200 3.895900
10.339500 3.682800
10.355800 3.386300
10.372200 3.261400
10.388500 3.458200
10.404800 3.773400
10.421100 3.325500
10.437400 2.637200
10.453800 2.513500
10.470100 2.750500
10.486400 3.264400
10.502700 3.874700
10.519000 3.674200
10.535400 3.221400
10.551700 3.160700
10.568000 3.158800
10.584300 3.229700
10.600600 3.932100
10.617000 5.137900
10.633300 5.147400
10.649600 4.980900
10.665900 4.884800
10.682200 4.609600
10.698600 4.092700
10.714900 3.541100
10.731200 3.340100
10.747500 3.249300
10.763800 2.838600
10.780200 2.664600
10.796500 2.603100
10.812800 2.532500
10.829100 2.517200
10.845400 2.565300
10.861800 2.744000
10.878100 3.132700
10.894400 2.755100
10.910700 2.420700
10.927000 2.216100
10.943400 2.074900
10.959700 1.815000
10.976000 1.391600
10.992300 0.813200
11.008600 0.283700
11.025000 0.201200
11.041300 0.236300
11.057600 0.317800
11.073900 0.414500
11.090200 0.517500
11.106600 0.607300
11.122900 0.683000
11.139200 0.746600
11.155500 0.812600
11.171800 0.885200
11.188200 0.989200
11.204500 1.029400
11.220800 1.057200
11.237100 1.084400
11.253400 1.115900
11.269800 1.158300
11.286100 1.211500
11.302400 1.276300
11.318700 1.369700
11.335000 1.499300
11.351400 1.561500
11.367700 1.624700
11.384000 1.742300
11.400300 1.905100
11.416600 2.093000
11.433000 2.322500
11.449300 2.626000
11.465600 2.650700
11.481900 2.705200
11.498200 2.660700
11.514600 2.578900
11.530900 2.489800
11.547200 2.431900
11.563500 2.421700
11.579800 2.524900
11.596200 2.612200
11.612500 2.710700
11.628800 2.866800
11.645100 4.010500
11.661400 3.643000
11.677800 3.440500
11.694100 3.253200
11.710400 3.064300
11.726700 2.883700
11.743000 2.803000
11.759400 2.790200
11.775700 2.755900
11.792000 2.701400
11.808300 2.640400
11.824600 2.756000
11.841000 2.610400
11.857300 2.332800
11.873600 2.099700
11.889900 1.911300
11.906200 1.768400
11.922600 1.677000
11.938900 1.740100
11.955200 1.424500
11.971500 1.237700
11.987800 1.194700
12.004200 1.189900
12.020500 1.304400
12.036800 1.438900
12.053100 1.609800
12.069400 1.821200
12.085800 2.061100
12.102100 2.273300
12.118400 2.513000
12.134700 2.863000
12.151000 3.181500
12.167400 3.209600
12.183700 3.310500
12.200000 3.344200
12.216300 3.623600
12.232600 3.759600
12.249000 3.798600
12.265300 3.755200
12.281600 3.475200
12.297900 3.160300
12.314200 3.003500
12.330600 2.965900
12.346900 2.929800
12.363200 2.929700
12.379500 3.296900
12.395800 3.507000
12.412200 3.883000
12.428500 3.407800
12.444800 3.480900
12.461100 3.929500
12.477400 4.471800
12.493800 4.466100
12.510100 4.035600
12.526400 3.207000
12.542700 2.995500
12.559000 2.923500
12.575400 2.925300
12.591700 2.904600
12.608000 2.879600
12.624300 2.958200
12.640600 3.021800
12.657000 3.049500
12.673300 3.042000
12.689600 4.259000
12.705900 3.994000
12.722200 3.923600
12.738600 3.899600
12.754900 3.844300
12.771200 3.747700
12.787500 3.568100
12.803800 3.401700
12.820200 3.360300
12.836500 3.287600
12.852800 3.195900
12.869100 3.125600
12.885400 3.054700
12.901800 2.991000
12.918100 2.968100
12.934400 2.963000
12.950700 3.123600
12.967000 3.260100
12.983400 3.140800
12.999700 3.160600
13.016000 3.159100
13.032300 3.131000
13.048600 3.223000
13.065000 3.311100
13.081300 3.567600
13.097600 2.967300
13.113900 2.983700
13.130200 3.045500
13.146600 3.033100
13.162900 3.337200
13.179200 2.981100
13.195500 2.783500
13.211800 2.753400
13.228200 2.829800
13.244500 2.971400
13.260800 3.201300
13.277100 3.474500
13.293400 3.698700
13.309800 3.836500
13.326100 3.905600
13.342400 3.917700
13.358700 3.910600
13.375000 3.945800
13.391400 3.938400
13.407700 3.765200
13.424000 2.929100
13.440300 2.847400
13.456600 2.856400
13.473000 2.525500
13.489300 2.452700
13.505600 2.373800
13.521900 2.358100
13.538200 2.381000
13.554600 2.443800
13.570900 2.545300
13.587200 2.649900
13.603500 2.584500
13.619800 2.648300
13.636200 2.687500
13.652500 2.711100
13.668800 2.833600
13.685100 2.996100
13.701400 3.143700
13.717800 3.321700
13.734100 3.504200
13.750400 3.412400
13.766700 3.372000
13.783000 3.406500
13.799400 3.417200
13.815700 3.469300
13.832000 3.484500
13.848300 3.384200
13.864600 3.243200
13.881000 3.590000
13.897300 3.147500
13.913600 3.241000
13.929900 3.030500
13.946200 3.052200
13.962600 2.929300
13.978900 2.906900
13.995200 2.905900
14.011500 2.915800
14.027800 3.009500
14.044200 3.177900
14.060500 3.356100
14.076800 3.436200
14.093100 3.364700
14.109500 3.290300
14.125800 3.281300
14.142100 3.288500
14.158400 3.335700
14.174700 3.403600
14.191100 3.484700
14.207400 3.573700
14.223700 3.665700
14.240000 3.780800
14.256300 3.826900
14.272700 3.906300
14.289000 4.218700
14.305300 4.901400
14.321600 5.609100
14.337900 5.053800
14.354300 4.323200
14.370600 3.883200
14.386900 4.492300
14.403200 3.749500
14.419500 3.606700
14.435900 3.594500
14.452200 3.636300
14.468500 3.644000
14.484800 5.277600
14.501100 3.928700
14.517500 3.783300
14.533800 3.624600
14.550100 3.585000
14.566400 3.648200
14.582700 3.808100
14.599100 4.024800
14.615400 4.116200
14.631700 4.133600
14.648000 4.140700
14.664300 4.131300
14.680700 4.024200
14.697000 3.891800
14.713300 3.821300
14.729600 3.776100
14.745900 3.739300
14.762300 3.722400
14.778600 3.738900
14.794900 3.811000
14.811200 3.818700
14.827500 3.574600
14.843900 3.506500
14.860200 3.519300
14.876500 3.560400
14.892800 3.661200
14.909100 3.854200
14.925500 4.117000
14.941800 4.499200
14.958100 4.267900
14.974400 4.122800
14.990700 4.144500
15.007100 4.319600
15.023400 4.548200
15.039700 4.583200
15.056000 4.549900
15.072300 4.479400
15.088700 4.427400
15.105000 4.481700
15.121300 4.682800
15.137600 4.610700
15.153900 4.249900
15.170300 3.408800
15.186600 3.594300
15.202900 3.576400
15.219200 3.585500
15.235500 3.874400
15.251900 3.997000
15.268200 4.178400
15.284500 4.342700
15.300800 4.237300
15.317100 3.987500
15.333500 3.580600
15.349800 3.186900
15.366100 2.900200
15.382400 2.953700
15.398700 2.610400
15.415100 2.498000
15.431400 2.352600
15.447700 2.269100
15.464000 2.186200
15.480300 2.106900
15.496700 1.881700
15.513000 1.699000
15.529300 1.664400
15.545600 1.628500
15.561900 1.573800
15.578300 1.476900
15.594600 1.431600
15.610900 1.113100
15.627200 0.727900
15.643500 0.344300
15.659900 0.095100
15.676200 0.000000
15.692500 0.000000
15.708800 0.000000
15.725100 0.000000
15.741500 0.000000
15.757800 0.000000
15.774100 0.000000
15.790400 0.000000
15.806700 0.000000
15.823100 0.000000
15.839400 0.000000
15.855700 0.000000
15.872000 0.000000
15.888300 0.000000
15.904700 0.000000
15.921000 0.000000
15.937300 0.000000
15.953600 0.000000
15.969900 0.000000
15.986300 0.000000
16.002600 0.000000
16.018900 0.000000
16.035200 0.000000
16.051500 0.000000
16.067900 0.000000
16.084200 0.000000
16.100500 0.000000
16.116800 0.000000
16.133100 0.000000
16.149500 0.000000
16.165800 0.000000
16.182100 0.000000
16.198400 0.000000
16.214700 0.000000
16.231100 0.000000
16.247400 0.000000
16.263700 0.000000
16.280000 0.000000
16.296300 0.000000
16.312700 0.000000
16.329000 0.000000
16.345300 0.000000
16.361600 0.000000
16.377900 0.000000
16.394300 0.000000
16.410600 0.000000
16.426900 0.000000
16.443200 0.000000
16.459500 0.000000
16.475900 0.000000
16.492200 0.000000
16.508500 0.000000
16.524800 0.000000
16.541100 0.000000
16.557500 0.000000
16.573800 0.000000
16.590100 0.000000
16.606400 0.000000
16.622700 0.000000
16.639100 0.000000
16.655400 0.000000
16.671700 0.000000
16.688000 0.000000
16.704300 0.000000
16.720700 0.000000
16.737000 0.000000
16.753300 0.000000
16.769600 0.000000
16.785900 0.000000
16.802300 0.000000
16.818600 0.000000
16.834900 0.000000
16.851200 0.000000
16.867500 0.000000
16.883900 0.000000
16.900200 0.000000
16.916500 0.000000
16.932800 0.000000
16.949100 0.000000
16.965500 0.000000
16.981800 0.000000
16.998100 0.000000
17.014400 0.000000
17.030700 0.000000
17.047100 0.000000
17.063400 0.000000
17.079700 0.000000
17.096000 0.000000
17.112300 0.000000
17.128700 0.000000
17.145000 0.000000
17.161300 0.000000
17.177600 0.000000
17.193900 0.000000
17.210300 0.000000
e
