set title 'mp-73 - Density of States'
set xlabel 'Energy (eV)'
set ylabel 'DOS (states/eV)'
set grid
set xrange [-10:10]
set yrange [0:7.140]
set xzeroaxis lt -1
set terminal png size 800,600
set output 'mp-73_dos_gnuplot.png'
plot '-' using 1:2 with lines title 'DOS'
-30.429700 0.000000
-30.395000 0.000000
-30.360200 0.000000
-30.325500 0.000000
-30.290800 0.000000
-30.256100 0.000000
-30.221400 0.000000
-30.186600 0.000000
-30.151900 0.000000
-30.117200 0.000000
-30.082500 0.000000
-30.047700 0.000000
-30.013000 0.000000
-29.978300 0.000000
-29.943600 0.000000
-29.908800 0.000000
-29.874100 0.000000
-29.839400 0.000000
-29.804700 0.000000
-29.770000 0.000000
-29.735200 0.000000
-29.700500 0.000000
-29.665800 0.000000
-29.631100 0.000000
-29.596300 0.000000
-29.561600 0.000000
-29.526900 0.000000
-29.492200 0.000000
-29.457400 0.000000
-29.422700 0.000000
-29.388000 0.000000
-29.353300 0.000000
-29.318600 0.000000
-29.283800 0.000000
-29.249100 0.000000
-29.214400 0.000000
-29.179700 0.000000
-29.144900 0.000000
-29.110200 0.000000
-29.075500 0.000000
-29.040800 0.000000
-29.006100 0.000000
-28.971300 0.000000
-28.936600 0.000000
-28.901900 0.000000
-28.867200 0.000000
-28.832400 0.000000
-28.797700 0.000000
-28.763000 0.000000
-28.728300 0.000000
-28.693500 0.000000
-28.658800 0.000000
-28.624100 0.000000
-28.589400 0.000000
-28.554700 0.000000
-28.519900 0.000000
-28.485200 0.000000
-28.450500 0.000000
-28.415800 0.000000
-28.381000 0.000000
-28.346300 0.000000
-28.311600 0.000000
-28.276900 0.000000
-28.242100 0.000000
-28.207400 0.000000
-28.172700 0.000000
-28.138000 0.000000
-28.103300 0.000000
-28.068500 0.000000
-28.033800 0.000000
-27.999100 0.000000
-27.964400 0.000000
-27.929600 0.000000
-27.894900 0.000000
-27.860200 0.000000
-27.825500 0.000000
-27.790700 0.000000
-27.756000 0.000000
-27.721300 0.000000
-27.686600 0.000000
-27.651900 0.000000
-27.617100 0.000000
-27.582400 0.000000
-27.547700 0.000000
-27.513000 0.000000
-27.478200 0.000000
-27.443500 0.000000
-27.408800 0.000000
-27.374100 0.000000
-27.339300 0.000000
-27.304600 0.000000
-27.269900 0.864200
-27.235200 3.448900
-27.200500 5.580200
-27.165700 8.891400
-27.131000 13.153300
-27.096300 8.290500
-27.061600 4.876900
-27.026800 5.497500
-26.992100 5.700400
-26.957400 6.291300
-26.922700 7.403600
-26.887900 8.351600
-26.853200 9.452400
-26.818500 11.190800
-26.783800 9.551100
-26.749100 8.788500
-26.714300 9.421100
-26.679600 12.277100
-26.644900 15.411900
-26.610200 13.839000
-26.575400 0.000000
-26.540700 0.000000
-26.506000 0.000000
-26.471300 0.000000
-26.436500 0.000000
-26.401800 0.000000
-26.367100 0.000000
-26.332400 0.000000
-26.297700 0.000000
-26.262900 0.000000
-26.228200 0.000000
-26.193500 0.000000
-26.158800 0.000000
-26.124000 0.000000
-26.089300 0.000000
-26.054600 0.000000
-26.019900 0.000000
-25.985100 0.000000
-25.950400 0.000000
-25.915700 0.000000
-25.881000 0.000000
-25.846300 0.000000
-25.811500 0.000000
-25.776800 0.000000
-25.742100 0.000000
-25.707400 0.000000
-25.672600 0.000000
-25.637900 0.000000
-25.603200 0.000000
-25.568500 0.000000
-25.533700 0.000000
-25.499000 0.000000
-25.464300 0.000000
-25.429600 0.000000
-25.394900 0.000000
-25.360100 0.000000
-25.325400 0.000000
-25.290700 0.000000
-25.256000 0.000000
-25.221200 0.000000
-25.186500 0.000000
-25.151800 0.000000
-25.117100 0.000000
-25.082300 0.000000
-25.047600 0.000000
-25.012900 0.000000
-24.978200 0.000000
-24.943500 0.000000
-24.908700 0.000000
-24.874000 0.000000
-24.839300 0.000000
-24.804600 0.000000
-24.769800 0.000000
-24.735100 0.000000
-24.700400 0.000000
-24.665700 0.000000
-24.631000 0.000000
-24.596200 0.000000
-24.561500 0.000000
-24.526800 0.000000
-24.492100 0.000000
-24.457300 0.000000
-24.422600 0.000000
-24.387900 0.000000
-24.353200 0.000000
-24.318400 0.000000
-24.283700 0.000000
-24.249000 0.000000
-24.214300 0.000000
-24.179600 0.000000
-24.144800 0.000000
-24.110100 0.000000
-24.075400 0.000000
-24.040700 0.000000
-24.005900 0.000000
-23.971200 0.000000
-23.936500 0.000000
-23.901800 0.000000
-23.867000 0.000000
-23.832300 0.000000
-23.797600 0.000000
-23.762900 0.000000
-23.728200 0.000000
-23.693400 0.000000
-23.658700 0.000000
-23.624000 0.000000
-23.589300 0.000000
-23.554500 0.000000
-23.519800 0.000000
-23.485100 0.000000
-23.450400 0.000000
-23.415600 0.000000
-23.380900 0.000000
-23.346200 0.000000
-23.311500 0.000000
-23.276800 0.000000
-23.242000 0.000000
-23.207300 0.000000
-23.172600 0.000000
-23.137900 0.000000
-23.103100 0.000000
-23.068400 0.000000
-23.033700 0.000000
-22.999000 0.000000
-22.964200 0.000000
-22.929500 0.000000
-22.894800 0.000000
-22.860100 0.000000
-22.825400 0.000000
-22.790600 0.000000
-22.755900 0.000000
-22.721200 0.000000
-22.686500 0.000000
-22.651700 0.000000
-22.617000 0.000000
-22.582300 0.000000
-22.547600 0.000000
-22.512800 0.000000
-22.478100 0.000000
-22.443400 0.000000
-22.408700 0.000000
-22.374000 0.000000
-22.339200 0.000000
-22.304500 0.000000
-22.269800 0.000000
-22.235100 0.000000
-22.200300 0.000000
-22.165600 0.000000
-22.130900 0.000000
-22.096200 0.000000
-22.061400 0.000000
-22.026700 0.000000
-21.992000 0.000000
-21.957300 0.000000
-21.922600 0.000000
-21.887800 0.000000
-21.853100 0.000000
-21.818400 0.000000
-21.783700 0.000000
-21.748900 0.000000
-21.714200 0.000000
-21.679500 0.000000
-21.644800 0.000000
-21.610000 0.000000
-21.575300 0.000000
-21.540600 0.000000
-21.505900 0.000000
-21.471200 0.000000
-21.436400 0.000000
-21.401700 0.000000
-21.367000 0.000000
-21.332300 0.000000
-21.297500 0.000000
-21.262800 0.000000
-21.228100 0.000000
-21.193400 0.000000
-21.158600 0.000000
-21.123900 0.000000
-21.089200 0.000000
-21.054500 0.000000
-21.019800 0.000000
-20.985000 0.000000
-20.950300 0.000000
-20.915600 0.000000
-20.880900 0.000000
-20.846100 0.000000
-20.811400 0.000000
-20.776700 0.000000
-20.742000 0.000000
-20.707200 0.000000
-20.672500 0.000000
-20.637800 0.000000
-20.603100 0.000000
-20.568400 0.000000
-20.533600 0.000000
-20.498900 0.000000
-20.464200 0.000000
-20.429500 0.000000
-20.394700 0.000000
-20.360000 0.000000
-20.325300 0.000000
-20.290600 0.000000
-20.255900 0.000000
-20.221100 0.000000
-20.186400 0.000000
-20.151700 0.000000
-20.117000 0.000000
-20.082200 0.000000
-20.047500 0.000000
-20.012800 0.000000
-19.978100 0.000000
-19.943300 0.000000
-19.908600 0.000000
-19.873900 0.000000
-19.839200 0.000000
-19.804500 0.000000
-19.769700 0.000000
-19.735000 0.000000
-19.700300 0.000000
-19.665600 0.000000
-19.630800 0.000000
-19.596100 0.000000
-19.561400 0.000000
-19.526700 0.000000
-19.491900 0.000000
-19.457200 0.000000
-19.422500 0.000000
-19.387800 0.000000
-19.353100 0.000000
-19.318300 0.000000
-19.283600 0.000000
-19.248900 0.000000
-19.214200 0.000000
-19.179400 0.000000
-19.144700 0.000000
-19.110000 0.000000
-19.075300 0.000000
-19.040500 0.000000
-19.005800 0.000000
-18.971100 0.000000
-18.936400 0.000000
-18.901700 0.000000
-18.866900 0.000000
-18.832200 0.000000
-18.797500 0.000000
-18.762800 0.000000
-18.728000 0.000000
-18.693300 0.000000
-18.658600 0.000000
-18.623900 0.000000
-18.589100 0.000000
-18.554400 0.000000
-18.519700 0.000000
-18.485000 0.000000
-18.450300 0.000000
-18.415500 0.000000
-18.380800 0.000000
-18.346100 0.000000
-18.311400 0.000000
-18.276600 0.000000
-18.241900 0.000000
-18.207200 0.000000
-18.172500 0.000000
-18.137700 0.000000
-18.103000 0.000000
-18.068300 0.000000
-18.033600 0.000000
-17.998900 0.000000
-17.964100 0.000000
-17.929400 0.000000
-17.894700 0.000000
-17.860000 0.000000
-17.825200 0.000000
-17.790500 0.000000
-17.755800 0.000000
-17.721100 0.000000
-17.686300 0.000000
-17.651600 0.000000
-17.616900 0.000000
-17.582200 0.000000
-17.547500 0.000000
-17.512700 0.000000
-17.478000 0.000000
-17.443300 0.000000
-17.408600 0.000000
-17.373800 0.000000
-17.339100 0.000000
-17.304400 0.000000
-17.269700 0.000000
-17.234900 0.000000
-17.200200 0.000000
-17.165500 0.000000
-17.130800 0.000000
-17.096100 0.000000
-17.061300 0.000000
-17.026600 0.000000
-16.991900 0.000000
-16.957200 0.000000
-16.922400 0.000000
-16.887700 0.000000
-16.853000 0.000000
-16.818300 0.000000
-16.783500 0.000000
-16.748800 0.000000
-16.714100 0.000000
-16.679400 0.000000
-16.644700 0.000000
-16.609900 0.000000
-16.575200 0.000000
-16.540500 0.000000
-16.505800 0.000000
-16.471000 0.000000
-16.436300 0.000000
-16.401600 0.000000
-16.366900 0.000000
-16.332100 0.000000
-16.297400 0.000000
-16.262700 0.000000
-16.228000 0.000000
-16.193300 0.000000
-16.158500 0.000000
-16.123800 0.000000
-16.089100 0.000000
-16.054400 0.000000
-16.019600 0.000000
-15.984900 0.000000
-15.950200 0.000000
-15.915500 0.000000
-15.880800 0.000000
-15.846000 0.000000
-15.811300 0.000000
-15.776600 0.000000
-15.741900 0.000000
-15.707100 0.000000
-15.672400 0.000000
-15.637700 0.000000
-15.603000 0.000000
-15.568200 0.000000
-15.533500 0.000000
-15.498800 0.000000
-15.464100 0.000000
-15.429400 0.000000
-15.394600 0.000000
-15.359900 0.000000
-15.325200 0.000000
-15.290500 0.000000
-15.255700 0.000000
-15.221000 0.000000
-15.186300 0.000000
-15.151600 0.000000
-15.116800 0.000000
-15.082100 0.000000
-15.047400 0.000000
-15.012700 0.000000
-14.978000 0.000000
-14.943200 0.000000
-14.908500 0.000000
-14.873800 0.000000
-14.839100 0.000000
-14.804300 0.000000
-14.769600 0.000000
-14.734900 0.000000
-14.700200 0.000000
-14.665400 0.000000
-14.630700 0.000000
-14.596000 0.000000
-14.561300 0.000000
-14.526600 0.000000
-14.491800 0.000000
-14.457100 0.000000
-14.422400 0.000000
-14.387700 0.000000
-14.352900 0.000000
-14.318200 0.000000
-14.283500 0.000000
-14.248800 0.000000
-14.214000 0.000000
-14.179300 0.000000
-14.144600 0.000000
-14.109900 0.000000
-14.075200 0.000000
-14.040400 0.000000
-14.005700 0.000000
-13.971000 0.000000
-13.936300 0.000000
-13.901500 0.000000
-13.866800 0.000000
-13.832100 0.000000
-13.797400 0.000000
-13.762600 0.000000
-13.727900 0.000000
-13.693200 0.000000
-13.658500 0.000000
-13.623800 0.000000
-13.589000 0.000000
-13.554300 0.000000
-13.519600 0.000000
-13.484900 0.000000
-13.450100 0.000000
-13.415400 0.000000
-13.380700 0.000000
-13.346000 0.000000
-13.311200 0.000000
-13.276500 0.000000
-13.241800 0.000000
-13.207100 0.000000
-13.172400 0.000000
-13.137600 0.000000
-13.102900 0.000000
-13.068200 0.000000
-13.033500 0.000000
-12.998700 0.000000
-12.964000 0.000000
-12.929300 0.000000
-12.894600 0.000000
-12.859800 0.000000
-12.825100 0.000000
-12.790400 0.000000
-12.755700 0.000000
-12.721000 0.000000
-12.686200 0.000000
-12.651500 0.000000
-12.616800 0.000000
-12.582100 0.000000
-12.547300 0.000000
-12.512600 0.000000
-12.477900 0.000000
-12.443200 0.000000
-12.408400 0.000000
-12.373700 0.000000
-12.339000 0.000000
-12.304300 0.000000
-12.269600 0.000000
-12.234800 0.000000
-12.200100 0.000000
-12.165400 0.000000
-12.130700 0.000000
-12.095900 0.000000
-12.061200 0.000000
-12.026500 0.000000
-11.991800 0.000000
-11.957000 0.000000
-11.922300 0.000000
-11.887600 0.000000
-11.852900 0.000000
-11.818200 0.000000
-11.783400 0.000000
-11.748700 0.000000
-11.714000 0.000000
-11.679300 0.000000
-11.644500 0.000000
-11.609800 0.000000
-11.575100 0.000000
-11.540400 0.000000
-11.505700 0.000000
-11.470900 0.000000
-11.436200 0.000000
-11.401500 0.000000
-11.366800 0.000000
-11.332000 0.000000
-11.297300 0.000000
-11.262600 0.000000
-11.227900 0.000000
-11.193100 0.000000
-11.158400 0.000000
-11.123700 0.000000
-11.089000 0.000000
-11.054300 0.000000
-11.019500 0.000000
-10.984800 0.000000
-10.950100 0.000000
-10.915400 0.000000
-10.880600 0.000000
-10.845900 0.000000
-10.811200 0.000000
-10.776500 0.000000
-10.741700 0.000000
-10.707000 0.000000
-10.672300 0.000000
-10.637600 0.000000
-10.602900 0.000000
-10.568100 0.000000
-10.533400 0.000000
-10.498700 0.000000
-10.464000 0.000000
-10.429200 0.000000
-10.394500 0.000000
-10.359800 0.000000
-10.325100 0.000000
-10.290300 0.000000
-10.255600 0.000000
-10.220900 0.000000
-10.186200 0.000000
-10.151500 0.000000
-10.116700 0.000000
-10.082000 0.000000
-10.047300 0.000000
-10.012600 0.000000
-9.977800 0.000000
-9.943100 0.000000
-9.908400 0.000000
-9.873700 0.000000
-9.838900 0.000000
-9.804200 0.000000
-9.769500 0.000000
-9.734800 0.000000
-9.700100 0.000000
-9.665300 0.000000
-9.630600 0.000000
-9.595900 0.000000
-9.561200 0.000000
-9.526400 0.000000
-9.491700 0.000000
-9.457000 0.000000
-9.422300 0.000000
-9.387500 0.000000
-9.352800 0.000000
-9.318100 0.000000
-9.283400 0.000000
-9.248700 0.000000
-9.213900 0.000000
-9.179200 0.000000
-9.144500 0.000000
-9.109800 0.000000
-9.075000 0.000000
-9.040300 0.000000
-9.005600 0.000000
-8.970900 0.000000
-8.936100 0.000000
-8.901400 0.000000
-8.866700 0.000000
-8.832000 0.000000
-8.797300 0.000000
-8.762500 0.000000
-8.727800 0.000000
-8.693100 0.000000
-8.658400 0.000000
-8.623600 0.000000
-8.588900 0.000000
-8.554200 0.000000
-8.519500 0.000000
-8.484700 0.000000
-8.450000 0.000000
-8.415300 0.000000
-8.380600 0.000000
-8.345900 0.000000
-8.311100 0.000000
-8.276400 0.000000
-8.241700 0.000000
-8.207000 0.000000
-8.172200 0.000000
-8.137500 0.000000
-8.102800 0.000000
-8.068100 0.000000
-8.033300 0.000000
-7.998600 0.000000
-7.963900 0.000000
-7.929200 0.000000
-7.894500 0.000000
-7.859700 0.000000
-7.825000 0.000000
-7.790300 0.000000
-7.755600 0.000000
-7.720800 0.000000
-7.686100 0.000000
-7.651400 0.000000
-7.616700 0.000000
-7.581900 0.000000
-7.547200 0.000000
-7.512500 0.000000
-7.477800 0.000000
-7.443100 0.000000
-7.408300 0.000000
-7.373600 0.000000
-7.338900 0.000000
-7.304200 0.000000
-7.269400 0.000000
-7.234700 0.000000
-7.200000 0.000000
-7.165300 0.000000
-7.130600 0.000000
-7.095800 0.000000
-7.061100 0.000000
-7.026400 0.000000
-6.991700 0.000000
-6.956900 0.000000
-6.922200 0.000000
-6.887500 0.000000
-6.852800 0.000000
-6.818000 0.000000
-6.783300 0.000000
-6.748600 0.000000
-6.713900 0.000000
-6.679200 0.000000
-6.644400 0.000000
-6.609700 0.000000
-6.575000 0.000000
-6.540300 0.000000
-6.505500 0.000000
-6.470800 0.000000
-6.436100 0.000000
-6.401400 0.000000
-6.366600 0.000000
-6.331900 0.000000
-6.297200 0.000000
-6.262500 0.000000
-6.227800 0.000000
-6.193000 0.000000
-6.158300 0.000000
-6.123600 0.000000
-6.088900 0.000000
-6.054100 0.000000
-6.019400 0.000000
-5.984700 0.000000
-5.950000 0.000000
-5.915200 0.000000
-5.880500 0.000000
-5.845800 0.000000
-5.811100 0.000000
-5.776400 0.000000
-5.741600 0.000000
-5.706900 0.000000
-5.672200 0.000000
-5.637500 0.000000
-5.602700 0.000000
-5.568000 0.000000
-5.533300 0.000000
-5.498600 0.000000
-5.463800 0.000000
-5.429100 0.000000
-5.394400 0.000000
-5.359700 0.000000
-5.325000 0.000000
-5.290200 0.000000
-5.255500 0.000000
-5.220800 0.000000
-5.186100 0.000000
-5.151300 0.000000
-5.116600 0.000000
-5.081900 0.000000
-5.047200 0.000000
-5.012400 0.000000
-4.977700 0.000000
-4.943000 0.000000
-4.908300 0.000000
-4.873600 0.000000
-4.838800 0.000000
-4.804100 0.000000
-4.769400 0.000000
-4.734700 0.000000
-4.699900 0.000000
-4.665200 0.000000
-4.630500 0.000000
-4.595800 0.000000
-4.561000 0.000000
-4.526300 0.000000
-4.491600 0.000000
-4.456900 0.000000
-4.422200 0.000000
-4.387400 0.000000
-4.352700 0.000000
-4.318000 0.000000
-4.283300 0.000000
-4.248500 0.000000
-4.213800 0.000000
-4.179100 0.000000
-4.144400 0.000000
-4.109600 0.000000
-4.074900 0.000000
-4.040200 0.000000
-4.005500 0.000000
-3.970800 0.000000
-3.936000 0.000000
-3.901300 0.000000
-3.866600 0.000000
-3.831900 0.000000
-3.797100 0.000000
-3.762400 0.000000
-3.727700 0.000000
-3.693000 0.000000
-3.658200 0.000000
-3.623500 0.000000
-3.588800 0.000000
-3.554100 0.000000
-3.519400 0.000000
-3.484600 0.000000
-3.449900 0.000000
-3.415200 0.000000
-3.380500 0.000000
-3.345700 0.000000
-3.311000 0.000000
-3.276300 0.000000
-3.241600 0.000000
-3.206800 0.000000
-3.172100 0.000000
-3.137400 0.000000
-3.102700 0.000000
-3.068000 0.000000
-3.033200 0.000000
-2.998500 0.000000
-2.963800 0.000000
-2.929100 0.000000
-2.894300 0.000000
-2.859600 0.000000
-2.824900 0.000000
-2.790200 0.000000
-2.755500 0.000000
-2.720700 0.000000
-2.686000 0.000000
-2.651300 0.000000
-2.616600 0.000000
-2.581800 0.000000
-2.547100 0.000000
-2.512400 0.000000
-2.477700 0.000000
-2.442900 0.000000
-2.408200 0.000000
-2.373500 0.000000
-2.338800 0.000000
-2.304100 0.000000
-2.269300 0.000000
-2.234600 0.000000
-2.199900 0.000000
-2.165200 0.000000
-2.130400 0.000000
-2.095700 0.000000
-2.061000 0.000000
-2.026300 0.000000
-1.991500 0.000000
-1.956800 0.000000
-1.922100 0.000000
-1.887400 0.000000
-1.852700 0.000000
-1.817900 0.000000
-1.783200 0.000000
-1.748500 0.000000
-1.713800 0.000000
-1.679000 0.000000
-1.644300 0.000000
-1.609600 0.000000
-1.574900 0.000000
-1.540100 0.000000
-1.505400 0.000000
-1.470700 0.000000
-1.436000 0.000000
-1.401300 0.000000
-1.366500 0.000000
-1.331800 0.000000
-1.297100 0.000000
-1.262400 0.000000
-1.227600 0.000000
-1.192900 0.000000
-1.158200 0.000000
-1.123500 0.000000
-1.088700 0.000000
-1.054000 0.000000
-1.019300 0.000000
-0.984600 0.000000
-0.949900 0.000000
-0.915100 0.000000
-0.880400 0.000000
-0.845700 0.000000
-0.811000 0.000000
-0.776200 0.000000
-0.741500 0.000000
-0.706800 0.000000
-0.672100 0.000000
-0.637300 0.000000
-0.602600 0.000000
-0.567900 0.000000
-0.533200 0.000000
-0.498500 0.000000
-0.463700 0.000000
-0.429000 0.000000
-0.394300 0.000000
-0.359600 0.000000
-0.324800 0.000000
-0.290100 0.000000
-0.255400 0.000000
-0.220700 0.000000
-0.185900 0.000000
-0.151200 0.000000
-0.116500 0.015700
-0.081800 0.022700
-0.047100 0.030900
-0.012300 0.031600
0.022400 0.036100
0.057100 0.041000
0.091800 0.045000
0.126600 0.048700
0.161300 0.050700
0.196000 0.052600
0.230700 0.055800
0.265500 0.059500
0.300200 0.063600
0.334900 0.066000
0.369600 0.067700
0.404300 0.069900
0.439100 0.072200
0.473800 0.074800
0.508500 0.077400
0.543200 0.080200
0.578000 0.083300
0.612700 0.086100
0.647400 0.088100
0.682100 0.090100
0.716900 0.092200
0.751600 0.094200
0.786300 0.096500
0.821000 0.099300
0.855700 0.102100
0.890500 0.104600
0.925200 0.107100
0.959900 0.109600
0.994600 0.111800
1.029400 0.114000
1.064100 0.116300
1.098800 0.118900
1.133500 0.121300
1.168300 0.123700
1.203000 0.126100
1.237700 0.128600
1.272400 0.131400
1.307100 0.134200
1.341900 0.137000
1.376600 0.139800
1.411300 0.142300
1.446000 0.144700
1.480800 0.147300
1.515500 0.150100
1.550200 0.153100
1.584900 0.156200
1.619600 0.159000
1.654400 0.161800
1.689100 0.164600
1.723800 0.167600
1.758500 0.170900
1.793300 0.174600
1.828000 0.178000
1.862700 0.181300
1.897400 0.184600
1.932200 0.188000
1.966900 0.191400
2.001600 0.194900
2.036300 0.198700
2.071000 0.202800
2.105800 0.206900
2.140500 0.211000
2.175200 0.215100
2.209900 0.219300
2.244700 0.223700
2.279400 0.228800
2.314100 0.234000
2.348800 0.238900
2.383600 0.244000
2.418300 0.249300
2.453000 0.254800
2.487700 0.260600
2.522400 0.266900
2.557200 0.273700
2.591900 0.280600
2.626600 0.287600
2.661300 0.294700
2.696100 0.302100
2.730800 0.311200
2.765500 0.320300
2.800200 0.329700
2.835000 0.339700
2.869700 0.350400
2.904400 0.363000
2.939100 0.376700
2.973800 0.391800
3.008600 0.407100
3.043300 0.425500
3.078000 0.446100
3.112700 0.467200
3.147500 0.493100
3.182200 0.523600
3.216900 0.563900
3.251600 0.635800
3.286400 0.721400
3.321100 0.832800
3.355800 0.847700
3.390500 0.837800
3.425200 0.840600
3.460000 0.847300
3.494700 0.840400
3.529400 0.838600
3.564100 0.841000
3.598900 0.850000
3.633600 0.906500
3.668300 0.963400
3.703000 0.986500
3.737800 1.027900
3.772500 1.065700
3.807200 1.097500
3.841900 1.142600
3.876600 1.186100
3.911400 1.218000
3.946100 1.276500
3.980800 1.347700
4.015500 1.499700
4.050300 1.564500
4.085000 1.564300
4.119700 1.601300
4.154400 1.687300
4.189200 1.645900
4.223900 1.334100
4.258600 1.194200
4.293300 1.098400
4.328000 1.034100
4.362800 0.977200
4.397500 0.932100
4.432200 0.896800
4.466900 0.866700
4.501700 0.847500
4.536400 0.807600
4.571100 0.799100
4.605800 0.791200
4.640600 0.781400
4.675300 0.769500
4.710000 0.716500
4.744700 0.645600
4.779400 0.616800
4.814200 0.585000
4.848900 0.571100
4.883600 0.567400
4.918300 0.558300
4.953100 0.614900
4.987800 0.574800
5.022500 0.594600
5.057200 0.666200
5.092000 2.597600
5.126700 2.767600
5.161400 2.708200
5.196100 2.287900
5.230800 2.178000
5.265600 2.189700
5.300300 2.310600
5.335000 2.506700
5.369700 2.687100
5.404500 2.650600
5.439200 2.599100
5.473900 2.558200
5.508600 2.519700
5.543400 2.480100
5.578100 2.414600
5.612800 2.360400
5.647500 2.361900
5.682200 2.341400
5.717000 2.174200
5.751700 1.972500
5.786400 2.001000
5.821100 2.055600
5.855900 2.153900
5.890600 2.294900
5.925300 2.692600
5.960000 2.812900
5.994700 2.697900
6.029500 2.599400
6.064200 2.390300
6.098900 2.159700
6.133600 2.005400
6.168400 1.881600
6.203100 1.763600
6.237800 1.682600
6.272500 1.612300
6.307300 1.552100
6.342000 1.506600
6.376700 1.443700
6.411400 1.393900
6.446100 1.328200
6.480900 1.278300
6.515600 1.251700
6.550300 1.211400
6.585000 1.150800
6.619800 1.186100
6.654500 1.063500
6.689200 0.921300
6.723900 0.596800
6.758700 0.411200
6.793400 0.393400
6.828100 0.390600
6.862800 0.352700
6.897500 0.328000
6.932300 0.332500
6.967000 0.358100
7.001700 0.353400
7.036400 0.360800
7.071200 0.376900
7.105900 0.397100
7.140600 0.420000
7.175300 0.443100
7.210100 0.464900
7.244800 0.480700
7.279500 0.503100
7.314200 0.529500
7.348900 0.552500
7.383700 0.578300
7.418400 0.609800
7.453100 0.640200
7.487800 0.705400
7.522600 0.735100
7.557300 0.790000
7.592000 0.880900
7.626700 1.058300
7.661500 1.248100
7.696200 1.304300
7.730900 1.362700
7.765600 1.372500
7.800300 1.422200
7.835100 1.462100
7.869800 1.482900
7.904500 1.522600
7.939200 1.574900
7.974000 1.635000
8.008700 1.704600
8.043400 1.784200
8.078100 1.861900
8.112900 1.981300
8.147600 2.107500
8.182300 2.267100
8.217000 2.375800
8.251700 2.326100
8.286500 2.348100
8.321200 2.396400
8.355900 2.353400
8.390600 2.406500
8.425400 2.415000
8.460100 2.524300
8.494800 2.726200
8.529500 2.774800
8.564300 2.735800
8.599000 2.654800
8.633700 2.622700
8.668400 2.568300
8.703100 2.508400
8.737900 2.648500
8.772600 2.870800
8.807300 3.321300
8.842000 4.133200
8.876800 6.490800
8.911500 5.123200
8.946200 3.386100
8.980900 2.804100
9.015700 2.463100
9.050400 2.137400
9.085100 1.963300
9.119800 1.819100
9.154500 1.712100
9.189300 1.644900
9.224000 1.547300
9.258700 1.461000
9.293400 1.402800
9.328200 1.369200
9.362900 1.359100
9.397600 1.326000
9.432300 1.273200
9.467100 1.251400
9.501800 1.230200
9.536500 1.207500
9.571200 1.214800
9.605900 1.207400
9.640700 1.193600
9.675400 1.266500
9.710100 0.993600
9.744800 0.892400
9.779600 0.812400
9.814300 0.730800
9.849000 0.681000
9.883700 0.599500
9.918500 0.556100
9.953200 0.537300
9.987900 0.544400
10.022600 0.577600
10.057300 0.647800
10.092100 0.613600
10.126800 0.572000
10.161500 0.549100
10.196200 0.538100
10.231000 0.528600
10.265700 0.520400
10.300400 0.510200
10.335100 0.501200
10.369800 0.491400
10.404600 0.486200
10.439300 0.481200
10.474000 0.476300
10.508700 0.471200
10.543500 0.465000
10.578200 0.458900
10.612900 0.453400
10.647600 0.448800
10.682400 0.444800
10.717100 0.441200
10.751800 0.437800
10.786500 0.434300
10.821200 0.430900
10.856000 0.427200
10.890700 0.422800
10.925400 0.418700
10.960100 0.414400
10.994900 0.410600
11.029600 0.406500
11.064300 0.402500
11.099000 0.398600
11.133800 0.394700
11.168500 0.391200
11.203200 0.387700
11.237900 0.383800
11.272600 0.379800
11.307400 0.376200
11.342100 0.372400
11.376800 0.368300
11.411500 0.364700
11.446300 0.361300
11.481000 0.358200
11.515700 0.354900
11.550400 0.351400
11.585200 0.347000
11.619900 0.342800
11.654600 0.338700
11.689300 0.334300
11.724000 0.330000
11.758800 0.326400
11.793500 0.322800
11.828200 0.319200
11.862900 0.315400
11.897700 0.311400
11.932400 0.307900
11.967100 0.303700
12.001800 0.299500
12.036600 0.295200
12.071300 0.291600
12.106000 0.288400
12.140700 0.284400
12.175400 0.280400
12.210200 0.277000
12.244900 0.273300
12.279600 0.269300
12.314300 0.264500
12.349100 0.259700
12.383800 0.255200
12.418500 0.250800
12.453200 0.246500
12.488000 0.242000
12.522700 0.237900
12.557400 0.233900
12.592100 0.229600
12.626800 0.227700
12.661600 0.223000
12.696300 0.219200
12.731000 0.215400
12.765700 0.211000
12.800500 0.206300
12.835200 0.201400
12.869900 0.196700
12.904600 0.192100
12.939400 0.188800
12.974100 0.185100
13.008800 0.180900
13.043500 0.176700
13.078200 0.171700
13.113000 0.168800
13.147700 0.164900
13.182400 0.157600
13.217100 0.152700
13.251900 0.147600
13.286600 0.134500
13.321300 0.130800
13.356000 0.124900
13.390800 0.118500
13.425500 0.113300
13.460200 0.104900
13.494900 0.101300
13.529600 0.098200
13.564400 0.096000
13.599100 0.090400
13.633800 0.084100
13.668500 0.077800
13.703300 0.076300
13.738000 0.058400
13.772700 0.051800
13.807400 0.048300
13.842200 0.044500
13.876900 0.044900
13.911600 0.042700
13.946300 0.040600
13.981000 0.038500
14.015800 0.036600
14.050500 0.032400
14.085200 0.032400
14.119900 0.033200
14.154700 0.035600
14.189400 0.046900
14.224100 0.053300
14.258800 0.055600
14.293600 0.069000
14.328300 0.116300
14.363000 0.167100
14.397700 0.206700
14.432400 0.270500
14.467200 0.407700
14.501900 0.660800
14.536600 1.045100
14.571300 1.317100
14.606100 1.360200
14.640800 1.331000
14.675500 1.171000
14.710200 1.029200
14.744900 0.945900
14.779700 0.872800
14.814400 0.826900
14.849100 0.740400
14.883800 0.711900
14.918600 0.681100
14.953300 0.656300
14.988000 0.634300
15.022700 0.614900
15.057500 0.596700
15.092200 0.583600
15.126900 0.581200
15.161600 0.608700
15.196300 0.671200
15.231100 0.654700
15.265800 0.654400
15.300500 0.653900
15.335200 0.653500
15.370000 0.644700
15.404700 0.640000
15.439400 0.637500
15.474100 0.642400
15.508900 0.637600
15.543600 0.633500
15.578300 0.632100
15.613000 0.626600
15.647700 0.621800
15.682500 0.617600
15.717200 0.613600
15.751900 0.609400
15.786600 0.605900
15.821400 0.597400
15.856100 0.595400
15.890800 0.592300
15.925500 0.588300
15.960300 0.584900
15.995000 0.581200
16.029700 0.578700
16.064400 0.574700
16.099100 0.572900
16.133900 0.571300
16.168600 0.569900
16.203300 0.568100
16.238000 0.566100
16.272800 0.564300
16.307500 0.562700
16.342200 0.561900
16.376900 0.560400
16.411700 0.558600
16.446400 0.557800
16.481100 0.557700
16.515800 0.564900
16.550500 0.565700
16.585300 0.566700
16.620000 0.564000
16.654700 0.563500
16.689400 0.565800
16.724200 0.561900
16.758900 0.560200
16.793600 0.558600
16.828300 0.556700
16.863100 0.554700
16.897800 0.554100
16.932500 0.553700
16.967200 0.553200
17.001900 0.551900
17.036700 0.549700
17.071400 0.547500
17.106100 0.546500
17.140800 0.546200
17.175600 0.545700
17.210300 0.545000
17.245000 0.544400
17.279700 0.544200
17.314500 0.543500
17.349200 0.542700
17.383900 0.542300
17.418600 0.542500
17.453300 0.542200
17.488100 0.542700
17.522800 0.543100
17.557500 0.543200
17.592200 0.543500
17.627000 0.545100
17.661700 0.547900
17.696400 0.549300
17.731100 0.550300
17.765900 0.552300
17.800600 0.551300
17.835300 0.550800
17.870000 0.549800
17.904700 0.550400
17.939500 0.550000
17.974200 0.550100
18.008900 0.551200
18.043600 0.551900
18.078400 0.552800
18.113100 0.553200
18.147800 0.553400
18.182500 0.553600
18.217300 0.553300
18.252000 0.554000
18.286700 0.554500
18.321400 0.555200
18.356100 0.555500
18.390900 0.556000
18.425600 0.556900
18.460300 0.558100
18.495000 0.559100
18.529800 0.562500
18.564500 0.563100
18.599200 0.563600
18.633900 0.564500
18.668700 0.566100
18.703400 0.567600
18.738100 0.569300
18.772800 0.570800
18.807500 0.572100
18.842300 0.573300
18.877000 0.575000
18.911700 0.577500
18.946400 0.580800
18.981200 0.584300
19.015900 0.588100
19.050600 0.591900
19.085300 0.594800
19.120000 0.598500
19.154800 0.603700
19.189500 0.611500
19.224200 0.620400
19.258900 0.631400
19.293700 0.640000
19.328400 0.649400
19.363100 0.666000
19.397800 0.701600
19.432600 0.709600
19.467300 0.701100
19.502000 0.704200
19.536700 0.685000
19.571400 0.667800
19.606200 0.655600
19.640900 0.642800
19.675600 0.626300
19.710300 0.613200
19.745100 0.601800
19.779800 0.588400
19.814500 0.576300
19.849200 0.565700
19.884000 0.556300
19.918700 0.547700
19.953400 0.539300
19.988100 0.531500
20.022800 0.527100
20.057600 0.517500
20.092300 0.505300
20.127000 0.498200
20.161700 0.492000
20.196500 0.486200
20.231200 0.481400
20.265900 0.482300
20.300600 0.485400
20.335400 0.487800
20.370100 0.491000
20.404800 0.497300
20.439500 0.504900
20.474200 0.506600
20.509000 0.510400
20.543700 0.521200
20.578400 0.534200
20.613100 0.549800
20.647900 0.586300
20.682600 0.709500
20.717300 0.843700
20.752000 0.992900
20.786800 1.035500
20.821500 1.030100
20.856200 1.008100
20.890900 0.978700
20.925600 0.871800
20.960400 0.819000
20.995100 0.799500
21.029800 0.779500
21.064500 0.770900
21.099300 0.772200
21.134000 0.776700
21.168700 0.788900
21.203400 0.799500
21.238200 0.809700
21.272900 0.797600
21.307600 0.780900
21.342300 0.779700
21.377000 0.777200
21.411800 0.779300
21.446500 0.773400
21.481200 0.773200
21.515900 0.774100
21.550700 0.775600
21.585400 0.777900
21.620100 0.785700
21.654800 0.804800
21.689600 0.827300
21.724300 0.842400
21.759000 0.840500
21.793700 0.828000
21.828400 0.822700
21.863200 0.818200
21.897900 0.812100
21.932600 0.807200
21.967300 0.804000
22.002100 0.801700
22.036800 0.793300
22.071500 0.784500
22.106200 0.777800
22.141000 0.772800
22.175700 0.768500
22.210400 0.763600
22.245100 0.758600
22.279800 0.754700
22.314600 0.747700
22.349300 0.742700
22.384000 0.738800
22.418700 0.733700
22.453500 0.725000
22.488200 0.726200
22.522900 0.696600
22.557600 0.687500
22.592400 0.678200
22.627100 0.671000
22.661800 0.663100
22.696500 0.656500
22.731200 0.650800
22.766000 0.647400
22.800700 0.641700
22.835400 0.639800
22.870100 0.633600
22.904900 0.627700
22.939600 0.620000
22.974300 0.611700
23.009000 0.606300
23.043800 0.601000
23.078500 0.596400
23.113200 0.589300
23.147900 0.585200
23.182600 0.583300
23.217400 0.581100
23.252100 0.578100
23.286800 0.575100
23.321500 0.571200
23.356300 0.566100
23.391000 0.572200
23.425700 0.570400
23.460400 0.560700
23.495100 0.547600
23.529900 0.540700
23.564600 0.518300
23.599300 0.513000
23.634000 0.507600
23.668800 0.497600
23.703500 0.492400
23.738200 0.485600
23.772900 0.484700
23.807700 0.489300
23.842400 0.503500
23.877100 0.521200
23.911800 0.575300
23.946500 0.550700
23.981300 0.541200
24.016000 0.532300
24.050700 0.522900
24.085400 0.515000
24.120200 0.518000
24.154900 0.514600
24.189600 0.505000
24.224300 0.490300
24.259100 0.490800
24.293800 0.486500
24.328500 0.483600
24.363200 0.481000
24.397900 0.478300
24.432700 0.477000
24.467400 0.474800
24.502100 0.470600
24.536800 0.461100
24.571600 0.443000
24.606300 0.424900
24.641000 0.409200
24.675700 0.393200
24.710500 0.377700
24.745200 0.362100
24.779900 0.345500
24.814600 0.332000
24.849300 0.301200
24.884100 0.274300
24.918800 0.261000
24.953500 0.262000
24.988200 0.266200
25.023000 0.274700
25.057700 0.286600
25.092400 0.301000
25.127100 0.319100
25.161900 0.340400
25.196600 0.364600
25.231300 0.391600
25.266000 0.428900
25.300700 0.475100
25.335500 0.471900
25.370200 0.476700
25.404900 0.488400
25.439600 0.500300
25.474400 0.513600
25.509100 0.531300
25.543800 0.551300
25.578500 0.578500
25.613300 0.600900
25.648000 0.624700
25.682700 0.644400
25.717400 0.661500
25.752100 0.673300
25.786900 0.695100
25.821600 0.716500
25.856300 0.736000
25.891000 0.798400
25.925800 0.790100
25.960500 0.800400
25.995200 0.812200
26.029900 0.822600
26.064700 0.830700
26.099400 0.842600
26.134100 0.847900
26.168800 0.855300
26.203500 0.861000
26.238300 0.889500
26.273000 0.849400
26.307700 0.792700
26.342400 0.749900
26.377200 0.718200
26.411900 0.693200
26.446600 0.671700
26.481300 0.653100
26.516100 0.638700
26.550800 0.629200
26.585500 0.598200
26.620200 0.570500
26.654900 0.547300
26.689700 0.526900
26.724400 0.508100
26.759100 0.494600
26.793800 0.481900
26.828600 0.471600
26.863300 0.462400
26.898000 0.454300
26.932700 0.448400
26.967500 0.443100
27.002200 0.437900
27.036900 0.434900
27.071600 0.431000
27.106300 0.427600
27.141100 0.424400
27.175800 0.422300
27.210500 0.423600
27.245200 0.419700
27.280000 0.415700
27.314700 0.407500
27.349400 0.402700
27.384100 0.394600
27.418800 0.388300
27.453600 0.388000
27.488300 0.391300
27.523000 0.398100
27.557700 0.407600
27.592500 0.431600
27.627200 0.470300
27.661900 0.515300
27.696600 0.560800
27.731400 0.621800
27.766100 0.685600
27.800800 0.753000
27.835500 0.823000
27.870200 0.896200
27.905000 0.986500
27.939700 1.107800
27.974400 1.232500
28.009100 1.357100
28.043900 1.411000
28.078600 1.454800
28.113300 1.501600
28.148000 1.586400
28.182800 1.738200
28.217500 1.927900
28.252200 2.216100
28.286900 3.014200
28.321600 5.760000
28.356400 2.971800
28.391100 2.301600
28.425800 1.918100
28.460500 1.698500
28.495300 1.510200
28.530000 1.346900
28.564700 1.214000
28.599400 1.124000
28.634200 1.044100
28.668900 0.974600
28.703600 0.920100
28.738300 0.872000
28.773000 0.820400
28.807800 0.791300
28.842500 0.768500
28.877200 0.750800
28.911900 0.736000
28.946700 0.723000
28.981400 0.710600
29.016100 0.699700
29.050800 0.689800
29.085600 0.683900
29.120300 0.676600
29.155000 0.668800
29.189700 0.665300
29.224400 0.663400
29.259200 0.665300
29.293900 0.672900
29.328600 0.681500
29.363300 0.675800
29.398100 0.674300
29.432800 0.683100
29.467500 0.692500
29.502200 0.694300
29.537000 0.721200
29.571700 0.742700
29.606400 0.764700
29.641100 0.767500
29.675800 0.762000
29.710600 0.761600
29.745300 0.758800
29.780000 0.749700
29.814700 0.744600
29.849500 0.739600
29.884200 0.735200
29.918900 0.735400
29.953600 0.738100
29.988400 0.739900
30.023100 0.736300
30.057800 0.741200
30.092500 0.744500
30.127200 0.753800
30.162000 0.740100
30.196700 0.740000
30.231400 0.743800
30.266100 0.749100
30.300900 0.761000
30.335600 0.692000
30.370300 0.681600
30.405000 0.671000
30.439800 0.660400
30.474500 0.652500
30.509200 0.651100
30.543900 0.650400
30.578600 0.649600
30.613400 0.649400
30.648100 0.649400
30.682800 0.650300
30.717500 0.653800
30.752300 0.657800
30.787000 0.669500
30.821700 0.671300
30.856400 0.672700
30.891200 0.682300
30.925900 0.683300
30.960600 0.685300
30.995300 0.696600
31.030000 0.695500
31.064800 0.687500
31.099500 0.678500
31.134200 0.669500
31.168900 0.669000
31.203700 0.672100
31.238400 0.709400
31.273100 0.839900
31.307800 0.833100
31.342600 0.799000
31.377300 0.744500
31.412000 0.729900
31.446700 0.725600
31.481400 0.712500
31.516200 0.716200
31.550900 0.692400
31.585600 0.681700
31.620300 0.675800
31.655100 0.669400
31.689800 0.662800
31.724500 0.652600
31.759200 0.643500
31.793900 0.633100
31.828700 0.619600
31.863400 0.601000
31.898100 0.590500
31.932800 0.579100
31.967600 0.571100
32.002300 0.564000
32.037000 0.557500
32.071700 0.549800
32.106500 0.542100
32.141200 0.533400
32.175900 0.527800
32.210600 0.519400
32.245300 0.517600
32.280100 0.511400
32.314800 0.505800
32.349500 0.501300
32.384200 0.494100
32.419000 0.485600
32.453700 0.474700
32.488400 0.522900
32.523100 0.441300
32.557900 0.432900
32.592600 0.424400
32.627300 0.416000
32.662000 0.411000
32.696700 0.400800
32.731500 0.392100
32.766200 0.383300
32.800900 0.374700
32.835600 0.366100
32.870400 0.358900
32.905100 0.352400
32.939800 0.349600
32.974500 0.342100
33.009300 0.337200
33.044000 0.331300
33.078700 0.323400
33.113400 0.316500
33.148100 0.339000
33.182900 0.312500
33.217600 0.298800
33.252300 0.286900
33.287000 0.276800
33.321800 0.269000
33.356500 0.263400
33.391200 0.260000
33.425900 0.259700
33.460700 0.256400
33.495400 0.252600
33.530100 0.249900
33.564800 0.245100
33.599500 0.240900
33.634300 0.236000
33.669000 0.230800
33.703700 0.225600
33.738400 0.220800
33.773200 0.216000
33.807900 0.212000
33.842600 0.217700
33.877300 0.212700
33.912100 0.203900
33.946800 0.197000
33.981500 0.191300
34.016200 0.187100
34.050900 0.181900
34.085700 0.181100
34.120400 0.176200
34.155100 0.163300
34.189800 0.152900
34.224600 0.139900
34.259300 0.139100
34.294000 0.134100
34.328700 0.132700
34.363500 0.130700
34.398200 0.128300
34.432900 0.125600
34.467600 0.122900
34.502300 0.120100
34.537100 0.117300
34.571800 0.114500
34.606500 0.112100
34.641200 0.110000
34.676000 0.107400
34.710700 0.099500
34.745400 0.095800
34.780100 0.090800
34.814900 0.087800
34.849600 0.085000
34.884300 0.082200
34.919000 0.081300
34.953700 0.077800
34.988500 0.074700
35.023200 0.071900
35.057900 0.069500
35.092600 0.064600
35.127400 0.061400
35.162100 0.059000
35.196800 0.056600
35.231500 0.054300
35.266300 0.051900
35.301000 0.049600
35.335700 0.047400
35.370400 0.045100
35.405100 0.042800
35.439900 0.040600
35.474600 0.045200
35.509300 0.036200
35.544000 0.033400
35.578800 0.030800
35.613500 0.028400
35.648200 0.026100
35.682900 0.052000
35.717700 0.009400
35.752400 0.004900
35.787100 0.002200
35.821800 0.000600
35.856500 0.000000
35.891300 0.000000
35.926000 0.000000
35.960700 0.000000
35.995400 0.000000
36.030200 0.000000
36.064900 0.000000
36.099600 0.000000
36.134300 0.000000
36.169000 0.000000
36.203800 0.000000
36.238500 0.000000
36.273200 0.000000
36.307900 0.000000
36.342700 0.000000
36.377400 0.000000
36.412100 0.000000
36.446800 0.000000
36.481600 0.000000
36.516300 0.000000
36.551000 0.000000
36.585700 0.000000
36.620400 0.000000
36.655200 0.000000
36.689900 0.000000
36.724600 0.000000
36.759300 0.000000
36.794100 0.000000
36.828800 0.000000
36.863500 0.000000
36.898200 0.000000
36.933000 0.000000
36.967700 0.000000
37.002400 0.000000
37.037100 0.000000
37.071800 0.000000
37.106600 0.000000
37.141300 0.000000
37.176000 0.000000
37.210700 0.000000
37.245500 0.000000
37.280200 0.000000
37.314900 0.000000
37.349600 0.000000
37.384400 0.000000
37.419100 0.000000
37.453800 0.000000
37.488500 0.000000
37.523200 0.000000
37.558000 0.000000
37.592700 0.000000
37.627400 0.000000
37.662100 0.000000
37.696900 0.000000
37.731600 0.000000
37.766300 0.000000
37.801000 0.000000
37.835800 0.000000
37.870500 0.000000
37.905200 0.000000
37.939900 0.000000
37.974600 0.000000
38.009400 0.000000
38.044100 0.000000
38.078800 0.000000
38.113500 0.000000
38.148300 0.000000
38.183000 0.000000
38.217700 0.000000
38.252400 0.000000
38.287200 0.000000
38.321900 0.000000
38.356600 0.000000
38.391300 0.000000
38.426000 0.000000
38.460800 0.000000
38.495500 0.000000
38.530200 0.000000
38.564900 0.000000
38.599700 0.000000
38.634400 0.000000
38.669100 0.000000
38.703800 0.000000
38.738600 0.000000
38.773300 0.000000
38.808000 0.000000
38.842700 0.000000
38.877400 0.000000
38.912200 0.000000
38.946900 0.000000
38.981600 0.000000
39.016300 0.000000
e
