set title 'mp-568404 - Band Structure'
set xlabel 'k-path'
set ylabel 'Energy (eV)'
set grid y
set yrange [-5:5]
set terminal png size 800,600
set output 'mp-568404_bands_gnuplot.png'
plot '-' using 1:2 with lines notitle, '-' using 1:2 with lines notitle, '-' using 1:2 with lines notitle, '-' using 1:2 with lines notitle, '-' using 1:2 with lines notitle, '-' using 1:2 with lines notitle, '-' using 1:2 with lines notitle, '-' using 1:2 with lines notitle, '-' using 1:2 with lines notitle, '-' using 1:2 with lines notitle, '-' using 1:2 with lines notitle, '-' using 1:2 with lines notitle, '-' using 1:2 with lines notitle, '-' using 1:2 with lines notitle, '-' using 1:2 with lines notitle, '-' using 1:2 with lines notitle, '-' using 1:2 with lines notitle, '-' using 1:2 with lines notitle, '-' using 1:2 with lines notitle, '-' using 1:2 with lines notitle, '-' using 1:2 with lines notitle, '-' using 1:2 with lines notitle, '-' using 1:2 with lines notitle, '-' using 1:2 with lines notitle, '-' using 1:2 with lines notitle, '-' using 1:2 with lines notitle, '-' using 1:2 with lines notitle, '-' using 1:2 with lines notitle, '-' using 1:2 with lines notitle, '-' using 1:2 with lines notitle, '-' using 1:2 with lines notitle, '-' using 1:2 with lines notitle, '-' using 1:2 with lines notitle, '-' using 1:2 with lines notitle, '-' using 1:2 with lines notitle, '-' using 1:2 with lines notitle, '-' using 1:2 with lines notitle, '-' using 1:2 with lines notitle, '-' using 1:2 with lines notitle, '-' using 1:2 with lines notitle, '-' using 1:2 with lines notitle, '-' using 1:2 with lines notitle, '-' using 1:2 with lines notitle, '-' using 1:2 with lines notitle
0.000000 -46.292300
0.031733 -46.292300
0.063466 -46.292300
0.095199 -46.292300
0.126932 -46.292300
0.158666 -46.292300
0.190399 -46.292300
0.222132 -46.292300
0.253865 -46.292300
0.285598 -46.292300
0.317331 -46.292300
0.349064 -46.292300
0.349064 -46.292300
0.380458 -46.292300
0.411852 -46.292300
0.443246 -46.292200
0.474640 -46.292200
0.506034 -46.292200
0.537428 -46.292100
0.568822 -46.292000
0.600216 -46.291900
0.631610 -46.291900
0.663004 -46.291800
0.694398 -46.291700
0.725792 -46.291600
0.757186 -46.291500
0.788580 -46.291500
0.819974 -46.291400
0.851368 -46.291400
0.882762 -46.291400
0.882762 -46.291400
0.910953 -46.291400
0.939144 -46.291400
0.967336 -46.291400
0.995527 -46.291400
1.023718 -46.291400
1.051909 -46.291400
1.051909 -46.291400
1.085235 -46.291300
1.118561 -46.291300
1.151887 -46.291100
1.185213 -46.291000
1.218539 -46.290700
1.251865 -46.290500
1.285191 -46.290200
1.318517 -46.289800
1.351843 -46.289400
1.385169 -46.289000
1.418495 -46.288500
1.451821 -46.288000
1.485147 -46.287500
1.518473 -46.286900
1.551799 -46.286300
1.585125 -46.285700
1.618451 -46.285100
1.651777 -46.284500
1.685103 -46.283900
1.718429 -46.283200
1.751755 -46.282600
1.751755 -46.282600
1.783871 -46.283100
1.815986 -46.283700
1.848102 -46.284300
1.880217 -46.284900
1.912333 -46.285500
1.944448 -46.286100
1.976564 -46.286600
2.008679 -46.287200
2.040795 -46.287700
2.072910 -46.288200
2.105026 -46.288700
2.137141 -46.289100
2.169257 -46.289500
2.201372 -46.289900
2.233488 -46.290200
2.265603 -46.290500
2.297719 -46.290800
2.329834 -46.291000
2.361950 -46.291100
2.394065 -46.291200
2.426181 -46.291300
2.458297 -46.291300
2.458297 -46.291300
2.490797 -46.291300
2.523298 -46.291300
2.555799 -46.291300
2.588299 -46.291300
2.620800 -46.291300
2.653301 -46.291400
2.653301 -46.292300
2.686294 -46.292300
2.719288 -46.292200
2.752282 -46.292000
2.785276 -46.291900
2.818269 -46.291600
2.851263 -46.291300
2.884257 -46.291000
2.917251 -46.290600
2.950244 -46.290200
2.983238 -46.289700
3.016232 -46.289200
3.049226 -46.288700
3.082219 -46.288100
3.115213 -46.287500
3.148207 -46.286900
3.181201 -46.286200
3.214194 -46.285600
3.247188 -46.284900
3.280182 -46.284200
3.313176 -46.283500
3.313176 -46.283500
3.345633 -46.282800
3.378090 -46.283100
3.410547 -46.283800
3.443004 -46.284400
3.475461 -46.285100
3.507918 -46.285700
3.540375 -46.286400
3.572832 -46.287000
3.605289 -46.287600
3.637746 -46.288200
3.670203 -46.288800
3.702660 -46.289300
3.735117 -46.289800
3.767574 -46.290200
3.800032 -46.290700
3.832489 -46.291000
3.864946 -46.291400
3.897403 -46.291700
3.929860 -46.291900
3.962317 -46.292000
3.994774 -46.292200
4.027231 -46.292300
4.059688 -46.292300
4.059688 -46.292300
4.092621 -46.292300
4.125554 -46.292200
4.158488 -46.292100
4.191421 -46.291900
4.224354 -46.291700
4.257287 -46.291400
4.290220 -46.291100
4.323153 -46.290700
4.356086 -46.290300
4.389020 -46.289900
4.421953 -46.289400
4.454886 -46.288900
4.487819 -46.288300
4.520752 -46.287800
4.553685 -46.287200
4.586619 -46.286500
4.619552 -46.285900
4.652485 -46.285300
4.685418 -46.284600
4.718351 -46.284000
4.751284 -46.283300
4.784217 -46.282600
4.784217 -46.282500
4.816899 -46.283000
4.849581 -46.283500
4.882262 -46.284000
4.914944 -46.284500
4.947626 -46.284900
4.980307 -46.285400
5.012989 -46.285900
5.045670 -46.286400
5.078352 -46.286800
5.111034 -46.287300
5.143715 -46.287700
5.176397 -46.288200
5.209078 -46.288600
5.241760 -46.289000
5.274442 -46.289500
5.307123 -46.289800
5.339805 -46.290200
5.372486 -46.290500
5.405168 -46.290900
5.437850 -46.291100
5.470531 -46.291400
5.503213 -46.291600
5.535895 -46.291800
5.568576 -46.292000
5.601258 -46.292100
5.633939 -46.292200
5.666621 -46.292300
5.699303 -46.292300
e
0.000000 -46.273600
0.031733 -46.273600
0.063466 -46.273600
0.095199 -46.273600
0.126932 -46.273600
0.158666 -46.273600
0.190399 -46.273600
0.222132 -46.273600
0.253865 -46.273600
0.285598 -46.273600
0.317331 -46.273600
0.349064 -46.273600
0.349064 -46.273600
0.380458 -46.273600
0.411852 -46.273700
0.443246 -46.273700
0.474640 -46.273700
0.506034 -46.273800
0.537428 -46.273800
0.568822 -46.273900
0.600216 -46.274000
0.631610 -46.274100
0.663004 -46.274100
0.694398 -46.274200
0.725792 -46.274300
0.757186 -46.274400
0.788580 -46.274400
0.819974 -46.274500
0.851368 -46.274500
0.882762 -46.274500
0.882762 -46.274500
0.910953 -46.274600
0.939144 -46.274600
0.967336 -46.274600
0.995527 -46.274600
1.023718 -46.274600
1.051909 -46.274500
1.051909 -46.274500
1.085235 -46.274600
1.118561 -46.274600
1.151887 -46.274700
1.185213 -46.274900
1.218539 -46.275100
1.251865 -46.275300
1.285191 -46.275500
1.318517 -46.275800
1.351843 -46.276200
1.385169 -46.276600
1.418495 -46.277000
1.451821 -46.277400
1.485147 -46.277900
1.518473 -46.278400
1.551799 -46.278900
1.585125 -46.279500
1.618451 -46.280000
1.651777 -46.280600
1.685103 -46.281300
1.718429 -46.281900
1.751755 -46.282500
1.751755 -46.282500
1.783871 -46.282000
1.815986 -46.281400
1.848102 -46.280800
1.880217 -46.280300
1.912333 -46.279700
1.944448 -46.279200
1.976564 -46.278700
2.008679 -46.278200
2.040795 -46.277700
2.072910 -46.277200
2.105026 -46.276800
2.137141 -46.276400
2.169257 -46.276100
2.201372 -46.275800
2.233488 -46.275500
2.265603 -46.275200
2.297719 -46.275000
2.329834 -46.274800
2.361950 -46.274700
2.394065 -46.274600
2.426181 -46.274600
2.458297 -46.274500
2.458297 -46.274500
2.490797 -46.274500
2.523298 -46.274500
2.555799 -46.274500
2.588299 -46.274500
2.620800 -46.274500
2.653301 -46.274500
2.653301 -46.273600
2.686294 -46.273700
2.719288 -46.273700
2.752282 -46.273800
2.785276 -46.274000
2.818269 -46.274200
2.851263 -46.274500
2.884257 -46.274800
2.917251 -46.275100
2.950244 -46.275500
2.983238 -46.275900
3.016232 -46.276300
3.049226 -46.276800
3.082219 -46.277400
3.115213 -46.277900
3.148207 -46.278500
3.181201 -46.279100
3.214194 -46.279700
3.247188 -46.280400
3.280182 -46.281000
3.313176 -46.281700
3.313176 -46.281700
3.345633 -46.282400
3.378090 -46.282200
3.410547 -46.281500
3.443004 -46.280800
3.475461 -46.280200
3.507918 -46.279500
3.540375 -46.278900
3.572832 -46.278300
3.605289 -46.277800
3.637746 -46.277200
3.670203 -46.276700
3.702660 -46.276300
3.735117 -46.275800
3.767574 -46.275400
3.800032 -46.275000
3.832489 -46.274700
3.864946 -46.274400
3.897403 -46.274200
3.929860 -46.274000
3.962317 -46.273800
3.994774 -46.273700
4.027231 -46.273600
4.059688 -46.273600
4.059688 -46.273600
4.092621 -46.273600
4.125554 -46.273700
4.158488 -46.273800
4.191421 -46.274000
4.224354 -46.274200
4.257287 -46.274400
4.290220 -46.274700
4.323153 -46.275000
4.356086 -46.275300
4.389020 -46.275700
4.421953 -46.276200
4.454886 -46.276600
4.487819 -46.277100
4.520752 -46.277600
4.553685 -46.278200
4.586619 -46.278800
4.619552 -46.279400
4.652485 -46.280000
4.685418 -46.280600
4.718351 -46.281300
4.751284 -46.282000
4.784217 -46.282600
4.784217 -46.282500
4.816899 -46.282100
4.849581 -46.281600
4.882262 -46.281100
4.914944 -46.280700
4.947626 -46.280200
4.980307 -46.279800
5.012989 -46.279300
5.045670 -46.278900
5.078352 -46.278500
5.111034 -46.278000
5.143715 -46.277600
5.176397 -46.277200
5.209078 -46.276900
5.241760 -46.276500
5.274442 -46.276100
5.307123 -46.275800
5.339805 -46.275500
5.372486 -46.275200
5.405168 -46.274900
5.437850 -46.274600
5.470531 -46.274400
5.503213 -46.274200
5.535895 -46.274000
5.568576 -46.273900
5.601258 -46.273800
5.633939 -46.273700
5.666621 -46.273600
5.699303 -46.273600
e
0.000000 -46.219100
0.031733 -46.219100
0.063466 -46.219100
0.095199 -46.219100
0.126932 -46.219100
0.158666 -46.219100
0.190399 -46.219100
0.222132 -46.219100
0.253865 -46.219100
0.285598 -46.219100
0.317331 -46.219100
0.349064 -46.219100
0.349064 -46.219100
0.380458 -46.219100
0.411852 -46.219000
0.443246 -46.218900
0.474640 -46.218700
0.506034 -46.218500
0.537428 -46.218300
0.568822 -46.218000
0.600216 -46.217700
0.631610 -46.217300
0.663004 -46.216900
0.694398 -46.216500
0.725792 -46.216000
0.757186 -46.215600
0.788580 -46.215100
0.819974 -46.214700
0.851368 -46.214300
0.882762 -46.213900
0.882762 -46.213900
0.910953 -46.213900
0.939144 -46.213800
0.967336 -46.213800
0.995527 -46.213800
1.023718 -46.213700
1.051909 -46.213700
1.051909 -46.213700
1.085235 -46.213700
1.118561 -46.213600
1.151887 -46.213400
1.185213 -46.213200
1.218539 -46.212900
1.251865 -46.212600
1.285191 -46.212200
1.318517 -46.211700
1.351843 -46.211200
1.385169 -46.210700
1.418495 -46.210000
1.451821 -46.209400
1.485147 -46.208700
1.518473 -46.208100
1.551799 -46.208000
1.585125 -46.207900
1.618451 -46.207900
1.651777 -46.207800
1.685103 -46.207800
1.718429 -46.207800
1.751755 -46.207700
1.751755 -46.207700
1.783871 -46.207700
1.815986 -46.207800
1.848102 -46.207800
1.880217 -46.207800
1.912333 -46.207900
1.944448 -46.208000
1.976564 -46.208000
2.008679 -46.208400
2.040795 -46.209000
2.072910 -46.209700
2.105026 -46.210300
2.137141 -46.210900
2.169257 -46.211400
2.201372 -46.211900
2.233488 -46.212300
2.265603 -46.212600
2.297719 -46.213000
2.329834 -46.213200
2.361950 -46.213400
2.394065 -46.213600
2.426181 -46.213600
2.458297 -46.213700
2.458297 -46.213700
2.490797 -46.213700
2.523298 -46.213700
2.555799 -46.213700
2.588299 -46.213800
2.620800 -46.213900
2.653301 -46.213900
2.653301 -46.219100
2.686294 -46.219000
2.719288 -46.218900
2.752282 -46.218800
2.785276 -46.218500
2.818269 -46.218200
2.851263 -46.217900
2.884257 -46.217400
2.917251 -46.216900
2.950244 -46.216400
2.983238 -46.215800
3.016232 -46.215200
3.049226 -46.214500
3.082219 -46.213800
3.115213 -46.213000
3.148207 -46.212300
3.181201 -46.211500
3.214194 -46.210800
3.247188 -46.210100
3.280182 -46.209500
3.313176 -46.209000
3.313176 -46.209000
3.345633 -46.208800
3.378090 -46.208900
3.410547 -46.209200
3.443004 -46.209700
3.475461 -46.210300
3.507918 -46.211000
3.540375 -46.211700
3.572832 -46.212400
3.605289 -46.213200
3.637746 -46.213900
3.670203 -46.214600
3.702660 -46.215300
3.735117 -46.215900
3.767574 -46.216500
3.800032 -46.217000
3.832489 -46.217500
3.864946 -46.217900
3.897403 -46.218300
3.929860 -46.218600
3.962317 -46.218800
3.994774 -46.218900
4.027231 -46.219000
4.059688 -46.219100
4.059688 -46.219100
4.092621 -46.219000
4.125554 -46.218900
4.158488 -46.218800
4.191421 -46.218600
4.224354 -46.218300
4.257287 -46.217900
4.290220 -46.217500
4.323153 -46.217100
4.356086 -46.216500
4.389020 -46.216000
4.421953 -46.215400
4.454886 -46.214700
4.487819 -46.214000
4.520752 -46.213300
4.553685 -46.212600
4.586619 -46.211900
4.619552 -46.211200
4.652485 -46.210500
4.685418 -46.209800
4.718351 -46.209300
4.751284 -46.208900
4.784217 -46.208800
4.784217 -46.207700
4.816899 -46.207700
4.849581 -46.207800
4.882262 -46.207800
4.914944 -46.208000
4.947626 -46.208200
4.980307 -46.208600
5.012989 -46.209100
5.045670 -46.209600
5.078352 -46.210300
5.111034 -46.210900
5.143715 -46.211600
5.176397 -46.212300
5.209078 -46.213100
5.241760 -46.213700
5.274442 -46.214400
5.307123 -46.215000
5.339805 -46.215600
5.372486 -46.216200
5.405168 -46.216700
5.437850 -46.217200
5.470531 -46.217600
5.503213 -46.218000
5.535895 -46.218300
5.568576 -46.218600
5.601258 -46.218800
5.633939 -46.219000
5.666621 -46.219100
5.699303 -46.219100
e
0.000000 -46.201500
0.031733 -46.201500
0.063466 -46.201500
0.095199 -46.201500
0.126932 -46.201500
0.158666 -46.201500
0.190399 -46.201500
0.222132 -46.201500
0.253865 -46.201500
0.285598 -46.201500
0.317331 -46.201500
0.349064 -46.201500
0.349064 -46.201500
0.380458 -46.201600
0.411852 -46.201700
0.443246 -46.201900
0.474640 -46.202200
0.506034 -46.202600
0.537428 -46.203000
0.568822 -46.203500
0.600216 -46.204000
0.631610 -46.204500
0.663004 -46.205100
0.694398 -46.205700
0.725792 -46.206300
0.757186 -46.206800
0.788580 -46.207400
0.819974 -46.207900
0.851368 -46.208400
0.882762 -46.208800
0.882762 -46.208800
0.910953 -46.208800
0.939144 -46.208900
0.967336 -46.209000
0.995527 -46.209000
1.023718 -46.209000
1.051909 -46.209000
1.051909 -46.209000
1.085235 -46.209000
1.118561 -46.209000
1.151887 -46.208900
1.185213 -46.208900
1.218539 -46.208800
1.251865 -46.208800
1.285191 -46.208700
1.318517 -46.208600
1.351843 -46.208500
1.385169 -46.208400
1.418495 -46.208300
1.451821 -46.208200
1.485147 -46.208200
1.518473 -46.208000
1.551799 -46.207200
1.585125 -46.206500
1.618451 -46.205700
1.651777 -46.204900
1.685103 -46.204100
1.718429 -46.203400
1.751755 -46.202900
1.751755 -46.202900
1.783871 -46.203200
1.815986 -46.203900
1.848102 -46.204700
1.880217 -46.205400
1.912333 -46.206200
1.944448 -46.206900
1.976564 -46.207700
2.008679 -46.208100
2.040795 -46.208200
2.072910 -46.208300
2.105026 -46.208400
2.137141 -46.208500
2.169257 -46.208500
2.201372 -46.208600
2.233488 -46.208700
2.265603 -46.208800
2.297719 -46.208800
2.329834 -46.208900
2.361950 -46.208900
2.394065 -46.209000
2.426181 -46.209000
2.458297 -46.209000
2.458297 -46.209000
2.490797 -46.209000
2.523298 -46.209000
2.555799 -46.208900
2.588299 -46.208900
2.620800 -46.208800
2.653301 -46.208800
2.653301 -46.201500
2.686294 -46.201500
2.719288 -46.201500
2.752282 -46.201500
2.785276 -46.201500
2.818269 -46.201400
2.851263 -46.201400
2.884257 -46.201300
2.917251 -46.201300
2.950244 -46.201200
2.983238 -46.201200
3.016232 -46.201100
3.049226 -46.201000
3.082219 -46.201000
3.115213 -46.200900
3.148207 -46.200900
3.181201 -46.200800
3.214194 -46.201200
3.247188 -46.201900
3.280182 -46.202400
3.313176 -46.202900
3.313176 -46.202900
3.345633 -46.203100
3.378090 -46.203100
3.410547 -46.202800
3.443004 -46.202300
3.475461 -46.201700
3.507918 -46.201000
3.540375 -46.200800
3.572832 -46.200900
3.605289 -46.200900
3.637746 -46.201000
3.670203 -46.201000
3.702660 -46.201100
3.735117 -46.201200
3.767574 -46.201200
3.800032 -46.201300
3.832489 -46.201300
3.864946 -46.201400
3.897403 -46.201400
3.929860 -46.201500
3.962317 -46.201500
3.994774 -46.201500
4.027231 -46.201500
4.059688 -46.201500
4.059688 -46.201500
4.092621 -46.201500
4.125554 -46.201500
4.158488 -46.201500
4.191421 -46.201500
4.224354 -46.201400
4.257287 -46.201400
4.290220 -46.201300
4.323153 -46.201300
4.356086 -46.201200
4.389020 -46.201200
4.421953 -46.201100
4.454886 -46.201100
4.487819 -46.201000
4.520752 -46.200900
4.553685 -46.200900
4.586619 -46.200900
4.619552 -46.200800
4.652485 -46.201500
4.685418 -46.202100
4.718351 -46.202600
4.751284 -46.203000
4.784217 -46.203100
4.784217 -46.202900
4.816899 -46.203100
4.849581 -46.203600
4.882262 -46.204200
4.914944 -46.204600
4.947626 -46.205000
4.980307 -46.205300
5.012989 -46.205400
5.045670 -46.205400
5.078352 -46.205200
5.111034 -46.205100
5.143715 -46.204900
5.176397 -46.204700
5.209078 -46.204400
5.241760 -46.204200
5.274442 -46.203900
5.307123 -46.203600
5.339805 -46.203300
5.372486 -46.203100
5.405168 -46.202800
5.437850 -46.202600
5.470531 -46.202300
5.503213 -46.202100
5.535895 -46.201900
5.568576 -46.201800
5.601258 -46.201700
5.633939 -46.201600
5.666621 -46.201500
5.699303 -46.201500
e
0.000000 -46.193800
0.031733 -46.193800
0.063466 -46.193800
0.095199 -46.193900
0.126932 -46.193900
0.158666 -46.193900
0.190399 -46.193900
0.222132 -46.193900
0.253865 -46.193900
0.285598 -46.193900
0.317331 -46.193900
0.349064 -46.193900
0.349064 -46.193900
0.380458 -46.193800
0.411852 -46.193800
0.443246 -46.193700
0.474640 -46.193600
0.506034 -46.193400
0.537428 -46.193200
0.568822 -46.193100
0.600216 -46.192900
0.631610 -46.192700
0.663004 -46.192600
0.694398 -46.192400
0.725792 -46.192300
0.757186 -46.192200
0.788580 -46.192100
0.819974 -46.192100
0.851368 -46.192000
0.882762 -46.192000
0.882762 -46.192000
0.910953 -46.191900
0.939144 -46.191900
0.967336 -46.191900
0.995527 -46.191900
1.023718 -46.191900
1.051909 -46.191900
1.051909 -46.191900
1.085235 -46.191900
1.118561 -46.192000
1.151887 -46.192100
1.185213 -46.192300
1.218539 -46.192600
1.251865 -46.192900
1.285191 -46.193200
1.318517 -46.193600
1.351843 -46.194000
1.385169 -46.194500
1.418495 -46.195100
1.451821 -46.195600
1.485147 -46.196200
1.518473 -46.196900
1.551799 -46.197600
1.585125 -46.198300
1.618451 -46.199000
1.651777 -46.199800
1.685103 -46.200600
1.718429 -46.201300
1.751755 -46.201800
1.751755 -46.201800
1.783871 -46.201400
1.815986 -46.200700
1.848102 -46.200000
1.880217 -46.199300
1.912333 -46.198600
1.944448 -46.197900
1.976564 -46.197200
2.008679 -46.196600
2.040795 -46.196000
2.072910 -46.195400
2.105026 -46.194900
2.137141 -46.194400
2.169257 -46.193900
2.201372 -46.193500
2.233488 -46.193100
2.265603 -46.192800
2.297719 -46.192500
2.329834 -46.192300
2.361950 -46.192200
2.394065 -46.192000
2.426181 -46.191900
2.458297 -46.191900
2.458297 -46.191900
2.490797 -46.191900
2.523298 -46.191900
2.555799 -46.191900
2.588299 -46.191900
2.620800 -46.192000
2.653301 -46.192000
2.653301 -46.193900
2.686294 -46.193900
2.719288 -46.194000
2.752282 -46.194100
2.785276 -46.194300
2.818269 -46.194600
2.851263 -46.194900
2.884257 -46.195300
2.917251 -46.195700
2.950244 -46.196200
2.983238 -46.196700
3.016232 -46.197200
3.049226 -46.197800
3.082219 -46.198500
3.115213 -46.199100
3.148207 -46.199800
3.181201 -46.200500
3.214194 -46.200800
3.247188 -46.200800
3.280182 -46.200800
3.313176 -46.200700
3.313176 -46.200700
3.345633 -46.200700
3.378090 -46.200700
3.410547 -46.200700
3.443004 -46.200800
3.475461 -46.200800
3.507918 -46.200800
3.540375 -46.200300
3.572832 -46.199700
3.605289 -46.199000
3.637746 -46.198300
3.670203 -46.197700
3.702660 -46.197100
3.735117 -46.196600
3.767574 -46.196100
3.800032 -46.195600
3.832489 -46.195200
3.864946 -46.194800
3.897403 -46.194500
3.929860 -46.194300
3.962317 -46.194100
3.994774 -46.194000
4.027231 -46.193900
4.059688 -46.193800
4.059688 -46.193800
4.092621 -46.193900
4.125554 -46.194000
4.158488 -46.194100
4.191421 -46.194300
4.224354 -46.194500
4.257287 -46.194800
4.290220 -46.195200
4.323153 -46.195600
4.356086 -46.196000
4.389020 -46.196500
4.421953 -46.197000
4.454886 -46.197600
4.487819 -46.198200
4.520752 -46.198800
4.553685 -46.199500
4.586619 -46.200200
4.619552 -46.200800
4.652485 -46.200800
4.685418 -46.200800
4.718351 -46.200800
4.751284 -46.200700
4.784217 -46.200700
4.784217 -46.201800
4.816899 -46.201500
4.849581 -46.201000
4.882262 -46.200400
4.914944 -46.199900
4.947626 -46.199300
4.980307 -46.198800
5.012989 -46.198300
5.045670 -46.197900
5.078352 -46.197400
5.111034 -46.197000
5.143715 -46.196600
5.176397 -46.196300
5.209078 -46.195900
5.241760 -46.195600
5.274442 -46.195400
5.307123 -46.195100
5.339805 -46.194900
5.372486 -46.194700
5.405168 -46.194500
5.437850 -46.194400
5.470531 -46.194200
5.503213 -46.194100
5.535895 -46.194000
5.568576 -46.194000
5.601258 -46.193900
5.633939 -46.193900
5.666621 -46.193800
5.699303 -46.193800
e
0.000000 -46.129500
0.031733 -46.129600
0.063466 -46.129600
0.095199 -46.129600
0.126932 -46.129600
0.158666 -46.129500
0.190399 -46.129500
0.222132 -46.129500
0.253865 -46.129500
0.285598 -46.129600
0.317331 -46.129600
0.349064 -46.129500
0.349064 -46.129500
0.380458 -46.129600
0.411852 -46.129600
0.443246 -46.129600
0.474640 -46.129600
0.506034 -46.129600
0.537428 -46.129600
0.568822 -46.129700
0.600216 -46.129700
0.631610 -46.129700
0.663004 -46.129700
0.694398 -46.129800
0.725792 -46.129800
0.757186 -46.129800
0.788580 -46.129800
0.819974 -46.129800
0.851368 -46.129900
0.882762 -46.129900
0.882762 -46.129900
0.910953 -46.129900
0.939144 -46.129900
0.967336 -46.129900
0.995527 -46.129900
1.023718 -46.129900
1.051909 -46.129900
1.051909 -46.129900
1.085235 -46.129900
1.118561 -46.129900
1.151887 -46.129900
1.185213 -46.130000
1.218539 -46.130000
1.251865 -46.130100
1.285191 -46.130100
1.318517 -46.130200
1.351843 -46.130300
1.385169 -46.130400
1.418495 -46.130500
1.451821 -46.130500
1.485147 -46.130600
1.518473 -46.130700
1.551799 -46.130800
1.585125 -46.130800
1.618451 -46.130900
1.651777 -46.130900
1.685103 -46.131000
1.718429 -46.131000
1.751755 -46.131000
1.751755 -46.131000
1.783871 -46.131000
1.815986 -46.131000
1.848102 -46.130900
1.880217 -46.130900
1.912333 -46.130800
1.944448 -46.130800
1.976564 -46.130700
2.008679 -46.130600
2.040795 -46.130600
2.072910 -46.130500
2.105026 -46.130400
2.137141 -46.130300
2.169257 -46.130200
2.201372 -46.130200
2.233488 -46.130100
2.265603 -46.130000
2.297719 -46.129900
2.329834 -46.129900
2.361950 -46.129900
2.394065 -46.129800
2.426181 -46.129800
2.458297 -46.129800
2.458297 -46.129800
2.490797 -46.129800
2.523298 -46.129800
2.555799 -46.129800
2.588299 -46.129800
2.620800 -46.129900
2.653301 -46.129900
2.653301 -46.129500
2.686294 -46.129600
2.719288 -46.129600
2.752282 -46.129600
2.785276 -46.129600
2.818269 -46.129700
2.851263 -46.129700
2.884257 -46.129800
2.917251 -46.129900
2.950244 -46.129900
2.983238 -46.130000
3.016232 -46.130100
3.049226 -46.130100
3.082219 -46.130200
3.115213 -46.130300
3.148207 -46.130300
3.181201 -46.130400
3.214194 -46.130400
3.247188 -46.130500
3.280182 -46.130500
3.313176 -46.130500
3.313176 -46.130500
3.345633 -46.130500
3.378090 -46.130500
3.410547 -46.130500
3.443004 -46.130500
3.475461 -46.130400
3.507918 -46.130400
3.540375 -46.130300
3.572832 -46.130300
3.605289 -46.130200
3.637746 -46.130200
3.670203 -46.130100
3.702660 -46.130000
3.735117 -46.130000
3.767574 -46.129900
3.800032 -46.129800
3.832489 -46.129800
3.864946 -46.129700
3.897403 -46.129700
3.929860 -46.129600
3.962317 -46.129600
3.994774 -46.129600
4.027231 -46.129600
4.059688 -46.129500
4.059688 -46.129500
4.092621 -46.129600
4.125554 -46.129600
4.158488 -46.129600
4.191421 -46.129600
4.224354 -46.129700
4.257287 -46.129700
4.290220 -46.129800
4.323153 -46.129800
4.356086 -46.129900
4.389020 -46.130000
4.421953 -46.130000
4.454886 -46.130100
4.487819 -46.130200
4.520752 -46.130200
4.553685 -46.130300
4.586619 -46.130300
4.619552 -46.130400
4.652485 -46.130400
4.685418 -46.130500
4.718351 -46.130500
4.751284 -46.130500
4.784217 -46.130500
4.784217 -46.131000
4.816899 -46.131000
4.849581 -46.131000
4.882262 -46.130900
4.914944 -46.130900
4.947626 -46.130900
4.980307 -46.130800
5.012989 -46.130800
5.045670 -46.130700
5.078352 -46.130600
5.111034 -46.130500
5.143715 -46.130500
5.176397 -46.130400
5.209078 -46.130300
5.241760 -46.130200
5.274442 -46.130100
5.307123 -46.130100
5.339805 -46.130000
5.372486 -46.129900
5.405168 -46.129900
5.437850 -46.129800
5.470531 -46.129700
5.503213 -46.129700
5.535895 -46.129700
5.568576 -46.129600
5.601258 -46.129600
5.633939 -46.129600
5.666621 -46.129600
5.699303 -46.129500
e
0.000000 -46.127600
0.031733 -46.127600
0.063466 -46.127700
0.095199 -46.127700
0.126932 -46.127700
0.158666 -46.127700
0.190399 -46.127700
0.222132 -46.127700
0.253865 -46.127700
0.285598 -46.127700
0.317331 -46.127700
0.349064 -46.127700
0.349064 -46.127700
0.380458 -46.127700
0.411852 -46.127700
0.443246 -46.127700
0.474640 -46.127600
0.506034 -46.127600
0.537428 -46.127600
0.568822 -46.127600
0.600216 -46.127500
0.631610 -46.127500
0.663004 -46.127500
0.694398 -46.127400
0.725792 -46.127400
0.757186 -46.127400
0.788580 -46.127400
0.819974 -46.127300
0.851368 -46.127300
0.882762 -46.127300
0.882762 -46.127300
0.910953 -46.127300
0.939144 -46.127300
0.967336 -46.127300
0.995527 -46.127300
1.023718 -46.127300
1.051909 -46.127300
1.051909 -46.127300
1.085235 -46.127300
1.118561 -46.127300
1.151887 -46.127300
1.185213 -46.127400
1.218539 -46.127400
1.251865 -46.127400
1.285191 -46.127500
1.318517 -46.127500
1.351843 -46.127600
1.385169 -46.127600
1.418495 -46.127700
1.451821 -46.127800
1.485147 -46.127800
1.518473 -46.127900
1.551799 -46.127900
1.585125 -46.128000
1.618451 -46.128000
1.651777 -46.128000
1.685103 -46.128100
1.718429 -46.128100
1.751755 -46.128100
1.751755 -46.128100
1.783871 -46.128100
1.815986 -46.128100
1.848102 -46.128100
1.880217 -46.128000
1.912333 -46.128000
1.944448 -46.128000
1.976564 -46.127900
2.008679 -46.127900
2.040795 -46.127800
2.072910 -46.127800
2.105026 -46.127700
2.137141 -46.127700
2.169257 -46.127600
2.201372 -46.127600
2.233488 -46.127500
2.265603 -46.127500
2.297719 -46.127400
2.329834 -46.127400
2.361950 -46.127400
2.394065 -46.127300
2.426181 -46.127300
2.458297 -46.127300
2.458297 -46.127300
2.490797 -46.127300
2.523298 -46.127300
2.555799 -46.127300
2.588299 -46.127300
2.620800 -46.127300
2.653301 -46.127300
2.653301 -46.127700
2.686294 -46.127700
2.719288 -46.127700
2.752282 -46.127700
2.785276 -46.127700
2.818269 -46.127800
2.851263 -46.127800
2.884257 -46.127800
2.917251 -46.127900
2.950244 -46.127900
2.983238 -46.128000
3.016232 -46.128000
3.049226 -46.128100
3.082219 -46.128100
3.115213 -46.128200
3.148207 -46.128200
3.181201 -46.128300
3.214194 -46.128300
3.247188 -46.128300
3.280182 -46.128300
3.313176 -46.128300
3.313176 -46.128300
3.345633 -46.128300
3.378090 -46.128300
3.410547 -46.128300
3.443004 -46.128300
3.475461 -46.128300
3.507918 -46.128300
3.540375 -46.128200
3.572832 -46.128200
3.605289 -46.128100
3.637746 -46.128100
3.670203 -46.128100
3.702660 -46.128000
3.735117 -46.128000
3.767574 -46.127900
3.800032 -46.127900
3.832489 -46.127800
3.864946 -46.127800
3.897403 -46.127700
3.929860 -46.127700
3.962317 -46.127700
3.994774 -46.127700
4.027231 -46.127600
4.059688 -46.127600
4.059688 -46.127600
4.092621 -46.127600
4.125554 -46.127700
4.158488 -46.127700
4.191421 -46.127700
4.224354 -46.127700
4.257287 -46.127800
4.290220 -46.127800
4.323153 -46.127900
4.356086 -46.127900
4.389020 -46.127900
4.421953 -46.128000
4.454886 -46.128000
4.487819 -46.128100
4.520752 -46.128100
4.553685 -46.128200
4.586619 -46.128200
4.619552 -46.128200
4.652485 -46.128300
4.685418 -46.128300
4.718351 -46.128300
4.751284 -46.128300
4.784217 -46.128300
4.784217 -46.128100
4.816899 -46.128100
4.849581 -46.128100
4.882262 -46.128100
4.914944 -46.128100
4.947626 -46.128000
4.980307 -46.128000
5.012989 -46.128000
5.045670 -46.128000
5.078352 -46.128000
5.111034 -46.127900
5.143715 -46.127900
5.176397 -46.127900
5.209078 -46.127900
5.241760 -46.127800
5.274442 -46.127800
5.307123 -46.127800
5.339805 -46.127800
5.372486 -46.127800
5.405168 -46.127700
5.437850 -46.127700
5.470531 -46.127700
5.503213 -46.127700
5.535895 -46.127700
5.568576 -46.127700
5.601258 -46.127700
5.633939 -46.127600
5.666621 -46.127600
5.699303 -46.127600
e
0.000000 -46.062400
0.031733 -46.062400
0.063466 -46.062400
0.095199 -46.062400
0.126932 -46.062400
0.158666 -46.062400
0.190399 -46.062400
0.222132 -46.062400
0.253865 -46.062400
0.285598 -46.062400
0.317331 -46.062400
0.349064 -46.062400
0.349064 -46.062400
0.380458 -46.062400
0.411852 -46.062400
0.443246 -46.062400
0.474640 -46.062400
0.506034 -46.062400
0.537428 -46.062400
0.568822 -46.062400
0.600216 -46.062500
0.631610 -46.062500
0.663004 -46.062500
0.694398 -46.062500
0.725792 -46.062500
0.757186 -46.062500
0.788580 -46.062500
0.819974 -46.062500
0.851368 -46.062500
0.882762 -46.062500
0.882762 -46.062500
0.910953 -46.062500
0.939144 -46.062500
0.967336 -46.062500
0.995527 -46.062500
1.023718 -46.062500
1.051909 -46.062500
1.051909 -46.062500
1.085235 -46.062500
1.118561 -46.062500
1.151887 -46.062500
1.185213 -46.062500
1.218539 -46.062500
1.251865 -46.062400
1.285191 -46.062400
1.318517 -46.062300
1.351843 -46.062300
1.385169 -46.062200
1.418495 -46.062100
1.451821 -46.062100
1.485147 -46.062000
1.518473 -46.061900
1.551799 -46.061800
1.585125 -46.061700
1.618451 -46.061600
1.651777 -46.061500
1.685103 -46.061300
1.718429 -46.061200
1.751755 -46.061100
1.751755 -46.061100
1.783871 -46.061200
1.815986 -46.061300
1.848102 -46.061400
1.880217 -46.061500
1.912333 -46.061600
1.944448 -46.061800
1.976564 -46.061900
2.008679 -46.061900
2.040795 -46.062000
2.072910 -46.062100
2.105026 -46.062200
2.137141 -46.062300
2.169257 -46.062300
2.201372 -46.062400
2.233488 -46.062400
2.265603 -46.062400
2.297719 -46.062500
2.329834 -46.062500
2.361950 -46.062500
2.394065 -46.062500
2.426181 -46.062500
2.458297 -46.062500
2.458297 -46.062500
2.490797 -46.062500
2.523298 -46.062500
2.555799 -46.062500
2.588299 -46.062500
2.620800 -46.062500
2.653301 -46.062500
2.653301 -46.062400
2.686294 -46.062400
2.719288 -46.062400
2.752282 -46.062400
2.785276 -46.062400
2.818269 -46.062300
2.851263 -46.062300
2.884257 -46.062300
2.917251 -46.062200
2.950244 -46.062100
2.983238 -46.062100
3.016232 -46.062000
3.049226 -46.061900
3.082219 -46.061900
3.115213 -46.061800
3.148207 -46.061700
3.181201 -46.061600
3.214194 -46.061500
3.247188 -46.061400
3.280182 -46.061300
3.313176 -46.061200
3.313176 -46.061200
3.345633 -46.061000
3.378090 -46.061100
3.410547 -46.061200
3.443004 -46.061300
3.475461 -46.061400
3.507918 -46.061500
3.540375 -46.061600
3.572832 -46.061700
3.605289 -46.061800
3.637746 -46.061900
3.670203 -46.062000
3.702660 -46.062100
3.735117 -46.062100
3.767574 -46.062200
3.800032 -46.062200
3.832489 -46.062300
3.864946 -46.062300
3.897403 -46.062300
3.929860 -46.062400
3.962317 -46.062400
3.994774 -46.062400
4.027231 -46.062400
4.059688 -46.062400
4.059688 -46.062400
4.092621 -46.062400
4.125554 -46.062400
4.158488 -46.062400
4.191421 -46.062400
4.224354 -46.062300
4.257287 -46.062300
4.290220 -46.062300
4.323153 -46.062200
4.356086 -46.062200
4.389020 -46.062100
4.421953 -46.062100
4.454886 -46.062000
4.487819 -46.061900
4.520752 -46.061800
4.553685 -46.061700
4.586619 -46.061600
4.619552 -46.061500
4.652485 -46.061400
4.685418 -46.061300
4.718351 -46.061200
4.751284 -46.061100
4.784217 -46.061000
4.784217 -46.061100
4.816899 -46.061100
4.849581 -46.061200
4.882262 -46.061300
4.914944 -46.061400
4.947626 -46.061500
4.980307 -46.061600
5.012989 -46.061700
5.045670 -46.061800
5.078352 -46.061800
5.111034 -46.061900
5.143715 -46.062000
5.176397 -46.062000
5.209078 -46.062100
5.241760 -46.062100
5.274442 -46.062200
5.307123 -46.062200
5.339805 -46.062200
5.372486 -46.062300
5.405168 -46.062300
5.437850 -46.062300
5.470531 -46.062300
5.503213 -46.062400
5.535895 -46.062400
5.568576 -46.062400
5.601258 -46.062400
5.633939 -46.062400
5.666621 -46.062400
5.699303 -46.062400
e
0.000000 -46.058900
0.031733 -46.058900
0.063466 -46.058900
0.095199 -46.058900
0.126932 -46.058900
0.158666 -46.058900
0.190399 -46.058900
0.222132 -46.058900
0.253865 -46.058900
0.285598 -46.059000
0.317331 -46.059000
0.349064 -46.059000
0.349064 -46.059000
0.380458 -46.059000
0.411852 -46.059000
0.443246 -46.059000
0.474640 -46.059000
0.506034 -46.059000
0.537428 -46.059000
0.568822 -46.059000
0.600216 -46.059000
0.631610 -46.059000
0.663004 -46.059000
0.694398 -46.059000
0.725792 -46.059000
0.757186 -46.059000
0.788580 -46.059000
0.819974 -46.059000
0.851368 -46.059000
0.882762 -46.058900
0.882762 -46.058900
0.910953 -46.059000
0.939144 -46.059000
0.967336 -46.059000
0.995527 -46.059000
1.023718 -46.059000
1.051909 -46.059000
1.051909 -46.059000
1.085235 -46.059000
1.118561 -46.059000
1.151887 -46.059000
1.185213 -46.059100
1.218539 -46.059100
1.251865 -46.059200
1.285191 -46.059300
1.318517 -46.059300
1.351843 -46.059400
1.385169 -46.059500
1.418495 -46.059700
1.451821 -46.059800
1.485147 -46.059900
1.518473 -46.060100
1.551799 -46.060200
1.585125 -46.060300
1.618451 -46.060500
1.651777 -46.060600
1.685103 -46.060800
1.718429 -46.060900
1.751755 -46.061000
1.751755 -46.061000
1.783871 -46.060900
1.815986 -46.060800
1.848102 -46.060700
1.880217 -46.060500
1.912333 -46.060400
1.944448 -46.060300
1.976564 -46.060100
2.008679 -46.060000
2.040795 -46.059800
2.072910 -46.059700
2.105026 -46.059600
2.137141 -46.059500
2.169257 -46.059400
2.201372 -46.059300
2.233488 -46.059200
2.265603 -46.059100
2.297719 -46.059100
2.329834 -46.059000
2.361950 -46.059000
2.394065 -46.058900
2.426181 -46.058900
2.458297 -46.058900
2.458297 -46.058900
2.490797 -46.058900
2.523298 -46.058900
2.555799 -46.058900
2.588299 -46.058900
2.620800 -46.058900
2.653301 -46.058900
2.653301 -46.059000
2.686294 -46.059000
2.719288 -46.059000
2.752282 -46.059000
2.785276 -46.059100
2.818269 -46.059100
2.851263 -46.059200
2.884257 -46.059300
2.917251 -46.059400
2.950244 -46.059500
2.983238 -46.059500
3.016232 -46.059700
3.049226 -46.059800
3.082219 -46.059900
3.115213 -46.060000
3.148207 -46.060200
3.181201 -46.060300
3.214194 -46.060400
3.247188 -46.060600
3.280182 -46.060700
3.313176 -46.060800
3.313176 -46.060800
3.345633 -46.061000
3.378090 -46.060900
3.410547 -46.060800
3.443004 -46.060700
3.475461 -46.060500
3.507918 -46.060400
3.540375 -46.060200
3.572832 -46.060100
3.605289 -46.060000
3.637746 -46.059900
3.670203 -46.059700
3.702660 -46.059600
3.735117 -46.059500
3.767574 -46.059400
3.800032 -46.059300
3.832489 -46.059200
3.864946 -46.059200
3.897403 -46.059100
3.929860 -46.059000
3.962317 -46.059000
3.994774 -46.059000
4.027231 -46.058900
4.059688 -46.058900
4.059688 -46.058900
4.092621 -46.058900
4.125554 -46.059000
4.158488 -46.059000
4.191421 -46.059000
4.224354 -46.059100
4.257287 -46.059200
4.290220 -46.059200
4.323153 -46.059300
4.356086 -46.059400
4.389020 -46.059500
4.421953 -46.059600
4.454886 -46.059700
4.487819 -46.059800
4.520752 -46.059900
4.553685 -46.060100
4.586619 -46.060200
4.619552 -46.060300
4.652485 -46.060500
4.685418 -46.060600
4.718351 -46.060800
4.751284 -46.060900
4.784217 -46.061000
4.784217 -46.061000
4.816899 -46.060900
4.849581 -46.060800
4.882262 -46.060700
4.914944 -46.060600
4.947626 -46.060500
4.980307 -46.060400
5.012989 -46.060300
5.045670 -46.060200
5.078352 -46.060100
5.111034 -46.060000
5.143715 -46.059900
5.176397 -46.059800
5.209078 -46.059700
5.241760 -46.059600
5.274442 -46.059500
5.307123 -46.059400
5.339805 -46.059400
5.372486 -46.059300
5.405168 -46.059200
5.437850 -46.059200
5.470531 -46.059100
5.503213 -46.059100
5.535895 -46.059000
5.568576 -46.059000
5.601258 -46.059000
5.633939 -46.058900
5.666621 -46.058900
5.699303 -46.058900
e
0.000000 -7.239300
0.031733 -7.237500
0.063466 -7.232100
0.095199 -7.223300
0.126932 -7.211100
0.158666 -7.195800
0.190399 -7.177700
0.222132 -7.157200
0.253865 -7.135200
0.285598 -7.113400
0.317331 -7.095100
0.349064 -7.087400
0.349064 -7.087400
0.380458 -7.085500
0.411852 -7.080100
0.443246 -7.071000
0.474640 -7.058500
0.506034 -7.042600
0.537428 -7.023600
0.568822 -7.001700
0.600216 -6.977300
0.631610 -6.950800
0.663004 -6.922700
0.694398 -6.893900
0.725792 -6.865700
0.757186 -6.840600
0.788580 -6.821900
0.819974 -6.811300
0.851368 -6.807800
0.882762 -6.810700
0.882762 -6.810700
0.910953 -6.802000
0.939144 -6.795100
0.967336 -6.789900
0.995527 -6.786400
1.023718 -6.784400
1.051909 -6.783800
1.051909 -6.783800
1.085235 -6.780000
1.118561 -6.768500
1.151887 -6.749400
1.185213 -6.722600
1.218539 -6.688200
1.251865 -6.646100
1.285191 -6.596500
1.318517 -6.539400
1.351843 -6.474700
1.385169 -6.402500
1.418495 -6.323000
1.451821 -6.236000
1.485147 -6.141800
1.518473 -6.040300
1.551799 -5.931800
1.585125 -5.816300
1.618451 -5.694000
1.651777 -5.565200
1.685103 -5.430400
1.718429 -5.291400
1.751755 -5.254000
1.751755 -5.254000
1.783871 -5.383100
1.815986 -5.512500
1.848102 -5.638100
1.880217 -5.758900
1.912333 -5.874500
1.944448 -5.984300
1.976564 -6.088300
2.008679 -6.186200
2.040795 -6.277800
2.072910 -6.362900
2.105026 -6.441600
2.137141 -6.513600
2.169257 -6.579000
2.201372 -6.637600
2.233488 -6.689400
2.265603 -6.734400
2.297719 -6.772600
2.329834 -6.803800
2.361950 -6.828100
2.394065 -6.845500
2.426181 -6.855900
2.458297 -6.859400
2.458297 -6.859400
2.490797 -6.857900
2.523298 -6.853600
2.555799 -6.846400
2.588299 -6.836700
2.620800 -6.824600
2.653301 -6.810700
2.653301 -7.087400
2.686294 -7.083700
2.719288 -7.072700
2.752282 -7.054300
2.785276 -7.028600
2.818269 -6.995500
2.851263 -6.955100
2.884257 -6.907500
2.917251 -6.852500
2.950244 -6.790300
2.983238 -6.720800
3.016232 -6.644100
3.049226 -6.560300
3.082219 -6.469300
3.115213 -6.371200
3.148207 -6.266100
3.181201 -6.154000
3.214194 -6.035000
3.247188 -5.909200
3.280182 -5.776700
3.313176 -5.637800
3.313176 -5.637800
3.345633 -5.585800
3.378090 -5.721900
3.410547 -5.858700
3.443004 -5.990600
3.475461 -6.116700
3.507918 -6.236500
3.540375 -6.349900
3.572832 -6.456700
3.605289 -6.556900
3.637746 -6.650400
3.670203 -6.737100
3.702660 -6.817000
3.735117 -6.890100
3.767574 -6.956200
3.800032 -7.015500
3.832489 -7.067900
3.864946 -7.113300
3.897403 -7.151800
3.929860 -7.183200
3.962317 -7.207700
3.994774 -7.225300
4.027231 -7.235800
4.059688 -7.239300
4.059688 -7.239300
4.092621 -7.235700
4.125554 -7.225200
4.158488 -7.207700
4.191421 -7.183100
4.224354 -7.151600
4.257287 -7.113000
4.290220 -7.067500
4.323153 -7.015000
4.356086 -6.955500
4.389020 -6.889100
4.421953 -6.815800
4.454886 -6.735600
4.487819 -6.648500
4.520752 -6.554500
4.553685 -6.453800
4.586619 -6.346400
4.619552 -6.232300
4.652485 -6.111600
4.685418 -5.984600
4.718351 -5.851700
4.751284 -5.714700
4.784217 -5.607500
4.784217 -5.251700
4.816899 -5.341700
4.849581 -5.456400
4.882262 -5.572000
4.914944 -5.687000
4.947626 -5.800500
4.980307 -5.911900
5.012989 -6.020700
5.045670 -6.126400
5.078352 -6.228700
5.111034 -6.327200
5.143715 -6.421600
5.176397 -6.511600
5.209078 -6.597100
5.241760 -6.677800
5.274442 -6.753500
5.307123 -6.824100
5.339805 -6.889500
5.372486 -6.949500
5.405168 -7.004100
5.437850 -7.053100
5.470531 -7.096500
5.503213 -7.134200
5.535895 -7.166200
5.568576 -7.192500
5.601258 -7.212900
5.633939 -7.227500
5.666621 -7.236300
5.699303 -7.239300
e
0.000000 -6.756800
0.031733 -6.759900
0.063466 -6.769100
0.095199 -6.783800
0.126932 -6.803600
0.158666 -6.827300
0.190399 -6.854200
0.222132 -6.882900
0.253865 -6.912000
0.285598 -6.939300
0.317331 -6.961000
0.349064 -6.970000
0.349064 -6.970000
0.380458 -6.968500
0.411852 -6.964300
0.443246 -6.957300
0.474640 -6.947700
0.506034 -6.935700
0.537428 -6.921700
0.568822 -6.906000
0.600216 -6.888900
0.631610 -6.871000
0.663004 -6.852700
0.694398 -6.834400
0.725792 -6.816200
0.757186 -6.796900
0.788580 -6.774800
0.819974 -6.749700
0.851368 -6.724000
0.882762 -6.699500
0.882762 -6.699500
0.910953 -6.705200
0.939144 -6.709500
0.967336 -6.712700
0.995527 -6.714600
1.023718 -6.715700
1.051909 -6.716000
1.051909 -6.716000
1.085235 -6.712200
1.118561 -6.700800
1.151887 -6.681900
1.185213 -6.655400
1.218539 -6.621300
1.251865 -6.579800
1.285191 -6.530800
1.318517 -6.474400
1.351843 -6.410600
1.385169 -6.339500
1.418495 -6.261300
1.451821 -6.175900
1.485147 -6.083700
1.518473 -5.984700
1.551799 -5.879200
1.585125 -5.767400
1.618451 -5.649700
1.651777 -5.526700
1.685103 -5.399100
1.718429 -5.268200
1.751755 -5.137600
1.751755 -5.137600
1.783871 -5.097500
1.815986 -5.223200
1.848102 -5.353300
1.880217 -5.479100
1.912333 -5.599600
1.944448 -5.714200
1.976564 -5.822700
2.008679 -5.924700
2.040795 -6.020200
2.072910 -6.109000
2.105026 -6.191000
2.137141 -6.266000
2.169257 -6.334100
2.201372 -6.395200
2.233488 -6.449100
2.265603 -6.496000
2.297719 -6.535700
2.329834 -6.568200
2.361950 -6.593500
2.394065 -6.611600
2.426181 -6.622400
2.458297 -6.626100
2.458297 -6.626100
2.490797 -6.628400
2.523298 -6.635200
2.555799 -6.646300
2.588299 -6.661200
2.620800 -6.679200
2.653301 -6.699500
2.653301 -6.970000
2.686294 -6.966300
2.719288 -6.955200
2.752282 -6.936700
2.785276 -6.910800
2.818269 -6.877600
2.851263 -6.837000
2.884257 -6.789000
2.917251 -6.733800
2.950244 -6.671200
2.983238 -6.601400
3.016232 -6.524500
3.049226 -6.440300
3.082219 -6.349100
3.115213 -6.250900
3.148207 -6.145700
3.181201 -6.033800
3.214194 -5.915400
3.247188 -5.791100
3.280182 -5.662300
3.313176 -5.543100
3.313176 -5.543100
3.345633 -5.495500
3.378090 -5.350600
3.410547 -5.316600
3.443004 -5.447400
3.475461 -5.578300
3.507918 -5.703500
3.540375 -5.822200
3.572832 -5.934200
3.605289 -6.039400
3.637746 -6.137500
3.670203 -6.228600
3.702660 -6.312600
3.735117 -6.389400
3.767574 -6.459000
3.800032 -6.521400
3.832489 -6.576500
3.864946 -6.624300
3.897403 -6.664700
3.929860 -6.697900
3.962317 -6.723700
3.994774 -6.742100
4.027231 -6.753100
4.059688 -6.756800
4.059688 -6.756800
4.092621 -6.753500
4.125554 -6.743300
4.158488 -6.726400
4.191421 -6.702800
4.224354 -6.672400
4.257287 -6.635300
4.290220 -6.591600
4.323153 -6.541100
4.356086 -6.484100
4.389020 -6.420400
4.421953 -6.350200
4.454886 -6.273500
4.487819 -6.190400
4.520752 -6.100900
4.553685 -6.005200
4.586619 -5.903200
4.619552 -5.795200
4.652485 -5.681400
4.685418 -5.562000
4.718351 -5.438100
4.751284 -5.402200
4.784217 -5.514600
4.784217 -5.192200
4.816899 -5.117300
4.849581 -5.206400
4.882262 -5.301000
4.914944 -5.395200
4.947626 -5.488600
4.980307 -5.580900
5.012989 -5.671700
5.045670 -5.760900
5.078352 -5.848000
5.111034 -5.932600
5.143715 -6.014600
5.176397 -6.093600
5.209078 -6.169200
5.241760 -6.241100
5.274442 -6.309200
5.307123 -6.373100
5.339805 -6.432600
5.372486 -6.487600
5.405168 -6.537800
5.437850 -6.583100
5.470531 -6.623400
5.503213 -6.658500
5.535895 -6.688400
5.568576 -6.712900
5.601258 -6.732100
5.633939 -6.745800
5.666621 -6.754100
5.699303 -6.756800
e
0.000000 -3.815900
0.031733 -3.807900
0.063466 -3.784000
0.095199 -3.744900
0.126932 -3.691300
0.158666 -3.624600
0.190399 -3.546000
0.222132 -3.457300
0.253865 -3.360400
0.285598 -3.257800
0.317331 -3.152200
0.349064 -3.060000
0.349064 -3.060000
0.380458 -3.110300
0.411852 -3.183500
0.443246 -3.268800
0.474640 -3.364700
0.506034 -3.469000
0.537428 -3.578500
0.568822 -3.690000
0.600216 -3.800500
0.631610 -3.907300
0.663004 -4.008200
0.694398 -4.101200
0.725792 -4.184600
0.757186 -4.256900
0.788580 -4.316700
0.819974 -4.363000
0.851368 -4.394800
0.882762 -4.411600
0.882762 -4.411600
0.910953 -4.392000
0.939144 -4.367100
0.967336 -4.337800
0.995527 -4.306100
1.023718 -4.277400
1.051909 -4.264200
1.051909 -4.264200
1.085235 -4.262300
1.118561 -4.256900
1.151887 -4.248000
1.185213 -4.236100
1.218539 -4.221900
1.251865 -4.206000
1.285191 -4.190000
1.318517 -4.175600
1.351843 -4.165400
1.385169 -4.163300
1.418495 -4.173900
1.451821 -4.202700
1.485147 -4.254300
1.518473 -4.330800
1.551799 -4.430500
1.585125 -4.548600
1.618451 -4.679600
1.651777 -4.818100
1.685103 -4.960000
1.718429 -5.100700
1.751755 -5.132600
1.751755 -5.132600
1.783871 -4.990700
1.815986 -4.864600
1.848102 -4.739800
1.880217 -4.621600
1.912333 -4.515600
1.944448 -4.427300
1.976564 -4.361000
2.008679 -4.318600
2.040795 -4.298100
2.072910 -4.295300
2.105026 -4.305000
2.137141 -4.322600
2.169257 -4.344600
2.201372 -4.368400
2.233488 -4.392100
2.265603 -4.414500
2.297719 -4.434500
2.329834 -4.451600
2.361950 -4.465300
2.394065 -4.475300
2.426181 -4.481300
2.458297 -4.483400
2.458297 -4.483400
2.490797 -4.481500
2.523298 -4.475800
2.555799 -4.466200
2.588299 -4.452400
2.620800 -4.434200
2.653301 -4.411600
2.653301 -3.060000
2.686294 -3.058500
2.719288 -3.054400
2.752282 -3.048000
2.785276 -3.043100
2.818269 -3.066000
2.851263 -3.112800
2.884257 -3.194400
2.917251 -3.314000
2.950244 -3.464400
2.983238 -3.634800
3.016232 -3.816200
3.049226 -4.002600
3.082219 -4.190400
3.115213 -4.377100
3.148207 -4.561100
3.181201 -4.741300
3.214194 -4.916800
3.247188 -5.086500
3.280182 -5.248600
3.313176 -5.389200
3.313176 -5.389200
3.345633 -5.355600
3.378090 -5.217100
3.410547 -5.174900
3.443004 -5.021500
3.475461 -4.855700
3.507918 -4.683800
3.540375 -4.506800
3.572832 -4.325200
3.605289 -4.139800
3.637746 -3.957400
3.670203 -3.840100
3.702660 -3.758900
3.735117 -3.716600
3.767574 -3.704700
3.800032 -3.711200
3.832489 -3.726800
3.864946 -3.745800
3.897403 -3.764900
3.929860 -3.782200
3.962317 -3.796600
3.994774 -3.807200
4.027231 -3.813700
4.059688 -3.815900
4.059688 -3.815900
4.092621 -3.813200
4.125554 -3.805400
4.158488 -3.792600
4.191421 -3.775300
4.224354 -3.754100
4.257287 -3.730300
4.290220 -3.706000
4.323153 -3.684800
4.356086 -3.673700
4.389020 -3.685400
4.421953 -3.741100
4.454886 -3.858200
4.487819 -4.019400
4.520752 -4.197200
4.553685 -4.379200
4.586619 -4.560400
4.619552 -4.738700
4.652485 -4.912800
4.685418 -5.081800
4.718351 -5.244600
4.751284 -5.309400
4.784217 -5.218800
4.784217 -5.043400
4.816899 -5.098000
4.849581 -4.991700
4.882262 -4.882400
4.914944 -4.775800
4.947626 -4.672400
4.980307 -4.571900
5.012989 -4.473900
5.045670 -4.378200
5.078352 -4.284300
5.111034 -4.192200
5.143715 -4.102100
5.176397 -4.014600
5.209078 -3.931100
5.241760 -3.854200
5.274442 -3.788300
5.307123 -3.738900
5.339805 -3.709700
5.372486 -3.699600
5.405168 -3.703500
5.437850 -3.716200
5.470531 -3.733300
5.503213 -3.751700
5.535895 -3.769500
5.568576 -3.785300
5.601258 -3.798400
5.633939 -3.808000
5.666621 -3.813900
5.699303 -3.815900
e
0.000000 -2.436100
0.031733 -2.442800
0.063466 -2.461600
0.095199 -2.490200
0.126932 -2.527000
0.158666 -2.571300
0.190399 -2.624200
0.222132 -2.686900
0.253865 -2.760800
0.285598 -2.846200
0.317331 -2.941300
0.349064 -3.030000
0.349064 -3.030000
0.380458 -2.988800
0.411852 -2.942500
0.443246 -2.901200
0.474640 -2.864400
0.506034 -2.834100
0.537428 -2.820200
0.568822 -2.859000
0.600216 -2.960800
0.631610 -3.082200
0.663004 -3.204600
0.694398 -3.322400
0.725792 -3.432800
0.757186 -3.534100
0.788580 -3.624900
0.819974 -3.704200
0.851368 -3.771000
0.882762 -3.824400
0.882762 -3.824400
0.910953 -3.879800
0.939144 -3.936900
0.967336 -3.993100
0.995527 -4.045000
1.023718 -4.086200
1.051909 -4.103600
1.051909 -4.103600
1.085235 -4.101400
1.118561 -4.094700
1.151887 -4.083700
1.185213 -4.068700
1.218539 -4.050100
1.251865 -4.028400
1.285191 -4.004700
1.318517 -3.980300
1.351843 -3.957200
1.385169 -3.938600
1.418495 -3.929100
1.451821 -3.934900
1.485147 -3.963400
1.518473 -4.020600
1.551799 -4.108000
1.585125 -4.221100
1.618451 -4.352400
1.651777 -4.494800
1.685103 -4.642400
1.718429 -4.790800
1.751755 -4.934900
1.751755 -4.934900
1.783871 -4.984100
1.815986 -4.840500
1.848102 -4.686500
1.880217 -4.530300
1.912333 -4.373700
1.944448 -4.219400
1.976564 -4.071300
2.008679 -3.934900
2.040795 -3.817400
2.072910 -3.726200
2.105026 -3.665700
2.137141 -3.633900
2.169257 -3.624200
2.201372 -3.628600
2.233488 -3.640800
2.265603 -3.656400
2.297719 -3.672500
2.329834 -3.687300
2.361950 -3.699700
2.394065 -3.709000
2.426181 -3.714800
2.458297 -3.716700
2.458297 -3.716700
2.490797 -3.719300
2.523298 -3.727500
2.555799 -3.742100
2.588299 -3.763400
2.620800 -3.791300
2.653301 -3.824400
2.653301 -3.030000
2.686294 -3.030000
2.719288 -3.030500
2.752282 -3.033600
2.785276 -3.040600
2.818269 -3.034200
2.851263 -3.031700
2.884257 -3.038600
2.917251 -3.062500
2.950244 -3.113300
2.983238 -3.198600
3.016232 -3.318400
3.049226 -3.465500
3.082219 -3.630200
3.115213 -3.804600
3.148207 -3.983200
3.181201 -4.162500
3.214194 -4.340100
3.247188 -4.514500
3.280182 -4.684400
3.313176 -4.849100
3.313176 -4.849100
3.345633 -5.005000
3.378090 -5.151400
3.410547 -5.066400
3.443004 -4.909700
3.475461 -4.748700
3.507918 -4.584700
3.540375 -4.419700
3.572832 -4.256500
3.605289 -4.099900
3.637746 -3.951600
3.670203 -3.761600
3.702660 -3.571600
3.735117 -3.383900
3.767574 -3.201600
3.800032 -3.029300
3.832489 -2.872500
3.864946 -2.737300
3.897403 -2.629000
3.929860 -2.548800
3.962317 -2.494200
3.994774 -2.460200
4.027231 -2.441900
4.059688 -2.436100
4.059688 -2.436100
4.092621 -2.442100
4.125554 -2.460900
4.158488 -2.495000
4.191421 -2.548600
4.224354 -2.626300
4.257287 -2.731200
4.290220 -2.862500
4.323153 -3.015100
4.356086 -3.181500
4.389020 -3.352100
4.421953 -3.514000
4.454886 -3.656500
4.487819 -3.792900
4.520752 -3.937800
4.553685 -4.091000
4.586619 -4.248400
4.619552 -4.406800
4.652485 -4.563800
4.685418 -4.717900
4.718351 -4.867300
4.751284 -5.009100
4.784217 -5.105700
4.784217 -4.972300
4.816899 -4.902600
4.849581 -4.804800
4.882262 -4.703300
4.914944 -4.599500
4.947626 -4.494000
4.980307 -4.387600
5.012989 -4.281300
5.045670 -4.175900
5.078352 -4.072500
5.111034 -3.972000
5.143715 -3.875500
5.176397 -3.783900
5.209078 -3.697900
5.241760 -3.617600
5.274442 -3.541200
5.307123 -3.464900
5.339805 -3.384300
5.372486 -3.297300
5.405168 -3.204200
5.437850 -3.106300
5.470531 -3.005000
5.503213 -2.901600
5.535895 -2.797800
5.568576 -2.696200
5.601258 -2.600700
5.633939 -2.517800
5.666621 -2.458400
5.699303 -2.436100
e
0.000000 -2.167900
0.031733 -2.164100
0.063466 -2.154500
0.095199 -2.142400
0.126932 -2.131400
0.158666 -2.124300
0.190399 -2.122800
0.222132 -2.127300
0.253865 -2.136500
0.285598 -2.147400
0.317331 -2.156200
0.349064 -2.159500
0.349064 -2.159500
0.380458 -2.184500
0.411852 -2.246000
0.443246 -2.324700
0.474640 -2.413800
0.506034 -2.513400
0.537428 -2.612500
0.568822 -2.668900
0.600216 -2.666200
0.631610 -2.644300
0.663004 -2.620500
0.694398 -2.601300
0.725792 -2.591300
0.757186 -2.594500
0.788580 -2.613700
0.819974 -2.648700
0.851368 -2.697200
0.882762 -2.755300
0.882762 -2.755300
0.910953 -2.718900
0.939144 -2.676200
0.967336 -2.627100
0.995527 -2.572900
1.023718 -2.517200
1.051909 -2.482900
1.051909 -2.482900
1.085235 -2.479500
1.118561 -2.469200
1.151887 -2.452200
1.185213 -2.428400
1.218539 -2.397900
1.251865 -2.360700
1.285191 -2.317100
1.318517 -2.268600
1.351843 -2.286400
1.385169 -2.454700
1.418495 -2.606200
1.451821 -2.728800
1.485147 -2.816700
1.518473 -2.867600
1.551799 -2.882800
1.585125 -2.866700
1.618451 -2.824900
1.651777 -2.762200
1.685103 -2.682800
1.718429 -2.589400
1.751755 -2.680200
1.751755 -2.680200
1.783871 -2.775100
1.815986 -2.857700
1.848102 -2.924500
1.880217 -2.971500
1.912333 -2.993900
1.944448 -2.986300
1.976564 -2.944500
2.008679 -2.867000
2.040795 -2.828000
2.072910 -2.841900
2.105026 -2.843700
2.137141 -2.842600
2.169257 -2.846000
2.201372 -2.855700
2.233488 -2.870100
2.265603 -2.886400
2.297719 -2.902700
2.329834 -2.917500
2.361950 -2.929800
2.394065 -2.938900
2.426181 -2.944500
2.458297 -2.946400
2.458297 -2.946400
2.490797 -2.943100
2.523298 -2.932100
2.555799 -2.910300
2.588299 -2.874600
2.620800 -2.823000
2.653301 -2.755300
2.653301 -2.159500
2.686294 -2.158000
2.719288 -2.153700
2.752282 -2.147400
2.785276 -2.140200
2.818269 -2.203400
2.851263 -2.311700
2.884257 -2.390000
2.917251 -2.429700
2.950244 -2.434700
2.983238 -2.413600
3.016232 -2.373800
3.049226 -2.320000
3.082219 -2.255300
3.115213 -2.181600
3.148207 -2.100500
3.181201 -2.019300
3.214194 -1.934500
3.247188 -1.851500
3.280182 -1.944500
3.313176 -2.079400
3.313176 -2.079400
3.345633 -2.208800
3.378090 -2.332300
3.410547 -2.449100
3.443004 -2.558600
3.475461 -2.660000
3.507918 -2.752400
3.540375 -2.834200
3.572832 -2.903100
3.605289 -2.954800
3.637746 -2.982500
3.670203 -2.976200
3.702660 -2.926700
3.735117 -2.833500
3.767574 -2.709100
3.800032 -2.571900
3.832489 -2.440600
3.864946 -2.332200
3.897403 -2.256500
3.929860 -2.211200
3.962317 -2.186900
3.994774 -2.174800
4.027231 -2.169400
4.059688 -2.167900
4.059688 -2.167900
4.092621 -2.169100
4.125554 -2.173800
4.158488 -2.185200
4.191421 -2.209100
4.224354 -2.253500
4.257287 -2.325800
4.290220 -2.427100
4.323153 -2.548800
4.356086 -2.676200
4.389020 -2.791900
4.421953 -2.877500
4.454886 -2.918800
4.487819 -2.915000
4.520752 -2.875700
4.553685 -2.811100
4.586619 -2.728500
4.619552 -2.632200
4.652485 -2.524500
4.685418 -2.407300
4.718351 -2.281600
4.751284 -2.148900
4.784217 -2.032900
4.784217 -2.654600
4.816899 -2.698400
4.849581 -2.748600
4.882262 -2.788400
4.914944 -2.816800
4.947626 -2.833800
4.980307 -2.839500
5.012989 -2.834100
5.045670 -2.818100
5.078352 -2.792600
5.111034 -2.762500
5.143715 -2.757500
5.176397 -2.802800
5.209078 -2.851600
5.241760 -2.887400
5.274442 -2.904600
5.307123 -2.900100
5.339805 -2.873700
5.372486 -2.827800
5.405168 -2.766600
5.437850 -2.694100
5.470531 -2.613800
5.503213 -2.528600
5.535895 -2.441700
5.568576 -2.357100
5.601258 -2.280200
5.633939 -2.218800
5.666621 -2.180400
5.699303 -2.167900
e
0.000000 -1.442900
0.031733 -1.456200
0.063466 -1.485700
0.095199 -1.520500
0.126932 -1.559000
0.158666 -1.604300
0.190399 -1.658000
0.222132 -1.715300
0.253865 -1.766600
0.285598 -1.804900
0.317331 -1.827600
0.349064 -1.835000
0.349064 -1.835000
0.380458 -1.855200
0.411852 -1.918900
0.443246 -2.012400
0.474640 -2.108800
0.506034 -2.187200
0.537428 -2.239500
0.568822 -2.268700
0.600216 -2.280300
0.631610 -2.278500
0.663004 -2.266300
0.694398 -2.245400
0.725792 -2.217200
0.757186 -2.182100
0.788580 -2.140600
0.819974 -2.093300
0.851368 -2.040600
0.882762 -1.983300
0.882762 -1.983300
0.910953 -2.049400
0.939144 -2.124400
0.967336 -2.201500
0.995527 -2.276800
1.023718 -2.345600
1.051909 -2.384300
1.051909 -2.384300
1.085235 -2.381100
1.118561 -2.371500
1.151887 -2.355500
1.185213 -2.333400
1.218539 -2.305200
1.251865 -2.271400
1.285191 -2.233100
1.318517 -2.193900
1.351843 -2.195500
1.385169 -2.265700
1.418495 -2.425600
1.451821 -2.573200
1.485147 -2.689200
1.518473 -2.765300
1.551799 -2.799100
1.585125 -2.794600
1.618451 -2.759100
1.651777 -2.699800
1.685103 -2.624100
1.718429 -2.582100
1.751755 -2.484200
1.751755 -2.484200
1.783871 -2.374200
1.815986 -2.330400
1.848102 -2.429900
1.880217 -2.524600
1.912333 -2.610500
1.944448 -2.686000
1.976564 -2.749000
2.008679 -2.797100
2.040795 -2.756000
2.072910 -2.616000
2.105026 -2.452600
2.137141 -2.271600
2.169257 -2.080000
2.201372 -1.936500
2.233488 -1.947700
2.265603 -1.974400
2.297719 -1.999000
2.329834 -2.019600
2.361950 -2.035900
2.394065 -2.047600
2.426181 -2.054700
2.458297 -2.057000
2.458297 -2.057000
2.490797 -2.044600
2.523298 -2.009100
2.555799 -1.957700
2.588299 -1.908400
2.620800 -1.907300
2.653301 -1.983300
2.653301 -1.835000
2.686294 -1.848600
2.719288 -1.893300
2.752282 -1.974000
2.785276 -2.083600
2.818269 -2.134600
2.851263 -2.134900
2.884257 -2.147700
2.917251 -2.178100
2.950244 -2.219800
2.983238 -2.254000
3.016232 -2.265400
3.049226 -2.251000
3.082219 -2.214900
3.115213 -2.161900
3.148207 -2.095800
3.181201 -2.013300
3.214194 -1.922700
3.247188 -1.843000
3.280182 -1.746200
3.313176 -1.646000
3.313176 -1.646000
3.345633 -1.546100
3.378090 -1.448200
3.410547 -1.376500
3.443004 -1.352900
3.475461 -1.359100
3.507918 -1.384500
3.540375 -1.420900
3.572832 -1.462700
3.605289 -1.506500
3.637746 -1.549700
3.670203 -1.590000
3.702660 -1.625300
3.735117 -1.652900
3.767574 -1.669000
3.800032 -1.668000
3.832489 -1.641500
3.864946 -1.580400
3.897403 -1.481800
3.929860 -1.411800
3.962317 -1.425000
3.994774 -1.434900
4.027231 -1.440900
4.059688 -1.442900
4.059688 -1.442900
4.092621 -1.441900
4.125554 -1.438900
4.158488 -1.434700
4.191421 -1.439700
4.224354 -1.507500
4.257287 -1.577500
4.290220 -1.634000
4.323153 -1.674500
4.356086 -1.694300
4.389020 -1.696600
4.421953 -1.685100
4.454886 -1.663000
4.487819 -1.632500
4.520752 -1.595400
4.553685 -1.553100
4.586619 -1.507000
4.619552 -1.459300
4.652485 -1.429600
4.685418 -1.551500
4.718351 -1.704100
4.751284 -1.855100
4.784217 -1.977500
4.784217 -2.605800
4.816899 -2.550300
4.849581 -2.465300
4.882262 -2.448400
4.914944 -2.509300
4.947626 -2.558400
4.980307 -2.595000
5.012989 -2.618900
5.045670 -2.630100
5.078352 -2.629500
5.111034 -2.633100
5.143715 -2.656600
5.176397 -2.617300
5.209078 -2.551800
5.241760 -2.474200
5.274442 -2.387700
5.307123 -2.293900
5.339805 -2.193700
5.372486 -2.087700
5.405168 -1.976700
5.437850 -1.862200
5.470531 -1.746500
5.503213 -1.633000
5.535895 -1.527400
5.568576 -1.442300
5.601258 -1.404100
5.633939 -1.417700
5.666621 -1.437400
5.699303 -1.442900
e
0.000000 -1.289700
0.031733 -1.271900
0.063466 -1.229700
0.095199 -1.219700
0.126932 -1.260400
0.158666 -1.297000
0.190399 -1.328600
0.222132 -1.354900
0.253865 -1.375500
0.285598 -1.390300
0.317331 -1.399300
0.349064 -1.402300
0.349064 -1.402300
0.380458 -1.399300
0.411852 -1.390200
0.443246 -1.375200
0.474640 -1.354300
0.506034 -1.327600
0.537428 -1.295200
0.568822 -1.257300
0.600216 -1.214200
0.631610 -1.233800
0.663004 -1.346300
0.694398 -1.442500
0.725792 -1.518500
0.757186 -1.570600
0.788580 -1.596400
0.819974 -1.595900
0.851368 -1.571400
0.882762 -1.526400
0.882762 -1.526400
0.910953 -1.403100
0.939144 -1.256600
0.967336 -1.095100
0.995527 -0.922600
1.023718 -0.741700
1.051909 -0.665600
1.051909 -0.665600
1.085235 -0.715200
1.118561 -0.843100
1.151887 -1.020000
1.185213 -1.223600
1.218539 -1.439300
1.251865 -1.657800
1.285191 -1.872500
1.318517 -2.077000
1.351843 -2.174200
1.385169 -2.138900
1.418495 -2.068900
1.451821 -1.991700
1.485147 -1.907800
1.518473 -1.817900
1.551799 -1.891500
1.585125 -2.028400
1.618451 -2.170700
1.651777 -2.308100
1.685103 -2.436300
1.718429 -2.507200
1.751755 -2.415800
1.751755 -2.415800
1.783871 -2.306500
1.815986 -2.245700
1.848102 -2.121200
1.880217 -1.985800
1.912333 -2.009100
1.944448 -2.076000
1.976564 -2.133300
2.008679 -2.177900
2.040795 -2.204700
2.072910 -2.206200
2.105026 -2.173500
2.137141 -2.099400
2.169257 -1.983900
2.201372 -1.833700
2.233488 -1.658100
2.265603 -1.466000
2.297719 -1.281600
2.329834 -1.312300
2.361950 -1.336400
2.394065 -1.353600
2.426181 -1.364000
2.458297 -1.367500
2.458297 -1.367500
2.490797 -1.384400
2.523298 -1.432100
2.555799 -1.501200
2.588299 -1.570000
2.620800 -1.589200
2.653301 -1.526400
2.653301 -1.402300
2.686294 -1.435700
2.719288 -1.486200
2.752282 -1.522400
2.785276 -1.537500
2.818269 -1.535700
2.851263 -1.522300
2.884257 -1.533000
2.917251 -1.631600
2.950244 -1.679500
2.983238 -1.686800
3.016232 -1.667900
3.049226 -1.632800
3.082219 -1.587200
3.115213 -1.534400
3.148207 -1.476600
3.181201 -1.475700
3.214194 -1.629200
3.247188 -1.753700
3.280182 -1.705300
3.313176 -1.608700
3.313176 -1.608700
3.345633 -1.515000
3.378090 -1.433400
3.410547 -1.356600
3.443004 -1.277300
3.475461 -1.217200
3.507918 -1.201000
3.540375 -1.257000
3.572832 -1.323200
3.605289 -1.386900
3.637746 -1.445400
3.670203 -1.497300
3.702660 -1.540900
3.735117 -1.574200
3.767574 -1.594700
3.800032 -1.599100
3.832489 -1.583300
3.864946 -1.543600
3.897403 -1.478800
3.929860 -1.392700
3.962317 -1.296600
3.994774 -1.283300
4.027231 -1.288100
4.059688 -1.289700
4.059688 -1.289700
4.092621 -1.286900
4.125554 -1.278900
4.158488 -1.302400
4.191421 -1.393100
4.224354 -1.454200
4.257287 -1.545200
4.290220 -1.598200
4.323153 -1.614100
4.356086 -1.608300
4.389020 -1.588800
4.421953 -1.560700
4.454886 -1.527400
4.487819 -1.491200
4.520752 -1.454300
4.553685 -1.418400
4.586619 -1.385900
4.619552 -1.364200
4.652485 -1.388200
4.685418 -1.356800
4.718351 -1.318700
4.751284 -1.294800
4.784217 -1.287100
4.784217 -2.215100
4.816899 -2.289500
4.849581 -2.373300
4.882262 -2.365900
4.914944 -2.259700
4.947626 -2.174300
4.980307 -2.245300
5.012989 -2.348200
5.045670 -2.447700
5.078352 -2.538400
5.111034 -2.597800
5.143715 -2.579000
5.176397 -2.538300
5.209078 -2.483500
5.241760 -2.415200
5.274442 -2.333400
5.307123 -2.239000
5.339805 -2.133100
5.372486 -2.018000
5.405168 -1.895500
5.437850 -1.768000
5.470531 -1.637700
5.503213 -1.507700
5.535895 -1.382400
5.568576 -1.271000
5.601258 -1.205900
5.633939 -1.195200
5.666621 -1.260400
5.699303 -1.289700
e
0.000000 -1.116600
0.031733 -1.136500
0.063466 -1.176600
0.095199 -1.177100
0.126932 -1.139700
0.158666 -1.208500
0.190399 -1.270100
0.222132 -1.306100
0.253865 -1.322800
0.285598 -1.328500
0.317331 -1.329500
0.349064 -1.329400
0.349064 -1.329400
0.380458 -1.305300
0.411852 -1.226500
0.443246 -1.098700
0.474640 -0.943100
0.506034 -0.806300
0.537428 -0.845300
0.568822 -0.975000
0.600216 -1.108500
0.631610 -1.166200
0.663004 -1.113700
0.694398 -1.057300
0.725792 -0.997600
0.757186 -0.935700
0.788580 -0.872800
0.819974 -0.810500
0.851368 -0.751100
0.882762 -0.697100
0.882762 -0.697100
0.910953 -0.689900
0.939144 -0.682600
0.967336 -0.675800
0.995527 -0.670400
1.023718 -0.666900
1.051909 -0.556500
1.051909 -0.556500
1.085235 -0.557400
1.118561 -0.564800
1.151887 -0.651100
1.185213 -0.863100
1.218539 -1.096300
1.251865 -1.332400
1.285191 -1.563900
1.318517 -1.783000
1.351843 -1.965600
1.385169 -2.016300
1.418495 -1.973200
1.451821 -1.911900
1.485147 -1.848800
1.518473 -1.814300
1.551799 -1.722900
1.585125 -1.626800
1.618451 -1.582600
1.651777 -1.698300
1.685103 -1.834500
1.718429 -1.967900
1.751755 -2.095700
1.751755 -2.095700
1.783871 -2.211600
1.815986 -2.188300
1.848102 -2.063400
1.880217 -1.934600
1.912333 -1.842800
1.944448 -1.693100
1.976564 -1.632500
2.008679 -1.645600
2.040795 -1.685500
2.072910 -1.731400
2.105026 -1.777200
2.137141 -1.820200
2.169257 -1.856300
2.201372 -1.829500
2.233488 -1.636000
2.265603 -1.417700
2.297719 -1.265100
2.329834 -1.063500
2.361950 -0.871300
2.394065 -0.704100
2.426181 -0.584700
2.458297 -0.540300
2.458297 -0.540300
2.490797 -0.553500
2.523298 -0.582000
2.555799 -0.614200
2.588299 -0.645200
2.620800 -0.673100
2.653301 -0.697100
2.653301 -1.329400
2.686294 -1.303300
2.719288 -1.266400
2.752282 -1.233700
2.785276 -1.204100
2.818269 -1.217000
2.851263 -1.389100
2.884257 -1.500700
2.917251 -1.473200
2.950244 -1.441200
2.983238 -1.405700
3.016232 -1.367800
3.049226 -1.328600
3.082219 -1.289500
3.115213 -1.254800
3.148207 -1.318800
3.181201 -1.415100
3.214194 -1.351200
3.247188 -1.286000
3.280182 -1.220300
3.313176 -1.154800
3.313176 -1.154800
3.345633 -1.091000
3.378090 -1.065400
3.410547 -1.049000
3.443004 -1.029700
3.475461 -1.096300
3.507918 -1.139900
3.540375 -1.127200
3.572832 -1.115300
3.605289 -1.112600
3.637746 -1.145300
3.670203 -1.182300
3.702660 -1.218900
3.735117 -1.254200
3.767574 -1.287600
3.800032 -1.318500
3.832489 -1.346500
3.864946 -1.371200
3.897403 -1.392200
3.929860 -1.352800
3.962317 -1.275100
3.994774 -1.205900
4.027231 -1.140600
4.059688 -1.116600
4.059688 -1.116600
4.092621 -1.141300
4.125554 -1.208800
4.158488 -1.267200
4.191421 -1.325000
4.224354 -1.394100
4.257287 -1.383900
4.290220 -1.364300
4.323153 -1.339300
4.356086 -1.309600
4.389020 -1.275300
4.421953 -1.237100
4.454886 -1.196100
4.487819 -1.154400
4.520752 -1.116600
4.553685 -1.090800
4.586619 -1.099500
4.619552 -1.188600
4.652485 -1.268400
4.685418 -1.262700
4.718351 -1.236700
4.751284 -1.201200
4.784217 -1.165100
4.784217 -2.163800
4.816899 -2.079500
4.849581 -1.969300
4.882262 -1.912000
4.914944 -2.000700
4.947626 -2.077100
4.980307 -1.985400
5.012989 -1.847100
5.045670 -1.697000
5.078352 -1.538800
5.111034 -1.374500
5.143715 -1.206800
5.176397 -1.038900
5.209078 -0.876000
5.241760 -0.848800
5.274442 -0.854100
5.307123 -0.862800
5.339805 -0.874200
5.372486 -0.888200
5.405168 -0.906000
5.437850 -0.930100
5.470531 -0.964900
5.503213 -1.015500
5.535895 -1.080100
5.568576 -1.138700
5.601258 -1.139400
5.633939 -1.157400
5.666621 -1.129500
5.699303 -1.116600
e
0.000000 -0.972700
0.031733 -0.949100
0.063466 -0.902400
0.095199 -1.004500
0.126932 -1.086800
0.158666 -1.044500
0.190399 -0.982700
0.222132 -0.922300
0.253865 -0.867800
0.285598 -0.823700
0.317331 -0.794600
0.349064 -0.784400
0.349064 -0.784400
0.380458 -0.739200
0.411852 -0.622100
0.443246 -0.468000
0.474640 -0.460900
0.506034 -0.567700
0.537428 -0.481500
0.568822 -0.360900
0.600216 -0.333900
0.631610 -0.305700
0.663004 -0.277500
0.694398 -0.250800
0.725792 -0.227400
0.757186 -0.209300
0.788580 -0.198600
0.819974 -0.197400
0.851368 -0.207000
0.882762 -0.228000
0.882762 -0.228000
0.910953 -0.222300
0.939144 -0.219200
0.967336 -0.217900
0.995527 -0.217600
1.023718 -0.360900
1.051909 -0.551400
1.051909 -0.551400
1.085235 -0.548600
1.118561 -0.547800
1.151887 -0.551500
1.185213 -0.559400
1.218539 -0.571700
1.251865 -0.589000
1.285191 -0.614000
1.318517 -0.700500
1.351843 -0.833000
1.385169 -0.992700
1.418495 -1.162300
1.451821 -1.331700
1.485147 -1.492000
1.518473 -1.613500
1.551799 -1.613400
1.585125 -1.544100
1.618451 -1.470100
1.651777 -1.406400
1.685103 -1.412900
1.718429 -1.496000
1.751755 -1.590000
1.751755 -1.590000
1.783871 -1.680800
1.815986 -1.769400
1.848102 -1.854400
1.880217 -1.934100
1.912333 -1.804900
1.944448 -1.690400
1.976564 -1.536900
2.008679 -1.374500
2.040795 -1.206100
2.072910 -1.036900
2.105026 -1.013600
2.137141 -1.048900
2.169257 -1.100100
2.201372 -1.152400
2.233488 -1.201000
2.265603 -1.244300
2.297719 -1.195900
2.329834 -0.977400
2.361950 -0.770800
2.394065 -0.590900
2.426181 -0.461600
2.458297 -0.413200
2.458297 -0.413200
2.490797 -0.398700
2.523298 -0.366100
2.555799 -0.328100
2.588299 -0.290300
2.620800 -0.256100
2.653301 -0.228000
2.653301 -0.784400
2.686294 -0.787200
2.719288 -0.804000
2.752282 -0.880200
2.785276 -1.036900
2.818269 -1.175300
2.851263 -1.145900
2.884257 -1.115000
2.917251 -1.082300
2.950244 -1.047900
2.983238 -1.012400
3.016232 -0.977700
3.049226 -0.951400
3.082219 -0.994300
3.115213 -1.139500
3.148207 -1.202200
3.181201 -1.172100
3.214194 -1.142600
3.247188 -1.117800
3.280182 -1.098800
3.313176 -1.085400
3.313176 -1.085400
3.345633 -1.075800
3.378090 -1.029100
3.410547 -0.988200
3.443004 -1.028700
3.475461 -1.018000
3.507918 -1.024800
3.540375 -1.045600
3.572832 -1.074900
3.605289 -1.108900
3.637746 -1.117700
3.670203 -1.128600
3.702660 -1.143600
3.735117 -1.161200
3.767574 -1.180200
3.800032 -1.199400
3.832489 -1.218100
3.864946 -1.235600
3.897403 -1.251200
3.929860 -1.264600
3.962317 -1.217000
3.994774 -1.093200
4.027231 -1.005000
4.059688 -0.972700
4.059688 -0.972700
4.092621 -1.002400
4.125554 -1.083300
4.158488 -1.195100
4.191421 -1.243000
4.224354 -1.222100
4.257287 -1.196300
4.290220 -1.167300
4.323153 -1.136000
4.356086 -1.103100
4.389020 -1.069400
4.421953 -1.035600
4.454886 -1.002300
4.487819 -0.969600
4.520752 -0.937100
4.553685 -0.908500
4.586619 -0.945700
4.619552 -1.002100
4.652485 -1.024800
4.685418 -1.048800
4.718351 -1.079800
4.751284 -1.117200
4.784217 -1.153400
4.784217 -1.543300
4.816899 -1.626400
4.849581 -1.736600
4.882262 -1.785200
4.914944 -1.675300
4.947626 -1.534600
4.980307 -1.385600
5.012989 -1.233000
5.045670 -1.081600
5.078352 -0.941200
5.111034 -0.900900
5.143715 -0.872100
5.176397 -0.854700
5.209078 -0.846500
5.241760 -0.719200
5.274442 -0.580100
5.307123 -0.465300
5.339805 -0.391500
5.372486 -0.387600
5.405168 -0.450900
5.437850 -0.543800
5.470531 -0.644900
5.503213 -0.745400
5.535895 -0.848400
5.568576 -0.957000
5.601258 -1.053900
5.633939 -1.039400
5.666621 -0.990900
5.699303 -0.972700
e
0.000000 -0.791900
0.031733 -0.822800
0.063466 -0.897800
0.095199 -0.836800
0.126932 -0.772100
0.158666 -0.706900
0.190399 -0.643700
0.222132 -0.585300
0.253865 -0.534800
0.285598 -0.495400
0.317331 -0.470300
0.349064 -0.461600
0.349064 -0.461600
0.380458 -0.459400
0.411852 -0.452800
0.443246 -0.441900
0.474640 -0.426900
0.506034 -0.408100
0.537428 -0.385900
0.568822 -0.285800
0.600216 -0.068700
0.631610 0.157000
0.663004 0.386500
0.694398 0.615500
0.725792 0.837400
0.757186 0.923300
0.788580 0.860900
0.819974 0.786000
0.851368 0.705500
0.882762 0.622600
0.882762 0.622600
0.910953 0.431700
0.939144 0.234500
0.967336 0.035000
0.995527 -0.164100
1.023718 -0.217800
1.051909 -0.217900
1.051909 -0.217900
1.085235 -0.273000
1.118561 -0.412600
1.151887 -0.526400
1.185213 -0.542000
1.218539 -0.551200
1.251865 -0.570400
1.285191 -0.612600
1.318517 -0.643800
1.351843 -0.684000
1.385169 -0.735200
1.418495 -0.799800
1.451821 -0.881100
1.485147 -0.983000
1.518473 -1.106000
1.551799 -1.243600
1.585125 -1.383700
1.618451 -1.462100
1.651777 -1.380100
1.685103 -1.306500
1.718429 -1.251400
1.751755 -1.223900
1.751755 -1.223900
1.783871 -1.226200
1.815986 -1.251300
1.848102 -1.291000
1.880217 -1.337400
1.912333 -1.382100
1.944448 -1.408800
1.976564 -1.374800
2.008679 -1.267800
2.040795 -1.139100
2.072910 -1.032000
2.105026 -0.852500
2.137141 -0.667900
2.169257 -0.478400
2.201372 -0.284400
2.233488 -0.086400
2.265603 0.115200
2.297719 0.319900
2.329834 0.526700
2.361950 0.734900
2.394065 0.942700
2.426181 1.145100
2.458297 1.170700
2.458297 1.170700
2.490797 1.169700
2.523298 1.154600
2.555799 1.070600
2.588299 0.939600
2.620800 0.786700
2.653301 0.622600
2.653301 -0.461600
2.686294 -0.502500
2.719288 -0.601800
2.752282 -0.685000
2.785276 -0.705300
2.818269 -0.701500
2.851263 -0.689500
2.884257 -0.673600
2.917251 -0.655200
2.950244 -0.635600
2.983238 -0.615800
3.016232 -0.597200
3.049226 -0.748500
3.082219 -0.846300
3.115213 -0.834300
3.148207 -0.805000
3.181201 -0.776500
3.214194 -0.752700
3.247188 -0.735400
3.280182 -0.725200
3.313176 -0.732800
3.313176 -0.732800
3.345633 -0.794100
3.378090 -0.858000
3.410547 -0.900600
3.443004 -0.854300
3.475461 -0.769400
3.507918 -0.668900
3.540375 -0.559400
3.572832 -0.450300
3.605289 -0.363500
3.637746 -0.337800
3.670203 -0.370600
3.702660 -0.424600
3.735117 -0.482400
3.767574 -0.538300
3.800032 -0.590000
3.832489 -0.636500
3.864946 -0.677300
3.897403 -0.712100
3.929860 -0.740700
3.962317 -0.763100
3.994774 -0.779100
4.027231 -0.788700
4.059688 -0.791900
4.059688 -0.791900
4.092621 -0.790800
4.125554 -0.787500
4.158488 -0.781800
4.191421 -0.773800
4.224354 -0.763400
4.257287 -0.750500
4.290220 -0.735000
4.323153 -0.716800
4.356086 -0.696000
4.389020 -0.672500
4.421953 -0.646600
4.454886 -0.618300
4.487819 -0.589200
4.520752 -0.603600
4.553685 -0.760500
4.586619 -0.826600
4.619552 -0.788900
4.652485 -0.739500
4.685418 -0.691600
4.718351 -0.651700
4.751284 -0.625100
4.784217 -0.615800
4.784217 -1.468000
4.816899 -1.393100
4.849581 -1.304200
4.882262 -1.230700
4.914944 -1.171200
4.947626 -1.120400
4.980307 -1.073300
5.012989 -1.027400
5.045670 -0.982100
5.078352 -0.935800
5.111034 -0.811600
5.143715 -0.708300
5.176397 -0.622000
5.209078 -0.541700
5.241760 -0.462500
5.274442 -0.387600
5.307123 -0.327900
5.339805 -0.302300
5.372486 -0.315300
5.405168 -0.356900
5.437850 -0.428900
5.470531 -0.520600
5.503213 -0.614600
5.535895 -0.690200
5.568576 -0.738300
5.601258 -0.766000
5.633939 -0.781500
5.666621 -0.789500
5.699303 -0.791900
e
0.000000 0.147200
0.031733 0.174000
0.063466 0.240400
0.095199 0.319100
0.126932 0.386000
0.158666 0.426600
0.190399 0.431200
0.222132 0.358200
0.253865 0.292400
0.285598 0.243100
0.317331 0.212500
0.349064 0.202100
0.349064 0.202100
0.380458 0.069200
0.411852 -0.107700
0.443246 -0.274300
0.474640 -0.258100
0.506034 -0.067600
0.537428 0.133800
0.568822 0.334500
0.600216 0.526000
0.631610 0.697100
0.663004 0.834000
0.694398 0.924900
0.725792 0.957500
0.757186 1.042500
0.788580 1.121600
0.819974 1.142100
0.851368 1.153400
0.882762 1.075300
0.882762 1.075300
0.910953 1.027500
0.939144 0.988400
0.967336 0.958200
0.995527 0.936800
1.023718 0.924000
1.051909 0.919700
1.051909 0.919700
1.085235 0.870500
1.118561 0.743500
1.151887 0.574100
1.185213 0.386800
1.218539 0.196700
1.251865 0.016200
1.285191 -0.138600
1.318517 -0.248100
1.351843 -0.309400
1.385169 -0.341100
1.418495 -0.391100
1.451821 -0.558600
1.485147 -0.708100
1.518473 -0.837600
1.551799 -0.951800
1.585125 -1.057000
1.618451 -1.155300
1.651777 -1.233300
1.685103 -1.208700
1.718429 -1.096800
1.751755 -0.964900
1.751755 -0.964900
1.783871 -0.828500
1.815986 -0.685000
1.848102 -0.535200
1.880217 -0.379400
1.912333 -0.358100
1.944448 -0.441200
1.976564 -0.532000
2.008679 -0.617400
2.040795 -0.685300
2.072910 -0.706700
2.105026 -0.633900
2.137141 -0.488900
2.169257 -0.315300
2.201372 -0.128600
2.233488 0.066100
2.265603 0.266200
2.297719 0.470100
2.329834 0.675900
2.361950 0.880600
2.394065 1.077700
2.426181 1.226400
2.458297 1.208400
2.458297 1.208400
2.490797 1.201600
2.523298 1.180200
2.555799 1.167300
2.588299 1.129400
2.620800 1.098800
2.653301 1.075300
2.653301 0.202100
2.686294 0.206500
2.719288 0.217900
2.752282 0.232800
2.785276 0.246100
2.818269 0.249600
2.851263 0.222300
2.884257 0.128500
2.917251 -0.026800
2.950244 -0.207000
2.983238 -0.393200
3.016232 -0.577000
3.049226 -0.580900
3.082219 -0.568800
3.115213 -0.562700
3.148207 -0.564500
3.181201 -0.575900
3.214194 -0.598400
3.247188 -0.632500
3.280182 -0.677800
3.313176 -0.721500
3.313176 -0.721500
3.345633 -0.722000
3.378090 -0.722100
3.410547 -0.713800
3.443004 -0.684000
3.475461 -0.620900
3.507918 -0.525000
3.540375 -0.406500
3.572832 -0.275000
3.605289 -0.138100
3.637746 -0.003000
3.670203 0.093900
3.702660 0.217100
3.735117 0.274800
3.767574 0.291500
3.800032 0.282700
3.832489 0.262000
3.864946 0.237600
3.897403 0.213300
3.929860 0.191500
3.962317 0.173200
3.994774 0.159200
4.027231 0.150300
4.059688 0.147200
4.059688 0.147200
4.092621 0.152000
4.125554 0.165900
4.158488 0.187900
4.191421 0.217200
4.224354 0.252500
4.257287 0.291300
4.290220 0.327100
4.323153 0.338900
4.356086 0.275600
4.389020 0.135400
4.421953 -0.036500
4.454886 -0.219300
4.487819 -0.403500
4.520752 -0.538700
4.553685 -0.514500
4.586619 -0.479900
4.619552 -0.444400
4.652485 -0.409500
4.685418 -0.376900
4.718351 -0.348600
4.751284 -0.328600
4.784217 -0.321100
4.784217 -0.911500
4.816899 -0.897900
4.849581 -0.857700
4.882262 -0.794800
4.914944 -0.720400
4.947626 -0.650500
4.980307 -0.598500
5.012989 -0.565400
5.045670 -0.541300
5.078352 -0.512200
5.111034 -0.464500
5.143715 -0.390500
5.176397 -0.300100
5.209078 -0.213900
5.241760 -0.149000
5.274442 -0.113000
5.307123 -0.099800
5.339805 -0.083200
5.372486 -0.031400
5.405168 0.051300
5.437850 0.142600
5.470531 0.215200
5.503213 0.237000
5.535895 0.222400
5.568576 0.199300
5.601258 0.177800
5.633939 0.161200
5.666621 0.150800
5.699303 0.147200
e
0.000000 0.997000
0.031733 0.940900
0.063466 0.843600
0.095199 0.737800
0.126932 0.632200
0.158666 0.531900
0.190399 0.446400
0.222132 0.425500
0.253865 0.397700
0.285598 0.367500
0.317331 0.344700
0.349064 0.336300
0.349064 0.336300
0.380458 0.472000
0.411852 0.655700
0.443246 0.831400
0.474640 0.977400
0.506034 1.075800
0.537428 1.137300
0.568822 1.181600
0.600216 1.191000
0.631610 1.170700
0.663004 1.141600
0.694398 1.109100
0.725792 1.091000
0.757186 1.105800
0.788580 1.208500
0.819974 1.249200
0.851368 1.157500
0.882762 1.168900
0.882762 1.168900
0.910953 1.172800
0.939144 1.176500
0.967336 1.179600
0.995527 1.182000
1.023718 1.183500
1.051909 1.184100
1.051909 1.184100
1.085235 1.237700
1.118561 1.384900
1.151887 1.246200
1.185213 1.026800
1.218539 0.809100
1.251865 0.594600
1.285191 0.384500
1.318517 0.179500
1.351843 -0.019100
1.385169 -0.210100
1.418495 -0.360900
1.451821 -0.378100
1.485147 -0.397600
1.518473 -0.421600
1.551799 -0.450800
1.585125 -0.484300
1.618451 -0.519700
1.651777 -0.552500
1.685103 -0.575300
1.718429 -0.578000
1.751755 -0.551200
1.751755 -0.551200
1.783871 -0.495400
1.815986 -0.419400
1.848102 -0.344300
1.880217 -0.313800
1.912333 -0.217900
1.944448 -0.051000
1.976564 0.121100
2.008679 0.298000
2.040795 0.479100
2.072910 0.663800
2.105026 0.851000
2.137141 1.038600
2.169257 1.222600
2.201372 1.393500
2.233488 1.528400
2.265603 1.599500
2.297719 1.618400
2.329834 1.607400
2.361950 1.527600
2.394065 1.357900
2.426181 1.238000
2.458297 1.313700
2.458297 1.313700
2.490797 1.264600
2.523298 1.212600
2.555799 1.173800
2.588299 1.171700
2.620800 1.170100
2.653301 1.168900
2.653301 0.336300
2.686294 0.339100
2.719288 0.347200
2.752282 0.360200
2.785276 0.377600
2.818269 0.399500
2.851263 0.425400
2.884257 0.455100
2.917251 0.487900
2.950244 0.523200
2.983238 0.553400
3.016232 0.587800
3.049226 0.624200
3.082219 0.660100
3.115213 0.688000
3.148207 0.705400
3.181201 0.713700
3.214194 0.712200
3.247188 0.700500
3.280182 0.676900
3.313176 0.638700
3.313176 0.638700
3.345633 0.584800
3.378090 0.515500
3.410547 0.434000
3.443004 0.345100
3.475461 0.253200
3.507918 0.162400
3.540375 0.077200
3.572832 0.005200
3.605289 -0.033700
3.637746 -0.002700
3.670203 0.120500
3.702660 0.218000
3.735117 0.347400
3.767574 0.476900
3.800032 0.600800
3.832489 0.715200
3.864946 0.816700
3.897403 0.902200
3.929860 0.968500
3.962317 1.011300
3.994774 1.024100
4.027231 1.009200
4.059688 0.997000
4.059688 0.997000
4.092621 1.004400
4.125554 1.009700
4.158488 0.989500
4.191421 0.943100
4.224354 0.876600
4.257287 0.792700
4.290220 0.694300
4.323153 0.597700
4.356086 0.549400
4.389020 0.542800
4.421953 0.522400
4.454886 0.475300
4.487819 0.413500
4.520752 0.347200
4.553685 0.281400
4.586619 0.218800
4.619552 0.160900
4.652485 0.109000
4.685418 0.063900
4.718351 0.027500
4.751284 0.002700
4.784217 -0.006200
4.784217 -0.148600
4.816899 -0.155700
4.849581 -0.171500
4.882262 -0.184800
4.914944 -0.184900
4.947626 -0.160800
4.980307 -0.104500
5.012989 -0.018000
5.045670 0.087900
5.078352 0.202200
5.111034 0.316500
5.143715 0.424700
5.176397 0.521300
5.209078 0.600200
5.241760 0.652700
5.274442 0.669900
5.307123 0.650900
5.339805 0.606800
5.372486 0.551700
5.405168 0.497300
5.437850 0.454800
5.470531 0.445000
5.503213 0.497300
5.535895 0.595000
5.568576 0.707300
5.601258 0.818600
5.633939 0.914700
5.666621 0.977000
5.699303 0.997000
e
0.000000 1.089000
0.031733 1.124100
0.063466 1.164700
0.095199 1.191900
0.126932 1.208300
0.158666 1.215400
0.190399 1.215500
0.222132 1.212800
0.253865 1.209800
0.285598 1.207500
0.317331 1.206000
0.349064 1.205500
0.349064 1.205500
0.380458 1.209100
0.411852 1.219200
0.443246 1.231200
0.474640 1.236300
0.506034 1.234400
0.537428 1.227900
0.568822 1.220600
0.600216 1.243800
0.631610 1.301900
0.663004 1.379100
0.694398 1.462500
0.725792 1.513700
0.757186 1.482300
0.788580 1.359800
0.819974 1.292100
0.851368 1.317500
0.882762 1.318700
0.882762 1.318700
0.910953 1.325900
0.939144 1.333000
0.967336 1.339000
0.995527 1.343400
1.023718 1.346100
1.051909 1.347000
1.051909 1.347000
1.085235 1.410300
1.118561 1.464700
1.151887 1.599000
1.185213 1.855800
1.218539 2.137900
1.251865 2.376200
1.285191 2.308000
1.318517 2.205000
1.351843 2.111000
1.385169 2.030900
1.418495 1.967100
1.451821 1.920800
1.485147 1.892600
1.518473 1.793400
1.551799 1.588100
1.585125 1.383200
1.618451 1.184600
1.651777 0.993600
1.685103 0.810900
1.718429 0.637100
1.751755 0.473400
1.751755 0.473400
1.783871 0.327300
1.815986 0.197500
1.848102 0.098600
1.880217 0.068500
1.912333 0.133800
1.944448 0.256600
1.976564 0.405500
2.008679 0.568600
2.040795 0.741600
2.072910 0.922000
2.105026 1.108300
2.137141 1.299200
2.169257 1.493000
2.201372 1.687000
2.233488 1.875500
2.265603 1.990800
2.297719 2.036900
2.329834 1.835600
2.361950 1.608500
2.394065 1.408300
2.426181 1.276700
2.458297 1.335100
2.458297 1.335100
2.490797 1.379000
2.523298 1.332000
2.555799 1.305500
2.588299 1.302200
2.620800 1.308600
2.653301 1.318700
2.653301 1.205500
2.686294 1.237300
2.719288 1.312700
2.752282 1.139100
2.785276 0.945800
2.818269 0.759600
2.851263 0.606300
2.884257 0.523700
2.917251 0.508500
2.950244 0.524600
2.983238 0.559800
3.016232 0.596400
3.049226 0.631400
3.082219 0.662700
3.115213 0.693800
3.148207 0.724000
3.181201 0.750800
3.214194 0.775500
3.247188 0.801000
3.280182 0.830400
3.313176 0.866100
3.313176 0.866100
3.345633 0.907300
3.378090 0.951300
3.410547 0.990200
3.443004 1.012200
3.475461 1.008700
3.507918 0.981900
3.540375 0.940300
3.572832 0.892000
3.605289 0.844000
3.637746 0.803000
3.670203 0.778500
3.702660 0.784300
3.735117 0.833400
3.767574 0.923300
3.800032 1.035900
3.832489 1.153200
3.864946 1.261700
3.897403 1.350400
3.929860 1.401700
3.962317 1.357200
3.994774 1.229900
4.027231 1.127100
4.059688 1.089000
4.059688 1.089000
4.092621 1.129200
4.125554 1.236800
4.158488 1.370300
4.191421 1.409000
4.224354 1.338700
4.257287 1.233600
4.290220 1.120100
4.323153 1.015200
4.356086 0.932000
4.389020 0.884700
4.421953 0.887900
4.454886 0.937500
4.487819 1.015800
4.520752 1.110400
4.553685 1.212900
4.586619 1.218800
4.619552 1.110600
4.652485 1.010300
4.685418 0.924500
4.718351 0.858200
4.751284 0.816000
4.784217 0.801500
4.784217 0.105200
4.816899 0.120200
4.849581 0.160300
4.882262 0.217000
4.914944 0.285000
4.947626 0.361100
4.980307 0.443600
5.012989 0.531000
5.045670 0.621800
5.078352 0.713800
5.111034 0.804300
5.143715 0.889800
5.176397 0.967000
5.209078 1.033200
5.241760 1.087100
5.274442 1.128800
5.307123 1.163400
5.339805 1.203800
5.372486 1.264800
5.405168 1.352600
5.437850 1.460900
5.470531 1.575100
5.503213 1.673700
5.535895 1.612400
5.568576 1.450300
5.601258 1.307400
5.633939 1.193800
5.666621 1.117600
5.699303 1.089000
e
0.000000 1.260000
0.031733 1.258700
0.063466 1.255400
0.095199 1.251700
0.126932 1.249500
0.158666 1.251200
0.190399 1.256600
0.222132 1.262500
0.253865 1.267400
0.285598 1.270900
0.317331 1.272900
0.349064 1.273600
0.349064 1.273600
0.380458 1.275000
0.411852 1.281800
0.443246 1.306400
0.474640 1.374600
0.506034 1.500000
0.537428 1.653400
0.568822 1.695200
0.600216 1.740400
0.631610 1.768300
0.663004 1.725600
0.694398 1.710800
0.725792 1.611900
0.757186 1.535200
0.788580 1.578600
0.819974 1.680500
0.851368 1.740700
0.882762 1.725800
0.882762 1.725800
0.910953 1.762200
0.939144 1.783500
0.967336 1.793200
0.995527 1.795900
1.023718 1.795900
1.051909 1.795600
1.051909 1.795600
1.085235 1.671800
1.118561 1.578700
1.151887 1.813600
1.185213 2.087300
1.218539 2.383800
1.251865 2.514000
1.285191 2.579900
1.318517 2.447400
1.351843 2.320700
1.385169 2.204400
1.418495 2.101200
1.451821 2.012800
1.485147 1.934500
1.518473 1.882400
1.551799 1.883300
1.585125 1.874900
1.618451 1.888500
1.651777 1.922100
1.685103 1.974300
1.718429 2.043500
1.751755 2.128300
1.751755 2.128300
1.783871 2.223300
1.815986 2.330200
1.848102 2.349100
1.880217 2.299100
1.912333 2.238500
1.944448 2.177300
1.976564 2.118600
2.008679 2.063500
2.040795 2.012800
2.072910 1.966900
2.105026 1.926700
2.137141 1.893600
2.169257 1.870700
2.201372 1.866100
2.233488 1.899600
2.265603 2.035500
2.297719 2.069500
2.329834 1.846700
2.361950 1.679900
2.394065 1.633200
2.426181 1.547500
2.458297 1.402700
2.458297 1.402700
2.490797 1.389700
2.523298 1.458000
2.555799 1.529000
2.588299 1.599900
2.620800 1.667100
2.653301 1.725800
2.653301 1.273600
2.686294 1.327300
2.719288 1.341800
2.752282 1.478400
2.785276 1.667100
2.818269 1.885300
2.851263 2.113800
2.884257 2.308000
2.917251 2.369300
2.950244 2.300900
2.983238 2.168700
3.016232 2.031000
3.049226 1.905700
3.082219 1.795400
3.115213 1.701900
3.148207 1.625200
3.181201 1.562900
3.214194 1.509900
3.247188 1.461700
3.280182 1.418600
3.313176 1.386600
3.313176 1.386600
3.345633 1.373300
3.378090 1.381700
3.410547 1.405400
3.443004 1.417700
3.475461 1.461600
3.507918 1.531900
3.540375 1.618300
3.572832 1.710700
3.605289 1.800900
3.637746 1.881600
3.670203 1.948300
3.702660 1.999700
3.735117 2.036400
3.767574 2.059100
3.800032 2.065400
3.832489 2.044000
3.864946 1.970800
3.897403 1.832900
3.929860 1.669500
3.962317 1.483300
3.994774 1.347100
4.027231 1.277900
4.059688 1.260000
4.059688 1.260000
4.092621 1.277300
4.125554 1.344000
4.158488 1.476700
4.191421 1.657600
4.224354 1.825900
4.257287 1.975100
4.290220 2.052900
4.323153 2.048300
4.356086 1.989200
4.389020 1.905100
4.421953 1.807100
4.454886 1.698900
4.487819 1.583400
4.520752 1.464000
4.553685 1.345800
4.586619 1.332000
4.619552 1.430300
4.652485 1.464800
4.685418 1.455600
4.718351 1.448600
4.751284 1.446100
4.784217 1.445500
4.784217 1.757900
4.816899 1.759700
4.849581 1.764800
4.882262 1.773200
4.914944 1.784400
4.947626 1.797700
4.980307 1.812100
5.012989 1.825600
5.045670 1.835200
5.078352 1.833900
5.111034 1.806000
5.143715 1.748100
5.176397 1.683300
5.209078 1.627400
5.241760 1.596700
5.274442 1.609100
5.307123 1.671400
5.339805 1.771400
5.372486 1.884300
5.405168 1.971500
5.437850 1.990700
5.470531 1.938900
5.503213 1.794200
5.535895 1.665600
5.568576 1.517100
5.601258 1.389100
5.633939 1.300100
5.666621 1.263000
5.699303 1.260000
e
0.000000 1.594400
0.031733 1.618700
0.063466 1.683100
0.095199 1.768600
0.126932 1.858200
0.158666 1.947000
0.190399 1.867100
0.222132 1.754000
0.253865 1.660600
0.285598 1.590400
0.317331 1.546600
0.349064 1.531800
0.349064 1.531800
0.380458 1.535200
0.411852 1.545500
0.443246 1.562700
0.474640 1.586500
0.506034 1.616900
0.537428 1.658200
0.568822 1.785700
0.600216 1.807200
0.631610 1.783300
0.663004 1.800300
0.694398 1.734700
0.725792 1.760400
0.757186 1.864700
0.788580 1.841200
0.819974 1.779900
0.851368 1.814200
0.882762 1.928400
0.882762 1.928400
0.910953 1.959600
0.939144 1.989400
0.967336 2.018600
0.995527 2.047300
1.023718 2.074800
1.051909 2.093200
1.051909 2.093200
1.085235 2.169800
1.118561 2.306400
1.151887 2.489300
1.185213 2.673600
1.218539 2.564900
1.251865 2.679900
1.285191 2.786200
1.318517 3.108500
1.351843 2.970000
1.385169 2.732400
1.418495 2.495900
1.451821 2.264900
1.485147 2.047700
1.518473 1.919600
1.551799 1.889500
1.585125 1.912900
1.618451 1.951300
1.651777 2.003500
1.685103 2.067800
1.718429 2.142200
1.751755 2.223600
1.751755 2.223600
1.783871 2.301600
1.815986 2.356300
1.848102 2.448100
1.880217 2.575900
1.912333 2.712900
1.944448 2.858200
1.976564 3.011000
2.008679 3.170200
2.040795 3.258000
2.072910 3.264500
2.105026 3.197300
2.137141 3.095900
2.169257 2.977800
2.201372 2.847200
2.233488 2.668200
2.265603 2.386800
2.297719 2.139700
2.329834 2.098900
2.361950 1.958600
2.394065 1.788500
2.426181 1.673300
2.458297 1.656900
2.458297 1.656900
2.490797 1.680000
2.523298 1.748700
2.555799 1.848000
2.588299 1.917500
2.620800 1.935900
2.653301 1.928400
2.653301 1.531800
2.686294 1.471000
2.719288 1.474500
2.752282 1.686800
2.785276 1.940400
2.818269 2.218900
2.851263 2.504000
2.884257 2.609700
2.917251 2.468400
2.950244 2.315900
2.983238 2.192400
3.016232 2.078400
3.049226 1.970600
3.082219 1.874900
3.115213 1.795200
3.148207 1.734200
3.181201 1.692800
3.214194 1.666900
3.247188 1.630400
3.280182 1.564400
3.313176 1.502700
3.313176 1.502700
3.345633 1.454100
3.378090 1.420100
3.410547 1.411400
3.443004 1.459400
3.475461 1.522500
3.507918 1.598000
3.540375 1.683200
3.572832 1.772400
3.605289 1.857300
3.637746 1.942600
3.670203 2.028500
3.702660 2.111200
3.735117 2.185500
3.767574 2.243500
3.800032 2.270800
3.832489 2.233700
3.864946 2.092600
3.897403 1.885200
3.929860 1.671100
3.962317 1.578300
3.994774 1.578400
4.027231 1.589800
4.059688 1.594400
4.059688 1.594400
4.092621 1.591300
4.125554 1.581400
4.158488 1.575500
4.191421 1.669400
4.224354 1.889000
4.257287 2.111900
4.290220 2.176800
4.323153 2.125500
4.356086 2.067800
4.389020 1.998500
4.421953 1.921400
4.454886 1.841900
4.487819 1.764500
4.520752 1.692200
4.553685 1.627900
4.586619 1.575400
4.619552 1.546500
4.652485 1.595500
4.685418 1.619200
4.718351 1.594300
4.751284 1.590800
4.784217 1.601100
4.784217 3.139000
4.816899 3.027000
4.849581 2.870200
4.882262 2.715100
4.914944 2.566000
4.947626 2.424700
4.980307 2.292500
5.012989 2.170900
5.045670 2.062300
5.078352 1.971900
5.111034 1.913600
5.143715 1.890100
5.176397 1.881600
5.209078 1.881600
5.241760 1.888000
5.274442 1.898800
5.307123 1.916700
5.339805 1.943700
5.372486 1.973800
5.405168 2.007000
5.437850 2.035500
5.470531 1.965600
5.503213 1.829200
5.535895 1.760800
5.568576 1.778200
5.601258 1.749500
5.633939 1.688600
5.666621 1.624100
5.699303 1.594400
e
0.000000 2.326400
0.031733 2.306000
0.063466 2.267900
0.095199 2.250400
0.126932 2.138700
0.158666 1.996400
0.190399 2.040700
0.222132 2.140100
0.253865 2.236500
0.285598 2.317500
0.317331 2.371500
0.349064 2.390500
0.349064 2.390500
0.380458 2.379800
0.411852 2.349100
0.443246 2.301500
0.474640 2.242000
0.506034 2.178100
0.537428 2.124300
0.568822 2.125400
0.600216 2.247800
0.631610 2.165600
0.663004 2.038000
0.694398 1.998400
0.725792 1.985600
0.757186 1.918200
0.788580 1.978900
0.819974 2.081200
0.851368 2.163400
0.882762 2.219300
0.882762 2.219300
0.910953 2.212500
0.939144 2.198200
0.967336 2.179600
0.995527 2.157800
1.023718 2.134400
1.051909 2.117300
1.051909 2.117300
1.085235 2.216700
1.118561 2.422200
1.151887 2.633200
1.185213 2.682800
1.218539 2.792400
1.251865 2.726300
1.285191 3.012400
1.318517 3.192800
1.351843 3.430200
1.385169 3.706600
1.418495 3.769800
1.451821 3.690800
1.485147 3.577800
1.518473 3.456400
1.551799 3.334500
1.585125 3.215100
1.618451 3.099600
1.651777 2.988800
1.685103 2.883600
1.718429 2.784800
1.751755 2.694800
1.751755 2.694800
1.783871 2.622500
1.815986 2.586300
1.848102 2.623800
1.880217 2.714900
1.912333 2.826000
1.944448 2.945100
1.976564 3.065300
2.008679 3.177300
2.040795 3.332700
2.072910 3.398800
2.105026 3.301300
2.137141 3.192000
2.169257 3.066400
2.201372 2.906300
2.233488 2.698700
2.265603 2.480000
2.297719 2.400300
2.329834 2.438300
2.361950 2.273400
2.394065 2.088400
2.426181 1.922400
2.458297 1.842200
2.458297 1.842200
2.490797 1.859300
2.523298 1.899200
2.555799 1.952600
2.588299 2.056500
2.620800 2.189200
2.653301 2.219300
2.653301 2.390500
2.686294 2.452200
2.719288 2.600300
2.752282 2.779200
2.785276 2.933900
2.818269 2.963000
2.851263 2.824800
2.884257 2.824300
2.917251 2.853500
2.950244 2.824400
2.983238 2.688700
3.016232 2.534500
3.049226 2.381400
3.082219 2.234500
3.115213 2.096500
3.148207 1.968900
3.181201 1.853700
3.214194 1.755000
3.247188 1.697100
3.280182 1.694700
3.313176 1.691300
3.313176 1.691300
3.345633 1.645200
3.378090 1.614100
3.410547 1.599700
3.443004 1.603000
3.475461 1.624600
3.507918 1.664200
3.540375 1.720900
3.572832 1.797300
3.605289 1.897600
3.637746 2.012600
3.670203 2.120000
3.702660 2.173600
3.735117 2.217500
3.767574 2.250800
3.800032 2.274500
3.832489 2.290500
3.864946 2.301100
3.897403 2.309100
3.929860 2.315700
3.962317 2.320700
3.994774 2.324000
4.027231 2.325800
4.059688 2.326400
4.059688 2.326400
4.092621 2.324400
4.125554 2.317900
4.158488 2.306000
4.191421 2.287300
4.224354 2.260100
4.257287 2.223300
4.290220 2.295800
4.323153 2.397100
4.356086 2.427300
4.389020 2.399900
4.421953 2.317700
4.454886 2.207900
4.487819 2.094000
4.520752 1.985600
4.553685 1.886500
4.586619 1.798800
4.619552 1.724100
4.652485 1.664000
4.685418 1.684000
4.718351 1.701100
4.751284 1.658900
4.784217 1.629600
4.784217 3.200700
4.816899 3.157100
4.849581 3.057900
4.882262 2.946200
4.914944 2.835100
4.947626 2.729000
4.980307 2.629800
5.012989 2.538600
5.045670 2.456300
5.078352 2.383700
5.111034 2.321500
5.143715 2.270400
5.176397 2.230300
5.209078 2.198900
5.241760 2.164600
5.274442 2.121700
5.307123 2.096200
5.339805 2.100600
5.372486 2.132600
5.405168 2.171300
5.437850 2.162200
5.470531 2.128500
5.503213 2.142600
5.535895 2.175400
5.568576 2.214800
5.601258 2.255300
5.633939 2.291400
5.666621 2.317000
5.699303 2.326400
e
0.000000 2.765700
0.031733 2.613400
0.063466 2.450300
0.095199 2.291000
0.126932 2.280700
0.158666 2.366900
0.190399 2.499100
0.222132 2.664700
0.253865 2.856100
0.285598 3.068600
0.317331 3.296100
0.349064 3.484000
0.349064 3.484000
0.380458 3.465400
0.411852 3.428200
0.443246 3.329600
0.474640 3.115300
0.506034 2.907200
0.537428 2.706200
0.568822 2.513600
0.600216 2.331500
0.631610 2.443900
0.663004 2.353100
0.694398 2.226500
0.725792 2.163500
0.757186 2.198200
0.788580 2.274800
0.819974 2.366900
0.851368 2.468300
0.882762 2.556500
0.882762 2.556500
0.910953 2.607100
0.939144 2.667200
0.967336 2.750000
0.995527 2.843700
1.023718 2.927400
1.051909 2.964100
1.051909 2.964100
1.085235 2.942700
1.118561 2.882900
1.151887 2.798700
1.185213 2.867200
1.218539 3.065400
1.251865 3.222100
1.285191 3.355000
1.318517 3.341900
1.351843 3.637700
1.385169 3.800900
1.418495 3.852100
1.451821 3.903600
1.485147 3.958200
1.518473 4.016100
1.551799 4.077000
1.585125 4.140000
1.618451 4.204100
1.651777 4.266700
1.685103 4.323400
1.718429 4.365300
1.751755 4.375700
1.751755 4.375700
1.783871 4.339600
1.815986 4.262300
1.848102 4.162200
1.880217 4.053100
1.912333 3.941700
1.944448 3.831300
1.976564 3.723200
2.008679 3.618000
2.040795 3.517700
2.072910 3.519400
2.105026 3.686100
2.137141 3.552700
2.169257 3.268900
2.201372 2.977500
2.233488 2.724700
2.265603 2.577400
2.297719 2.462000
2.329834 2.478400
2.361950 2.622000
2.394065 2.791500
2.426181 2.895600
2.458297 2.922900
2.458297 2.922900
2.490797 2.817700
2.523298 2.687100
2.555799 2.571500
2.588299 2.479100
2.620800 2.441300
2.653301 2.556500
2.653301 3.484000
2.686294 3.456200
2.719288 3.378000
2.752282 3.262500
2.785276 3.123500
2.818269 2.972600
2.851263 2.887400
2.884257 2.860900
2.917251 3.102100
2.950244 3.047400
2.983238 2.891000
3.016232 2.729600
3.049226 2.571600
3.082219 2.419700
3.115213 2.276000
3.148207 2.142500
3.181201 2.021800
3.214194 1.916100
3.247188 1.826500
3.280182 1.752000
3.313176 1.709300
3.313176 1.709300
3.345633 1.727900
3.378090 1.746700
3.410547 1.765200
3.443004 1.785800
3.475461 1.812100
3.507918 1.846600
3.540375 1.890200
3.572832 1.941900
3.605289 1.999600
3.637746 2.060300
3.670203 2.136100
3.702660 2.262900
3.735117 2.383400
3.767574 2.483600
3.800032 2.557800
3.832489 2.604800
3.864946 2.608500
3.897403 2.620900
3.929860 2.637500
3.962317 2.679500
3.994774 2.730100
4.027231 2.756300
4.059688 2.765700
4.059688 2.765700
4.092621 2.725100
4.125554 2.662700
4.158488 2.605400
4.191421 2.573100
4.224354 2.581800
4.257287 2.637100
4.290220 2.715800
4.323153 2.793300
4.356086 2.721600
4.389020 2.633100
4.421953 2.570200
4.454886 2.516100
4.487819 2.448300
4.520752 2.359000
4.553685 2.254100
4.586619 2.144100
4.619552 2.037100
4.652485 1.940500
4.685418 1.871400
4.718351 1.888100
4.751284 1.963400
4.784217 2.002600
4.784217 3.289600
4.816899 3.401200
4.849581 3.567500
4.882262 3.734900
4.914944 3.885800
4.947626 3.956400
4.980307 3.824100
5.012989 3.611200
5.045670 3.394300
5.078352 3.181000
5.111034 2.967400
5.143715 2.759500
5.176397 2.570400
5.209078 2.416200
5.241760 2.322300
5.274442 2.305100
5.307123 2.337900
5.339805 2.397900
5.372486 2.474500
5.405168 2.545300
5.437850 2.520800
5.470531 2.515200
5.503213 2.536400
5.535895 2.560200
5.568576 2.590500
5.601258 2.635300
5.633939 2.688900
5.666621 2.738400
5.699303 2.765700
e
0.000000 2.789800
0.031733 2.938800
0.063466 3.091800
0.095199 3.233800
0.126932 3.362100
0.158666 3.476400
0.190399 3.578100
0.222132 3.670300
0.253865 3.755800
0.285598 3.837500
0.317331 3.810200
0.349064 3.614900
0.349064 3.614900
0.380458 3.637200
0.411852 3.549000
0.443246 3.388800
0.474640 3.352400
0.506034 3.248700
0.537428 3.046800
0.568822 2.854600
0.600216 2.673500
0.631610 2.505300
0.663004 2.657500
0.694398 2.854900
0.725792 2.948700
0.757186 2.897400
0.788580 2.806300
0.819974 2.711700
0.851368 2.625200
0.882762 2.576400
0.882762 2.576400
0.910953 2.702000
0.939144 2.864200
0.967336 3.037500
0.995527 3.218100
1.023718 3.397000
1.051909 3.506500
1.051909 3.506500
1.085235 3.447300
1.118561 3.338400
1.151887 3.213900
1.185213 3.094300
1.218539 3.075500
1.251865 3.281700
1.285191 3.480600
1.318517 3.667200
1.351843 3.767200
1.385169 3.876200
1.418495 3.977100
1.451821 4.038300
1.485147 4.089100
1.518473 4.144200
1.551799 4.204000
1.585125 4.267800
1.618451 4.335100
1.651777 4.405400
1.685103 4.477800
1.718429 4.551300
1.751755 4.624400
1.751755 4.624400
1.783871 4.524300
1.815986 4.390100
1.848102 4.260000
1.880217 4.134200
1.912333 4.013000
1.944448 3.897200
1.976564 3.788700
2.008679 3.693500
2.040795 3.630900
2.072910 3.639100
2.105026 3.708200
2.137141 3.660300
2.169257 3.418100
2.201372 3.191500
2.233488 3.000200
2.265603 2.830400
2.297719 2.663300
2.329834 2.567700
2.361950 2.693000
2.394065 2.815400
2.426181 2.949300
2.458297 3.033200
2.458297 3.033200
2.490797 3.152200
2.523298 3.025600
2.555799 2.875000
2.588299 2.745900
2.620800 2.644100
2.653301 2.576400
2.653301 3.614900
2.686294 3.580200
2.719288 3.495700
2.752282 3.394300
2.785276 3.321100
2.818269 3.373700
2.851263 3.447300
2.884257 3.302300
2.917251 3.190000
2.950244 3.273000
2.983238 3.470500
3.016232 3.267500
3.049226 3.071300
3.082219 2.886000
3.115213 2.715000
3.148207 2.562300
3.181201 2.432800
3.214194 2.332300
3.247188 2.266800
3.280182 2.239300
3.313176 2.247500
3.313176 2.247500
3.345633 2.283600
3.378090 2.339300
3.410547 2.407100
3.443004 2.479400
3.475461 2.536600
3.507918 2.568700
3.540375 2.610500
3.572832 2.660300
3.605289 2.672100
3.637746 2.669600
3.670203 2.668000
3.702660 2.676700
3.735117 2.707500
3.767574 2.770300
3.800032 2.825900
3.832489 2.753400
3.864946 2.706300
3.897403 2.634300
3.929860 2.653500
3.962317 2.693200
3.994774 2.732100
4.027231 2.773900
4.059688 2.789800
4.059688 2.789800
4.092621 2.805700
4.125554 2.803100
4.158488 2.778300
4.191421 2.742100
4.224354 2.711400
4.257287 2.723400
4.290220 2.819300
4.323153 2.826400
4.356086 2.862000
4.389020 2.877400
4.421953 2.871700
4.454886 2.802800
4.487819 2.713500
4.520752 2.640700
4.553685 2.586300
4.586619 2.544100
4.619552 2.507900
4.652485 2.472500
4.685418 2.432400
4.718351 2.383100
4.751284 2.329500
4.784217 2.301100
4.784217 3.568600
4.816899 3.622700
4.849581 3.741600
4.882262 3.883600
4.914944 4.028600
4.947626 4.122400
4.980307 4.003700
5.012989 3.782400
5.045670 3.545900
5.078352 3.330800
5.111034 3.161600
5.143715 3.048100
5.176397 2.990100
5.209078 2.983400
5.241760 3.019500
5.274442 3.086600
5.307123 3.160800
5.339805 3.086800
5.372486 2.875200
5.405168 2.706600
5.437850 2.688500
5.470531 2.638000
5.503213 2.658100
5.535895 2.698900
5.568576 2.740100
5.601258 2.773800
5.633939 2.794300
5.666621 2.797900
5.699303 2.789800
e
0.000000 2.927800
0.031733 2.974700
0.063466 3.095600
0.095199 3.260400
0.126932 3.451800
0.158666 3.660800
0.190399 3.881600
0.222132 4.104800
0.253865 4.170900
0.285598 4.052000
0.317331 3.917300
0.349064 3.989200
0.349064 3.989200
0.380458 3.772100
0.411852 3.685500
0.443246 3.676800
0.474640 3.459200
0.506034 3.320800
0.537428 3.295100
0.568822 3.275600
0.600216 3.261700
0.631610 3.249800
0.663004 3.230400
0.694398 3.200500
0.725792 3.236800
0.757186 3.385000
0.788580 3.547300
0.819974 3.707400
0.851368 3.867700
0.882762 3.853100
0.882762 3.853100
0.910953 3.789800
0.939144 3.735200
0.967336 3.691300
0.995527 3.659900
1.023718 3.605100
1.051909 3.555700
1.051909 3.555700
1.085235 3.569800
1.118561 3.581400
1.151887 3.592800
1.185213 3.605800
1.218539 3.617800
1.251865 3.611800
1.285191 3.566100
1.318517 3.685100
1.351843 3.811700
1.385169 3.932800
1.418495 4.163600
1.451821 4.332000
1.485147 4.458200
1.518473 4.570500
1.551799 4.678900
1.585125 4.785400
1.618451 4.886900
1.651777 4.968400
1.685103 4.955600
1.718429 4.808300
1.751755 4.662100
1.751755 4.662100
1.783871 4.692400
1.815986 4.755300
1.848102 4.808800
1.880217 4.845700
1.912333 4.841400
1.944448 4.773800
1.976564 4.650400
2.008679 4.483900
2.040795 4.291900
2.072910 4.072800
2.105026 3.829500
2.137141 3.804400
2.169257 3.881000
2.201372 3.933500
2.233488 3.840900
2.265603 3.702100
2.297719 3.594700
2.329834 3.518900
2.361950 3.473500
2.394065 3.456500
2.426181 3.388100
2.458297 3.316200
2.458297 3.316200
2.490797 3.190100
2.523298 3.323400
2.555799 3.504300
2.588299 3.686700
2.620800 3.850600
2.653301 3.853100
2.653301 3.989200
2.686294 3.975400
2.719288 3.945200
2.752282 3.903000
2.785276 3.813500
2.818269 3.653200
2.851263 3.581200
2.884257 3.430300
2.917251 3.321200
2.950244 3.520900
2.983238 3.488600
3.016232 3.621600
3.049226 3.590600
3.082219 3.488400
3.115213 3.363000
3.148207 3.229700
3.181201 3.096000
3.214194 2.966800
3.247188 2.846300
3.280182 2.738900
3.313176 2.648600
3.313176 2.648600
3.345633 2.580700
3.378090 2.536300
3.410547 2.516000
3.443004 2.517500
3.475461 2.548600
3.507918 2.606500
3.540375 2.646600
3.572832 2.667000
3.605289 2.718700
3.637746 2.787500
3.670203 2.869400
3.702660 2.966800
3.735117 3.079500
3.767574 3.199000
3.800032 3.090100
3.832489 2.874300
3.864946 2.739200
3.897403 2.782900
3.929860 2.830500
3.962317 2.871400
3.994774 2.902300
4.027231 2.921400
4.059688 2.927800
4.059688 2.927800
4.092621 2.924700
4.125554 2.915600
4.158488 2.901500
4.191421 2.883800
4.224354 2.864900
4.257287 2.848300
4.290220 2.869000
4.323153 3.085500
4.356086 3.218700
4.389020 3.106100
4.421953 3.006700
4.454886 2.975200
4.487819 2.972800
4.520752 2.969300
4.553685 2.961300
4.586619 2.949200
4.619552 2.933200
4.652485 2.914100
4.685418 2.893500
4.718351 2.873300
4.751284 2.856200
4.784217 2.849000
4.784217 5.336400
4.816899 5.171200
4.849581 4.925000
4.882262 4.670600
4.914944 4.426900
4.947626 4.259900
4.980307 4.334300
5.012989 4.464500
5.045670 4.583700
5.078352 4.659300
5.111034 4.652200
5.143715 4.548200
5.176397 4.366800
5.209078 4.138900
5.241760 3.889900
5.274442 3.636100
5.307123 3.397500
5.339805 3.266200
5.372486 3.042700
5.405168 2.836300
5.437850 2.730000
5.470531 2.838200
5.503213 2.938900
5.535895 2.998500
5.568576 3.009600
5.601258 2.990700
5.633939 2.961700
5.666621 2.937300
5.699303 2.927800
e
0.000000 4.044600
0.031733 4.046100
0.063466 4.051100
0.095199 4.060600
0.126932 4.075200
0.158666 4.095100
0.190399 4.119700
0.222132 4.147100
0.253865 4.213800
0.285598 4.148400
0.317331 4.075800
0.349064 4.004600
0.349064 4.004600
0.380458 4.108500
0.411852 3.898300
0.443246 3.744000
0.474640 3.807800
0.506034 3.875600
0.537428 3.946400
0.568822 3.914600
0.600216 3.772000
0.631610 3.649000
0.663004 3.563100
0.694398 3.539100
0.725792 3.586000
0.757186 3.699400
0.788580 3.870200
0.819974 4.071100
0.851368 3.982800
0.882762 4.027300
0.882762 4.027300
0.910953 4.220400
0.939144 4.071000
0.967336 3.888600
0.995527 3.727600
1.023718 3.645300
1.051909 3.669600
1.051909 3.669600
1.085235 3.673700
1.118561 3.684900
1.151887 3.701300
1.185213 3.721600
1.218539 3.745100
1.251865 3.771900
1.285191 3.760300
1.318517 3.803100
1.351843 3.912200
1.385169 4.060000
1.418495 4.196600
1.451821 4.353300
1.485147 4.508700
1.518473 4.656900
1.551799 4.798900
1.585125 4.935200
1.618451 5.062400
1.651777 5.092200
1.685103 4.982900
1.718429 4.918400
1.751755 4.849800
1.751755 4.849800
1.783871 4.820800
1.815986 4.827500
1.848102 4.847900
1.880217 4.859500
1.912333 4.850800
1.944448 4.784900
1.976564 4.654200
2.008679 4.498500
2.040795 4.318400
2.072910 4.117600
2.105026 3.897300
2.137141 3.858300
2.169257 4.021400
2.201372 4.007800
2.233488 3.953500
2.265603 3.931300
2.297719 3.857400
2.329834 3.753400
2.361950 3.637100
2.394065 3.512700
2.426181 3.460100
2.458297 3.465600
2.458297 3.465600
2.490797 3.604700
2.523298 3.809000
2.555799 3.905000
2.588299 3.885300
2.620800 3.881800
2.653301 4.027300
2.653301 4.004600
2.686294 4.020900
2.719288 4.034800
2.752282 3.956600
2.785276 3.833000
2.818269 3.722700
2.851263 3.582200
2.884257 3.759200
2.917251 3.863900
2.950244 3.677900
2.983238 3.818100
3.016232 4.066900
3.049226 4.201700
3.082219 4.267500
3.115213 4.310700
3.148207 4.317800
3.181201 4.239500
3.214194 4.128000
3.247188 4.013600
3.280182 3.902300
3.313176 3.796400
3.313176 3.796400
3.345633 3.699400
3.378090 3.611600
3.410547 3.535600
3.443004 3.474800
3.475461 3.434400
3.507918 3.402800
3.540375 3.357200
3.572832 3.327800
3.605289 3.317900
3.637746 3.330600
3.670203 3.368000
3.702660 3.429200
3.735117 3.500400
3.767574 3.288500
3.800032 3.110300
3.832489 3.128300
3.864946 3.276600
3.897403 3.445100
3.929860 3.615600
3.962317 3.776500
3.994774 3.914000
4.027231 4.009700
4.059688 4.044600
4.059688 4.044600
4.092621 4.010900
4.125554 3.918200
4.158488 3.785100
4.191421 3.629200
4.224354 3.463800
4.257287 3.300600
4.290220 3.157400
4.323153 3.103500
4.356086 3.264800
4.389020 3.514300
4.421953 3.476700
4.454886 3.449200
4.487819 3.441600
4.520752 3.428800
4.553685 3.387000
4.586619 3.317200
4.619552 3.229800
4.652485 3.134900
4.685418 3.044400
4.718351 2.971900
4.751284 2.928500
4.784217 2.914900
4.784217 5.394200
4.816899 5.384800
4.849581 5.341500
4.882262 5.078800
4.914944 4.808300
4.947626 4.609300
4.980307 4.602200
5.012989 4.732600
5.045670 4.863300
5.078352 4.900100
5.111034 4.883900
5.143715 4.836300
5.176397 4.654100
5.209078 4.375700
5.241760 4.094100
5.274442 3.817300
5.307123 3.550200
5.339805 3.356100
5.372486 3.429100
5.405168 3.515100
5.437850 3.485500
5.470531 3.403100
5.503213 3.375200
5.535895 3.421400
5.568576 3.534200
5.601258 3.683900
5.633939 3.842700
5.666621 3.981000
5.699303 4.044600
e
0.000000 4.350700
0.031733 4.365700
0.063466 4.408600
0.095199 4.468500
0.126932 4.505500
0.158666 4.475200
0.190399 4.408800
0.222132 4.332600
0.253865 4.258800
0.285598 4.229600
0.317331 4.193300
0.349064 4.178600
0.349064 4.178600
0.380458 4.188200
0.411852 4.215800
0.443246 4.257600
0.474640 4.305300
0.506034 4.230800
0.537428 4.070200
0.568822 4.021000
0.600216 4.096400
0.631610 4.173100
0.663004 4.248300
0.694398 4.314500
0.725792 4.347100
0.757186 4.312300
0.788580 4.224400
0.819974 4.108800
0.851368 4.266300
0.882762 4.407300
0.882762 4.407300
0.910953 4.266700
0.939144 4.398600
0.967336 4.282200
0.995527 4.066400
1.023718 3.862000
1.051909 3.714600
1.051909 3.714600
1.085235 3.747700
1.118561 3.811200
1.151887 3.876400
1.185213 3.936700
1.218539 3.968000
1.251865 3.837100
1.285191 3.802500
1.318517 3.840000
1.351843 3.963100
1.385169 4.146800
1.418495 4.317200
1.451821 4.498400
1.485147 4.687600
1.518473 4.870700
1.551799 5.045500
1.585125 5.212400
1.618451 5.266500
1.651777 5.220000
1.685103 5.290900
1.718429 5.343700
1.751755 5.422300
1.751755 5.422300
1.783871 5.457500
1.815986 5.375800
1.848102 5.263900
1.880217 5.141600
1.912333 5.025300
1.944448 4.950700
1.976564 4.913300
2.008679 4.875800
2.040795 4.832000
2.072910 4.763000
2.105026 4.643300
2.137141 4.428600
2.169257 4.212500
2.201372 4.171500
2.233488 4.191400
2.265603 4.094700
2.297719 4.040900
2.329834 4.011000
2.361950 3.988400
2.394065 3.970700
2.426181 3.959100
2.458297 3.955000
2.458297 3.955000
2.490797 3.946500
2.523298 3.926900
2.555799 4.026600
2.588299 4.251400
2.620800 4.339500
2.653301 4.407300
2.653301 4.178600
2.686294 4.187200
2.719288 4.166700
2.752282 4.155500
2.785276 4.108200
2.818269 4.073400
2.851263 4.046100
2.884257 3.992700
2.917251 3.935100
2.950244 4.020600
2.983238 4.026700
3.016232 4.120200
3.049226 4.370400
3.082219 4.560900
3.115213 4.488500
3.148207 4.401000
3.181201 4.305100
3.214194 4.203200
3.247188 4.098500
3.280182 3.993500
3.313176 3.890400
3.313176 3.890400
3.345633 3.792300
3.378090 3.699000
3.410547 3.611800
3.443004 3.532300
3.475461 3.462000
3.507918 3.420500
3.540375 3.438000
3.572832 3.487500
3.605289 3.563000
3.637746 3.653100
3.670203 3.737000
3.702660 3.741800
3.735117 3.552200
3.767574 3.410700
3.800032 3.369900
3.832489 3.513500
3.864946 3.668700
3.897403 3.826100
3.929860 3.979600
3.962317 4.121300
3.994774 4.240000
4.027231 4.321400
4.059688 4.350700
4.059688 4.350700
4.092621 4.323100
4.125554 4.246000
4.158488 4.132400
4.191421 3.996000
4.224354 3.847500
4.257287 3.694800
4.290220 3.543300
4.323153 3.400100
4.356086 3.388100
4.389020 3.517100
4.421953 3.742900
4.454886 3.815200
4.487819 3.792300
4.520752 3.778000
4.553685 3.795400
4.586619 3.806600
4.619552 3.769300
4.652485 3.716400
4.685418 3.674100
4.718351 3.646300
4.751284 3.631000
4.784217 3.626200
4.784217 5.511000
4.816899 5.560400
4.849581 5.371800
4.882262 5.306000
4.914944 5.251500
4.947626 5.195700
4.980307 5.143300
5.012989 5.103200
5.045670 5.111700
5.078352 5.236900
5.111034 5.227700
5.143715 4.963500
5.176397 4.795400
5.209078 4.669000
5.241760 4.499000
5.274442 4.315500
5.307123 4.131400
5.339805 3.952500
5.372486 3.784200
5.405168 3.639200
5.437850 3.625800
5.470531 3.700100
5.503213 3.792000
5.535895 3.914800
5.568576 4.068800
5.601258 4.233900
5.633939 4.357400
5.666621 4.371700
5.699303 4.350700
e
0.000000 4.839400
0.031733 4.813600
0.063466 4.751600
0.095199 4.674000
0.126932 4.590600
0.158666 4.505700
0.190399 4.422600
0.222132 4.346900
0.253865 4.337900
0.285598 4.240700
0.317331 4.244400
0.349064 4.252200
0.349064 4.252200
0.380458 4.235100
0.411852 4.455000
0.443246 4.585200
0.474640 4.414100
0.506034 4.375200
0.537428 4.429200
0.568822 4.480200
0.600216 4.521600
0.631610 4.548500
0.663004 4.557700
0.694398 4.551900
0.725792 4.553400
0.757186 4.596400
0.788580 4.669500
0.819974 4.749900
0.851368 4.609500
0.882762 4.467300
0.882762 4.467300
0.910953 4.510900
0.939144 4.501500
0.967336 4.550900
0.995527 4.665400
1.023718 4.731700
1.051909 4.749500
1.051909 4.749500
1.085235 4.733800
1.118561 4.638200
1.151887 4.482500
1.185213 4.286800
1.218539 4.100800
1.251865 4.098700
1.285191 4.167700
1.318517 4.256700
1.351843 4.296800
1.385169 4.225700
1.418495 4.342700
1.451821 4.615500
1.485147 4.913700
1.518473 5.177100
1.551799 5.358100
1.585125 5.375200
1.618451 5.361600
1.651777 5.331200
1.685103 5.325200
1.718429 5.422400
1.751755 5.476800
1.751755 5.476800
1.783871 5.471500
1.815986 5.454300
1.848102 5.372900
1.880217 5.261800
1.912333 5.147600
1.944448 5.050000
1.976564 4.972800
2.008679 4.904100
2.040795 4.836000
2.072910 4.782100
2.105026 4.714500
2.137141 4.600500
2.169257 4.457300
2.201372 4.316900
2.233488 4.257800
2.265603 4.283700
2.297719 4.273100
2.329834 4.246500
2.361950 4.211700
2.394065 4.172300
2.426181 4.136600
2.458297 4.121200
2.458297 4.121200
2.490797 4.135200
2.523298 4.170700
2.555799 4.219100
2.588299 4.276100
2.620800 4.469500
2.653301 4.467300
2.653301 4.252200
2.686294 4.224500
2.719288 4.188000
2.752282 4.161400
2.785276 4.186500
2.818269 4.204400
2.851263 4.208900
2.884257 4.201300
2.917251 4.198100
2.950244 4.250500
2.983238 4.285600
3.016232 4.379900
3.049226 4.576000
3.082219 4.600400
3.115213 4.535900
3.148207 4.453900
3.181201 4.448100
3.214194 4.387800
3.247188 4.334700
3.280182 4.290100
3.313176 4.254900
3.313176 4.254900
3.345633 4.230800
3.378090 4.218600
3.410547 4.219500
3.443004 4.235000
3.475461 4.266300
3.507918 4.314200
3.540375 4.379100
3.572832 4.460600
3.605289 4.556700
3.637746 4.649000
3.670203 4.397800
3.702660 4.107100
3.735117 3.793100
3.767574 3.688400
3.800032 3.801600
3.832489 3.947600
3.864946 4.107000
3.897403 4.272300
3.929860 4.436100
3.962317 4.589300
3.994774 4.719200
4.027231 4.809200
4.059688 4.839400
4.059688 4.839400
4.092621 4.809200
4.125554 4.720100
4.158488 4.591800
4.191421 4.440200
4.224354 4.277500
4.257287 4.113000
4.290220 3.954300
4.323153 3.810100
4.356086 3.698700
4.389020 3.765900
4.421953 4.056700
4.454886 4.303300
4.487819 4.396200
4.520752 4.263500
4.553685 4.142100
4.586619 4.087200
4.619552 4.132700
4.652485 4.237200
4.685418 4.364400
4.718351 4.497200
4.751284 4.614900
4.784217 4.669200
4.784217 5.798200
4.816899 5.775200
4.849581 5.807300
4.882262 5.819200
4.914944 5.810900
4.947626 5.789400
4.980307 5.756900
5.012989 5.712500
5.045670 5.649300
5.078352 5.479100
5.111034 5.377600
5.143715 5.168700
5.176397 4.987600
5.209078 4.868300
5.241760 4.807100
5.274442 4.769400
5.307123 4.742500
5.339805 4.723000
5.372486 4.708900
5.405168 4.697600
5.437850 4.686400
5.470531 4.674100
5.503213 4.660700
5.535895 4.645600
5.568576 4.627900
5.601258 4.611500
5.633939 4.628900
5.666621 4.735700
5.699303 4.839400
e
0.000000 4.846700
0.031733 4.827800
0.063466 4.785000
0.095199 4.740800
0.126932 4.735200
0.158666 4.776100
0.190399 4.762600
0.222132 4.630200
0.253865 4.443800
0.285598 4.621700
0.317331 4.588400
0.349064 4.575800
0.349064 4.575800
0.380458 4.714400
0.411852 4.764300
0.443246 4.675800
0.474640 4.888600
0.506034 5.087600
0.537428 5.265400
0.568822 5.411200
0.600216 5.470400
0.631610 5.383000
0.663004 5.301600
0.694398 5.225700
0.725792 5.151700
0.757186 5.076700
0.788580 4.918500
0.819974 4.760100
0.851368 4.806500
0.882762 4.743100
0.882762 4.743100
0.910953 4.730700
0.939144 4.605800
0.967336 4.670700
0.995527 4.718500
1.023718 4.750400
1.051909 4.765000
1.051909 4.765000
1.085235 4.755300
1.118561 4.771900
1.151887 4.797100
1.185213 4.827500
1.218539 4.829800
1.251865 4.706500
1.285191 4.562300
1.318517 4.421600
1.351843 4.375200
1.385169 4.546200
1.418495 4.785900
1.451821 5.081000
1.485147 5.407100
1.518473 5.661100
1.551799 5.658300
1.585125 5.625900
1.618451 5.486400
1.651777 5.550900
1.685103 5.699000
1.718429 5.836500
1.751755 5.929900
1.751755 5.929900
1.783871 5.937800
1.815986 5.888900
1.848102 5.811800
1.880217 5.741600
1.912333 5.686300
1.944448 5.639800
1.976564 5.574400
2.008679 5.441000
2.040795 5.226000
2.072910 4.977200
2.105026 4.776300
2.137141 4.694200
2.169257 4.653700
2.201372 4.649100
2.233488 4.705400
2.265603 4.829300
2.297719 4.990900
2.329834 5.158900
2.361950 5.096000
2.394065 4.955200
2.426181 4.863400
2.458297 4.831700
2.458297 4.831700
2.490797 4.829200
2.523298 4.824000
2.555799 4.820800
2.588299 4.822600
2.620800 4.680400
2.653301 4.743100
2.653301 4.575800
2.686294 4.570500
2.719288 4.568700
2.752282 4.592300
2.785276 4.640400
2.818269 4.699900
2.851263 4.512600
2.884257 4.340200
2.917251 4.257600
2.950244 4.268600
2.983238 4.419600
3.016232 4.566600
3.049226 4.648400
3.082219 4.645000
3.115213 4.576300
3.148207 4.513600
3.181201 4.457400
3.214194 4.497500
3.247188 4.545500
3.280182 4.597000
3.313176 4.650800
3.313176 4.650800
3.345633 4.705300
3.378090 4.761400
3.410547 4.818800
3.443004 4.877200
3.475461 4.936500
3.507918 4.996100
3.540375 5.054200
3.572832 5.100600
3.605289 5.022800
3.637746 4.715200
3.670203 4.445300
3.702660 4.173800
3.735117 4.162600
3.767574 4.253900
3.800032 4.365400
3.832489 4.478000
3.864946 4.584700
3.897403 4.681500
3.929860 4.766000
3.962317 4.836200
3.994774 4.890500
4.027231 4.875200
4.059688 4.846700
4.059688 4.846700
4.092621 4.871800
4.125554 4.885500
4.158488 4.830100
4.191421 4.757400
4.224354 4.671100
4.257287 4.574500
4.290220 4.471400
4.323153 4.366400
4.356086 4.265900
4.389020 4.184000
4.421953 4.177900
4.454886 4.423900
4.487819 4.678400
4.520752 4.996300
4.553685 5.331700
4.586619 5.434700
4.619552 5.425300
4.652485 5.412200
4.685418 5.398400
4.718351 5.353100
4.751284 5.229400
4.784217 5.168800
4.784217 6.024800
4.816899 5.942700
4.849581 6.000300
4.882262 6.063000
4.914944 6.069700
4.947626 6.017700
4.980307 5.930400
5.012989 5.820700
5.045670 5.684200
5.078352 5.580300
5.111034 5.432800
5.143715 5.529300
5.176397 5.548800
5.209078 5.519900
5.241760 5.455400
5.274442 5.367500
5.307123 5.270700
5.339805 5.183300
5.372486 5.121500
5.405168 5.100400
5.437850 5.130700
5.470531 5.210300
5.503213 5.191200
5.535895 5.106300
5.568576 5.025000
5.601258 4.952200
5.633939 4.893100
5.666621 4.853900
5.699303 4.846700
e
0.000000 4.940400
0.031733 4.943600
0.063466 4.943200
0.095199 4.931100
0.126932 4.912900
0.158666 4.929900
0.190399 4.870600
0.222132 4.717600
0.253865 4.667400
0.285598 4.633100
0.317331 4.879000
0.349064 5.088300
0.349064 5.088300
0.380458 4.945100
0.411852 4.952100
0.443246 5.210600
0.474640 5.478200
0.506034 5.685300
0.537428 5.623700
0.568822 5.553800
0.600216 5.500600
0.631610 5.432600
0.663004 5.371700
0.694398 5.321000
0.725792 5.255800
0.757186 5.084000
0.788580 5.001400
0.819974 4.933700
0.851368 4.860300
0.882762 4.841500
0.882762 4.841500
0.910953 4.874300
0.939144 5.000400
0.967336 5.092100
0.995527 5.175500
1.023718 5.226800
1.051909 5.243100
1.051909 5.243100
1.085235 5.248300
1.118561 5.245500
1.151887 5.138100
1.185213 5.011800
1.218539 4.909200
1.251865 4.934600
1.285191 4.989000
1.318517 5.054000
1.351843 5.128700
1.385169 5.213700
1.418495 5.310800
1.451821 5.422800
1.485147 5.551000
1.518473 5.738500
1.551799 5.780200
1.585125 5.687800
1.618451 5.804500
1.651777 5.934500
1.685103 6.051600
1.718429 6.053700
1.751755 5.990300
1.751755 5.990300
1.783871 5.992000
1.815986 5.987900
1.848102 5.951500
1.880217 5.871500
1.912333 5.803000
1.944448 5.741700
1.976564 5.663800
2.008679 5.525600
2.040795 5.325600
2.072910 5.115800
2.105026 4.946000
2.137141 4.862300
2.169257 4.855500
2.201372 4.898000
2.233488 4.978300
2.265603 5.086100
2.297719 5.209100
2.329834 5.288500
2.361950 5.205900
2.394065 5.110100
2.426181 5.049500
2.458297 5.028900
2.458297 5.028900
2.490797 5.039100
2.523298 5.066400
2.555799 5.038100
2.588299 4.848800
2.620800 4.831200
2.653301 4.841500
2.653301 5.088300
2.686294 5.095000
2.719288 5.110200
2.752282 5.105100
2.785276 4.938600
2.818269 4.726500
2.851263 4.767900
2.884257 4.838700
2.917251 4.914800
2.950244 4.876100
2.983238 4.799900
3.016232 4.724500
3.049226 4.667500
3.082219 4.788000
3.115213 5.045300
3.148207 5.222500
3.181201 5.376400
3.214194 5.519300
3.247188 5.658800
3.280182 5.799100
3.313176 5.942200
3.313176 5.942200
3.345633 6.086900
3.378090 6.236000
3.410547 6.389900
3.443004 6.548300
3.475461 6.486600
3.507918 6.229600
3.540375 5.859500
3.572832 5.502100
3.605289 5.194500
3.637746 4.850900
3.670203 4.825100
3.702660 4.958700
3.735117 5.108200
3.767574 5.265100
3.800032 5.420700
3.832489 5.549900
3.864946 5.565300
3.897403 5.432200
3.929860 5.259200
3.962317 5.096100
3.994774 4.963100
4.027231 4.926900
4.059688 4.940400
4.059688 4.940400
4.092621 4.928000
4.125554 4.957400
4.158488 5.075400
4.191421 5.218700
4.224354 5.372800
4.257287 5.515300
4.290220 5.519700
4.323153 5.366900
4.356086 5.184300
4.389020 4.996200
4.421953 4.811100
4.454886 4.646000
4.487819 4.777400
4.520752 5.128800
4.553685 5.445300
4.586619 5.734300
4.619552 5.952700
4.652485 5.751700
4.685418 5.563400
4.718351 5.426000
4.751284 5.403100
4.784217 5.400000
4.784217 6.025400
4.816899 6.044000
4.849581 6.075400
4.882262 6.148800
4.914944 6.150500
4.947626 6.132800
4.980307 6.078400
5.012989 5.962500
5.045670 5.794700
5.078352 5.601200
5.111034 5.531600
5.143715 5.621700
5.176397 5.652600
5.209078 5.683500
5.241760 5.670200
5.274442 5.615000
5.307123 5.566600
5.339805 5.524500
5.372486 5.481700
5.405168 5.429700
5.437850 5.362100
5.470531 5.283900
5.503213 5.333000
5.535895 5.371000
5.568576 5.313500
5.601258 5.239300
5.633939 5.149500
5.666621 5.039500
5.699303 4.940400
e
0.000000 5.174200
0.031733 5.199500
0.063466 5.257500
0.095199 5.314100
0.126932 5.275100
0.158666 5.096000
0.190399 5.055600
0.222132 5.243600
0.253865 5.461100
0.285598 5.632500
0.317331 5.395400
0.349064 5.187500
0.349064 5.187500
0.380458 5.330700
0.411852 5.509700
0.443246 5.670400
0.474640 5.727100
0.506034 5.747300
0.537428 5.684100
0.568822 5.582700
0.600216 5.507500
0.631610 5.536400
0.663004 5.501700
0.694398 5.425900
0.725792 5.283500
0.757186 5.216600
0.788580 5.099400
0.819974 4.979700
0.851368 4.914100
0.882762 4.983000
0.882762 4.983000
0.910953 4.925200
0.939144 5.008300
0.967336 5.134400
0.995527 5.242600
1.023718 5.318700
1.051909 5.346700
1.051909 5.346700
1.085235 5.319500
1.118561 5.263300
1.151887 5.287800
1.185213 5.321500
1.218539 5.364400
1.251865 5.416000
1.285191 5.475400
1.318517 5.541700
1.351843 5.614200
1.385169 5.691900
1.418495 5.773900
1.451821 5.857200
1.485147 5.930800
1.518473 5.939900
1.551799 6.115300
1.585125 6.300800
1.618451 6.374100
1.651777 6.361800
1.685103 6.228200
1.718429 6.192000
1.751755 6.078600
1.751755 6.078600
1.783871 6.000800
1.815986 6.019900
1.848102 6.059700
1.880217 6.168900
1.912333 6.291300
1.944448 6.404600
1.976564 6.289500
2.008679 6.126600
2.040795 6.064300
2.072910 6.052500
2.105026 6.053200
2.137141 6.046500
2.169257 6.020000
2.201372 5.957000
2.233488 5.825800
2.265603 5.658900
2.297719 5.485200
2.329834 5.306800
2.361950 5.341700
2.394065 5.489700
2.426181 5.598300
2.458297 5.639300
2.458297 5.639300
2.490797 5.443100
2.523298 5.236900
2.555799 5.104500
2.588299 5.146600
2.620800 5.182900
2.653301 4.983000
2.653301 5.187500
2.686294 5.186500
2.719288 5.173400
2.752282 5.123200
2.785276 5.124700
2.818269 5.108500
2.851263 5.072300
2.884257 5.017900
2.917251 4.950400
2.950244 4.997700
2.983238 4.999900
3.016232 4.893400
3.049226 4.783400
3.082219 4.836700
3.115213 5.118000
3.148207 5.475900
3.181201 5.634500
3.214194 5.786400
3.247188 5.936700
3.280182 6.084800
3.313176 6.229000
3.313176 6.229000
3.345633 6.361600
3.378090 6.468800
3.410547 6.535600
3.443004 6.557700
3.475461 6.581800
3.507918 6.254600
3.540375 5.922400
3.572832 5.560400
3.605289 5.277900
3.637746 5.299600
3.670203 5.363900
3.702660 5.437900
3.735117 5.518200
3.767574 5.603500
3.800032 5.690900
3.832489 5.766200
3.864946 5.763600
3.897403 5.647000
3.929860 5.504800
3.962317 5.374300
3.994774 5.269300
4.027231 5.199400
4.059688 5.174200
4.059688 5.174200
4.092621 5.200400
4.125554 5.273600
4.158488 5.385100
4.191421 5.523300
4.224354 5.659400
4.257287 5.712000
4.290220 5.739700
4.323153 5.786500
4.356086 5.748000
4.389020 5.692700
4.421953 5.640200
4.454886 5.593900
4.487819 5.555200
4.520752 5.527300
4.553685 5.560500
4.586619 5.859500
4.619552 6.055500
4.652485 6.120100
4.685418 6.095000
4.718351 6.067600
4.751284 6.049100
4.784217 6.042700
4.784217 6.201200
4.816899 6.223100
4.849581 6.217400
4.882262 6.198400
4.914944 6.201700
4.947626 6.204400
4.980307 6.186000
5.012989 6.102400
5.045670 5.944900
5.078352 5.803900
5.111034 5.725900
5.143715 5.693500
5.176397 5.810000
5.209078 5.805400
5.241760 5.778200
5.274442 5.773600
5.307123 5.743300
5.339805 5.689400
5.372486 5.624000
5.405168 5.560000
5.437850 5.506800
5.470531 5.463000
5.503213 5.421700
5.535895 5.426400
5.568576 5.396500
5.601258 5.316600
5.633939 5.242300
5.666621 5.191600
5.699303 5.174200
e
0.000000 5.822100
0.031733 5.786300
0.063466 5.692500
0.095199 5.570200
0.126932 5.512900
0.158666 5.567500
0.190399 5.644700
0.222132 5.719100
0.253865 5.767100
0.285598 5.697600
0.317331 5.899900
0.349064 5.911200
0.349064 5.911200
0.380458 5.902300
0.411852 5.878300
0.443246 5.854100
0.474640 5.872400
0.506034 5.791400
0.537428 5.955600
0.568822 5.967200
0.600216 5.917000
0.631610 5.785700
0.663004 5.612400
0.694398 5.433000
0.725792 5.327500
0.757186 5.259600
0.788580 5.245900
0.819974 5.238500
0.851368 5.234200
0.882762 5.232500
0.882762 5.232500
0.910953 5.257400
0.939144 5.278200
0.967336 5.300100
0.995527 5.336000
1.023718 5.387300
1.051909 5.415100
1.051909 5.415100
1.085235 5.442200
1.118561 5.519200
1.151887 5.612800
1.185213 5.619100
1.218539 5.658800
1.251865 5.725200
1.285191 5.815300
1.318517 5.928700
1.351843 6.066000
1.385169 6.227300
1.418495 6.336200
1.451821 6.207600
1.485147 6.082500
1.518473 6.030000
1.551799 6.187200
1.585125 6.453700
1.618451 6.518000
1.651777 6.391600
1.685103 6.313900
1.718429 6.214000
1.751755 6.234200
1.751755 6.234200
1.783871 6.166700
1.815986 6.111700
1.848102 6.189700
1.880217 6.305700
1.912333 6.429500
1.944448 6.514300
1.976564 6.349200
2.008679 6.196300
2.040795 6.139200
2.072910 6.142700
2.105026 6.166000
2.137141 6.184600
2.169257 6.176100
2.201372 6.092900
2.233488 5.911800
2.265603 5.698800
2.297719 5.494900
2.329834 5.375600
2.361950 5.471600
2.394065 5.574300
2.426181 5.646300
2.458297 5.674900
2.458297 5.674900
2.490797 5.696800
2.523298 5.685400
2.555799 5.673000
2.588299 5.635600
2.620800 5.320100
2.653301 5.232500
2.653301 5.911200
2.686294 5.783300
2.719288 5.580800
2.752282 5.419900
2.785276 5.350400
2.818269 5.321700
2.851263 5.291200
2.884257 5.245500
2.917251 5.181200
2.950244 5.099700
2.983238 5.095400
3.016232 5.150500
3.049226 5.139300
3.082219 5.211600
3.115213 5.338400
3.148207 5.503800
3.181201 5.889000
3.214194 6.278800
3.247188 6.376500
3.280182 6.415700
3.313176 6.464200
3.313176 6.464200
3.345633 6.525300
3.378090 6.612700
3.410547 6.734200
3.443004 6.839700
3.475461 6.710700
3.507918 6.875000
3.540375 6.998400
3.572832 7.017400
3.605289 7.008500
3.637746 6.944900
3.670203 6.853700
3.702660 6.735100
3.735117 6.592600
3.767574 6.433200
3.800032 6.232400
3.832489 6.057300
3.864946 6.001400
3.897403 6.102900
3.929860 6.234200
3.962317 6.153200
3.994774 5.981600
4.027231 5.864300
4.059688 5.822100
4.059688 5.822100
4.092621 5.860700
4.125554 5.968400
4.158488 6.125600
4.191421 6.237600
4.224354 6.117600
4.257287 6.061000
4.290220 5.993900
4.323153 6.020800
4.356086 6.157900
4.389020 6.316300
4.421953 6.451600
4.454886 6.503600
4.487819 6.480300
4.520752 6.428400
4.553685 6.352500
4.586619 6.160400
4.619552 6.162400
4.652485 6.503300
4.685418 6.850200
4.718351 7.035700
4.751284 7.034400
4.784217 7.032400
4.784217 6.249900
4.816899 6.241900
4.849581 6.230800
4.882262 6.243700
4.914944 6.324200
4.947626 6.395600
4.980307 6.411100
5.012989 6.384400
5.045670 6.362900
5.078352 6.305700
5.111034 6.204600
5.143715 6.099100
5.176397 6.032900
5.209078 6.127500
5.241760 6.246900
5.274442 6.319400
5.307123 6.374700
5.339805 6.406200
5.372486 6.387900
5.405168 6.296600
5.437850 6.139200
5.470531 5.973700
5.503213 5.829000
5.535895 5.763700
5.568576 5.864500
5.601258 5.875300
5.633939 5.840900
5.666621 5.825100
5.699303 5.822100
e
0.000000 6.122500
0.031733 6.133900
0.063466 6.156700
0.095199 6.177000
0.126932 6.188000
0.158666 6.184600
0.190399 6.154200
0.222132 6.064300
0.253865 5.908300
0.285598 5.871600
0.317331 5.947000
0.349064 6.196500
0.349064 6.196500
0.380458 6.168800
0.411852 6.139300
0.443246 6.048300
0.474640 5.984500
0.506034 6.070000
0.537428 6.115800
0.568822 6.237200
0.600216 6.113100
0.631610 6.094500
0.663004 6.156000
0.694398 6.249000
0.725792 6.300300
0.757186 6.186000
0.788580 6.063000
0.819974 5.938700
0.851368 5.820600
0.882762 5.714800
0.882762 5.714800
0.910953 5.711900
0.939144 5.726200
0.967336 5.750600
0.995527 5.766900
1.023718 5.759300
1.051909 5.747900
1.051909 5.747900
1.085235 5.710700
1.118561 5.647100
1.151887 5.639200
1.185213 5.792500
1.218539 5.967300
1.251865 6.150200
1.285191 6.322700
1.318517 6.449900
1.351843 6.488100
1.385169 6.439700
1.418495 6.410600
1.451821 6.436000
1.485147 6.262100
1.518473 6.170800
1.551799 6.217300
1.585125 6.487000
1.618451 6.723900
1.651777 6.585000
1.685103 6.476600
1.718429 6.380400
1.751755 6.323600
1.751755 6.323600
1.783871 6.365300
1.815986 6.485400
1.848102 6.636200
1.880217 6.799300
1.912333 6.889800
1.944448 6.613500
1.976564 6.595900
2.008679 6.698500
2.040795 6.801000
2.072910 6.875800
2.105026 6.668100
2.137141 6.463300
2.169257 6.269000
2.201372 6.100100
2.233488 5.992300
2.265603 5.921500
2.297719 5.860600
2.329834 5.807700
2.361950 5.764500
2.394065 5.732300
2.426181 5.711300
2.458297 5.701400
2.458297 5.701400
2.490797 5.876800
2.523298 6.045100
2.555799 5.936000
2.588299 5.679600
2.620800 5.682000
2.653301 5.714800
2.653301 6.196500
2.686294 6.172200
2.719288 6.107000
2.752282 6.014200
2.785276 5.904600
2.818269 5.786100
2.851263 5.664200
2.884257 5.543000
2.917251 5.426000
2.950244 5.316400
2.983238 5.220000
3.016232 5.206700
3.049226 5.346500
3.082219 5.529700
3.115213 5.768700
3.148207 6.057800
3.181201 6.342000
3.214194 6.370500
3.247188 6.709700
3.280182 6.945700
3.313176 6.954100
3.313176 6.954100
3.345633 6.958200
3.378090 6.955900
3.410547 6.934300
3.443004 6.874000
3.475461 7.019900
3.507918 7.002700
3.540375 7.025100
3.572832 7.046500
3.605289 7.027200
3.637746 7.005100
3.670203 6.932200
3.702660 6.803400
3.735117 6.631300
3.767574 6.434600
3.800032 6.267200
3.832489 6.116400
3.864946 6.053800
3.897403 6.121600
3.929860 6.254800
3.962317 6.376500
3.994774 6.268200
4.027231 6.161000
4.059688 6.122500
4.059688 6.122500
4.092621 6.160600
4.125554 6.267000
4.158488 6.382800
4.191421 6.280700
4.224354 6.168300
4.257287 6.099900
4.290220 6.215400
4.323153 6.368000
4.356086 6.498000
4.389020 6.585600
4.421953 6.645700
4.454886 6.741800
4.487819 6.807200
4.520752 6.600000
4.553685 6.402200
4.586619 6.334800
4.619552 6.375600
4.652485 6.640400
4.685418 6.947900
4.718351 7.137100
4.751284 7.337700
4.784217 7.420200
4.784217 6.323300
4.816899 6.485600
4.849581 6.531600
4.882262 6.541600
4.914944 6.546000
4.947626 6.537900
4.980307 6.505400
5.012989 6.457700
5.045670 6.396900
5.078352 6.365500
5.111034 6.368900
5.143715 6.374300
5.176397 6.384200
5.209078 6.418900
5.241760 6.525400
5.274442 6.699300
5.307123 6.722900
5.339805 6.616600
5.372486 6.488100
5.405168 6.362100
5.437850 6.265200
5.470531 6.171800
5.503213 6.082400
5.535895 6.001300
5.568576 5.934700
5.601258 6.067800
5.633939 6.261900
5.666621 6.166400
5.699303 6.122500
e
0.000000 6.601300
0.031733 6.600100
0.063466 6.596600
0.095199 6.590800
0.126932 6.580900
0.158666 6.557400
0.190399 6.484500
0.222132 6.379000
0.253865 6.315700
0.285598 6.284700
0.317331 6.268700
0.349064 6.212300
0.349064 6.212300
0.380458 6.231800
0.411852 6.150700
0.443246 6.112800
0.474640 6.088700
0.506034 6.103700
0.537428 6.256600
0.568822 6.365200
0.600216 6.506200
0.631610 6.524800
0.663004 6.476100
0.694398 6.398900
0.725792 6.354600
0.757186 6.466600
0.788580 6.462600
0.819974 6.371000
0.851368 6.291000
0.882762 6.231800
0.882762 6.231800
0.910953 6.237800
0.939144 6.241200
0.967336 6.236400
0.995527 6.199700
1.023718 6.184500
1.051909 6.201200
1.051909 6.201200
1.085235 6.209600
1.118561 6.234700
1.151887 6.276100
1.185213 6.333200
1.218539 6.404600
1.251865 6.487200
1.285191 6.578000
1.318517 6.684100
1.351843 6.822900
1.385169 6.849600
1.418495 6.644400
1.451821 6.628600
1.485147 6.853600
1.518473 7.005600
1.551799 6.851100
1.585125 6.686900
1.618451 6.784300
1.651777 6.821500
1.685103 6.674700
1.718429 6.558700
1.751755 6.536000
1.751755 6.536000
1.783871 6.629100
1.815986 6.765300
1.848102 6.915100
1.880217 7.062400
1.912333 6.955100
1.944448 6.684700
1.976564 6.702200
2.008679 6.828500
2.040795 6.946900
2.072910 6.880000
2.105026 6.857900
2.137141 6.665300
2.169257 6.464600
2.201372 6.316800
2.233488 6.249600
2.265603 6.205400
2.297719 6.164500
2.329834 6.126500
2.361950 6.093900
2.394065 6.068700
2.426181 6.052300
2.458297 6.046500
2.458297 6.046500
2.490797 6.048900
2.523298 6.100000
2.555799 6.185500
2.588299 6.173900
2.620800 6.198700
2.653301 6.231800
2.653301 6.212300
2.686294 6.287800
2.719288 6.353200
2.752282 6.441600
2.785276 6.535100
2.818269 6.625900
2.851263 6.708500
2.884257 6.699200
2.917251 6.654800
2.950244 6.597600
2.983238 6.534400
3.016232 6.472900
3.049226 6.419500
3.082219 6.378300
3.115213 6.351300
3.148207 6.339200
3.181201 6.377400
3.214194 6.702500
3.247188 6.916900
3.280182 7.117400
3.313176 7.488400
3.313176 7.488400
3.345633 7.526900
3.378090 7.564800
3.410547 7.565800
3.443004 7.285300
3.475461 7.107300
3.507918 7.112000
3.540375 7.109500
3.572832 7.231700
3.605289 7.393900
3.637746 7.544100
3.670203 7.656800
3.702660 7.626600
3.735117 7.599700
3.767574 7.552800
3.800032 7.344000
3.832489 7.102800
3.864946 6.851800
3.897403 6.604500
3.929860 6.373900
3.962317 6.406000
3.994774 6.512600
4.027231 6.593000
4.059688 6.601300
4.059688 6.601300
4.092621 6.593500
4.125554 6.517600
4.158488 6.418900
4.191421 6.335300
4.224354 6.528400
4.257287 6.734700
4.290220 6.927500
4.323153 7.090300
4.356086 7.209800
4.389020 7.270800
4.421953 7.211300
4.454886 7.032300
4.487819 6.894000
4.520752 7.023500
4.553685 7.133100
4.586619 7.151700
4.619552 7.129600
4.652485 7.108500
4.685418 7.121000
4.718351 7.387300
4.751284 7.687100
4.784217 7.666000
4.784217 6.523200
4.816899 6.533600
4.849581 6.684500
4.882262 6.659500
4.914944 6.616500
4.947626 6.590000
4.980307 6.607400
5.012989 6.653200
5.045670 6.695200
5.078352 6.707100
5.111034 6.710000
5.143715 6.717300
5.176397 6.730100
5.209078 6.746400
5.241760 6.761100
5.274442 6.767400
5.307123 6.760400
5.339805 6.747200
5.372486 6.751200
5.405168 6.778500
5.437850 6.798000
5.470531 6.763900
5.503213 6.712900
5.535895 6.653000
5.568576 6.569700
5.601258 6.440700
5.633939 6.319900
5.666621 6.521400
5.699303 6.601300
e
0.000000 6.715000
0.031733 6.718800
0.063466 6.739800
0.095199 6.786700
0.126932 6.859200
0.158666 6.763200
0.190399 6.670900
0.222132 6.643000
0.253865 6.639200
0.285598 6.641100
0.317331 6.462800
0.349064 6.263500
0.349064 6.263500
0.380458 6.246200
0.411852 6.293600
0.443246 6.347500
0.474640 6.401500
0.506034 6.430600
0.537428 6.377200
0.568822 6.397500
0.600216 6.601700
0.631610 6.642300
0.663004 6.686100
0.694398 6.680000
0.725792 6.629500
0.757186 6.553000
0.788580 6.582900
0.819974 6.703500
0.851368 6.710300
0.882762 6.654400
0.882762 6.654400
0.910953 6.516100
0.939144 6.389300
0.967336 6.287400
0.995527 6.248400
1.023718 6.231800
1.051909 6.210900
1.051909 6.210900
1.085235 6.233400
1.118561 6.302000
1.151887 6.415100
1.185213 6.568300
1.218539 6.756400
1.251865 6.936100
1.285191 6.998700
1.318517 7.052400
1.351843 7.061300
1.385169 6.981100
1.418495 7.117100
1.451821 7.159400
1.485147 7.121400
1.518473 7.093600
1.551799 7.056300
1.585125 6.885600
1.618451 6.843000
1.651777 6.945100
1.685103 6.961400
1.718429 7.052700
1.751755 7.182100
1.751755 7.182100
1.783871 7.325700
1.815986 7.480500
1.848102 7.628600
1.880217 7.266100
1.912333 7.016100
1.944448 7.145500
1.976564 7.313700
2.008679 7.312100
2.040795 7.112500
2.072910 7.088700
2.105026 6.991100
2.137141 7.005400
2.169257 7.016100
2.201372 7.011300
2.233488 6.993500
2.265603 6.964500
2.297719 6.924700
2.329834 6.873600
2.361950 6.811500
2.394065 6.743800
2.426181 6.686000
2.458297 6.662300
2.458297 6.662300
2.490797 6.571800
2.523298 6.356300
2.555799 6.326300
2.588299 6.552600
2.620800 6.771900
2.653301 6.654400
2.653301 6.263500
2.686294 6.333900
2.719288 6.523700
2.752282 6.699300
2.785276 6.777500
2.818269 6.764500
2.851263 6.747600
2.884257 6.816300
2.917251 6.910200
2.950244 7.002700
2.983238 6.994100
3.016232 6.984500
3.049226 6.977000
3.082219 6.971200
3.115213 6.966900
3.148207 6.964700
3.181201 6.966000
3.214194 6.978500
3.247188 7.105500
3.280182 7.410300
3.313176 7.490500
3.313176 7.490500
3.345633 7.686600
3.378090 7.746500
3.410547 7.628700
3.443004 7.363100
3.475461 7.150400
3.507918 7.172900
3.540375 7.324500
3.572832 7.475600
3.605289 7.617300
3.637746 7.689900
3.670203 7.659500
3.702660 7.709300
3.735117 7.686200
3.767574 7.560000
3.800032 7.473600
3.832489 7.295800
3.864946 7.068500
3.897403 6.838400
3.929860 6.621200
3.962317 6.428000
3.994774 6.530900
4.027231 6.643100
4.059688 6.715000
4.059688 6.715000
4.092621 6.645300
4.125554 6.537300
4.158488 6.430100
4.191421 6.618600
4.224354 6.835500
4.257287 7.064800
4.290220 7.286300
4.323153 7.411600
4.356086 7.428500
4.389020 7.407900
4.421953 7.353800
4.454886 7.322800
4.487819 7.291500
4.520752 7.260700
4.553685 7.250500
4.586619 7.323500
4.619552 7.431300
4.652485 7.536500
4.685418 7.634100
4.718351 7.710100
4.751284 7.754500
4.784217 7.852200
4.784217 6.860800
4.816899 6.814900
4.849581 6.873400
4.882262 7.151700
4.914944 7.387500
4.947626 7.151100
4.980307 6.939100
5.012989 6.807100
5.045670 6.759300
5.078352 6.783100
5.111034 6.833400
5.143715 6.888600
5.176397 6.943600
5.209078 6.953400
5.241760 6.893500
5.274442 6.818400
5.307123 6.881700
5.339805 6.986300
5.372486 6.958200
5.405168 6.898200
5.437850 6.860700
5.470531 6.879300
5.503213 6.906300
5.535895 6.921700
5.568576 6.877700
5.601258 6.744400
5.633939 6.669500
5.666621 6.636600
5.699303 6.715000
e
0.000000 6.815300
0.031733 6.840200
0.063466 6.903200
0.095199 6.932800
0.126932 6.873700
0.158666 6.950100
0.190399 6.961200
0.222132 6.885800
0.253865 6.810100
0.285598 6.710600
0.317331 6.640400
0.349064 6.638700
0.349064 6.638700
0.380458 6.611200
0.411852 6.589400
0.443246 6.585300
0.474640 6.590100
0.506034 6.597700
0.537428 6.603500
0.568822 6.603500
0.600216 6.647100
0.631610 6.881700
0.663004 6.859400
0.694398 6.854300
0.725792 6.852900
0.757186 6.837600
0.788580 6.805500
0.819974 6.761500
0.851368 6.828300
0.882762 6.957700
0.882762 6.957700
0.910953 7.059400
0.939144 6.971100
0.967336 6.831600
0.995527 6.704700
1.023718 6.615600
1.051909 6.583100
1.051909 6.583100
1.085235 6.669700
1.118561 6.711100
1.151887 6.761600
1.185213 6.816700
1.218539 6.874700
1.251865 6.973300
1.285191 7.213000
1.318517 7.272900
1.351843 7.090700
1.385169 7.128800
1.418495 7.196400
1.451821 7.330300
1.485147 7.425100
1.518473 7.246100
1.551799 7.322800
1.585125 7.150900
1.618451 6.982600
1.651777 7.095700
1.685103 7.368500
1.718429 7.593200
1.751755 7.758900
1.751755 7.758900
1.783871 7.861200
1.815986 7.910300
1.848102 7.632200
1.880217 7.357400
1.912333 7.243700
1.944448 7.386500
1.976564 7.449100
2.008679 7.430500
2.040795 7.313000
2.072910 7.119900
2.105026 7.197100
2.137141 7.299900
2.169257 7.392000
2.201372 7.472400
2.233488 7.540900
2.265603 7.597700
2.297719 7.643000
2.329834 7.676100
2.361950 7.665300
2.394065 7.622100
2.426181 7.588500
2.458297 7.576000
2.458297 7.576000
2.490797 7.389200
2.523298 7.214700
2.555799 7.064200
2.588299 6.923700
2.620800 6.787600
2.653301 6.957700
2.653301 6.638700
2.686294 6.654200
2.719288 6.697700
2.752282 6.754500
2.785276 6.843300
2.818269 6.949700
2.851263 7.015800
2.884257 7.034000
2.917251 7.021900
2.950244 7.006600
2.983238 7.088100
3.016232 7.165700
3.049226 7.235700
3.082219 7.259000
3.115213 7.284900
3.148207 7.313400
3.181201 7.344400
3.214194 7.377800
3.247188 7.413100
3.280182 7.450400
3.313176 7.715300
3.313176 7.715300
3.345633 7.979300
3.378090 7.956900
3.410547 7.666100
3.443004 7.646600
3.475461 7.682300
3.507918 7.716900
3.540375 7.749600
3.572832 7.781200
3.605289 7.813800
3.637746 7.846900
3.670203 7.899400
3.702660 7.906700
3.735117 7.848700
3.767574 7.804400
3.800032 7.676600
3.832489 7.524100
3.864946 7.396100
3.897403 7.257700
3.929860 7.111300
3.962317 6.972200
3.994774 6.863800
4.027231 6.816800
4.059688 6.815300
4.059688 6.815300
4.092621 6.817600
4.125554 6.863000
4.158488 6.967400
4.191421 7.101200
4.224354 7.236900
4.257287 7.348300
4.290220 7.423500
4.323153 7.526600
4.356086 7.616400
4.389020 7.581500
4.421953 7.583000
4.454886 7.635400
4.487819 7.691000
4.520752 7.737100
4.553685 7.771700
4.586619 7.794400
4.619552 7.804800
4.652485 7.802700
4.685418 7.789000
4.718351 7.775700
4.751284 7.839000
4.784217 7.923800
4.784217 6.906600
4.816899 6.980500
4.849581 7.106100
4.882262 7.287700
4.914944 7.406800
4.947626 7.359000
4.980307 7.158800
5.012989 7.031600
5.045670 6.984600
5.078352 6.990200
5.111034 7.014000
5.143715 7.027000
5.176397 7.013200
5.209078 7.017500
5.241760 7.074800
5.274442 7.132900
5.307123 7.150800
5.339805 7.137100
5.372486 7.198600
5.405168 7.278900
5.437850 7.354200
5.470531 7.413500
5.503213 7.351100
5.535895 7.122100
5.568576 6.952200
5.601258 6.933600
5.633939 6.918600
5.666621 6.892800
5.699303 6.815300
e
0.000000 6.970100
0.031733 6.967300
0.063466 6.957100
0.095199 6.988700
0.126932 7.084700
0.158666 7.026000
0.190399 7.037400
0.222132 7.026100
0.253865 6.923400
0.285598 6.757700
0.317331 6.735600
0.349064 6.732300
0.349064 6.732300
0.380458 6.785800
0.411852 6.863900
0.443246 6.933500
0.474640 7.002400
0.506034 6.898200
0.537428 6.840900
0.568822 6.888300
0.600216 6.913200
0.631610 6.907000
0.663004 7.035100
0.694398 7.095000
0.725792 7.148800
0.757186 7.208400
0.788580 7.276900
0.819974 7.354800
0.851368 7.442100
0.882762 7.481100
0.882762 7.481100
0.910953 7.353500
0.939144 7.178600
0.967336 6.992500
0.995527 6.825800
1.023718 6.704200
1.051909 6.657900
1.051909 6.657900
1.085235 6.672600
1.118561 6.880600
1.151887 7.150700
1.185213 7.439500
1.218539 7.673900
1.251865 7.659000
1.285191 7.483900
1.318517 7.475300
1.351843 7.739800
1.385169 7.922500
1.418495 7.795600
1.451821 7.611300
1.485147 7.444600
1.518473 7.471100
1.551799 7.328600
1.585125 7.165400
1.618451 7.027000
1.651777 7.209500
1.685103 7.562700
1.718429 7.864500
1.751755 8.089700
1.751755 8.088900
1.783871 8.241700
1.815986 8.009800
1.848102 7.744500
1.880217 7.806600
1.912333 7.864200
1.944448 7.816500
1.976564 7.715800
2.008679 7.605400
2.040795 7.675000
2.072910 7.746800
2.105026 7.774000
2.137141 7.787500
2.169257 7.793300
2.201372 7.790300
2.233488 7.779300
2.265603 7.761600
2.297719 7.737500
2.329834 7.705500
2.361950 7.694300
2.394065 7.686600
2.426181 7.648300
2.458297 7.627100
2.458297 7.627100
2.490797 7.736700
2.523298 7.781000
2.555799 7.730900
2.588299 7.653200
2.620800 7.569300
2.653301 7.481100
2.653301 6.732300
2.686294 6.763800
2.719288 6.853400
2.752282 6.895100
2.785276 6.975700
2.818269 7.109000
2.851263 7.127600
2.884257 7.128900
2.917251 7.150900
2.950244 7.173500
2.983238 7.194100
3.016232 7.214300
3.049226 7.237800
3.082219 7.306600
3.115213 7.373300
3.148207 7.438300
3.181201 7.501900
3.214194 7.564600
3.247188 7.627900
3.280182 7.697100
3.313176 7.805100
3.313176 7.805100
3.345633 8.079100
3.378090 8.167800
3.410547 7.915100
3.443004 7.898400
3.475461 7.914900
3.507918 7.923500
3.540375 7.914600
3.572832 7.883000
3.605289 7.836400
3.637746 7.852600
3.670203 7.965600
3.702660 8.084000
3.735117 8.081700
3.767574 7.888100
3.800032 7.765900
3.832489 7.710700
3.864946 7.634700
3.897403 7.539100
3.929860 7.426800
3.962317 7.301400
3.994774 7.168800
4.027231 7.041100
4.059688 6.970100
4.059688 6.970100
4.092621 7.039300
4.125554 7.163800
4.158488 7.290800
4.191421 7.406600
4.224354 7.509000
4.257287 7.609100
4.290220 7.715200
4.323153 7.790400
4.356086 7.804900
4.389020 7.832900
4.421953 7.878700
4.454886 7.922700
4.487819 7.962100
4.520752 7.996000
4.553685 8.026200
4.586619 8.056300
4.619552 8.089300
4.652485 8.119800
4.685418 8.112900
4.718351 8.059800
4.751284 8.007000
4.784217 8.140700
4.784217 8.075500
4.816899 8.043500
4.849581 7.920900
4.882262 7.691000
4.914944 7.581100
4.947626 7.640900
4.980307 7.812700
5.012989 7.824600
5.045670 7.781200
5.078352 7.687000
5.111034 7.576800
5.143715 7.491500
5.176397 7.431300
5.209078 7.378900
5.241760 7.327700
5.274442 7.288700
5.307123 7.308900
5.339805 7.396400
5.372486 7.443800
5.405168 7.472600
5.437850 7.506100
5.470531 7.536900
5.503213 7.542200
5.535895 7.561800
5.568576 7.528000
5.601258 7.407300
5.633939 7.237700
5.666621 7.056700
5.699303 6.970100
e
0.000000 7.775000
0.031733 7.658500
0.063466 7.464700
0.095199 7.274000
0.126932 7.119100
0.158666 7.178200
0.190399 7.116700
0.222132 7.049100
0.253865 6.968300
0.285598 6.922000
0.317331 6.886100
0.349064 6.871400
0.349064 6.871400
0.380458 6.888300
0.411852 6.939400
0.443246 6.997600
0.474640 7.027200
0.506034 7.007000
0.537428 6.980400
0.568822 6.947200
0.600216 6.973100
0.631610 7.084600
0.663004 7.320400
0.694398 7.625300
0.725792 7.774600
0.757186 7.669500
0.788580 7.584300
0.819974 7.534800
0.851368 7.509000
0.882762 7.538100
0.882762 7.538100
0.910953 7.501800
0.939144 7.457400
0.967336 7.361900
0.995527 7.285200
1.023718 7.232900
1.051909 7.214100
1.051909 7.214100
1.085235 7.235200
1.118561 7.298600
1.151887 7.403600
1.185213 7.545200
1.218539 7.716000
1.251865 7.867800
1.285191 7.769000
1.318517 7.741600
1.351843 7.816800
1.385169 7.973900
1.418495 7.847000
1.451821 7.707800
1.485147 7.644000
1.518473 7.517800
1.551799 7.367700
1.585125 7.627100
1.618451 7.858200
1.651777 7.997700
1.685103 8.171800
1.718429 8.409200
1.751755 8.624800
1.751755 8.577700
1.783871 8.404600
1.815986 8.142200
1.848102 7.950500
1.880217 7.948000
1.912333 8.028800
1.944448 7.863300
1.976564 7.749400
2.008679 7.830600
2.040795 7.929400
2.072910 8.023000
2.105026 8.180500
2.137141 8.272200
2.169257 8.223400
2.201372 8.196600
2.233488 8.214300
2.265603 8.248300
2.297719 8.187300
2.329834 8.060100
2.361950 7.924500
2.394065 7.825400
2.426181 7.789500
2.458297 7.783900
2.458297 7.783900
2.490797 7.865200
2.523298 7.872300
2.555799 7.934900
2.588299 7.958700
2.620800 7.803200
2.653301 7.538100
2.653301 6.871400
2.686294 6.872900
2.719288 6.876900
2.752282 6.986700
2.785276 7.121700
2.818269 7.148500
2.851263 7.227100
2.884257 7.280000
2.917251 7.308400
2.950244 7.361700
2.983238 7.455700
3.016232 7.588300
3.049226 7.751300
3.082219 7.936900
3.115213 8.138500
3.148207 8.350100
3.181201 8.565300
3.214194 8.776400
3.247188 8.972700
3.280182 9.121000
3.313176 8.776000
3.313176 8.776200
3.345633 8.382800
3.378090 8.232900
3.410547 8.385600
3.443004 8.483600
3.475461 8.524900
3.507918 8.521300
3.540375 8.484900
3.572832 8.425500
3.605289 8.350400
3.637746 8.269500
3.670203 8.205400
3.702660 8.222400
3.735117 8.284500
3.767574 8.204900
3.800032 8.122500
3.832489 8.048100
3.864946 7.985700
3.897403 7.929900
3.929860 7.879600
3.962317 7.836700
3.994774 7.803600
4.027231 7.782200
4.059688 7.774900
4.059688 7.775200
4.092621 7.772400
4.125554 7.768900
4.158488 7.768500
4.191421 7.773000
4.224354 7.783400
4.257287 7.800800
4.290220 7.834600
4.323153 7.924100
4.356086 8.066700
4.389020 8.168400
4.421953 8.254700
4.454886 8.330800
4.487819 8.395000
4.520752 8.445100
4.553685 8.461700
4.586619 8.420000
4.619552 8.351900
4.652485 8.293400
4.685418 8.295500
4.718351 8.379000
4.751284 8.477400
4.784217 8.294900
4.784217 8.473200
4.816899 8.380100
4.849581 8.180300
4.882262 7.907000
4.914944 7.640000
4.947626 7.842900
4.980307 7.936400
5.012989 7.996300
5.045670 7.891300
5.078352 7.800800
5.111034 7.742400
5.143715 7.698100
5.176397 7.680800
5.209078 7.701600
5.241760 7.742700
5.274442 7.712800
5.307123 7.605000
5.339805 7.576300
5.372486 7.702400
5.405168 7.887900
5.437850 7.951100
5.470531 7.744400
5.503213 7.631000
5.535895 7.658600
5.568576 7.698900
5.601258 7.730700
5.633939 7.754100
5.666621 7.769600
5.699303 7.774900
e
0.000000 7.971500
0.031733 7.955300
0.063466 7.794900
0.095199 7.611000
0.126932 7.425900
0.158666 7.255200
0.190399 7.256400
0.222132 7.340600
0.253865 7.472000
0.285598 7.435700
0.317331 7.407400
0.349064 7.397600
0.349064 7.397600
0.380458 7.397000
0.411852 7.403700
0.443246 7.272900
0.474640 7.061600
0.506034 7.096700
0.537428 7.188900
0.568822 7.289000
0.600216 7.394800
0.631610 7.504700
0.663004 7.617400
0.694398 7.727600
0.725792 7.900900
0.757186 7.992500
0.788580 8.103200
0.819974 8.151400
0.851368 7.959600
0.882762 7.755200
0.882762 7.755200
0.910953 7.581500
0.939144 7.672100
0.967336 7.914000
0.995527 8.169700
1.023718 8.417000
1.051909 8.570400
1.051909 8.570800
1.085235 8.536500
1.118561 8.444400
1.151887 8.313900
1.185213 8.163900
1.218539 8.010800
1.251865 7.912400
1.285191 8.118000
1.318517 8.332700
1.351843 8.240800
1.385169 8.040900
1.418495 8.085400
1.451821 7.913400
1.485147 7.711700
1.518473 7.575100
1.551799 7.638700
1.585125 7.739500
1.618451 7.894700
1.651777 8.158900
1.685103 8.411900
1.718429 8.528200
1.751755 8.723900
1.751755 8.719400
1.783871 8.537400
1.815986 8.349000
1.848102 8.350500
1.880217 8.225700
1.912333 8.050400
1.944448 8.066000
1.976564 7.970200
2.008679 7.921700
2.040795 7.975400
2.072910 8.119100
2.105026 8.240000
2.137141 8.282300
2.169257 8.259000
2.201372 8.239900
2.233488 8.244100
2.265603 8.272000
2.297719 8.309300
2.329834 8.202400
2.361950 8.079400
2.394065 7.998500
2.426181 7.955700
2.458297 7.942700
2.458297 7.942700
2.490797 8.012600
2.523298 8.316600
2.555799 8.442200
2.588299 8.119300
2.620800 7.880800
2.653301 7.755200
2.653301 7.397600
2.686294 7.386000
2.719288 7.354800
2.752282 7.316100
2.785276 7.309500
2.818269 7.444300
2.851263 7.662200
2.884257 7.792400
2.917251 8.001000
2.950244 8.244900
2.983238 8.502100
3.016232 8.762500
3.049226 9.018200
3.082219 9.259000
3.115213 9.478500
3.148207 9.666700
3.181201 9.818800
3.214194 9.827600
3.247188 9.540800
3.280182 9.171600
3.313176 8.946600
3.313176 8.949200
3.345633 8.567800
3.378090 8.497900
3.410547 8.906600
3.443004 9.084500
3.475461 8.956300
3.507918 8.816800
3.540375 8.688100
3.572832 8.580500
3.605289 8.500600
3.637746 8.447100
3.670203 8.414200
3.702660 8.353900
3.735117 8.343000
3.767574 8.312100
3.800032 8.278200
3.832489 8.215900
3.864946 8.166700
3.897403 8.127300
3.929860 8.095300
3.962317 8.069800
3.994774 8.052700
4.027231 8.003800
4.059688 7.971500
4.059688 7.975100
4.092621 8.006600
4.125554 8.024200
4.158488 8.016100
4.191421 8.009200
4.224354 8.010200
4.257287 8.009100
4.290220 8.020300
4.323153 8.044400
4.356086 8.112000
4.389020 8.264100
4.421953 8.426800
4.454886 8.584700
4.487819 8.685700
4.520752 8.660700
4.553685 8.617900
4.586619 8.624900
4.619552 8.658300
4.652485 8.695400
4.685418 8.729200
4.718351 8.754500
4.751284 8.683900
4.784217 8.643300
4.784217 8.702200
4.816899 8.469300
4.849581 8.210100
4.882262 8.090800
4.914944 8.036300
4.947626 8.063400
4.980307 8.258000
5.012989 8.315300
5.045670 8.491000
5.078352 8.519000
5.111034 8.499700
5.143715 8.468700
5.176397 8.366000
5.209078 8.181300
5.241760 7.991100
5.274442 7.909500
5.307123 7.965100
5.339805 8.043300
5.372486 8.120400
5.405168 8.188100
5.437850 8.131000
5.470531 8.102600
5.503213 8.026200
5.535895 7.925200
5.568576 7.863900
5.601258 7.879000
5.633939 7.928300
5.666621 7.968100
5.699303 7.971500
e
0.000000 8.037900
0.031733 8.004700
0.063466 7.993300
0.095199 7.932400
0.126932 7.844900
0.158666 7.747200
0.190399 7.644400
0.222132 7.556000
0.253865 7.485400
0.285598 7.633700
0.317331 7.806400
0.349064 7.930700
0.349064 7.927600
0.380458 7.745000
0.411852 7.504200
0.443246 7.443800
0.474640 7.538700
0.506034 7.676300
0.537428 7.689000
0.568822 7.644700
0.600216 7.665300
0.631610 7.762200
0.663004 7.932000
0.694398 8.000500
0.725792 7.945700
0.757186 8.275300
0.788580 8.559100
0.819974 8.346300
0.851368 8.397600
0.882762 8.507000
0.882762 8.506800
0.910953 8.665600
0.939144 8.814900
0.967336 8.925700
0.995527 8.976500
1.023718 8.958900
1.051909 8.878400
1.051909 8.878600
1.085235 8.787900
1.118561 8.633300
1.151887 8.453100
1.185213 8.271700
1.218539 8.157000
1.251865 8.300500
1.285191 8.556600
1.318517 8.446600
1.351843 8.249600
1.385169 8.159000
1.418495 8.120300
1.451821 7.938800
1.485147 7.800000
1.518473 7.844200
1.551799 7.981100
1.585125 8.124700
1.618451 8.256000
1.651777 8.368000
1.685103 8.458200
1.718429 8.644200
1.751755 8.798200
1.751755 8.808100
1.783871 8.620500
1.815986 8.655800
1.848102 8.536700
1.880217 8.386200
1.912333 8.243400
1.944448 8.235800
1.976564 8.431300
2.008679 8.629000
2.040795 8.744000
2.072910 8.655200
2.105026 8.492400
2.137141 8.445000
2.169257 8.511200
2.201372 8.518100
2.233488 8.512100
2.265603 8.508300
2.297719 8.486700
2.329834 8.530700
2.361950 8.556400
2.394065 8.557600
2.426181 8.533500
2.458297 8.530400
2.458297 8.530000
2.490797 8.565100
2.523298 8.636900
2.555799 8.462700
2.588299 8.366300
2.620800 8.403900
2.653301 8.506900
2.653301 7.934800
2.686294 7.902900
2.719288 7.845500
2.752282 7.775400
2.785276 7.704000
2.818269 7.649900
2.851263 7.663400
2.884257 7.909100
2.917251 8.167800
2.950244 8.434100
2.983238 8.704100
3.016232 8.971300
3.049226 9.229100
3.082219 9.468700
3.115213 9.673900
3.148207 9.827000
3.181201 9.895900
3.214194 9.949000
3.247188 9.820900
3.280182 9.462000
3.313176 9.370600
3.313176 9.364400
3.345633 9.433600
3.378090 9.397000
3.410547 9.289800
3.443004 9.195300
3.475461 9.052600
3.507918 8.919200
3.540375 8.793100
3.572832 8.678700
3.605289 8.578300
3.637746 8.492000
3.670203 8.417100
3.702660 8.402600
3.735117 8.390500
3.767574 8.368900
3.800032 8.287200
3.832489 8.263300
3.864946 8.239700
3.897403 8.217600
3.929860 8.193200
3.962317 8.154000
3.994774 8.081300
4.027231 8.041400
4.059688 8.037800
4.059688 8.038000
4.092621 8.035800
4.125554 8.103000
4.158488 8.219000
4.191421 8.323700
4.224354 8.435800
4.257287 8.471300
4.290220 8.408600
4.323153 8.275900
4.356086 8.268200
4.389020 8.418700
4.421953 8.643600
4.454886 8.790200
4.487819 8.772800
4.520752 8.808000
4.553685 8.852300
4.586619 8.880900
4.619552 8.897300
4.652485 8.904800
4.685418 8.906300
4.718351 8.902300
4.751284 8.788800
4.784217 8.797200
4.784217 8.725300
4.816899 8.635500
4.849581 8.616200
4.882262 8.645500
4.914944 8.683100
4.947626 8.606500
4.980307 8.475100
5.012989 8.588300
5.045670 8.605800
5.078352 8.744400
5.111034 8.814000
5.143715 8.777300
5.176397 8.717900
5.209078 8.720800
5.241760 8.712900
5.274442 8.678300
5.307123 8.640600
5.339805 8.601300
5.372486 8.532800
5.405168 8.339100
5.437850 8.329900
5.470531 8.440300
5.503213 8.427000
5.535895 8.366800
5.568576 8.283700
5.601258 8.182500
5.633939 8.091100
5.666621 8.039700
5.699303 8.038400
e
0.000000 8.236100
0.031733 8.325700
0.063466 8.495800
0.095199 8.528500
0.126932 8.382200
0.158666 8.243100
0.190399 8.137800
0.222132 8.070600
0.253865 7.999700
0.285598 7.962100
0.317331 7.940400
0.349064 7.947900
0.349064 7.931600
0.380458 7.954000
0.411852 8.070900
0.443246 8.050400
0.474640 7.890600
0.506034 7.777100
0.537428 7.845300
0.568822 8.018600
0.600216 8.202000
0.631610 8.346300
0.663004 8.177300
0.694398 8.156200
0.725792 8.415300
0.757186 8.711700
0.788580 8.607600
0.819974 8.940900
0.851368 9.295300
0.882762 9.305800
0.882762 9.294500
0.910953 9.383900
0.939144 9.448100
0.967336 9.502400
0.995527 9.255400
1.023718 9.024200
1.051909 8.953200
1.051909 8.952600
1.085235 8.999000
1.118561 9.039300
1.151887 9.051300
1.185213 9.140000
1.218539 9.036000
1.251865 8.918300
1.285191 8.709300
1.318517 8.466600
1.351843 8.530500
1.385169 8.365800
1.418495 8.309000
1.451821 8.554900
1.485147 8.838200
1.518473 9.300200
1.551799 9.529000
1.585125 9.727800
1.618451 9.571000
1.651777 9.639200
1.685103 9.319800
1.718429 9.180200
1.751755 8.907800
1.751755 8.878200
1.783871 8.813900
1.815986 8.682800
1.848102 8.677500
1.880217 8.687900
1.912333 8.706300
1.944448 8.702100
1.976564 8.718800
2.008679 8.722300
2.040795 8.839600
2.072910 8.752800
2.105026 8.582700
2.137141 8.506000
2.169257 8.619400
2.201372 8.818900
2.233488 8.840300
2.265603 8.650200
2.297719 8.539600
2.329834 8.585100
2.361950 8.695400
2.394065 8.796300
2.426181 8.934200
2.458297 8.985600
2.458297 9.029100
2.490797 8.858100
2.523298 8.693200
2.555799 8.734100
2.588299 9.001300
2.620800 9.120300
2.653301 9.291100
2.653301 8.014800
2.686294 7.945600
2.719288 7.975500
2.752282 8.033500
2.785276 8.108300
2.818269 8.268200
2.851263 8.378000
2.884257 8.555000
2.917251 8.732000
2.950244 9.001900
2.983238 9.164100
3.016232 9.415300
3.049226 9.662200
3.082219 9.919500
3.115213 10.162300
3.148207 10.351400
3.181201 10.353200
3.214194 10.155800
3.247188 9.991500
3.280182 9.965500
3.313176 9.856300
3.313176 9.825200
3.345633 9.681200
3.378090 9.527300
3.410547 9.347100
3.443004 9.403800
3.475461 9.622600
3.507918 9.581200
3.540375 9.448100
3.572832 9.313900
3.605289 9.148300
3.637746 8.951500
3.670203 8.726700
3.702660 8.694000
3.735117 8.510500
3.767574 8.506100
3.800032 8.644300
3.832489 8.802700
3.864946 8.882500
3.897403 8.660000
3.929860 8.476100
3.962317 8.341100
3.994774 8.266100
4.027231 8.240800
4.059688 8.232500
4.059688 8.232800
4.092621 8.245900
4.125554 8.284500
4.158488 8.350400
4.191421 8.444600
4.224354 8.578500
4.257287 8.587800
4.290220 8.566000
4.323153 8.637200
4.356086 8.729400
4.389020 8.810200
4.421953 8.910200
4.454886 9.004100
4.487819 9.148700
4.520752 9.305100
4.553685 9.519000
4.586619 9.737400
4.619552 9.922200
4.652485 9.873800
4.685418 9.521000
4.718351 9.103000
4.751284 8.933200
4.784217 8.985100
4.784217 8.828900
4.816899 9.007500
4.849581 9.242600
4.882262 9.068100
4.914944 8.829700
4.947626 8.725200
4.980307 8.841400
5.012989 8.815700
5.045670 8.898800
5.078352 8.932400
5.111034 9.082500
5.143715 8.939500
5.176397 8.857700
5.209078 8.815100
5.241760 8.820600
5.274442 8.878800
5.307123 8.977800
5.339805 8.787200
5.372486 8.631100
5.405168 8.553200
5.437850 8.521100
5.470531 8.533500
5.503213 8.576900
5.535895 8.518800
5.568576 8.462200
5.601258 8.376800
5.633939 8.314800
5.666621 8.257700
5.699303 8.233000
e
