set title 'mp-568742 - Density of States'
set xlabel 'Energy (eV)'
set ylabel 'DOS (states/eV)'
set grid
set xrange [-10:10]
set yrange [0:1163.337]
set xzeroaxis lt -1
set terminal png size 800,600
set output 'mp-568742_dos_gnuplot.png'
plot '-' using 1:2 with lines title 'DOS'
-12.651600 0.000000
-12.639300 0.000000
-12.627100 0.000000
-12.614800 0.000000
-12.602500 0.000000
-12.590200 0.000000
-12.577900 0.000000
-12.565600 0.000000
-12.553300 0.000000
-12.541000 0.000000
-12.528700 0.000000
-12.516400 0.000000
-12.504100 0.000000
-12.491800 0.000000
-12.479500 0.000000
-12.467200 0.000000
-12.454900 0.000000
-12.442600 0.000000
-12.430300 0.000000
-12.418000 0.000000
-12.405700 0.000000
-12.393400 0.000000
-12.381100 0.000000
-12.368800 0.000000
-12.356500 0.000000
-12.344300 0.000000
-12.332000 0.000000
-12.319700 0.000000
-12.307400 0.000000
-12.295100 0.000000
-12.282800 0.000000
-12.270500 0.000000
-12.258200 0.000000
-12.245900 0.000000
-12.233600 0.000000
-12.221300 0.000000
-12.209000 0.000000
-12.196700 0.000000
-12.184400 0.000000
-12.172100 0.000000
-12.159800 0.000000
-12.147500 0.000000
-12.135200 0.000000
-12.122900 0.000000
-12.110600 0.000000
-12.098300 0.000000
-12.086000 0.000000
-12.073800 0.000000
-12.061500 0.000000
-12.049200 0.000000
-12.036900 0.000000
-12.024600 0.000000
-12.012300 0.000000
-12.000000 0.000000
-11.987700 0.000000
-11.975400 0.000000
-11.963100 0.000000
-11.950800 0.000000
-11.938500 0.000000
-11.926200 0.000000
-11.913900 0.000000
-11.901600 0.000000
-11.889300 0.000000
-11.877000 0.000000
-11.864700 0.000000
-11.852400 0.000000
-11.840100 0.000000
-11.827800 0.000000
-11.815500 0.000000
-11.803300 0.000000
-11.791000 0.000000
-11.778700 0.000000
-11.766400 0.000000
-11.754100 0.000000
-11.741800 0.000000
-11.729500 0.000000
-11.717200 0.000000
-11.704900 0.000000
-11.692600 0.000000
-11.680300 0.000000
-11.668000 0.000000
-11.655700 0.000000
-11.643400 0.000000
-11.631100 0.000000
-11.618800 0.000000
-11.606500 0.000000
-11.594200 0.000000
-11.581900 0.000000
-11.569600 0.000000
-11.557300 0.000000
-11.545000 0.000000
-11.532700 0.005700
-11.520500 0.825300
-11.508200 3.031800
-11.495900 6.625300
-11.483600 13.448800
-11.471300 24.537700
-11.459000 32.535800
-11.446700 37.094700
-11.434400 41.192200
-11.422100 38.901800
-11.409800 37.645500
-11.397500 37.671700
-11.385200 32.785200
-11.372900 15.551200
-11.360600 0.000000
-11.348300 1.160600
-11.336000 70.301600
-11.323700 117.603100
-11.311400 88.855200
-11.299100 20.495600
-11.286800 69.959300
-11.274500 86.042300
-11.262200 98.975900
-11.250000 136.202200
-11.237700 206.670000
-11.225400 37.468100
-11.213100 82.594200
-11.200800 165.424900
-11.188500 53.561300
-11.176200 374.295900
-11.163900 219.837000
-11.151600 35.197400
-11.139300 155.542300
-11.127000 46.409000
-11.114700 0.000000
-11.102400 0.000000
-11.090100 0.000000
-11.077800 0.000000
-11.065500 0.000000
-11.053200 0.000000
-11.040900 0.000000
-11.028600 0.000000
-11.016300 0.000000
-11.004000 0.000000
-10.991700 0.000000
-10.979400 0.000000
-10.967200 0.000000
-10.954900 0.000000
-10.942600 0.000000
-10.930300 0.000000
-10.918000 0.000000
-10.905700 0.000000
-10.893400 0.000000
-10.881100 0.000000
-10.868800 0.000000
-10.856500 0.000000
-10.844200 0.000000
-10.831900 0.000000
-10.819600 0.000000
-10.807300 0.000000
-10.795000 0.000000
-10.782700 0.000000
-10.770400 0.000000
-10.758100 0.000000
-10.745800 0.000000
-10.733500 0.000000
-10.721200 0.000000
-10.708900 0.000000
-10.696700 0.000000
-10.684400 0.000000
-10.672100 0.000000
-10.659800 0.000000
-10.647500 0.000000
-10.635200 0.000000
-10.622900 0.000000
-10.610600 0.000000
-10.598300 0.000000
-10.586000 0.000000
-10.573700 0.000000
-10.561400 0.000000
-10.549100 0.000000
-10.536800 0.000000
-10.524500 0.000000
-10.512200 0.000000
-10.499900 0.000000
-10.487600 0.000000
-10.475300 0.000000
-10.463000 0.000000
-10.450700 0.000000
-10.438400 0.000000
-10.426100 0.000000
-10.413900 0.000000
-10.401600 0.000000
-10.389300 0.000000
-10.377000 0.000000
-10.364700 0.000000
-10.352400 0.000000
-10.340100 0.000000
-10.327800 0.000000
-10.315500 0.000000
-10.303200 0.000000
-10.290900 0.000000
-10.278600 0.000000
-10.266300 0.000000
-10.254000 0.000000
-10.241700 0.000000
-10.229400 0.000000
-10.217100 0.000000
-10.204800 0.000000
-10.192500 0.000000
-10.180200 0.000000
-10.167900 0.000000
-10.155600 0.000000
-10.143400 0.000000
-10.131100 0.000000
-10.118800 0.000000
-10.106500 0.000000
-10.094200 0.000000
-10.081900 0.000000
-10.069600 0.000000
-10.057300 0.000000
-10.045000 0.000000
-10.032700 0.000000
-10.020400 0.000000
-10.008100 0.000000
-9.995800 0.000000
-9.983500 0.000000
-9.971200 0.000000
-9.958900 0.000000
-9.946600 0.000000
-9.934300 0.000000
-9.922000 0.000000
-9.909700 0.000000
-9.897400 0.000000
-9.885100 0.000000
-9.872800 0.000000
-9.860600 0.000000
-9.848300 0.000000
-9.836000 0.000000
-9.823700 0.000000
-9.811400 0.000000
-9.799100 0.000000
-9.786800 0.000000
-9.774500 0.000000
-9.762200 0.000000
-9.749900 0.000000
-9.737600 0.000000
-9.725300 0.000000
-9.713000 0.000000
-9.700700 0.000000
-9.688400 0.000000
-9.676100 0.000000
-9.663800 0.000000
-9.651500 0.000000
-9.639200 0.000000
-9.626900 0.000000
-9.614600 0.000000
-9.602300 0.000000
-9.590100 0.000000
-9.577800 0.000000
-9.565500 0.000000
-9.553200 0.000000
-9.540900 0.000000
-9.528600 0.000000
-9.516300 0.000000
-9.504000 0.000000
-9.491700 0.000000
-9.479400 0.000000
-9.467100 0.000000
-9.454800 0.000000
-9.442500 0.000000
-9.430200 0.000000
-9.417900 0.000000
-9.405600 0.000000
-9.393300 0.000000
-9.381000 0.000000
-9.368700 0.000000
-9.356400 0.000000
-9.344100 0.000000
-9.331800 0.000000
-9.319500 0.000000
-9.307300 0.000000
-9.295000 0.000000
-9.282700 0.000000
-9.270400 0.000000
-9.258100 0.000000
-9.245800 0.000000
-9.233500 0.000000
-9.221200 0.000000
-9.208900 0.000000
-9.196600 0.000000
-9.184300 0.000000
-9.172000 0.000000
-9.159700 0.000000
-9.147400 0.000000
-9.135100 0.000000
-9.122800 0.000000
-9.110500 0.000000
-9.098200 0.000000
-9.085900 0.000000
-9.073600 0.000000
-9.061300 0.000000
-9.049000 0.000000
-9.036800 0.000000
-9.024500 0.000000
-9.012200 0.000000
-8.999900 0.000000
-8.987600 0.000000
-8.975300 0.000000
-8.963000 0.000000
-8.950700 0.000000
-8.938400 0.000000
-8.926100 0.000000
-8.913800 0.000000
-8.901500 0.000000
-8.889200 0.000000
-8.876900 0.000000
-8.864600 0.000000
-8.852300 0.000000
-8.840000 0.000000
-8.827700 0.000000
-8.815400 0.000000
-8.803100 0.000000
-8.790800 0.000000
-8.778500 0.000000
-8.766200 0.000000
-8.754000 0.000000
-8.741700 0.000000
-8.729400 0.000000
-8.717100 0.000000
-8.704800 0.000000
-8.692500 0.000000
-8.680200 0.000000
-8.667900 0.000000
-8.655600 0.000000
-8.643300 0.000000
-8.631000 0.000000
-8.618700 0.000000
-8.606400 0.000000
-8.594100 0.000000
-8.581800 0.000000
-8.569500 0.000000
-8.557200 0.000000
-8.544900 0.000000
-8.532600 0.000000
-8.520300 0.000000
-8.508000 0.000000
-8.495700 0.000000
-8.483500 0.000000
-8.471200 0.000000
-8.458900 0.000000
-8.446600 0.000000
-8.434300 0.000000
-8.422000 0.000000
-8.409700 0.000000
-8.397400 0.000000
-8.385100 0.000000
-8.372800 0.000000
-8.360500 0.000000
-8.348200 0.000000
-8.335900 0.000000
-8.323600 0.000000
-8.311300 0.000000
-8.299000 0.000000
-8.286700 0.000000
-8.274400 0.000000
-8.262100 0.000000
-8.249800 0.000000
-8.237500 0.000000
-8.225200 0.000000
-8.212900 0.000000
-8.200700 0.000000
-8.188400 0.000000
-8.176100 0.000000
-8.163800 0.000000
-8.151500 0.000000
-8.139200 0.000000
-8.126900 0.000000
-8.114600 0.000000
-8.102300 0.000000
-8.090000 0.000000
-8.077700 0.000000
-8.065400 0.000000
-8.053100 0.000000
-8.040800 0.000000
-8.028500 0.000000
-8.016200 0.000000
-8.003900 0.000000
-7.991600 0.000000
-7.979300 0.000000
-7.967000 0.000000
-7.954700 0.000000
-7.942400 0.000000
-7.930200 0.000000
-7.917900 0.000000
-7.905600 0.000000
-7.893300 0.000000
-7.881000 0.000000
-7.868700 0.000000
-7.856400 0.000000
-7.844100 0.000000
-7.831800 0.000000
-7.819500 0.000000
-7.807200 0.000000
-7.794900 0.000000
-7.782600 0.000000
-7.770300 0.000000
-7.758000 0.000000
-7.745700 0.000000
-7.733400 0.000000
-7.721100 0.000000
-7.708800 0.000000
-7.696500 0.000000
-7.684200 0.000000
-7.671900 0.000000
-7.659600 0.000000
-7.647400 0.000000
-7.635100 0.000000
-7.622800 0.000000
-7.610500 0.000000
-7.598200 0.000000
-7.585900 0.000000
-7.573600 0.000000
-7.561300 0.000000
-7.549000 0.000000
-7.536700 0.000000
-7.524400 0.000000
-7.512100 0.000000
-7.499800 0.000000
-7.487500 0.000000
-7.475200 0.000000
-7.462900 0.000000
-7.450600 0.000000
-7.438300 0.000000
-7.426000 0.000000
-7.413700 0.000000
-7.401400 0.000000
-7.389100 0.000000
-7.376900 0.000000
-7.364600 0.000000
-7.352300 0.000000
-7.340000 0.000000
-7.327700 0.000000
-7.315400 0.000000
-7.303100 0.000000
-7.290800 0.000000
-7.278500 0.000000
-7.266200 0.000000
-7.253900 0.000000
-7.241600 0.000000
-7.229300 0.000000
-7.217000 0.000000
-7.204700 0.000000
-7.192400 0.000000
-7.180100 0.000000
-7.167800 0.000000
-7.155500 0.000000
-7.143200 0.000000
-7.130900 0.000000
-7.118600 0.000000
-7.106400 0.000000
-7.094100 0.000000
-7.081800 0.000000
-7.069500 0.000000
-7.057200 0.000000
-7.044900 0.000000
-7.032600 0.000000
-7.020300 0.000000
-7.008000 0.000000
-6.995700 0.000000
-6.983400 0.000000
-6.971100 0.000000
-6.958800 0.000000
-6.946500 0.000000
-6.934200 0.000000
-6.921900 0.000000
-6.909600 0.000000
-6.897300 0.000000
-6.885000 0.000000
-6.872700 0.000000
-6.860400 0.000000
-6.848100 0.000000
-6.835800 0.000000
-6.823600 0.000000
-6.811300 0.000000
-6.799000 0.000000
-6.786700 0.000000
-6.774400 0.000000
-6.762100 0.000000
-6.749800 0.000000
-6.737500 0.000000
-6.725200 0.000000
-6.712900 0.000000
-6.700600 0.000000
-6.688300 0.000000
-6.676000 0.000000
-6.663700 0.000000
-6.651400 0.000000
-6.639100 0.000000
-6.626800 0.000000
-6.614500 0.000000
-6.602200 0.000000
-6.589900 0.000000
-6.577600 0.000000
-6.565300 0.000000
-6.553100 0.000000
-6.540800 0.000000
-6.528500 0.000000
-6.516200 0.000000
-6.503900 0.000000
-6.491600 0.000000
-6.479300 0.000000
-6.467000 0.000000
-6.454700 0.000000
-6.442400 0.000000
-6.430100 0.000000
-6.417800 0.000000
-6.405500 0.000000
-6.393200 0.000000
-6.380900 0.000000
-6.368600 0.000000
-6.356300 0.000000
-6.344000 0.000000
-6.331700 0.000000
-6.319400 0.000000
-6.307100 0.000000
-6.294800 0.000000
-6.282500 0.000000
-6.270300 0.000000
-6.258000 0.000000
-6.245700 0.000000
-6.233400 0.000000
-6.221100 0.000000
-6.208800 0.000000
-6.196500 0.000000
-6.184200 0.000000
-6.171900 0.000000
-6.159600 0.000000
-6.147300 0.000000
-6.135000 0.000000
-6.122700 0.000000
-6.110400 0.000000
-6.098100 0.000000
-6.085800 0.000000
-6.073500 0.000000
-6.061200 0.000000
-6.048900 0.000000
-6.036600 0.000000
-6.024300 0.000000
-6.012000 0.000000
-5.999800 0.000000
-5.987500 0.000000
-5.975200 0.000000
-5.962900 0.000000
-5.950600 0.000000
-5.938300 0.000000
-5.926000 0.000000
-5.913700 0.000000
-5.901400 0.000000
-5.889100 0.000000
-5.876800 0.000000
-5.864500 0.000000
-5.852200 0.000000
-5.839900 0.000000
-5.827600 0.000000
-5.815300 0.000000
-5.803000 0.000000
-5.790700 218.804300
-5.778400 199.662000
-5.766100 0.000000
-5.753800 0.000000
-5.741500 0.000000
-5.729200 521.377500
-5.717000 593.849900
-5.704700 243.016300
-5.692400 0.000000
-5.680100 0.000000
-5.667800 0.000000
-5.655500 0.000000
-5.643200 51.896000
-5.630900 66.602100
-5.618600 78.776600
-5.606300 58.619700
-5.594000 29.662200
-5.581700 9.722400
-5.569400 2.001700
-5.557100 214.695300
-5.544800 187.031400
-5.532500 119.981100
-5.520200 0.000000
-5.507900 153.362100
-5.495600 256.697400
-5.483300 43.361300
-5.471000 214.663700
-5.458700 0.000000
-5.446500 0.000000
-5.434200 83.916100
-5.421900 175.167000
-5.409600 290.279800
-5.397300 389.882100
-5.385000 415.687400
-5.372700 1057.578800
-5.360400 0.000000
-5.348100 0.000000
-5.335800 0.000000
-5.323500 0.000000
-5.311200 0.000000
-5.298900 0.000000
-5.286600 0.000000
-5.274300 0.000000
-5.262000 0.000000
-5.249700 0.000000
-5.237400 0.000000
-5.225100 0.000000
-5.212800 0.000000
-5.200500 0.000000
-5.188200 0.000000
-5.175900 0.000000
-5.163700 0.000000
-5.151400 0.000000
-5.139100 0.000000
-5.126800 0.000000
-5.114500 0.000000
-5.102200 0.000000
-5.089900 0.000000
-5.077600 0.000000
-5.065300 0.000000
-5.053000 0.000000
-5.040700 0.000000
-5.028400 0.000000
-5.016100 0.000000
-5.003800 0.000000
-4.991500 0.000000
-4.979200 0.000000
-4.966900 0.000000
-4.954600 0.000000
-4.942300 0.000000
-4.930000 0.000000
-4.917700 0.000000
-4.905400 0.000000
-4.893200 0.000000
-4.880900 0.000000
-4.868600 0.000000
-4.856300 0.000000
-4.844000 0.000000
-4.831700 0.000000
-4.819400 0.000000
-4.807100 0.000000
-4.794800 0.000000
-4.782500 0.000000
-4.770200 0.000000
-4.757900 0.000000
-4.745600 0.000000
-4.733300 0.000000
-4.721000 0.000000
-4.708700 0.000000
-4.696400 0.000000
-4.684100 0.000000
-4.671800 0.000000
-4.659500 0.000000
-4.647200 0.000000
-4.634900 0.000000
-4.622600 0.000000
-4.610400 0.000000
-4.598100 0.000000
-4.585800 0.000000
-4.573500 0.000000
-4.561200 0.000000
-4.548900 0.000000
-4.536600 0.000000
-4.524300 0.000000
-4.512000 0.000000
-4.499700 0.000000
-4.487400 0.000000
-4.475100 0.000000
-4.462800 0.000000
-4.450500 0.000000
-4.438200 0.000000
-4.425900 0.000000
-4.413600 0.000000
-4.401300 0.000000
-4.389000 0.000000
-4.376700 0.000000
-4.364400 0.000000
-4.352100 0.000000
-4.339900 0.000000
-4.327600 0.000000
-4.315300 0.000000
-4.303000 0.000000
-4.290700 0.000000
-4.278400 0.000000
-4.266100 0.000000
-4.253800 0.000000
-4.241500 0.000000
-4.229200 0.000000
-4.216900 0.000000
-4.204600 0.000000
-4.192300 0.000000
-4.180000 0.000000
-4.167700 0.000000
-4.155400 0.000000
-4.143100 0.000000
-4.130800 0.000000
-4.118500 0.000000
-4.106200 0.000000
-4.093900 0.000000
-4.081600 0.000000
-4.069300 0.000000
-4.057100 0.000000
-4.044800 0.000000
-4.032500 0.000000
-4.020200 2.080000
-4.007900 8.301000
-3.995600 14.781100
-3.983300 21.340600
-3.971000 38.690800
-3.958700 37.063000
-3.946400 37.348400
-3.934100 85.241600
-3.921800 68.833300
-3.909500 37.041000
-3.897200 14.197400
-3.884900 15.056200
-3.872600 15.244400
-3.860300 15.439300
-3.848000 15.640700
-3.835700 15.848700
-3.823400 20.358500
-3.811100 19.344900
-3.798800 18.343100
-3.786600 17.353000
-3.774300 16.374600
-3.762000 15.407900
-3.749700 14.452900
-3.737400 17.079900
-3.725100 15.421200
-3.712800 18.694000
-3.700500 22.797500
-3.688200 27.008000
-3.675900 34.536100
-3.663600 42.417500
-3.651300 43.938800
-3.639000 42.441400
-3.626700 51.581200
-3.614400 40.337500
-3.602100 29.412100
-3.589800 19.298500
-3.577500 9.413700
-3.565200 0.000000
-3.552900 0.000000
-3.540600 0.000000
-3.528300 0.000000
-3.516000 0.000000
-3.503800 0.000000
-3.491500 0.000000
-3.479200 0.000000
-3.466900 0.000000
-3.454600 0.000000
-3.442300 0.000000
-3.430000 0.000000
-3.417700 0.000000
-3.405400 0.000000
-3.393100 0.000200
-3.380800 0.145000
-3.368500 0.557700
-3.356200 1.238300
-3.343900 2.186800
-3.331600 3.403200
-3.319300 4.887500
-3.307000 6.639700
-3.294700 18.521700
-3.282400 34.980100
-3.270100 36.632100
-3.257800 36.108800
-3.245500 33.310900
-3.233300 31.093300
-3.221000 40.542200
-3.208700 38.344000
-3.196400 24.918400
-3.184100 15.736000
-3.171800 5.367500
-3.159500 1.115600
-3.147200 0.000000
-3.134900 0.000000
-3.122600 0.000000
-3.110300 0.000000
-3.098000 0.000000
-3.085700 0.000000
-3.073400 0.000000
-3.061100 0.000000
-3.048800 0.000000
-3.036500 0.000000
-3.024200 0.000000
-3.011900 0.000000
-2.999600 0.000000
-2.987300 0.000000
-2.975000 0.000000
-2.962700 0.000000
-2.950500 0.000000
-2.938200 0.000000
-2.925900 0.000000
-2.913600 0.000000
-2.901300 0.000000
-2.889000 0.000000
-2.876700 0.000000
-2.864400 0.000000
-2.852100 0.000000
-2.839800 0.000000
-2.827500 0.000000
-2.815200 0.000000
-2.802900 0.000000
-2.790600 0.000000
-2.778300 0.000000
-2.766000 0.000000
-2.753700 0.000000
-2.741400 0.000000
-2.729100 0.000000
-2.716800 0.000000
-2.704500 0.000000
-2.692200 0.000000
-2.680000 0.000000
-2.667700 0.000000
-2.655400 0.000000
-2.643100 0.000000
-2.630800 0.000000
-2.618500 0.000000
-2.606200 0.000000
-2.593900 0.000000
-2.581600 0.000000
-2.569300 0.000000
-2.557000 0.000000
-2.544700 0.000000
-2.532400 0.000000
-2.520100 0.000000
-2.507800 0.000000
-2.495500 0.000000
-2.483200 0.000000
-2.470900 0.000000
-2.458600 0.000000
-2.446300 0.000000
-2.434000 0.000000
-2.421700 0.000000
-2.409500 0.000000
-2.397200 0.000000
-2.384900 0.000000
-2.372600 0.000000
-2.360300 0.000000
-2.348000 0.000000
-2.335700 0.000000
-2.323400 0.000000
-2.311100 0.000000
-2.298800 0.000000
-2.286500 0.000000
-2.274200 0.000000
-2.261900 0.000000
-2.249600 0.000000
-2.237300 0.000000
-2.225000 0.000000
-2.212700 0.000000
-2.200400 0.000000
-2.188100 0.000000
-2.175800 0.000000
-2.163500 0.000000
-2.151200 0.000000
-2.138900 0.000000
-2.126700 0.000000
-2.114400 0.000000
-2.102100 0.000000
-2.089800 0.000000
-2.077500 0.000000
-2.065200 0.000000
-2.052900 0.000000
-2.040600 0.000000
-2.028300 0.000000
-2.016000 0.000000
-2.003700 0.000000
-1.991400 0.000000
-1.979100 0.000000
-1.966800 0.000000
-1.954500 0.000000
-1.942200 0.000000
-1.929900 0.000000
-1.917600 0.000000
-1.905300 0.000000
-1.893000 0.000000
-1.880700 0.000000
-1.868400 0.000000
-1.856200 0.000000
-1.843900 0.000000
-1.831600 0.000000
-1.819300 0.000000
-1.807000 0.000000
-1.794700 0.000000
-1.782400 46.933600
-1.770100 51.669100
-1.757800 40.165100
-1.745500 19.084100
-1.733200 22.828900
-1.720900 26.202400
-1.708600 27.320600
-1.696300 27.263500
-1.684000 26.657600
-1.671700 26.374700
-1.659400 21.674700
-1.647100 26.760100
-1.634800 48.019200
-1.622500 108.500200
-1.610200 89.325600
-1.597900 39.053400
-1.585600 19.224000
-1.573400 7.124800
-1.561100 9.159100
-1.548800 32.311300
-1.536500 63.480800
-1.524200 62.750300
-1.511900 59.892500
-1.499600 52.641200
-1.487300 24.272200
-1.475000 3.457400
-1.462700 22.091500
-1.450400 27.995300
-1.438100 23.917800
-1.425800 21.579100
-1.413500 18.839900
-1.401200 15.769800
-1.388900 15.692300
-1.376600 20.436800
-1.364300 41.222700
-1.352000 40.150700
-1.339700 44.745200
-1.327400 45.348400
-1.315100 39.087400
-1.302900 33.168300
-1.290600 27.591000
-1.278300 19.104600
-1.266000 59.830900
-1.253700 76.265800
-1.241400 74.827400
-1.229100 69.132900
-1.216800 49.903300
-1.204500 29.773800
-1.192200 18.126400
-1.179900 18.481600
-1.167600 18.079400
-1.155300 38.149900
-1.143000 47.979300
-1.130700 52.323400
-1.118400 51.916800
-1.106100 28.134400
-1.093800 29.494900
-1.081500 31.151400
-1.069200 32.001900
-1.056900 31.243400
-1.044600 28.452500
-1.032300 26.699700
-1.020100 25.390300
-1.007800 25.660200
-0.995500 29.189600
-0.983200 29.873400
-0.970900 29.234700
-0.958600 29.945300
-0.946300 30.447200
-0.934000 30.195800
-0.921700 27.167900
-0.909400 24.212200
-0.897100 23.525500
-0.884800 27.604200
-0.872500 27.367700
-0.860200 30.482400
-0.847900 36.779200
-0.835600 53.134700
-0.823300 66.605600
-0.811000 33.054300
-0.798700 41.337800
-0.786400 49.161600
-0.774100 51.031900
-0.761800 51.517700
-0.749600 118.418800
-0.737300 50.448500
-0.725000 60.756900
-0.712700 69.746300
-0.700400 74.665900
-0.688100 74.214800
-0.675800 51.730800
-0.663500 26.342300
-0.651200 21.959400
-0.638900 75.416000
-0.626600 50.449900
-0.614300 48.484800
-0.602000 48.378300
-0.589700 50.649500
-0.577400 51.404000
-0.565100 68.467100
-0.552800 55.829300
-0.540500 48.262400
-0.528200 43.283200
-0.515900 42.401500
-0.503600 37.253800
-0.491300 34.428700
-0.479000 33.968200
-0.466800 57.301600
-0.454500 39.594600
-0.442200 38.405100
-0.429900 36.912300
-0.417600 35.116200
-0.405300 33.016700
-0.393000 30.619600
-0.380700 71.842900
-0.368400 72.319400
-0.356100 69.189900
-0.343800 56.787100
-0.331500 47.820600
-0.319200 51.817300
-0.306900 33.272700
-0.294600 59.582700
-0.282300 53.384900
-0.270000 51.262300
-0.257700 55.178500
-0.245400 65.181700
-0.233100 67.648100
-0.220800 71.934500
-0.208500 48.097300
-0.196300 47.578300
-0.184000 49.061900
-0.171700 49.174800
-0.159400 48.598600
-0.147100 47.368500
-0.134800 49.797400
-0.122500 46.616800
-0.110200 61.856000
-0.097900 54.723400
-0.085600 48.690200
-0.073300 37.567300
-0.061000 32.044300
-0.048700 27.658600
-0.036400 22.675300
-0.024100 20.779500
-0.011800 18.909600
0.000500 20.155500
0.012800 20.251300
0.025100 19.935100
0.037400 19.636200
0.049700 26.562700
0.062000 30.352500
0.074300 34.155700
0.086500 29.918300
0.098800 32.233800
0.111100 34.998100
0.123400 33.841600
0.135700 22.982600
0.148000 21.155200
0.160300 20.052900
0.172600 20.243400
0.184900 15.589100
0.197200 11.316100
0.209500 7.424600
0.221800 3.183700
0.234100 0.263400
0.246400 0.000000
0.258700 0.000000
0.271000 0.000000
0.283300 0.000000
0.295600 0.000000
0.307900 0.000000
0.320200 0.000000
0.332500 0.000000
0.344800 0.000000
0.357000 0.000000
0.369300 0.000000
0.381600 0.000000
0.393900 0.000000
0.406200 0.000000
0.418500 0.000000
0.430800 0.000000
0.443100 0.000000
0.455400 0.000000
0.467700 0.000000
0.480000 0.000000
0.492300 0.000000
0.504600 0.000000
0.516900 0.000000
0.529200 0.000000
0.541500 0.000000
0.553800 0.000000
0.566100 0.000000
0.578400 0.000000
0.590700 0.000000
0.603000 0.000000
0.615300 0.000000
0.627600 0.000000
0.639800 0.000000
0.652100 0.000000
0.664400 0.000000
0.676700 0.000000
0.689000 0.000000
0.701300 0.000000
0.713600 0.000000
0.725900 0.000000
0.738200 0.000000
0.750500 0.000000
0.762800 0.000000
0.775100 0.000000
0.787400 0.000000
0.799700 0.000000
0.812000 0.000000
0.824300 0.000000
0.836600 0.000000
0.848900 0.000000
0.861200 0.000000
0.873500 0.000000
0.885800 0.000000
0.898100 0.000000
0.910300 0.000000
0.922600 0.000000
0.934900 0.000000
0.947200 0.000000
0.959500 0.000000
0.971800 0.000000
0.984100 0.000000
0.996400 0.000000
1.008700 0.000000
1.021000 0.000000
1.033300 0.000000
1.045600 0.000000
1.057900 0.000000
1.070200 0.000000
1.082500 0.000000
1.094800 0.000000
1.107100 0.000000
1.119400 0.000000
1.131700 0.000000
1.144000 0.000000
1.156300 0.000000
1.168600 0.000000
1.180900 0.000000
1.193100 0.000000
1.205400 0.000000
1.217700 0.000000
1.230000 0.000000
1.242300 0.000000
1.254600 0.000000
1.266900 0.000000
1.279200 0.000000
1.291500 0.000000
1.303800 0.000000
1.316100 0.000000
1.328400 0.000000
1.340700 0.000000
1.353000 0.000000
1.365300 0.000000
1.377600 0.000000
1.389900 0.000000
1.402200 0.000000
1.414500 0.000000
1.426800 0.000000
1.439100 0.000000
1.451400 0.000000
1.463600 0.000000
1.475900 0.000000
1.488200 0.000000
1.500500 0.000000
1.512800 0.000000
1.525100 0.000000
1.537400 0.000000
1.549700 0.000000
1.562000 0.000000
1.574300 0.000000
1.586600 0.000000
1.598900 0.000000
1.611200 0.000000
1.623500 0.000300
1.635800 0.003000
1.648100 0.008800
1.660400 0.017500
1.672700 0.029200
1.685000 0.043900
1.697300 0.061600
1.709600 0.082400
1.721900 0.106100
1.734200 0.132700
1.746400 0.162400
1.758700 0.195100
1.771000 0.230800
1.783300 0.269400
1.795600 0.311100
1.807900 0.355700
1.820200 0.403400
1.832500 0.454000
1.844800 0.507700
1.857100 0.564300
1.869400 0.623900
1.881700 0.686500
1.894000 0.752100
1.906300 0.820700
1.918600 0.892300
1.930900 0.966900
1.943200 1.044400
1.955500 1.125000
1.967800 1.208600
1.980100 1.295100
1.992400 1.384700
2.004700 1.477200
2.016900 1.584600
2.029200 1.845200
2.041500 2.298900
2.053800 2.945700
2.066100 3.975400
2.078400 5.283600
2.090700 6.041400
2.103000 6.248600
2.115300 6.444800
2.127600 6.703000
2.139900 7.000500
2.152200 7.337500
2.164500 7.748000
2.176800 8.411800
2.189100 9.001200
2.201400 9.514900
2.213700 9.952900
2.226000 10.315100
2.238300 10.601700
2.250600 10.812500
2.262900 10.947600
2.275200 10.972600
2.287400 10.843700
2.299700 10.729000
2.312000 10.628400
2.324300 10.541900
2.336600 10.469500
2.348900 10.411100
2.361200 10.366900
2.373500 10.336800
2.385800 10.650800
2.398100 11.915100
2.410400 12.629900
2.422700 19.582900
2.435000 19.072000
2.447300 18.659700
2.459600 16.184800
2.471900 16.000100
2.484200 15.905500
2.496500 10.326600
2.508800 10.527600
2.521100 10.913700
2.533400 12.425900
2.545700 15.036200
2.558000 17.321000
2.570200 19.802400
2.582500 22.463800
2.594800 24.112500
2.607100 24.015400
2.619400 24.264700
2.631700 29.387800
2.644000 28.995100
2.656300 31.590500
2.668600 48.292800
2.680900 22.121200
2.693200 22.440900
2.705500 22.780400
2.717800 23.139800
2.730100 23.519000
2.742400 27.878600
2.754700 36.619800
2.767000 39.406300
2.779300 38.695400
2.791600 34.606000
2.803900 29.609600
2.816200 31.922500
2.828500 28.169000
2.840700 24.680600
2.853000 21.457100
2.865300 16.797500
2.877600 16.010100
2.889900 15.222800
2.902200 14.435500
2.914500 13.648300
2.926800 12.861000
2.939100 12.073700
2.951400 29.059600
2.963700 49.030000
2.976000 0.000000
2.988300 0.000000
3.000600 0.000000
3.012900 0.000000
3.025200 0.000000
3.037500 0.000000
3.049800 0.000000
3.062100 0.000000
3.074400 0.000000
3.086700 0.000000
3.099000 0.000000
3.111300 0.000000
3.123500 0.000000
3.135800 0.000000
3.148100 0.000000
3.160400 0.000000
3.172700 0.000000
3.185000 0.000000
3.197300 0.000000
3.209600 0.000000
3.221900 0.000000
3.234200 0.000000
3.246500 0.000000
3.258800 0.000000
3.271100 0.000000
3.283400 0.000000
3.295700 0.000000
3.308000 0.000000
3.320300 0.000000
3.332600 0.000000
3.344900 0.000000
3.357200 0.000000
3.369500 0.000000
3.381800 0.000000
3.394000 0.000000
3.406300 0.000000
3.418600 0.000000
3.430900 0.000000
3.443200 0.000000
3.455500 0.000000
3.467800 0.000000
3.480100 0.000000
3.492400 0.000000
3.504700 0.000000
3.517000 0.000000
3.529300 0.000000
3.541600 0.000000
3.553900 0.000000
3.566200 0.000000
3.578500 0.000000
3.590800 0.000000
3.603100 0.000000
3.615400 0.000000
3.627700 0.000000
3.640000 0.000000
3.652300 0.000000
3.664600 0.000000
3.676800 0.000000
3.689100 0.000000
3.701400 0.000000
3.713700 0.000000
3.726000 0.000000
3.738300 0.000000
3.750600 0.000000
3.762900 0.000000
3.775200 0.000000
3.787500 0.000000
3.799800 0.000000
3.812100 0.000000
3.824400 0.000000
3.836700 0.000000
3.849000 0.000000
3.861300 0.000000
3.873600 0.000000
3.885900 0.000000
3.898200 0.000000
3.910500 0.000000
3.922800 0.000000
3.935100 0.000000
3.947300 0.000000
3.959600 0.000000
3.971900 0.000000
3.984200 0.000000
3.996500 0.000000
4.008800 0.000000
4.021100 0.000000
4.033400 0.000000
4.045700 0.000000
4.058000 0.000000
4.070300 0.000000
4.082600 0.000000
4.094900 0.000000
4.107200 0.000000
4.119500 0.000000
4.131800 0.000000
4.144100 0.000000
4.156400 0.000000
4.168700 0.000000
4.181000 0.000000
4.193300 0.000000
4.205600 0.000000
4.217900 0.000000
4.230100 0.000000
4.242400 0.000000
4.254700 0.000000
4.267000 0.000000
4.279300 0.000000
4.291600 0.000000
4.303900 0.000000
4.316200 0.000000
4.328500 0.000000
4.340800 0.000000
4.353100 0.000000
4.365400 0.000000
4.377700 0.000000
4.390000 0.000000
4.402300 0.000000
4.414600 0.000000
4.426900 0.000000
4.439200 0.000000
4.451500 0.000000
4.463800 0.000000
4.476100 0.000000
4.488400 0.000000
4.500600 0.000000
4.512900 0.000000
4.525200 0.000000
4.537500 0.003400
4.549800 0.014400
4.562100 0.033000
4.574400 0.059300
4.586700 0.093100
4.599000 0.134500
4.611300 0.183500
4.623600 0.240100
4.635900 0.304400
4.648200 0.376200
4.660500 0.455600
4.672800 0.542700
4.685100 0.637300
4.697400 0.739500
4.709700 0.849400
4.722000 0.966800
4.734300 1.105200
4.746600 1.303300
4.758900 1.556800
4.771200 1.820600
4.783400 2.086800
4.795700 2.355100
4.808000 2.625700
4.820300 2.898500
4.832600 3.177300
4.844900 3.467400
4.857200 3.768800
4.869500 4.081600
4.881800 4.741100
4.894100 5.927300
4.906400 7.041300
4.918700 8.087800
4.931000 9.073600
4.943300 9.998800
4.955600 10.863400
4.967900 11.667400
4.980200 12.410700
4.992500 13.093500
5.004800 13.783100
5.017100 13.479000
5.029400 14.147000
5.041700 14.802700
5.053900 15.446100
5.066200 16.082400
5.078500 16.714500
5.090800 17.342600
5.103100 17.966700
5.115400 17.823100
5.127700 17.734500
5.140000 17.581200
5.152300 17.363000
5.164600 18.823400
5.176900 17.334300
5.189200 15.888400
5.201500 14.513900
5.213800 13.439800
5.226100 9.533300
5.238400 9.740100
5.250700 9.930200
5.263000 10.105300
5.275300 10.386400
5.287600 10.845600
5.299900 11.482600
5.312200 12.297700
5.324500 13.290700
5.336700 14.221700
5.349000 15.044600
5.361300 17.335000
5.373600 17.656300
5.385900 17.830200
5.398200 17.879200
5.410500 17.819100
5.422800 17.649800
5.435100 17.358800
5.447400 17.015000
5.459700 16.742100
5.472000 16.540100
5.484300 16.783100
5.496600 19.092200
5.508900 19.421100
5.521200 19.900600
5.533500 20.326400
5.545800 20.682400
5.558100 17.875000
5.570400 18.795500
5.582700 19.611400
5.595000 20.322500
5.607200 26.148400
5.619500 25.494800
5.631800 26.550200
5.644100 28.456700
5.656400 22.472400
5.668700 17.184600
5.681000 8.532900
5.693300 8.899900
5.705600 9.247900
5.717900 9.576800
5.730200 9.886700
5.742500 20.411900
5.754800 29.059200
5.767100 38.057200
5.779400 33.000300
5.791700 21.694200
5.804000 15.568200
5.816300 12.484800
5.828600 9.187000
5.840900 5.674700
5.853200 2.121900
5.865500 42.880100
5.877800 54.956500
5.890000 25.395000
5.902300 14.169700
5.914600 17.176200
5.926900 20.306900
5.939200 20.991100
5.951500 19.250900
5.963800 18.358800
5.976100 17.539800
5.988400 16.736700
6.000700 15.949500
6.013000 15.178100
6.025300 14.422600
6.037600 13.682900
6.049900 12.959100
6.062200 11.951800
6.074500 12.345800
6.086800 12.841200
6.099100 13.437900
6.111400 19.691400
6.123700 21.327300
6.136000 22.501300
6.148300 14.325000
6.160500 15.408800
6.172800 19.552800
6.185100 16.049300
6.197400 17.224800
6.209700 18.398200
6.222000 19.569200
6.234300 20.737900
6.246600 28.035600
6.258900 14.112400
6.271200 6.552200
6.283500 5.220400
6.295800 4.044700
6.308100 197.242800
6.320400 29.095600
6.332700 27.172400
6.345000 25.959100
6.357300 29.357100
6.369600 31.691500
6.381900 32.203300
6.394200 29.373900
6.406500 26.611700
6.418800 23.905000
6.431100 21.287800
6.443300 17.854600
6.455600 16.664300
6.467900 24.197900
6.480200 21.910100
6.492500 19.521800
6.504800 14.659000
6.517100 17.104600
6.529400 14.257900
6.541700 15.394400
6.554000 17.151300
6.566300 28.805300
6.578600 34.682000
6.590900 33.797600
6.603200 32.983600
6.615500 32.270600
6.627800 31.669800
6.640100 31.181000
6.652400 23.879100
6.664700 20.656400
6.677000 17.279600
6.689300 14.020600
6.701600 12.994700
6.713800 13.223700
6.726100 13.462900
6.738400 12.766100
6.750700 11.957000
6.763000 11.035500
6.775300 10.001700
6.787600 8.706300
6.799900 6.320300
6.812200 63.357700
6.824500 63.249300
6.836800 34.864400
6.849100 21.991200
6.861400 37.344700
6.873700 26.443900
6.886000 16.029500
6.898300 13.469700
6.910600 13.330600
6.922900 21.099900
6.935200 31.428400
6.947500 47.781000
6.959800 47.358300
6.972100 43.196200
6.984300 34.863100
6.996600 23.223100
7.008900 16.335900
7.021200 17.631200
7.033500 18.486900
7.045800 19.200100
7.058100 20.312500
7.070400 22.334900
7.082700 25.309300
7.095000 24.454700
7.107300 24.384500
7.119600 24.582700
7.131900 28.874600
7.144200 30.656700
7.156500 38.231700
7.168800 37.925400
7.181100 37.130200
7.193400 21.818900
7.205700 15.945100
7.218000 15.473600
7.230300 15.004800
7.242600 14.538600
7.254900 14.075000
7.267100 13.614000
7.279400 13.157200
7.291700 14.404500
7.304000 13.656400
7.316300 13.728500
7.328600 14.026000
7.340900 14.341300
7.353200 24.114000
7.365500 35.530300
7.377800 34.717300
7.390100 33.663900
7.402400 24.093700
7.414700 18.396300
7.427000 12.496700
7.439300 8.825800
7.451600 6.483300
7.463900 7.784000
7.476200 9.029600
7.488500 10.220200
7.500800 11.355700
7.513100 12.436200
7.525400 13.781500
7.537600 15.776600
7.549900 17.593400
7.562200 19.232000
7.574500 20.692400
7.586800 24.104800
7.599100 24.220900
7.611400 24.275700
7.623700 27.081100
7.636000 25.127100
7.648300 22.113300
7.660600 19.506200
7.672900 20.026500
7.685200 20.848300
7.697500 21.051200
7.709800 16.316700
7.722100 17.038100
7.734400 17.778900
7.746700 18.538900
7.759000 19.318300
7.771300 25.187200
7.783600 32.450200
7.795900 39.710100
7.808200 43.074200
7.820400 44.610900
7.832700 36.205600
7.845000 28.680100
7.857300 17.685900
7.869600 16.961800
7.881900 17.838000
7.894200 20.470900
7.906500 28.989800
7.918800 25.847600
7.931100 22.833800
7.943400 14.746600
7.955700 14.334700
7.968000 13.689800
7.980300 12.811700
7.992600 11.700700
8.004900 10.356600
8.017200 2.547200
8.029500 15.140100
8.041800 23.314300
8.054100 22.985000
8.066400 22.613000
8.078700 22.198300
8.090900 20.090600
8.103200 90.553900
8.115500 58.022000
8.127800 21.503200
8.140100 26.205200
8.152400 29.307200
8.164700 31.607800
8.177000 33.777300
8.189300 35.743200
8.201600 34.898700
8.213900 31.252600
8.226200 29.729200
8.238500 30.792200
8.250800 32.284700
8.263100 36.645800
8.275400 41.152100
8.287700 46.596000
8.300000 40.053100
8.312300 11.584800
8.324600 13.635500
8.336900 16.687000
8.349200 20.739300
8.361500 25.792300
8.373700 30.572400
8.386000 41.764600
8.398300 15.537800
8.410600 26.163000
8.422900 35.062900
8.435200 45.275200
8.447500 50.785400
8.459800 40.164900
8.472100 26.054000
8.484400 27.325200
8.496700 30.784200
8.509000 34.427800
8.521300 31.382500
8.533600 28.985600
8.545900 28.693700
8.558200 31.096500
8.570500 35.009100
8.582800 27.448000
8.595100 24.570100
8.607400 25.468100
8.619700 27.553000
8.632000 29.862600
8.644200 32.397100
8.656500 35.156400
8.668800 28.832000
8.681100 27.694800
8.693400 26.457600
8.705700 25.120600
8.718000 23.683600
8.730300 22.725600
8.742600 20.480600
8.754900 20.031200
8.767200 18.536500
8.779500 15.987100
8.791800 22.082000
8.804100 26.820100
8.816400 26.732300
8.828700 26.380300
8.841000 25.643200
8.853300 25.547900
8.865600 25.525500
8.877900 25.512500
8.890200 25.488500
8.902500 22.605300
8.914800 19.405500
8.927000 15.622200
8.939300 15.033500
8.951600 17.544700
8.963900 18.937400
8.976200 21.537100
8.988500 35.292700
9.000800 32.864600
9.013100 34.394500
9.025400 33.273400
9.037700 31.862400
9.050000 30.158100
9.062300 24.398700
9.074600 29.741600
9.086900 29.722300
9.099200 29.779300
9.111500 29.910700
9.123800 30.174200
9.136100 26.902300
9.148400 26.313400
9.160700 25.968700
9.173000 23.743300
9.185300 22.666500
9.197500 21.531300
9.209800 18.949200
9.222100 18.088800
9.234400 17.864200
9.246700 17.658700
9.259000 17.451100
9.271300 17.241500
9.283600 17.029900
9.295900 13.917700
9.308200 14.093000
9.320500 14.288700
9.332800 14.503800
9.345100 14.744700
9.357400 16.148600
9.369700 16.663100
9.382000 17.235300
9.394300 19.284500
9.406600 20.217200
9.418900 19.247700
9.431200 20.110500
9.443500 21.813200
9.455800 22.750200
9.468100 24.620300
9.480300 25.665100
9.492600 26.702500
9.504900 28.679400
9.517200 29.848700
9.529500 31.195400
9.541800 32.463700
9.554100 32.736300
9.566400 29.470200
9.578700 28.898200
9.591000 28.969700
9.603300 29.902300
9.615600 30.225900
9.627900 30.850900
9.640200 30.075100
9.652500 31.891700
9.664800 33.767500
9.677100 37.389300
9.689400 39.917300
9.701700 42.916100
9.714000 43.488000
9.726300 36.371000
9.738600 35.577700
9.750800 29.773200
9.763100 28.440700
9.775400 30.017100
9.787700 31.565700
9.800000 33.087200
9.812300 34.717700
9.824600 36.562100
9.836900 38.620600
9.849200 40.607000
9.861500 38.530800
9.873800 35.061900
9.886100 33.761600
9.898400 29.192400
9.910700 28.115400
9.923000 28.495000
9.935300 28.424800
9.947600 27.775900
9.959900 26.080200
9.972200 24.557400
9.984500 23.586100
9.996800 23.550000
10.009100 24.317400
10.021400 22.905100
10.033600 23.907100
10.045900 26.905800
10.058200 28.470900
10.070500 22.333500
10.082800 22.538600
10.095100 21.606100
10.107400 19.618300
10.119700 17.172600
10.132000 16.825300
10.144300 18.182300
10.156600 18.330100
10.168900 18.612800
10.181200 19.030200
10.193500 16.113100
10.205800 15.937200
10.218100 15.403700
10.230400 14.953900
10.242700 14.550100
10.255000 14.124000
10.267300 14.202700
10.279600 13.651100
10.291900 13.849500
10.304100 12.436500
10.316400 12.447100
10.328700 12.472800
10.341000 12.513700
10.353300 12.569600
10.365600 12.640800
10.377900 12.633800
10.390200 12.319700
10.402500 11.948600
10.414800 11.565100
10.427100 11.190300
10.439400 10.819300
10.451700 10.364100
10.464000 9.676800
10.476300 8.869000
10.488600 8.082400
10.500900 7.543500
10.513200 6.953900
10.525500 6.313400
10.537800 5.622100
10.550100 4.880000
10.562400 4.087000
10.574700 3.589600
10.586900 3.181800
10.599200 2.836900
10.611500 2.524000
10.623800 2.229500
10.636100 1.953300
10.648400 1.695300
10.660700 1.455700
10.673000 1.234300
10.685300 1.031200
10.697600 0.846500
10.709900 0.680000
10.722200 0.531800
10.734500 0.401900
10.746800 0.290200
10.759100 0.196900
10.771400 0.121900
10.783700 0.065100
10.796000 0.026700
10.808300 0.006500
10.820600 0.000000
10.832900 0.000000
10.845200 0.000000
10.857400 0.000000
10.869700 0.000000
10.882000 0.000000
10.894300 0.000000
10.906600 0.000000
10.918900 0.000000
10.931200 0.000000
10.943500 0.000000
10.955800 0.000000
10.968100 0.000000
10.980400 0.000000
10.992700 0.000000
11.005000 0.000000
11.017300 0.000000
11.029600 0.000000
11.041900 0.000000
11.054200 0.000000
11.066500 0.000000
11.078800 0.000000
11.091100 0.000000
11.103400 0.000000
11.115700 0.000000
11.128000 0.000000
11.140200 0.000000
11.152500 0.000000
11.164800 0.000000
11.177100 0.000000
11.189400 0.000000
11.201700 0.000000
11.214000 0.000000
11.226300 0.000000
11.238600 0.000000
11.250900 0.000000
11.263200 0.000000
11.275500 0.000000
11.287800 0.000000
11.300100 0.000000
11.312400 0.000000
11.324700 0.000000
11.337000 0.000000
11.349300 0.000000
11.361600 0.000000
11.373900 0.000000
11.386200 0.000000
11.398500 0.000000
11.410700 0.000000
11.423000 0.000000
11.435300 0.000000
11.447600 0.000000
11.459900 0.000000
11.472200 0.000000
11.484500 0.000000
11.496800 0.000000
11.509100 0.000000
11.521400 0.000000
11.533700 0.000000
11.546000 0.000000
11.558300 0.000000
11.570600 0.000000
11.582900 0.000000
11.595200 0.000000
11.607500 0.000000
11.619800 0.000000
11.632100 0.000000
11.644400 0.000000
11.656700 0.000000
11.669000 0.000000
11.681200 0.000000
11.693500 0.000000
11.705800 0.000000
11.718100 0.000000
11.730400 0.000000
11.742700 0.000000
11.755000 0.000000
11.767300 0.000000
11.779600 0.000000
11.791900 0.000000
11.804200 0.000000
11.816500 0.000000
11.828800 0.000000
11.841100 0.000000
11.853400 0.000000
11.865700 0.000000
11.878000 0.000000
11.890300 0.000000
11.902600 0.000000
11.914900 0.000000
11.927200 0.000000
11.939500 0.000000
e
