set title 'mp-1226378 - Density of States'
set xlabel 'Energy (eV)'
set ylabel 'DOS (states/eV)'
set grid
set xrange [-10:10]
set yrange [0:8.018]
set xzeroaxis lt -1
set terminal png size 800,600
set output 'mp-1226378_dos_gnuplot.png'
plot '-' using 1:2 with lines title 'DOS'
-40.796200 0.000000
-40.745500 0.000000
-40.694900 0.000000
-40.644300 0.000000
-40.593600 0.000000
-40.543000 0.000000
-40.492300 0.000000
-40.441700 0.000000
-40.391100 0.000000
-40.340400 0.000000
-40.289800 0.000000
-40.239200 0.000000
-40.188500 0.000000
-40.137900 0.000000
-40.087300 0.000000
-40.036600 0.000000
-39.986000 0.000000
-39.935400 0.000000
-39.884700 0.000000
-39.834100 0.000000
-39.783500 0.000000
-39.732800 0.000000
-39.682200 0.000000
-39.631500 0.000000
-39.580900 0.000000
-39.530300 0.000000
-39.479600 0.000000
-39.429000 0.000000
-39.378400 0.000000
-39.327700 0.000000
-39.277100 0.000000
-39.226500 0.000000
-39.175800 0.000000
-39.125200 0.000000
-39.074600 0.000000
-39.023900 0.000000
-38.973300 0.000000
-38.922600 0.000000
-38.872000 0.000000
-38.821400 0.000000
-38.770700 0.000000
-38.720100 0.000000
-38.669500 0.000000
-38.618800 0.000000
-38.568200 0.000000
-38.517600 0.000000
-38.466900 0.000000
-38.416300 0.000000
-38.365700 0.000000
-38.315000 0.000000
-38.264400 0.000000
-38.213800 0.000000
-38.163100 0.000000
-38.112500 0.000000
-38.061800 0.000000
-38.011200 0.000000
-37.960600 0.000000
-37.909900 0.000000
-37.859300 0.000000
-37.808700 0.000000
-37.758000 0.000000
-37.707400 0.000000
-37.656800 0.000000
-37.606100 0.000000
-37.555500 0.000000
-37.504900 0.000000
-37.454200 0.000000
-37.403600 0.000000
-37.353000 0.000000
-37.302300 0.000000
-37.251700 0.000000
-37.201000 0.000000
-37.150400 0.000000
-37.099800 0.000000
-37.049100 0.000000
-36.998500 0.000000
-36.947900 0.000000
-36.897200 0.000000
-36.846600 0.000000
-36.796000 0.000000
-36.745300 0.000000
-36.694700 0.000000
-36.644100 0.000000
-36.593400 0.000000
-36.542800 0.000000
-36.492200 0.000000
-36.441500 0.000000
-36.390900 0.000000
-36.340200 0.000000
-36.289600 0.000000
-36.239000 0.000000
-36.188300 0.318000
-36.137700 15.742100
-36.087100 32.881200
-36.036400 13.397100
-35.985800 12.533800
-35.935200 24.498800
-35.884500 32.847600
-35.833900 30.721300
-35.783300 38.992300
-35.732600 15.993300
-35.682000 4.170800
-35.631400 0.000000
-35.580700 0.000000
-35.530100 0.000000
-35.479400 0.000000
-35.428800 0.000000
-35.378200 0.000000
-35.327500 0.000000
-35.276900 0.000000
-35.226300 0.000000
-35.175600 0.000000
-35.125000 0.000000
-35.074400 0.000000
-35.023700 0.000000
-34.973100 0.000000
-34.922500 0.000000
-34.871800 0.000000
-34.821200 0.000000
-34.770600 0.000000
-34.719900 0.000000
-34.669300 0.000000
-34.618600 0.000000
-34.568000 0.000000
-34.517400 0.000000
-34.466700 0.000000
-34.416100 0.000000
-34.365500 0.000000
-34.314800 0.000000
-34.264200 0.000000
-34.213600 0.000000
-34.162900 0.000000
-34.112300 0.000000
-34.061700 0.000000
-34.011000 0.000000
-33.960400 0.000000
-33.909800 0.000000
-33.859100 0.000000
-33.808500 0.000000
-33.757800 0.000000
-33.707200 0.000000
-33.656600 0.000000
-33.605900 0.000000
-33.555300 0.000000
-33.504700 0.000000
-33.454000 0.000000
-33.403400 0.000000
-33.352800 0.000000
-33.302100 0.000000
-33.251500 0.000000
-33.200900 0.000000
-33.150200 0.000000
-33.099600 0.000000
-33.048900 0.000000
-32.998300 0.000000
-32.947700 0.000000
-32.897000 0.000000
-32.846400 0.000000
-32.795800 0.000000
-32.745100 0.000000
-32.694500 0.000000
-32.643900 0.000000
-32.593200 0.000000
-32.542600 0.000000
-32.492000 0.000000
-32.441300 0.000000
-32.390700 0.000000
-32.340100 0.000000
-32.289400 0.000000
-32.238800 0.000000
-32.188100 0.000000
-32.137500 0.000000
-32.086900 0.000000
-32.036200 0.000000
-31.985600 0.000000
-31.935000 0.000000
-31.884300 0.000000
-31.833700 0.000000
-31.783100 0.000000
-31.732400 0.000000
-31.681800 0.000000
-31.631200 0.000000
-31.580500 0.000000
-31.529900 0.000000
-31.479300 0.000000
-31.428600 0.000000
-31.378000 0.000000
-31.327300 0.000000
-31.276700 0.000000
-31.226100 0.000000
-31.175400 0.000000
-31.124800 0.000000
-31.074200 0.000000
-31.023500 0.000000
-30.972900 0.000000
-30.922300 0.000000
-30.871600 0.000000
-30.821000 0.000000
-30.770400 0.000000
-30.719700 0.000000
-30.669100 0.000000
-30.618500 0.000000
-30.567800 0.000000
-30.517200 0.000000
-30.466500 0.000000
-30.415900 0.000000
-30.365300 0.000000
-30.314600 0.000000
-30.264000 0.000000
-30.213400 0.000000
-30.162700 0.000000
-30.112100 0.000000
-30.061500 0.000000
-30.010800 0.000000
-29.960200 0.000000
-29.909600 0.000000
-29.858900 0.000000
-29.808300 0.000000
-29.757700 0.000000
-29.707000 0.000000
-29.656400 0.000000
-29.605700 0.000000
-29.555100 0.000000
-29.504500 0.000000
-29.453800 0.000000
-29.403200 0.000000
-29.352600 0.000000
-29.301900 0.000000
-29.251300 0.000000
-29.200700 0.000000
-29.150000 0.000000
-29.099400 0.000000
-29.048800 0.000000
-28.998100 0.000000
-28.947500 0.000000
-28.896900 0.000000
-28.846200 0.000000
-28.795600 0.000000
-28.744900 0.000000
-28.694300 0.000000
-28.643700 0.000000
-28.593000 0.000000
-28.542400 0.000000
-28.491800 0.000000
-28.441100 0.000000
-28.390500 0.000000
-28.339900 0.000000
-28.289200 0.000000
-28.238600 0.000000
-28.188000 0.000000
-28.137300 0.000000
-28.086700 0.000000
-28.036100 0.000000
-27.985400 0.000000
-27.934800 0.000000
-27.884100 0.000000
-27.833500 0.000000
-27.782900 0.000000
-27.732200 0.000000
-27.681600 0.000000
-27.631000 0.000000
-27.580300 0.000000
-27.529700 0.000000
-27.479100 0.000000
-27.428400 0.000000
-27.377800 0.000000
-27.327200 0.000000
-27.276500 0.000000
-27.225900 0.000000
-27.175200 0.000000
-27.124600 0.000000
-27.074000 0.000000
-27.023300 0.000000
-26.972700 0.000000
-26.922100 0.000000
-26.871400 0.000000
-26.820800 0.000000
-26.770200 0.000000
-26.719500 0.000000
-26.668900 0.000000
-26.618300 0.000000
-26.567600 0.000000
-26.517000 0.000000
-26.466400 0.000000
-26.415700 0.000000
-26.365100 0.000000
-26.314400 0.000000
-26.263800 0.000000
-26.213200 0.000000
-26.162500 0.000000
-26.111900 0.000000
-26.061300 0.000000
-26.010600 0.000000
-25.960000 0.000000
-25.909400 0.000000
-25.858700 0.000000
-25.808100 0.000000
-25.757500 0.000000
-25.706800 0.000000
-25.656200 0.000000
-25.605600 0.000000
-25.554900 0.000000
-25.504300 0.000000
-25.453600 0.000000
-25.403000 0.000000
-25.352400 0.000000
-25.301700 0.000000
-25.251100 0.000000
-25.200500 0.000000
-25.149800 0.000000
-25.099200 0.000000
-25.048600 0.000000
-24.997900 0.000000
-24.947300 0.000000
-24.896700 0.000000
-24.846000 0.000000
-24.795400 0.000000
-24.744800 0.000000
-24.694100 0.000000
-24.643500 0.000000
-24.592800 0.000000
-24.542200 0.000000
-24.491600 0.000000
-24.440900 0.000000
-24.390300 0.000000
-24.339700 0.000000
-24.289000 0.000000
-24.238400 0.000000
-24.187800 0.000000
-24.137100 0.000000
-24.086500 0.000000
-24.035900 0.000000
-23.985200 0.000000
-23.934600 0.000000
-23.884000 0.000000
-23.833300 0.000000
-23.782700 0.000000
-23.732000 0.000000
-23.681400 0.000000
-23.630800 0.000000
-23.580100 0.000000
-23.529500 0.000000
-23.478900 0.000000
-23.428200 0.000000
-23.377600 0.000000
-23.327000 0.000000
-23.276300 0.000000
-23.225700 0.000000
-23.175100 0.000000
-23.124400 0.000000
-23.073800 0.000000
-23.023200 0.000000
-22.972500 0.000000
-22.921900 0.000000
-22.871200 0.000000
-22.820600 0.000000
-22.770000 0.000000
-22.719300 0.000000
-22.668700 0.000000
-22.618100 0.000000
-22.567400 0.000000
-22.516800 0.000000
-22.466200 0.000000
-22.415500 0.000000
-22.364900 0.000000
-22.314300 0.000000
-22.263600 0.000000
-22.213000 0.000000
-22.162400 0.000000
-22.111700 0.000000
-22.061100 0.000000
-22.010400 0.000000
-21.959800 0.000000
-21.909200 0.000000
-21.858500 0.000000
-21.807900 0.000000
-21.757300 0.000000
-21.706600 0.000000
-21.656000 0.000000
-21.605400 0.000000
-21.554700 0.000000
-21.504100 0.000000
-21.453500 0.000000
-21.402800 0.000000
-21.352200 0.000000
-21.301500 0.000000
-21.250900 0.000000
-21.200300 0.000000
-21.149600 0.000000
-21.099000 0.000000
-21.048400 0.000000
-20.997700 0.000000
-20.947100 0.000000
-20.896500 0.000000
-20.845800 0.000000
-20.795200 0.000000
-20.744600 0.000000
-20.693900 0.000000
-20.643300 0.000000
-20.592700 0.000000
-20.542000 0.000000
-20.491400 0.000000
-20.440700 0.000000
-20.390100 0.000000
-20.339500 0.000000
-20.288800 0.000000
-20.238200 0.000000
-20.187600 0.000000
-20.136900 0.000000
-20.086300 0.000000
-20.035700 0.000000
-19.985000 0.000000
-19.934400 0.000000
-19.883800 0.000000
-19.833100 0.000000
-19.782500 0.000000
-19.731900 0.000000
-19.681200 0.000000
-19.630600 0.000000
-19.579900 0.000000
-19.529300 0.000000
-19.478700 0.000000
-19.428000 0.000000
-19.377400 0.000000
-19.326800 0.000000
-19.276100 0.000000
-19.225500 0.000000
-19.174900 0.000000
-19.124200 0.000000
-19.073600 0.000000
-19.023000 0.000000
-18.972300 0.000000
-18.921700 0.000000
-18.871100 0.000000
-18.820400 0.000000
-18.769800 0.000000
-18.719100 0.000000
-18.668500 0.000000
-18.617900 0.000000
-18.567200 0.000000
-18.516600 0.000000
-18.466000 0.000000
-18.415300 0.000000
-18.364700 0.000000
-18.314100 0.000000
-18.263400 0.000000
-18.212800 0.000000
-18.162200 0.000000
-18.111500 0.000000
-18.060900 0.000000
-18.010300 0.000000
-17.959600 0.000000
-17.909000 0.000000
-17.858300 0.000000
-17.807700 0.000000
-17.757100 0.000000
-17.706400 0.000000
-17.655800 0.000000
-17.605200 0.000000
-17.554500 0.000000
-17.503900 0.000000
-17.453300 0.000000
-17.402600 0.000000
-17.352000 0.000000
-17.301400 0.000000
-17.250700 0.000000
-17.200100 0.000000
-17.149500 0.000000
-17.098800 0.000000
-17.048200 0.000000
-16.997500 0.000000
-16.946900 0.000000
-16.896300 0.000000
-16.845600 0.000000
-16.795000 0.000000
-16.744400 0.000000
-16.693700 0.000000
-16.643100 0.000000
-16.592500 0.000000
-16.541800 0.000000
-16.491200 0.000000
-16.440600 0.000000
-16.389900 0.000000
-16.339300 0.000000
-16.288600 0.000000
-16.238000 0.000000
-16.187400 0.000000
-16.136700 0.000000
-16.086100 0.000000
-16.035500 0.000000
-15.984800 0.000000
-15.934200 0.000000
-15.883600 0.000000
-15.832900 0.000000
-15.782300 0.000000
-15.731700 0.000000
-15.681000 0.000000
-15.630400 0.000000
-15.579800 0.000000
-15.529100 0.000000
-15.478500 0.000000
-15.427800 0.000000
-15.377200 0.000000
-15.326600 0.000000
-15.275900 0.000000
-15.225300 0.000000
-15.174700 0.000000
-15.124000 0.000000
-15.073400 0.000000
-15.022800 0.000000
-14.972100 0.000000
-14.921500 0.000000
-14.870900 0.000000
-14.820200 0.000000
-14.769600 0.000000
-14.719000 0.000000
-14.668300 0.000000
-14.617700 0.000000
-14.567000 0.000000
-14.516400 0.000000
-14.465800 0.000000
-14.415100 0.000000
-14.364500 0.000000
-14.313900 0.000000
-14.263200 0.000000
-14.212600 0.000000
-14.162000 0.000000
-14.111300 0.000000
-14.060700 0.000000
-14.010100 0.000000
-13.959400 0.000000
-13.908800 0.000000
-13.858200 0.000000
-13.807500 0.000000
-13.756900 0.000000
-13.706200 0.000000
-13.655600 0.000000
-13.605000 0.000000
-13.554300 0.000000
-13.503700 0.000000
-13.453100 0.000000
-13.402400 0.000000
-13.351800 0.000000
-13.301200 0.000000
-13.250500 0.000000
-13.199900 0.000000
-13.149300 0.000000
-13.098600 0.000000
-13.048000 0.000000
-12.997400 0.000000
-12.946700 0.000000
-12.896100 0.000000
-12.845400 0.000000
-12.794800 0.000000
-12.744200 0.000000
-12.693500 0.000000
-12.642900 0.000000
-12.592300 0.000000
-12.541600 0.000000
-12.491000 0.000000
-12.440400 0.000000
-12.389700 0.000000
-12.339100 0.000000
-12.288500 0.000000
-12.237800 0.000000
-12.187200 0.000000
-12.136600 0.000000
-12.085900 0.000000
-12.035300 0.000000
-11.984600 0.000000
-11.934000 0.000000
-11.883400 0.000000
-11.832700 0.000000
-11.782100 0.000000
-11.731500 0.000000
-11.680800 0.000000
-11.630200 0.000000
-11.579600 0.000000
-11.528900 0.000000
-11.478300 0.000000
-11.427700 0.000000
-11.377000 0.000000
-11.326400 0.000000
-11.275800 0.000000
-11.225100 0.000000
-11.174500 0.000000
-11.123800 0.000000
-11.073200 0.000000
-11.022600 0.000000
-10.971900 0.000000
-10.921300 0.000000
-10.870700 0.000000
-10.820000 0.000000
-10.769400 0.000000
-10.718800 0.000000
-10.668100 0.000000
-10.617500 0.000000
-10.566900 0.000000
-10.516200 0.000000
-10.465600 0.000000
-10.414900 0.000000
-10.364300 0.000000
-10.313700 0.000000
-10.263000 0.000000
-10.212400 0.000000
-10.161800 0.000000
-10.111100 0.000000
-10.060500 0.000000
-10.009900 0.000000
-9.959200 0.000000
-9.908600 0.000000
-9.858000 0.000000
-9.807300 0.000000
-9.756700 0.000000
-9.706100 0.000000
-9.655400 0.000000
-9.604800 0.000000
-9.554100 0.000000
-9.503500 0.000000
-9.452900 0.000000
-9.402200 0.000000
-9.351600 0.000000
-9.301000 0.000000
-9.250300 0.000000
-9.199700 0.000000
-9.149100 0.000000
-9.098400 0.000000
-9.047800 0.000000
-8.997200 0.000000
-8.946500 0.000000
-8.895900 0.000000
-8.845300 0.000000
-8.794600 0.000000
-8.744000 0.000000
-8.693300 0.000000
-8.642700 0.000000
-8.592100 0.000000
-8.541400 0.000000
-8.490800 0.000000
-8.440200 0.000000
-8.389500 0.000000
-8.338900 0.000000
-8.288300 0.000000
-8.237600 0.000000
-8.187000 0.000000
-8.136400 0.000000
-8.085700 0.000000
-8.035100 0.000000
-7.984500 0.000000
-7.933800 0.000000
-7.883200 0.000000
-7.832500 0.000000
-7.781900 0.000000
-7.731300 0.000000
-7.680600 0.000000
-7.630000 0.000000
-7.579400 0.000000
-7.528700 0.000000
-7.478100 0.000000
-7.427500 0.000000
-7.376800 0.000000
-7.326200 0.000000
-7.275600 0.000000
-7.224900 0.000000
-7.174300 0.000000
-7.123700 0.000000
-7.073000 0.000000
-7.022400 0.000000
-6.971700 0.000000
-6.921100 0.000000
-6.870500 0.000000
-6.819800 0.000000
-6.769200 0.000000
-6.718600 0.000000
-6.667900 0.000000
-6.617300 0.000000
-6.566700 0.000000
-6.516000 0.000000
-6.465400 0.000000
-6.414800 0.000000
-6.364100 0.000000
-6.313500 0.000000
-6.262900 0.000000
-6.212200 0.000000
-6.161600 0.001500
-6.110900 0.100000
-6.060300 0.129700
-6.009700 0.173000
-5.959000 0.214000
-5.908400 0.247400
-5.857800 0.289000
-5.807100 0.345100
-5.756500 0.417600
-5.705900 0.466200
-5.655200 0.484900
-5.604600 0.488500
-5.554000 0.499900
-5.503300 0.512200
-5.452700 0.515600
-5.402100 0.524800
-5.351400 0.536600
-5.300800 0.548700
-5.250100 0.558600
-5.199500 0.570100
-5.148900 0.583500
-5.098200 0.597700
-5.047600 0.612200
-4.997000 0.626700
-4.946300 0.642200
-4.895700 0.658700
-4.845100 0.680300
-4.794400 0.702900
-4.743800 0.728700
-4.693200 0.754100
-4.642500 0.778400
-4.591900 0.802500
-4.541200 0.840100
-4.490600 0.890300
-4.440000 0.946300
-4.389300 0.995800
-4.338700 1.046300
-4.288100 1.098600
-4.237400 1.231800
-4.186800 1.393200
-4.136200 1.562400
-4.085500 1.792200
-4.034900 2.345900
-3.984300 2.834200
-3.933600 1.875600
-3.883000 1.842400
-3.832400 1.458300
-3.781700 1.093500
-3.731100 0.000000
-3.680400 0.000000
-3.629800 0.000000
-3.579200 0.000000
-3.528500 0.000000
-3.477900 0.000000
-3.427300 0.000000
-3.376600 0.000000
-3.326000 0.000000
-3.275400 0.000000
-3.224700 0.000000
-3.174100 0.000000
-3.123500 0.000000
-3.072800 0.000000
-3.022200 0.000000
-2.971600 0.000000
-2.920900 0.000000
-2.870300 0.000000
-2.819600 0.000000
-2.769000 0.000000
-2.718400 0.000000
-2.667700 0.000000
-2.617100 0.000000
-2.566500 0.000000
-2.515800 0.000000
-2.465200 0.000000
-2.414600 0.000000
-2.363900 0.000000
-2.313300 0.000000
-2.262700 0.000000
-2.212000 0.000000
-2.161400 0.000000
-2.110800 0.000000
-2.060100 0.000000
-2.009500 0.000000
-1.958800 0.000000
-1.908200 0.000000
-1.857600 0.000000
-1.806900 0.000000
-1.756300 0.000000
-1.705700 0.000000
-1.655000 0.000000
-1.604400 0.000000
-1.553800 0.000000
-1.503100 0.000000
-1.452500 0.000000
-1.401900 0.000000
-1.351200 0.000000
-1.300600 0.000000
-1.250000 0.000000
-1.199300 0.000000
-1.148700 0.000000
-1.098000 0.000000
-1.047400 0.000000
-0.996800 0.000000
-0.946100 0.000000
-0.895500 0.000000
-0.844900 0.000000
-0.794200 0.000000
-0.743600 0.000000
-0.693000 0.000000
-0.642300 0.000000
-0.591700 0.000000
-0.541100 0.000000
-0.490400 0.000000
-0.439800 0.000000
-0.389200 0.000000
-0.338500 0.000000
-0.287900 0.000000
-0.237200 0.000000
-0.186600 0.000000
-0.136000 0.000000
-0.085300 0.000000
-0.034700 0.010600
0.015900 0.051100
0.066600 0.060900
0.117200 0.076400
0.167800 0.095000
0.218500 0.108300
0.269100 0.116900
0.319700 0.129400
0.370400 0.142600
0.421000 0.156400
0.471600 0.333900
0.522300 0.912200
0.572900 1.244800
0.623600 1.303600
0.674200 1.313500
0.724800 1.381300
0.775500 1.465500
0.826100 1.525800
0.876700 1.601500
0.927400 1.711900
0.978000 1.804700
1.028600 1.935100
1.079300 2.294300
1.129900 2.349100
1.180500 2.372400
1.231200 2.380000
1.281800 2.295700
1.332500 1.716000
1.383100 1.538300
1.433700 1.371500
1.484400 1.216100
1.535000 1.098500
1.585600 1.045400
1.636300 1.026100
1.686900 0.757400
1.737500 0.528300
1.788200 0.271800
1.838800 0.212800
1.889400 0.271000
1.940100 0.390300
1.990700 0.823400
2.041300 1.439400
2.092000 1.881000
2.142600 2.326300
2.193300 2.314000
2.243900 2.027400
2.294500 1.968900
2.345200 1.957200
2.395800 1.959100
2.446400 2.011300
2.497100 2.109900
2.547700 2.357200
2.598300 2.936200
2.649000 3.253200
2.699600 3.706200
2.750200 3.517700
2.800900 2.816500
2.851500 2.600500
2.902100 2.408400
2.952800 2.371000
3.003400 2.466000
3.054100 3.376200
3.104700 3.180600
3.155300 2.909000
3.206000 2.779900
3.256600 2.751800
3.307200 3.317800
3.357900 2.939600
3.408500 2.274800
3.459100 1.786000
3.509800 1.470000
3.560400 1.466000
3.611000 0.226200
3.661700 0.000000
3.712300 0.000000
3.762900 0.000000
3.813600 0.000800
3.864200 0.080700
3.914900 0.195600
3.965500 0.271000
4.016100 0.345200
4.066800 0.411600
4.117400 0.484600
4.168000 0.559900
4.218700 0.636200
4.269300 0.719200
4.319900 0.809800
4.370600 0.914000
4.421200 1.025500
4.471800 1.179300
4.522500 1.455300
4.573100 1.661700
4.623700 1.549300
4.674400 1.662000
4.725000 1.878200
4.775700 2.208700
4.826300 2.620700
4.876900 2.977500
4.927600 4.004400
4.978200 4.744200
5.028800 4.820500
5.079500 4.921700
5.130100 4.313900
5.180700 3.942900
5.231400 3.611500
5.282000 3.559600
5.332600 3.846700
5.383300 4.236700
5.433900 3.405100
5.484500 2.503700
5.535200 2.221400
5.585800 1.997500
5.636500 1.505600
5.687100 1.669700
5.737700 1.969200
5.788400 2.449900
5.839000 2.732800
5.889600 2.693600
5.940300 2.952600
5.990900 3.580300
6.041500 3.538000
6.092200 3.354100
6.142800 3.157700
6.193400 3.028100
6.244100 2.997800
6.294700 3.083900
6.345300 2.750900
6.396000 2.285500
6.446600 1.776200
6.497300 1.448200
6.547900 1.579400
6.598500 1.652600
6.649200 1.470700
6.699800 1.702200
6.750400 1.735500
6.801100 1.748100
6.851700 1.766200
6.902300 1.824300
6.953000 1.903200
7.003600 1.959300
7.054200 1.969000
7.104900 1.970300
7.155500 1.986400
7.206200 1.988600
7.256800 2.001700
7.307400 2.045500
7.358100 2.112900
7.408700 2.189600
7.459300 2.264300
7.510000 2.378400
7.560600 2.523800
7.611200 2.769200
7.661900 2.867200
7.712500 3.157400
7.763100 3.898500
7.813800 3.959800
7.864400 4.007500
7.915000 4.606500
7.965700 4.518400
8.016300 4.489200
8.067000 4.648000
8.117600 5.153800
8.168200 7.097700
8.218900 7.288800
8.269500 6.609400
8.320100 6.186500
8.370800 6.203100
8.421400 6.499100
8.472000 6.215300
8.522700 5.791600
8.573300 4.346400
8.623900 3.785900
8.674600 3.351000
8.725200 3.063500
8.775800 2.641000
8.826500 2.253400
8.877100 2.307400
8.927800 2.345000
8.978400 2.531900
9.029000 2.602700
9.079700 2.757400
9.130300 2.248200
9.180900 1.964400
9.231600 1.922600
9.282200 1.928500
9.332800 1.914400
9.383500 1.904200
9.434100 1.658200
9.484700 1.297700
9.535400 1.097800
9.586000 1.056000
9.636600 0.828400
9.687300 0.887500
9.737900 1.043500
9.788600 1.061200
9.839200 1.094200
9.889800 1.094000
9.940500 1.024600
9.991100 1.053900
10.041700 1.088000
10.092400 1.127300
10.143000 1.181600
10.193600 1.280000
10.244300 1.413200
10.294900 1.449100
10.345500 1.381500
10.396200 1.285900
10.446800 1.272100
10.497400 1.252800
10.548100 1.270100
10.598700 1.315500
10.649400 1.385600
10.700000 1.470300
10.750600 1.666500
10.801300 1.737700
10.851900 1.758400
10.902500 1.788600
10.953200 1.616800
11.003800 1.497300
11.054400 1.499200
11.105100 1.486200
11.155700 1.634600
11.206300 1.828300
11.257000 2.189800
11.307600 2.399900
11.358200 2.327400
11.408900 2.027800
11.459500 1.849600
11.510200 1.745100
11.560800 1.666600
11.611400 1.576700
11.662100 1.510700
11.712700 1.461000
11.763300 1.422200
11.814000 1.371000
11.864600 1.365800
11.915200 1.421700
11.965900 1.403100
12.016500 1.134000
12.067100 1.107900
12.117800 1.116100
12.168400 1.170200
12.219000 1.235400
12.269700 1.327700
12.320300 1.395500
12.371000 1.428100
12.421600 1.472600
12.472200 1.542400
12.522900 1.474100
12.573500 1.347300
12.624100 1.132900
12.674800 1.075400
12.725400 1.049900
12.776000 1.002400
12.826700 0.968600
12.877300 0.967700
12.927900 1.009300
12.978600 1.122800
13.029200 1.116500
13.079900 1.172300
13.130500 1.223000
13.181100 1.354800
13.231800 1.245900
13.282400 1.060500
13.333000 0.951100
13.383700 0.777300
13.434300 0.934100
13.484900 0.976300
13.535600 0.968700
13.586200 0.958800
13.636800 0.936700
13.687500 0.927700
13.738100 0.925100
13.788700 0.929400
13.839400 0.934100
13.890000 0.952400
13.940700 0.961600
13.991300 0.960600
14.041900 0.955400
14.092600 0.948000
14.143200 0.951800
14.193800 0.973700
14.244500 0.998900
14.295100 1.005700
14.345700 1.023400
14.396400 1.020300
14.447000 0.944200
14.497600 0.594100
14.548300 0.399800
14.598900 0.341000
14.649500 0.298400
14.700200 0.263400
14.750800 0.225800
14.801500 0.201300
14.852100 0.188400
14.902700 0.171700
14.953400 0.156200
15.004000 0.141200
15.054600 0.130600
15.105300 0.125700
15.155900 0.123200
15.206500 0.123200
15.257200 0.126800
15.307800 0.145300
15.358400 0.168300
15.409100 0.190400
15.459700 0.210700
15.510300 0.222300
15.561000 0.216000
15.611600 0.227700
15.662300 0.245500
15.712900 0.269300
15.763500 0.298000
15.814200 0.327700
15.864800 0.347700
15.915400 0.397800
15.966100 0.409100
16.016700 0.443400
16.067300 0.488000
16.118000 0.548900
16.168600 0.551300
16.219200 0.528300
16.269900 0.534500
16.320500 0.546500
16.371100 0.568000
16.421800 0.575700
16.472400 0.579500
16.523100 0.593800
16.573700 0.602600
16.624300 0.602900
16.675000 0.602000
16.725600 0.617900
16.776200 0.626100
16.826900 0.639600
16.877500 0.655000
16.928100 0.671200
16.978800 0.695300
17.029400 0.720200
17.080000 0.747900
17.130700 0.765700
17.181300 0.755100
17.231900 0.734900
17.282600 0.633200
17.333200 0.630300
17.383900 0.637400
17.434500 0.647700
17.485100 0.657400
17.535800 0.676800
17.586400 0.701000
17.637000 0.731900
17.687700 0.772500
17.738300 0.852300
17.788900 0.882600
17.839600 0.889900
17.890200 0.877200
17.940800 0.874200
17.991500 0.825400
18.042100 0.793900
18.092700 0.774600
18.143400 0.764600
18.194000 0.759400
18.244700 0.755700
18.295300 0.820100
18.345900 0.859500
18.396600 0.892300
18.447200 0.849200
18.497800 0.779400
18.548500 0.752100
18.599100 0.740000
18.649700 0.727100
18.700400 0.708100
18.751000 0.687200
18.801600 0.674900
18.852300 0.674000
18.902900 0.670000
18.953600 0.664700
19.004200 0.661700
19.054800 0.687600
19.105500 0.796600
19.156100 1.003300
19.206700 1.139400
19.257400 1.185000
19.308000 1.140500
19.358600 1.067700
19.409300 1.003700
19.459900 0.962300
19.510500 0.934900
19.561200 0.912800
19.611800 0.899800
19.662400 0.888500
19.713100 0.879300
19.763700 0.869200
19.814400 0.795700
19.865000 0.838200
19.915600 0.953800
19.966300 1.013500
20.016900 1.078600
20.067500 1.088200
20.118200 1.077700
20.168800 1.100700
20.219400 1.150700
20.270100 1.168900
20.320700 1.179000
20.371300 1.194600
20.422000 1.250600
20.472600 1.341700
20.523200 1.430700
20.573900 1.489600
20.624500 1.506500
20.675200 1.516300
20.725800 1.528400
20.776400 1.550000
20.827100 1.604600
20.877700 1.641200
20.928300 1.637500
20.979000 1.706500
21.029600 1.684900
21.080200 1.530400
21.130900 1.494300
21.181500 1.475800
21.232100 1.458900
21.282800 1.438100
21.333400 1.420100
21.384000 1.418200
21.434700 1.415000
21.485300 1.395500
21.536000 1.311200
21.586600 1.205500
21.637200 1.103600
21.687900 1.062700
21.738500 1.050400
21.789100 1.184300
21.839800 1.451800
21.890400 1.662200
21.941000 1.608200
21.991700 1.649600
22.042300 1.783500
22.092900 1.970700
22.143600 2.135600
22.194200 2.241200
22.244800 2.305900
22.295500 2.141400
22.346100 1.788600
22.396800 1.507200
22.447400 1.348700
22.498000 1.186100
22.548700 1.091300
22.599300 1.027700
22.649900 0.976700
22.700600 0.948800
22.751200 0.914500
22.801800 0.832500
22.852500 0.810700
22.903100 0.798800
22.953700 0.774300
23.004400 0.753200
23.055000 0.745800
23.105600 0.751000
23.156300 0.769300
23.206900 0.800300
23.257600 0.853400
23.308200 0.927400
23.358800 1.018800
23.409500 1.111000
23.460100 1.211300
23.510700 1.388300
23.561400 1.533300
23.612000 1.545600
23.662600 1.567700
23.713300 1.616600
23.763900 1.644600
23.814500 1.604900
23.865200 1.521100
23.915800 1.477600
23.966500 1.431700
24.017100 1.419000
24.067700 1.419600
24.118400 1.447100
24.169000 1.382100
24.219600 1.328900
24.270300 1.285500
24.320900 1.242500
24.371500 1.212900
24.422200 1.183500
24.472800 1.154500
24.523400 1.150300
24.574100 1.103400
24.624700 1.047800
24.675300 1.034300
24.726000 0.906400
24.776600 0.801400
24.827300 0.715600
24.877900 0.628500
24.928500 0.521400
24.979200 0.418800
25.029800 0.386900
25.080400 0.343500
25.131100 0.300900
25.181700 0.270100
25.232300 0.254700
25.283000 0.258800
25.333600 0.292800
25.384200 0.373400
25.434900 0.480200
25.485500 0.694300
25.536100 0.955200
25.586800 1.034400
25.637400 1.111500
25.688100 1.160000
25.738700 1.209400
25.789300 1.215800
25.840000 1.188000
25.890600 1.207400
25.941200 1.235900
25.991900 1.301700
26.042500 1.335200
26.093100 1.347000
26.143800 1.304500
26.194400 1.195100
26.245000 1.313500
26.295700 1.123300
26.346300 1.112200
26.396900 1.119100
26.447600 1.138100
26.498200 1.169300
26.548900 1.199000
26.599500 1.424800
26.650100 1.555900
26.700800 1.731800
26.751400 1.807900
26.802000 1.978700
26.852700 2.121200
26.903300 2.188600
26.953900 2.281300
27.004600 2.351300
27.055200 2.326800
27.105800 2.183500
27.156500 2.041800
27.207100 1.940700
27.257700 1.781200
27.308400 1.733500
27.359000 1.709200
27.409700 1.704300
27.460300 1.513400
27.510900 1.423300
27.561600 1.388100
27.612200 1.331500
27.662800 1.272600
27.713500 1.170300
27.764100 1.153400
27.814700 1.132500
27.865400 1.089700
27.916000 1.051700
27.966600 1.016600
28.017300 1.015100
28.067900 1.020000
28.118500 1.032200
28.169200 1.056200
28.219800 1.136500
28.270500 1.211400
28.321100 1.188500
28.371700 1.166500
28.422400 1.136400
28.473000 1.084900
28.523600 1.041300
28.574300 1.016800
28.624900 0.993200
28.675500 0.971000
28.726200 0.953100
28.776800 0.951600
28.827400 0.986700
28.878100 1.005700
28.928700 1.004800
28.979300 0.975400
29.030000 0.978400
29.080600 0.998800
29.131300 1.060100
29.181900 1.106900
29.232500 1.159200
29.283200 1.190600
29.333800 1.256200
29.384400 1.361800
29.435100 1.476200
29.485700 1.466200
29.536300 1.414500
29.587000 1.287800
29.637600 1.053000
29.688200 0.906000
29.738900 0.835300
29.789500 0.782800
29.840200 0.741300
29.890800 0.710900
29.941400 0.713200
29.992100 0.742500
30.042700 0.729500
30.093300 0.679300
30.144000 0.594500
30.194600 0.518800
30.245200 0.520500
30.295900 0.534100
30.346500 0.565300
30.397100 0.608400
30.447800 0.661900
30.498400 0.744400
30.549000 0.813600
30.599700 0.864700
30.650300 0.929600
30.701000 1.014800
30.751600 1.080100
30.802200 1.100800
30.852900 1.108500
30.903500 1.112500
30.954100 1.134000
31.004800 1.171400
31.055400 1.179000
31.106000 1.178900
31.156700 1.155100
31.207300 1.093600
31.257900 1.040700
31.308600 0.987000
31.359200 0.967100
31.409800 0.997100
31.460500 0.943500
31.511100 0.907900
31.561800 0.880800
31.612400 0.862700
31.663000 0.855100
31.713700 0.852900
31.764300 0.853500
31.814900 0.851900
31.865600 0.848700
31.916200 0.855800
31.966800 0.876000
32.017500 0.889600
32.068100 0.891400
32.118700 0.895200
32.169400 0.884500
32.220000 0.881000
32.270600 0.877400
32.321300 0.873400
32.371900 0.875800
32.422600 0.856400
32.473200 0.828000
32.523800 0.835300
32.574500 0.875900
32.625100 0.912300
32.675700 0.986700
32.726400 1.043700
32.777000 1.051200
32.827600 1.042500
32.878300 1.036000
32.928900 1.052700
32.979500 1.078600
33.030200 1.121500
33.080800 1.180300
33.131400 1.234000
33.182100 1.284000
33.232700 1.330300
33.283400 1.373200
33.334000 1.428900
33.384600 1.506600
33.435300 1.570800
33.485900 1.630000
33.536500 1.620700
33.587200 1.581200
33.637800 1.551900
33.688400 1.456200
33.739100 1.387400
33.789700 1.288800
33.840300 1.222500
33.891000 1.206100
33.941600 1.219900
33.992200 1.213400
34.042900 1.258400
34.093500 1.317800
34.144200 1.377600
34.194800 1.413400
34.245400 1.410900
34.296100 1.406900
34.346700 1.410800
34.397300 1.429700
34.448000 1.458900
34.498600 1.475500
34.549200 1.468100
34.599900 1.450800
34.650500 1.461500
34.701100 1.474800
34.751800 1.498500
34.802400 1.503500
34.853000 1.507700
34.903700 1.481400
34.954300 1.442900
35.005000 1.418500
35.055600 1.405100
35.106200 1.374600
35.156900 1.292200
35.207500 1.247700
35.258100 1.232900
35.308800 1.220900
35.359400 1.206700
35.410000 1.175900
35.460700 1.158500
35.511300 1.131500
35.561900 1.125700
35.612600 1.124600
35.663200 1.078000
35.713900 1.042000
35.764500 1.030400
35.815100 1.028700
35.865800 1.026000
35.916400 1.025900
35.967000 1.058600
36.017700 1.106900
36.068300 1.189100
36.118900 1.294400
36.169600 1.447400
36.220200 1.525400
36.270800 1.506200
36.321500 1.446700
36.372100 1.403500
36.422700 1.390700
36.473400 1.441300
36.524000 1.281300
36.574700 1.308100
36.625300 1.366400
36.675900 1.401400
36.726600 1.401700
36.777200 1.414700
36.827800 1.417300
36.878500 1.432200
36.929100 1.481900
36.979700 1.426400
37.030400 1.403600
37.081000 1.400000
37.131600 1.386300
37.182300 1.371700
37.232900 1.375800
37.283500 1.372000
37.334200 1.331800
37.384800 1.304800
37.435500 1.281900
37.486100 1.259000
37.536700 1.260800
37.587400 1.265800
37.638000 1.271400
37.688600 1.276600
37.739300 1.259200
37.789900 1.266600
37.840500 1.289300
37.891200 1.328000
37.941800 1.412400
37.992400 1.559900
38.043100 1.645600
38.093700 1.620300
38.144300 1.626400
38.195000 1.646300
38.245600 1.730600
38.296300 1.834300
38.346900 1.890500
38.397500 1.903700
38.448200 1.871500
38.498800 1.885800
38.549400 1.890800
38.600100 1.657300
38.650700 1.596000
38.701300 1.543100
38.752000 1.515800
38.802600 1.483400
38.853200 1.418700
38.903900 1.391100
38.954500 1.450300
39.005100 1.524200
39.055800 1.702000
39.106400 1.879400
39.157100 2.083300
39.207700 2.259100
39.258300 2.371400
39.309000 2.468800
39.359600 2.567900
39.410200 2.628900
39.460900 2.669500
39.511500 2.725800
39.562100 2.794400
39.612800 2.877500
39.663400 3.105700
39.714000 3.287800
39.764700 3.680300
39.815300 3.350900
39.865900 3.115200
39.916600 3.327700
39.967200 4.906900
40.017900 5.255100
40.068500 4.871100
40.119100 4.736200
40.169800 5.303600
40.220400 5.015500
40.271000 3.789400
40.321700 3.717700
40.372300 3.725600
40.422900 3.675900
40.473600 3.740700
40.524200 3.658800
40.574800 3.185300
40.625500 2.759500
40.676100 2.510100
40.726700 2.444600
40.777400 2.393400
40.828000 2.485000
40.878700 2.446700
40.929300 2.122600
40.979900 1.798700
41.030600 1.591600
41.081200 1.461200
41.131800 1.552300
41.182500 1.627400
41.233100 1.857200
41.283700 2.081500
41.334400 2.068900
41.385000 1.997300
41.435600 1.818900
41.486300 1.589700
41.536900 1.566500
41.587600 1.570800
41.638200 1.599000
41.688800 1.688000
41.739500 1.739000
41.790100 1.769500
41.840700 1.765000
41.891400 1.698900
41.942000 1.565600
41.992600 1.401100
42.043300 1.298700
42.093900 1.245400
42.144500 1.201600
42.195200 1.179400
42.245800 1.148600
42.296400 1.139000
42.347100 1.151400
42.397700 1.180700
42.448400 1.156900
42.499000 1.098200
42.549600 1.063100
42.600300 1.061200
42.650900 1.067800
42.701500 1.074600
42.752200 1.097500
42.802800 1.142500
42.853400 1.176900
42.904100 1.190800
42.954700 1.206500
43.005300 1.212200
43.056000 1.254300
43.106600 1.341200
43.157200 1.392000
43.207900 1.351900
43.258500 1.319100
43.309200 1.278700
43.359800 1.255900
43.410400 1.183700
43.461100 1.140700
43.511700 1.157100
43.562300 1.186600
43.613000 1.291400
43.663600 1.410600
43.714200 1.398600
43.764900 1.455000
43.815500 1.550600
43.866100 1.597400
43.916800 1.653300
43.967400 1.742300
44.018000 1.746900
44.068700 1.730300
44.119300 1.714800
44.170000 1.780700
44.220600 1.906400
44.271200 2.035800
44.321900 2.029400
44.372500 1.846000
44.423100 1.870200
44.473800 1.790600
44.524400 1.731000
44.575000 1.697800
44.625700 1.657100
44.676300 1.605800
44.726900 1.493900
44.777600 1.442700
44.828200 1.444500
44.878800 1.430100
44.929500 1.445800
44.980100 1.407400
45.030800 1.376000
45.081400 1.424600
45.132000 1.484400
45.182700 1.489700
45.233300 1.549700
45.283900 1.626300
45.334600 1.674800
45.385200 1.695400
45.435800 1.704700
45.486500 1.721700
45.537100 1.757100
45.587700 1.738900
45.638400 1.710600
45.689000 1.670800
45.739600 1.590700
45.790300 1.542900
45.840900 1.493100
45.891600 1.489100
45.942200 1.527700
45.992800 1.454200
46.043500 1.367300
46.094100 1.357200
46.144700 1.385700
46.195400 1.388200
46.246000 1.393200
46.296600 1.361100
46.347300 1.337700
46.397900 1.342900
46.448500 1.356100
46.499200 1.359500
46.549800 1.355200
46.600400 1.392000
46.651100 1.476800
46.701700 1.545700
46.752400 1.622800
46.803000 1.640400
46.853600 1.601000
46.904300 1.580000
46.954900 1.568900
47.005500 1.522800
47.056200 1.489600
47.106800 1.467400
47.157400 1.441100
47.208100 1.403000
47.258700 1.391400
47.309300 1.411500
47.360000 1.504300
47.410600 1.608700
47.461300 1.658200
47.511900 1.681000
47.562500 1.686400
47.613200 1.689200
47.663800 1.684600
47.714400 1.679600
47.765100 1.656700
47.815700 1.637200
47.866300 1.607300
47.917000 1.563000
47.967600 1.528400
48.018200 1.516000
48.068900 1.502600
48.119500 1.548200
48.170100 1.570100
48.220800 1.579200
48.271400 1.609900
48.322100 1.671600
48.372700 1.697800
48.423300 1.723600
48.474000 1.712500
48.524600 1.667600
48.575200 1.655400
48.625900 1.544200
48.676500 1.443700
48.727100 1.345900
48.777800 1.297800
48.828400 1.277000
48.879000 1.275900
48.929700 1.279900
48.980300 1.278900
49.030900 1.268600
49.081600 1.255000
49.132200 1.273800
49.182900 1.303600
49.233500 1.324200
49.284100 1.377300
49.334800 1.398500
49.385400 1.372700
49.436000 1.377800
49.486700 1.392600
49.537300 1.395300
49.587900 1.393500
49.638600 1.405600
49.689200 1.435400
49.739800 1.537500
49.790500 1.574600
49.841100 1.616200
49.891700 1.630600
49.942400 1.621000
49.993000 1.578200
50.043700 1.585500
50.094300 1.616800
50.144900 1.665400
50.195600 1.647600
50.246200 1.636200
50.296800 1.635300
50.347500 1.645400
50.398100 1.648400
50.448700 1.661900
50.499400 1.680400
50.550000 1.693200
50.600600 1.687700
50.651300 1.666400
50.701900 1.644400
50.752500 1.594900
50.803200 1.556600
50.853800 1.573000
50.904500 1.534000
50.955100 1.492900
51.005700 1.468800
51.056400 1.452100
51.107000 1.455500
51.157600 1.500800
51.208300 1.526900
51.258900 1.534300
51.309500 1.506100
51.360200 1.533800
51.410800 1.600100
51.461400 1.656000
51.512100 1.684700
51.562700 1.762200
51.613300 1.688500
51.664000 1.700800
51.714600 1.756900
51.765300 1.754500
51.815900 1.757500
51.866500 1.744300
51.917200 1.747200
51.967800 1.719700
52.018400 1.702000
52.069100 1.713300
52.119700 1.681300
52.170300 1.680900
52.221000 1.664800
52.271600 1.626900
52.322200 1.586700
52.372900 1.558400
52.423500 1.533100
52.474100 1.547400
52.524800 1.645400
52.575400 1.694700
52.626100 1.682600
52.676700 1.661300
52.727300 1.636600
52.778000 1.700100
52.828600 1.762800
52.879200 1.809200
52.929900 1.803400
52.980500 1.746200
53.031100 1.689700
53.081800 1.638600
53.132400 1.581800
53.183000 1.543600
53.233700 1.491200
53.284300 1.451800
53.335000 1.436300
53.385600 1.460200
53.436200 1.458800
53.486900 1.464500
53.537500 1.550000
53.588100 1.660200
53.638800 1.776600
53.689400 1.848400
53.740000 1.886400
53.790700 1.924700
53.841300 1.852600
53.891900 1.790400
53.942600 1.780000
53.993200 1.834100
54.043800 1.908600
54.094500 1.836900
54.145100 1.782300
54.195800 1.688000
54.246400 1.587300
54.297000 1.481300
54.347700 1.314500
54.398300 1.177800
54.448900 1.014400
54.499600 0.798000
54.550200 0.660500
54.600800 0.561200
54.651500 0.479700
54.702100 0.415600
54.752700 0.360700
54.803400 0.311100
54.854000 0.272100
54.904600 0.247100
54.955300 0.226800
55.005900 0.209300
55.056600 0.193800
55.107200 0.185300
55.157800 0.188300
55.208500 0.199900
55.259100 0.210100
55.309700 0.221600
55.360400 0.094600
55.411000 0.052300
55.461600 0.038100
55.512300 0.029600
55.562900 0.025500
55.613500 0.022000
55.664200 0.018500
55.714800 0.015100
55.765400 0.011700
55.816100 0.006600
55.866700 0.000100
55.917400 0.000000
55.968000 0.000000
56.018600 0.000000
56.069300 0.000000
56.119900 0.000000
56.170500 0.000000
56.221200 0.000000
56.271800 0.000000
56.322400 0.000000
56.373100 0.000000
56.423700 0.000000
56.474300 0.000000
56.525000 0.000000
56.575600 0.000000
56.626200 0.000000
56.676900 0.000000
56.727500 0.000000
56.778200 0.000000
56.828800 0.000000
56.879400 0.000000
56.930100 0.000000
56.980700 0.000000
57.031300 0.000000
57.082000 0.000000
57.132600 0.000000
57.183200 0.000000
57.233900 0.000000
57.284500 0.000000
57.335100 0.000000
57.385800 0.000000
57.436400 0.000000
57.487000 0.000000
57.537700 0.000000
57.588300 0.000000
57.639000 0.000000
57.689600 0.000000
57.740200 0.000000
57.790900 0.000000
57.841500 0.000000
57.892100 0.000000
57.942800 0.000000
57.993400 0.000000
58.044000 0.000000
58.094700 0.000000
58.145300 0.000000
58.195900 0.000000
58.246600 0.000000
58.297200 0.000000
58.347800 0.000000
58.398500 0.000000
58.449100 0.000000
58.499800 0.000000
58.550400 0.000000
58.601000 0.000000
58.651700 0.000000
58.702300 0.000000
58.752900 0.000000
58.803600 0.000000
58.854200 0.000000
58.904800 0.000000
58.955500 0.000000
59.006100 0.000000
59.056700 0.000000
59.107400 0.000000
59.158000 0.000000
59.208700 0.000000
59.259300 0.000000
59.309900 0.000000
59.360600 0.000000
59.411200 0.000000
59.461800 0.000000
59.512500 0.000000
59.563100 0.000000
59.613700 0.000000
59.664400 0.000000
59.715000 0.000000
59.765600 0.000000
59.816300 0.000000
59.866900 0.000000
59.917500 0.000000
59.968200 0.000000
60.018800 0.000000
60.069500 0.000000
60.120100 0.000000
60.170700 0.000000
60.221400 0.000000
60.272000 0.000000
60.322600 0.000000
60.373300 0.000000
60.423900 0.000000
60.474500 0.000000
e
