set title 'mp-1018891 - Density of States'
set xlabel 'Energy (eV)'
set ylabel 'DOS (states/eV)'
set grid
set xrange [-10:10]
set yrange [0:27.728]
set xzeroaxis lt -1
set terminal png size 800,600
set output 'mp-1018891_dos_gnuplot.png'
plot '-' using 1:2 with lines title 'DOS'
-16.348400 0.000000
-16.331000 0.000000
-16.313700 0.000000
-16.296300 0.000000
-16.279000 0.000000
-16.261600 0.000000
-16.244300 0.000000
-16.226900 0.000000
-16.209600 0.000000
-16.192200 0.000000
-16.174800 0.000000
-16.157500 0.000000
-16.140100 0.000000
-16.122800 0.000000
-16.105400 0.000000
-16.088100 0.000000
-16.070700 0.000000
-16.053300 0.000000
-16.036000 0.000000
-16.018600 0.000000
-16.001300 0.000000
-15.983900 0.000000
-15.966600 0.000000
-15.949200 0.000000
-15.931800 0.000000
-15.914500 0.000000
-15.897100 0.000000
-15.879800 0.000000
-15.862400 0.000000
-15.845100 0.000000
-15.827700 0.000000
-15.810300 0.000000
-15.793000 0.000000
-15.775600 0.000000
-15.758300 0.000000
-15.740900 0.000000
-15.723600 0.000000
-15.706200 0.000000
-15.688800 0.000000
-15.671500 0.000000
-15.654100 0.000000
-15.636800 0.000000
-15.619400 0.000000
-15.602100 0.000000
-15.584700 0.000000
-15.567300 0.000000
-15.550000 0.000000
-15.532600 0.000000
-15.515300 0.000000
-15.497900 0.000000
-15.480600 0.000000
-15.463200 0.000000
-15.445800 0.000000
-15.428500 0.000000
-15.411100 0.000000
-15.393800 0.000000
-15.376400 0.000000
-15.359100 0.000000
-15.341700 0.000000
-15.324300 0.000000
-15.307000 0.000000
-15.289600 0.000000
-15.272300 0.000000
-15.254900 0.000000
-15.237600 0.000000
-15.220200 0.000000
-15.202900 0.000000
-15.185500 0.000000
-15.168100 0.000000
-15.150800 0.000000
-15.133400 0.000000
-15.116100 0.000000
-15.098700 0.000000
-15.081400 0.000000
-15.064000 0.000000
-15.046600 0.000000
-15.029300 0.000000
-15.011900 0.000000
-14.994600 0.000000
-14.977200 0.000000
-14.959900 0.000000
-14.942500 0.000000
-14.925100 0.000000
-14.907800 0.000000
-14.890400 0.000000
-14.873100 0.000000
-14.855700 0.000000
-14.838400 0.000000
-14.821000 0.000000
-14.803600 0.000000
-14.786300 0.000000
-14.768900 0.001000
-14.751600 0.147800
-14.734200 0.540400
-14.716900 1.102000
-14.699500 1.737000
-14.682100 2.341400
-14.664800 3.098200
-14.647400 3.717300
-14.630100 4.145800
-14.612700 4.339400
-14.595400 4.554100
-14.578000 4.679700
-14.560600 4.737500
-14.543300 4.874500
-14.525900 5.108800
-14.508600 5.323000
-14.491200 5.435900
-14.473900 5.644200
-14.456500 5.935600
-14.439100 6.350000
-14.421800 6.824400
-14.404400 6.963100
-14.387100 6.864900
-14.369700 6.709800
-14.352400 6.791800
-14.335000 8.372700
-14.317600 13.520100
-14.300300 12.713700
-14.282900 10.093100
-14.265600 9.035400
-14.248200 7.995500
-14.230900 7.209300
-14.213500 6.912800
-14.196100 6.718100
-14.178800 6.528200
-14.161400 6.240100
-14.144100 7.078900
-14.126700 7.074300
-14.109400 4.706600
-14.092000 4.753400
-14.074700 4.749200
-14.057300 8.002700
-14.039900 12.565200
-14.022600 21.484500
-14.005200 42.501200
-13.987900 45.299100
-13.970500 46.026400
-13.953200 51.524600
-13.935800 0.000000
-13.918400 0.000000
-13.901100 0.000000
-13.883700 0.000000
-13.866400 0.000000
-13.849000 0.000000
-13.831700 0.000000
-13.814300 0.000000
-13.796900 0.000000
-13.779600 0.000000
-13.762200 0.000000
-13.744900 0.000000
-13.727500 0.000000
-13.710200 0.000000
-13.692800 0.000000
-13.675400 0.000000
-13.658100 0.000000
-13.640700 0.000000
-13.623400 0.000000
-13.606000 0.000000
-13.588700 0.000000
-13.571300 0.000000
-13.553900 0.000000
-13.536600 0.000000
-13.519200 0.000000
-13.501900 0.000000
-13.484500 0.000000
-13.467200 0.000000
-13.449800 0.000000
-13.432400 0.000000
-13.415100 0.000000
-13.397700 0.000000
-13.380400 0.000000
-13.363000 0.000000
-13.345700 0.000000
-13.328300 0.000000
-13.310900 0.000000
-13.293600 0.000000
-13.276200 0.000000
-13.258900 0.000000
-13.241500 0.000000
-13.224200 0.000000
-13.206800 0.000000
-13.189400 0.000000
-13.172100 0.000000
-13.154700 0.000000
-13.137400 0.000000
-13.120000 0.000000
-13.102700 0.000000
-13.085300 0.000000
-13.068000 0.000000
-13.050600 0.000000
-13.033200 0.000000
-13.015900 0.000000
-12.998500 0.000000
-12.981200 0.000000
-12.963800 0.000000
-12.946500 0.000000
-12.929100 0.000000
-12.911700 0.000000
-12.894400 0.000000
-12.877000 0.000000
-12.859700 0.000000
-12.842300 0.000000
-12.825000 0.000000
-12.807600 0.000000
-12.790200 0.000000
-12.772900 0.000000
-12.755500 0.000000
-12.738200 0.000000
-12.720800 0.000000
-12.703500 0.000000
-12.686100 0.000000
-12.668700 0.000000
-12.651400 0.000000
-12.634000 0.000000
-12.616700 0.000000
-12.599300 0.000000
-12.582000 0.000000
-12.564600 0.000000
-12.547200 0.000000
-12.529900 0.000000
-12.512500 0.000000
-12.495200 0.000000
-12.477800 0.000000
-12.460500 0.000000
-12.443100 0.000000
-12.425700 0.000000
-12.408400 0.000000
-12.391000 0.000000
-12.373700 0.000000
-12.356300 0.000000
-12.339000 0.000000
-12.321600 0.000000
-12.304200 0.000000
-12.286900 0.000000
-12.269500 0.000000
-12.252200 0.000000
-12.234800 0.000000
-12.217500 0.000000
-12.200100 0.000000
-12.182700 0.000000
-12.165400 0.000000
-12.148000 0.000000
-12.130700 0.000000
-12.113300 0.000000
-12.096000 0.000000
-12.078600 0.000000
-12.061200 0.000000
-12.043900 0.000000
-12.026500 0.000000
-12.009200 0.000000
-11.991800 0.000000
-11.974500 0.000000
-11.957100 0.000000
-11.939800 0.000000
-11.922400 0.000000
-11.905000 0.000000
-11.887700 0.000000
-11.870300 0.000000
-11.853000 0.000000
-11.835600 0.000000
-11.818300 0.000000
-11.800900 0.000000
-11.783500 0.000000
-11.766200 0.000000
-11.748800 0.000000
-11.731500 0.000000
-11.714100 0.000000
-11.696800 0.000000
-11.679400 0.000000
-11.662000 0.000000
-11.644700 0.000000
-11.627300 0.000000
-11.610000 0.000000
-11.592600 0.000000
-11.575300 0.000000
-11.557900 0.000000
-11.540500 0.000000
-11.523200 0.000000
-11.505800 0.000000
-11.488500 0.000000
-11.471100 0.000000
-11.453800 0.000000
-11.436400 0.000000
-11.419000 0.000000
-11.401700 0.000000
-11.384300 0.000000
-11.367000 0.000000
-11.349600 0.000000
-11.332300 0.000000
-11.314900 0.000000
-11.297500 0.000000
-11.280200 0.000000
-11.262800 0.000000
-11.245500 0.000000
-11.228100 0.000000
-11.210800 0.000000
-11.193400 0.000000
-11.176000 0.000000
-11.158700 0.000000
-11.141300 0.000000
-11.124000 0.000000
-11.106600 0.000000
-11.089300 0.000000
-11.071900 0.000000
-11.054500 0.000000
-11.037200 0.000000
-11.019800 0.000000
-11.002500 0.000000
-10.985100 0.000000
-10.967800 0.000000
-10.950400 0.000000
-10.933000 0.000000
-10.915700 0.000000
-10.898300 0.000000
-10.881000 0.000000
-10.863600 0.000000
-10.846300 0.000000
-10.828900 0.000000
-10.811600 0.000000
-10.794200 0.000000
-10.776800 0.000000
-10.759500 0.000000
-10.742100 0.000000
-10.724800 0.000000
-10.707400 0.000000
-10.690100 0.000000
-10.672700 0.000000
-10.655300 0.000000
-10.638000 0.000000
-10.620600 0.000000
-10.603300 0.000000
-10.585900 0.000000
-10.568600 0.000000
-10.551200 0.000000
-10.533800 0.000000
-10.516500 0.000000
-10.499100 0.000000
-10.481800 0.000000
-10.464400 0.000000
-10.447100 0.000000
-10.429700 0.000000
-10.412300 0.000000
-10.395000 0.000000
-10.377600 0.000000
-10.360300 0.000000
-10.342900 0.000000
-10.325600 0.000000
-10.308200 0.000000
-10.290800 0.000000
-10.273500 0.000000
-10.256100 0.000000
-10.238800 0.000000
-10.221400 0.000000
-10.204100 0.000000
-10.186700 0.000000
-10.169300 0.000000
-10.152000 0.000000
-10.134600 0.000000
-10.117300 0.000000
-10.099900 0.000000
-10.082600 0.000000
-10.065200 0.000000
-10.047800 0.000000
-10.030500 0.000000
-10.013100 0.000000
-9.995800 0.000000
-9.978400 0.000000
-9.961100 0.000000
-9.943700 0.000000
-9.926300 0.000000
-9.909000 0.000000
-9.891600 0.000000
-9.874300 0.000000
-9.856900 0.000000
-9.839600 0.000000
-9.822200 0.000000
-9.804900 0.000000
-9.787500 0.000000
-9.770100 0.000000
-9.752800 0.000000
-9.735400 0.000000
-9.718100 0.000000
-9.700700 0.000000
-9.683400 0.000000
-9.666000 0.000000
-9.648600 0.000000
-9.631300 0.000000
-9.613900 0.000000
-9.596600 0.000000
-9.579200 0.000000
-9.561900 0.000000
-9.544500 0.000000
-9.527100 0.000000
-9.509800 0.000000
-9.492400 0.000000
-9.475100 0.000000
-9.457700 0.000000
-9.440400 0.000000
-9.423000 0.000000
-9.405600 0.000000
-9.388300 0.000000
-9.370900 0.000000
-9.353600 0.000000
-9.336200 0.000000
-9.318900 0.000000
-9.301500 0.000000
-9.284100 0.000000
-9.266800 0.000000
-9.249400 0.000000
-9.232100 0.000000
-9.214700 0.000000
-9.197400 0.000000
-9.180000 0.000000
-9.162600 0.000000
-9.145300 0.000000
-9.127900 0.000000
-9.110600 0.000000
-9.093200 0.000000
-9.075900 0.000000
-9.058500 0.000000
-9.041100 0.000000
-9.023800 0.000000
-9.006400 0.000000
-8.989100 0.000000
-8.971700 0.000000
-8.954400 0.000000
-8.937000 0.000000
-8.919600 0.000000
-8.902300 0.000000
-8.884900 0.000000
-8.867600 0.000000
-8.850200 0.000000
-8.832900 0.000000
-8.815500 0.000000
-8.798100 0.000000
-8.780800 0.000000
-8.763400 0.000000
-8.746100 0.000000
-8.728700 0.000000
-8.711400 0.000000
-8.694000 0.000000
-8.676700 0.000000
-8.659300 0.000000
-8.641900 0.000000
-8.624600 0.000000
-8.607200 0.000000
-8.589900 0.000000
-8.572500 0.000000
-8.555200 0.000000
-8.537800 0.000000
-8.520400 0.000000
-8.503100 0.000000
-8.485700 0.000000
-8.468400 0.000000
-8.451000 0.000000
-8.433700 0.000000
-8.416300 0.000000
-8.398900 0.000000
-8.381600 0.000000
-8.364200 0.000000
-8.346900 0.000000
-8.329500 0.000000
-8.312200 0.000000
-8.294800 0.000000
-8.277400 0.000000
-8.260100 0.000000
-8.242700 0.000000
-8.225400 0.000000
-8.208000 0.000000
-8.190700 0.000000
-8.173300 0.000000
-8.155900 0.000000
-8.138600 0.000000
-8.121200 0.000000
-8.103900 0.000000
-8.086500 0.000000
-8.069200 0.000000
-8.051800 0.000000
-8.034400 0.000000
-8.017100 0.000000
-7.999700 0.000000
-7.982400 0.000000
-7.965000 0.000000
-7.947700 0.000000
-7.930300 0.000000
-7.912900 0.000000
-7.895600 0.000000
-7.878200 0.000000
-7.860900 0.000000
-7.843500 0.000000
-7.826200 0.000000
-7.808800 0.000000
-7.791400 0.000000
-7.774100 0.000000
-7.756700 0.000000
-7.739400 0.000000
-7.722000 0.000000
-7.704700 0.000000
-7.687300 0.000000
-7.669900 0.000000
-7.652600 0.000000
-7.635200 0.000000
-7.617900 0.000000
-7.600500 0.000000
-7.583200 0.000000
-7.565800 0.000000
-7.548500 0.000000
-7.531100 0.000000
-7.513700 0.000000
-7.496400 0.000000
-7.479000 0.000000
-7.461700 0.000000
-7.444300 0.000000
-7.427000 0.000000
-7.409600 0.000000
-7.392200 0.000000
-7.374900 0.000000
-7.357500 0.000000
-7.340200 0.000000
-7.322800 0.000000
-7.305500 0.000000
-7.288100 0.000000
-7.270700 0.000000
-7.253400 0.000000
-7.236000 0.000000
-7.218700 0.000000
-7.201300 0.000000
-7.184000 0.000000
-7.166600 0.000000
-7.149200 0.000000
-7.131900 0.000000
-7.114500 0.000000
-7.097200 0.000000
-7.079800 0.000000
-7.062500 0.000000
-7.045100 0.000000
-7.027700 0.000000
-7.010400 0.000000
-6.993000 0.000000
-6.975700 0.000000
-6.958300 0.000000
-6.941000 0.000000
-6.923600 0.000000
-6.906200 0.000000
-6.888900 0.000000
-6.871500 0.000000
-6.854200 0.000000
-6.836800 0.000000
-6.819500 0.000000
-6.802100 0.000000
-6.784700 0.000000
-6.767400 0.000000
-6.750000 0.000000
-6.732700 0.000000
-6.715300 0.000000
-6.698000 0.000000
-6.680600 0.000000
-6.663200 0.000000
-6.645900 0.000000
-6.628500 0.000000
-6.611200 0.000000
-6.593800 0.000000
-6.576500 0.000000
-6.559100 0.000000
-6.541800 0.000000
-6.524400 0.000000
-6.507000 0.000000
-6.489700 0.000000
-6.472300 0.000000
-6.455000 0.000000
-6.437600 0.000000
-6.420300 0.000000
-6.402900 0.000000
-6.385500 0.000000
-6.368200 0.000000
-6.350800 0.000000
-6.333500 0.000000
-6.316100 0.000000
-6.298800 0.000000
-6.281400 0.000000
-6.264000 0.000000
-6.246700 0.000000
-6.229300 0.000000
-6.212000 0.000000
-6.194600 0.000000
-6.177300 0.000000
-6.159900 0.000000
-6.142500 0.000000
-6.125200 0.000000
-6.107800 0.000000
-6.090500 0.000000
-6.073100 0.000000
-6.055800 0.000000
-6.038400 0.000000
-6.021000 0.000000
-6.003700 0.000000
-5.986300 0.000000
-5.969000 0.000000
-5.951600 0.000000
-5.934300 0.000000
-5.916900 0.000000
-5.899500 0.000000
-5.882200 0.000000
-5.864800 0.000000
-5.847500 0.000000
-5.830100 0.000000
-5.812800 0.000000
-5.795400 0.000000
-5.778000 0.000000
-5.760700 0.000000
-5.743300 0.000000
-5.726000 0.000000
-5.708600 0.000000
-5.691300 0.000000
-5.673900 0.000000
-5.656500 0.000000
-5.639200 0.000000
-5.621800 0.000000
-5.604500 0.000000
-5.587100 0.000000
-5.569800 0.000000
-5.552400 0.000000
-5.535000 0.000000
-5.517700 0.000000
-5.500300 0.000000
-5.483000 0.000000
-5.465600 0.000000
-5.448300 0.000000
-5.430900 0.000000
-5.413600 0.000000
-5.396200 0.000000
-5.378800 0.000000
-5.361500 0.000000
-5.344100 0.000000
-5.326800 0.000000
-5.309400 0.000000
-5.292100 0.000000
-5.274700 0.000000
-5.257300 0.000000
-5.240000 0.000000
-5.222600 0.000000
-5.205300 0.000000
-5.187900 0.083700
-5.170600 0.319500
-5.153200 0.555400
-5.135800 0.791500
-5.118500 1.027900
-5.101100 1.234300
-5.083800 1.418800
-5.066400 1.603300
-5.049100 1.787600
-5.031700 1.971900
-5.014300 2.156000
-4.997000 2.340200
-4.979600 2.524200
-4.962300 2.708100
-4.944900 2.892000
-4.927600 3.256500
-4.910200 5.594300
-4.892800 9.056900
-4.875500 8.282700
-4.858100 8.131100
-4.840800 8.183600
-4.823400 8.229700
-4.806100 7.738000
-4.788700 6.985200
-4.771300 6.088900
-4.754000 5.395400
-4.736600 4.880700
-4.719300 4.583700
-4.701900 4.480200
-4.684600 4.377200
-4.667200 4.274800
-4.649800 4.172900
-4.632500 4.401600
-4.615100 5.726600
-4.597800 6.956100
-4.580400 7.471200
-4.563100 7.358000
-4.545700 7.698400
-4.528300 7.777400
-4.511000 7.862800
-4.493600 7.978400
-4.476300 8.038700
-4.458900 7.759100
-4.441600 7.035300
-4.424200 5.829500
-4.406900 4.736200
-4.389500 3.691000
-4.372100 2.435600
-4.354800 0.624600
-4.337400 0.000000
-4.320100 0.000000
-4.302700 0.000000
-4.285400 0.000000
-4.268000 0.000000
-4.250600 0.000000
-4.233300 0.000000
-4.215900 0.145900
-4.198600 0.584900
-4.181200 1.306400
-4.163900 2.515200
-4.146500 3.532700
-4.129100 4.594700
-4.111800 6.035000
-4.094400 6.632900
-4.077100 6.886900
-4.059700 6.937700
-4.042400 6.863600
-4.025000 6.676500
-4.007600 6.630500
-3.990300 6.615500
-3.972900 6.877700
-3.955600 7.452500
-3.938200 8.209300
-3.920900 9.748500
-3.903500 10.162000
-3.886100 10.356600
-3.868800 11.104400
-3.851400 12.083800
-3.834100 14.017000
-3.816700 13.308300
-3.799400 12.190700
-3.782000 10.690900
-3.764600 9.067000
-3.747300 7.830900
-3.729900 6.325200
-3.712600 5.492200
-3.695200 5.045800
-3.677900 4.866500
-3.660500 4.668300
-3.643100 4.618700
-3.625800 4.660100
-3.608400 4.797200
-3.591100 7.516800
-3.573700 6.988800
-3.556400 7.100000
-3.539000 8.131100
-3.521600 9.073700
-3.504300 9.345200
-3.486900 9.236500
-3.469600 8.888300
-3.452200 8.332900
-3.434900 7.441800
-3.417500 6.125600
-3.400100 5.654500
-3.382800 5.237000
-3.365400 3.945900
-3.348100 3.751200
-3.330700 4.012500
-3.313400 4.234400
-3.296000 4.435200
-3.278700 4.620500
-3.261300 4.741100
-3.243900 4.808700
-3.226600 4.841800
-3.209200 4.863500
-3.191900 5.032300
-3.174500 5.111600
-3.157200 5.026900
-3.139800 4.844100
-3.122400 4.587900
-3.105100 4.418900
-3.087700 4.302200
-3.070400 4.175200
-3.053000 4.011800
-3.035700 3.894000
-3.018300 4.909900
-3.000900 6.553800
-2.983600 7.832400
-2.966200 8.177800
-2.948900 8.201500
-2.931500 8.186500
-2.914200 8.814700
-2.896800 11.070900
-2.879400 12.945200
-2.862100 14.203100
-2.844700 14.431100
-2.827400 14.133900
-2.810000 13.357400
-2.792700 11.922500
-2.775300 10.885000
-2.757900 9.972800
-2.740600 9.212100
-2.723200 8.535400
-2.705900 7.904900
-2.688500 7.277800
-2.671200 6.663200
-2.653800 6.101200
-2.636400 5.591400
-2.619100 5.114700
-2.601700 4.648000
-2.584400 4.176800
-2.567000 3.855900
-2.549700 3.571200
-2.532300 2.659900
-2.514900 1.882600
-2.497600 1.696800
-2.480200 1.558500
-2.462900 1.443000
-2.445500 1.350200
-2.428200 1.329100
-2.410800 1.492600
-2.393400 1.874900
-2.376100 2.220900
-2.358700 2.648500
-2.341400 4.069600
-2.324000 4.377800
-2.306700 4.305900
-2.289300 4.428200
-2.271900 4.706600
-2.254600 5.249100
-2.237200 6.671000
-2.219900 8.813800
-2.202500 11.695200
-2.185200 12.656100
-2.167800 13.249700
-2.150500 12.786400
-2.133100 10.816200
-2.115700 9.180800
-2.098400 8.233200
-2.081000 6.959400
-2.063700 5.857600
-2.046300 5.922800
-2.029000 7.304300
-2.011600 8.501000
-1.994200 7.725000
-1.976900 7.235700
-1.959500 6.803400
-1.942200 6.324400
-1.924800 5.594000
-1.907500 4.850800
-1.890100 4.134400
-1.872700 3.504800
-1.855400 3.029600
-1.838000 2.671900
-1.820700 2.346400
-1.803300 2.121000
-1.786000 1.953200
-1.768600 1.817100
-1.751200 1.652100
-1.733900 1.513000
-1.716500 1.524000
-1.699200 1.657500
-1.681800 1.890200
-1.664500 2.459500
-1.647100 3.382100
-1.629700 4.326400
-1.612400 5.834300
-1.595000 8.407300
-1.577700 8.886500
-1.560300 9.093700
-1.543000 8.637900
-1.525600 7.734100
-1.508200 7.490100
-1.490900 7.314300
-1.473500 7.176100
-1.456200 6.971300
-1.438800 6.849400
-1.421500 6.891000
-1.404100 6.988100
-1.386700 7.041100
-1.369400 7.036400
-1.352000 6.980500
-1.334700 7.404400
-1.317300 8.872100
-1.300000 8.946300
-1.282600 8.503100
-1.265200 8.032500
-1.247900 7.538900
-1.230500 6.986500
-1.213200 5.417700
-1.195800 4.527000
-1.178500 3.910300
-1.161100 3.421100
-1.143800 3.004400
-1.126400 2.737200
-1.109000 2.683900
-1.091700 2.767200
-1.074300 2.851900
-1.057000 2.936500
-1.039600 3.017000
-1.022300 3.094700
-1.004900 3.361700
-0.987500 3.635100
-0.970200 3.908100
-0.952800 4.266300
-0.935500 4.692300
-0.918100 5.169900
-0.900800 5.766400
-0.883400 6.668200
-0.866000 8.050300
-0.848700 10.647600
-0.831300 15.043100
-0.814000 19.020500
-0.796600 16.450900
-0.779300 14.745000
-0.761900 13.117800
-0.744500 13.460100
-0.727200 14.142300
-0.709800 13.829500
-0.692500 13.107000
-0.675100 12.491300
-0.657800 12.431000
-0.640400 12.478700
-0.623000 12.672200
-0.605700 12.860800
-0.588300 12.880000
-0.571000 12.746100
-0.553600 12.540300
-0.536300 12.196700
-0.518900 11.687200
-0.501500 11.259600
-0.484200 10.848600
-0.466800 10.313400
-0.449500 9.656700
-0.432100 8.884000
-0.414800 8.195800
-0.397400 7.609800
-0.380000 7.211500
-0.362700 7.149300
-0.345300 7.162800
-0.328000 7.168100
-0.310600 7.175400
-0.293300 7.116600
-0.275900 7.061800
-0.258500 7.012900
-0.241200 8.024000
-0.223800 7.514300
-0.206500 6.707200
-0.189100 3.997100
-0.171800 1.489600
-0.154400 0.705900
-0.137000 0.783500
-0.119700 1.041200
-0.102300 1.815800
-0.085000 4.260400
-0.067600 9.684100
-0.050300 11.541100
-0.032900 12.076900
-0.015600 12.749300
0.001800 14.094600
0.019200 15.240700
0.036500 16.794400
0.053900 15.490900
0.071200 14.646100
0.088600 16.466400
0.105900 20.164200
0.123300 25.207200
0.140700 23.530800
0.158000 22.957600
0.175400 21.827300
0.192700 20.698200
0.210100 16.861500
0.227400 14.788000
0.244800 14.647200
0.262200 14.845000
0.279500 15.479600
0.296900 15.807400
0.314200 15.901800
0.331600 15.663000
0.348900 15.315600
0.366300 10.508900
0.383700 7.293400
0.401000 5.227000
0.418400 3.848200
0.435700 3.017900
0.453100 2.603700
0.470400 2.195600
0.487800 1.802600
0.505200 1.412800
0.522500 1.064900
0.539900 0.774600
0.557200 0.541700
0.574600 0.348000
0.591900 0.189800
0.609300 0.067200
0.626700 0.000000
0.644000 0.000000
0.661400 0.000000
0.678700 0.000000
0.696100 0.000000
0.713400 0.000000
0.730800 0.000000
0.748200 0.000000
0.765500 0.000000
0.782900 0.000000
0.800200 0.000000
0.817600 0.000000
0.834900 0.000000
0.852300 0.000000
0.869700 0.000000
0.887000 0.000000
0.904400 0.000000
0.921700 0.000000
0.939100 0.000000
0.956400 0.000000
0.973800 0.000000
0.991100 0.000000
1.008500 0.000000
1.025900 0.000000
1.043200 0.000000
1.060600 0.000000
1.077900 0.000000
1.095300 0.000000
1.112600 0.000000
1.130000 0.000000
1.147400 0.000000
1.164700 0.000000
1.182100 0.000000
1.199400 0.000000
1.216800 0.000000
1.234100 0.000000
1.251500 0.000000
1.268900 0.000000
1.286200 0.000000
1.303600 0.000000
1.320900 0.000000
1.338300 0.000000
1.355600 0.000000
1.373000 0.000000
1.390400 0.000000
1.407700 0.000000
1.425100 0.053000
1.442400 0.166800
1.459800 0.301200
1.477100 0.456300
1.494500 0.631900
1.511900 0.815700
1.529200 1.006800
1.546600 1.322800
1.563900 1.551000
1.581300 1.648400
1.598600 1.720400
1.616000 1.809800
1.633400 1.916700
1.650700 2.078000
1.668100 2.268100
1.685400 2.466900
1.702800 2.674300
1.720100 2.898800
1.737500 3.184200
1.754900 3.637100
1.772200 4.166100
1.789600 4.868900
1.806900 5.582700
1.824300 6.337900
1.841600 7.557900
1.859000 7.120000
1.876400 5.755700
1.893700 5.972500
1.911100 6.044000
1.928400 6.177200
1.945800 6.073200
1.963100 5.881600
1.980500 5.789200
1.997900 5.648800
2.015200 5.571700
2.032600 5.609800
2.049900 5.690900
2.067300 5.794500
2.084600 5.988400
2.102000 6.065400
2.119300 6.089100
2.136700 5.940600
2.154100 5.350800
2.171400 5.010200
2.188800 4.423500
2.206100 3.887800
2.223500 3.417900
2.240800 3.175500
2.258200 2.972500
2.275600 2.843000
2.292900 2.712500
2.310300 2.580500
2.327600 2.448000
2.345000 2.315100
2.362300 2.181800
2.379700 2.048000
2.397100 1.913800
2.414400 1.779200
2.431800 1.647500
2.449100 1.569000
2.466500 1.500800
2.483800 1.432700
2.501200 1.364600
2.518600 1.296700
2.535900 1.228700
2.553300 1.160900
2.570600 1.093100
2.588000 1.025400
2.605300 0.957800
2.622700 0.890200
2.640100 0.822700
2.657400 0.748700
2.674800 0.657200
2.692100 0.554900
2.709500 0.440700
2.726800 0.319700
2.744200 0.207600
2.761600 0.126000
2.778900 0.068600
2.796300 0.026300
2.813600 0.000000
2.831000 0.000000
2.848300 0.000000
2.865700 0.000000
2.883100 0.000000
2.900400 0.000000
2.917800 0.000000
2.935100 0.000000
2.952500 0.000000
2.969800 0.000000
2.987200 0.000000
3.004600 0.000000
3.021900 0.000000
3.039300 0.000000
3.056600 0.000000
3.074000 0.000000
3.091300 0.000000
3.108700 0.000000
3.126100 0.000000
3.143400 0.000000
3.160800 0.000000
3.178100 0.000000
3.195500 0.000000
3.212800 0.000000
3.230200 0.000000
3.247500 0.000000
3.264900 0.000000
3.282300 0.000000
3.299600 0.000000
3.317000 0.000000
3.334300 0.000000
3.351700 0.000000
3.369000 0.000000
3.386400 0.000000
3.403800 0.000000
3.421100 0.000000
3.438500 0.000000
3.455800 0.000000
3.473200 0.000000
3.490500 0.000000
3.507900 0.000000
3.525300 0.000000
3.542600 0.000000
3.560000 0.000000
3.577300 0.000000
3.594700 0.000000
3.612000 0.000000
3.629400 0.000000
3.646800 0.000000
3.664100 0.000000
3.681500 0.000000
3.698800 0.000000
3.716200 0.000000
3.733500 0.000000
3.750900 0.000000
3.768300 0.000000
3.785600 0.000000
3.803000 0.000000
3.820300 0.000000
3.837700 0.000000
3.855000 0.000000
3.872400 0.000000
3.889800 0.000000
3.907100 0.000000
3.924500 0.000000
3.941800 0.000000
3.959200 0.000000
3.976500 0.000000
3.993900 0.000000
4.011300 0.000000
4.028600 0.000000
4.046000 0.000000
4.063300 0.000000
4.080700 0.000000
4.098000 0.000000
4.115400 0.000000
4.132800 0.000000
4.150100 0.000000
4.167500 0.000000
4.184800 0.000000
4.202200 0.000000
4.219500 0.000000
4.236900 0.000000
4.254200 0.000000
4.271600 0.000000
4.289000 0.000000
4.306300 0.000000
4.323700 0.000000
4.341000 0.000000
4.358400 0.000000
4.375700 0.000000
4.393100 0.000000
4.410500 0.000000
4.427800 0.000000
4.445200 0.000000
4.462500 0.000000
4.479900 0.000000
4.497200 0.000000
4.514600 0.000000
4.532000 0.000000
4.549300 0.000000
4.566700 0.000000
4.584000 0.000000
4.601400 0.000000
4.618700 0.000000
4.636100 0.000000
4.653500 0.000000
4.670800 0.000000
4.688200 0.000000
4.705500 0.000000
4.722900 0.000000
4.740200 0.000000
4.757600 0.000000
4.775000 0.000000
4.792300 0.000000
4.809700 0.000000
4.827000 0.000000
4.844400 0.000000
4.861700 0.000000
4.879100 0.000000
4.896500 0.000000
4.913800 0.000000
4.931200 0.000000
4.948500 0.000000
4.965900 0.000000
4.983200 0.000000
5.000600 0.000000
5.018000 0.000300
5.035300 0.001100
5.052700 0.002600
5.070000 0.004600
5.087400 0.007300
5.104700 0.010500
5.122100 0.014400
5.139500 0.018800
5.156800 0.023800
5.174200 0.029500
5.191500 0.035700
5.208900 0.042600
5.226200 0.050000
5.243600 0.058000
5.261000 0.066600
5.278300 0.075900
5.295700 0.085700
5.313000 0.096100
5.330400 0.107100
5.347700 0.118700
5.365100 0.130900
5.382400 0.143800
5.399800 0.157500
5.417200 0.172100
5.434500 0.187200
5.451900 0.202200
5.469200 0.216900
5.486600 0.231500
5.503900 0.245800
5.521300 0.259900
5.538700 0.273900
5.556000 0.287600
5.573400 0.300800
5.590700 0.313300
5.608100 0.325300
5.625400 0.336700
5.642800 0.347500
5.660200 0.357600
5.677500 0.367200
5.694900 0.376600
5.712200 0.385800
5.729600 0.395300
5.746900 0.405200
5.764300 0.415300
5.781700 0.425900
5.799000 0.437600
5.816400 0.450800
5.833700 0.465600
5.851100 0.481800
5.868400 0.499700
5.885800 0.519000
5.903200 0.539900
5.920500 0.562300
5.937900 0.586400
5.955200 0.612500
5.972600 0.640900
5.989900 0.671400
6.007300 0.704200
6.024700 0.739100
6.042000 0.775600
6.059400 0.812900
6.076700 0.851100
6.094100 0.929000
6.111400 1.085400
6.128800 1.268200
6.146200 1.453900
6.163500 1.641600
6.180900 1.840200
6.198200 2.041700
6.215600 2.247200
6.232900 2.453800
6.250300 2.632700
6.267700 2.797200
6.285000 2.964700
6.302400 3.135600
6.319700 3.320400
6.337100 3.523300
6.354400 3.706100
6.371800 3.824400
6.389200 3.908500
6.406500 4.018200
6.423900 4.079200
6.441200 4.111100
6.458600 4.139000
6.475900 4.178200
6.493300 4.212800
6.510600 4.243200
6.528000 4.269300
6.545400 4.289400
6.562700 4.300600
6.580100 4.314400
6.597400 4.325100
6.614800 4.327200
6.632100 4.313000
6.649500 4.289000
6.666900 4.264700
6.684200 4.248900
6.701600 4.230300
6.718900 4.209200
6.736300 4.187600
6.753600 4.157600
6.771000 4.117500
6.788400 4.067400
6.805700 4.008400
6.823100 3.942400
6.840400 3.871500
6.857800 3.788500
6.875100 3.688800
6.892500 3.590800
6.909900 3.503900
6.927200 3.431400
6.944600 3.381400
6.961900 3.343000
6.979300 3.302300
6.996600 3.262600
7.014000 3.224300
7.031400 3.187600
7.048700 3.151000
7.066100 3.077800
7.083400 2.962500
7.100800 2.821400
7.118100 2.768700
7.135500 2.794900
7.152900 2.848800
7.170200 2.930200
7.187600 3.039100
7.204900 3.175600
7.222300 3.462400
7.239600 3.878300
7.257000 4.241800
7.274400 4.602600
7.291700 4.968900
7.309100 5.249200
7.326400 5.419800
7.343800 5.670600
7.361100 5.883400
7.378500 5.891700
7.395900 5.734100
7.413200 5.697700
7.430600 5.608500
7.447900 5.455800
7.465300 5.381800
7.482600 5.709000
7.500000 5.492900
7.517300 4.921800
7.534700 4.236400
7.552100 3.752400
7.569400 3.665800
7.586800 3.709700
7.604100 3.931300
7.621500 4.574100
7.638800 5.296200
7.656200 6.038800
7.673600 6.610700
7.690900 6.427700
7.708300 5.944500
7.725600 5.815200
7.743000 5.756900
7.760300 5.727900
7.777700 5.574400
7.795100 5.306500
7.812400 4.994500
7.829800 4.159700
7.847100 3.689200
7.864500 3.352400
7.881800 3.076900
7.899200 2.849700
7.916600 2.648200
7.933900 2.463400
7.951300 2.283600
7.968600 2.110700
7.986000 1.944600
8.003300 1.784700
8.020700 1.628100
8.038100 1.474600
8.055400 1.324300
8.072800 1.177300
8.090100 1.035800
8.107500 0.893400
8.124800 0.728200
8.142200 0.578800
8.159600 0.445400
8.176900 0.327900
8.194300 0.250300
8.211600 0.193000
8.229000 0.153500
8.246300 0.129000
8.263700 0.108700
8.281100 0.091400
8.298400 0.077400
8.315800 0.066500
8.333100 0.058800
8.350500 0.054200
8.367800 0.052800
8.385200 0.054500
8.402600 0.059400
8.419900 0.067400
8.437300 0.078700
8.454600 0.093400
8.472000 0.111600
8.489300 0.133200
8.506700 0.158100
8.524100 0.186500
8.541400 0.218100
8.558800 0.283400
8.576100 0.363400
8.593500 0.433200
8.610800 0.492800
8.628200 0.542200
8.645500 0.583500
8.662900 0.625100
8.680300 0.667800
8.697600 0.711500
8.715000 0.756300
8.732300 0.802100
8.749700 0.848900
8.767000 0.896800
8.784400 0.945800
8.801800 0.995800
8.819100 1.046800
8.836500 1.098900
8.853800 1.152100
8.871200 1.206300
8.888500 1.263800
8.905900 1.383100
8.923300 1.475100
8.940600 1.539700
8.958000 1.580100
8.975300 1.612100
8.992700 1.669300
9.010000 1.770600
9.027400 1.926000
9.044800 2.137300
9.062100 2.317800
9.079500 2.390100
9.096800 2.468400
9.114200 2.576900
9.131500 2.670300
9.148900 2.741500
9.166300 2.774800
9.183600 2.792500
9.201000 2.844600
9.218300 2.879700
9.235700 2.915600
9.253000 2.940400
9.270400 2.974700
9.287800 3.055400
9.305100 3.158500
9.322500 3.279100
9.339800 3.414300
9.357200 3.559900
9.374500 3.712200
9.391900 3.826900
9.409300 3.956200
9.426600 4.174400
9.444000 4.323100
9.461300 4.435100
9.478700 4.530700
9.496000 4.612100
9.513400 4.683800
9.530800 4.748200
9.548100 4.801200
9.565500 4.817200
9.582800 4.781100
9.600200 4.699000
9.617500 4.586100
9.634900 4.450200
9.652200 4.302700
9.669600 4.158100
9.687000 4.040000
9.704300 3.909500
9.721700 3.768800
9.739000 3.620600
9.756400 3.392500
9.773700 3.286300
9.791100 3.215900
9.808500 3.155800
9.825800 3.109500
9.843200 3.079800
9.860500 3.046700
9.877900 3.151100
9.895200 3.268800
9.912600 3.415600
9.930000 3.777800
9.947300 4.034100
9.964700 4.110700
9.982000 4.417000
9.999400 4.340900
10.016700 4.212500
10.034100 4.089000
10.051500 3.972900
10.068800 3.977200
10.086200 4.049100
10.103500 4.206400
10.120900 4.464200
10.138200 4.727100
10.155600 4.677300
10.173000 4.660700
10.190300 4.665500
10.207700 4.760500
10.225000 4.914900
10.242400 5.083800
10.259700 5.258200
10.277100 5.429400
10.294500 5.594400
10.311800 5.862600
10.329200 6.280000
10.346500 6.031900
10.363900 5.870500
10.381200 5.775400
10.398600 5.717400
10.416000 5.649300
10.433300 5.545200
10.450700 5.288600
10.468000 4.798000
10.485400 4.638300
10.502700 4.629400
10.520100 5.131700
10.537500 5.065400
10.554800 4.962900
10.572200 4.800300
10.589500 4.691300
10.606900 4.664300
10.624200 4.587800
10.641600 4.365900
10.659000 3.996200
10.676300 3.582600
10.693700 3.283100
10.711000 3.097500
10.728400 3.071100
10.745700 3.289900
10.763100 3.905500
10.780400 4.051700
10.797800 4.215000
10.815200 4.440800
10.832500 4.753900
10.849900 5.026400
10.867200 5.172600
10.884600 5.280200
10.901900 5.383300
10.919300 5.498800
10.936700 5.637900
10.954000 5.785000
10.971400 5.916700
10.988700 5.314200
11.006100 4.963500
11.023400 4.839900
11.040800 4.975200
11.058200 5.227100
11.075500 5.640600
11.092900 6.012000
11.110200 6.346600
11.127600 6.681600
11.144900 6.989200
11.162300 7.262300
11.179700 7.515000
11.197000 7.836400
11.214400 8.179900
11.231700 8.510900
11.249100 7.744600
11.266400 6.963100
11.283800 6.505800
11.301200 6.120100
11.318500 5.848900
11.335900 6.079800
11.353200 6.443800
11.370600 6.715800
11.387900 6.786300
11.405300 6.788300
11.422700 6.785800
11.440000 6.821200
11.457400 6.840000
11.474700 6.849300
11.492100 6.849100
11.509400 6.834800
11.526800 6.815500
11.544200 6.821500
11.561500 7.113200
11.578900 7.763200
11.596200 10.268600
11.613600 7.831400
11.630900 7.122900
11.648300 6.907400
11.665700 6.889700
11.683000 6.787700
11.700400 6.678300
11.717700 6.491400
11.735100 6.344300
11.752400 6.347600
11.769800 6.383400
11.787200 6.459900
11.804500 6.566800
11.821900 6.772500
11.839200 7.334600
11.856600 7.512200
11.873900 7.337900
11.891300 7.243600
11.908600 7.198400
11.926000 7.178300
11.943400 7.179500
11.960700 7.204700
11.978100 7.239900
11.995400 7.259600
12.012800 7.238500
12.030100 7.190800
12.047500 7.035100
12.064900 6.995900
12.082200 5.883100
12.099600 4.173200
12.116900 3.148200
12.134300 2.939500
12.151600 2.845800
12.169000 2.815300
12.186400 2.847000
12.203700 2.903500
12.221100 2.966900
12.238400 3.037300
12.255800 3.131600
12.273100 3.243000
12.290500 3.360000
12.307900 3.464500
12.325200 3.551000
12.342600 3.604000
12.359900 3.867600
12.377300 4.197800
12.394600 3.963400
12.412000 3.718100
12.429400 3.657200
12.446700 3.685900
12.464100 3.734400
12.481400 3.827800
12.498800 4.001300
12.516100 4.066900
12.533500 4.151500
12.550900 4.264100
12.568200 4.413800
12.585600 4.538300
12.602900 4.691600
12.620300 4.911000
12.637600 5.025100
12.655000 5.122600
12.672400 5.250800
12.689700 5.409600
12.707100 5.597900
12.724400 5.814100
12.741800 6.050500
12.759100 6.242600
12.776500 6.684300
12.793900 6.657700
12.811200 6.573300
12.828600 6.412400
12.845900 6.293300
12.863300 6.082000
12.880600 5.960100
12.898000 5.862400
12.915300 5.809600
12.932700 6.006100
12.950100 5.900500
12.967400 5.851600
12.984800 6.034300
13.002100 5.949000
13.019500 6.034000
13.036800 5.986100
13.054200 5.830400
13.071600 5.687400
13.088900 5.631800
13.106300 5.565400
13.123600 5.472100
13.141000 5.366400
13.158300 5.249800
13.175700 5.158000
13.193100 5.065600
13.210400 4.969800
13.227800 4.889400
13.245100 4.896600
13.262500 4.889200
13.279800 4.808400
13.297200 4.747400
13.314600 4.710400
13.331900 4.682200
13.349300 4.662600
13.366600 4.648300
13.384000 4.637200
13.401300 4.616100
13.418700 4.589400
13.436100 4.569000
13.453400 4.564200
13.470800 4.575100
13.488100 4.596400
13.505500 4.623000
13.522800 4.655800
13.540200 4.708600
13.557600 4.785300
13.574900 4.855500
13.592300 4.902400
13.609600 4.885800
13.627000 4.853800
13.644300 4.814100
13.661700 4.802600
13.679100 4.840700
13.696400 4.913200
13.713800 5.031100
13.731100 5.114600
13.748500 5.178400
13.765800 5.289800
13.783200 5.430000
13.800600 5.585400
13.817900 5.746600
13.835300 5.870500
13.852600 5.954800
13.870000 6.006200
13.887300 5.981200
13.904700 5.979800
13.922100 5.981800
13.939400 5.989000
13.956800 6.018000
13.974100 6.047400
13.991500 6.092000
14.008800 6.109400
14.026200 6.126500
14.043500 6.434600
14.060900 6.664900
14.078300 6.462400
14.095600 6.089200
14.113000 6.131700
14.130300 6.258700
14.147700 6.444500
14.165000 6.778500
14.182400 7.229900
14.199800 7.510700
14.217100 7.677900
14.234500 7.767200
14.251800 7.823800
14.269200 7.881000
14.286500 7.811200
14.303900 7.237400
14.321300 6.589400
14.338600 6.191300
14.356000 6.042300
14.373300 5.945300
14.390700 5.838500
14.408000 5.730800
14.425400 5.624600
14.442800 5.523300
14.460100 5.412900
14.477500 5.278700
14.494800 5.075200
14.512200 4.823800
14.529500 4.606400
14.546900 4.699200
14.564300 3.933600
14.581600 3.894600
14.599000 3.877300
14.616300 3.920000
14.633700 3.893600
14.651000 3.874000
14.668400 3.876300
14.685800 3.919200
14.703100 3.992300
14.720500 4.119600
14.737800 4.316100
14.755200 4.559900
14.772500 4.819300
14.789900 5.099500
14.807300 5.368900
14.824600 5.574200
14.842000 5.714800
14.859300 5.772000
14.876700 5.800100
14.894000 5.906700
14.911400 6.065100
14.928800 6.273100
14.946100 6.381800
14.963500 6.347800
14.980800 6.153400
14.998200 6.029600
15.015500 6.046700
15.032900 6.040900
15.050300 6.008900
15.067600 5.973500
15.085000 5.931800
15.102300 5.885600
15.119700 5.845900
15.137000 5.790200
15.154400 5.700000
15.171700 5.538200
15.189100 5.314400
15.206500 4.955900
15.223800 4.687800
15.241200 4.626500
15.258500 4.600500
15.275900 4.508900
15.293200 4.369900
15.310600 4.426100
15.328000 4.388700
15.345300 4.270600
15.362700 4.130300
15.380000 3.943800
15.397400 3.766300
15.414700 3.604100
15.432100 3.389700
15.449500 3.230200
15.466800 3.181800
15.484200 3.172500
15.501500 3.171500
15.518900 3.177500
15.536200 3.187300
15.553600 3.195000
15.571000 3.199800
15.588300 3.201800
15.605700 3.200900
15.623000 3.197500
15.640400 3.191700
15.657700 3.199600
15.675100 3.225500
15.692500 3.234700
15.709800 3.215000
15.727200 3.163500
15.744500 3.111500
15.761900 3.064800
15.779200 3.023700
15.796600 2.982500
15.814000 2.947500
15.831300 2.920900
15.848700 2.902400
15.866000 2.887500
15.883400 2.857000
15.900700 2.808100
15.918100 2.797700
15.935500 2.622100
15.952800 2.315200
15.970200 2.225200
15.987500 2.180200
16.004900 2.140100
16.022200 2.105800
16.039600 2.078100
16.057000 2.057300
16.074300 2.036300
16.091700 2.007800
16.109000 1.978700
16.126400 1.946700
16.143700 1.910600
16.161100 1.870200
16.178400 1.825200
16.195800 1.775500
16.213200 1.721700
16.230500 1.668100
16.247900 1.608500
16.265200 1.542300
16.282600 1.474800
16.299900 1.406000
16.317300 1.335900
16.334700 1.265700
16.352000 1.192700
16.369400 1.103300
16.386700 0.996000
16.404100 0.877200
16.421400 0.770000
16.438800 0.678400
16.456200 0.606000
16.473500 0.538700
16.490900 0.473800
16.508200 0.410900
16.525600 0.350000
16.542900 0.292200
16.560300 0.239300
16.577700 0.191300
16.595000 0.148400
16.612400 0.113000
16.629700 0.085300
16.647100 0.062300
16.664400 0.043700
16.681800 0.029600
16.699200 0.020000
16.716500 0.012900
16.733900 0.007400
16.751200 0.003400
16.768600 0.000900
16.785900 0.000000
16.803300 0.000000
16.820700 0.000000
16.838000 0.000000
16.855400 0.000000
16.872700 0.000000
16.890100 0.000000
16.907400 0.000000
16.924800 0.000000
16.942200 0.000000
16.959500 0.000000
16.976900 0.000000
16.994200 0.000000
17.011600 0.000000
17.028900 0.000000
17.046300 0.000000
17.063700 0.000000
17.081000 0.000000
17.098400 0.000000
17.115700 0.000000
17.133100 0.000000
17.150400 0.000000
17.167800 0.000000
17.185200 0.000000
17.202500 0.000000
17.219900 0.000000
17.237200 0.000000
17.254600 0.000000
17.271900 0.000000
17.289300 0.000000
17.306600 0.000000
17.324000 0.000000
17.341400 0.000000
17.358700 0.000000
17.376100 0.000000
17.393400 0.000000
17.410800 0.000000
17.428100 0.000000
17.445500 0.000000
17.462900 0.000000
17.480200 0.000000
17.497600 0.000000
17.514900 0.000000
17.532300 0.000000
17.549600 0.000000
17.567000 0.000000
17.584400 0.000000
17.601700 0.000000
17.619100 0.000000
17.636400 0.000000
17.653800 0.000000
17.671100 0.000000
17.688500 0.000000
17.705900 0.000000
17.723200 0.000000
17.740600 0.000000
17.757900 0.000000
17.775300 0.000000
17.792600 0.000000
17.810000 0.000000
17.827400 0.000000
17.844700 0.000000
17.862100 0.000000
17.879400 0.000000
17.896800 0.000000
17.914100 0.000000
17.931500 0.000000
17.948900 0.000000
17.966200 0.000000
17.983600 0.000000
18.000900 0.000000
18.018300 0.000000
18.035600 0.000000
18.053000 0.000000
18.070400 0.000000
18.087700 0.000000
18.105100 0.000000
18.122400 0.000000
18.139800 0.000000
18.157100 0.000000
18.174500 0.000000
18.191900 0.000000
18.209200 0.000000
18.226600 0.000000
18.243900 0.000000
18.261300 0.000000
18.278600 0.000000
18.296000 0.000000
18.313300 0.000000
18.330700 0.000000
18.348100 0.000000
18.365400 0.000000
e
