set title 'mp-567624 - Density of States'
set xlabel 'Energy (eV)'
set ylabel 'DOS (states/eV)'
set grid
set xrange [-10:10]
set yrange [0:12.772]
set xzeroaxis lt -1
set terminal png size 800,600
set output 'mp-567624_dos_gnuplot.png'
plot '-' using 1:2 with lines title 'DOS'
-45.637200 0.000000
-45.589500 0.000000
-45.541800 0.000000
-45.494100 0.000000
-45.446400 0.000000
-45.398700 0.000000
-45.351000 0.000000
-45.303300 0.000000
-45.255600 0.000000
-45.207900 0.000000
-45.160200 0.000000
-45.112500 0.000000
-45.064800 0.000000
-45.017100 0.000000
-44.969400 0.000000
-44.921700 0.000000
-44.874000 0.000000
-44.826400 0.000000
-44.778700 0.000000
-44.731000 0.000000
-44.683300 0.000000
-44.635600 0.000000
-44.587900 0.000000
-44.540200 0.000000
-44.492500 0.000000
-44.444800 0.000000
-44.397100 0.000000
-44.349400 0.000000
-44.301700 0.000000
-44.254000 0.000000
-44.206300 0.000000
-44.158600 0.000000
-44.110900 0.000000
-44.063300 0.000000
-44.015600 0.000000
-43.967900 0.000000
-43.920200 0.000000
-43.872500 0.000000
-43.824800 0.000000
-43.777100 0.000000
-43.729400 0.000000
-43.681700 0.000000
-43.634000 0.000000
-43.586300 0.000000
-43.538600 0.000000
-43.490900 0.000000
-43.443200 0.000000
-43.395500 0.000000
-43.347800 0.000000
-43.300100 0.000000
-43.252500 0.000000
-43.204800 0.000000
-43.157100 0.000000
-43.109400 0.000000
-43.061700 0.000000
-43.014000 0.000000
-42.966300 0.000000
-42.918600 0.000000
-42.870900 0.000000
-42.823200 0.000000
-42.775500 0.000000
-42.727800 0.000000
-42.680100 0.000000
-42.632400 0.000000
-42.584700 0.000000
-42.537000 0.000000
-42.489300 0.000000
-42.441700 0.000000
-42.394000 0.000000
-42.346300 0.000000
-42.298600 0.000000
-42.250900 0.000000
-42.203200 0.000000
-42.155500 0.000000
-42.107800 0.000000
-42.060100 0.000000
-42.012400 0.000000
-41.964700 0.000000
-41.917000 0.000000
-41.869300 0.000000
-41.821600 0.000000
-41.773900 0.000000
-41.726200 0.000000
-41.678600 0.000000
-41.630900 0.000000
-41.583200 0.000000
-41.535500 0.000000
-41.487800 0.000000
-41.440100 0.000000
-41.392400 0.000000
-41.344700 0.000000
-41.297000 0.000000
-41.249300 0.000000
-41.201600 0.000000
-41.153900 0.000000
-41.106200 0.000000
-41.058500 0.000000
-41.010800 0.000000
-40.963100 0.000000
-40.915400 0.000000
-40.867800 0.000000
-40.820100 0.000000
-40.772400 0.000000
-40.724700 0.000000
-40.677000 0.000000
-40.629300 0.000000
-40.581600 0.000000
-40.533900 0.000000
-40.486200 0.000000
-40.438500 0.000000
-40.390800 0.000000
-40.343100 0.000000
-40.295400 0.000000
-40.247700 0.000000
-40.200000 0.000000
-40.152300 0.000000
-40.104700 0.000000
-40.057000 0.000000
-40.009300 0.000000
-39.961600 0.000000
-39.913900 0.000000
-39.866200 0.000000
-39.818500 0.000000
-39.770800 0.000000
-39.723100 0.000000
-39.675400 0.000000
-39.627700 0.000000
-39.580000 0.000000
-39.532300 0.000000
-39.484600 0.000000
-39.436900 0.000000
-39.389200 0.000000
-39.341500 0.000000
-39.293900 0.000000
-39.246200 0.000000
-39.198500 0.000000
-39.150800 0.000000
-39.103100 0.000000
-39.055400 0.000000
-39.007700 0.000000
-38.960000 0.000000
-38.912300 0.000000
-38.864600 0.000000
-38.816900 0.000000
-38.769200 0.000000
-38.721500 0.000000
-38.673800 0.000000
-38.626100 0.000000
-38.578400 0.000000
-38.530700 0.000000
-38.483100 0.000000
-38.435400 0.000000
-38.387700 0.000000
-38.340000 0.000000
-38.292300 0.000000
-38.244600 0.000000
-38.196900 0.000000
-38.149200 0.000000
-38.101500 0.000000
-38.053800 0.000000
-38.006100 0.000000
-37.958400 0.000000
-37.910700 0.000000
-37.863000 0.000000
-37.815300 0.000000
-37.767600 0.000000
-37.720000 0.000000
-37.672300 0.000000
-37.624600 0.000000
-37.576900 0.000000
-37.529200 0.000000
-37.481500 0.000000
-37.433800 0.000000
-37.386100 0.000000
-37.338400 0.000000
-37.290700 0.000000
-37.243000 0.000000
-37.195300 0.000000
-37.147600 0.000000
-37.099900 0.000000
-37.052200 0.000000
-37.004500 0.000000
-36.956800 0.000000
-36.909200 0.000000
-36.861500 0.000000
-36.813800 0.000000
-36.766100 0.000000
-36.718400 0.000000
-36.670700 0.000000
-36.623000 0.000000
-36.575300 0.000000
-36.527600 0.000000
-36.479900 0.000000
-36.432200 0.000000
-36.384500 0.000000
-36.336800 0.000000
-36.289100 0.000000
-36.241400 0.000000
-36.193700 0.000000
-36.146100 0.000000
-36.098400 0.000000
-36.050700 0.000000
-36.003000 0.000000
-35.955300 0.000000
-35.907600 0.000000
-35.859900 0.000000
-35.812200 0.000000
-35.764500 0.000000
-35.716800 0.000000
-35.669100 0.000000
-35.621400 0.000000
-35.573700 0.000000
-35.526000 0.000000
-35.478300 0.000000
-35.430600 0.000000
-35.382900 0.000000
-35.335300 0.000000
-35.287600 0.000000
-35.239900 0.000000
-35.192200 0.000000
-35.144500 0.000000
-35.096800 0.000000
-35.049100 0.000000
-35.001400 0.000000
-34.953700 0.000000
-34.906000 0.000000
-34.858300 0.000000
-34.810600 0.000000
-34.762900 0.000000
-34.715200 0.000000
-34.667500 0.000000
-34.619800 0.000000
-34.572100 0.000000
-34.524500 0.000000
-34.476800 0.000000
-34.429100 0.000000
-34.381400 0.000000
-34.333700 0.000000
-34.286000 0.000000
-34.238300 0.000000
-34.190600 0.000000
-34.142900 0.000000
-34.095200 0.000000
-34.047500 0.000000
-33.999800 0.000000
-33.952100 0.000000
-33.904400 0.000000
-33.856700 0.000000
-33.809000 0.000000
-33.761400 0.000000
-33.713700 0.000000
-33.666000 0.000000
-33.618300 0.000000
-33.570600 0.000000
-33.522900 0.000000
-33.475200 0.000000
-33.427500 0.000000
-33.379800 0.000000
-33.332100 0.000000
-33.284400 0.000000
-33.236700 0.000000
-33.189000 0.000000
-33.141300 0.000000
-33.093600 0.000000
-33.045900 0.000000
-32.998200 0.000000
-32.950600 0.000000
-32.902900 0.000000
-32.855200 0.000000
-32.807500 0.000000
-32.759800 0.000000
-32.712100 0.000000
-32.664400 0.000000
-32.616700 0.000000
-32.569000 0.000000
-32.521300 0.000000
-32.473600 0.000000
-32.425900 0.000000
-32.378200 0.000000
-32.330500 0.000000
-32.282800 0.000000
-32.235100 0.000000
-32.187500 0.000000
-32.139800 0.000000
-32.092100 0.000000
-32.044400 0.000000
-31.996700 0.000000
-31.949000 0.000000
-31.901300 0.000000
-31.853600 0.000000
-31.805900 0.000000
-31.758200 0.000000
-31.710500 0.000000
-31.662800 0.000000
-31.615100 0.000000
-31.567400 0.000000
-31.519700 0.000000
-31.472000 0.000000
-31.424300 0.000000
-31.376700 0.000000
-31.329000 0.000000
-31.281300 0.000000
-31.233600 0.000000
-31.185900 0.000000
-31.138200 0.000000
-31.090500 0.000000
-31.042800 0.000000
-30.995100 0.000000
-30.947400 0.000000
-30.899700 0.000000
-30.852000 0.000000
-30.804300 0.000000
-30.756600 0.000000
-30.708900 0.000000
-30.661200 0.000000
-30.613600 0.000000
-30.565900 0.000000
-30.518200 0.000000
-30.470500 0.000000
-30.422800 0.000000
-30.375100 0.000000
-30.327400 0.000000
-30.279700 0.000000
-30.232000 0.000000
-30.184300 0.000000
-30.136600 0.000000
-30.088900 0.000000
-30.041200 0.000000
-29.993500 0.000000
-29.945800 0.000000
-29.898100 0.000000
-29.850400 0.000000
-29.802800 0.000000
-29.755100 0.000000
-29.707400 0.000000
-29.659700 0.000000
-29.612000 0.000000
-29.564300 0.000000
-29.516600 0.000000
-29.468900 0.000000
-29.421200 0.000000
-29.373500 0.000000
-29.325800 0.000000
-29.278100 0.000000
-29.230400 0.000000
-29.182700 0.000000
-29.135000 0.000000
-29.087300 0.000000
-29.039600 0.000000
-28.992000 0.000000
-28.944300 0.000000
-28.896600 0.000000
-28.848900 0.000000
-28.801200 0.000000
-28.753500 0.000000
-28.705800 0.000000
-28.658100 0.000000
-28.610400 0.000000
-28.562700 0.000000
-28.515000 0.000000
-28.467300 0.000000
-28.419600 0.000000
-28.371900 0.000000
-28.324200 0.000000
-28.276500 0.000000
-28.228900 0.000000
-28.181200 0.000000
-28.133500 0.000000
-28.085800 0.000000
-28.038100 0.000000
-27.990400 0.000000
-27.942700 0.000000
-27.895000 0.000000
-27.847300 0.000000
-27.799600 0.000000
-27.751900 0.000000
-27.704200 0.000000
-27.656500 0.000000
-27.608800 0.000000
-27.561100 0.000000
-27.513400 0.000000
-27.465700 0.000000
-27.418100 0.000000
-27.370400 0.000000
-27.322700 0.000000
-27.275000 0.000000
-27.227300 0.000000
-27.179600 0.000000
-27.131900 0.000000
-27.084200 0.000000
-27.036500 0.000000
-26.988800 0.000000
-26.941100 0.000000
-26.893400 0.000000
-26.845700 0.000000
-26.798000 0.000000
-26.750300 0.000000
-26.702600 0.000000
-26.655000 0.000000
-26.607300 0.000000
-26.559600 0.000000
-26.511900 0.000000
-26.464200 0.000000
-26.416500 0.000000
-26.368800 0.000000
-26.321100 0.000000
-26.273400 0.000000
-26.225700 0.000000
-26.178000 0.000000
-26.130300 0.000000
-26.082600 0.000000
-26.034900 0.000000
-25.987200 0.000000
-25.939500 0.000000
-25.891800 0.000000
-25.844200 0.000000
-25.796500 0.000000
-25.748800 0.000000
-25.701100 0.000000
-25.653400 0.000000
-25.605700 0.000000
-25.558000 0.000000
-25.510300 0.000000
-25.462600 0.000000
-25.414900 0.000000
-25.367200 0.000000
-25.319500 0.000000
-25.271800 0.000000
-25.224100 0.000000
-25.176400 0.000000
-25.128700 0.000000
-25.081000 0.000000
-25.033400 0.000000
-24.985700 0.000000
-24.938000 0.000000
-24.890300 0.000000
-24.842600 0.000000
-24.794900 0.000000
-24.747200 0.000000
-24.699500 0.000000
-24.651800 0.000000
-24.604100 0.000000
-24.556400 0.000000
-24.508700 0.000000
-24.461000 0.000000
-24.413300 0.000000
-24.365600 0.000000
-24.317900 0.000000
-24.270300 0.000000
-24.222600 0.000000
-24.174900 0.000000
-24.127200 0.000000
-24.079500 0.000000
-24.031800 0.000000
-23.984100 0.000000
-23.936400 0.000000
-23.888700 0.000000
-23.841000 0.000000
-23.793300 0.000000
-23.745600 0.000000
-23.697900 0.000000
-23.650200 0.000000
-23.602500 0.000000
-23.554800 0.000000
-23.507100 0.000000
-23.459500 0.000000
-23.411800 0.000000
-23.364100 0.000000
-23.316400 0.000000
-23.268700 0.000000
-23.221000 0.000000
-23.173300 0.000000
-23.125600 0.000000
-23.077900 0.000000
-23.030200 0.000000
-22.982500 0.000000
-22.934800 0.000000
-22.887100 0.000000
-22.839400 0.000000
-22.791700 0.000000
-22.744000 0.000000
-22.696400 0.000000
-22.648700 0.000000
-22.601000 0.000000
-22.553300 0.000000
-22.505600 0.000000
-22.457900 0.000000
-22.410200 0.000000
-22.362500 0.000000
-22.314800 0.000000
-22.267100 0.000000
-22.219400 0.000000
-22.171700 0.000000
-22.124000 0.000000
-22.076300 0.000000
-22.028600 0.000000
-21.980900 0.000000
-21.933200 0.000000
-21.885600 0.000000
-21.837900 0.000000
-21.790200 0.000000
-21.742500 0.000000
-21.694800 0.000000
-21.647100 0.000000
-21.599400 0.000000
-21.551700 0.000000
-21.504000 0.000000
-21.456300 0.000000
-21.408600 0.000000
-21.360900 0.000000
-21.313200 0.000000
-21.265500 0.000000
-21.217800 0.000000
-21.170100 0.000000
-21.122500 0.000000
-21.074800 0.000000
-21.027100 0.000000
-20.979400 0.000000
-20.931700 0.000000
-20.884000 0.000000
-20.836300 0.000000
-20.788600 0.000000
-20.740900 0.000000
-20.693200 0.000000
-20.645500 0.000000
-20.597800 0.000000
-20.550100 0.000000
-20.502400 0.000000
-20.454700 0.000000
-20.407000 0.000000
-20.359300 0.000000
-20.311700 0.000000
-20.264000 0.000000
-20.216300 0.000000
-20.168600 0.000000
-20.120900 0.000000
-20.073200 0.000000
-20.025500 0.000000
-19.977800 0.000000
-19.930100 0.000000
-19.882400 0.000000
-19.834700 0.000000
-19.787000 0.000000
-19.739300 0.000000
-19.691600 0.000000
-19.643900 0.000000
-19.596200 0.000000
-19.548500 0.000000
-19.500900 0.000000
-19.453200 0.000000
-19.405500 0.000000
-19.357800 0.000000
-19.310100 0.000000
-19.262400 0.000000
-19.214700 0.000000
-19.167000 0.000000
-19.119300 0.000000
-19.071600 0.000000
-19.023900 0.000000
-18.976200 0.000000
-18.928500 0.000000
-18.880800 0.000000
-18.833100 0.000000
-18.785400 0.000000
-18.737800 0.000000
-18.690100 0.000000
-18.642400 0.000000
-18.594700 0.000000
-18.547000 0.000000
-18.499300 0.000000
-18.451600 0.000000
-18.403900 0.000000
-18.356200 0.000000
-18.308500 0.000000
-18.260800 0.000000
-18.213100 0.000000
-18.165400 0.000000
-18.117700 0.000000
-18.070000 0.000000
-18.022300 0.000000
-17.974600 0.000000
-17.927000 0.000000
-17.879300 0.000000
-17.831600 0.000000
-17.783900 0.000000
-17.736200 0.000000
-17.688500 0.000000
-17.640800 0.000000
-17.593100 0.000000
-17.545400 0.000000
-17.497700 0.000000
-17.450000 0.000000
-17.402300 0.000000
-17.354600 0.000000
-17.306900 0.000000
-17.259200 0.000000
-17.211500 0.000000
-17.163900 0.000000
-17.116200 0.000000
-17.068500 0.000000
-17.020800 0.000000
-16.973100 0.000000
-16.925400 0.000000
-16.877700 0.000000
-16.830000 0.000000
-16.782300 0.000000
-16.734600 0.000000
-16.686900 0.000000
-16.639200 0.000000
-16.591500 0.000000
-16.543800 0.000000
-16.496100 0.000000
-16.448400 0.000000
-16.400700 0.000000
-16.353100 0.000000
-16.305400 0.000000
-16.257700 0.000000
-16.210000 0.000000
-16.162300 0.000000
-16.114600 0.000000
-16.066900 0.000000
-16.019200 0.000000
-15.971500 0.000000
-15.923800 0.000000
-15.876100 0.000000
-15.828400 0.000000
-15.780700 0.000000
-15.733000 0.000000
-15.685300 0.000000
-15.637600 0.000000
-15.589900 0.000000
-15.542300 0.000000
-15.494600 0.000000
-15.446900 0.000000
-15.399200 0.000000
-15.351500 0.000000
-15.303800 0.000000
-15.256100 0.000000
-15.208400 0.000000
-15.160700 0.000000
-15.113000 0.000000
-15.065300 0.000000
-15.017600 0.000000
-14.969900 0.000000
-14.922200 0.000000
-14.874500 0.000000
-14.826800 0.000000
-14.779200 0.000000
-14.731500 0.000000
-14.683800 0.000000
-14.636100 0.000000
-14.588400 0.000000
-14.540700 0.000000
-14.493000 0.000000
-14.445300 0.000000
-14.397600 0.000000
-14.349900 0.000000
-14.302200 0.000000
-14.254500 0.000000
-14.206800 0.000000
-14.159100 0.522100
-14.111400 1.027800
-14.063700 1.145800
-14.016000 1.256200
-13.968400 1.399900
-13.920700 1.626200
-13.873000 2.195800
-13.825300 2.023500
-13.777600 1.843400
-13.729900 2.297800
-13.682200 5.352400
-13.634500 10.802400
-13.586800 4.290400
-13.539100 5.829400
-13.491400 0.000000
-13.443700 0.000000
-13.396000 0.000000
-13.348300 0.000000
-13.300600 0.000000
-13.252900 0.000000
-13.205300 0.000000
-13.157600 0.000000
-13.109900 0.000000
-13.062200 0.000000
-13.014500 0.000000
-12.966800 0.000000
-12.919100 0.000000
-12.871400 0.000000
-12.823700 0.000000
-12.776000 0.000000
-12.728300 0.000000
-12.680600 0.000000
-12.632900 0.000000
-12.585200 0.000000
-12.537500 0.000000
-12.489800 0.000000
-12.442100 0.000000
-12.394500 0.000000
-12.346800 0.000000
-12.299100 0.000000
-12.251400 0.000000
-12.203700 0.000000
-12.156000 0.000000
-12.108300 0.000000
-12.060600 0.000000
-12.012900 0.000000
-11.965200 0.000000
-11.917500 0.000000
-11.869800 0.000000
-11.822100 0.000000
-11.774400 0.000000
-11.726700 0.000000
-11.679000 0.000000
-11.631300 0.000000
-11.583700 0.000000
-11.536000 0.000000
-11.488300 0.000000
-11.440600 0.000000
-11.392900 0.000000
-11.345200 0.000000
-11.297500 0.000000
-11.249800 0.000000
-11.202100 0.000000
-11.154400 0.000000
-11.106700 0.000000
-11.059000 0.000000
-11.011300 0.000000
-10.963600 0.000000
-10.915900 0.000000
-10.868200 0.000000
-10.820600 0.000000
-10.772900 0.000000
-10.725200 0.000000
-10.677500 0.000000
-10.629800 0.000000
-10.582100 0.000000
-10.534400 0.000000
-10.486700 0.000000
-10.439000 0.000000
-10.391300 0.000000
-10.343600 0.000000
-10.295900 0.000000
-10.248200 0.000000
-10.200500 0.000000
-10.152800 0.000000
-10.105100 0.000000
-10.057400 0.000000
-10.009800 0.000000
-9.962100 0.000000
-9.914400 0.000000
-9.866700 0.000000
-9.819000 0.000000
-9.771300 0.000000
-9.723600 0.000000
-9.675900 0.000000
-9.628200 0.000000
-9.580500 0.000000
-9.532800 0.000000
-9.485100 0.000000
-9.437400 0.000000
-9.389700 0.000000
-9.342000 0.000000
-9.294300 0.000000
-9.246700 0.000000
-9.199000 0.000000
-9.151300 0.000000
-9.103600 0.000000
-9.055900 0.000000
-9.008200 0.000000
-8.960500 0.000000
-8.912800 0.000000
-8.865100 0.000000
-8.817400 0.000000
-8.769700 0.000000
-8.722000 0.000000
-8.674300 0.000000
-8.626600 0.000000
-8.578900 0.000000
-8.531200 0.000000
-8.483500 0.000000
-8.435900 0.000000
-8.388200 0.000000
-8.340500 0.000000
-8.292800 0.000000
-8.245100 0.000000
-8.197400 0.000000
-8.149700 0.000000
-8.102000 0.000000
-8.054300 0.000000
-8.006600 0.000000
-7.958900 0.000000
-7.911200 0.000000
-7.863500 0.000000
-7.815800 0.000000
-7.768100 0.000000
-7.720400 0.000000
-7.672800 0.000000
-7.625100 0.000000
-7.577400 0.000000
-7.529700 0.000000
-7.482000 0.000000
-7.434300 0.000000
-7.386600 0.000000
-7.338900 0.000000
-7.291200 0.000000
-7.243500 0.000000
-7.195800 0.000000
-7.148100 0.000000
-7.100400 0.000000
-7.052700 0.000000
-7.005000 0.000000
-6.957300 0.000000
-6.909600 0.000000
-6.862000 0.000000
-6.814300 0.000000
-6.766600 0.000000
-6.718900 0.000000
-6.671200 0.000000
-6.623500 0.000000
-6.575800 0.000000
-6.528100 0.000000
-6.480400 0.000000
-6.432700 0.000000
-6.385000 0.000000
-6.337300 0.000000
-6.289600 0.000000
-6.241900 0.000000
-6.194200 0.000000
-6.146500 0.000000
-6.098800 0.000000
-6.051200 0.000000
-6.003500 0.000000
-5.955800 0.000000
-5.908100 0.000000
-5.860400 0.000000
-5.812700 0.000000
-5.765000 0.000000
-5.717300 0.000000
-5.669600 0.000000
-5.621900 0.000000
-5.574200 0.000000
-5.526500 0.000000
-5.478800 0.000000
-5.431100 0.000000
-5.383400 0.000000
-5.335700 0.000000
-5.288100 0.000000
-5.240400 0.000000
-5.192700 0.000000
-5.145000 0.000000
-5.097300 0.000000
-5.049600 0.000000
-5.001900 0.000000
-4.954200 0.000000
-4.906500 0.000000
-4.858800 0.000000
-4.811100 0.000000
-4.763400 0.000000
-4.715700 0.000000
-4.668000 0.000000
-4.620300 0.000000
-4.572600 0.000000
-4.524900 0.000000
-4.477300 0.000000
-4.429600 0.000000
-4.381900 0.000000
-4.334200 0.000000
-4.286500 0.000000
-4.238800 0.000000
-4.191100 0.000000
-4.143400 0.000000
-4.095700 0.000000
-4.048000 0.000000
-4.000300 0.000000
-3.952600 0.000000
-3.904900 0.000000
-3.857200 0.114600
-3.809500 0.690300
-3.761800 1.114900
-3.714200 1.277300
-3.666500 1.115700
-3.618800 1.106600
-3.571100 1.284100
-3.523400 1.297700
-3.475700 1.408600
-3.428000 1.469300
-3.380300 1.587200
-3.332600 1.876400
-3.284900 2.019500
-3.237200 2.069600
-3.189500 1.224700
-3.141800 1.242000
-3.094100 1.444200
-3.046400 1.455600
-2.998700 1.669700
-2.951000 1.893000
-2.903400 2.544800
-2.855700 1.655200
-2.808000 1.577900
-2.760300 1.391100
-2.712600 1.217700
-2.664900 1.383300
-2.617200 1.472700
-2.569500 1.691500
-2.521800 1.946000
-2.474100 2.018100
-2.426400 1.973600
-2.378700 1.802200
-2.331000 2.093500
-2.283300 2.490600
-2.235600 2.231500
-2.187900 2.068800
-2.140200 1.977000
-2.092600 2.087300
-2.044900 2.284400
-1.997200 2.712500
-1.949500 2.461200
-1.901800 2.218800
-1.854100 2.099700
-1.806400 3.408700
-1.758700 4.230600
-1.711000 2.948400
-1.663300 2.683200
-1.615600 2.637600
-1.567900 2.518000
-1.520200 2.289500
-1.472500 2.405000
-1.424800 2.559100
-1.377100 2.837300
-1.329500 3.177800
-1.281800 3.505000
-1.234100 3.410800
-1.186400 2.801000
-1.138700 2.101100
-1.091000 1.797800
-1.043300 1.528500
-0.995600 1.336700
-0.947900 1.142400
-0.900200 0.996800
-0.852500 0.844100
-0.804800 0.540500
-0.757100 0.280300
-0.709400 0.000000
-0.661700 0.000000
-0.614000 0.000000
-0.566300 0.000000
-0.518700 0.000000
-0.471000 0.000000
-0.423300 0.000000
-0.375600 0.000000
-0.327900 0.000000
-0.280200 0.000000
-0.232500 0.000000
-0.184800 0.000000
-0.137100 0.000000
-0.089400 0.000000
-0.041700 0.000000
0.006000 0.000000
0.053700 0.000000
0.101400 0.000000
0.149100 0.000000
0.196800 0.000000
0.244400 0.000000
0.292100 0.000000
0.339800 0.000000
0.387500 0.000000
0.435200 0.000000
0.482900 0.000000
0.530600 0.000000
0.578300 0.000000
0.626000 0.000000
0.673700 0.000000
0.721400 0.000000
0.769100 0.000000
0.816800 0.000000
0.864500 0.000000
0.912200 0.000000
0.959900 0.000000
1.007600 0.000000
1.055200 0.000000
1.102900 0.194000
1.150600 0.741200
1.198300 1.145400
1.246000 1.317800
1.293700 1.200800
1.341400 1.201300
1.389100 1.477800
1.436800 11.610800
1.484500 5.687700
1.532200 3.686400
1.579900 4.183400
1.627600 7.008100
1.675300 3.418300
1.723000 1.239400
1.770700 0.000000
1.818300 0.000000
1.866000 0.000000
1.913700 0.000000
1.961400 0.000000
2.009100 0.000000
2.056800 0.000000
2.104500 0.000000
2.152200 0.000000
2.199900 1.168800
2.247600 1.190300
2.295300 1.519300
2.343000 2.274900
2.390700 6.346400
2.438400 4.544100
2.486100 3.997800
2.533800 0.000000
2.581500 0.000000
2.629100 0.000000
2.676800 0.657700
2.724500 3.222100
2.772200 3.132300
2.819900 2.127500
2.867600 3.072500
2.915300 6.047200
2.963000 2.630400
3.010700 2.829100
3.058400 3.386300
3.106100 3.581900
3.153800 2.591300
3.201500 2.625700
3.249200 2.096000
3.296900 1.736600
3.344600 2.084900
3.392300 0.066600
3.439900 0.000000
3.487600 0.000000
3.535300 0.000000
3.583000 0.000000
3.630700 0.000000
3.678400 0.000000
3.726100 0.000000
3.773800 0.000000
3.821500 0.000000
3.869200 0.000000
3.916900 0.000000
3.964600 0.000000
4.012300 0.000000
4.060000 0.000000
4.107700 0.000000
4.155400 0.000000
4.203000 0.000000
4.250700 0.000000
4.298400 0.000000
4.346100 0.000000
4.393800 0.000000
4.441500 0.000000
4.489200 0.000000
4.536900 0.000000
4.584600 0.000000
4.632300 0.000000
4.680000 0.007700
4.727700 0.016000
4.775400 0.023500
4.823100 0.031400
4.870800 0.039600
4.918500 0.045200
4.966200 0.049500
5.013800 0.053400
5.061500 0.056800
5.109200 0.061000
5.156900 0.065700
5.204600 0.070900
5.252300 0.076300
5.300000 0.081900
5.347700 0.087600
5.395400 0.093500
5.443100 0.100200
5.490800 0.107000
5.538500 0.115100
5.586200 0.124300
5.633900 0.133800
5.681600 0.144400
5.729300 0.179100
5.776900 0.270300
5.824600 0.372400
5.872300 0.465900
5.920000 0.566500
5.967700 0.652100
6.015400 0.735000
6.063100 0.874000
6.110800 0.948700
6.158500 1.100800
6.206200 1.267900
6.253900 1.409700
6.301600 1.603800
6.349300 1.981800
6.397000 1.884100
6.444700 1.809300
6.492400 1.663800
6.540100 1.613800
6.587700 1.636900
6.635400 1.686600
6.683100 1.560300
6.730800 1.515700
6.778500 1.510700
6.826200 1.374200
6.873900 1.200000
6.921600 1.159300
6.969300 1.149500
7.017000 1.089900
7.064700 1.010400
7.112400 0.939500
7.160100 0.951200
7.207800 0.893700
7.255500 0.778100
7.303200 0.655400
7.350900 0.559200
7.398500 0.456500
7.446200 0.415200
7.493900 0.350300
7.541600 0.162800
7.589300 0.101100
7.637000 0.136000
7.684700 0.183800
7.732400 0.235600
7.780100 0.302400
7.827800 0.408100
7.875500 0.471200
7.923200 0.511800
7.970900 0.597700
8.018600 0.738700
8.066300 1.168500
8.114000 1.380600
8.161600 1.371400
8.209300 1.429200
8.257000 1.467900
8.304700 1.531700
8.352400 1.455600
8.400100 1.299300
8.447800 1.353300
8.495500 1.432900
8.543200 1.291800
8.590900 1.172000
8.638600 1.122800
8.686300 1.069200
8.734000 1.104600
8.781700 1.038800
8.829400 1.071900
8.877100 1.289400
8.924800 1.534100
8.972400 1.669900
9.020100 1.504000
9.067800 1.405000
9.115500 1.290500
9.163200 1.186800
9.210900 1.174400
9.258600 1.150100
9.306300 1.032400
9.354000 1.114300
9.401700 1.202600
9.449400 1.259800
9.497100 1.261700
9.544800 1.202400
9.592500 1.221400
9.640200 1.443700
9.687900 1.792400
9.735500 1.880900
9.783200 1.902500
9.830900 1.964900
9.878600 1.822100
9.926300 1.679200
9.974000 1.619500
10.021700 1.489200
10.069400 1.281800
10.117100 1.194300
10.164800 1.225300
10.212500 1.312500
10.260200 1.535000
10.307900 1.790300
10.355600 2.001400
10.403300 2.172000
10.451000 2.272600
10.498700 2.270700
10.546300 1.950200
10.594000 1.585800
10.641700 1.466700
10.689400 1.535400
10.737100 1.408600
10.784800 1.626700
10.832500 1.692200
10.880200 1.781400
10.927900 1.746600
10.975600 1.718200
11.023300 1.568700
11.071000 1.561800
11.118700 1.467700
11.166400 1.309000
11.214100 1.226400
11.261800 1.242800
11.309500 0.867700
11.357100 0.780500
11.404800 0.693400
11.452500 0.641800
11.500200 0.606100
11.547900 0.544000
11.595600 0.545600
11.643300 0.571300
11.691000 0.618000
11.738700 0.703700
11.786400 0.808100
11.834100 0.794800
11.881800 0.748700
11.929500 0.743500
11.977200 0.747300
12.024900 0.784600
12.072600 0.800900
12.120200 0.815400
12.167900 0.837600
12.215600 0.860700
12.263300 0.899300
12.311000 0.937400
12.358700 0.938700
12.406400 0.927400
12.454100 0.972000
12.501800 1.025900
12.549500 1.013200
12.597200 1.002900
12.644900 1.047600
12.692600 1.022500
12.740300 1.024600
12.788000 1.015700
12.835700 1.037800
12.883400 1.071400
12.931000 1.113100
12.978700 1.034900
13.026400 1.086600
13.074100 1.135700
13.121800 1.159500
13.169500 1.212800
13.217200 1.375800
13.264900 1.407800
13.312600 1.394200
13.360300 1.342100
13.408000 1.302200
13.455700 1.329500
13.503400 1.299200
13.551100 1.182600
13.598800 1.153600
13.646500 1.123000
13.694100 1.220100
13.741800 1.145700
13.789500 1.178800
13.837200 1.211700
13.884900 1.199300
13.932600 1.196000
13.980300 1.231100
14.028000 1.346900
14.075700 1.424900
14.123400 1.438600
14.171100 1.432400
14.218800 1.372000
14.266500 1.383500
14.314200 1.466300
14.361900 1.477400
14.409600 1.378900
14.457300 1.301000
14.504900 1.357500
14.552600 1.409900
14.600300 1.355700
14.648000 1.355300
14.695700 1.418300
14.743400 1.484600
14.791100 1.539200
14.838800 1.504300
14.886500 1.437800
14.934200 1.464300
14.981900 1.367700
15.029600 1.333800
15.077300 1.389000
15.125000 1.609500
15.172700 1.634800
15.220400 1.566000
15.268000 1.537400
15.315700 1.509300
15.363400 1.446900
15.411100 1.391500
15.458800 1.311100
15.506500 1.263200
15.554200 1.312100
15.601900 1.412800
15.649600 1.435600
15.697300 1.383800
15.745000 1.283300
15.792700 1.252300
15.840400 1.294700
15.888100 1.228000
15.935800 1.196300
15.983500 1.193400
16.031200 1.256300
16.078800 1.273500
16.126500 1.337400
16.174200 1.412800
16.221900 1.458200
16.269600 1.496600
16.317300 1.525800
16.365000 1.552800
16.412700 1.543300
16.460400 1.529300
16.508100 1.498700
16.555800 1.420600
16.603500 1.377700
16.651200 1.359600
16.698900 1.337700
16.746600 1.362400
16.794300 1.367200
16.842000 1.428800
16.889600 1.440300
16.937300 1.464700
16.985000 1.476000
17.032700 1.428300
17.080400 1.342400
17.128100 1.271600
17.175800 1.240400
17.223500 1.219600
17.271200 1.240800
17.318900 1.258700
17.366600 1.290600
17.414300 1.427500
17.462000 1.493600
17.509700 1.481300
17.557400 1.532900
17.605100 1.585400
17.652700 1.606500
17.700400 1.621400
17.748100 1.507400
17.795800 1.433700
17.843500 1.319600
17.891200 1.308700
17.938900 1.446600
17.986600 1.491300
18.034300 1.433400
18.082000 1.457700
18.129700 1.486100
18.177400 1.438200
18.225100 1.486300
18.272800 1.539800
18.320500 1.571300
18.368200 1.613100
18.415900 1.715200
18.463500 1.692300
18.511200 1.682700
18.558900 1.648400
18.606600 1.690900
18.654300 1.536600
18.702000 1.325700
18.749700 1.229900
18.797400 1.314800
18.845100 1.402600
18.892800 1.498500
18.940500 1.583400
18.988200 1.593500
19.035900 1.673500
19.083600 1.726000
19.131300 1.693100
19.179000 1.643000
19.226600 1.645800
19.274300 1.589400
19.322000 1.518900
19.369700 1.454000
19.417400 1.457400
19.465100 1.467100
19.512800 1.488200
19.560500 1.498300
19.608200 1.536300
19.655900 1.477200
19.703600 1.463000
19.751300 1.380800
19.799000 1.342900
19.846700 1.353800
19.894400 1.392200
19.942100 1.447600
19.989800 1.506200
20.037400 1.562100
20.085100 1.634800
20.132800 1.796400
20.180500 1.800800
20.228200 1.757000
20.275900 1.748400
20.323600 1.709300
20.371300 1.631600
20.419000 1.589100
20.466700 1.585500
20.514400 1.623100
20.562100 1.621000
20.609800 1.630700
20.657500 1.638000
20.705200 1.596700
20.752900 1.597300
20.800600 1.603300
20.848200 1.542800
20.895900 1.549600
20.943600 1.553300
20.991300 1.550100
21.039000 1.493700
21.086700 1.491300
21.134400 1.477800
21.182100 1.456200
21.229800 1.451500
21.277500 1.470100
21.325200 1.461000
21.372900 1.431900
21.420600 1.453500
21.468300 1.500500
21.516000 1.482200
21.563700 1.498400
21.611300 1.481300
21.659000 1.380600
21.706700 1.350100
21.754400 1.352600
21.802100 1.317100
21.849800 1.363700
21.897500 1.476500
21.945200 1.437100
21.992900 1.458900
22.040600 1.522900
22.088300 1.537000
22.136000 1.518100
22.183700 1.535300
22.231400 1.510300
22.279100 1.439500
22.326800 1.403300
22.374500 1.369500
22.422100 1.367800
22.469800 1.385000
22.517500 1.376300
22.565200 1.450000
22.612900 1.666800
22.660600 1.550900
22.708300 1.502500
22.756000 1.574400
22.803700 1.561400
22.851400 1.497100
22.899100 1.478700
22.946800 1.488600
22.994500 1.497100
23.042200 1.504100
23.089900 1.505200
23.137600 1.573200
23.185200 1.587400
23.232900 1.644100
23.280600 1.679400
23.328300 1.648200
23.376000 1.584800
23.423700 1.519700
23.471400 1.585800
23.519100 1.714800
23.566800 1.810500
23.614500 1.751200
23.662200 1.640300
23.709900 1.656900
23.757600 1.693100
23.805300 1.698500
23.853000 1.695900
23.900700 1.716200
23.948400 1.652200
23.996000 1.568400
24.043700 1.473300
24.091400 1.476700
24.139100 1.512100
24.186800 1.587300
24.234500 1.660700
24.282200 1.813800
24.329900 1.925300
24.377600 1.902600
24.425300 1.838400
24.473000 1.759300
24.520700 1.693400
24.568400 1.687600
24.616100 1.709100
24.663800 1.755100
24.711500 1.762900
24.759100 1.781500
24.806800 1.761200
24.854500 1.810700
24.902200 1.812800
24.949900 1.778200
24.997600 1.817500
25.045300 1.854200
25.093000 1.895600
25.140700 1.866400
25.188400 1.821900
25.236100 1.778200
25.283800 1.808200
25.331500 1.878800
25.379200 1.897300
25.426900 1.845200
25.474600 1.784000
25.522300 1.705400
25.569900 1.664400
25.617600 1.622900
25.665300 1.598500
25.713000 1.637100
25.760700 1.586500
25.808400 1.572900
25.856100 1.616700
25.903800 1.646400
25.951500 1.641600
25.999200 1.608800
26.046900 1.634600
26.094600 1.644300
26.142300 1.654000
26.190000 1.654800
26.237700 1.600000
26.285400 1.583500
26.333100 1.642700
26.380700 1.691300
26.428400 1.704500
26.476100 1.736600
26.523800 1.690900
26.571500 1.712200
26.619200 1.715800
26.666900 1.702400
26.714600 1.681500
26.762300 1.685500
26.810000 1.678400
26.857700 1.645700
26.905400 1.673300
26.953100 1.734200
27.000800 1.794900
27.048500 1.864400
27.096200 1.949400
27.143800 1.968000
27.191500 2.001300
27.239200 2.085400
27.286900 1.974700
27.334600 1.803700
27.382300 1.708700
27.430000 1.692600
27.477700 1.695100
27.525400 1.679700
27.573100 1.711600
27.620800 1.790900
27.668500 1.731400
27.716200 1.724300
27.763900 1.718700
27.811600 1.781800
27.859300 1.871000
27.907000 1.820100
27.954600 1.754800
28.002300 1.668200
28.050000 1.610600
28.097700 1.656700
28.145400 1.756100
28.193100 1.723800
28.240800 1.732400
28.288500 1.765700
28.336200 1.780000
28.383900 1.791400
28.431600 1.819200
28.479300 1.879500
28.527000 1.830800
28.574700 1.782200
28.622400 1.738600
28.670100 1.763300
28.717700 1.836200
28.765400 1.850100
28.813100 1.801700
28.860800 1.753900
28.908500 1.743400
28.956200 1.810600
29.003900 1.847500
29.051600 1.791500
29.099300 1.818800
29.147000 1.848200
29.194700 1.898800
29.242400 1.913700
29.290100 1.970200
29.337800 1.983900
29.385500 1.944900
29.433200 1.981400
29.480900 1.919300
29.528500 1.934400
29.576200 1.894700
29.623900 1.836000
29.671600 1.763900
29.719300 1.785200
29.767000 1.744400
29.814700 1.762000
29.862400 1.717400
29.910100 1.758100
29.957800 1.814500
30.005500 1.869500
30.053200 1.943300
30.100900 1.995700
30.148600 1.950700
30.196300 1.942200
30.244000 1.869600
30.291700 1.852500
30.339300 1.796300
30.387000 1.753800
30.434700 1.758500
30.482400 1.757500
30.530100 1.754700
30.577800 1.780500
30.625500 1.819300
30.673200 1.856900
30.720900 1.881700
30.768600 1.860300
30.816300 1.876500
30.864000 1.922300
30.911700 1.963200
30.959400 2.002500
31.007100 2.006000
31.054800 1.959500
31.102400 1.944000
31.150100 1.954200
31.197800 1.923900
31.245500 1.867700
31.293200 1.869100
31.340900 1.917900
31.388600 1.974200
31.436300 1.946600
31.484000 1.868000
31.531700 1.804100
31.579400 1.783600
31.627100 1.804600
31.674800 1.854900
31.722500 1.826800
31.770200 1.767800
31.817900 1.750700
31.865600 1.757700
31.913200 1.729400
31.960900 1.776200
32.008600 1.829400
32.056300 1.904800
32.104000 1.866200
32.151700 1.920000
32.199400 1.841500
32.247100 1.869500
32.294800 1.905900
32.342500 1.936200
32.390200 1.882200
32.437900 1.878800
32.485600 1.845600
32.533300 1.857100
32.581000 1.883700
32.628700 1.877300
32.676300 1.863600
32.724000 1.897800
32.771700 1.888300
32.819400 1.866300
32.867100 1.830500
32.914800 1.847800
32.962500 1.801000
33.010200 1.796200
33.057900 1.853300
33.105600 1.907100
33.153300 1.845800
33.201000 1.796200
33.248700 1.795400
33.296400 1.891200
33.344100 1.888900
33.391800 1.937000
33.439500 1.913100
33.487100 1.922200
33.534800 1.985000
33.582500 2.018100
33.630200 1.964800
33.677900 1.892300
33.725600 1.845400
33.773300 1.846800
33.821000 1.867700
33.868700 1.894800
33.916400 1.995900
33.964100 2.001200
34.011800 2.100900
34.059500 2.125600
34.107200 2.129400
34.154900 2.061000
34.202600 2.056100
34.250300 2.045600
34.297900 2.138800
34.345600 2.229900
34.393300 2.339400
34.441000 2.289200
34.488700 2.248800
34.536400 2.267200
34.584100 2.323100
34.631800 2.314900
34.679500 2.264400
34.727200 2.245300
34.774900 2.172000
34.822600 2.212400
34.870300 2.312600
34.918000 2.415800
34.965700 2.544800
35.013400 2.635100
35.061000 2.729500
35.108700 2.712800
35.156400 2.816500
35.204100 2.743500
35.251800 2.747300
35.299500 2.816400
35.347200 2.831400
35.394900 2.705600
35.442600 2.704300
35.490300 2.751700
35.538000 2.687100
35.585700 2.574300
35.633400 2.397500
35.681100 2.274000
35.728800 2.135400
35.776500 2.258200
35.824200 2.176200
35.871800 2.144400
35.919500 2.123900
35.967200 2.075300
36.014900 2.043900
36.062600 2.028500
36.110300 2.139400
36.158000 2.209900
36.205700 2.204000
36.253400 2.121000
36.301100 1.987400
36.348800 1.918100
36.396500 1.902000
36.444200 1.911100
36.491900 2.002900
36.539600 2.035200
36.587300 2.160900
36.634900 2.201100
36.682600 2.213400
36.730300 2.155200
36.778000 2.172300
36.825700 2.147000
36.873400 2.099500
36.921100 1.969100
36.968800 1.951200
37.016500 1.968800
37.064200 1.997700
37.111900 2.081500
37.159600 2.188000
37.207300 2.236700
37.255000 2.273200
37.302700 2.188300
37.350400 2.192400
37.398100 2.177600
37.445700 2.153400
37.493400 2.165400
37.541100 2.128400
37.588800 2.152300
37.636500 2.128800
37.684200 2.147400
37.731900 2.172300
37.779600 2.244700
37.827300 2.147400
37.875000 2.080700
37.922700 2.034700
37.970400 1.986400
38.018100 1.920500
38.065800 1.943700
38.113500 1.944900
38.161200 1.956300
38.208800 1.943100
38.256500 1.910700
38.304200 1.930400
38.351900 1.852000
38.399600 1.888500
38.447300 1.850400
38.495000 1.881700
38.542700 1.906200
38.590400 1.960800
38.638100 2.021000
38.685800 2.041300
38.733500 2.094300
38.781200 2.160600
38.828900 2.135400
38.876600 2.053400
38.924300 1.993600
38.972000 1.934900
39.019600 1.891200
39.067300 1.913500
39.115000 1.973400
39.162700 2.055600
39.210400 2.061800
39.258100 2.052700
39.305800 2.083600
39.353500 2.086500
39.401200 2.077400
39.448900 2.102300
39.496600 2.114400
39.544300 2.050300
39.592000 2.037000
39.639700 2.107200
39.687400 2.543100
39.735100 2.217100
39.782800 2.253800
39.830400 2.184900
39.878100 2.109800
39.925800 2.063200
39.973500 2.036100
40.021200 2.041100
40.068900 2.051200
40.116600 2.115400
40.164300 2.179500
40.212000 2.196900
40.259700 2.239000
40.307400 2.150700
40.355100 2.086000
40.402800 2.081200
40.450500 1.988900
40.498200 2.001200
40.545900 2.042700
40.593500 2.174100
40.641200 2.120900
40.688900 2.115200
40.736600 2.100700
40.784300 2.086400
40.832000 2.054100
40.879700 2.071500
40.927400 2.158700
40.975100 2.264500
41.022800 2.318500
41.070500 2.248900
41.118200 2.285400
41.165900 2.201400
41.213600 2.088600
41.261300 2.075300
41.309000 2.068500
41.356700 2.111300
41.404300 2.092600
41.452000 2.107300
41.499700 2.103500
41.547400 2.094700
41.595100 2.041500
41.642800 2.053900
41.690500 2.040600
41.738200 2.008200
41.785900 2.041700
41.833600 2.059100
41.881300 2.100700
41.929000 2.064200
41.976700 2.099800
42.024400 2.159000
42.072100 2.144200
42.119800 2.114500
42.167400 2.106500
42.215100 2.120000
42.262800 2.102700
42.310500 2.079600
42.358200 2.034800
42.405900 2.090300
42.453600 2.119800
42.501300 2.165900
42.549000 2.196700
42.596700 2.225900
42.644400 2.186400
42.692100 2.163000
42.739800 2.148900
42.787500 2.122300
42.835200 2.088800
42.882900 2.075700
42.930600 2.116400
42.978200 2.119700
43.025900 2.115300
43.073600 2.094700
43.121300 2.077200
43.169000 2.039600
43.216700 2.022000
43.264400 1.955000
43.312100 1.891900
43.359800 1.870900
43.407500 1.848500
43.455200 1.795500
43.502900 1.745400
43.550600 1.666600
43.598300 1.531200
43.646000 1.469400
43.693700 1.399600
43.741400 1.348400
43.789000 1.254500
43.836700 1.175600
43.884400 1.093500
43.932100 1.002400
43.979800 0.928700
44.027500 0.870500
44.075200 0.811200
44.122900 0.765300
44.170600 0.704900
44.218300 0.666200
44.266000 0.612600
44.313700 0.566400
44.361400 0.501800
44.409100 0.441300
44.456800 0.405300
44.504500 0.374800
44.552100 0.342100
44.599800 0.305600
44.647500 0.276700
44.695200 0.242700
44.742900 0.204100
44.790600 0.169300
44.838300 0.140700
44.886000 0.129400
44.933700 0.125400
44.981400 0.111100
45.029100 0.081700
45.076800 0.053200
45.124500 0.036500
45.172200 0.022900
45.219900 0.011900
45.267600 0.003500
45.315300 0.000500
45.362900 0.000100
45.410600 0.000000
45.458300 0.000000
45.506000 0.000000
45.553700 0.000000
45.601400 0.000000
45.649100 0.000000
45.696800 0.000000
45.744500 0.000000
45.792200 0.000000
45.839900 0.000000
45.887600 0.000000
45.935300 0.000000
45.983000 0.000000
46.030700 0.000000
46.078400 0.000000
46.126000 0.000000
46.173700 0.000000
46.221400 0.000000
46.269100 0.000000
46.316800 0.000000
46.364500 0.000000
46.412200 0.000000
46.459900 0.000000
46.507600 0.000000
46.555300 0.000000
46.603000 0.000000
46.650700 0.000000
46.698400 0.000000
46.746100 0.000000
46.793800 0.000000
46.841500 0.000000
46.889200 0.000000
46.936800 0.000000
46.984500 0.000000
47.032200 0.000000
47.079900 0.000000
47.127600 0.000000
47.175300 0.000000
47.223000 0.000000
47.270700 0.000000
47.318400 0.000000
47.366100 0.000000
47.413800 0.000000
47.461500 0.000000
47.509200 0.000000
47.556900 0.000000
47.604600 0.000000
47.652300 0.000000
47.699900 0.000000
47.747600 0.000000
47.795300 0.000000
47.843000 0.000000
47.890700 0.000000
47.938400 0.000000
47.986100 0.000000
48.033800 0.000000
48.081500 0.000000
48.129200 0.000000
48.176900 0.000000
48.224600 0.000000
48.272300 0.000000
48.320000 0.000000
48.367700 0.000000
48.415400 0.000000
48.463100 0.000000
48.510700 0.000000
48.558400 0.000000
48.606100 0.000000
48.653800 0.000000
48.701500 0.000000
48.749200 0.000000
48.796900 0.000000
48.844600 0.000000
48.892300 0.000000
48.940000 0.000000
48.987700 0.000000
49.035400 0.000000
49.083100 0.000000
49.130800 0.000000
49.178500 0.000000
49.226200 0.000000
49.273900 0.000000
49.321500 0.000000
49.369200 0.000000
49.416900 0.000000
49.464600 0.000000
49.512300 0.000000
49.560000 0.000000
49.607700 0.000000
49.655400 0.000000
49.703100 0.000000
49.750800 0.000000
e
