set title 'mp-570127 - Density of States'
set xlabel 'Energy (eV)'
set ylabel 'DOS (states/eV)'
set grid
set xrange [-10:10]
set yrange [0:942.272]
set xzeroaxis lt -1
set terminal png size 800,600
set output 'mp-570127_dos_gnuplot.png'
plot '-' using 1:2 with lines title 'DOS'
-11.968700 0.000000
-11.955900 0.000000
-11.943200 0.000000
-11.930500 0.000000
-11.917800 0.000000
-11.905100 0.000000
-11.892400 0.000000
-11.879700 0.000000
-11.867000 0.000000
-11.854300 0.000000
-11.841600 0.000000
-11.828900 0.000000
-11.816200 0.000000
-11.803500 0.000000
-11.790800 0.000000
-11.778100 0.000000
-11.765400 0.000000
-11.752700 0.000000
-11.740000 0.000000
-11.727300 0.000000
-11.714600 0.000000
-11.701900 0.000000
-11.689200 0.000000
-11.676500 0.000000
-11.663800 0.000000
-11.651100 0.000000
-11.638400 0.000000
-11.625700 0.000000
-11.612900 0.000000
-11.600200 0.000000
-11.587500 0.000000
-11.574800 0.000000
-11.562100 0.000000
-11.549400 0.000000
-11.536700 0.000000
-11.524000 0.000000
-11.511300 0.000000
-11.498600 0.000000
-11.485900 0.000000
-11.473200 0.000000
-11.460500 0.000000
-11.447800 0.000000
-11.435100 0.000000
-11.422400 0.000000
-11.409700 0.000000
-11.397000 0.000000
-11.384300 0.000000
-11.371600 0.000000
-11.358900 0.000000
-11.346200 0.000000
-11.333500 0.000000
-11.320800 0.000000
-11.308100 0.000000
-11.295400 0.000000
-11.282600 0.000000
-11.269900 0.000000
-11.257200 0.000000
-11.244500 0.000000
-11.231800 0.000000
-11.219100 0.000000
-11.206400 0.000000
-11.193700 0.000000
-11.181000 0.000000
-11.168300 0.000000
-11.155600 0.000000
-11.142900 0.000000
-11.130200 0.000000
-11.117500 0.000000
-11.104800 0.000000
-11.092100 0.000000
-11.079400 0.000000
-11.066700 0.000000
-11.054000 0.000000
-11.041300 0.000000
-11.028600 0.000000
-11.015900 0.000000
-11.003200 0.000000
-10.990500 0.000000
-10.977800 0.000000
-10.965100 0.000000
-10.952300 0.000000
-10.939600 0.000000
-10.926900 0.000000
-10.914200 0.000000
-10.901500 0.000000
-10.888800 0.000000
-10.876100 0.000000
-10.863400 0.000000
-10.850700 0.000000
-10.838000 0.000000
-10.825300 0.000000
-10.812600 0.040400
-10.799900 0.893800
-10.787200 2.236500
-10.774500 4.335300
-10.761800 6.605000
-10.749100 9.856200
-10.736400 13.567700
-10.723700 15.853500
-10.711000 16.003300
-10.698300 15.764200
-10.685600 17.523200
-10.672900 16.247600
-10.660200 15.582400
-10.647500 16.106500
-10.634800 16.630600
-10.622000 17.154700
-10.609300 17.678800
-10.596600 18.202900
-10.583900 18.729500
-10.571200 19.307300
-10.558500 19.924400
-10.545800 20.589900
-10.533100 21.321500
-10.520400 22.120600
-10.507700 22.920300
-10.495000 23.715400
-10.482300 24.504100
-10.469600 25.276400
-10.456900 26.045100
-10.444200 26.813900
-10.431500 27.582700
-10.418800 28.351500
-10.406100 29.120300
-10.393400 29.889000
-10.380700 31.545400
-10.368000 37.429500
-10.355300 49.446300
-10.342600 70.134800
-10.329900 83.885900
-10.317200 114.156200
-10.304500 125.787200
-10.291800 137.229800
-10.279000 152.611800
-10.266300 179.869200
-10.253600 279.773900
-10.240900 471.800500
-10.228200 274.487200
-10.215500 0.000000
-10.202800 0.000000
-10.190100 0.000000
-10.177400 0.000000
-10.164700 0.000000
-10.152000 0.000000
-10.139300 0.000000
-10.126600 0.000000
-10.113900 0.000000
-10.101200 0.000000
-10.088500 0.000000
-10.075800 0.000000
-10.063100 0.000000
-10.050400 0.000000
-10.037700 0.000000
-10.025000 0.000000
-10.012300 0.000000
-9.999600 0.000000
-9.986900 0.000000
-9.974200 0.000000
-9.961500 0.000000
-9.948700 0.000000
-9.936000 0.000000
-9.923300 0.000000
-9.910600 0.000000
-9.897900 0.000000
-9.885200 0.000000
-9.872500 0.000000
-9.859800 0.000000
-9.847100 0.000000
-9.834400 0.000000
-9.821700 0.000000
-9.809000 0.000000
-9.796300 0.000000
-9.783600 0.000000
-9.770900 0.000000
-9.758200 0.000000
-9.745500 0.000000
-9.732800 0.000000
-9.720100 0.000000
-9.707400 0.000000
-9.694700 0.000000
-9.682000 0.000000
-9.669300 0.000000
-9.656600 0.000000
-9.643900 0.000000
-9.631200 0.000000
-9.618400 0.000000
-9.605700 0.000000
-9.593000 0.000000
-9.580300 0.000000
-9.567600 0.000000
-9.554900 0.000000
-9.542200 0.000000
-9.529500 0.000000
-9.516800 0.000000
-9.504100 0.000000
-9.491400 0.000000
-9.478700 0.000000
-9.466000 0.000000
-9.453300 0.000000
-9.440600 0.000000
-9.427900 0.000000
-9.415200 0.000000
-9.402500 0.000000
-9.389800 0.000000
-9.377100 0.000000
-9.364400 0.000000
-9.351700 0.000000
-9.339000 0.000000
-9.326300 0.000000
-9.313600 0.000000
-9.300900 0.000000
-9.288100 0.000000
-9.275400 0.000000
-9.262700 0.000000
-9.250000 0.000000
-9.237300 0.000000
-9.224600 0.000000
-9.211900 0.000000
-9.199200 0.000000
-9.186500 0.000000
-9.173800 0.000000
-9.161100 0.000000
-9.148400 0.000000
-9.135700 0.000000
-9.123000 0.000000
-9.110300 0.000000
-9.097600 0.000000
-9.084900 0.000000
-9.072200 0.000000
-9.059500 0.000000
-9.046800 0.000000
-9.034100 0.000000
-9.021400 0.000000
-9.008700 0.000000
-8.996000 0.000000
-8.983300 0.000000
-8.970600 0.000000
-8.957900 0.000000
-8.945100 0.000000
-8.932400 0.000000
-8.919700 0.000000
-8.907000 0.000000
-8.894300 0.000000
-8.881600 0.000000
-8.868900 0.000000
-8.856200 0.000000
-8.843500 0.000000
-8.830800 0.000000
-8.818100 0.000000
-8.805400 0.000000
-8.792700 0.000000
-8.780000 0.000000
-8.767300 0.000000
-8.754600 0.000000
-8.741900 0.000000
-8.729200 0.000000
-8.716500 0.000000
-8.703800 0.000000
-8.691100 0.000000
-8.678400 0.000000
-8.665700 0.000000
-8.653000 0.000000
-8.640300 0.000000
-8.627600 0.000000
-8.614800 0.000000
-8.602100 0.000000
-8.589400 0.000000
-8.576700 0.000000
-8.564000 0.000000
-8.551300 0.000000
-8.538600 0.000000
-8.525900 0.000000
-8.513200 0.000000
-8.500500 0.000000
-8.487800 0.000000
-8.475100 0.000000
-8.462400 0.000000
-8.449700 0.000000
-8.437000 0.000000
-8.424300 0.000000
-8.411600 0.000000
-8.398900 0.000000
-8.386200 0.000000
-8.373500 0.000000
-8.360800 0.000000
-8.348100 0.000000
-8.335400 0.000000
-8.322700 0.000000
-8.310000 0.000000
-8.297300 0.000000
-8.284500 0.000000
-8.271800 0.000000
-8.259100 0.000000
-8.246400 0.000000
-8.233700 0.000000
-8.221000 0.000000
-8.208300 0.000000
-8.195600 0.000000
-8.182900 0.000000
-8.170200 0.000000
-8.157500 0.000000
-8.144800 0.000000
-8.132100 0.000000
-8.119400 0.000000
-8.106700 0.000000
-8.094000 0.000000
-8.081300 0.000000
-8.068600 0.000000
-8.055900 0.000000
-8.043200 0.000000
-8.030500 0.000000
-8.017800 0.000000
-8.005100 0.000000
-7.992400 0.000000
-7.979700 0.000000
-7.967000 0.000000
-7.954200 0.000000
-7.941500 0.000000
-7.928800 0.000000
-7.916100 0.000000
-7.903400 0.000000
-7.890700 0.000000
-7.878000 0.000000
-7.865300 0.000000
-7.852600 0.000000
-7.839900 0.000000
-7.827200 0.000000
-7.814500 0.000000
-7.801800 0.000000
-7.789100 0.000000
-7.776400 0.000000
-7.763700 0.000000
-7.751000 0.000000
-7.738300 0.000000
-7.725600 0.000000
-7.712900 0.000000
-7.700200 0.000000
-7.687500 0.000000
-7.674800 0.000000
-7.662100 0.000000
-7.649400 0.000000
-7.636700 0.000000
-7.624000 0.000000
-7.611200 0.000000
-7.598500 0.000000
-7.585800 0.000000
-7.573100 0.000000
-7.560400 0.000000
-7.547700 0.000000
-7.535000 0.000000
-7.522300 0.000000
-7.509600 0.000000
-7.496900 0.000000
-7.484200 0.000000
-7.471500 0.000000
-7.458800 0.000000
-7.446100 0.000000
-7.433400 0.000000
-7.420700 0.000000
-7.408000 0.000000
-7.395300 0.000000
-7.382600 0.000000
-7.369900 0.000000
-7.357200 0.000000
-7.344500 0.000000
-7.331800 0.000000
-7.319100 0.000000
-7.306400 0.000000
-7.293700 0.000000
-7.280900 0.000000
-7.268200 0.000000
-7.255500 0.000000
-7.242800 0.000000
-7.230100 0.000000
-7.217400 0.000000
-7.204700 0.000000
-7.192000 0.000000
-7.179300 0.000000
-7.166600 0.000000
-7.153900 0.000000
-7.141200 0.000000
-7.128500 0.000000
-7.115800 0.000000
-7.103100 0.000000
-7.090400 0.000000
-7.077700 0.000000
-7.065000 0.000000
-7.052300 0.000000
-7.039600 0.000000
-7.026900 0.000000
-7.014200 0.000000
-7.001500 0.000000
-6.988800 0.000000
-6.976100 0.000000
-6.963400 0.000000
-6.950600 0.000000
-6.937900 0.000000
-6.925200 0.000000
-6.912500 0.000000
-6.899800 0.000000
-6.887100 0.000000
-6.874400 0.000000
-6.861700 0.000000
-6.849000 0.000000
-6.836300 0.000000
-6.823600 0.000000
-6.810900 0.000000
-6.798200 0.000000
-6.785500 0.000000
-6.772800 0.000000
-6.760100 0.000000
-6.747400 0.000000
-6.734700 0.000000
-6.722000 0.000000
-6.709300 0.000000
-6.696600 0.000000
-6.683900 0.000000
-6.671200 0.000000
-6.658500 0.000000
-6.645800 0.000000
-6.633100 0.000000
-6.620300 0.000000
-6.607600 0.000000
-6.594900 0.000000
-6.582200 0.000000
-6.569500 0.000000
-6.556800 0.000000
-6.544100 0.000000
-6.531400 0.000000
-6.518700 37.261400
-6.506000 149.188100
-6.493300 252.862900
-6.480600 359.275800
-6.467900 223.170600
-6.455200 130.686400
-6.442500 124.007900
-6.429800 117.575800
-6.417100 328.789000
-6.404400 399.263900
-6.391700 313.861300
-6.379000 206.132300
-6.366300 114.225900
-6.353600 178.699100
-6.340900 856.611100
-6.328200 317.987100
-6.315500 257.052400
-6.302800 432.371200
-6.290100 79.769000
-6.277300 201.572500
-6.264600 121.257300
-6.251900 103.842800
-6.239200 86.428300
-6.226500 128.375400
-6.213800 0.000000
-6.201100 0.000000
-6.188400 0.000000
-6.175700 0.000000
-6.163000 0.000000
-6.150300 0.000000
-6.137600 0.000000
-6.124900 0.000000
-6.112200 0.000000
-6.099500 0.000000
-6.086800 0.000000
-6.074100 0.000000
-6.061400 0.000000
-6.048700 0.000000
-6.036000 0.000000
-6.023300 0.000000
-6.010600 0.000000
-5.997900 0.000000
-5.985200 0.000000
-5.972500 0.000000
-5.959800 0.000000
-5.947000 0.000000
-5.934300 0.000000
-5.921600 0.000000
-5.908900 0.000000
-5.896200 0.000000
-5.883500 0.000000
-5.870800 0.000000
-5.858100 0.000000
-5.845400 0.000000
-5.832700 0.000000
-5.820000 0.000000
-5.807300 0.000000
-5.794600 0.000000
-5.781900 0.000000
-5.769200 0.000000
-5.756500 0.000000
-5.743800 0.000000
-5.731100 0.000000
-5.718400 0.000000
-5.705700 0.000000
-5.693000 0.000000
-5.680300 0.000000
-5.667600 0.000000
-5.654900 0.000000
-5.642200 0.000000
-5.629500 0.000000
-5.616700 0.000000
-5.604000 0.000000
-5.591300 0.000000
-5.578600 0.000000
-5.565900 0.000000
-5.553200 0.000000
-5.540500 0.000000
-5.527800 0.000000
-5.515100 0.000000
-5.502400 0.000000
-5.489700 0.000000
-5.477000 0.000000
-5.464300 0.000000
-5.451600 0.000000
-5.438900 0.000000
-5.426200 0.000000
-5.413500 0.000000
-5.400800 0.000000
-5.388100 0.000000
-5.375400 0.000000
-5.362700 0.000000
-5.350000 0.000000
-5.337300 0.000000
-5.324600 0.000000
-5.311900 0.000000
-5.299200 0.000000
-5.286400 0.000000
-5.273700 0.000000
-5.261000 0.000000
-5.248300 0.000000
-5.235600 0.000000
-5.222900 0.000000
-5.210200 0.000000
-5.197500 0.000000
-5.184800 0.000000
-5.172100 0.000000
-5.159400 0.000000
-5.146700 0.000000
-5.134000 0.000000
-5.121300 0.000000
-5.108600 0.000000
-5.095900 0.000000
-5.083200 0.000000
-5.070500 0.000000
-5.057800 0.000000
-5.045100 0.000000
-5.032400 0.000000
-5.019700 0.000000
-5.007000 0.000000
-4.994300 0.000000
-4.981600 0.000000
-4.968900 0.000000
-4.956200 0.000000
-4.943400 0.000000
-4.930700 0.000000
-4.918000 0.000000
-4.905300 0.000000
-4.892600 0.000000
-4.879900 0.000000
-4.867200 0.000000
-4.854500 0.000000
-4.841800 0.000000
-4.829100 0.000000
-4.816400 0.000000
-4.803700 0.000000
-4.791000 0.000000
-4.778300 0.000000
-4.765600 0.000000
-4.752900 0.000000
-4.740200 0.000000
-4.727500 0.000000
-4.714800 0.000000
-4.702100 0.000000
-4.689400 0.000000
-4.676700 0.000000
-4.664000 0.000000
-4.651300 0.000000
-4.638600 0.000000
-4.625900 0.000000
-4.613100 0.000000
-4.600400 0.000000
-4.587700 0.000000
-4.575000 0.000000
-4.562300 0.000000
-4.549600 0.000000
-4.536900 0.000000
-4.524200 0.000000
-4.511500 0.000000
-4.498800 0.000000
-4.486100 0.000000
-4.473400 0.000000
-4.460700 0.000000
-4.448000 0.000000
-4.435300 0.000000
-4.422600 0.000000
-4.409900 0.000000
-4.397200 0.000000
-4.384500 0.000000
-4.371800 0.000000
-4.359100 0.000000
-4.346400 0.000000
-4.333700 0.000000
-4.321000 0.000000
-4.308300 0.000000
-4.295600 0.000000
-4.282800 0.000000
-4.270100 0.000000
-4.257400 0.000000
-4.244700 0.000000
-4.232000 0.000000
-4.219300 0.000000
-4.206600 0.000000
-4.193900 0.000000
-4.181200 0.000000
-4.168500 0.000000
-4.155800 0.000000
-4.143100 0.000000
-4.130400 0.000000
-4.117700 0.000000
-4.105000 0.000000
-4.092300 0.000000
-4.079600 0.000000
-4.066900 0.000000
-4.054200 0.000000
-4.041500 0.000000
-4.028800 0.000000
-4.016100 0.000000
-4.003400 0.000000
-3.990700 0.000000
-3.978000 0.000000
-3.965300 0.000000
-3.952500 0.000000
-3.939800 0.000000
-3.927100 0.000000
-3.914400 0.000000
-3.901700 0.000000
-3.889000 0.000000
-3.876300 0.000000
-3.863600 0.000000
-3.850900 0.000000
-3.838200 0.000000
-3.825500 0.000000
-3.812800 0.000000
-3.800100 0.000000
-3.787400 0.000000
-3.774700 0.000000
-3.762000 0.000000
-3.749300 0.000000
-3.736600 0.000000
-3.723900 0.000000
-3.711200 0.000000
-3.698500 0.000000
-3.685800 0.000000
-3.673100 0.000000
-3.660400 0.000000
-3.647700 0.000000
-3.635000 0.000000
-3.622300 0.000000
-3.609500 0.000000
-3.596800 0.000000
-3.584100 0.000000
-3.571400 0.000000
-3.558700 0.000000
-3.546000 0.000000
-3.533300 0.000000
-3.520600 0.000000
-3.507900 0.000000
-3.495200 0.000000
-3.482500 0.000000
-3.469800 0.000000
-3.457100 0.000000
-3.444400 0.000000
-3.431700 0.000000
-3.419000 0.000000
-3.406300 0.000000
-3.393600 0.000000
-3.380900 0.000000
-3.368200 0.000000
-3.355500 0.000000
-3.342800 0.000000
-3.330100 0.000000
-3.317400 0.000000
-3.304700 0.000000
-3.292000 0.000000
-3.279200 0.000000
-3.266500 0.000000
-3.253800 0.000000
-3.241100 0.000000
-3.228400 0.000000
-3.215700 0.000000
-3.203000 0.000000
-3.190300 0.000000
-3.177600 0.000000
-3.164900 0.000000
-3.152200 0.000000
-3.139500 0.000000
-3.126800 0.000000
-3.114100 0.000000
-3.101400 0.000000
-3.088700 0.000000
-3.076000 0.000000
-3.063300 0.000000
-3.050600 0.000000
-3.037900 0.000000
-3.025200 0.000000
-3.012500 0.000000
-2.999800 0.000000
-2.987100 0.000000
-2.974400 0.000000
-2.961700 0.000000
-2.948900 0.000000
-2.936200 0.000000
-2.923500 0.000000
-2.910800 0.000000
-2.898100 0.000000
-2.885400 0.000000
-2.872700 0.000000
-2.860000 0.000000
-2.847300 0.000000
-2.834600 0.000000
-2.821900 0.000000
-2.809200 0.000000
-2.796500 0.000000
-2.783800 0.000000
-2.771100 0.000000
-2.758400 0.000000
-2.745700 0.000000
-2.733000 0.000000
-2.720300 0.000000
-2.707600 0.000000
-2.694900 0.000000
-2.682200 0.000000
-2.669500 0.000000
-2.656800 0.000000
-2.644100 0.000000
-2.631400 0.000000
-2.618600 0.000000
-2.605900 0.000000
-2.593200 3.249700
-2.580500 40.199900
-2.567800 49.727400
-2.555100 35.787200
-2.542400 49.665000
-2.529700 58.572300
-2.517000 53.257800
-2.504300 56.885400
-2.491600 51.824200
-2.478900 47.904300
-2.466200 41.278400
-2.453500 40.412200
-2.440800 39.546000
-2.428100 31.636100
-2.415400 30.985300
-2.402700 26.636500
-2.390000 26.196500
-2.377300 22.864500
-2.364600 21.295000
-2.351900 21.193300
-2.339200 21.091600
-2.326500 20.989900
-2.313800 21.593600
-2.301100 22.497500
-2.288400 23.401400
-2.275600 29.161600
-2.262900 39.391700
-2.250200 41.375800
-2.237500 43.655800
-2.224800 40.654100
-2.212100 14.658500
-2.199400 15.192700
-2.186700 15.726900
-2.174000 16.406100
-2.161300 17.088600
-2.148600 35.970800
-2.135900 6.875100
-2.123200 6.759300
-2.110500 6.643500
-2.097800 6.527800
-2.085100 6.412000
-2.072400 6.296300
-2.059700 6.180500
-2.047000 6.064700
-2.034300 15.321100
-2.021600 7.080000
-2.008900 1.681100
-1.996200 1.641700
-1.983500 3.735700
-1.970800 2.546600
-1.958100 1.357400
-1.945300 0.168300
-1.932600 0.000000
-1.919900 0.000000
-1.907200 0.000000
-1.894500 0.000000
-1.881800 0.000000
-1.869100 0.000000
-1.856400 0.000000
-1.843700 0.000000
-1.831000 0.000000
-1.818300 0.000000
-1.805600 0.000000
-1.792900 0.000000
-1.780200 0.000000
-1.767500 0.000000
-1.754800 0.000000
-1.742100 0.000000
-1.729400 0.000000
-1.716700 0.000000
-1.704000 0.000000
-1.691300 0.000000
-1.678600 0.000000
-1.665900 5.518600
-1.653200 4.287800
-1.640500 7.731700
-1.627800 10.224900
-1.615000 13.187800
-1.602300 10.152900
-1.589600 14.135000
-1.576900 18.940200
-1.564200 15.728200
-1.551500 19.238200
-1.538800 22.654700
-1.526100 19.339000
-1.513400 17.966800
-1.500700 18.535100
-1.488000 19.250200
-1.475300 19.965300
-1.462600 20.680400
-1.449900 21.395500
-1.437200 22.110600
-1.424500 22.825700
-1.411800 23.540800
-1.399100 24.255900
-1.386400 24.971000
-1.373700 22.952500
-1.361000 27.035600
-1.348300 18.408800
-1.335600 18.743600
-1.322900 31.652700
-1.310200 67.448500
-1.297500 14.565400
-1.284700 14.691300
-1.272000 22.032000
-1.259300 26.737600
-1.246600 17.986500
-1.233900 15.757600
-1.221200 13.537100
-1.208500 11.316600
-1.195800 8.573400
-1.183100 8.470300
-1.170400 8.367100
-1.157700 8.264000
-1.145000 8.736700
-1.132300 9.255300
-1.119600 9.818400
-1.106900 10.434600
-1.094200 10.494400
-1.081500 11.810500
-1.068800 12.552500
-1.056100 12.703400
-1.043400 13.511200
-1.030700 13.687700
-1.018000 13.864300
-1.005300 14.040800
-0.992600 14.217300
-0.979900 14.393800
-0.967200 14.570300
-0.954500 14.740100
-0.941700 14.902600
-0.929000 15.065100
-0.916300 15.217100
-0.903600 15.368200
-0.890900 15.519300
-0.878200 15.670400
-0.865500 15.821500
-0.852800 15.972700
-0.840100 16.123800
-0.827400 16.274900
-0.814700 16.426000
-0.802000 16.577100
-0.789300 16.728300
-0.776600 16.879400
-0.763900 17.584200
-0.751200 18.092400
-0.738500 18.600500
-0.725800 19.923600
-0.713100 21.895600
-0.700400 24.346000
-0.687700 24.982200
-0.675000 28.133500
-0.662300 30.153400
-0.649600 31.372200
-0.636900 32.514200
-0.624200 34.180600
-0.611400 35.961100
-0.598700 36.429700
-0.586000 39.821200
-0.573300 40.663100
-0.560600 39.570300
-0.547900 39.748700
-0.535200 39.912400
-0.522500 38.439600
-0.509800 37.000200
-0.497100 36.838500
-0.484400 36.779300
-0.471700 36.781400
-0.459000 36.826000
-0.446300 37.084500
-0.433600 36.537800
-0.420900 36.866600
-0.408200 37.195400
-0.395500 36.674300
-0.382800 37.291600
-0.370100 38.048600
-0.357400 38.978100
-0.344700 39.947200
-0.332000 40.119700
-0.319300 40.893200
-0.306600 40.987700
-0.293900 41.839700
-0.281100 39.481100
-0.268400 39.991100
-0.255700 37.641200
-0.243000 35.888100
-0.230300 35.519200
-0.217600 32.294800
-0.204900 29.908600
-0.192200 34.668200
-0.179500 30.619600
-0.166800 26.749600
-0.154100 28.383200
-0.141400 27.375500
-0.128700 26.367800
-0.116000 25.360200
-0.103300 24.352500
-0.090600 23.794200
-0.077900 22.750400
-0.065200 21.754800
-0.052500 20.759100
-0.039800 19.767500
-0.027100 19.169100
-0.014400 18.575900
-0.001700 18.041600
0.011000 17.548000
0.023700 17.104400
0.036400 16.715800
0.049200 16.380500
0.061900 16.118900
0.074600 15.901600
0.087300 15.684300
0.100000 15.467100
0.112700 15.249800
0.125400 15.032500
0.138100 15.910500
0.150800 15.958600
0.163500 16.136600
0.176200 17.442600
0.188900 18.997300
0.201600 19.611200
0.214300 20.236400
0.227000 20.861600
0.239700 22.263800
0.252400 24.363200
0.265100 26.505000
0.277800 28.684900
0.290500 32.735200
0.303200 35.141800
0.315900 37.677500
0.328600 42.290600
0.341300 48.074800
0.354000 49.647300
0.366700 50.836900
0.379400 50.754900
0.392200 55.904700
0.404900 58.453400
0.417600 62.849800
0.430300 68.502900
0.443000 59.049600
0.455700 50.190600
0.468400 54.083700
0.481100 74.219100
0.493800 58.344500
0.506500 51.055300
0.519200 49.854400
0.531900 67.054700
0.544600 75.727900
0.557300 52.273000
0.570000 45.550200
0.582700 49.546400
0.595400 47.486100
0.608100 50.952800
0.620800 57.217600
0.633500 62.543500
0.646200 63.422400
0.658900 75.255600
0.671600 69.304100
0.684300 60.592800
0.697000 59.091700
0.709700 57.485000
0.722500 75.967500
0.735200 59.571600
0.747900 55.719100
0.760600 57.400600
0.773300 52.229900
0.786000 52.269500
0.798700 49.481000
0.811400 47.241800
0.824100 41.039300
0.836800 35.781300
0.849500 31.830900
0.862200 28.528000
0.874900 25.232100
0.887600 29.015500
0.900300 40.507100
0.913000 22.847000
0.925700 13.339200
0.938400 10.048400
0.951100 40.413600
0.963800 0.000000
0.976500 0.000000
0.989200 0.000000
1.001900 0.000000
1.014600 0.000000
1.027300 0.000000
1.040000 0.000000
1.052800 0.000000
1.065500 0.000000
1.078200 0.000000
1.090900 0.000000
1.103600 0.000000
1.116300 0.000000
1.129000 0.000000
1.141700 0.000000
1.154400 0.000000
1.167100 0.000000
1.179800 0.000000
1.192500 0.000000
1.205200 0.000000
1.217900 0.000000
1.230600 0.000000
1.243300 0.000000
1.256000 0.000000
1.268700 0.000000
1.281400 0.000000
1.294100 0.000000
1.306800 0.000000
1.319500 0.000000
1.332200 0.000000
1.344900 0.000000
1.357600 0.000000
1.370300 0.000000
1.383100 0.000000
1.395800 0.000000
1.408500 0.000000
1.421200 0.000000
1.433900 0.000000
1.446600 0.000000
1.459300 0.000000
1.472000 0.000000
1.484700 0.000000
1.497400 0.000000
1.510100 0.000000
1.522800 0.000000
1.535500 0.000000
1.548200 0.000000
1.560900 0.000000
1.573600 0.000000
1.586300 0.000000
1.599000 0.000000
1.611700 0.000000
1.624400 0.000000
1.637100 0.000000
1.649800 0.000000
1.662500 0.000000
1.675200 0.000000
1.687900 0.000000
1.700600 0.000000
1.713300 0.000000
1.726100 0.000000
1.738800 0.000000
1.751500 0.000000
1.764200 0.000000
1.776900 0.000000
1.789600 0.000000
1.802300 0.000000
1.815000 0.000000
1.827700 0.000000
1.840400 0.000000
1.853100 0.000000
1.865800 0.000000
1.878500 0.000000
1.891200 0.000000
1.903900 0.000000
1.916600 0.000000
1.929300 0.000000
1.942000 0.000000
1.954700 0.000000
1.967400 0.000000
1.980100 0.000000
1.992800 0.000000
2.005500 0.000000
2.018200 0.000000
2.030900 0.000000
2.043600 0.000000
2.056400 0.000000
2.069100 0.000000
2.081800 0.000000
2.094500 0.000000
2.107200 0.000000
2.119900 0.000000
2.132600 0.000000
2.145300 0.000000
2.158000 0.000000
2.170700 0.000000
2.183400 0.000000
2.196100 0.000000
2.208800 0.000000
2.221500 0.000000
2.234200 0.000000
2.246900 0.000000
2.259600 0.000000
2.272300 0.000000
2.285000 0.000000
2.297700 0.000000
2.310400 0.000000
2.323100 0.000000
2.335800 0.000000
2.348500 0.000000
2.361200 0.000000
2.373900 0.000000
2.386700 0.000000
2.399400 0.000000
2.412100 0.000000
2.424800 0.000000
2.437500 0.000000
2.450200 0.000000
2.462900 0.000000
2.475600 0.000000
2.488300 0.000000
2.501000 0.000000
2.513700 0.000000
2.526400 0.000000
2.539100 0.000000
2.551800 0.000000
2.564500 0.000000
2.577200 0.000000
2.589900 0.000000
2.602600 0.000000
2.615300 0.000000
2.628000 0.000000
2.640700 0.000000
2.653400 0.000000
2.666100 0.000000
2.678800 0.000000
2.691500 0.000000
2.704200 0.000000
2.717000 0.000000
2.729700 0.000000
2.742400 0.000000
2.755100 0.000000
2.767800 0.000000
2.780500 0.000000
2.793200 0.000000
2.805900 0.000000
2.818600 0.000000
2.831300 0.000000
2.844000 0.000000
2.856700 0.000000
2.869400 0.000000
2.882100 0.000000
2.894800 0.000000
2.907500 0.000000
2.920200 0.000000
2.932900 0.000000
2.945600 0.000000
2.958300 0.000000
2.971000 0.000000
2.983700 0.000000
2.996400 0.000000
3.009100 0.000000
3.021800 0.000000
3.034500 0.000000
3.047200 0.000000
3.060000 0.000000
3.072700 0.000000
3.085400 0.000000
3.098100 0.000000
3.110800 0.000000
3.123500 0.000000
3.136200 0.000000
3.148900 0.000000
3.161600 0.000000
3.174300 0.000000
3.187000 0.000000
3.199700 0.000000
3.212400 0.000000
3.225100 0.000000
3.237800 0.000000
3.250500 0.000000
3.263200 0.000000
3.275900 0.000000
3.288600 0.000000
3.301300 0.000000
3.314000 0.000000
3.326700 0.000000
3.339400 0.000000
3.352100 0.000000
3.364800 0.000000
3.377500 0.000000
3.390300 0.951000
3.403000 0.990900
3.415700 1.938300
3.428400 2.010300
3.441100 2.992500
3.453800 3.099900
3.466500 3.207300
3.479200 3.314700
3.491900 4.393800
3.504600 4.532300
3.517300 4.681400
3.530000 5.954000
3.542700 6.149800
3.555400 7.456700
3.568100 7.678900
3.580800 7.901000
3.593500 9.312800
3.606200 9.561900
3.618900 10.915100
3.631600 11.197400
3.644300 11.479600
3.657000 11.821400
3.669700 12.170900
3.682400 12.520500
3.695100 12.934700
3.707800 13.354600
3.720600 13.834100
3.733300 14.326100
3.746000 14.860900
3.758700 15.494500
3.771400 16.147400
3.784100 16.856100
3.796800 17.615900
3.809500 18.474200
3.822200 19.343000
3.834900 20.211900
3.847600 21.136800
3.860300 22.095800
3.873000 26.563800
3.885700 26.852600
3.898400 30.474400
3.911100 33.376300
3.923800 32.620700
3.936500 31.747900
3.949200 30.334000
3.961900 39.998600
3.974600 37.487400
3.987300 34.185400
4.000000 30.852100
4.012700 35.755800
4.025400 39.763800
4.038100 33.754500
4.050900 34.576400
4.063600 30.545900
4.076300 27.168300
4.089000 24.854400
4.101700 21.916000
4.114400 21.295500
4.127100 20.675000
4.139800 20.054600
4.152500 21.303000
4.165200 21.118600
4.177900 19.005300
4.190600 17.008300
4.203300 15.047400
4.216000 13.086600
4.228700 11.194300
4.241400 9.806800
4.254100 9.364100
4.266800 21.162500
4.279500 3.612800
4.292200 4.383100
4.304900 5.153300
4.317600 5.923500
4.330300 0.000000
4.343000 0.000000
4.355700 0.000000
4.368400 0.000000
4.381100 0.000000
4.393900 0.000000
4.406600 0.000000
4.419300 0.000000
4.432000 0.000000
4.444700 0.000000
4.457400 0.000000
4.470100 0.000000
4.482800 0.000000
4.495500 0.000000
4.508200 0.000000
4.520900 0.000000
4.533600 0.000000
4.546300 0.000000
4.559000 0.000000
4.571700 0.000000
4.584400 0.000000
4.597100 0.000000
4.609800 0.000000
4.622500 0.000000
4.635200 0.000000
4.647900 0.000000
4.660600 0.000000
4.673300 0.000000
4.686000 0.000000
4.698700 0.000000
4.711400 0.000000
4.724200 0.000000
4.736900 0.000000
4.749600 0.000000
4.762300 0.000000
4.775000 0.000000
4.787700 0.000000
4.800400 0.000000
4.813100 0.000000
4.825800 0.000000
4.838500 0.000000
4.851200 0.000000
4.863900 0.000000
4.876600 0.000000
4.889300 0.000000
4.902000 0.000000
4.914700 0.000000
4.927400 0.000000
4.940100 0.000000
4.952800 0.000000
4.965500 0.000000
4.978200 0.000000
4.990900 0.000000
5.003600 0.000000
5.016300 0.000000
5.029000 0.000000
5.041700 0.000000
5.054500 0.000000
5.067200 0.000000
5.079900 0.000000
5.092600 0.000000
5.105300 0.000000
5.118000 0.000000
5.130700 0.000000
5.143400 0.000000
5.156100 0.000000
5.168800 0.000000
5.181500 0.000000
5.194200 0.000000
5.206900 0.000000
5.219600 0.000000
5.232300 0.000000
5.245000 0.000000
5.257700 0.000000
5.270400 0.000000
5.283100 0.000000
5.295800 0.000000
5.308500 0.000000
5.321200 0.000000
5.333900 0.000000
5.346600 0.000000
5.359300 0.000000
5.372000 0.000000
5.384800 0.000000
5.397500 0.000000
5.410200 0.000000
5.422900 0.000000
5.435600 0.000000
5.448300 0.000000
5.461000 0.000000
5.473700 0.003500
5.486400 0.052000
5.499100 0.125000
5.511800 0.198000
5.524500 0.271100
5.537200 0.344100
5.549900 0.417100
5.562600 0.490100
5.575300 0.563200
5.588000 0.636200
5.600700 0.709200
5.613400 0.782200
5.626100 0.855200
5.638800 0.928300
5.651500 1.001300
5.664200 1.074300
5.676900 1.147300
5.689600 1.220400
5.702300 1.293400
5.715000 1.366400
5.727800 1.439400
5.740500 1.512400
5.753200 1.585500
5.765900 1.658500
5.778600 1.731500
5.791300 1.804500
5.804000 1.877600
5.816700 1.950600
5.829400 2.023600
5.842100 2.096600
5.854800 2.169600
5.867500 2.242700
5.880200 2.315700
5.892900 2.388700
5.905600 2.461700
5.918300 2.534800
5.931000 2.607800
5.943700 4.310200
5.956400 4.563900
5.969100 4.817600
5.981800 5.948300
5.994500 6.602300
6.007200 7.333600
6.019900 9.277200
6.032600 10.970800
6.045300 10.929000
6.058100 10.887100
6.070800 10.963700
6.083500 11.728400
6.096200 11.946000
6.108900 12.832300
6.121600 13.262600
6.134300 13.666500
6.147000 14.070400
6.159700 14.474300
6.172400 14.878200
6.185100 15.282000
6.197800 16.222500
6.210500 16.307300
6.223200 16.320600
6.235900 16.899000
6.248600 16.983900
6.261300 17.068800
6.274000 17.153700
6.286700 17.751700
6.299400 17.889400
6.312100 18.027000
6.324800 18.164700
6.337500 18.302400
6.350200 18.440100
6.362900 18.577700
6.375600 18.715400
6.388400 18.836500
6.401100 23.560900
6.413800 23.349900
6.426500 23.096900
6.439200 22.735100
6.451900 27.117800
6.464600 31.776000
6.477300 27.934600
6.490000 24.697900
6.502700 21.416000
6.515400 20.869200
6.528100 20.312000
6.540800 19.781100
6.553500 19.432400
6.566200 19.083700
6.578900 16.269300
6.591600 22.289400
6.604300 15.228200
6.617000 15.209000
6.629700 15.023200
6.642400 14.578200
6.655100 12.956300
6.667800 12.805300
6.680500 11.294700
6.693200 11.378100
6.705900 13.721200
6.718700 13.813700
6.731400 13.906200
6.744100 18.822400
6.756800 18.680100
6.769500 17.100100
6.782200 16.678600
6.794900 15.122000
6.807600 14.522700
6.820300 13.923500
6.833000 13.324300
6.845700 15.765100
6.858400 15.178600
6.871100 17.653600
6.883800 16.383500
6.896500 15.065200
6.909200 14.700500
6.921900 14.335900
6.934600 14.166900
6.947300 13.571900
6.960000 13.042200
6.972700 12.819300
6.985400 12.641600
6.998100 12.463800
7.010800 11.651400
7.023500 15.657000
7.036200 18.415500
7.049000 17.637000
7.061700 20.640900
7.074400 22.128600
7.087100 23.616400
7.099800 25.104100
7.112500 30.870500
7.125200 23.684400
7.137900 40.590700
7.150600 27.897200
7.163300 30.794000
7.176000 52.359700
7.188700 36.069400
7.201400 35.651900
7.214100 32.929800
7.226800 34.148900
7.239500 23.171200
7.252200 23.162300
7.264900 23.153500
7.277600 23.610800
7.290300 24.747000
7.303000 26.065900
7.315700 39.942700
7.328400 39.112200
7.341100 39.573900
7.353800 32.021700
7.366500 30.637200
7.379200 24.557200
7.392000 25.571000
7.404700 26.584900
7.417400 25.714300
7.430100 29.985300
7.442800 39.967000
7.455500 26.619800
7.468200 28.004000
7.480900 28.449100
7.493600 27.614700
7.506300 26.653600
7.519000 27.445700
7.531700 25.473500
7.544400 23.665800
7.557100 26.436700
7.569800 32.886900
7.582500 26.666800
7.595200 26.458100
7.607900 27.133800
7.620600 28.294200
7.633300 31.861500
7.646000 36.659500
7.658700 39.040300
7.671400 40.351400
7.684100 43.333500
7.696800 46.768100
7.709500 49.371500
7.722300 42.214600
7.735000 42.608400
7.747700 39.045100
7.760400 37.668200
7.773100 38.920700
7.785800 34.647100
7.798500 49.256700
7.811200 36.814200
7.823900 33.829200
7.836600 33.657200
7.849300 37.876400
7.862000 41.975100
7.874700 38.522200
7.887400 34.639000
7.900100 32.373000
7.912800 29.286900
7.925500 28.613600
7.938200 28.376700
7.950900 26.873800
7.963600 26.701200
7.976300 25.452200
7.989000 24.748700
8.001700 28.771400
8.014400 29.190400
8.027100 28.983000
8.039800 28.775700
8.052600 28.568300
8.065300 31.999200
8.078000 31.275600
8.090700 30.603200
8.103400 31.553600
8.116100 30.945800
8.128800 32.003900
8.141500 31.584500
8.154200 30.909700
8.166900 30.234900
8.179600 33.005700
8.192300 31.173000
8.205000 29.340400
8.217700 27.538200
8.230400 26.674100
8.243100 27.256100
8.255800 30.071100
8.268500 28.234200
8.281200 28.056500
8.293900 27.396800
8.306600 23.303100
8.319300 21.861200
8.332000 19.556500
8.344700 17.650900
8.357400 16.132700
8.370100 15.136100
8.382900 13.776100
8.395600 12.936900
8.408300 12.097800
8.421000 11.541700
8.433700 11.282000
8.446400 11.022300
8.459100 10.762600
8.471800 10.502900
8.484500 10.243200
8.497200 9.983500
8.509900 9.723900
8.522600 9.464200
8.535300 9.204500
8.548000 8.944800
8.560700 8.320500
8.573400 10.126600
8.586100 9.600700
8.598800 9.074800
8.611500 11.567000
8.624200 9.684200
8.636900 7.852200
8.649600 6.598400
8.662300 5.868900
8.675000 5.590800
8.687700 7.038100
8.700400 8.772700
8.713100 10.669100
8.725900 12.666700
8.738600 9.675900
8.751300 10.714000
8.764000 11.752100
8.776700 9.237300
8.789400 9.903600
8.802100 10.223200
8.814800 10.909700
8.827500 11.317400
8.840200 9.538200
8.852900 9.787100
8.865600 9.810100
8.878300 10.183100
8.891000 10.320100
8.903700 10.794700
8.916400 11.269400
8.929100 17.022700
8.941800 14.510800
8.954500 12.643500
8.967200 13.875200
8.979900 14.038700
8.992600 14.202200
9.005300 15.948700
9.018000 18.058900
9.030700 19.609500
9.043400 22.820900
9.056200 20.284900
9.068900 19.314500
9.081600 20.224900
9.094300 22.932700
9.107000 31.755100
9.119700 22.115000
9.132400 22.070500
9.145100 24.767200
9.157800 27.605300
9.170500 28.918300
9.183200 30.666800
9.195900 31.569400
9.208600 37.209000
9.221300 27.629400
9.234000 30.555000
9.246700 37.130700
9.259400 22.353900
9.272100 21.209000
9.284800 20.432500
9.297500 20.562600
9.310200 21.420100
9.322900 22.719500
9.335600 24.913900
9.348300 23.299900
9.361000 28.764900
9.373700 28.572400
9.386500 31.116400
9.399200 30.203000
9.411900 25.233000
9.424600 24.776900
9.437300 35.226900
9.450000 29.179500
9.462700 36.852800
9.475400 29.371300
9.488100 28.768600
9.500800 28.192100
9.513500 27.677600
9.526200 27.551300
9.538900 27.256400
9.551600 27.751300
9.564300 26.538100
9.577000 25.325000
9.589700 24.167800
9.602400 22.986400
9.615100 25.216400
9.627800 29.539600
9.640500 35.844400
9.653200 34.356000
9.665900 27.521400
9.678600 26.145500
9.691300 26.507700
9.704000 27.988800
9.716800 27.124200
9.729500 26.057800
9.742200 25.029400
9.754900 23.075100
9.767600 23.211800
9.780300 23.549800
9.793000 23.024000
9.805700 24.317000
9.818400 23.812700
9.831100 25.029800
9.843800 26.595600
9.856500 26.268600
9.869200 20.716800
9.881900 21.692500
9.894600 22.961200
9.907300 22.719400
9.920000 24.221000
9.932700 24.813500
9.945400 24.879500
9.958100 26.785900
9.970800 25.313100
9.983500 28.581200
9.996200 21.844600
10.008900 19.425900
10.021600 22.617200
10.034300 18.961000
10.047000 18.727500
10.059800 21.091600
10.072500 20.089400
10.085200 19.659100
10.097900 19.127700
10.110600 20.292900
10.123300 21.202000
10.136000 24.793600
10.148700 28.385300
10.161400 24.279000
10.174100 22.038800
10.186800 20.508100
10.199500 24.448300
10.212200 23.356500
10.224900 16.254400
10.237600 17.035900
10.250300 17.471300
10.263000 18.347800
10.275700 18.404000
10.288400 18.460300
10.301100 19.012600
10.313800 19.205900
10.326500 19.441300
10.339200 20.581900
10.351900 21.127900
10.364600 19.829100
10.377300 20.077400
10.390100 20.325600
10.402800 20.599300
10.415500 20.895000
10.428200 21.221300
10.440900 21.547800
10.453600 20.469300
10.466300 20.699500
10.479000 18.886500
10.491700 18.890300
10.504400 18.894200
10.517100 17.624300
10.529800 17.611300
10.542500 17.598300
10.555200 17.585300
10.567900 17.572300
10.580600 17.559300
10.593300 17.566800
10.606000 17.589100
10.618700 17.611300
10.631400 17.633500
10.644100 15.368500
10.656800 16.665100
10.669500 16.689500
10.682200 18.140500
10.694900 18.250700
10.707600 18.397900
10.720400 18.556100
10.733100 18.763700
10.745800 18.987300
10.758500 17.143200
10.771200 17.243900
10.783900 17.353200
10.796600 17.478700
10.809300 17.491500
10.822000 17.460600
10.834700 17.429800
10.847400 17.399000
10.860100 15.688000
10.872800 15.644900
10.885500 15.611200
10.898200 15.511500
10.910900 14.784900
10.923600 14.735000
10.936300 14.676000
10.949000 16.447700
10.961700 16.645600
10.974400 16.789100
10.987100 16.924600
10.999800 16.925500
11.012500 17.658400
11.025200 19.236000
11.037900 20.558300
11.050700 20.455700
11.063400 20.353000
11.076100 20.250400
11.088800 20.147700
11.101500 20.317500
11.114200 20.237500
11.126900 19.888000
11.139600 19.330900
11.152300 19.239500
11.165000 18.699900
11.177700 18.164500
11.190400 18.336300
11.203100 17.753400
11.215800 17.174100
11.228500 16.716800
11.241200 16.376800
11.253900 16.036700
11.266600 15.697500
11.279300 15.365700
11.292000 15.033800
11.304700 14.709000
11.317400 14.494300
11.330100 14.311100
11.342800 14.143700
11.355500 13.660400
11.368200 13.500000
11.380900 13.908900
11.393700 14.284900
11.406400 13.738100
11.419100 13.562400
11.431800 13.386600
11.444500 13.210900
11.457200 13.617500
11.469900 19.346600
11.482600 13.881600
11.495300 13.628600
11.508000 13.501000
11.520700 13.373300
11.533400 13.245700
11.546100 16.244600
11.558800 15.558100
11.571500 14.871600
11.584200 14.185100
11.596900 14.858700
11.609600 15.028500
11.622300 13.932800
11.635000 11.547100
11.647700 11.281000
11.660400 11.014900
11.673100 10.748800
11.685800 10.482700
11.698500 10.216600
11.711200 9.950500
11.724000 10.444200
11.736700 10.212800
11.749400 9.981300
11.762100 9.749900
11.774800 9.518500
11.787500 9.287100
11.800200 14.233900
11.812900 21.534500
11.825600 10.067100
11.838300 10.163300
11.851000 10.437400
11.863700 9.933900
11.876400 10.385500
11.889100 10.837000
11.901800 11.288600
11.914500 9.242600
11.927200 9.589900
11.939900 9.937100
11.952600 5.464100
11.965300 5.459400
11.978000 5.564900
11.990700 5.670400
12.003400 5.775800
12.016100 5.881300
12.028800 5.986800
12.041500 4.149300
12.054300 4.206700
12.067000 4.328600
12.079700 4.450500
12.092400 2.553000
12.105100 2.576000
12.117800 2.599000
12.130500 2.621900
12.143200 2.644900
12.155900 2.667800
12.168600 2.690800
12.181300 2.713700
12.194000 2.736700
12.206700 1.331200
12.219400 1.567300
12.232100 1.803300
12.244800 2.039400
12.257500 2.275500
12.270200 2.511500
12.282900 2.747600
12.295600 0.000000
12.308300 0.000000
12.321000 0.000000
12.333700 0.000000
12.346400 0.000000
12.359100 0.000000
12.371800 0.000000
12.384600 0.000000
12.397300 0.000000
12.410000 0.000000
12.422700 0.000000
12.435400 0.000000
12.448100 0.000000
12.460800 0.000000
12.473500 0.000000
12.486200 0.000000
12.498900 0.000000
12.511600 0.000000
12.524300 0.000000
12.537000 0.000000
12.549700 0.000000
12.562400 0.000000
12.575100 0.000000
12.587800 0.000000
12.600500 0.000000
12.613200 0.000000
12.625900 0.000000
12.638600 0.000000
12.651300 0.000000
12.664000 0.000000
12.676700 0.000000
12.689400 0.000000
12.702100 0.000000
12.714800 0.000000
12.727600 0.000000
12.740300 0.000000
12.753000 0.000000
12.765700 0.000000
12.778400 0.000000
12.791100 0.000000
12.803800 0.000000
12.816500 0.000000
12.829200 0.000000
12.841900 0.000000
12.854600 0.000000
12.867300 0.000000
12.880000 0.000000
12.892700 0.000000
12.905400 0.000000
12.918100 0.000000
12.930800 0.000000
12.943500 0.000000
12.956200 0.000000
12.968900 0.000000
12.981600 0.000000
12.994300 0.000000
13.007000 0.000000
13.019700 0.000000
13.032400 0.000000
13.045100 0.000000
13.057900 0.000000
13.070600 0.000000
13.083300 0.000000
13.096000 0.000000
13.108700 0.000000
13.121400 0.000000
13.134100 0.000000
13.146800 0.000000
13.159500 0.000000
13.172200 0.000000
13.184900 0.000000
13.197600 0.000000
13.210300 0.000000
13.223000 0.000000
13.235700 0.000000
13.248400 0.000000
13.261100 0.000000
13.273800 0.000000
13.286500 0.000000
13.299200 0.000000
13.311900 0.000000
13.324600 0.000000
13.337300 0.000000
13.350000 0.000000
13.362700 0.000000
13.375400 0.000000
13.388200 0.000000
13.400900 0.000000
13.413600 0.000000
13.426300 0.000000
13.439000 0.000000
e
