set title 'mp-1185148 - Density of States'
set xlabel 'Energy (eV)'
set ylabel 'DOS (states/eV)'
set grid
set xrange [-10:10]
set yrange [0:21.306]
set xzeroaxis lt -1
set terminal png size 800,600
set output 'mp-1185148_dos_gnuplot.png'
plot '-' using 1:2 with lines title 'DOS'
-30.784700 0.000000
-30.756500 0.000000
-30.728400 0.000000
-30.700300 0.000000
-30.672100 0.000000
-30.644000 0.000000
-30.615800 0.000000
-30.587700 0.000000
-30.559500 0.000000
-30.531400 0.000000
-30.503200 0.000000
-30.475100 0.000000
-30.446900 0.000000
-30.418800 0.000000
-30.390600 0.000000
-30.362500 0.000000
-30.334300 0.000000
-30.306200 0.000000
-30.278000 0.000000
-30.249900 0.000000
-30.221800 0.000000
-30.193600 0.000000
-30.165500 0.000000
-30.137300 0.000000
-30.109200 0.000000
-30.081000 0.000000
-30.052900 0.000000
-30.024700 0.000000
-29.996600 0.000000
-29.968400 0.000000
-29.940300 0.000000
-29.912100 0.000000
-29.884000 0.000000
-29.855800 0.000000
-29.827700 0.000000
-29.799500 0.000000
-29.771400 0.000000
-29.743300 0.000000
-29.715100 0.000000
-29.687000 0.000000
-29.658800 0.000000
-29.630700 0.000000
-29.602500 0.000000
-29.574400 0.000000
-29.546200 0.000000
-29.518100 0.000000
-29.489900 0.000000
-29.461800 0.000000
-29.433600 0.000000
-29.405500 0.000000
-29.377300 0.000000
-29.349200 0.000000
-29.321000 0.000000
-29.292900 0.000000
-29.264800 0.000000
-29.236600 0.000000
-29.208500 0.000000
-29.180300 0.000000
-29.152200 0.000000
-29.124000 0.000000
-29.095900 0.000000
-29.067700 0.000000
-29.039600 0.000000
-29.011400 0.000000
-28.983300 0.000000
-28.955100 0.000000
-28.927000 0.000000
-28.898800 0.000000
-28.870700 0.000000
-28.842500 0.000000
-28.814400 0.000000
-28.786200 0.000000
-28.758100 0.000000
-28.730000 0.000000
-28.701800 0.000000
-28.673700 0.000000
-28.645500 0.000000
-28.617400 0.000000
-28.589200 0.000000
-28.561100 0.000000
-28.532900 0.000000
-28.504800 0.000000
-28.476600 0.000000
-28.448500 0.000000
-28.420300 0.000000
-28.392200 0.000000
-28.364000 0.001000
-28.335900 0.022400
-28.307700 0.288800
-28.279600 2.053900
-28.251500 8.092400
-28.223300 17.706500
-28.195200 21.544800
-28.167000 14.580500
-28.138900 5.482100
-28.110700 1.142600
-28.082600 0.131600
-28.054400 0.008300
-28.026300 0.000300
-27.998100 0.000000
-27.970000 0.000000
-27.941800 0.000000
-27.913700 0.000000
-27.885500 0.000000
-27.857400 0.000000
-27.829200 0.000000
-27.801100 0.000000
-27.773000 0.000000
-27.744800 0.000000
-27.716700 0.000000
-27.688500 0.000000
-27.660400 0.000000
-27.632200 0.000000
-27.604100 0.000000
-27.575900 0.000000
-27.547800 0.000000
-27.519600 0.000000
-27.491500 0.000000
-27.463300 0.000000
-27.435200 0.000000
-27.407000 0.000000
-27.378900 0.000000
-27.350700 0.000000
-27.322600 0.000000
-27.294500 0.000000
-27.266300 0.000000
-27.238200 0.000000
-27.210000 0.000000
-27.181900 0.000000
-27.153700 0.000000
-27.125600 0.000000
-27.097400 0.000000
-27.069300 0.000000
-27.041100 0.000000
-27.013000 0.000000
-26.984800 0.000000
-26.956700 0.000000
-26.928500 0.000000
-26.900400 0.000000
-26.872200 0.000000
-26.844100 0.000000
-26.816000 0.000000
-26.787800 0.000000
-26.759700 0.000000
-26.731500 0.000000
-26.703400 0.000000
-26.675200 0.000000
-26.647100 0.000000
-26.618900 0.000000
-26.590800 0.000000
-26.562600 0.000000
-26.534500 0.000000
-26.506300 0.000000
-26.478200 0.000000
-26.450000 0.000000
-26.421900 0.000000
-26.393700 0.000000
-26.365600 0.000000
-26.337500 0.000000
-26.309300 0.000000
-26.281200 0.000000
-26.253000 0.000000
-26.224900 0.000000
-26.196700 0.000000
-26.168600 0.000000
-26.140400 0.000000
-26.112300 0.000000
-26.084100 0.000000
-26.056000 0.000000
-26.027800 0.000000
-25.999700 0.000000
-25.971500 0.000000
-25.943400 0.000000
-25.915200 0.000000
-25.887100 0.000000
-25.859000 0.000000
-25.830800 0.000000
-25.802700 0.000000
-25.774500 0.000000
-25.746400 0.000000
-25.718200 0.000000
-25.690100 0.000000
-25.661900 0.000000
-25.633800 0.000000
-25.605600 0.000000
-25.577500 0.000000
-25.549300 0.000000
-25.521200 0.000000
-25.493000 0.000000
-25.464900 0.000000
-25.436700 0.000000
-25.408600 0.000000
-25.380400 0.000000
-25.352300 0.000000
-25.324200 0.000000
-25.296000 0.000000
-25.267900 0.000000
-25.239700 0.000000
-25.211600 0.000000
-25.183400 0.000000
-25.155300 0.000000
-25.127100 0.000000
-25.099000 0.000000
-25.070800 0.000000
-25.042700 0.000000
-25.014500 0.000000
-24.986400 0.000000
-24.958200 0.000000
-24.930100 0.000000
-24.901900 0.000000
-24.873800 0.000000
-24.845700 0.000000
-24.817500 0.000000
-24.789400 0.000000
-24.761200 0.000000
-24.733100 0.000000
-24.704900 0.000000
-24.676800 0.000000
-24.648600 0.000000
-24.620500 0.000000
-24.592300 0.000000
-24.564200 0.000000
-24.536000 0.000000
-24.507900 0.000000
-24.479700 0.000000
-24.451600 0.000000
-24.423400 0.000000
-24.395300 0.000000
-24.367200 0.000000
-24.339000 0.000000
-24.310900 0.000000
-24.282700 0.000000
-24.254600 0.000000
-24.226400 0.000000
-24.198300 0.000000
-24.170100 0.000000
-24.142000 0.000000
-24.113800 0.000000
-24.085700 0.000000
-24.057500 0.000000
-24.029400 0.000000
-24.001200 0.000000
-23.973100 0.000000
-23.944900 0.000000
-23.916800 0.000000
-23.888700 0.000000
-23.860500 0.000000
-23.832400 0.000000
-23.804200 0.000000
-23.776100 0.000000
-23.747900 0.000000
-23.719800 0.000000
-23.691600 0.000000
-23.663500 0.000000
-23.635300 0.000000
-23.607200 0.000000
-23.579000 0.000000
-23.550900 0.000000
-23.522700 0.000000
-23.494600 0.000000
-23.466400 0.000000
-23.438300 0.000000
-23.410200 0.000000
-23.382000 0.000000
-23.353900 0.000000
-23.325700 0.000000
-23.297600 0.000000
-23.269400 0.000000
-23.241300 0.000000
-23.213100 0.000000
-23.185000 0.000000
-23.156800 0.000000
-23.128700 0.000000
-23.100500 0.000000
-23.072400 0.000000
-23.044200 0.000000
-23.016100 0.000000
-22.987900 0.000000
-22.959800 0.000000
-22.931700 0.000000
-22.903500 0.000000
-22.875400 0.000000
-22.847200 0.000000
-22.819100 0.000000
-22.790900 0.000000
-22.762800 0.000000
-22.734600 0.000000
-22.706500 0.000000
-22.678300 0.000000
-22.650200 0.000000
-22.622000 0.000000
-22.593900 0.000000
-22.565700 0.000000
-22.537600 0.000000
-22.509400 0.000000
-22.481300 0.000000
-22.453100 0.000000
-22.425000 0.000000
-22.396900 0.000000
-22.368700 0.000000
-22.340600 0.000000
-22.312400 0.000000
-22.284300 0.000000
-22.256100 0.000000
-22.228000 0.000000
-22.199800 0.000000
-22.171700 0.000000
-22.143500 0.000000
-22.115400 0.000000
-22.087200 0.000000
-22.059100 0.000000
-22.030900 0.000000
-22.002800 0.000000
-21.974600 0.000000
-21.946500 0.000000
-21.918400 0.000000
-21.890200 0.000000
-21.862100 0.000000
-21.833900 0.000000
-21.805800 0.000000
-21.777600 0.000000
-21.749500 0.000000
-21.721300 0.000000
-21.693200 0.000000
-21.665000 0.000000
-21.636900 0.000000
-21.608700 0.000000
-21.580600 0.000000
-21.552400 0.000000
-21.524300 0.000000
-21.496100 0.000000
-21.468000 0.000000
-21.439900 0.000000
-21.411700 0.000000
-21.383600 0.000000
-21.355400 0.000000
-21.327300 0.000000
-21.299100 0.000000
-21.271000 0.000000
-21.242800 0.000000
-21.214700 0.000000
-21.186500 0.000000
-21.158400 0.000000
-21.130200 0.000000
-21.102100 0.000000
-21.073900 0.000000
-21.045800 0.000000
-21.017600 0.000000
-20.989500 0.000000
-20.961400 0.000000
-20.933200 0.000000
-20.905100 0.000000
-20.876900 0.000000
-20.848800 0.000000
-20.820600 0.000000
-20.792500 0.000000
-20.764300 0.000000
-20.736200 0.000000
-20.708000 0.000000
-20.679900 0.000000
-20.651700 0.000000
-20.623600 0.000000
-20.595400 0.000000
-20.567300 0.000000
-20.539100 0.000000
-20.511000 0.000000
-20.482900 0.000000
-20.454700 0.000000
-20.426600 0.000000
-20.398400 0.000000
-20.370300 0.000000
-20.342100 0.000000
-20.314000 0.000000
-20.285800 0.000000
-20.257700 0.000000
-20.229500 0.000000
-20.201400 0.000000
-20.173200 0.000000
-20.145100 0.000000
-20.116900 0.000000
-20.088800 0.000000
-20.060600 0.000000
-20.032500 0.000000
-20.004400 0.000000
-19.976200 0.000000
-19.948100 0.000000
-19.919900 0.000000
-19.891800 0.000000
-19.863600 0.000000
-19.835500 0.000000
-19.807300 0.000000
-19.779200 0.000000
-19.751000 0.000000
-19.722900 0.000000
-19.694700 0.000000
-19.666600 0.000000
-19.638400 0.000000
-19.610300 0.000000
-19.582100 0.000000
-19.554000 0.000000
-19.525800 0.000000
-19.497700 0.000000
-19.469600 0.000000
-19.441400 0.000000
-19.413300 0.000000
-19.385100 0.000000
-19.357000 0.000000
-19.328800 0.000000
-19.300700 0.000000
-19.272500 0.000000
-19.244400 0.000000
-19.216200 0.000000
-19.188100 0.000000
-19.159900 0.000000
-19.131800 0.000000
-19.103600 0.000000
-19.075500 0.000000
-19.047300 0.000000
-19.019200 0.000000
-18.991100 0.000000
-18.962900 0.000000
-18.934800 0.000000
-18.906600 0.000000
-18.878500 0.000000
-18.850300 0.000000
-18.822200 0.000000
-18.794000 0.000000
-18.765900 0.000000
-18.737700 0.000000
-18.709600 0.000000
-18.681400 0.000000
-18.653300 0.000000
-18.625100 0.000000
-18.597000 0.000000
-18.568800 0.000000
-18.540700 0.000000
-18.512600 0.000000
-18.484400 0.000000
-18.456300 0.000000
-18.428100 0.000000
-18.400000 0.000000
-18.371800 0.000000
-18.343700 0.000000
-18.315500 0.000000
-18.287400 0.000000
-18.259200 0.000000
-18.231100 0.000000
-18.202900 0.000000
-18.174800 0.000000
-18.146600 0.000000
-18.118500 0.000000
-18.090300 0.000000
-18.062200 0.000000
-18.034100 0.000000
-18.005900 0.000000
-17.977800 0.000000
-17.949600 0.000000
-17.921500 0.000000
-17.893300 0.000000
-17.865200 0.000000
-17.837000 0.000000
-17.808900 0.000000
-17.780700 0.000000
-17.752600 0.000000
-17.724400 0.000000
-17.696300 0.000000
-17.668100 0.000000
-17.640000 0.000000
-17.611800 0.000000
-17.583700 0.000000
-17.555600 0.000000
-17.527400 0.000000
-17.499300 0.000000
-17.471100 0.000000
-17.443000 0.000000
-17.414800 0.000000
-17.386700 0.000000
-17.358500 0.000000
-17.330400 0.000000
-17.302200 0.000000
-17.274100 0.000000
-17.245900 0.000000
-17.217800 0.000000
-17.189600 0.000000
-17.161500 0.000000
-17.133300 0.000000
-17.105200 0.000000
-17.077100 0.000000
-17.048900 0.000000
-17.020800 0.000000
-16.992600 0.000000
-16.964500 0.000000
-16.936300 0.000000
-16.908200 0.000000
-16.880000 0.000000
-16.851900 0.000000
-16.823700 0.000000
-16.795600 0.000000
-16.767400 0.000000
-16.739300 0.000000
-16.711100 0.000000
-16.683000 0.000000
-16.654800 0.000000
-16.626700 0.000000
-16.598600 0.000000
-16.570400 0.000000
-16.542300 0.000000
-16.514100 0.000000
-16.486000 0.000000
-16.457800 0.000000
-16.429700 0.000000
-16.401500 0.000000
-16.373400 0.000000
-16.345200 0.000000
-16.317100 0.000000
-16.288900 0.000000
-16.260800 0.000000
-16.232600 0.000000
-16.204500 0.000000
-16.176300 0.000000
-16.148200 0.000000
-16.120000 0.000000
-16.091900 0.000000
-16.063800 0.000100
-16.035600 0.001000
-16.007500 0.010600
-15.979300 0.063600
-15.951200 0.243100
-15.923000 0.633900
-15.894900 1.173700
-15.866700 1.553600
-15.838600 1.492100
-15.810400 1.213100
-15.782300 1.357000
-15.754100 2.024800
-15.726000 2.377600
-15.697800 1.821300
-15.669700 1.035400
-15.641500 0.913500
-15.613400 1.361700
-15.585300 1.980800
-15.557100 2.539700
-15.529000 2.511100
-15.500800 1.948900
-15.472700 1.773400
-15.444500 1.864000
-15.416400 1.388000
-15.388200 0.768300
-15.360100 1.027300
-15.331900 2.336900
-15.303800 3.551900
-15.275600 3.544000
-15.247500 2.872200
-15.219300 2.208100
-15.191200 1.676300
-15.163000 1.698700
-15.134900 1.851500
-15.106800 1.488800
-15.078600 1.479900
-15.050500 2.843000
-15.022300 4.789600
-14.994200 5.752300
-14.966000 5.585500
-14.937900 4.764300
-14.909700 3.302700
-14.881600 1.893600
-14.853400 1.409100
-14.825300 1.757700
-14.797100 2.755400
-14.769000 4.204300
-14.740800 5.104600
-14.712700 4.333100
-14.684500 2.508000
-14.656400 1.345300
-14.628300 1.019800
-14.600100 0.803000
-14.572000 0.859100
-14.543800 1.505300
-14.515700 2.194100
-14.487500 2.576300
-14.459400 2.839100
-14.431200 2.517800
-14.403100 1.609300
-14.374900 1.057900
-14.346800 0.974600
-14.318600 0.813600
-14.290500 0.803000
-14.262300 1.442400
-14.234200 2.230000
-14.206000 2.209400
-14.177900 1.435300
-14.149800 0.771600
-14.121600 0.757500
-14.093500 1.147400
-14.065300 1.398200
-14.037200 1.291600
-14.009000 0.911500
-13.980900 0.501400
-13.952700 0.220500
-13.924600 0.070600
-13.896400 0.014300
-13.868300 0.004100
-13.840100 0.026600
-13.812000 0.170700
-13.783800 0.692800
-13.755700 1.829500
-13.727500 3.208400
-13.699400 3.986600
-13.671300 4.473400
-13.643100 5.762600
-13.615000 6.986400
-13.586800 6.960500
-13.558700 6.739400
-13.530500 6.796500
-13.502400 6.041000
-13.474200 4.489300
-13.446100 3.284800
-13.417900 2.790100
-13.389800 2.468400
-13.361600 1.939800
-13.333500 1.255600
-13.305300 0.669800
-13.277200 0.316900
-13.249000 0.124700
-13.220900 0.033100
-13.192700 0.005200
-13.164600 0.000400
-13.136500 0.000000
-13.108300 0.000000
-13.080200 0.000000
-13.052000 0.000000
-13.023900 0.000000
-12.995700 0.000000
-12.967600 0.000000
-12.939400 0.000000
-12.911300 0.000000
-12.883100 0.000000
-12.855000 0.000000
-12.826800 0.000000
-12.798700 0.000000
-12.770500 0.000000
-12.742400 0.000000
-12.714200 0.000000
-12.686100 0.000000
-12.658000 0.000000
-12.629800 0.000000
-12.601700 0.000000
-12.573500 0.000000
-12.545400 0.000000
-12.517200 0.000000
-12.489100 0.000000
-12.460900 0.000000
-12.432800 0.000000
-12.404600 0.000000
-12.376500 0.000000
-12.348300 0.000000
-12.320200 0.000000
-12.292000 0.000000
-12.263900 0.000000
-12.235700 0.000000
-12.207600 0.000000
-12.179500 0.000000
-12.151300 0.000000
-12.123200 0.000000
-12.095000 0.000000
-12.066900 0.000000
-12.038700 0.000700
-12.010600 0.010800
-11.982400 0.096900
-11.954300 0.516600
-11.926100 1.792400
-11.898000 4.842500
-11.869800 11.598600
-11.841700 22.275000
-11.813500 29.698700
-11.785400 27.147200
-11.757200 19.927300
-11.729100 14.781100
-11.701000 10.935400
-11.672800 7.147000
-11.644700 4.649500
-11.616500 3.806100
-11.588400 3.521100
-11.560200 3.416400
-11.532100 3.843900
-11.503900 4.725700
-11.475800 6.124500
-11.447600 7.357400
-11.419500 6.701600
-11.391300 4.615600
-11.363200 3.409100
-11.335000 3.430100
-11.306900 3.154500
-11.278700 2.112800
-11.250600 1.036500
-11.222500 0.378200
-11.194300 0.095900
-11.166200 0.015200
-11.138000 0.001400
-11.109900 0.000100
-11.081700 0.000000
-11.053600 0.000000
-11.025400 0.000000
-10.997300 0.000000
-10.969100 0.000000
-10.941000 0.000000
-10.912800 0.000000
-10.884700 0.000000
-10.856500 0.000000
-10.828400 0.000000
-10.800200 0.000000
-10.772100 0.000000
-10.744000 0.000000
-10.715800 0.000000
-10.687700 0.000000
-10.659500 0.000000
-10.631400 0.000000
-10.603200 0.000000
-10.575100 0.000000
-10.546900 0.000000
-10.518800 0.000000
-10.490600 0.000000
-10.462500 0.000000
-10.434300 0.000000
-10.406200 0.000000
-10.378000 0.000000
-10.349900 0.000000
-10.321700 0.000000
-10.293600 0.000000
-10.265400 0.000000
-10.237300 0.000000
-10.209200 0.000000
-10.181000 0.000000
-10.152900 0.000000
-10.124700 0.000000
-10.096600 0.000000
-10.068400 0.000000
-10.040300 0.000000
-10.012100 0.000000
-9.984000 0.000000
-9.955800 0.000000
-9.927700 0.000000
-9.899500 0.000000
-9.871400 0.000000
-9.843200 0.000000
-9.815100 0.000000
-9.786900 0.000000
-9.758800 0.000000
-9.730700 0.000000
-9.702500 0.000000
-9.674400 0.000000
-9.646200 0.000000
-9.618100 0.000000
-9.589900 0.000000
-9.561800 0.000000
-9.533600 0.000000
-9.505500 0.000000
-9.477300 0.000000
-9.449200 0.000000
-9.421000 0.000000
-9.392900 0.000000
-9.364700 0.000000
-9.336600 0.000000
-9.308400 0.000000
-9.280300 0.000000
-9.252200 0.000000
-9.224000 0.000000
-9.195900 0.000000
-9.167700 0.000000
-9.139600 0.000000
-9.111400 0.000000
-9.083300 0.000000
-9.055100 0.000000
-9.027000 0.000000
-8.998800 0.000000
-8.970700 0.000000
-8.942500 0.000000
-8.914400 0.000000
-8.886200 0.000000
-8.858100 0.000000
-8.829900 0.000000
-8.801800 0.000000
-8.773700 0.000000
-8.745500 0.000000
-8.717400 0.000000
-8.689200 0.000000
-8.661100 0.000000
-8.632900 0.000000
-8.604800 0.000000
-8.576600 0.000000
-8.548500 0.000000
-8.520300 0.000000
-8.492200 0.000000
-8.464000 0.000000
-8.435900 0.000000
-8.407700 0.000000
-8.379600 0.000000
-8.351400 0.000000
-8.323300 0.000000
-8.295200 0.000000
-8.267000 0.000000
-8.238900 0.000000
-8.210700 0.000000
-8.182600 0.000000
-8.154400 0.000000
-8.126300 0.000000
-8.098100 0.000000
-8.070000 0.000000
-8.041800 0.000000
-8.013700 0.000000
-7.985500 0.000000
-7.957400 0.000000
-7.929200 0.000000
-7.901100 0.000000
-7.872900 0.000000
-7.844800 0.000000
-7.816700 0.000000
-7.788500 0.000000
-7.760400 0.000000
-7.732200 0.000000
-7.704100 0.000000
-7.675900 0.000000
-7.647800 0.000000
-7.619600 0.000000
-7.591500 0.000000
-7.563300 0.000000
-7.535200 0.000000
-7.507000 0.000000
-7.478900 0.000000
-7.450700 0.000000
-7.422600 0.000000
-7.394400 0.000000
-7.366300 0.000000
-7.338200 0.000000
-7.310000 0.000000
-7.281900 0.000000
-7.253700 0.000000
-7.225600 0.000000
-7.197400 0.000000
-7.169300 0.000000
-7.141100 0.000000
-7.113000 0.000000
-7.084800 0.000000
-7.056700 0.000000
-7.028500 0.000000
-7.000400 0.000000
-6.972200 0.000000
-6.944100 0.000000
-6.915900 0.000000
-6.887800 0.000000
-6.859600 0.000000
-6.831500 0.000000
-6.803400 0.000000
-6.775200 0.000000
-6.747100 0.000000
-6.718900 0.000000
-6.690800 0.000000
-6.662600 0.000000
-6.634500 0.000000
-6.606300 0.000000
-6.578200 0.000000
-6.550000 0.000000
-6.521900 0.000000
-6.493700 0.000000
-6.465600 0.000000
-6.437400 0.000000
-6.409300 0.000000
-6.381100 0.000000
-6.353000 0.000000
-6.324900 0.000000
-6.296700 0.000000
-6.268600 0.000000
-6.240400 0.000000
-6.212300 0.000000
-6.184100 0.000000
-6.156000 0.000000
-6.127800 0.000000
-6.099700 0.000000
-6.071500 0.000000
-6.043400 0.000000
-6.015200 0.000000
-5.987100 0.000000
-5.958900 0.000000
-5.930800 0.000000
-5.902600 0.000000
-5.874500 0.000000
-5.846400 0.000000
-5.818200 0.000000
-5.790100 0.000000
-5.761900 0.000000
-5.733800 0.000000
-5.705600 0.000000
-5.677500 0.000000
-5.649300 0.000000
-5.621200 0.000000
-5.593000 0.000000
-5.564900 0.000000
-5.536700 0.000000
-5.508600 0.000000
-5.480400 0.000000
-5.452300 0.000000
-5.424100 0.000000
-5.396000 0.000400
-5.367900 0.005600
-5.339700 0.040200
-5.311600 0.161100
-5.283400 0.369300
-5.255300 0.559900
-5.227100 0.863700
-5.199000 1.610800
-5.170800 2.386200
-5.142700 2.229700
-5.114500 1.247700
-5.086400 0.478900
-5.058200 0.489100
-5.030100 1.246200
-5.001900 2.178400
-4.973800 2.473900
-4.945600 2.133300
-4.917500 1.676800
-4.889400 1.464200
-4.861200 1.688100
-4.833100 1.838000
-4.804900 1.408900
-4.776800 1.120600
-4.748600 1.547900
-4.720500 1.960800
-4.692300 1.917200
-4.664200 2.076100
-4.636000 2.420100
-4.607900 2.095200
-4.579700 1.174600
-4.551600 0.673900
-4.523400 1.096400
-4.495300 1.937900
-4.467100 2.459800
-4.439000 2.692500
-4.410900 2.854400
-4.382700 3.149500
-4.354600 3.791900
-4.326400 3.904500
-4.298300 2.898800
-4.270100 1.969700
-4.242000 1.900000
-4.213800 1.880700
-4.185700 1.278900
-4.157500 0.774300
-4.129400 1.238400
-4.101200 2.441400
-4.073100 3.065400
-4.044900 2.559700
-4.016800 1.894700
-3.988600 1.864300
-3.960500 2.212900
-3.932300 2.457200
-3.904200 2.481900
-3.876100 2.156200
-3.847900 1.583800
-3.819800 1.037800
-3.791600 0.844600
-3.763500 1.283000
-3.735300 2.098600
-3.707200 2.669700
-3.679000 2.628800
-3.650900 2.514900
-3.622700 2.905000
-3.594600 3.151300
-3.566400 2.775300
-3.538300 2.527600
-3.510100 2.739500
-3.482000 2.714900
-3.453800 2.156000
-3.425700 1.700400
-3.397600 2.115300
-3.369400 3.485100
-3.341300 4.656600
-3.313100 4.374800
-3.285000 3.204000
-3.256800 2.769700
-3.228700 3.754500
-3.200500 4.914500
-3.172400 4.443000
-3.144200 3.075300
-3.116100 3.075200
-3.087900 4.371000
-3.059800 4.925200
-3.031600 4.138200
-3.003500 3.016900
-2.975300 2.034600
-2.947200 1.604900
-2.919100 2.375100
-2.890900 3.501800
-2.862800 3.459200
-2.834600 2.723600
-2.806500 2.662300
-2.778300 3.411100
-2.750200 4.610300
-2.722000 5.939600
-2.693900 6.579900
-2.665700 6.118600
-2.637600 5.216500
-2.609400 4.628700
-2.581300 5.117000
-2.553100 6.881200
-2.525000 8.041600
-2.496800 6.684500
-2.468700 3.737300
-2.440600 1.568400
-2.412400 1.097200
-2.384300 1.582300
-2.356100 2.077800
-2.328000 2.476000
-2.299800 3.127300
-2.271700 3.748900
-2.243500 3.955500
-2.215400 3.746100
-2.187200 3.107800
-2.159100 2.531200
-2.130900 2.704400
-2.102800 3.476600
-2.074600 4.589100
-2.046500 6.220300
-2.018300 7.902400
-1.990200 8.491500
-1.962100 7.882200
-1.933900 7.420000
-1.905800 7.651100
-1.877600 7.636700
-1.849500 6.936800
-1.821300 5.909600
-1.793200 4.593900
-1.765000 3.148400
-1.736900 2.450400
-1.708700 2.945800
-1.680600 3.897100
-1.652400 4.728000
-1.624300 5.846600
-1.596100 7.853200
-1.568000 10.195700
-1.539800 11.252600
-1.511700 10.924800
-1.483600 11.101100
-1.455400 12.211400
-1.427300 13.094100
-1.399100 14.219300
-1.371000 16.867100
-1.342800 19.369300
-1.314700 17.839200
-1.286500 11.967300
-1.258400 6.454300
-1.230200 4.379400
-1.202100 3.841500
-1.173900 2.623200
-1.145800 1.158700
-1.117600 0.378600
-1.089500 0.408800
-1.061300 1.208400
-1.033200 2.429700
-1.005000 3.066000
-0.976900 2.605400
-0.948800 1.955400
-0.920600 2.339100
-0.892500 3.450500
-0.864300 3.878700
-0.836200 3.406100
-0.808000 2.857400
-0.779900 2.532900
-0.751700 2.417000
-0.723600 2.217600
-0.695400 1.734600
-0.667300 1.179200
-0.639100 0.851800
-0.611000 1.159800
-0.582800 1.866000
-0.554700 2.155100
-0.526500 2.063100
-0.498400 2.151600
-0.470300 2.207800
-0.442100 1.757600
-0.414000 1.236000
-0.385800 1.122000
-0.357700 1.060600
-0.329500 0.806300
-0.301400 0.471800
-0.273200 0.190200
-0.245100 0.046500
-0.216900 0.006500
-0.188800 0.000500
-0.160600 0.000000
-0.132500 0.000000
-0.104300 0.000000
-0.076200 0.000000
-0.048000 0.000000
-0.019900 0.000000
0.008200 0.000000
0.036400 0.000000
0.064500 0.000000
0.092700 0.000000
0.120800 0.000000
0.149000 0.000000
0.177100 0.000000
0.205300 0.000000
0.233400 0.000000
0.261600 0.000000
0.289700 0.000000
0.317900 0.000000
0.346000 0.000000
0.374200 0.000000
0.402300 0.000000
0.430500 0.000000
0.458600 0.000000
0.486700 0.000000
0.514900 0.000000
0.543000 0.000000
0.571200 0.000000
0.599300 0.000000
0.627500 0.000000
0.655600 0.000000
0.683800 0.000000
0.711900 0.000000
0.740100 0.000000
0.768200 0.000000
0.796400 0.000000
0.824500 0.000000
0.852700 0.000000
0.880800 0.000000
0.909000 0.000000
0.937100 0.000000
0.965200 0.000000
0.993400 0.000000
1.021500 0.000000
1.049700 0.000000
1.077800 0.000000
1.106000 0.000000
1.134100 0.000000
1.162300 0.000000
1.190400 0.000000
1.218600 0.000000
1.246700 0.000000
1.274900 0.000000
1.303000 0.000000
1.331200 0.000000
1.359300 0.000000
1.387500 0.000000
1.415600 0.000000
1.443700 0.000000
1.471900 0.000000
1.500000 0.000000
1.528200 0.000000
1.556300 0.000000
1.584500 0.000000
1.612600 0.000000
1.640800 0.000000
1.668900 0.000000
1.697100 0.000000
1.725200 0.000000
1.753400 0.000000
1.781500 0.000000
1.809700 0.000000
1.837800 0.000000
1.866000 0.000000
1.894100 0.000000
1.922200 0.000000
1.950400 0.000000
1.978500 0.000000
2.006700 0.000000
2.034800 0.000000
2.063000 0.000000
2.091100 0.000000
2.119300 0.000000
2.147400 0.000000
2.175600 0.000000
2.203700 0.000000
2.231900 0.000000
2.260000 0.000000
2.288200 0.000000
2.316300 0.000000
2.344500 0.000000
2.372600 0.000000
2.400800 0.000000
2.428900 0.000000
2.457000 0.000000
2.485200 0.000000
2.513300 0.000000
2.541500 0.000000
2.569600 0.000000
2.597800 0.000000
2.625900 0.000000
2.654100 0.000000
2.682200 0.000000
2.710400 0.000000
2.738500 0.000000
2.766700 0.000000
2.794800 0.000000
2.823000 0.000000
2.851100 0.000000
2.879300 0.000000
2.907400 0.000000
2.935500 0.000000
2.963700 0.000000
2.991800 0.000000
3.020000 0.000000
3.048100 0.000000
3.076300 0.000000
3.104400 0.000000
3.132600 0.000000
3.160700 0.000000
3.188900 0.000000
3.217000 0.000000
3.245200 0.000000
3.273300 0.000000
3.301500 0.000000
3.329600 0.000000
3.357800 0.000000
3.385900 0.000000
3.414000 0.000000
3.442200 0.000000
3.470300 0.000000
3.498500 0.000000
3.526600 0.000000
3.554800 0.000000
3.582900 0.000000
3.611100 0.000000
3.639200 0.000000
3.667400 0.000000
3.695500 0.000000
3.723700 0.000000
3.751800 0.000000
3.780000 0.000000
3.808100 0.000000
3.836300 0.000000
3.864400 0.000000
3.892500 0.000000
3.920700 0.000000
3.948800 0.000000
3.977000 0.000000
4.005100 0.000000
4.033300 0.000000
4.061400 0.000000
4.089600 0.000000
4.117700 0.000000
4.145900 0.000000
4.174000 0.000000
4.202200 0.000000
4.230300 0.000000
4.258500 0.000000
4.286600 0.000000
4.314800 0.000000
4.342900 0.000000
4.371000 0.000000
4.399200 0.000000
4.427300 0.000000
4.455500 0.000000
4.483600 0.000000
4.511800 0.000000
4.539900 0.000000
4.568100 0.000000
4.596200 0.000600
4.624400 0.004400
4.652500 0.017300
4.680700 0.037000
4.708800 0.043600
4.737000 0.031700
4.765100 0.031100
4.793300 0.067600
4.821400 0.124200
4.849500 0.170200
4.877700 0.208800
4.905800 0.229700
4.934000 0.222200
4.962100 0.214100
4.990300 0.176400
5.018400 0.097800
5.046600 0.061200
5.074700 0.139400
5.102900 0.305600
5.131000 0.390000
5.159200 0.303900
5.187300 0.206800
5.215500 0.197600
5.243600 0.194200
5.271800 0.191300
5.299900 0.265500
5.328100 0.431600
5.356200 0.636700
5.384300 0.697600
5.412500 0.530200
5.440600 0.337300
5.468800 0.239000
5.496900 0.202600
5.525100 0.270900
5.553200 0.434300
5.581400 0.549900
5.609500 0.528800
5.637700 0.380300
5.665800 0.226900
5.694000 0.231900
5.722100 0.374100
5.750300 0.508300
5.778400 0.608700
5.806600 0.760000
5.834700 0.926600
5.862800 0.944000
5.891000 0.891000
5.919100 0.964600
5.947300 0.975600
5.975400 0.738600
6.003600 0.503800
6.031700 0.538400
6.059900 0.817600
6.088000 1.165000
6.116200 1.368400
6.144300 1.373600
6.172500 1.420300
6.200600 1.500400
6.228800 1.296700
6.256900 0.936000
6.285100 0.806700
6.313200 0.999700
6.341300 1.391900
6.369500 1.763400
6.397600 1.850400
6.425800 1.573500
6.453900 1.215000
6.482100 1.150000
6.510200 1.496900
6.538400 2.234400
6.566500 3.189100
6.594700 3.872100
6.622800 4.256400
6.651000 4.695000
6.679100 4.821800
6.707300 4.515700
6.735400 4.296400
6.763600 4.097000
6.791700 3.766800
6.819800 3.703000
6.848000 4.029000
6.876100 4.434000
6.904300 4.635100
6.932400 4.407200
6.960600 3.794400
6.988700 3.233400
7.016900 2.969100
7.045000 2.841400
7.073200 2.758100
7.101300 2.818000
7.129500 3.230000
7.157600 3.985800
7.185800 4.486400
7.213900 4.272000
7.242100 3.824300
7.270200 3.675300
7.298300 3.815200
7.326500 4.239900
7.354600 4.769900
7.382800 5.046600
7.410900 4.939200
7.439100 4.720100
7.467200 4.536200
7.495400 4.135000
7.523500 3.664500
7.551700 3.313600
7.579800 3.244200
7.608000 4.091700
7.636100 5.622400
7.664300 6.316700
7.692400 5.685600
7.720600 4.946500
7.748700 4.969900
7.776800 5.470600
7.805000 5.834900
7.833100 5.636800
7.861300 4.883900
7.889400 3.846700
7.917600 2.880600
7.945700 2.417600
7.973900 2.739200
8.002000 3.571900
8.030200 4.106300
8.058300 4.181400
8.086500 4.419500
8.114600 4.951200
8.142800 5.226700
8.170900 4.842600
8.199100 4.231900
8.227200 3.918900
8.255400 3.614600
8.283500 3.111300
8.311600 2.939600
8.339800 3.258100
8.367900 3.466000
8.396100 3.228400
8.424200 2.803400
8.452400 2.538400
8.480500 2.650200
8.508700 3.046100
8.536800 3.273000
8.565000 3.046600
8.593100 2.774400
8.621300 2.945400
8.649400 3.537400
8.677600 4.281600
8.705700 4.776700
8.733900 4.986900
8.762000 5.426600
8.790100 6.241100
8.818300 6.798500
8.846400 6.530100
8.874600 5.667900
8.902700 4.685500
8.930900 3.815400
8.959000 3.252500
8.987200 2.921900
9.015300 2.435600
9.043500 1.878700
9.071600 1.943300
9.099800 2.870700
9.127900 3.721900
9.156100 3.648100
9.184200 3.505300
9.212400 4.123800
9.240500 4.590300
9.268600 4.199800
9.296800 3.653200
9.324900 3.602500
9.353100 4.024200
9.381200 4.631600
9.409400 4.886100
9.437500 4.271600
9.465700 3.126700
9.493800 2.398600
9.522000 2.593200
9.550100 3.711800
9.578300 5.026800
9.606400 5.468400
9.634600 5.213200
9.662700 5.129500
9.690900 5.300200
9.719000 5.463300
9.747100 5.337100
9.775300 4.791500
9.803400 4.262900
9.831600 4.078900
9.859700 4.022300
9.887900 3.946700
9.916000 3.784700
9.944200 3.516700
9.972300 3.565500
10.000500 4.199300
10.028600 4.606500
10.056800 4.065200
10.084900 3.302500
10.113100 3.068700
10.141200 3.134100
10.169400 3.327400
10.197500 3.840900
10.225600 4.481100
10.253800 4.563500
10.281900 3.869100
10.310100 3.220200
10.338200 3.336600
10.366400 3.761400
10.394500 3.784700
10.422700 3.692100
10.450800 3.736200
10.479000 3.366100
10.507100 2.800400
10.535300 2.749000
10.563400 3.009600
10.591600 3.093600
10.619700 3.191100
10.647900 3.542400
10.676000 3.795100
10.704100 3.655200
10.732300 3.342000
10.760400 3.466700
10.788600 4.358200
10.816700 5.448000
10.844900 5.977000
10.873000 5.927800
10.901200 5.843600
10.929300 6.161100
10.957500 6.404600
10.985600 5.885600
11.013800 5.391200
11.041900 5.990700
11.070100 6.975000
11.098200 7.056400
11.126400 6.509200
11.154500 6.094800
11.182600 5.496900
11.210800 4.650300
11.238900 4.207600
11.267100 4.365100
11.295200 4.879600
11.323400 5.255000
11.351500 5.087900
11.379700 4.802300
11.407800 4.921700
11.436000 5.288600
11.464100 5.635000
11.492300 5.870700
11.520400 5.866400
11.548600 5.554800
11.576700 5.279200
11.604900 5.396900
11.633000 5.702800
11.661200 5.917900
11.689300 5.972100
11.717400 5.755200
11.745600 5.246300
11.773700 4.376700
11.801900 3.388600
11.830000 2.949100
11.858200 3.124400
11.886300 3.494800
11.914500 3.848000
11.942600 4.227100
11.970800 4.725000
11.998900 5.181500
12.027100 5.311500
12.055200 4.835100
12.083400 3.669200
12.111500 2.574200
12.139700 2.535600
12.167800 3.227600
12.195900 3.556700
12.224100 3.474000
12.252200 3.309300
12.280400 2.953300
12.308500 2.802900
12.336700 3.332800
12.364800 4.112600
12.393000 4.417100
12.421100 4.044200
12.449300 3.304700
12.477400 2.731600
12.505600 2.661500
12.533700 2.988500
12.561900 3.380900
12.590000 3.515600
12.618200 3.208000
12.646300 2.690100
12.674400 2.272400
12.702600 2.057800
12.730700 2.231300
12.758900 2.712500
12.787000 3.076500
12.815200 3.215100
12.843300 3.426400
12.871500 3.850000
12.899600 4.117600
12.927800 3.769500
12.955900 3.170000
12.984100 3.309400
13.012200 4.443000
13.040400 5.667600
13.068500 6.175700
13.096700 6.069000
13.124800 5.654500
13.152900 5.350900
13.181100 5.876000
13.209200 6.946300
13.237400 7.146400
13.265500 6.294500
13.293700 5.392100
13.321800 4.621600
13.350000 4.045300
13.378100 4.157700
13.406300 4.587100
13.434400 4.646400
13.462600 4.532400
13.490700 4.542100
13.518900 4.363300
13.547000 3.968000
13.575200 3.609300
13.603300 3.220100
13.631400 3.072300
13.659600 3.387100
13.687700 3.716600
13.715900 3.686700
13.744000 3.407000
13.772200 3.085300
13.800300 3.055400
13.828500 3.426500
13.856600 3.628300
13.884800 3.608500
13.912900 3.999900
13.941100 4.493200
13.969200 4.435400
13.997400 4.060300
14.025500 3.688700
14.053700 3.423600
14.081800 3.560100
14.109900 4.353500
14.138100 5.487900
14.166200 6.207700
14.194400 5.965600
14.222500 4.977800
14.250700 4.174600
14.278800 4.192300
14.307000 4.719800
14.335100 5.074700
14.363300 5.018200
14.391400 4.897900
14.419600 5.275500
14.447700 6.306000
14.475900 7.370600
14.504000 7.429200
14.532200 6.141200
14.560300 4.428700
14.588500 3.525600
14.616600 3.694800
14.644700 4.330000
14.672900 5.122700
14.701000 6.001400
14.729200 6.603900
14.757300 6.538200
14.785500 5.583800
14.813600 4.192200
14.841800 3.233000
14.869900 3.243900
14.898100 4.027100
14.926200 4.697800
14.954400 4.723400
14.982500 4.315000
15.010700 3.766200
15.038800 3.342500
15.067000 3.380800
15.095100 4.106400
15.123200 5.112000
15.151400 5.457600
15.179500 5.243100
15.207700 5.265000
15.235800 5.401600
15.264000 5.235000
15.292100 4.810800
15.320300 4.352500
15.348400 4.236500
15.376600 4.804900
15.404700 5.374200
15.432900 5.066900
15.461000 4.445900
15.489200 4.259300
15.517300 4.051700
15.545500 3.380200
15.573600 2.972400
15.601700 3.429400
15.629900 4.190600
15.658000 4.777300
15.686200 5.248400
15.714300 5.538300
15.742500 5.638500
15.770600 5.567300
15.798800 5.274900
15.826900 5.021900
15.855100 5.049700
15.883200 4.917600
15.911400 4.150000
15.939500 3.445200
15.967700 3.749100
15.995800 4.486700
16.024000 4.649900
16.052100 4.659500
16.080200 5.120500
16.108400 5.514000
16.136500 5.318000
16.164700 4.927800
16.192800 4.985600
16.221000 5.374600
16.249100 5.360500
16.277300 4.660300
16.305400 3.918600
16.333600 3.956500
16.361700 4.757900
16.389900 5.612900
16.418000 6.076100
16.446200 6.177000
16.474300 6.117700
16.502500 6.133500
16.530600 6.010900
16.558700 5.376600
16.586900 4.595200
16.615000 4.162800
16.643200 4.033200
16.671300 3.906500
16.699500 3.674400
16.727600 3.658600
16.755800 4.181600
16.783900 4.904000
16.812100 5.167000
16.840200 5.063600
16.868400 5.118100
16.896500 4.951200
16.924700 4.235300
16.952800 3.847200
16.981000 4.075000
17.009100 4.378000
17.037200 4.545800
17.065400 4.446000
17.093500 4.157700
17.121700 4.000500
17.149800 3.987400
17.178000 3.854000
17.206100 3.513200
17.234300 3.203800
17.262400 3.276300
17.290600 3.669200
17.318700 3.965400
17.346900 4.289100
17.375000 4.909300
17.403200 5.427500
17.431300 5.291600
17.459500 4.449300
17.487600 3.424900
17.515800 2.845600
17.543900 2.978900
17.572000 3.801800
17.600200 4.608700
17.628300 4.485200
17.656500 3.713600
17.684600 3.052100
17.712800 2.647200
17.740900 2.605800
17.769100 2.923400
17.797200 3.138500
17.825400 3.104400
17.853500 3.076100
17.881700 3.143100
17.909800 3.208300
17.938000 3.200600
17.966100 3.354700
17.994300 3.840000
18.022400 4.184200
18.050500 3.898300
18.078700 3.173000
18.106800 2.538200
18.135000 2.228500
18.163100 2.012600
18.191300 1.818200
18.219400 2.031500
18.247600 2.634100
18.275700 2.987000
18.303900 2.753600
18.332000 2.294900
18.360200 2.145400
18.388300 2.472000
18.416500 2.900000
18.444600 3.008700
18.472800 2.895500
18.500900 2.632800
18.529000 2.314900
18.557200 2.317900
18.585300 2.704400
18.613500 3.134300
18.641600 3.221500
18.669800 2.934400
18.697900 2.703400
18.726100 2.854600
18.754200 3.465400
18.782400 4.527700
18.810500 5.433300
18.838700 5.448500
18.866800 4.968500
18.895000 4.767500
18.923100 4.748100
18.951300 4.591300
18.979400 4.395300
19.007500 4.089500
19.035700 3.588800
19.063800 3.192800
19.092000 3.044900
19.120100 2.923600
19.148300 2.948000
19.176400 3.405300
19.204600 3.805500
19.232700 3.666800
19.260900 3.432300
19.289000 3.638800
19.317200 3.911100
19.345300 3.471200
19.373500 2.631200
19.401600 2.362700
19.429800 2.625400
19.457900 2.757200
19.486000 2.682800
19.514200 2.552400
19.542300 2.445300
19.570500 2.541600
19.598600 2.801700
19.626800 3.009600
19.654900 3.111500
19.683100 3.120400
19.711200 2.931700
19.739400 2.560600
19.767500 2.229800
19.795700 2.111300
19.823800 2.251600
19.852000 2.728200
19.880100 3.418500
19.908300 3.811300
19.936400 3.667200
19.964500 3.341600
19.992700 3.027500
20.020800 2.879700
20.049000 3.236800
20.077100 3.925800
20.105300 4.214900
20.133400 3.949600
20.161600 3.857600
20.189700 4.080500
20.217900 4.044000
20.246000 3.635700
20.274200 3.248800
20.302300 3.358700
20.330500 4.067900
20.358600 4.702500
20.386800 4.534000
20.414900 3.874700
20.443100 3.576200
20.471200 3.752900
20.499300 4.098000
20.527500 4.672800
20.555600 5.090200
20.583800 4.698500
20.611900 4.008200
20.640100 3.802000
20.668200 3.882000
20.696400 3.848100
20.724500 3.727100
20.752700 3.624700
20.780800 3.763600
20.809000 4.082300
20.837100 4.108200
20.865300 3.864700
20.893400 3.682900
20.921600 3.458900
20.949700 3.286400
20.977800 3.577400
21.006000 4.081500
21.034100 4.124500
21.062300 3.790300
21.090400 3.680500
21.118600 3.889800
21.146700 4.133500
21.174900 4.197000
21.203000 3.939700
21.231200 3.328700
21.259300 2.777700
21.287500 2.904000
21.315600 3.469800
21.343800 3.726600
21.371900 3.609000
21.400100 3.518300
21.428200 3.444300
21.456300 3.145800
21.484500 2.640000
21.512600 2.257700
21.540800 2.452600
21.568900 3.166300
21.597100 3.740200
21.625200 3.636700
21.653400 2.922200
21.681500 2.083200
21.709700 1.577000
21.737800 1.683900
21.766000 2.269400
21.794100 2.700100
21.822300 2.695300
21.850400 2.571300
21.878600 2.461400
21.906700 2.339800
21.934800 2.181500
21.963000 1.866300
21.991100 1.435000
22.019300 1.131200
22.047400 1.010500
22.075600 0.964800
22.103700 0.971400
22.131900 0.967800
22.160000 0.858400
22.188200 0.672200
22.216300 0.590400
22.244500 0.791200
22.272600 1.139900
22.300800 1.292900
22.328900 1.092700
22.357100 0.796900
22.385200 0.801300
22.413300 0.972300
22.441500 0.874600
22.469600 0.559700
22.497800 0.290100
22.525900 0.122400
22.554100 0.038700
22.582200 0.017500
22.610400 0.029800
22.638500 0.043600
22.666700 0.035900
22.694800 0.016200
22.723000 0.004400
22.751100 0.004100
22.779300 0.019000
22.807400 0.054600
22.835600 0.086300
22.863700 0.076400
22.891800 0.047100
22.920000 0.050300
22.948100 0.080500
22.976300 0.083700
23.004400 0.048400
23.032600 0.015300
23.060700 0.002700
23.088900 0.000300
23.117000 0.000000
23.145200 0.000000
23.173300 0.000000
23.201500 0.000000
23.229600 0.000000
23.257800 0.000000
23.285900 0.000000
23.314100 0.000000
23.342200 0.000000
23.370300 0.000000
23.398500 0.000000
23.426600 0.000000
23.454800 0.000000
23.482900 0.000000
23.511100 0.000000
23.539200 0.000000
23.567400 0.000000
23.595500 0.000000
23.623700 0.000000
23.651800 0.000000
23.680000 0.000000
23.708100 0.000000
23.736300 0.000000
23.764400 0.000000
23.792600 0.000000
23.820700 0.000000
23.848900 0.000000
23.877000 0.000000
23.905100 0.000000
23.933300 0.000000
23.961400 0.000000
23.989600 0.000000
24.017700 0.000000
24.045900 0.000000
24.074000 0.000000
24.102200 0.000000
24.130300 0.000000
24.158500 0.000000
24.186600 0.000000
24.214800 0.000000
24.242900 0.000000
24.271100 0.000000
24.299200 0.000000
24.327400 0.000000
24.355500 0.000000
24.383600 0.000000
24.411800 0.000000
24.439900 0.000000
24.468100 0.000000
24.496200 0.000000
24.524400 0.000000
24.552500 0.000000
24.580700 0.000000
24.608800 0.000000
24.637000 0.000000
24.665100 0.000000
24.693300 0.000000
24.721400 0.000000
24.749600 0.000000
24.777700 0.000000
24.805900 0.000000
24.834000 0.000000
24.862100 0.000000
24.890300 0.000000
24.918400 0.000000
24.946600 0.000000
24.974700 0.000000
25.002900 0.000000
25.031000 0.000000
25.059200 0.000000
25.087300 0.000000
25.115500 0.000000
25.143600 0.000000
25.171800 0.000000
25.199900 0.000000
25.228100 0.000000
25.256200 0.000000
25.284400 0.000000
25.312500 0.000000
25.340600 0.000000
25.368800 0.000000
25.396900 0.000000
25.425100 0.000000
25.453200 0.000000
25.481400 0.000000
25.509500 0.000000
e
