set title 'mp-1019055 - Density of States'
set xlabel 'Energy (eV)'
set ylabel 'DOS (states/eV)'
set grid
set xrange [-10:10]
set yrange [0:5.327]
set xzeroaxis lt -1
set terminal png size 800,600
set output 'mp-1019055_dos_gnuplot.png'
plot '-' using 1:2 with lines title 'DOS'
-38.046400 0.000000
-38.006900 0.000000
-37.967400 0.000000
-37.927900 0.000000
-37.888400 0.000000
-37.848900 0.000000
-37.809300 0.000000
-37.769800 0.000000
-37.730300 0.000000
-37.690800 0.000000
-37.651300 0.000000
-37.611800 0.000000
-37.572300 0.000000
-37.532800 0.000000
-37.493200 0.000000
-37.453700 0.000000
-37.414200 0.000000
-37.374700 0.000000
-37.335200 0.000000
-37.295700 0.000000
-37.256200 0.000000
-37.216600 0.000000
-37.177100 0.000000
-37.137600 0.000000
-37.098100 0.000000
-37.058600 0.000000
-37.019100 0.000000
-36.979600 0.000000
-36.940100 0.000000
-36.900500 0.000000
-36.861000 0.000000
-36.821500 0.000000
-36.782000 0.000000
-36.742500 0.000000
-36.703000 0.000000
-36.663500 0.000000
-36.623900 0.000000
-36.584400 0.000000
-36.544900 0.000000
-36.505400 0.000000
-36.465900 0.000000
-36.426400 0.000000
-36.386900 0.000000
-36.347400 0.000000
-36.307800 0.000000
-36.268300 0.000000
-36.228800 0.000000
-36.189300 0.000000
-36.149800 0.000000
-36.110300 0.000000
-36.070800 0.000000
-36.031200 0.000000
-35.991700 0.000000
-35.952200 0.000000
-35.912700 0.000000
-35.873200 0.000000
-35.833700 0.000000
-35.794200 0.000000
-35.754700 0.000000
-35.715100 0.000000
-35.675600 0.000000
-35.636100 0.000000
-35.596600 0.000000
-35.557100 0.000000
-35.517600 0.000000
-35.478100 0.000000
-35.438500 0.000000
-35.399000 0.000000
-35.359500 0.000000
-35.320000 0.000000
-35.280500 0.000000
-35.241000 0.000000
-35.201500 0.000000
-35.162000 0.000000
-35.122400 0.000000
-35.082900 0.000000
-35.043400 0.000000
-35.003900 0.000000
-34.964400 0.000000
-34.924900 0.000000
-34.885400 0.000000
-34.845800 0.000000
-34.806300 0.000000
-34.766800 0.000000
-34.727300 0.000000
-34.687800 0.000000
-34.648300 0.000000
-34.608800 0.000000
-34.569300 0.000000
-34.529700 0.000000
-34.490200 0.000000
-34.450700 0.453100
-34.411200 9.029700
-34.371700 8.008400
-34.332200 5.616400
-34.292700 4.117600
-34.253100 3.951100
-34.213600 3.706600
-34.174100 3.171800
-34.134600 3.172000
-34.095100 3.169800
-34.055600 2.989400
-34.016100 2.928100
-33.976600 2.928200
-33.937000 2.934000
-33.897500 3.046200
-33.858000 3.063100
-33.818500 3.063200
-33.779000 11.661500
-33.739500 17.449800
-33.700000 23.502700
-33.660400 32.897500
-33.620900 33.175200
-33.581400 35.556200
-33.541900 47.071700
-33.502400 22.311500
-33.462900 17.039800
-33.423400 0.000000
-33.383900 0.000000
-33.344300 0.000000
-33.304800 0.000000
-33.265300 0.000000
-33.225800 0.000000
-33.186300 0.000000
-33.146800 0.000000
-33.107300 0.000000
-33.067700 0.000000
-33.028200 0.000000
-32.988700 0.000000
-32.949200 0.000000
-32.909700 0.000000
-32.870200 0.000000
-32.830700 0.000000
-32.791200 0.000000
-32.751600 0.000000
-32.712100 0.000000
-32.672600 0.000000
-32.633100 0.000000
-32.593600 0.000000
-32.554100 0.000000
-32.514600 0.000000
-32.475000 0.000000
-32.435500 0.000000
-32.396000 0.000000
-32.356500 0.000000
-32.317000 0.000000
-32.277500 0.000000
-32.238000 0.000000
-32.198500 0.000000
-32.158900 0.000000
-32.119400 0.000000
-32.079900 0.000000
-32.040400 0.000000
-32.000900 0.000000
-31.961400 0.000000
-31.921900 0.000000
-31.882300 0.000000
-31.842800 0.000000
-31.803300 0.000000
-31.763800 0.000000
-31.724300 0.000000
-31.684800 0.000000
-31.645300 0.000000
-31.605800 0.000000
-31.566200 0.000000
-31.526700 0.000000
-31.487200 0.000000
-31.447700 0.000000
-31.408200 0.000000
-31.368700 0.000000
-31.329200 0.000000
-31.289600 0.000000
-31.250100 0.000000
-31.210600 0.000000
-31.171100 0.000000
-31.131600 0.000000
-31.092100 0.000000
-31.052600 0.000000
-31.013100 0.000000
-30.973500 0.000000
-30.934000 0.000000
-30.894500 0.000000
-30.855000 0.000000
-30.815500 0.000000
-30.776000 0.000000
-30.736500 0.000000
-30.696900 0.000000
-30.657400 0.000000
-30.617900 0.000000
-30.578400 0.000000
-30.538900 0.000000
-30.499400 0.000000
-30.459900 0.000000
-30.420400 0.000000
-30.380800 0.000000
-30.341300 0.000000
-30.301800 0.000000
-30.262300 0.000000
-30.222800 0.000000
-30.183300 0.000000
-30.143800 0.000000
-30.104200 0.000000
-30.064700 0.000000
-30.025200 0.000000
-29.985700 0.000000
-29.946200 0.000000
-29.906700 0.000000
-29.867200 0.000000
-29.827600 0.000000
-29.788100 0.000000
-29.748600 0.000000
-29.709100 0.000000
-29.669600 0.000000
-29.630100 0.000000
-29.590600 0.000000
-29.551100 0.000000
-29.511500 0.000000
-29.472000 0.000000
-29.432500 0.000000
-29.393000 0.000000
-29.353500 0.000000
-29.314000 0.000000
-29.274500 0.000000
-29.234900 0.000000
-29.195400 0.000000
-29.155900 0.000000
-29.116400 0.000000
-29.076900 0.000000
-29.037400 0.000000
-28.997900 0.000000
-28.958400 0.000000
-28.918800 0.000000
-28.879300 0.000000
-28.839800 0.000000
-28.800300 0.000000
-28.760800 0.000000
-28.721300 0.000000
-28.681800 0.000000
-28.642200 0.000000
-28.602700 0.000000
-28.563200 0.000000
-28.523700 0.000000
-28.484200 0.000000
-28.444700 0.000000
-28.405200 0.000000
-28.365700 0.000000
-28.326100 0.000000
-28.286600 0.000000
-28.247100 0.000000
-28.207600 0.000000
-28.168100 0.000000
-28.128600 0.000000
-28.089100 0.000000
-28.049500 0.000000
-28.010000 0.000000
-27.970500 0.000000
-27.931000 0.000000
-27.891500 0.000000
-27.852000 0.000000
-27.812500 0.000000
-27.773000 0.000000
-27.733400 0.000000
-27.693900 0.000000
-27.654400 0.000000
-27.614900 0.000000
-27.575400 0.000000
-27.535900 0.000000
-27.496400 0.000000
-27.456800 0.000000
-27.417300 0.000000
-27.377800 0.000000
-27.338300 0.000000
-27.298800 0.000000
-27.259300 0.000000
-27.219800 0.000000
-27.180300 0.000000
-27.140700 0.000000
-27.101200 0.000000
-27.061700 0.000000
-27.022200 0.000000
-26.982700 0.000000
-26.943200 0.000000
-26.903700 0.000000
-26.864100 0.000000
-26.824600 0.000000
-26.785100 0.000000
-26.745600 0.000000
-26.706100 0.000000
-26.666600 0.000000
-26.627100 0.000000
-26.587600 0.000000
-26.548000 0.000000
-26.508500 0.000000
-26.469000 0.000000
-26.429500 0.000000
-26.390000 0.000000
-26.350500 0.000000
-26.311000 0.000000
-26.271400 0.000000
-26.231900 0.000000
-26.192400 0.000000
-26.152900 0.000000
-26.113400 0.000000
-26.073900 0.000000
-26.034400 0.000000
-25.994900 0.000000
-25.955300 0.000000
-25.915800 0.000000
-25.876300 0.000000
-25.836800 0.000000
-25.797300 0.000000
-25.757800 0.000000
-25.718300 0.000000
-25.678700 0.000000
-25.639200 0.000000
-25.599700 0.000000
-25.560200 0.000000
-25.520700 0.000000
-25.481200 0.000000
-25.441700 0.000000
-25.402200 0.000000
-25.362600 0.000000
-25.323100 0.000000
-25.283600 0.000000
-25.244100 0.000000
-25.204600 0.000000
-25.165100 0.000000
-25.125600 0.000000
-25.086000 0.000000
-25.046500 0.000000
-25.007000 0.000000
-24.967500 0.000000
-24.928000 0.000000
-24.888500 0.000000
-24.849000 0.000000
-24.809500 0.000000
-24.769900 0.000000
-24.730400 0.000000
-24.690900 0.000000
-24.651400 0.000000
-24.611900 0.000000
-24.572400 0.000000
-24.532900 0.000000
-24.493300 0.000000
-24.453800 0.000000
-24.414300 0.000000
-24.374800 0.000000
-24.335300 0.000000
-24.295800 0.000000
-24.256300 0.000000
-24.216800 0.000000
-24.177200 0.000000
-24.137700 0.000000
-24.098200 0.000000
-24.058700 0.000000
-24.019200 0.000000
-23.979700 0.000000
-23.940200 0.000000
-23.900600 0.000000
-23.861100 0.000000
-23.821600 0.000000
-23.782100 0.000000
-23.742600 0.000000
-23.703100 0.000000
-23.663600 0.000000
-23.624100 0.000000
-23.584500 0.000000
-23.545000 0.000000
-23.505500 0.000000
-23.466000 0.000000
-23.426500 0.000000
-23.387000 0.000000
-23.347500 0.000000
-23.307900 0.000000
-23.268400 0.000000
-23.228900 0.000000
-23.189400 0.000000
-23.149900 0.000000
-23.110400 0.000000
-23.070900 0.000000
-23.031400 0.000000
-22.991800 0.000000
-22.952300 0.000000
-22.912800 0.000000
-22.873300 0.000000
-22.833800 0.000000
-22.794300 0.000000
-22.754800 0.000000
-22.715200 0.000000
-22.675700 0.000000
-22.636200 0.000000
-22.596700 0.000000
-22.557200 0.000000
-22.517700 0.000000
-22.478200 0.000000
-22.438700 0.000000
-22.399100 0.000000
-22.359600 0.000000
-22.320100 0.000000
-22.280600 0.000000
-22.241100 0.000000
-22.201600 0.000000
-22.162100 0.000000
-22.122500 0.000000
-22.083000 0.000000
-22.043500 0.000000
-22.004000 0.000000
-21.964500 0.000000
-21.925000 0.000000
-21.885500 0.000000
-21.846000 0.000000
-21.806400 0.000000
-21.766900 0.000000
-21.727400 0.000000
-21.687900 0.000000
-21.648400 0.000000
-21.608900 0.000000
-21.569400 0.000000
-21.529800 0.000000
-21.490300 0.000000
-21.450800 0.000000
-21.411300 0.000000
-21.371800 0.000000
-21.332300 0.000000
-21.292800 0.000000
-21.253300 0.000000
-21.213700 0.000000
-21.174200 0.000000
-21.134700 0.000000
-21.095200 0.000000
-21.055700 0.000000
-21.016200 0.000000
-20.976700 0.000000
-20.937100 0.000000
-20.897600 0.000000
-20.858100 0.000000
-20.818600 0.000000
-20.779100 0.000000
-20.739600 0.000000
-20.700100 0.000000
-20.660600 0.000000
-20.621000 0.000000
-20.581500 0.000000
-20.542000 0.000000
-20.502500 0.000000
-20.463000 0.000000
-20.423500 0.000000
-20.384000 0.000000
-20.344400 0.000000
-20.304900 0.000000
-20.265400 0.000000
-20.225900 0.000000
-20.186400 0.000000
-20.146900 0.000000
-20.107400 0.000000
-20.067800 0.000000
-20.028300 0.000000
-19.988800 0.000000
-19.949300 0.000000
-19.909800 0.000000
-19.870300 0.000000
-19.830800 0.000000
-19.791300 0.000000
-19.751700 0.000000
-19.712200 0.000000
-19.672700 0.000000
-19.633200 0.000000
-19.593700 0.000000
-19.554200 0.000000
-19.514700 0.000000
-19.475100 0.000000
-19.435600 0.000000
-19.396100 0.000000
-19.356600 0.000000
-19.317100 0.000000
-19.277600 0.000000
-19.238100 0.000000
-19.198600 0.000000
-19.159000 0.000000
-19.119500 0.000000
-19.080000 0.000000
-19.040500 0.000000
-19.001000 0.000000
-18.961500 0.000000
-18.922000 0.000000
-18.882400 0.000000
-18.842900 0.000000
-18.803400 0.000000
-18.763900 0.000000
-18.724400 0.000000
-18.684900 0.000000
-18.645400 0.000000
-18.605900 0.000000
-18.566300 0.000000
-18.526800 0.000000
-18.487300 0.000000
-18.447800 0.000000
-18.408300 0.000000
-18.368800 0.000000
-18.329300 0.000000
-18.289700 0.000000
-18.250200 0.000000
-18.210700 0.000000
-18.171200 0.000000
-18.131700 0.000000
-18.092200 0.000000
-18.052700 0.000000
-18.013200 0.000000
-17.973600 0.000000
-17.934100 0.000000
-17.894600 0.000000
-17.855100 0.000000
-17.815600 0.000000
-17.776100 0.000000
-17.736600 0.000000
-17.697000 0.000000
-17.657500 0.000000
-17.618000 0.000000
-17.578500 0.000000
-17.539000 0.000000
-17.499500 0.000000
-17.460000 0.000000
-17.420500 0.000000
-17.380900 0.000000
-17.341400 0.000000
-17.301900 0.000000
-17.262400 0.000000
-17.222900 0.000000
-17.183400 0.000000
-17.143900 0.000000
-17.104300 0.000000
-17.064800 0.000000
-17.025300 0.000000
-16.985800 0.000000
-16.946300 0.000000
-16.906800 0.000000
-16.867300 0.000000
-16.827800 0.000000
-16.788200 0.000000
-16.748700 0.000000
-16.709200 0.000000
-16.669700 0.000000
-16.630200 0.000000
-16.590700 0.000000
-16.551200 0.000000
-16.511600 0.000000
-16.472100 0.000000
-16.432600 0.000000
-16.393100 0.000000
-16.353600 0.000000
-16.314100 0.000000
-16.274600 0.000000
-16.235100 0.000000
-16.195500 0.000000
-16.156000 0.000000
-16.116500 0.000000
-16.077000 0.000000
-16.037500 0.000000
-15.998000 0.000000
-15.958500 0.000000
-15.918900 0.000000
-15.879400 0.000000
-15.839900 0.000000
-15.800400 0.000000
-15.760900 0.000000
-15.721400 0.000000
-15.681900 0.000000
-15.642400 0.000000
-15.602800 0.000000
-15.563300 0.000000
-15.523800 0.000000
-15.484300 0.000000
-15.444800 0.000000
-15.405300 0.000000
-15.365800 0.000000
-15.326200 0.000000
-15.286700 0.000000
-15.247200 0.000000
-15.207700 0.000000
-15.168200 0.000000
-15.128700 0.000000
-15.089200 0.000000
-15.049700 0.000000
-15.010100 0.000000
-14.970600 0.000000
-14.931100 0.000000
-14.891600 0.000000
-14.852100 0.000000
-14.812600 0.000000
-14.773100 0.000000
-14.733500 0.000000
-14.694000 0.000000
-14.654500 0.000000
-14.615000 0.000000
-14.575500 0.000000
-14.536000 0.000000
-14.496500 0.000000
-14.457000 0.000000
-14.417400 0.000000
-14.377900 0.000000
-14.338400 0.000000
-14.298900 0.000000
-14.259400 0.000000
-14.219900 0.000000
-14.180400 0.000000
-14.140800 0.000000
-14.101300 0.000000
-14.061800 0.000000
-14.022300 0.000000
-13.982800 0.000000
-13.943300 0.000000
-13.903800 0.000000
-13.864300 0.000000
-13.824700 0.000000
-13.785200 0.000000
-13.745700 0.000000
-13.706200 0.000000
-13.666700 0.000000
-13.627200 0.000000
-13.587700 0.000000
-13.548100 0.000000
-13.508600 0.000000
-13.469100 0.000000
-13.429600 0.000000
-13.390100 0.000000
-13.350600 0.000000
-13.311100 0.000000
-13.271600 0.000000
-13.232000 0.000000
-13.192500 0.000000
-13.153000 0.000000
-13.113500 0.000000
-13.074000 0.000000
-13.034500 0.000000
-12.995000 0.000000
-12.955400 0.000000
-12.915900 0.000000
-12.876400 0.000000
-12.836900 0.000000
-12.797400 0.000000
-12.757900 0.000000
-12.718400 0.000000
-12.678900 0.000000
-12.639300 0.000000
-12.599800 0.000000
-12.560300 0.000000
-12.520800 0.000000
-12.481300 0.000000
-12.441800 0.000000
-12.402300 0.000000
-12.362700 0.000000
-12.323200 0.064100
-12.283700 0.162200
-12.244200 0.182500
-12.204700 0.234400
-12.165200 0.286800
-12.125700 0.306600
-12.086200 0.338600
-12.046600 0.372900
-12.007100 0.407600
-11.967600 0.448600
-11.928100 0.479100
-11.888600 0.509500
-11.849100 0.541000
-11.809600 0.575800
-11.770000 0.616300
-11.730500 0.658200
-11.691000 0.698700
-11.651500 0.736400
-11.612000 0.779900
-11.572500 0.828000
-11.533000 0.878000
-11.493500 0.929300
-11.453900 0.981600
-11.414400 1.171400
-11.374900 1.227300
-11.335400 1.274300
-11.295900 1.280700
-11.256400 1.296400
-11.216900 1.324200
-11.177300 1.357600
-11.137800 1.733700
-11.098300 1.811700
-11.058800 1.990000
-11.019300 2.182900
-10.979800 2.438400
-10.940300 2.722500
-10.900700 3.143000
-10.861200 4.179300
-10.821700 4.188100
-10.782200 4.309800
-10.742700 4.577600
-10.703200 5.358600
-10.663700 5.838900
-10.624200 5.582000
-10.584600 4.203400
-10.545100 3.282600
-10.505600 2.808900
-10.466100 2.101500
-10.426600 2.004300
-10.387100 1.889400
-10.347600 1.811700
-10.308000 1.428600
-10.268500 1.284500
-10.229000 1.145500
-10.189500 1.029800
-10.150000 0.924200
-10.110500 0.835700
-10.071000 0.750700
-10.031500 0.674500
-9.991900 0.608300
-9.952400 0.544300
-9.912900 0.483800
-9.873400 0.429800
-9.833900 0.382500
-9.794400 0.334800
-9.754900 0.293800
-9.715300 0.250600
-9.675800 0.201000
-9.636300 0.161100
-9.596800 0.131000
-9.557300 0.046600
-9.517800 0.000500
-9.478300 0.000000
-9.438800 0.000000
-9.399200 0.000000
-9.359700 0.000000
-9.320200 0.000000
-9.280700 0.000000
-9.241200 0.000000
-9.201700 0.000000
-9.162200 0.000000
-9.122600 0.000000
-9.083100 0.000000
-9.043600 0.000000
-9.004100 0.000000
-8.964600 0.000000
-8.925100 0.000000
-8.885600 0.000000
-8.846100 0.000000
-8.806500 0.000000
-8.767000 0.000000
-8.727500 0.000000
-8.688000 0.000000
-8.648500 0.000000
-8.609000 0.000000
-8.569500 0.000000
-8.529900 0.000000
-8.490400 0.000000
-8.450900 0.000000
-8.411400 0.000000
-8.371900 0.000000
-8.332400 0.000000
-8.292900 0.000000
-8.253400 0.000000
-8.213800 0.000000
-8.174300 0.000000
-8.134800 0.000000
-8.095300 0.000000
-8.055800 0.000000
-8.016300 0.000000
-7.976800 0.000000
-7.937200 0.000000
-7.897700 0.000000
-7.858200 0.000000
-7.818700 0.000000
-7.779200 0.000000
-7.739700 0.000000
-7.700200 0.000000
-7.660700 0.000000
-7.621100 0.000000
-7.581600 0.000000
-7.542100 0.000000
-7.502600 0.000000
-7.463100 0.000000
-7.423600 0.000000
-7.384100 0.000000
-7.344500 0.000000
-7.305000 0.000000
-7.265500 0.000000
-7.226000 0.000000
-7.186500 0.000000
-7.147000 0.000000
-7.107500 0.000000
-7.068000 0.000000
-7.028400 0.000000
-6.988900 0.000000
-6.949400 0.000000
-6.909900 0.000000
-6.870400 0.000000
-6.830900 0.000000
-6.791400 0.000000
-6.751800 0.000000
-6.712300 0.000000
-6.672800 0.000000
-6.633300 0.000000
-6.593800 0.000000
-6.554300 0.000000
-6.514800 0.000000
-6.475300 0.000000
-6.435700 0.000000
-6.396200 0.000000
-6.356700 0.000000
-6.317200 0.000000
-6.277700 0.000000
-6.238200 0.000000
-6.198700 0.000000
-6.159100 0.000000
-6.119600 0.000000
-6.080100 0.000000
-6.040600 0.000000
-6.001100 0.000000
-5.961600 0.000000
-5.922100 0.000000
-5.882600 0.041000
-5.843000 0.116900
-5.803500 0.150100
-5.764000 0.172800
-5.724500 0.215700
-5.685000 0.249300
-5.645500 0.277000
-5.606000 0.292800
-5.566400 0.316100
-5.526900 0.342600
-5.487400 0.369600
-5.447900 0.399800
-5.408400 0.432000
-5.368900 0.459400
-5.329400 0.487800
-5.289900 0.513700
-5.250300 0.538600
-5.210800 0.566900
-5.171300 0.599100
-5.131800 0.631600
-5.092300 0.667400
-5.052800 0.704400
-5.013300 0.744300
-4.973700 0.788800
-4.934200 0.835300
-4.894700 0.883600
-4.855200 0.935200
-4.815700 0.992700
-4.776200 1.049400
-4.736700 1.129000
-4.697200 1.355200
-4.657600 1.582900
-4.618100 1.855700
-4.578600 2.091000
-4.539100 2.337000
-4.499600 2.483200
-4.460100 2.702700
-4.420600 2.999500
-4.381000 3.399900
-4.341500 3.797200
-4.302000 3.933000
-4.262500 3.990800
-4.223000 3.966000
-4.183500 3.946000
-4.144000 3.845300
-4.104500 4.142500
-4.064900 4.842900
-4.025400 4.511400
-3.985900 3.581700
-3.946400 3.131700
-3.906900 2.929400
-3.867400 2.899900
-3.827900 2.178800
-3.788300 1.787400
-3.748800 1.590700
-3.709300 1.716600
-3.669800 1.586500
-3.630300 1.157800
-3.590800 0.969400
-3.551300 0.821200
-3.511800 0.698700
-3.472200 0.588900
-3.432700 0.534600
-3.393200 0.481500
-3.353700 0.409400
-3.314200 0.265900
-3.274700 0.096200
-3.235200 0.000000
-3.195600 0.000000
-3.156100 0.000000
-3.116600 0.000000
-3.077100 0.000000
-3.037600 0.000000
-2.998100 0.000000
-2.958600 0.000000
-2.919100 0.000000
-2.879500 0.000000
-2.840000 0.000000
-2.800500 0.000000
-2.761000 0.000000
-2.721500 0.000000
-2.682000 0.000000
-2.642500 0.000000
-2.602900 0.000000
-2.563400 0.000000
-2.523900 0.000000
-2.484400 0.000000
-2.444900 0.000000
-2.405400 0.000000
-2.365900 0.000000
-2.326400 0.000000
-2.286800 0.000000
-2.247300 0.000000
-2.207800 0.000000
-2.168300 0.000000
-2.128800 0.000000
-2.089300 0.000000
-2.049800 0.000000
-2.010200 0.000000
-1.970700 0.000000
-1.931200 0.000000
-1.891700 0.000000
-1.852200 0.000000
-1.812700 0.000000
-1.773200 0.000000
-1.733700 0.000000
-1.694100 0.000000
-1.654600 0.000000
-1.615100 0.000200
-1.575600 0.011500
-1.536100 0.039100
-1.496600 0.067700
-1.457100 0.086900
-1.417500 0.093900
-1.378000 0.102500
-1.338500 0.118300
-1.299000 0.134000
-1.259500 0.145000
-1.220000 0.153600
-1.180500 0.164700
-1.140900 0.180100
-1.101400 0.195900
-1.061900 0.209600
-1.022400 0.224300
-0.982900 0.241900
-0.943400 0.354900
-0.903900 0.565700
-0.864400 0.954800
-0.824800 1.077700
-0.785300 1.308200
-0.745800 1.783200
-0.706300 2.348400
-0.666800 3.175800
-0.627300 3.505400
-0.587800 3.237800
-0.548200 3.008700
-0.508700 2.863500
-0.469200 2.860400
-0.429700 2.788800
-0.390200 2.725400
-0.350700 2.690300
-0.311200 2.665600
-0.271700 2.632400
-0.232100 2.557600
-0.192600 2.572800
-0.153100 2.645000
-0.113600 2.738600
-0.074100 2.684700
-0.034600 2.407300
0.004900 2.369000
0.044500 2.321400
0.084000 2.320900
0.123500 2.423300
0.163000 2.657900
0.202500 2.759000
0.242000 2.695600
0.281500 2.618100
0.321000 2.568700
0.360600 2.557400
0.400100 2.543800
0.439600 2.552900
0.479100 2.585300
0.518600 2.503300
0.558100 2.445600
0.597600 2.380500
0.637200 2.298400
0.676700 2.299100
0.716200 2.448700
0.755700 2.611600
0.795200 2.623700
0.834700 2.703000
0.874200 3.016000
0.913700 2.988500
0.953300 2.658400
0.992800 2.464700
1.032300 2.538100
1.071800 2.283900
1.111300 2.227300
1.150800 2.196200
1.190300 1.964600
1.229900 1.835100
1.269400 1.720000
1.308900 1.634000
1.348400 1.541100
1.387900 1.467200
1.427400 1.549400
1.466900 1.312200
1.506400 1.292800
1.546000 1.280200
1.585500 1.290700
1.625000 1.338900
1.664500 1.433800
1.704000 1.867400
1.743500 1.700500
1.783000 1.668300
1.822600 1.677800
1.862100 1.664300
1.901600 1.735500
1.941100 1.874500
1.980600 1.971700
2.020100 2.084300
2.059600 2.197300
2.099100 2.328800
2.138700 2.458500
2.178200 2.629100
2.217700 2.807500
2.257200 2.667800
2.296700 2.597300
2.336200 2.415500
2.375700 2.360200
2.415300 2.367200
2.454800 2.464200
2.494300 2.499300
2.533800 2.794400
2.573300 2.741000
2.612800 2.656400
2.652300 2.589600
2.691800 2.566300
2.731400 2.513200
2.770900 2.639200
2.810400 2.662600
2.849900 2.786000
2.889400 2.869900
2.928900 3.047400
2.968400 3.050200
3.008000 3.192400
3.047500 3.456600
3.087000 3.954000
3.126500 4.034900
3.166000 4.176000
3.205500 4.130100
3.245000 3.949400
3.284500 3.929200
3.324100 3.885400
3.363600 3.868200
3.403100 4.018100
3.442600 3.815800
3.482100 3.568700
3.521600 3.399700
3.561100 3.298900
3.600700 3.189600
3.640200 3.011400
3.679700 2.957300
3.719200 2.895500
3.758700 2.933700
3.798200 3.288100
3.837700 3.230100
3.877200 3.105600
3.916800 2.965800
3.956300 2.963000
3.995800 3.357200
4.035300 3.367800
4.074800 3.989300
4.114300 3.924100
4.153800 3.849000
4.193400 3.662800
4.232900 3.461300
4.272400 3.399100
4.311900 3.438800
4.351400 3.634000
4.390900 3.354200
4.430400 3.387500
4.469900 3.299300
4.509500 3.429000
4.549000 3.693900
4.588500 3.245100
4.628000 3.079600
4.667500 2.864600
4.707000 2.711500
4.746500 2.631100
4.786100 2.562200
4.825600 2.463800
4.865100 2.354500
4.904600 2.284300
4.944100 2.122100
4.983600 2.016200
5.023100 2.019500
5.062600 1.995300
5.102200 1.895900
5.141700 1.852500
5.181200 1.847900
5.220700 1.824300
5.260200 1.793200
5.299700 1.809900
5.339200 1.743700
5.378800 1.679500
5.418300 1.646700
5.457800 1.623300
5.497300 1.597500
5.536800 1.582800
5.576300 1.585500
5.615800 1.654600
5.655300 1.642400
5.694900 1.661800
5.734400 1.711500
5.773900 1.857400
5.813400 2.100400
5.852900 2.693900
5.892400 3.263300
5.931900 2.657500
5.971500 2.300800
6.011000 2.204300
6.050500 2.130700
6.090000 2.016000
6.129500 1.923200
6.169000 1.875000
6.208500 1.881200
6.248000 2.068100
6.287600 2.183500
6.327100 2.291800
6.366600 2.500400
6.406100 2.608200
6.445600 2.698100
6.485100 2.882600
6.524600 3.060400
6.564200 3.505500
6.603700 3.335200
6.643200 3.165200
6.682700 3.237100
6.722200 3.027200
6.761700 2.714500
6.801200 2.526600
6.840700 2.408900
6.880300 2.371400
6.919800 2.468000
6.959300 2.585600
6.998800 2.627700
7.038300 2.522300
7.077800 2.376700
7.117300 2.304800
7.156900 2.330500
7.196400 2.485100
7.235900 2.547000
7.275400 2.877800
7.314900 3.157000
7.354400 3.222100
7.393900 3.477900
7.433400 2.760600
7.473000 2.641400
7.512500 2.630000
7.552000 2.692100
7.591500 2.963000
7.631000 2.296700
7.670500 1.859000
7.710000 1.815600
7.749600 3.096600
7.789100 2.125500
7.828600 2.161000
7.868100 2.122500
7.907600 2.089400
7.947100 2.116800
7.986600 2.099000
8.026200 2.355500
8.065700 2.655900
8.105200 2.275500
8.144700 2.251700
8.184200 2.107100
8.223700 2.000300
8.263200 1.933700
8.302700 1.862400
8.342300 1.931500
8.381800 1.843100
8.421300 1.752600
8.460800 1.732000
8.500300 1.752400
8.539800 1.804400
8.579300 1.708900
8.618900 1.729200
8.658400 1.788300
8.697900 1.849800
8.737400 2.218300
8.776900 2.277800
8.816400 2.242900
8.855900 2.288100
8.895400 2.183200
8.935000 2.172500
8.974500 2.193500
9.014000 2.214200
9.053500 2.308600
9.093000 2.223300
9.132500 2.064200
9.172000 1.931300
9.211600 1.816900
9.251100 1.767200
9.290600 1.737600
9.330100 1.662900
9.369600 1.621300
9.409100 1.589200
9.448600 1.563700
9.488100 1.632400
9.527700 1.742100
9.567200 1.801700
9.606700 1.779800
9.646200 1.734200
9.685700 1.711600
9.725200 1.712800
9.764700 1.676900
9.804300 1.586700
9.843800 1.543400
9.883300 1.509300
9.922800 1.517700
9.962300 1.568100
10.001800 1.674600
10.041300 1.812800
10.080800 1.822500
10.120400 1.758300
10.159900 1.715300
10.199400 1.682300
10.238900 1.679700
10.278400 1.682700
10.317900 1.717100
10.357400 1.752000
10.397000 1.838200
10.436500 1.939600
10.476000 2.022000
10.515500 2.089100
10.555000 2.172900
10.594500 2.356500
10.634000 2.729100
10.673500 3.050400
10.713100 3.524600
10.752600 4.208000
10.792100 5.197800
10.831600 4.547900
10.871100 3.891900
10.910600 3.618000
10.950100 3.509000
10.989700 3.360400
11.029200 3.450900
11.068700 3.544900
11.108200 3.544500
11.147700 3.330600
11.187200 3.218000
11.226700 3.212400
11.266200 2.924100
11.305800 2.649000
11.345300 2.437600
11.384800 2.341800
11.424300 2.309200
11.463800 2.319000
11.503300 2.583400
11.542800 3.144600
11.582400 3.489300
11.621900 3.810800
11.661400 4.258400
11.700900 4.562600
11.740400 4.240300
11.779900 4.704500
11.819400 4.661700
11.858900 4.766900
11.898500 4.761500
11.938000 4.982300
11.977500 5.275400
12.017000 4.539100
12.056500 4.002700
12.096000 3.761900
12.135500 4.113800
12.175100 4.718800
12.214600 4.965200
12.254100 4.742100
12.293600 3.643200
12.333100 3.201700
12.372600 3.676400
12.412100 4.008600
12.451600 3.822800
12.491200 3.884300
12.530700 3.362000
12.570200 2.841400
12.609700 2.758500
12.649200 2.594300
12.688700 2.466400
12.728200 2.410700
12.767800 2.413300
12.807300 2.454000
12.846800 2.521200
12.886300 2.449400
12.925800 2.569400
12.965300 2.784100
13.004800 3.256300
13.044300 3.455100
13.083900 3.745000
13.123400 3.491500
13.162900 3.088800
13.202400 2.818600
13.241900 2.633500
13.281400 2.502500
13.320900 2.414800
13.360500 2.330400
13.400000 2.304800
13.439500 2.283800
13.479000 2.277700
13.518500 2.289200
13.558000 2.313900
13.597500 2.397500
13.637000 2.445100
13.676600 2.508800
13.716100 2.542500
13.755600 2.717200
13.795100 2.785000
13.834600 2.732600
13.874100 2.703700
13.913600 2.467200
13.953200 2.301000
13.992700 2.168100
14.032200 2.029200
14.071700 1.929800
14.111200 1.838300
14.150700 1.729400
14.190200 1.576100
14.229700 1.497800
14.269300 1.424800
14.308800 1.364100
14.348300 1.296700
14.387800 1.196700
14.427300 1.138600
14.466800 1.100000
14.506300 1.022500
14.545900 0.893000
14.585400 0.849700
14.624900 0.881800
14.664400 0.870500
14.703900 0.775100
14.743400 0.793600
14.782900 0.708700
14.822400 0.630300
14.862000 0.633000
14.901500 0.638000
14.941000 0.633600
14.980500 0.629200
15.020000 0.631900
15.059500 0.626400
15.099000 0.618500
15.138600 0.605300
15.178100 0.593700
15.217600 0.585200
15.257100 0.577700
15.296600 0.568500
15.336100 0.558400
15.375600 0.549800
15.415100 0.539200
15.454700 0.537400
15.494200 0.533100
15.533700 0.580200
15.573200 0.572000
15.612700 0.569200
15.652200 0.546400
15.691700 0.543700
15.731300 0.541500
15.770800 0.547400
15.810300 0.552800
15.849800 0.553400
15.889300 0.553800
15.928800 0.566200
15.968300 0.575800
16.007800 0.583000
16.047400 0.606400
16.086900 0.659200
16.126400 0.716900
16.165900 0.747300
16.205400 0.781900
16.244900 0.833600
16.284400 0.886600
16.324000 0.939100
16.363500 0.998700
16.403000 1.076500
16.442500 1.191800
16.482000 1.346300
16.521500 1.538300
16.561000 1.774300
16.600500 2.247800
16.640100 2.578700
16.679600 2.760400
16.719100 2.936800
16.758600 3.105600
16.798100 3.184000
16.837600 3.164400
16.877100 3.138800
16.916700 3.178900
16.956200 3.444600
16.995700 3.741600
17.035200 4.145800
17.074700 4.946700
17.114200 4.646900
17.153700 4.782900
17.193200 4.458300
17.232800 3.845200
17.272300 3.365200
17.311800 3.080300
17.351300 2.614900
17.390800 2.400200
17.430300 2.133300
17.469800 1.895500
17.509400 1.991200
17.548900 2.341300
17.588400 2.843000
17.627900 4.022500
17.667400 4.786300
17.706900 4.828500
17.746400 4.788500
17.786000 3.776500
17.825500 3.457700
17.865000 3.774400
17.904500 3.439900
17.944000 3.197400
17.983500 3.129800
18.023000 2.934500
18.062500 2.780700
18.102100 2.483200
18.141600 2.374200
18.181100 2.318900
18.220600 2.287300
18.260100 2.282100
18.299600 2.265800
18.339100 2.172500
18.378700 2.134200
18.418200 2.092700
18.457700 2.099100
18.497200 1.914900
18.536700 1.897200
18.576200 1.597600
18.615700 1.432400
18.655200 1.307800
18.694800 1.201800
18.734300 1.112000
18.773800 1.031500
18.813300 0.986900
18.852800 0.951200
18.892300 0.908900
18.931800 0.867700
18.971400 0.836600
19.010900 0.807400
19.050400 0.786200
19.089900 0.747400
19.129400 0.750600
19.168900 0.796000
19.208400 0.713500
19.247900 0.707700
19.287500 0.708400
19.327000 0.715600
19.366500 0.744400
19.406000 0.736300
19.445500 0.742600
19.485000 0.757900
19.524500 0.772000
19.564100 0.791500
19.603600 0.816800
19.643100 0.858800
19.682600 0.894500
19.722100 0.937900
19.761600 1.010900
19.801100 1.040100
19.840600 1.042800
19.880200 1.040100
19.919700 1.092000
19.959200 1.194300
19.998700 1.286800
20.038200 1.416500
20.077700 1.443400
20.117200 1.473900
20.156800 1.424700
20.196300 1.384100
20.235800 1.374800
20.275300 1.362300
20.314800 1.349300
20.354300 1.336300
20.393800 1.354600
20.433300 1.355100
20.472900 1.335000
20.512400 1.347300
20.551900 1.356100
20.591400 1.283200
20.630900 1.270700
20.670400 1.318500
20.709900 1.343000
20.749500 1.340000
20.789000 1.313700
20.828500 1.291000
20.868000 1.278900
20.907500 1.269100
20.947000 1.276500
20.986500 1.242100
21.026000 1.223200
21.065600 1.144800
21.105100 1.117700
21.144600 1.104200
21.184100 1.092400
21.223600 1.078700
21.263100 1.066400
21.302600 1.054500
21.342200 1.042900
21.381700 1.035600
21.421200 1.028400
21.460700 1.020200
21.500200 1.014200
21.539700 1.010100
21.579200 1.020200
21.618700 1.029000
21.658300 1.034900
21.697800 1.039600
21.737300 1.032100
21.776800 1.030100
21.816300 1.016800
21.855800 1.005800
21.895300 0.999100
21.934900 1.004600
21.974400 0.995700
22.013900 0.991500
22.053400 0.978100
22.092900 0.969700
22.132400 0.974900
22.171900 0.983000
22.211400 0.994200
22.251000 1.008500
22.290500 1.021200
22.330000 1.037300
22.369500 1.068900
22.409000 1.083800
22.448500 1.096700
22.488000 1.112000
22.527600 1.145700
22.567100 1.180300
22.606600 1.207900
22.646100 1.237000
22.685600 1.253000
22.725100 1.274500
22.764600 1.272900
22.804100 1.289500
22.843700 1.320900
22.883200 1.351400
22.922700 1.380500
22.962200 1.438900
23.001700 1.513200
23.041200 1.477300
23.080700 1.461800
23.120300 1.369700
23.159800 1.299300
23.199300 1.237300
23.238800 1.185200
23.278300 1.131500
23.317800 1.076300
23.357300 1.035100
23.396800 0.999900
23.436400 0.979000
23.475900 0.972000
23.515400 0.939000
23.554900 0.940400
23.594400 0.955000
23.633900 0.942200
23.673400 0.951600
23.713000 0.988300
23.752500 1.040700
23.792000 1.093400
23.831500 1.113300
23.871000 1.182500
23.910500 1.225200
23.950000 1.238700
23.989500 1.247800
24.029100 1.333300
24.068600 1.400100
24.108100 1.466300
24.147600 1.554500
24.187100 1.687100
24.226600 1.804700
24.266100 1.881600
24.305700 1.943800
24.345200 1.993100
24.384700 1.967700
24.424200 1.971500
24.463700 2.011300
24.503200 2.008300
24.542700 1.918800
24.582200 1.906700
24.621800 1.913200
24.661300 1.930500
24.700800 1.914800
24.740300 2.017200
24.779800 2.000600
24.819300 1.972200
24.858800 1.977200
24.898400 2.074100
24.937900 2.090600
24.977400 2.106900
25.016900 2.012600
25.056400 2.109300
25.095900 2.236300
25.135400 2.298100
25.174900 2.262700
25.214500 1.925700
25.254000 1.734700
25.293500 1.628300
25.333000 1.515500
25.372500 1.455800
25.412000 1.421200
25.451500 1.399100
25.491100 1.420800
25.530600 1.392000
25.570100 1.406000
25.609600 1.392300
25.649100 1.361700
25.688600 1.354200
25.728100 1.294100
25.767600 1.150200
25.807200 1.006400
25.846700 0.953600
25.886200 0.960000
25.925700 1.007700
25.965200 1.046100
26.004700 1.091800
26.044200 1.134800
26.083800 1.167100
26.123300 1.228100
26.162800 1.348100
26.202300 1.454600
26.241800 1.520600
26.281300 1.578000
26.320800 1.620500
26.360300 1.642500
26.399900 1.597700
26.439400 1.604500
26.478900 1.627100
26.518400 1.492400
26.557900 1.421200
26.597400 1.387600
26.636900 1.356800
26.676500 1.371000
26.716000 1.412800
26.755500 1.442700
26.795000 1.472500
26.834500 1.536900
26.874000 1.642800
26.913500 1.781600
26.953100 1.858500
26.992600 1.879100
27.032100 1.878100
27.071600 1.886500
27.111100 1.919400
27.150600 1.972500
27.190100 1.953200
27.229600 1.979400
27.269200 2.009700
27.308700 2.033700
27.348200 2.072100
27.387700 2.150700
27.427200 2.180900
27.466700 2.282800
27.506200 2.035500
27.545800 1.888300
27.585300 1.792700
27.624800 1.747300
27.664300 1.812500
27.703800 1.909400
27.743300 1.947400
27.782800 1.946400
27.822300 1.948900
27.861900 1.993100
27.901400 2.094700
27.940900 2.231000
27.980400 2.398200
28.019900 2.568300
28.059400 2.672800
28.098900 2.670900
28.138500 2.699500
28.178000 2.559900
28.217500 2.429600
28.257000 2.518700
28.296500 2.549200
28.336000 2.588700
28.375500 2.589300
28.415000 2.781500
28.454600 3.034900
28.494100 3.195700
28.533600 3.317800
28.573100 3.584100
28.612600 3.866900
28.652100 3.282800
28.691600 2.970900
28.731200 2.773400
28.770700 2.832800
28.810200 2.942500
28.849700 2.920100
28.889200 2.637800
28.928700 2.660800
28.968200 2.859000
29.007700 3.034000
29.047300 3.310600
29.086800 3.419000
29.126300 3.451300
29.165800 3.488500
29.205300 3.821300
29.244800 4.085300
29.284300 4.501000
29.323900 4.549100
29.363400 4.304200
29.402900 4.076300
29.442400 4.043200
29.481900 3.841600
29.521400 3.516400
29.560900 3.568400
29.600400 3.339400
29.640000 3.168500
29.679500 2.986700
29.719000 2.861300
29.758500 2.754800
29.798000 2.729700
29.837500 2.676200
29.877000 2.614500
29.916600 2.636500
29.956100 2.544900
29.995600 2.521800
30.035100 2.578800
30.074600 2.555100
30.114100 2.416300
30.153600 2.297400
30.193100 2.230800
30.232700 2.152400
30.272200 2.109500
30.311700 2.011400
30.351200 1.979800
30.390700 1.854000
30.430200 1.843600
30.469700 1.949400
30.509300 2.013000
30.548800 2.137000
30.588300 2.365700
30.627800 2.561200
30.667300 2.619500
30.706800 2.791600
30.746300 2.913000
30.785800 3.004700
30.825400 3.039400
30.864900 3.082400
30.904400 3.155000
30.943900 3.294400
30.983400 3.442800
31.022900 3.841800
31.062400 3.538600
31.102000 3.192700
31.141500 3.060600
31.181000 2.797900
31.220500 2.521700
31.260000 2.645600
31.299500 2.930900
31.339000 3.180200
31.378500 3.404900
31.418100 3.618000
31.457600 3.705800
31.497100 3.547300
31.536600 3.487200
31.576100 3.333500
31.615600 3.057500
31.655100 2.654100
31.694700 2.208600
31.734200 1.919100
31.773700 1.753100
31.813200 1.655700
31.852700 1.582400
31.892200 1.519600
31.931700 1.466300
31.971200 1.459800
32.010800 1.424100
32.050300 1.385800
32.089800 1.348500
32.129300 1.319200
32.168800 1.384700
32.208300 1.388900
32.247800 1.297500
32.287400 1.226300
32.326900 1.172300
32.366400 1.146900
32.405900 1.137700
32.445400 1.133800
32.484900 1.171700
32.524400 1.213500
32.563900 1.214900
32.603500 1.267800
32.643000 1.281800
32.682500 1.332900
32.722000 1.295700
32.761500 1.116300
32.801000 0.999400
32.840500 0.919300
32.880100 0.884600
32.919600 0.847000
32.959100 0.814900
32.998600 0.787600
33.038100 0.765900
33.077600 0.751900
33.117100 0.776000
33.156600 0.829800
33.196200 0.925000
33.235700 0.928300
33.275200 1.040300
33.314700 1.280200
33.354200 1.216000
33.393700 1.415500
33.433200 1.568400
33.472800 1.586900
33.512300 1.573400
33.551800 1.599400
33.591300 1.649500
33.630800 1.733100
33.670300 1.778900
33.709800 1.828600
33.749300 1.906000
33.788900 2.020800
33.828400 2.146800
33.867900 2.080600
33.907400 2.052900
33.946900 1.978200
33.986400 1.954900
34.025900 1.966700
34.065500 1.991600
34.105000 2.030900
34.144500 2.002000
34.184000 2.000000
34.223500 1.972700
34.263000 1.899900
34.302500 1.697300
34.342000 1.583500
34.381600 1.482800
34.421100 1.418700
34.460600 1.350800
34.500100 1.300700
34.539600 1.259200
34.579100 1.142800
34.618600 1.045500
34.658200 0.967100
34.697700 0.892000
34.737200 0.821500
34.776700 0.759300
34.816200 0.689400
34.855700 0.647100
34.895200 0.614200
34.934700 0.587800
34.974300 0.576800
35.013800 0.565600
35.053300 0.540900
35.092800 0.503400
35.132300 0.477100
35.171800 0.464600
35.211300 0.476600
35.250900 0.427600
35.290400 0.389200
35.329900 0.369600
35.369400 0.306600
35.408900 0.301400
35.448400 0.294400
35.487900 0.286800
35.527400 0.279600
35.567000 0.273600
35.606500 0.272100
35.646000 0.265100
35.685500 0.278600
35.725000 0.279800
35.764500 0.249800
35.804000 0.240200
35.843600 0.230300
35.883100 0.219800
35.922600 0.208800
35.962100 0.198200
36.001600 0.186600
36.041100 0.167600
36.080600 0.147300
36.120100 0.125800
36.159700 0.116900
36.199200 0.109300
36.238700 0.102400
36.278200 0.096200
36.317700 0.091500
36.357200 0.086900
36.396700 0.082300
36.436300 0.077600
36.475800 0.072200
36.515300 0.067000
36.554800 0.062000
36.594300 0.057200
36.633800 0.052700
36.673300 0.047000
36.712900 0.041900
36.752400 0.037200
36.791900 0.032900
36.831400 0.028900
36.870900 0.025000
36.910400 0.021100
36.949900 0.017500
36.989400 0.014300
37.029000 0.011400
37.068500 0.008900
37.108000 0.006800
37.147500 0.005000
37.187000 0.003500
37.226500 0.002300
37.266000 0.001300
37.305600 0.000600
37.345100 0.000200
37.384600 0.000000
37.424100 0.000000
37.463600 0.000000
37.503100 0.000000
37.542600 0.000000
37.582100 0.000000
37.621700 0.000000
37.661200 0.000000
37.700700 0.000000
37.740200 0.000000
37.779700 0.000000
37.819200 0.000000
37.858700 0.000000
37.898300 0.000000
37.937800 0.000000
37.977300 0.000000
38.016800 0.000000
38.056300 0.000000
38.095800 0.000000
38.135300 0.000000
38.174800 0.000000
38.214400 0.000000
38.253900 0.000000
38.293400 0.000000
38.332900 0.000000
38.372400 0.000000
38.411900 0.000000
38.451400 0.000000
38.491000 0.000000
38.530500 0.000000
38.570000 0.000000
38.609500 0.000000
38.649000 0.000000
38.688500 0.000000
38.728000 0.000000
38.767500 0.000000
38.807100 0.000000
38.846600 0.000000
38.886100 0.000000
38.925600 0.000000
38.965100 0.000000
39.004600 0.000000
39.044100 0.000000
39.083700 0.000000
39.123200 0.000000
39.162700 0.000000
39.202200 0.000000
39.241700 0.000000
39.281200 0.000000
39.320700 0.000000
39.360200 0.000000
39.399800 0.000000
39.439300 0.000000
39.478800 0.000000
39.518300 0.000000
39.557800 0.000000
39.597300 0.000000
39.636800 0.000000
39.676400 0.000000
39.715900 0.000000
39.755400 0.000000
39.794900 0.000000
39.834400 0.000000
39.873900 0.000000
39.913400 0.000000
39.952900 0.000000
39.992500 0.000000
40.032000 0.000000
40.071500 0.000000
40.111000 0.000000
40.150500 0.000000
40.190000 0.000000
40.229500 0.000000
40.269100 0.000000
40.308600 0.000000
40.348100 0.000000
40.387600 0.000000
40.427100 0.000000
40.466600 0.000000
40.506100 0.000000
40.545600 0.000000
40.585200 0.000000
40.624700 0.000000
40.664200 0.000000
40.703700 0.000000
40.743200 0.000000
40.782700 0.000000
40.822200 0.000000
40.861800 0.000000
40.901300 0.000000
40.940800 0.000000
40.980300 0.000000
e
