set title 'mp-977057 - Density of States'
set xlabel 'Energy (eV)'
set ylabel 'DOS (states/eV)'
set grid
set xrange [-10:10]
set yrange [0:14.463]
set xzeroaxis lt -1
set terminal png size 800,600
set output 'mp-977057_dos_gnuplot.png'
plot '-' using 1:2 with lines title 'DOS'
-39.418200 0.000000
-39.380300 0.000000
-39.342400 0.000000
-39.304600 0.000000
-39.266700 0.000000
-39.228800 0.000000
-39.190900 0.000000
-39.153100 0.000000
-39.115200 0.000000
-39.077300 0.000000
-39.039400 0.000000
-39.001600 0.000000
-38.963700 0.000000
-38.925800 0.000000
-38.888000 0.000000
-38.850100 0.000000
-38.812200 0.000000
-38.774300 0.000000
-38.736500 0.000000
-38.698600 0.000000
-38.660700 0.000000
-38.622800 0.000000
-38.585000 0.000000
-38.547100 0.000000
-38.509200 0.000000
-38.471300 0.000000
-38.433500 0.000000
-38.395600 0.000000
-38.357700 0.000000
-38.319800 0.000000
-38.282000 0.000000
-38.244100 0.000000
-38.206200 0.000000
-38.168400 0.000000
-38.130500 0.000000
-38.092600 0.000000
-38.054700 0.000000
-38.016900 0.000000
-37.979000 0.000000
-37.941100 0.000000
-37.903200 0.000000
-37.865400 0.000000
-37.827500 0.000000
-37.789600 0.000000
-37.751700 0.000000
-37.713900 0.000000
-37.676000 0.000000
-37.638100 0.000000
-37.600200 0.000000
-37.562400 0.000000
-37.524500 0.000000
-37.486600 0.000000
-37.448800 0.000000
-37.410900 0.000000
-37.373000 0.000000
-37.335100 0.000000
-37.297300 0.000000
-37.259400 0.000000
-37.221500 0.000000
-37.183600 0.000000
-37.145800 0.000000
-37.107900 0.000000
-37.070000 0.000000
-37.032100 0.000000
-36.994300 0.000000
-36.956400 0.000000
-36.918500 0.000000
-36.880700 0.000000
-36.842800 0.000000
-36.804900 0.000000
-36.767000 0.000000
-36.729200 0.000000
-36.691300 0.000000
-36.653400 0.000000
-36.615500 0.000000
-36.577700 0.000000
-36.539800 0.000000
-36.501900 0.000000
-36.464000 0.000000
-36.426200 0.000000
-36.388300 0.000000
-36.350400 0.000000
-36.312500 0.000000
-36.274700 0.000000
-36.236800 0.000000
-36.198900 0.000000
-36.161100 0.000000
-36.123200 0.000000
-36.085300 0.000000
-36.047400 0.000000
-36.009600 0.000000
-35.971700 0.000000
-35.933800 0.000000
-35.895900 0.000000
-35.858100 0.000000
-35.820200 0.000000
-35.782300 0.000000
-35.744400 0.000000
-35.706600 0.000000
-35.668700 0.000000
-35.630800 0.000000
-35.592900 0.000000
-35.555100 0.000000
-35.517200 0.000000
-35.479300 0.000000
-35.441500 0.000000
-35.403600 0.000000
-35.365700 0.000000
-35.327800 0.000000
-35.290000 0.000000
-35.252100 0.000000
-35.214200 0.000000
-35.176300 0.000000
-35.138500 0.000000
-35.100600 0.000000
-35.062700 0.000000
-35.024800 0.000000
-34.987000 0.000000
-34.949100 0.000000
-34.911200 0.000000
-34.873300 0.000000
-34.835500 0.000000
-34.797600 0.000000
-34.759700 0.000000
-34.721900 0.000000
-34.684000 0.000000
-34.646100 0.000000
-34.608200 0.000000
-34.570400 0.000000
-34.532500 0.000000
-34.494600 0.000000
-34.456700 0.000000
-34.418900 0.000000
-34.381000 0.000000
-34.343100 0.000000
-34.305200 0.000000
-34.267400 0.000000
-34.229500 0.000000
-34.191600 0.000000
-34.153700 0.000000
-34.115900 0.000000
-34.078000 0.000000
-34.040100 0.000000
-34.002300 0.000000
-33.964400 0.000000
-33.926500 0.000000
-33.888600 0.000000
-33.850800 0.000000
-33.812900 0.000000
-33.775000 0.000000
-33.737100 0.000000
-33.699300 0.000000
-33.661400 0.000000
-33.623500 0.000000
-33.585600 0.000000
-33.547800 0.000000
-33.509900 0.000000
-33.472000 0.000000
-33.434200 0.000000
-33.396300 0.000000
-33.358400 0.000000
-33.320500 0.000000
-33.282700 0.000000
-33.244800 0.000000
-33.206900 0.000000
-33.169000 0.000000
-33.131200 0.000000
-33.093300 0.000000
-33.055400 0.000000
-33.017500 0.000000
-32.979700 0.000000
-32.941800 0.000000
-32.903900 0.000000
-32.866000 0.000000
-32.828200 0.000000
-32.790300 0.000000
-32.752400 0.000000
-32.714600 0.000000
-32.676700 0.000000
-32.638800 0.000000
-32.600900 0.000000
-32.563100 0.000000
-32.525200 0.000000
-32.487300 0.000000
-32.449400 0.000000
-32.411600 0.000000
-32.373700 0.000000
-32.335800 0.000000
-32.297900 0.000000
-32.260100 0.000000
-32.222200 0.000000
-32.184300 0.000000
-32.146400 0.000000
-32.108600 0.000000
-32.070700 0.000000
-32.032800 0.000000
-31.995000 0.000000
-31.957100 0.000000
-31.919200 0.000000
-31.881300 0.000000
-31.843500 0.000000
-31.805600 0.000000
-31.767700 0.000000
-31.729800 0.000000
-31.692000 0.000000
-31.654100 0.000000
-31.616200 0.000000
-31.578300 0.000000
-31.540500 0.000000
-31.502600 0.000000
-31.464700 0.000000
-31.426800 0.000000
-31.389000 0.000000
-31.351100 0.000000
-31.313200 0.000000
-31.275400 0.000000
-31.237500 0.000000
-31.199600 0.000000
-31.161700 0.000000
-31.123900 0.000000
-31.086000 0.000000
-31.048100 0.000000
-31.010200 0.000000
-30.972400 0.000000
-30.934500 0.000000
-30.896600 0.000000
-30.858700 0.000000
-30.820900 0.000000
-30.783000 0.000000
-30.745100 0.000000
-30.707300 0.000000
-30.669400 0.000000
-30.631500 0.000000
-30.593600 0.000000
-30.555800 0.000000
-30.517900 0.000000
-30.480000 0.000000
-30.442100 0.000000
-30.404300 0.000000
-30.366400 0.000000
-30.328500 0.000000
-30.290600 0.000000
-30.252800 0.000000
-30.214900 0.000000
-30.177000 0.000000
-30.139100 0.000000
-30.101300 0.000000
-30.063400 0.000000
-30.025500 0.000000
-29.987700 0.000000
-29.949800 0.000000
-29.911900 0.000000
-29.874000 0.000000
-29.836200 0.000000
-29.798300 0.000000
-29.760400 0.000000
-29.722500 0.000000
-29.684700 0.000000
-29.646800 0.000000
-29.608900 0.000000
-29.571000 0.000000
-29.533200 0.000000
-29.495300 0.000000
-29.457400 0.000000
-29.419500 0.000000
-29.381700 0.000000
-29.343800 0.000000
-29.305900 0.000000
-29.268100 0.000000
-29.230200 0.000000
-29.192300 0.000000
-29.154400 0.000000
-29.116600 0.000000
-29.078700 0.000000
-29.040800 0.000000
-29.002900 0.000000
-28.965100 0.000000
-28.927200 0.000000
-28.889300 0.000000
-28.851400 0.000000
-28.813600 0.000000
-28.775700 0.000000
-28.737800 0.000000
-28.699900 0.000000
-28.662100 0.000000
-28.624200 0.000000
-28.586300 0.000000
-28.548500 0.000000
-28.510600 0.000000
-28.472700 0.000000
-28.434800 0.000000
-28.397000 0.000000
-28.359100 0.000000
-28.321200 0.000000
-28.283300 0.000000
-28.245500 0.000000
-28.207600 0.000000
-28.169700 0.000000
-28.131800 0.000000
-28.094000 0.000000
-28.056100 0.000000
-28.018200 0.000000
-27.980300 0.000000
-27.942500 0.000000
-27.904600 0.000000
-27.866700 0.000000
-27.828900 0.000000
-27.791000 0.000000
-27.753100 0.000000
-27.715200 0.000000
-27.677400 0.000000
-27.639500 0.000000
-27.601600 0.000000
-27.563700 0.000000
-27.525900 0.000000
-27.488000 0.000000
-27.450100 0.000000
-27.412200 0.000000
-27.374400 0.000000
-27.336500 0.000000
-27.298600 0.000000
-27.260800 0.000000
-27.222900 0.000000
-27.185000 0.000000
-27.147100 0.000000
-27.109300 0.000000
-27.071400 0.000000
-27.033500 0.000000
-26.995600 0.000000
-26.957800 0.000000
-26.919900 0.000000
-26.882000 0.000000
-26.844100 0.000000
-26.806300 0.000000
-26.768400 0.000000
-26.730500 0.000000
-26.692600 0.000000
-26.654800 0.000000
-26.616900 0.000000
-26.579000 0.000000
-26.541200 0.000000
-26.503300 0.000000
-26.465400 0.000000
-26.427500 0.000000
-26.389700 0.000000
-26.351800 0.000000
-26.313900 0.000000
-26.276000 0.000000
-26.238200 0.000000
-26.200300 0.000000
-26.162400 0.000000
-26.124500 0.000000
-26.086700 0.000000
-26.048800 0.000000
-26.010900 0.000000
-25.973000 0.000000
-25.935200 0.000000
-25.897300 0.000000
-25.859400 0.000000
-25.821600 0.000000
-25.783700 0.000000
-25.745800 0.000000
-25.707900 0.000000
-25.670100 0.000000
-25.632200 0.000000
-25.594300 0.000000
-25.556400 0.000000
-25.518600 0.000000
-25.480700 0.000000
-25.442800 0.000000
-25.404900 0.000000
-25.367100 0.000000
-25.329200 0.000000
-25.291300 0.000000
-25.253400 0.000000
-25.215600 0.000000
-25.177700 0.000000
-25.139800 0.000000
-25.102000 0.000000
-25.064100 0.000000
-25.026200 0.000000
-24.988300 0.000000
-24.950500 0.000000
-24.912600 0.000000
-24.874700 0.000000
-24.836800 0.000000
-24.799000 0.000000
-24.761100 0.000000
-24.723200 0.000000
-24.685300 0.000000
-24.647500 0.000000
-24.609600 0.000000
-24.571700 0.000000
-24.533800 0.000000
-24.496000 0.000000
-24.458100 0.000000
-24.420200 0.000000
-24.382400 0.000000
-24.344500 0.000000
-24.306600 0.000000
-24.268700 0.000000
-24.230900 0.000000
-24.193000 0.000000
-24.155100 0.000000
-24.117200 0.000000
-24.079400 0.000000
-24.041500 0.000000
-24.003600 0.000000
-23.965700 0.000000
-23.927900 0.000000
-23.890000 0.000000
-23.852100 0.000000
-23.814300 0.000000
-23.776400 0.000000
-23.738500 0.000000
-23.700600 0.000000
-23.662800 0.000000
-23.624900 0.000000
-23.587000 0.000000
-23.549100 0.000000
-23.511300 0.000000
-23.473400 0.000000
-23.435500 0.000000
-23.397600 0.000000
-23.359800 0.000000
-23.321900 0.000000
-23.284000 0.000000
-23.246100 0.000000
-23.208300 0.000000
-23.170400 0.000000
-23.132500 0.000000
-23.094700 0.000000
-23.056800 0.000000
-23.018900 0.000000
-22.981000 0.000000
-22.943200 0.000000
-22.905300 0.000000
-22.867400 0.000000
-22.829500 0.000000
-22.791700 0.000000
-22.753800 0.000000
-22.715900 0.000000
-22.678000 0.000000
-22.640200 0.000000
-22.602300 0.000000
-22.564400 0.000000
-22.526500 0.000000
-22.488700 0.000000
-22.450800 0.000000
-22.412900 0.000000
-22.375100 0.000000
-22.337200 0.000000
-22.299300 0.000000
-22.261400 0.000000
-22.223600 0.000000
-22.185700 0.000000
-22.147800 0.000000
-22.109900 0.000000
-22.072100 0.000000
-22.034200 0.000000
-21.996300 0.000000
-21.958400 0.000000
-21.920600 0.000000
-21.882700 0.000000
-21.844800 0.000000
-21.806900 0.000000
-21.769100 0.000000
-21.731200 0.000000
-21.693300 0.000000
-21.655500 0.000000
-21.617600 0.000000
-21.579700 0.000000
-21.541800 0.000000
-21.504000 0.000000
-21.466100 0.000000
-21.428200 0.000000
-21.390300 0.000000
-21.352500 0.000000
-21.314600 0.000000
-21.276700 0.000000
-21.238800 0.000000
-21.201000 0.000000
-21.163100 0.000000
-21.125200 0.000000
-21.087400 0.000000
-21.049500 0.000000
-21.011600 0.000000
-20.973700 0.000000
-20.935900 0.000000
-20.898000 0.000000
-20.860100 0.000000
-20.822200 0.000000
-20.784400 0.000000
-20.746500 0.000000
-20.708600 0.000000
-20.670700 0.000000
-20.632900 0.000000
-20.595000 0.000000
-20.557100 0.000000
-20.519200 0.000000
-20.481400 0.000000
-20.443500 0.000000
-20.405600 0.000000
-20.367800 0.000000
-20.329900 0.000000
-20.292000 0.000000
-20.254100 0.000000
-20.216300 0.000000
-20.178400 0.000000
-20.140500 0.000000
-20.102600 0.000000
-20.064800 0.000000
-20.026900 0.000000
-19.989000 0.000000
-19.951100 0.000000
-19.913300 0.000000
-19.875400 0.000000
-19.837500 0.000000
-19.799600 0.000000
-19.761800 0.000000
-19.723900 0.000000
-19.686000 0.000000
-19.648200 0.000000
-19.610300 0.000000
-19.572400 0.000000
-19.534500 0.000000
-19.496700 0.000000
-19.458800 0.000000
-19.420900 0.000000
-19.383000 0.000000
-19.345200 0.000000
-19.307300 0.000000
-19.269400 0.000000
-19.231500 0.000000
-19.193700 0.000000
-19.155800 0.000000
-19.117900 0.000000
-19.080000 0.000000
-19.042200 0.000000
-19.004300 0.000000
-18.966400 0.000000
-18.928600 0.000000
-18.890700 0.000000
-18.852800 0.000000
-18.814900 0.000000
-18.777100 0.000000
-18.739200 0.000000
-18.701300 0.000000
-18.663400 0.000000
-18.625600 0.000000
-18.587700 0.000000
-18.549800 0.000000
-18.511900 0.000000
-18.474100 0.000000
-18.436200 0.000000
-18.398300 0.000000
-18.360400 0.000000
-18.322600 0.000000
-18.284700 0.000000
-18.246800 0.000000
-18.209000 0.000000
-18.171100 0.000000
-18.133200 0.000000
-18.095300 0.000000
-18.057500 0.000000
-18.019600 0.000000
-17.981700 0.000000
-17.943800 0.000000
-17.906000 0.000000
-17.868100 0.000000
-17.830200 0.000000
-17.792300 0.000000
-17.754500 0.000000
-17.716600 0.000000
-17.678700 0.000000
-17.640900 0.000000
-17.603000 0.000000
-17.565100 0.000000
-17.527200 0.000000
-17.489400 0.000000
-17.451500 0.000000
-17.413600 0.000000
-17.375700 0.000000
-17.337900 0.000000
-17.300000 0.000000
-17.262100 0.000000
-17.224200 0.000000
-17.186400 0.000000
-17.148500 0.000000
-17.110600 0.000000
-17.072700 0.000000
-17.034900 0.000000
-16.997000 0.000000
-16.959100 0.000000
-16.921300 0.000000
-16.883400 0.000000
-16.845500 0.000000
-16.807600 0.000000
-16.769800 0.000000
-16.731900 0.000000
-16.694000 0.000000
-16.656100 0.000000
-16.618300 0.000000
-16.580400 0.000000
-16.542500 0.000000
-16.504600 0.000000
-16.466800 0.000000
-16.428900 0.000000
-16.391000 0.000000
-16.353100 0.000000
-16.315300 0.000000
-16.277400 0.000000
-16.239500 0.000000
-16.201700 0.000000
-16.163800 0.000000
-16.125900 0.000000
-16.088000 0.000000
-16.050200 0.000000
-16.012300 0.000000
-15.974400 0.000000
-15.936500 0.000000
-15.898700 0.000000
-15.860800 0.000000
-15.822900 0.000000
-15.785000 0.000000
-15.747200 0.000000
-15.709300 0.000000
-15.671400 0.000000
-15.633500 0.000000
-15.595700 0.000000
-15.557800 0.000000
-15.519900 0.000000
-15.482100 0.000000
-15.444200 0.000000
-15.406300 0.000000
-15.368400 0.000000
-15.330600 0.000000
-15.292700 0.000000
-15.254800 0.000000
-15.216900 0.000000
-15.179100 0.000000
-15.141200 0.000000
-15.103300 0.000000
-15.065400 0.000000
-15.027600 0.000000
-14.989700 0.000000
-14.951800 0.000000
-14.913900 0.000000
-14.876100 0.000000
-14.838200 0.000000
-14.800300 0.000000
-14.762500 0.000000
-14.724600 0.000000
-14.686700 0.000000
-14.648800 0.000000
-14.611000 0.000000
-14.573100 0.000000
-14.535200 0.000000
-14.497300 0.000000
-14.459500 0.000000
-14.421600 0.000000
-14.383700 0.000000
-14.345800 0.000000
-14.308000 0.000000
-14.270100 0.000000
-14.232200 0.000000
-14.194400 0.000000
-14.156500 0.000000
-14.118600 0.000000
-14.080700 0.000000
-14.042900 0.000000
-14.005000 0.000000
-13.967100 0.000000
-13.929200 0.000000
-13.891400 0.000000
-13.853500 0.000000
-13.815600 0.000000
-13.777700 0.000000
-13.739900 0.000000
-13.702000 0.000000
-13.664100 0.000000
-13.626200 0.000000
-13.588400 0.000000
-13.550500 0.000000
-13.512600 0.000000
-13.474800 0.000000
-13.436900 0.000000
-13.399000 0.000000
-13.361100 0.000000
-13.323300 0.000000
-13.285400 0.000000
-13.247500 0.000000
-13.209600 0.000000
-13.171800 0.000000
-13.133900 0.000000
-13.096000 0.000000
-13.058100 0.000000
-13.020300 0.000000
-12.982400 0.000000
-12.944500 0.000000
-12.906600 0.000000
-12.868800 0.000000
-12.830900 0.000000
-12.793000 0.000000
-12.755200 0.000000
-12.717300 0.000000
-12.679400 0.000000
-12.641500 0.000000
-12.603700 0.000000
-12.565800 0.000000
-12.527900 0.000000
-12.490000 0.000000
-12.452200 0.000000
-12.414300 0.000000
-12.376400 0.000000
-12.338500 0.000000
-12.300700 0.000000
-12.262800 0.000000
-12.224900 0.000000
-12.187000 0.000000
-12.149200 0.000000
-12.111300 0.000000
-12.073400 0.000000
-12.035600 0.000000
-11.997700 0.000000
-11.959800 0.000000
-11.921900 0.000000
-11.884100 0.000000
-11.846200 0.000000
-11.808300 0.000000
-11.770400 0.000000
-11.732600 0.000000
-11.694700 0.000000
-11.656800 0.000000
-11.618900 0.000000
-11.581100 0.000000
-11.543200 0.000000
-11.505300 0.000000
-11.467500 0.000000
-11.429600 0.000000
-11.391700 0.000000
-11.353800 0.000000
-11.316000 0.000000
-11.278100 0.000000
-11.240200 0.000000
-11.202300 0.000000
-11.164500 0.000000
-11.126600 0.000000
-11.088700 0.000000
-11.050800 0.000000
-11.013000 0.000000
-10.975100 0.000000
-10.937200 0.000000
-10.899300 0.000000
-10.861500 0.000000
-10.823600 0.000000
-10.785700 0.000000
-10.747900 0.000000
-10.710000 0.000000
-10.672100 0.000000
-10.634200 0.000000
-10.596400 3.055500
-10.558500 2.518200
-10.520600 2.718700
-10.482700 3.109200
-10.444900 5.496300
-10.407000 3.509400
-10.369100 3.212200
-10.331200 2.382300
-10.293400 2.767400
-10.255500 3.674200
-10.217600 3.964500
-10.179700 4.667700
-10.141900 7.452500
-10.104000 12.892400
-10.066100 11.826000
-10.028300 4.380100
-9.990400 2.923700
-9.952500 0.000000
-9.914600 0.000000
-9.876800 0.000000
-9.838900 0.000000
-9.801000 0.000000
-9.763100 0.000000
-9.725300 0.000000
-9.687400 0.000000
-9.649500 0.000000
-9.611600 0.000000
-9.573800 0.000000
-9.535900 0.000000
-9.498000 0.000000
-9.460100 0.000000
-9.422300 0.000000
-9.384400 0.000000
-9.346500 0.000000
-9.308700 0.000000
-9.270800 0.000000
-9.232900 0.000000
-9.195000 0.000000
-9.157200 0.000000
-9.119300 0.000000
-9.081400 0.000000
-9.043500 0.000000
-9.005700 0.000000
-8.967800 0.000000
-8.929900 0.000000
-8.892000 0.000000
-8.854200 0.000000
-8.816300 0.000000
-8.778400 0.000000
-8.740500 0.000000
-8.702700 0.000000
-8.664800 0.000000
-8.626900 0.000000
-8.589100 0.000000
-8.551200 0.000000
-8.513300 0.000000
-8.475400 0.000000
-8.437600 0.000000
-8.399700 0.000000
-8.361800 0.000000
-8.323900 0.000000
-8.286100 0.000000
-8.248200 0.000000
-8.210300 0.000000
-8.172400 0.000000
-8.134600 0.000000
-8.096700 0.000000
-8.058800 0.000000
-8.021000 0.000000
-7.983100 0.000000
-7.945200 0.000000
-7.907300 0.000000
-7.869500 0.000000
-7.831600 0.000000
-7.793700 0.000000
-7.755800 0.000000
-7.718000 0.000000
-7.680100 0.000000
-7.642200 0.000000
-7.604300 0.000000
-7.566500 0.000000
-7.528600 0.000000
-7.490700 0.000000
-7.452800 0.000000
-7.415000 0.000000
-7.377100 0.000000
-7.339200 0.000000
-7.301400 0.000000
-7.263500 0.000000
-7.225600 0.000000
-7.187700 0.000000
-7.149900 0.000000
-7.112000 0.000000
-7.074100 0.000000
-7.036200 0.000000
-6.998400 0.000000
-6.960500 0.000000
-6.922600 0.000000
-6.884700 0.000000
-6.846900 0.000000
-6.809000 0.000000
-6.771100 0.000000
-6.733200 0.000000
-6.695400 0.000000
-6.657500 0.000000
-6.619600 0.000000
-6.581800 0.000000
-6.543900 0.000000
-6.506000 0.000000
-6.468100 0.000000
-6.430300 0.000000
-6.392400 0.000000
-6.354500 0.000000
-6.316600 0.000000
-6.278800 0.000000
-6.240900 0.000000
-6.203000 0.000000
-6.165100 0.000000
-6.127300 0.000000
-6.089400 0.000000
-6.051500 0.000000
-6.013600 0.000000
-5.975800 0.000000
-5.937900 0.000000
-5.900000 0.000000
-5.862200 0.000000
-5.824300 0.000000
-5.786400 0.000000
-5.748500 0.000000
-5.710700 0.000000
-5.672800 0.000000
-5.634900 0.000000
-5.597000 0.000000
-5.559200 0.000000
-5.521300 0.000000
-5.483400 0.000000
-5.445500 0.000000
-5.407700 0.000000
-5.369800 0.000000
-5.331900 0.000000
-5.294000 0.000000
-5.256200 0.000000
-5.218300 0.000000
-5.180400 0.000000
-5.142600 0.000000
-5.104700 0.000000
-5.066800 0.000000
-5.028900 0.004200
-4.991100 0.021400
-4.953200 0.044200
-4.915300 0.062100
-4.877400 0.070000
-4.839600 0.078000
-4.801700 0.086500
-4.763800 0.093500
-4.725900 0.103800
-4.688100 0.114700
-4.650200 0.125600
-4.612300 0.133200
-4.574500 0.138200
-4.536600 0.145600
-4.498700 0.153200
-4.460800 0.160800
-4.423000 0.168400
-4.385100 0.176500
-4.347200 0.184800
-4.309300 0.193300
-4.271500 0.202600
-4.233600 0.212900
-4.195700 0.222900
-4.157800 0.231800
-4.120000 0.240100
-4.082100 0.248700
-4.044200 0.257700
-4.006300 0.266800
-3.968500 0.276000
-3.930600 0.286600
-3.892700 0.300700
-3.854900 0.315400
-3.817000 0.333000
-3.779100 0.351200
-3.741200 0.375500
-3.703400 0.398100
-3.665500 0.407300
-3.627600 0.420400
-3.589700 0.430600
-3.551900 0.429300
-3.514000 0.426700
-3.476100 0.428900
-3.438200 0.436200
-3.400400 0.441300
-3.362500 0.444800
-3.324600 0.447600
-3.286700 0.448900
-3.248900 0.451100
-3.211000 0.455400
-3.173100 0.459000
-3.135300 0.462900
-3.097400 0.469000
-3.059500 0.475500
-3.021600 0.481500
-2.983800 0.489700
-2.945900 0.503300
-2.908000 0.527000
-2.870100 0.556700
-2.832300 0.625300
-2.794400 0.652700
-2.756500 0.661000
-2.718600 0.620200
-2.680800 0.631400
-2.642900 0.624300
-2.605000 0.609100
-2.567100 0.584000
-2.529300 0.552800
-2.491400 0.529300
-2.453500 0.514500
-2.415700 0.499100
-2.377800 0.511600
-2.339900 0.540700
-2.302000 0.582200
-2.264200 0.675500
-2.226300 0.901900
-2.188400 0.598900
-2.150500 0.688400
-2.112700 0.732700
-2.074800 0.805500
-2.036900 0.864800
-1.999000 0.932800
-1.961200 0.986400
-1.923300 1.034300
-1.885400 1.090700
-1.847600 1.195300
-1.809700 1.371400
-1.771800 1.557200
-1.733900 1.307800
-1.696100 0.991700
-1.658200 0.881700
-1.620300 0.791100
-1.582400 0.853900
-1.544600 0.878900
-1.506700 0.962800
-1.468800 1.181500
-1.430900 1.122900
-1.393100 1.002900
-1.355200 0.932200
-1.317300 0.924600
-1.279400 0.923900
-1.241600 0.930900
-1.203700 0.931300
-1.165800 0.922200
-1.128000 0.932900
-1.090100 0.996900
-1.052200 1.001200
-1.014300 1.117900
-0.976500 1.142700
-0.938600 1.137200
-0.900700 1.137400
-0.862800 1.142500
-0.825000 1.091900
-0.787100 0.985900
-0.749200 0.947700
-0.711300 0.909600
-0.673500 0.919900
-0.635600 0.953900
-0.597700 1.090800
-0.559800 1.204000
-0.522000 1.000200
-0.484100 0.417500
-0.446200 0.286200
-0.408400 0.277100
-0.370500 0.268000
-0.332600 0.258900
-0.294700 0.249800
-0.256900 0.240700
-0.219000 0.233000
-0.181100 0.227400
-0.143200 0.224600
-0.105400 0.222100
-0.067500 0.219700
-0.029600 0.217300
0.008300 0.214900
0.046100 0.212500
0.084000 0.190200
0.121900 0.197000
0.159800 0.197200
0.197600 0.190200
0.235500 0.183100
0.273400 0.175900
0.311200 0.168800
0.349100 0.161700
0.387000 0.154600
0.424900 0.147500
0.462700 0.140400
0.500600 0.135500
0.538500 0.139400
0.576400 0.148800
0.614200 0.161300
0.652100 0.161900
0.690000 0.150400
0.727900 0.131700
0.765700 0.102000
0.803600 0.073100
0.841500 0.048300
0.879400 0.031000
0.917200 0.018000
0.955100 0.008200
0.993000 0.001800
1.030800 0.000000
1.068700 0.000000
1.106600 0.000000
1.144500 0.000000
1.182300 0.000000
1.220200 0.000000
1.258100 0.000000
1.296000 0.000000
1.333800 0.000000
1.371700 0.000000
1.409600 0.000000
1.447500 0.000000
1.485300 0.000000
1.523200 0.000000
1.561100 0.000000
1.598900 0.000000
1.636800 0.000000
1.674700 0.000000
1.712600 0.000000
1.750400 0.000000
1.788300 0.000000
1.826200 0.000000
1.864100 0.000000
1.901900 0.000000
1.939800 0.000000
1.977700 0.000000
2.015600 0.000000
2.053400 0.000000
2.091300 0.000000
2.129200 0.000000
2.167100 0.000000
2.204900 0.000000
2.242800 0.000000
2.280700 0.000000
2.318500 0.000000
2.356400 0.000000
2.394300 0.000000
2.432200 0.000000
2.470000 0.000000
2.507900 0.000000
2.545800 0.000000
2.583700 0.000000
2.621500 0.046500
2.659400 0.048800
2.697300 0.058800
2.735200 0.069500
2.773000 0.078000
2.810900 0.088000
2.848800 0.104500
2.886700 0.125000
2.924500 0.149300
2.962400 0.181900
3.000300 0.241900
3.038100 0.292100
3.076000 0.280000
3.113900 0.257600
3.151800 0.280100
3.189600 0.270000
3.227500 0.282100
3.265400 0.315100
3.303300 0.359100
3.341100 0.416600
3.379000 0.518000
3.416900 0.571200
3.454800 0.612600
3.492600 0.662300
3.530500 0.672100
3.568400 0.715400
3.606300 0.816500
3.644100 0.903100
3.682000 1.001800
3.719900 1.117700
3.757700 1.237700
3.795600 1.382000
3.833500 1.433600
3.871400 1.311100
3.909200 1.169500
3.947100 1.088200
3.985000 1.019400
4.022900 0.951400
4.060700 0.909500
4.098600 0.676000
4.136500 0.560000
4.174400 0.526400
4.212200 0.520100
4.250100 0.571200
4.288000 0.689400
4.325900 0.864700
4.363700 0.931400
4.401600 0.883500
4.439500 0.893700
4.477300 0.902700
4.515200 0.914200
4.553100 0.921000
4.591000 0.997500
4.628800 1.102700
4.666700 1.103400
4.704600 0.981500
4.742500 0.903500
4.780300 0.872600
4.818200 0.860200
4.856100 0.844100
4.894000 0.814400
4.931800 0.823900
4.969700 0.953300
5.007600 1.228500
5.045400 1.282200
5.083300 1.328900
5.121200 1.481300
5.159100 1.517300
5.196900 1.606200
5.234800 1.585500
5.272700 1.571300
5.310600 1.576300
5.348400 1.459000
5.386300 1.213400
5.424200 1.145100
5.462100 1.096300
5.499900 1.163600
5.537800 1.362600
5.575700 1.654100
5.613600 1.587400
5.651400 2.722700
5.689300 2.467100
5.727200 1.896800
5.765000 1.711700
5.802900 1.625200
5.840800 1.492200
5.878700 1.362200
5.916500 1.277300
5.954400 1.228000
5.992300 1.265600
6.030200 1.426500
6.068000 1.470800
6.105900 1.475800
6.143800 1.452400
6.181700 1.425700
6.219500 1.370100
6.257400 1.449600
6.295300 1.207800
6.333200 1.012900
6.371000 0.899400
6.408900 0.872900
6.446800 0.825100
6.484600 0.862800
6.522500 0.920900
6.560400 0.891400
6.598300 0.878300
6.636100 0.898600
6.674000 0.855700
6.711900 0.816000
6.749800 0.793700
6.787600 0.806200
6.825500 0.887100
6.863400 1.024700
6.901300 1.171600
6.939100 1.345300
6.977000 1.487100
7.014900 1.579200
7.052800 1.627500
7.090600 1.721300
7.128500 1.829900
7.166400 1.758800
7.204200 1.668100
7.242100 1.605600
7.280000 1.554700
7.317900 1.637400
7.355700 1.508000
7.393600 1.355400
7.431500 1.315200
7.469400 1.511600
7.507200 1.712900
7.545100 1.880100
7.583000 1.879700
7.620900 1.811900
7.658700 1.776700
7.696600 1.633200
7.734500 1.606700
7.772300 1.567300
7.810200 1.609100
7.848100 1.531500
7.886000 1.424000
7.923800 1.325900
7.961700 1.352300
7.999600 1.364200
8.037500 1.195200
8.075300 1.198700
8.113200 1.257900
8.151100 1.297500
8.189000 1.370700
8.226800 1.450400
8.264700 1.547700
8.302600 1.603800
8.340500 1.649100
8.378300 1.789800
8.416200 2.017100
8.454100 1.908600
8.491900 1.658600
8.529800 1.684500
8.567700 1.711700
8.605600 1.744800
8.643400 1.744100
8.681300 1.702800
8.719200 1.663200
8.757100 1.606600
8.794900 1.823000
8.832800 2.044000
8.870700 2.779200
8.908600 3.340100
8.946400 3.823800
8.984300 4.320700
9.022200 3.319900
9.060100 3.469500
9.097900 2.992900
9.135800 5.285300
9.173700 6.799000
9.211500 6.789300
9.249400 6.364400
9.287300 6.743600
9.325200 9.202400
9.363000 7.028100
9.400900 8.365400
9.438800 13.148500
9.476700 11.710400
9.514500 6.620300
9.552400 4.630700
9.590300 3.793900
9.628200 3.304900
9.666000 3.075900
9.703900 3.018900
9.741800 3.060000
9.779700 2.510400
9.817500 2.328600
9.855400 2.155600
9.893300 2.234200
9.931100 2.395100
9.969000 2.298900
10.006900 2.322700
10.044800 2.022200
10.082600 1.920600
10.120500 1.907200
10.158400 2.033700
10.196300 1.929900
10.234100 1.789700
10.272000 1.705100
10.309900 1.591600
10.347800 1.435000
10.385600 1.234600
10.423500 1.134900
10.461400 1.134100
10.499300 1.134000
10.537100 1.193300
10.575000 1.211100
10.612900 1.283300
10.650700 1.338400
10.688600 1.460600
10.726500 1.678500
10.764400 1.766700
10.802200 1.777300
10.840100 1.727500
10.878000 1.500600
10.915900 1.392300
10.953700 1.303400
10.991600 1.290300
11.029500 1.172500
11.067400 1.054000
11.105200 0.945800
11.143100 0.932900
11.181000 0.948000
11.218800 0.973800
11.256700 1.003400
11.294600 1.019900
11.332500 1.073500
11.370300 1.107900
11.408200 1.116600
11.446100 1.493800
11.484000 1.638700
11.521800 1.712100
11.559700 2.043000
11.597600 1.649900
11.635500 1.330000
11.673300 1.128000
11.711200 0.989000
11.749100 0.938600
11.787000 0.894100
11.824800 0.876400
11.862700 0.862400
11.900600 0.861600
11.938400 0.870300
11.976300 0.888100
12.014200 0.897700
12.052100 0.881800
12.089900 0.913700
12.127800 1.002500
12.165700 1.020000
12.203600 0.996600
12.241400 0.985200
12.279300 1.013400
12.317200 1.034700
12.355100 1.091900
12.392900 1.164500
12.430800 1.217200
12.468700 1.230900
12.506600 1.145500
12.544400 1.181800
12.582300 1.201100
12.620200 1.227500
12.658000 1.365100
12.695900 1.465900
12.733800 1.532400
12.771700 1.526000
12.809500 1.535600
12.847400 1.577700
12.885300 1.592700
12.923200 1.618700
12.961000 1.645700
12.998900 1.654400
13.036800 1.673800
13.074700 1.690300
13.112500 1.807400
13.150400 2.215300
13.188300 2.377700
13.226200 2.220000
13.264000 2.047700
13.301900 1.958100
13.339800 2.059100
13.377600 2.203700
13.415500 2.415500
13.453400 2.567900
13.491300 2.790700
13.529100 2.508000
13.567000 2.182700
13.604900 1.886300
13.642800 1.670200
13.680600 1.558500
13.718500 1.573200
13.756400 1.725900
13.794300 2.088700
13.832100 2.181800
13.870000 2.381900
13.907900 2.504000
13.945800 2.187300
13.983600 2.053500
14.021500 1.853900
14.059400 1.789400
14.097200 1.725300
14.135100 1.802000
14.173000 1.834800
14.210900 1.818500
14.248700 1.698900
14.286600 1.803400
14.324500 1.614200
14.362400 1.554300
14.400200 1.470200
14.438100 1.409300
14.476000 1.352200
14.513900 1.340100
14.551700 1.302700
14.589600 1.250700
14.627500 1.233000
14.665300 1.204100
14.703200 1.151600
14.741100 1.112300
14.779000 1.036600
14.816800 1.023500
14.854700 1.011300
14.892600 1.056400
14.930500 1.137400
14.968300 1.205500
15.006200 1.262000
15.044100 1.293000
15.082000 1.463100
15.119800 1.279500
15.157700 1.195900
15.195600 1.058000
15.233500 0.962400
15.271300 0.898900
15.309200 0.846100
15.347100 0.899900
15.384900 1.016200
15.422800 1.006100
15.460700 1.025800
15.498600 1.120400
15.536400 0.976600
15.574300 0.980600
15.612200 0.851900
15.650100 0.746400
15.687900 0.678200
15.725800 0.633000
15.763700 0.590500
15.801600 0.591000
15.839400 0.608900
15.877300 0.605000
15.915200 0.595300
15.953100 0.599300
15.990900 0.607700
16.028800 0.617400
16.066700 0.624700
16.104500 0.628600
16.142400 0.635900
16.180300 0.638200
16.218200 0.658300
16.256000 0.677900
16.293900 0.702300
16.331800 0.718800
16.369700 0.709800
16.407500 0.706200
16.445400 0.713000
16.483300 0.704100
16.521200 0.684200
16.559000 0.665500
16.596900 0.647200
16.634800 0.641300
16.672700 0.632800
16.710500 0.624000
16.748400 0.619700
16.786300 0.616400
16.824100 0.616300
16.862000 0.624300
16.899900 0.629500
16.937800 0.635300
16.975600 0.643200
17.013500 0.654200
17.051400 0.669300
17.089300 0.699000
17.127100 0.730100
17.165000 0.757400
17.202900 0.781700
17.240800 0.816200
17.278600 0.879400
17.316500 0.940000
17.354400 0.992500
17.392200 1.039000
17.430100 1.058000
17.468000 1.066100
17.505900 1.096100
17.543700 1.027200
17.581600 0.945700
17.619500 0.883300
17.657400 0.841700
17.695200 0.803100
17.733100 0.761500
17.771000 0.739700
17.808900 0.738400
17.846700 0.743500
17.884600 0.765000
17.922500 0.790300
17.960400 0.797300
17.998200 0.809300
18.036100 0.818300
18.074000 0.852900
18.111800 0.857000
18.149700 0.877000
18.187600 0.884200
18.225500 0.786400
18.263300 0.719400
18.301200 0.670200
18.339100 0.602100
18.377000 0.547800
18.414800 0.514000
18.452700 0.497000
18.490600 0.496000
18.528500 0.498500
18.566300 0.501200
18.604200 0.513600
18.642100 0.529300
18.680000 0.553100
18.717800 0.583900
18.755700 0.600200
18.793600 0.618700
18.831400 0.614300
18.869300 0.634600
18.907200 0.685700
18.945100 0.697200
18.982900 0.765900
19.020800 0.863100
19.058700 0.974300
19.096600 1.100200
19.134400 1.239800
19.172300 1.560300
19.210200 1.694100
19.248100 1.653300
19.285900 1.479600
19.323800 1.212300
19.361700 1.069000
19.399600 1.044600
19.437400 1.067900
19.475300 1.095800
19.513200 1.178500
19.551000 1.506800
19.588900 1.632700
19.626800 1.818000
19.664700 2.006700
19.702500 2.147900
19.740400 2.114900
19.778300 2.042300
19.816200 1.969800
19.854000 1.943500
19.891900 1.711000
19.929800 1.484600
19.967700 1.369200
20.005500 1.376600
20.043400 1.533400
20.081300 1.696200
20.119200 1.730900
20.157000 1.748000
20.194900 1.808200
20.232800 1.909200
20.270600 1.936300
20.308500 1.990900
20.346400 1.951800
20.384300 1.926500
20.422100 1.862600
20.460000 1.726600
20.497900 1.628500
20.535800 1.670600
20.573600 1.533400
20.611500 1.547400
20.649400 1.641800
20.687300 1.659700
20.725100 1.670700
20.763000 1.613400
20.800900 1.588800
20.838700 1.631800
20.876600 1.616800
20.914500 1.549500
20.952400 1.570200
20.990200 1.520900
21.028100 1.665500
21.066000 1.744500
21.103900 1.947600
21.141700 1.817700
21.179600 1.623100
21.217500 1.472600
21.255400 1.341700
21.293200 1.239000
21.331100 1.205900
21.369000 1.277300
21.406900 1.183600
21.444700 1.222200
21.482600 1.290800
21.520500 1.423300
21.558300 1.370300
21.596200 1.464400
21.634100 1.563000
21.672000 1.681400
21.709800 1.856100
21.747700 1.729400
21.785600 1.623200
21.823500 1.543500
21.861300 1.472900
21.899200 1.423200
21.937100 1.277200
21.975000 1.163000
22.012800 1.167000
22.050700 1.205800
22.088600 1.270100
22.126500 1.366600
22.164300 1.428000
22.202200 1.478600
22.240100 1.484000
22.277900 1.476500
22.315800 1.440800
22.353700 1.441300
22.391600 1.438900
22.429400 1.462100
22.467300 1.465700
22.505200 1.469600
22.543100 1.464100
22.580900 1.462200
22.618800 1.460000
22.656700 1.449900
22.694600 1.355700
22.732400 1.242500
22.770300 1.172200
22.808200 1.164000
22.846100 1.217400
22.883900 1.256600
22.921800 1.270000
22.959700 1.174300
22.997500 1.105300
23.035400 1.066500
23.073300 1.018500
23.111200 1.058000
23.149000 1.079600
23.186900 1.124400
23.224800 1.202300
23.262700 1.222600
23.300500 1.256800
23.338400 1.271900
23.376300 1.294700
23.414200 1.467900
23.452000 1.551600
23.489900 1.424100
23.527800 1.338200
23.565600 1.374300
23.603500 1.405300
23.641400 1.373100
23.679300 1.352900
23.717100 1.319100
23.755000 1.313200
23.792900 1.318100
23.830800 1.323600
23.868600 1.333000
23.906500 1.283100
23.944400 1.243800
23.982300 1.246800
24.020100 1.284700
24.058000 1.385600
24.095900 1.541100
24.133800 1.795500
24.171600 1.800000
24.209500 1.677500
24.247400 1.487400
24.285200 1.439800
24.323100 1.474500
24.361000 1.499800
24.398900 1.524800
24.436700 1.575800
24.474600 1.648900
24.512500 1.430400
24.550400 1.484400
24.588200 1.718600
24.626100 1.640100
24.664000 1.425700
24.701900 1.361600
24.739700 1.343800
24.777600 1.425000
24.815500 1.383200
24.853400 1.378700
24.891200 1.428500
24.929100 1.482300
24.967000 1.525500
25.004800 1.488900
25.042700 1.452400
25.080600 1.414200
25.118500 1.399200
25.156300 1.386800
25.194200 1.380300
25.232100 1.367700
25.270000 1.316200
25.307800 1.269400
25.345700 1.225400
25.383600 1.201500
25.421500 1.217900
25.459300 1.240300
25.497200 1.296400
25.535100 1.328600
25.573000 1.352300
25.610800 1.412500
25.648700 1.493900
25.686600 1.546300
25.724400 1.570000
25.762300 1.617500
25.800200 1.693400
25.838100 1.714100
25.875900 1.696900
25.913800 1.592100
25.951700 1.542200
25.989600 1.486800
26.027400 1.428100
26.065300 1.378600
26.103200 1.385600
26.141100 1.429200
26.178900 1.496400
26.216800 1.378200
26.254700 1.169100
26.292600 1.159300
26.330400 1.162100
26.368300 1.235400
26.406200 1.270300
26.444000 1.360500
26.481900 1.330600
26.519800 1.313700
26.557700 1.302500
26.595500 1.292000
26.633400 1.326600
26.671300 1.398000
26.709200 1.443700
26.747000 1.439900
26.784900 1.470000
26.822800 1.500000
26.860700 1.441500
26.898500 1.326100
26.936400 1.330500
26.974300 1.343600
27.012100 1.378600
27.050000 1.405300
27.087900 1.484500
27.125800 1.497800
27.163600 1.507400
27.201500 1.496100
27.239400 1.493000
27.277300 1.455800
27.315100 1.445500
27.353000 1.439100
27.390900 1.451000
27.428800 1.486800
27.466600 1.503900
27.504500 1.545800
27.542400 1.578600
27.580300 1.560500
27.618100 1.545900
27.656000 1.536400
27.693900 1.495800
27.731700 1.438400
27.769600 1.369400
27.807500 1.334700
27.845400 1.318300
27.883200 1.316400
27.921100 1.315400
27.959000 1.371500
27.996900 1.425400
28.034700 1.465200
28.072600 1.474300
28.110500 1.458300
28.148400 1.467100
28.186200 1.529100
28.224100 1.447300
28.262000 1.409000
28.299900 1.463200
28.337700 1.482100
28.375600 1.525900
28.413500 1.585300
28.451300 1.638500
28.489200 1.676800
28.527100 1.683800
28.565000 1.692400
28.602800 1.698900
28.640700 1.680700
28.678600 1.644000
28.716500 1.625700
28.754300 1.624500
28.792200 1.629600
28.830100 1.617200
28.868000 1.631800
28.905800 1.624000
28.943700 1.591300
28.981600 1.602000
29.019500 1.625100
29.057300 1.534900
29.095200 1.525700
29.133100 1.629700
29.170900 1.657600
29.208800 1.939700
29.246700 1.824700
29.284600 1.732700
29.322400 1.604800
29.360300 1.615500
29.398200 1.708300
29.436100 1.676400
29.473900 1.659900
29.511800 1.631900
29.549700 1.619700
29.587600 1.599400
29.625400 1.605300
29.663300 1.476800
29.701200 1.481600
29.739100 1.432700
29.776900 1.436200
29.814800 1.442100
29.852700 1.465500
29.890500 1.499900
29.928400 1.467200
29.966300 1.446200
30.004200 1.363700
30.042000 1.282700
30.079900 1.239600
30.117800 1.194000
30.155700 1.147300
30.193500 1.127700
30.231400 1.101600
30.269300 1.092400
30.307200 1.121600
30.345000 1.183100
30.382900 1.219600
30.420800 1.213900
30.458600 1.204500
30.496500 1.211400
30.534400 1.229300
30.572300 1.206700
30.610100 1.161900
30.648000 1.104900
30.685900 1.117300
30.723800 1.228000
30.761600 1.075800
30.799500 1.018200
30.837400 0.893900
30.875300 0.832400
30.913100 0.822600
30.951000 0.795900
30.988900 0.750900
31.026800 0.702100
31.064600 0.658300
31.102500 0.612500
31.140400 0.549200
31.178200 0.501500
31.216100 0.459400
31.254000 0.404700
31.291900 0.363700
31.329700 0.330600
31.367600 0.304200
31.405500 0.279800
31.443400 0.262000
31.481200 0.243300
31.519100 0.226000
31.557000 0.213000
31.594900 0.204400
31.632700 0.198600
31.670600 0.193500
31.708500 0.189800
31.746400 0.188500
31.784200 0.187300
31.822100 0.186700
31.860000 0.192900
31.897800 0.205400
31.935700 0.205800
31.973600 0.184900
32.011500 0.163900
32.049300 0.154100
32.087200 0.147300
32.125100 0.144400
32.163000 0.144600
32.200800 0.148200
32.238700 0.155500
32.276600 0.160500
32.314500 0.177900
32.352300 0.169300
32.390200 0.161200
32.428100 0.151900
32.466000 0.141100
32.503800 0.132000
32.541700 0.121900
32.579600 0.094300
32.617400 0.055200
32.655300 0.037800
32.693200 0.027500
32.731100 0.019900
32.768900 0.013500
32.806800 0.005400
32.844700 0.000900
32.882600 0.000000
32.920400 0.000000
32.958300 0.000000
32.996200 0.000000
33.034100 0.000000
33.071900 0.000000
33.109800 0.000000
33.147700 0.000000
33.185500 0.000000
33.223400 0.000000
33.261300 0.000000
33.299200 0.000000
33.337000 0.000000
33.374900 0.000000
33.412800 0.000000
33.450700 0.000000
33.488500 0.000000
33.526400 0.000000
33.564300 0.000000
33.602200 0.000000
33.640000 0.000000
33.677900 0.000000
33.715800 0.000000
33.753700 0.000000
33.791500 0.000000
33.829400 0.000000
33.867300 0.000000
33.905100 0.000000
33.943000 0.000000
33.980900 0.000000
34.018800 0.000000
34.056600 0.000000
34.094500 0.000000
34.132400 0.000000
34.170300 0.000000
34.208100 0.000000
34.246000 0.000000
34.283900 0.000000
34.321800 0.000000
34.359600 0.000000
34.397500 0.000000
34.435400 0.000000
34.473300 0.000000
34.511100 0.000000
34.549000 0.000000
34.586900 0.000000
34.624700 0.000000
34.662600 0.000000
34.700500 0.000000
34.738400 0.000000
34.776200 0.000000
34.814100 0.000000
34.852000 0.000000
34.889900 0.000000
34.927700 0.000000
34.965600 0.000000
35.003500 0.000000
35.041400 0.000000
35.079200 0.000000
35.117100 0.000000
35.155000 0.000000
35.192900 0.000000
35.230700 0.000000
35.268600 0.000000
35.306500 0.000000
35.344300 0.000000
35.382200 0.000000
35.420100 0.000000
35.458000 0.000000
35.495800 0.000000
35.533700 0.000000
35.571600 0.000000
35.609500 0.000000
35.647300 0.000000
35.685200 0.000000
35.723100 0.000000
35.761000 0.000000
35.798800 0.000000
35.836700 0.000000
35.874600 0.000000
35.912500 0.000000
35.950300 0.000000
35.988200 0.000000
36.026100 0.000000
36.063900 0.000000
36.101800 0.000000
36.139700 0.000000
36.177600 0.000000
36.215400 0.000000
36.253300 0.000000
36.291200 0.000000
36.329100 0.000000
e
