set title 'mp-976870 - Density of States'
set xlabel 'Energy (eV)'
set ylabel 'DOS (states/eV)'
set grid
set xrange [-10:10]
set yrange [0:10.357]
set xzeroaxis lt -1
set terminal png size 800,600
set output 'mp-976870_dos_gnuplot.png'
plot '-' using 1:2 with lines title 'DOS'
-63.841800 0.000000
-63.778900 0.000000
-63.715900 0.000000
-63.653000 0.000000
-63.590100 0.000000
-63.527100 0.000000
-63.464200 0.000000
-63.401300 0.000000
-63.338300 0.000000
-63.275400 0.000000
-63.212500 0.000000
-63.149500 0.000000
-63.086600 0.000000
-63.023700 0.000000
-62.960700 0.000000
-62.897800 0.000000
-62.834900 0.000000
-62.771900 0.000000
-62.709000 0.000000
-62.646100 0.000000
-62.583100 0.000000
-62.520200 0.000000
-62.457300 0.000000
-62.394300 0.000000
-62.331400 0.000000
-62.268500 0.000000
-62.205500 0.000000
-62.142600 0.000000
-62.079700 0.000000
-62.016700 0.000000
-61.953800 0.000000
-61.890900 0.000000
-61.827900 0.000000
-61.765000 0.000000
-61.702100 0.000000
-61.639100 0.000000
-61.576200 0.000000
-61.513300 0.000000
-61.450300 0.000000
-61.387400 0.000000
-61.324500 0.000000
-61.261500 0.000000
-61.198600 0.000000
-61.135700 0.000000
-61.072700 0.000000
-61.009800 0.000000
-60.946900 0.000000
-60.883900 0.000000
-60.821000 0.000000
-60.758100 0.000000
-60.695100 0.000000
-60.632200 0.000000
-60.569300 0.000000
-60.506300 0.000000
-60.443400 0.000000
-60.380500 0.000000
-60.317500 0.000000
-60.254600 0.000000
-60.191700 0.000000
-60.128700 0.000000
-60.065800 0.000000
-60.002900 0.000000
-59.939900 0.000000
-59.877000 0.000000
-59.814100 0.000000
-59.751100 0.000000
-59.688200 0.000000
-59.625300 0.000000
-59.562300 0.000000
-59.499400 0.000000
-59.436500 0.000000
-59.373500 0.000000
-59.310600 0.000000
-59.247700 0.000000
-59.184700 0.000000
-59.121800 0.000000
-59.058900 0.000000
-58.995900 0.000000
-58.933000 0.000000
-58.870100 0.000000
-58.807200 0.000000
-58.744200 0.000000
-58.681300 0.000000
-58.618400 0.000000
-58.555400 0.000000
-58.492500 0.000000
-58.429600 0.000000
-58.366600 0.000000
-58.303700 0.000000
-58.240800 0.000000
-58.177800 0.000000
-58.114900 0.000000
-58.052000 0.000000
-57.989000 0.000000
-57.926100 0.000000
-57.863200 64.640900
-57.800200 0.000000
-57.737300 0.000000
-57.674400 0.000000
-57.611400 0.000000
-57.548500 0.000000
-57.485600 0.000000
-57.422600 0.000000
-57.359700 0.000000
-57.296800 0.000000
-57.233800 0.000000
-57.170900 0.000000
-57.108000 0.000000
-57.045000 0.000000
-56.982100 0.000000
-56.919200 0.000000
-56.856200 0.000000
-56.793300 0.000000
-56.730400 0.000000
-56.667400 0.000000
-56.604500 0.000000
-56.541600 0.000000
-56.478600 0.000000
-56.415700 0.000000
-56.352800 0.000000
-56.289800 0.000000
-56.226900 0.000000
-56.164000 0.000000
-56.101000 0.000000
-56.038100 0.000000
-55.975200 0.000000
-55.912200 0.000000
-55.849300 0.000000
-55.786400 0.000000
-55.723400 0.000000
-55.660500 0.000000
-55.597600 0.000000
-55.534600 0.000000
-55.471700 0.000000
-55.408800 0.000000
-55.345800 0.000000
-55.282900 0.000000
-55.220000 0.000000
-55.157000 0.000000
-55.094100 0.000000
-55.031200 0.000000
-54.968200 0.000000
-54.905300 0.000000
-54.842400 0.000000
-54.779400 0.000000
-54.716500 0.000000
-54.653600 0.000000
-54.590600 0.000000
-54.527700 0.000000
-54.464800 0.000000
-54.401800 0.000000
-54.338900 0.000000
-54.276000 0.000000
-54.213000 0.000000
-54.150100 0.000000
-54.087200 0.000000
-54.024200 0.000000
-53.961300 0.000000
-53.898400 0.000000
-53.835400 0.000000
-53.772500 0.000000
-53.709600 0.000000
-53.646600 0.000000
-53.583700 0.000000
-53.520800 0.000000
-53.457800 0.000000
-53.394900 0.000000
-53.332000 0.000000
-53.269000 0.000000
-53.206100 0.000000
-53.143200 0.000000
-53.080200 0.000000
-53.017300 0.000000
-52.954400 0.000000
-52.891400 0.000000
-52.828500 0.000000
-52.765600 0.000000
-52.702600 0.000000
-52.639700 0.000000
-52.576800 0.000000
-52.513800 0.000000
-52.450900 0.000000
-52.388000 0.000000
-52.325000 0.000000
-52.262100 0.000000
-52.199200 0.000000
-52.136200 0.000000
-52.073300 0.000000
-52.010400 0.000000
-51.947500 0.000000
-51.884500 0.000000
-51.821600 0.000000
-51.758700 0.000000
-51.695700 0.000000
-51.632800 0.000000
-51.569900 0.000000
-51.506900 0.000000
-51.444000 0.000000
-51.381100 0.000000
-51.318100 0.000000
-51.255200 0.000000
-51.192300 0.000000
-51.129300 0.000000
-51.066400 0.000000
-51.003500 0.000000
-50.940500 0.000000
-50.877600 0.000000
-50.814700 0.000000
-50.751700 0.000000
-50.688800 0.000000
-50.625900 0.000000
-50.562900 0.000000
-50.500000 0.000000
-50.437100 0.000000
-50.374100 0.000000
-50.311200 0.000000
-50.248300 0.000000
-50.185300 0.000000
-50.122400 0.000000
-50.059500 0.000000
-49.996500 0.000000
-49.933600 0.000000
-49.870700 0.000000
-49.807700 0.000000
-49.744800 0.000000
-49.681900 0.000000
-49.618900 0.000000
-49.556000 0.000000
-49.493100 0.000000
-49.430100 0.000000
-49.367200 0.000000
-49.304300 0.000000
-49.241300 0.000000
-49.178400 0.000000
-49.115500 0.000000
-49.052500 0.000000
-48.989600 0.000000
-48.926700 0.000000
-48.863700 0.000000
-48.800800 0.000000
-48.737900 0.000000
-48.674900 0.000000
-48.612000 0.000000
-48.549100 0.000000
-48.486100 0.000000
-48.423200 0.000000
-48.360300 0.000000
-48.297300 0.000000
-48.234400 0.000000
-48.171500 0.000000
-48.108500 0.000000
-48.045600 0.000000
-47.982700 0.000000
-47.919700 0.000000
-47.856800 0.000000
-47.793900 0.000000
-47.730900 0.000000
-47.668000 0.000000
-47.605100 0.000000
-47.542100 0.000000
-47.479200 0.000000
-47.416300 0.000000
-47.353300 0.000000
-47.290400 0.000000
-47.227500 0.000000
-47.164500 0.000000
-47.101600 0.000000
-47.038700 0.000000
-46.975700 0.000000
-46.912800 0.000000
-46.849900 0.000000
-46.786900 0.000000
-46.724000 0.000000
-46.661100 0.000000
-46.598100 0.000000
-46.535200 0.000000
-46.472300 0.000000
-46.409300 0.000000
-46.346400 0.000000
-46.283500 0.000000
-46.220500 0.000000
-46.157600 0.000000
-46.094700 0.000000
-46.031700 0.000000
-45.968800 0.000000
-45.905900 0.000000
-45.842900 0.000000
-45.780000 0.000000
-45.717100 0.000000
-45.654100 0.000000
-45.591200 0.000000
-45.528300 0.000000
-45.465300 0.000000
-45.402400 0.000000
-45.339500 0.000000
-45.276500 0.000000
-45.213600 0.000000
-45.150700 0.000000
-45.087700 0.000000
-45.024800 0.000000
-44.961900 0.000000
-44.899000 0.000000
-44.836000 0.000000
-44.773100 0.000000
-44.710200 0.000000
-44.647200 0.000000
-44.584300 0.000000
-44.521400 0.000000
-44.458400 0.000000
-44.395500 0.000000
-44.332600 0.000000
-44.269600 0.000000
-44.206700 0.000000
-44.143800 0.000000
-44.080800 0.000000
-44.017900 0.000000
-43.955000 0.000000
-43.892000 0.000000
-43.829100 0.000000
-43.766200 0.000000
-43.703200 0.000000
-43.640300 0.000000
-43.577400 0.000000
-43.514400 0.000000
-43.451500 0.000000
-43.388600 0.000000
-43.325600 0.000000
-43.262700 0.000000
-43.199800 0.000000
-43.136800 0.000000
-43.073900 0.000000
-43.011000 0.000000
-42.948000 0.000000
-42.885100 0.000000
-42.822200 0.000000
-42.759200 0.000000
-42.696300 0.000000
-42.633400 0.000000
-42.570400 0.000000
-42.507500 0.000000
-42.444600 0.000000
-42.381600 0.000000
-42.318700 0.000000
-42.255800 0.000000
-42.192800 0.000000
-42.129900 0.000000
-42.067000 0.000000
-42.004000 0.000000
-41.941100 0.000000
-41.878200 0.000000
-41.815200 0.000000
-41.752300 0.000000
-41.689400 0.000000
-41.626400 0.000000
-41.563500 0.000000
-41.500600 0.000000
-41.437600 0.000000
-41.374700 0.000000
-41.311800 0.000000
-41.248800 0.000000
-41.185900 0.000000
-41.123000 0.000000
-41.060000 0.000000
-40.997100 0.000000
-40.934200 0.000000
-40.871200 0.000000
-40.808300 0.000000
-40.745400 0.000000
-40.682400 0.000000
-40.619500 0.000000
-40.556600 0.000000
-40.493600 0.000000
-40.430700 0.000000
-40.367800 0.000000
-40.304800 0.000000
-40.241900 0.000000
-40.179000 0.000000
-40.116000 0.000000
-40.053100 0.000000
-39.990200 0.000000
-39.927200 0.000000
-39.864300 0.000000
-39.801400 0.000000
-39.738400 0.000000
-39.675500 0.000000
-39.612600 0.000000
-39.549600 0.000000
-39.486700 0.000000
-39.423800 0.000000
-39.360800 0.000000
-39.297900 0.000000
-39.235000 0.000000
-39.172000 0.000000
-39.109100 0.000000
-39.046200 0.000000
-38.983200 0.000000
-38.920300 0.000000
-38.857400 0.000000
-38.794400 0.000000
-38.731500 0.000000
-38.668600 0.000000
-38.605600 0.000000
-38.542700 0.000000
-38.479800 0.000000
-38.416800 0.000000
-38.353900 0.000000
-38.291000 0.000000
-38.228000 0.000000
-38.165100 0.000000
-38.102200 0.000000
-38.039200 0.000000
-37.976300 0.000000
-37.913400 0.000000
-37.850500 0.000000
-37.787500 0.000000
-37.724600 0.000000
-37.661700 0.000000
-37.598700 0.000000
-37.535800 0.000000
-37.472900 0.000000
-37.409900 0.000000
-37.347000 0.000000
-37.284100 0.000000
-37.221100 0.000000
-37.158200 0.000000
-37.095300 0.000000
-37.032300 0.000000
-36.969400 0.000000
-36.906500 0.000000
-36.843500 0.000000
-36.780600 0.000000
-36.717700 0.000000
-36.654700 0.000000
-36.591800 0.000000
-36.528900 0.000000
-36.465900 0.000000
-36.403000 0.000000
-36.340100 0.000000
-36.277100 0.000000
-36.214200 0.000000
-36.151300 0.000000
-36.088300 0.000000
-36.025400 0.000000
-35.962500 0.000000
-35.899500 0.000000
-35.836600 0.000000
-35.773700 0.000000
-35.710700 0.000000
-35.647800 0.000000
-35.584900 0.000000
-35.521900 0.000000
-35.459000 0.000000
-35.396100 0.000000
-35.333100 0.000000
-35.270200 0.000000
-35.207300 0.000000
-35.144300 0.000000
-35.081400 0.000000
-35.018500 0.000000
-34.955500 0.000000
-34.892600 0.000000
-34.829700 0.000000
-34.766700 0.000000
-34.703800 0.000000
-34.640900 0.000000
-34.577900 0.000000
-34.515000 0.000000
-34.452100 0.000000
-34.389100 0.000000
-34.326200 0.000000
-34.263300 0.000000
-34.200300 0.000000
-34.137400 0.000000
-34.074500 0.000000
-34.011500 0.000000
-33.948600 0.000000
-33.885700 0.000000
-33.822700 0.000000
-33.759800 0.000000
-33.696900 0.000000
-33.633900 0.000000
-33.571000 0.000000
-33.508100 0.000000
-33.445100 0.000000
-33.382200 0.000000
-33.319300 0.000000
-33.256300 0.000000
-33.193400 0.000000
-33.130500 0.000000
-33.067500 0.000000
-33.004600 0.000000
-32.941700 0.000000
-32.878700 0.000000
-32.815800 0.000000
-32.752900 0.000000
-32.689900 0.000000
-32.627000 0.000000
-32.564100 0.000000
-32.501100 0.000000
-32.438200 0.000000
-32.375300 0.000000
-32.312300 0.000000
-32.249400 0.000000
-32.186500 0.000000
-32.123500 0.000000
-32.060600 0.000000
-31.997700 0.000000
-31.934700 0.000000
-31.871800 0.000000
-31.808900 0.000000
-31.745900 0.000000
-31.683000 0.000000
-31.620100 0.000000
-31.557100 0.000000
-31.494200 0.000000
-31.431300 0.000000
-31.368300 0.000000
-31.305400 0.000000
-31.242500 0.000000
-31.179500 0.000000
-31.116600 0.000000
-31.053700 0.000000
-30.990800 0.000000
-30.927800 0.000000
-30.864900 0.000000
-30.802000 0.000000
-30.739000 0.000000
-30.676100 0.000000
-30.613200 0.000000
-30.550200 0.000000
-30.487300 0.000000
-30.424400 0.000000
-30.361400 0.000000
-30.298500 0.000000
-30.235600 0.000000
-30.172600 0.000000
-30.109700 0.000000
-30.046800 0.000000
-29.983800 0.000000
-29.920900 0.000000
-29.858000 0.000000
-29.795000 0.000000
-29.732100 0.000000
-29.669200 0.000000
-29.606200 0.000000
-29.543300 0.000000
-29.480400 0.000000
-29.417400 0.000000
-29.354500 0.000000
-29.291600 0.000000
-29.228600 0.000000
-29.165700 0.000000
-29.102800 0.000000
-29.039800 0.000000
-28.976900 0.000000
-28.914000 0.000000
-28.851000 0.000000
-28.788100 0.000000
-28.725200 0.000000
-28.662200 0.000000
-28.599300 0.000000
-28.536400 0.000000
-28.473400 0.000000
-28.410500 0.000000
-28.347600 0.000000
-28.284600 0.000000
-28.221700 0.000000
-28.158800 0.000000
-28.095800 0.000000
-28.032900 0.000000
-27.970000 0.000000
-27.907000 0.000000
-27.844100 0.000000
-27.781200 0.000000
-27.718200 0.000000
-27.655300 0.000000
-27.592400 0.000000
-27.529400 0.000000
-27.466500 0.000000
-27.403600 0.000000
-27.340600 0.000000
-27.277700 0.000000
-27.214800 0.000000
-27.151800 0.000000
-27.088900 0.000000
-27.026000 0.000000
-26.963000 0.000000
-26.900100 0.000000
-26.837200 0.000000
-26.774200 0.000000
-26.711300 0.000000
-26.648400 0.000000
-26.585400 0.000000
-26.522500 0.000000
-26.459600 0.000000
-26.396600 0.000000
-26.333700 0.000000
-26.270800 0.000000
-26.207800 0.000000
-26.144900 0.000000
-26.082000 0.000000
-26.019000 0.000000
-25.956100 0.000000
-25.893200 0.000000
-25.830200 0.000000
-25.767300 0.000000
-25.704400 0.000000
-25.641400 0.000000
-25.578500 0.000000
-25.515600 0.000000
-25.452600 0.000000
-25.389700 0.000000
-25.326800 0.000000
-25.263800 0.000000
-25.200900 0.000000
-25.138000 0.000000
-25.075000 0.000000
-25.012100 0.000000
-24.949200 0.000000
-24.886200 0.000000
-24.823300 0.000000
-24.760400 0.000000
-24.697400 0.000000
-24.634500 0.000000
-24.571600 0.000000
-24.508600 0.000000
-24.445700 0.000000
-24.382800 0.000000
-24.319800 0.000000
-24.256900 0.000000
-24.194000 0.000000
-24.131000 0.000000
-24.068100 0.000000
-24.005200 0.000000
-23.942300 0.000000
-23.879300 0.000000
-23.816400 0.000000
-23.753500 0.000000
-23.690500 0.000000
-23.627600 0.000000
-23.564700 0.000000
-23.501700 0.000000
-23.438800 0.000000
-23.375900 0.000000
-23.312900 0.000000
-23.250000 0.000000
-23.187100 0.000000
-23.124100 0.000000
-23.061200 0.000000
-22.998300 0.000000
-22.935300 0.000000
-22.872400 0.000000
-22.809500 0.000000
-22.746500 0.000000
-22.683600 0.000000
-22.620700 0.000000
-22.557700 0.000000
-22.494800 0.000000
-22.431900 0.000000
-22.368900 0.000000
-22.306000 0.000000
-22.243100 0.000000
-22.180100 0.000000
-22.117200 0.000000
-22.054300 0.000000
-21.991300 0.000000
-21.928400 0.000000
-21.865500 0.000000
-21.802500 0.000000
-21.739600 0.000000
-21.676700 0.000000
-21.613700 0.000000
-21.550800 0.000000
-21.487900 0.000000
-21.424900 0.000000
-21.362000 0.000000
-21.299100 0.000000
-21.236100 0.000000
-21.173200 0.000000
-21.110300 0.000000
-21.047300 0.000000
-20.984400 0.000000
-20.921500 0.000000
-20.858500 0.000000
-20.795600 0.000000
-20.732700 0.000000
-20.669700 0.000000
-20.606800 0.000000
-20.543900 0.000000
-20.480900 0.000000
-20.418000 0.000000
-20.355100 0.000000
-20.292100 0.000000
-20.229200 0.000000
-20.166300 0.000000
-20.103300 0.000000
-20.040400 0.000000
-19.977500 0.000000
-19.914500 0.000000
-19.851600 0.000000
-19.788700 0.000000
-19.725700 0.000000
-19.662800 0.000000
-19.599900 0.000000
-19.536900 0.000000
-19.474000 0.000000
-19.411100 0.000000
-19.348100 0.000000
-19.285200 0.000000
-19.222300 0.000000
-19.159300 0.000000
-19.096400 0.000000
-19.033500 0.000000
-18.970500 0.000000
-18.907600 0.000000
-18.844700 0.000000
-18.781700 0.000000
-18.718800 0.000000
-18.655900 0.000000
-18.592900 0.000000
-18.530000 0.000000
-18.467100 0.000000
-18.404100 0.000000
-18.341200 0.000000
-18.278300 0.000000
-18.215300 0.000000
-18.152400 0.000000
-18.089500 0.000000
-18.026500 0.000000
-17.963600 0.000000
-17.900700 0.000000
-17.837700 0.000000
-17.774800 0.000000
-17.711900 0.000000
-17.648900 0.000000
-17.586000 0.000000
-17.523100 0.000000
-17.460100 0.000000
-17.397200 0.000000
-17.334300 0.000000
-17.271300 0.000000
-17.208400 0.000000
-17.145500 0.000000
-17.082600 0.000000
-17.019600 0.000000
-16.956700 0.000000
-16.893800 0.000000
-16.830800 0.000000
-16.767900 0.000000
-16.705000 0.000000
-16.642000 0.000000
-16.579100 0.000000
-16.516200 0.000000
-16.453200 0.000000
-16.390300 0.000000
-16.327400 0.000000
-16.264400 0.000000
-16.201500 0.000000
-16.138600 0.000000
-16.075600 0.000000
-16.012700 0.000000
-15.949800 0.000000
-15.886800 0.000000
-15.823900 0.000000
-15.761000 0.000000
-15.698000 0.000000
-15.635100 0.000000
-15.572200 0.000000
-15.509200 0.000000
-15.446300 0.000000
-15.383400 0.000000
-15.320400 0.000000
-15.257500 0.000000
-15.194600 0.000000
-15.131600 0.000000
-15.068700 0.000000
-15.005800 0.000000
-14.942800 0.000000
-14.879900 0.000000
-14.817000 0.000000
-14.754000 0.000000
-14.691100 0.000000
-14.628200 0.000000
-14.565200 0.000000
-14.502300 0.000000
-14.439400 0.000000
-14.376400 0.000000
-14.313500 0.000000
-14.250600 0.000000
-14.187600 0.000000
-14.124700 0.000000
-14.061800 0.000000
-13.998800 0.000000
-13.935900 0.000000
-13.873000 0.000000
-13.810000 0.000000
-13.747100 0.000000
-13.684200 0.000000
-13.621200 0.000000
-13.558300 0.000000
-13.495400 0.000000
-13.432400 0.000000
-13.369500 0.000000
-13.306600 0.000000
-13.243600 0.000000
-13.180700 0.000000
-13.117800 0.000000
-13.054800 0.000000
-12.991900 0.000000
-12.929000 0.000000
-12.866000 0.000000
-12.803100 0.000000
-12.740200 0.000000
-12.677200 0.000000
-12.614300 0.000000
-12.551400 0.000000
-12.488400 0.000000
-12.425500 0.000000
-12.362600 0.000000
-12.299600 0.000000
-12.236700 0.000000
-12.173800 0.000000
-12.110800 0.000000
-12.047900 0.000000
-11.985000 0.000000
-11.922000 0.000000
-11.859100 0.000000
-11.796200 0.000000
-11.733200 0.000000
-11.670300 0.000000
-11.607400 0.000000
-11.544400 0.000000
-11.481500 0.000000
-11.418600 0.000000
-11.355600 0.000000
-11.292700 0.000000
-11.229800 0.000000
-11.166800 0.000000
-11.103900 0.000000
-11.041000 0.000000
-10.978000 0.000000
-10.915100 0.000000
-10.852200 0.000000
-10.789200 0.000000
-10.726300 0.000000
-10.663400 0.000000
-10.600400 0.000000
-10.537500 0.000000
-10.474600 0.000000
-10.411600 0.000000
-10.348700 0.000000
-10.285800 0.000000
-10.222800 0.000000
-10.159900 0.000000
-10.097000 0.000000
-10.034100 0.000000
-9.971100 0.000000
-9.908200 0.000000
-9.845300 0.000000
-9.782300 0.000000
-9.719400 0.000000
-9.656500 0.000000
-9.593500 0.000000
-9.530600 0.000000
-9.467700 0.000000
-9.404700 0.000000
-9.341800 0.000000
-9.278900 0.000000
-9.215900 0.000000
-9.153000 0.000000
-9.090100 0.000000
-9.027100 0.000000
-8.964200 0.000000
-8.901300 0.000000
-8.838300 0.000000
-8.775400 0.000000
-8.712500 0.000000
-8.649500 0.000000
-8.586600 0.000000
-8.523700 0.000000
-8.460700 0.000000
-8.397800 0.000000
-8.334900 0.000000
-8.271900 0.000000
-8.209000 0.000000
-8.146100 0.000000
-8.083100 0.000000
-8.020200 0.000000
-7.957300 0.000000
-7.894300 0.000000
-7.831400 0.000000
-7.768500 0.000000
-7.705500 0.000000
-7.642600 0.000000
-7.579700 0.000000
-7.516700 0.000000
-7.453800 0.000000
-7.390900 0.000000
-7.327900 0.000000
-7.265000 0.000000
-7.202100 0.000000
-7.139100 0.000000
-7.076200 0.000000
-7.013300 0.000000
-6.950300 0.000000
-6.887400 0.000000
-6.824500 0.000000
-6.761500 0.000000
-6.698600 0.000000
-6.635700 0.000000
-6.572700 0.000000
-6.509800 0.000000
-6.446900 0.000000
-6.383900 0.000000
-6.321000 0.000000
-6.258100 0.000000
-6.195100 0.000000
-6.132200 0.000000
-6.069300 0.000000
-6.006300 0.000000
-5.943400 0.000000
-5.880500 0.000000
-5.817500 0.000000
-5.754600 0.000000
-5.691700 0.000000
-5.628700 0.000000
-5.565800 0.000000
-5.502900 0.000000
-5.439900 0.000000
-5.377000 0.000000
-5.314100 0.000000
-5.251100 0.000000
-5.188200 0.000000
-5.125300 0.000000
-5.062300 0.000000
-4.999400 0.000000
-4.936500 0.000000
-4.873500 0.000000
-4.810600 0.000000
-4.747700 0.000000
-4.684700 0.000000
-4.621800 0.000000
-4.558900 0.000000
-4.495900 0.000000
-4.433000 0.000000
-4.370100 0.000000
-4.307100 0.000000
-4.244200 0.000000
-4.181300 0.000000
-4.118300 0.000000
-4.055400 0.000000
-3.992500 0.000000
-3.929500 0.000000
-3.866600 0.000000
-3.803700 0.000000
-3.740700 0.000000
-3.677800 0.000000
-3.614900 0.000000
-3.551900 0.000000
-3.489000 0.000000
-3.426100 0.000000
-3.363100 0.000000
-3.300200 0.000000
-3.237300 0.000000
-3.174300 0.000000
-3.111400 0.000000
-3.048500 0.000000
-2.985600 0.000000
-2.922600 0.000000
-2.859700 0.000000
-2.796800 0.000000
-2.733800 0.000000
-2.670900 0.000000
-2.608000 0.000000
-2.545000 0.000000
-2.482100 0.000000
-2.419200 0.000000
-2.356200 0.000000
-2.293300 0.000000
-2.230400 0.000000
-2.167400 0.000000
-2.104500 0.000000
-2.041600 0.000000
-1.978600 0.000000
-1.915700 0.000000
-1.852800 0.000000
-1.789800 0.000000
-1.726900 0.000100
-1.664000 0.027100
-1.601000 0.048300
-1.538100 0.061700
-1.475200 0.075300
-1.412200 0.087500
-1.349300 0.094000
-1.286400 0.103800
-1.223400 0.111200
-1.160500 0.119400
-1.097600 0.129200
-1.034600 0.136100
-0.971700 0.142900
-0.908800 0.148800
-0.845800 0.155100
-0.782900 0.162600
-0.720000 0.170300
-0.657000 0.178600
-0.594100 0.185100
-0.531200 0.191000
-0.468200 0.197200
-0.405300 0.203900
-0.342400 0.211100
-0.279400 0.218500
-0.216500 0.226000
-0.153600 0.233800
-0.090600 0.241800
-0.027700 0.249500
0.035200 0.257600
0.098200 0.266200
0.161100 0.275100
0.224000 0.284400
0.287000 0.294700
0.349900 0.306200
0.412800 0.319500
0.475800 0.338300
0.538700 0.354600
0.601600 0.368000
0.664600 0.375100
0.727500 0.384600
0.790400 0.397100
0.853400 0.421200
0.916300 0.462000
0.979200 0.490300
1.042200 0.505100
1.105100 0.495000
1.168000 0.516200
1.231000 0.479200
1.293900 0.452700
1.356800 0.438700
1.419800 0.423100
1.482700 0.410600
1.545600 0.371100
1.608600 0.358900
1.671500 0.367200
1.734400 0.369300
1.797400 0.402200
1.860300 0.606000
1.923200 0.546100
1.986200 0.670900
2.049100 1.305700
2.112000 1.508000
2.175000 1.938100
2.237900 1.539700
2.300800 1.443500
2.363800 2.009300
2.426700 2.271200
2.489600 2.446800
2.552600 3.074500
2.615500 3.727100
2.678400 4.673100
2.741400 5.807800
2.804300 6.977300
2.867200 6.771300
2.930200 7.391800
2.993100 5.757200
3.056000 5.169000
3.119000 5.367900
3.181900 4.391500
3.244800 3.953800
3.307800 4.386100
3.370700 4.312400
3.433600 4.223000
3.496600 3.868700
3.559500 3.120400
3.622400 4.322500
3.685400 6.174800
3.748300 4.553400
3.811200 6.725800
3.874100 5.248100
3.937100 5.348800
4.000000 6.275600
4.062900 4.966700
4.125900 4.716400
4.188800 4.919600
4.251700 7.891800
4.314700 5.264200
4.377600 5.166500
4.440500 8.799800
4.503500 9.415900
4.566400 7.311900
4.629300 6.055400
4.692300 5.215700
4.755200 4.283600
4.818100 3.869200
4.881100 3.389300
4.944000 6.274200
5.006900 5.973000
5.069900 2.003800
5.132800 1.242000
5.195700 1.065500
5.258700 1.123700
5.321600 1.323100
5.384500 0.984600
5.447500 0.917800
5.510400 0.915200
5.573300 0.765300
5.636300 0.701300
5.699200 0.681300
5.762100 0.640100
5.825100 0.587300
5.888000 0.540900
5.950900 0.523300
6.013900 0.504100
6.076800 0.502300
6.139700 0.485000
6.202700 0.483900
6.265600 0.478600
6.328500 0.515400
6.391500 0.469200
6.454400 0.467700
6.517300 0.480400
6.580300 0.522500
6.643200 0.562200
6.706100 0.577800
6.769100 0.600800
6.832000 0.638000
6.894900 0.704800
6.957900 0.653200
7.020800 0.640200
7.083700 0.609900
7.146700 0.607900
7.209600 0.602800
7.272500 0.605500
7.335500 0.605500
7.398400 0.601100
7.461300 0.598000
7.524300 0.600200
7.587200 0.588700
7.650100 0.579500
7.713100 0.576100
7.776000 0.572800
7.838900 0.568200
7.901900 0.567400
7.964800 0.570100
8.027700 0.575300
8.090700 0.590200
8.153600 0.597100
8.216500 0.596600
8.279500 0.590200
8.342400 0.555100
8.405300 0.524400
8.468300 0.498900
8.531200 0.480900
8.594100 0.462700
8.657100 0.447000
8.720000 0.433100
8.782900 0.423100
8.845900 0.451600
8.908800 0.393700
8.971700 0.361000
9.034700 0.345000
9.097600 0.337300
9.160500 0.332100
9.223500 0.327900
9.286400 0.328600
9.349300 0.336700
9.412300 0.350600
9.475200 0.366900
9.538100 0.374400
9.601100 0.373700
9.664000 0.385000
9.726900 0.390600
9.789900 0.399400
9.852800 0.430500
9.915700 0.476200
9.978700 0.531200
10.041600 0.536900
10.104500 0.539200
10.167500 0.551600
10.230400 0.565900
10.293300 0.599500
10.356300 0.644900
10.419200 0.713600
10.482100 0.750100
10.545100 0.733900
10.608000 0.682700
10.670900 0.611100
10.733900 0.537200
10.796800 0.500500
10.859700 0.471100
10.922600 0.435100
10.985600 0.400300
11.048500 0.379000
11.111400 0.375100
11.174400 0.393700
11.237300 0.421900
11.300200 0.458600
11.363200 0.514400
11.426100 0.605200
11.489000 0.638300
11.552000 0.600100
11.614900 0.617600
11.677800 0.613700
11.740800 0.630000
11.803700 0.613400
11.866600 0.593200
11.929600 0.571100
11.992500 0.545400
12.055400 0.515000
12.118400 0.491900
12.181300 0.474700
12.244200 0.475900
12.307200 0.470600
12.370100 0.466400
12.433000 0.464500
12.496000 0.490300
12.558900 0.493500
12.621800 0.497700
12.684800 0.506900
12.747700 0.550600
12.810600 0.585400
12.873600 0.591300
12.936500 0.589100
12.999400 0.603300
13.062400 0.597300
13.125300 0.600100
13.188200 0.600000
13.251200 0.597400
13.314100 0.595900
13.377000 0.600900
13.440000 0.602200
13.502900 0.610500
13.565800 0.613300
13.628800 0.623200
13.691700 0.634400
13.754600 0.640900
13.817600 0.625300
13.880500 0.596100
13.943400 0.583900
14.006400 0.575700
14.069300 0.567000
14.132200 0.571600
14.195200 0.593200
14.258100 0.627900
14.321000 0.642000
14.384000 0.673700
14.446900 0.664900
14.509800 0.647000
14.572800 0.625700
14.635700 0.594300
14.698600 0.562200
14.761600 0.522700
14.824500 0.518400
14.887400 0.520400
14.950400 0.506500
15.013300 0.496200
15.076200 0.519500
15.139200 0.556400
15.202100 0.566500
15.265000 0.574500
15.328000 0.576700
15.390900 0.588400
15.453800 0.635500
15.516800 0.663600
15.579700 0.700200
15.642600 0.728700
15.705600 0.758500
15.768500 0.803800
15.831400 0.822000
15.894400 0.853100
15.957300 0.769800
16.020200 0.705700
16.083200 0.670600
16.146100 0.667500
16.209000 0.666800
16.272000 0.692500
16.334900 0.716000
16.397800 0.752200
16.460800 0.768800
16.523700 0.803200
16.586600 0.837800
16.649600 0.891900
16.712500 0.951700
16.775400 0.967700
16.838400 0.994300
16.901300 0.979100
16.964200 0.971500
17.027200 0.964800
17.090100 0.968000
17.153000 0.971300
17.216000 0.903600
17.278900 0.833100
17.341800 0.751800
17.404800 0.677600
17.467700 0.615300
17.530600 0.612600
17.593600 0.625600
17.656500 0.650900
17.719400 0.669100
17.782300 0.698900
17.845300 0.753600
17.908200 0.815900
17.971100 0.869900
18.034100 0.895200
18.097000 0.923900
18.159900 0.933800
18.222900 0.908400
18.285800 0.868000
18.348700 0.796100
18.411700 0.803500
18.474600 0.849300
18.537500 0.875400
18.600500 0.973400
18.663400 1.013300
18.726300 1.085000
18.789300 1.114300
18.852200 1.072100
18.915100 0.990300
18.978100 0.897000
19.041000 0.862000
19.103900 0.846600
19.166900 0.871700
19.229800 0.895700
19.292700 0.925100
19.355700 0.927200
19.418600 0.913400
19.481500 0.902100
19.544500 0.909200
19.607400 0.889900
19.670300 0.869600
19.733300 0.842600
19.796200 0.815900
19.859100 0.811100
19.922100 0.727100
19.985000 0.652000
20.047900 0.621300
20.110900 0.596600
20.173800 0.582400
20.236700 0.577100
20.299700 0.602600
20.362600 0.631300
20.425500 0.698400
20.488500 0.804300
20.551400 0.918800
20.614300 0.907200
20.677300 0.857000
20.740200 0.838000
20.803100 0.862300
20.866100 0.884800
20.929000 0.875000
20.991900 0.925500
21.054900 0.917200
21.117800 0.908000
21.180700 0.877300
21.243700 0.885300
21.306600 0.920700
21.369500 0.958500
21.432500 1.021800
21.495400 0.949800
21.558300 0.894100
21.621300 0.813000
21.684200 0.788200
21.747100 0.765600
21.810100 0.754800
21.873000 0.751000
21.935900 0.764500
21.998900 0.802800
22.061800 0.853600
22.124700 0.949500
22.187700 1.043200
22.250600 1.013200
22.313500 0.998300
22.376500 0.984700
22.439400 0.973600
22.502300 0.910000
22.565300 0.874100
22.628200 0.839800
22.691100 0.844400
22.754100 0.873100
22.817000 0.845100
22.879900 0.860000
22.942900 0.884300
23.005800 0.896100
23.068700 0.861300
23.131700 0.844300
23.194600 0.813200
23.257500 0.804500
23.320500 0.783900
23.383400 0.777200
23.446300 0.796800
23.509300 0.777200
23.572200 0.769000
23.635100 0.775100
23.698100 0.786000
23.761000 0.801800
23.823900 0.820900
23.886900 0.907200
23.949800 0.802600
24.012700 0.833600
24.075700 0.793300
24.138600 0.793700
24.201500 0.802700
24.264500 0.820200
24.327400 0.865400
24.390300 0.952400
24.453300 0.907100
24.516200 0.887400
24.579100 0.880000
24.642100 0.874200
24.705000 0.868500
24.767900 0.859500
24.830800 0.878600
24.893800 0.890600
24.956700 0.875400
25.019600 0.847100
25.082600 0.806100
25.145500 0.811700
25.208400 0.825800
25.271400 0.849200
25.334300 0.893700
25.397200 0.906200
25.460200 0.885400
25.523100 0.892400
25.586000 0.907200
25.649000 0.924000
25.711900 0.947900
25.774800 0.966800
25.837800 1.005300
25.900700 1.042200
25.963600 1.018700
26.026600 0.979500
26.089500 0.961300
26.152400 0.920800
26.215400 0.892200
26.278300 0.889800
26.341200 0.905200
26.404200 0.931800
26.467100 0.938700
26.530000 0.951900
26.593000 0.984900
26.655900 1.031600
26.718800 1.041500
26.781800 1.068200
26.844700 1.052200
26.907600 1.065500
26.970600 1.046700
27.033500 1.048900
27.096400 1.070200
27.159400 1.082500
27.222300 1.114200
27.285200 1.140100
27.348200 1.156600
27.411100 1.120500
27.474000 1.128800
27.537000 1.116600
27.599900 1.112900
27.662800 1.101300
27.725800 1.086800
27.788700 1.091800
27.851600 1.066800
27.914600 1.031700
27.977500 1.011400
28.040400 0.957400
28.103400 0.920500
28.166300 0.908100
28.229200 0.913900
28.292200 0.955600
28.355100 0.970800
28.418000 0.993100
28.481000 1.024600
28.543900 1.132700
28.606800 1.056900
28.669800 0.992800
28.732700 0.925100
28.795600 0.912600
28.858600 0.972900
28.921500 1.062200
28.984400 1.166900
29.047400 1.168400
29.110300 1.100200
29.173200 1.078300
29.236200 1.042300
29.299100 1.002800
29.362000 0.970300
29.425000 1.075400
29.487900 1.039800
29.550800 1.055200
29.613800 1.079600
29.676700 1.087300
29.739600 1.067100
29.802600 1.006500
29.865500 0.987600
29.928400 0.964400
29.991400 0.940700
30.054300 0.948700
30.117200 0.988500
30.180200 0.991300
30.243100 1.014500
30.306000 1.017200
30.369000 0.951000
30.431900 0.920300
30.494800 0.923900
30.557800 0.961100
30.620700 0.923600
30.683600 0.855800
30.746600 0.806900
30.809500 0.774400
30.872400 0.778400
30.935400 0.759100
30.998300 0.788400
31.061200 0.826800
31.124200 0.851200
31.187100 0.889600
31.250000 0.912600
31.313000 1.014800
31.375900 1.079600
31.438800 1.061500
31.501800 1.077700
31.564700 1.065000
31.627600 1.085700
31.690600 1.110000
31.753500 1.157900
31.816400 1.127900
31.879300 1.115700
31.942300 1.051600
32.005200 1.014500
32.068100 0.980300
32.131100 0.983100
32.194000 1.033200
32.256900 1.076300
32.319900 1.121800
32.382800 1.175100
32.445700 1.206000
32.508700 1.223300
32.571600 1.228100
32.634500 1.205600
32.697500 1.166600
32.760400 1.121300
32.823300 1.079700
32.886300 1.068600
32.949200 1.105000
33.012100 1.127500
33.075100 1.171200
33.138000 1.240400
33.200900 1.249100
33.263900 1.257400
33.326800 1.250000
33.389700 1.235000
33.452700 1.215800
33.515600 1.178200
33.578500 1.130300
33.641500 1.068700
33.704400 1.040200
33.767300 0.981500
33.830300 0.966400
33.893200 0.954200
33.956100 0.938600
34.019100 0.941000
34.082000 0.953200
34.144900 0.962600
34.207900 0.940800
34.270800 0.920200
34.333700 0.917800
34.396700 0.920500
34.459600 0.946900
34.522500 1.012300
34.585500 1.091200
34.648400 1.092500
34.711300 1.028500
34.774300 0.948700
34.837200 0.907200
34.900100 0.899800
34.963100 0.895000
35.026000 0.893900
35.088900 0.879500
35.151900 0.880100
35.214800 0.902100
35.277700 0.945100
35.340700 0.986600
35.403600 1.029200
35.466500 1.064700
35.529500 1.154300
35.592400 1.173800
35.655300 1.226000
35.718300 1.229900
35.781200 1.239700
35.844100 1.231100
35.907100 1.287600
35.970000 1.273900
36.032900 1.229400
36.095900 1.139600
36.158800 1.138500
36.221700 1.140600
36.284700 1.196100
36.347600 1.122700
36.410500 1.135400
36.473500 1.141900
36.536400 1.183500
36.599300 1.215800
36.662300 1.231800
36.725200 1.170300
36.788100 1.101100
36.851100 1.074000
36.914000 1.036500
36.976900 1.022400
37.039900 1.035000
37.102800 1.056900
37.165700 1.069200
37.228700 1.083200
37.291600 1.070600
37.354500 1.064700
37.417500 1.040600
37.480400 1.019100
37.543300 1.009100
37.606300 1.026500
37.669200 1.058900
37.732100 1.103800
37.795100 1.130900
37.858000 1.153700
37.920900 1.194800
37.983900 1.167800
38.046800 1.118100
38.109700 1.066700
38.172700 1.067100
38.235600 1.107700
38.298500 1.151100
38.361500 1.155700
38.424400 1.146400
38.487300 1.167800
38.550300 1.252800
38.613200 1.225500
38.676100 1.182200
38.739000 1.154300
38.802000 1.128200
38.864900 1.097700
38.927800 1.097600
38.990800 1.124700
39.053700 1.167100
39.116600 1.272900
39.179600 1.377400
39.242500 1.330700
39.305400 1.174500
39.368400 1.139100
39.431300 1.157300
39.494200 1.127900
39.557200 1.145100
39.620100 1.273200
39.683000 1.309900
39.746000 1.183400
39.808900 1.154600
39.871800 1.095500
39.934800 1.074100
39.997700 1.062900
40.060600 1.100800
40.123600 1.151700
40.186500 1.156900
40.249400 1.159100
40.312400 1.132900
40.375300 1.168700
40.438200 1.175000
40.501200 1.181800
40.564100 1.222400
40.627000 1.303600
40.690000 1.346200
40.752900 1.401400
40.815800 1.461200
40.878800 1.517500
40.941700 1.606800
41.004600 1.666600
41.067600 1.817600
41.130500 2.059300
41.193400 2.299200
41.256400 3.391800
41.319300 4.017400
41.382200 2.533800
41.445200 1.836100
41.508100 1.686300
41.571000 1.574300
41.634000 1.511200
41.696900 1.489600
41.759800 1.506900
41.822800 1.544700
41.885700 1.562200
41.948600 1.459500
42.011600 1.419100
42.074500 1.355000
42.137400 1.311400
42.200400 1.314800
42.263300 1.374200
42.326200 1.480900
42.389200 1.666500
42.452100 1.920300
42.515000 2.220200
42.578000 2.657200
42.640900 3.120000
42.703800 3.651500
42.766800 4.754800
42.829700 4.622000
42.892600 4.944300
42.955600 5.164500
43.018500 6.227500
43.081400 5.860500
43.144400 4.553100
43.207300 3.676300
43.270200 3.025700
43.333200 2.580800
43.396100 2.165000
43.459000 1.902700
43.522000 1.727400
43.584900 1.603900
43.647800 1.588000
43.710800 1.491000
43.773700 1.463600
43.836600 1.439200
43.899600 1.375400
43.962500 1.304800
44.025400 1.257100
44.088400 1.189000
44.151300 1.152600
44.214200 1.135500
44.277200 1.160400
44.340100 1.212000
44.403000 1.275600
44.466000 1.345800
44.528900 1.355800
44.591800 1.366900
44.654800 1.376800
44.717700 1.382500
44.780600 1.392200
44.843600 1.354000
44.906500 1.306300
44.969400 1.246700
45.032400 1.204000
45.095300 1.221100
45.158200 1.301700
45.221200 1.341700
45.284100 1.368000
45.347000 1.272800
45.410000 1.196200
45.472900 1.148200
45.535800 1.140800
45.598800 1.147900
45.661700 1.143300
45.724600 1.147900
45.787500 1.243800
45.850500 1.260800
45.913400 1.261800
45.976300 1.249300
46.039300 1.234600
46.102200 1.242800
46.165100 1.263800
46.228100 1.249600
46.291000 1.283100
46.353900 1.272800
46.416900 1.242400
46.479800 1.240100
46.542700 1.229600
46.605700 1.255100
46.668600 1.273900
46.731500 1.346900
46.794500 1.308600
46.857400 1.278000
46.920300 1.238300
46.983300 1.238900
47.046200 1.277100
47.109100 1.244800
47.172100 1.228600
47.235000 1.208700
47.297900 1.213300
47.360900 1.221700
47.423800 1.259200
47.486700 1.342700
47.549700 1.382300
47.612600 1.413700
47.675500 1.356800
47.738500 1.343300
47.801400 1.340700
47.864300 1.338800
47.927300 1.419300
47.990200 1.381600
48.053100 1.374400
48.116100 1.310600
48.179000 1.294400
48.241900 1.262300
48.304900 1.235200
48.367800 1.216000
48.430700 1.193200
48.493700 1.203300
48.556600 1.279200
48.619500 1.247400
48.682500 1.277000
48.745400 1.319000
48.808300 1.405900
48.871300 1.465000
48.934200 1.522500
48.997100 1.576200
49.060100 1.617200
49.123000 1.629000
49.185900 1.568000
49.248900 1.530900
49.311800 1.423500
49.374700 1.403300
49.437700 1.379800
49.500600 1.345100
49.563500 1.261400
49.626500 1.278700
49.689400 1.347300
49.752300 1.424200
49.815300 1.406600
49.878200 1.341300
49.941100 1.235400
50.004100 1.291600
50.067000 1.293300
50.129900 1.358300
50.192900 1.412900
50.255800 1.453500
50.318700 1.462800
50.381700 1.470600
50.444600 1.445900
50.507500 1.389300
50.570500 1.350000
50.633400 1.308100
50.696300 1.260100
50.759300 1.212600
50.822200 1.198300
50.885100 1.197400
50.948100 1.242300
51.011000 1.220100
51.073900 1.207300
51.136900 1.209000
51.199800 1.237100
51.262700 1.268900
51.325700 1.293300
51.388600 1.293000
51.451500 1.361500
51.514500 1.423400
51.577400 1.419000
51.640300 1.417200
51.703300 1.411400
51.766200 1.410600
51.829100 1.406500
51.892100 1.384400
51.955000 1.392100
52.017900 1.410200
52.080900 1.401700
52.143800 1.419200
52.206700 1.495700
52.269700 1.494800
52.332600 1.316200
52.395500 1.232400
52.458500 1.232300
52.521400 1.251100
52.584300 1.240400
52.647200 1.291300
52.710200 1.373900
52.773100 1.481200
52.836000 1.498300
52.899000 1.517500
52.961900 1.530800
53.024800 1.506500
53.087800 1.437200
53.150700 1.302200
53.213600 1.227500
53.276600 1.247400
53.339500 1.247900
53.402400 1.284500
53.465400 1.353900
53.528300 1.392800
53.591200 1.372500
53.654200 1.315000
53.717100 1.248100
53.780000 1.155800
53.843000 1.100900
53.905900 1.057200
53.968800 1.009900
54.031800 1.028300
54.094700 0.989100
54.157600 0.884300
54.220600 0.798600
54.283500 0.729600
54.346400 0.644700
54.409400 0.623400
54.472300 0.589500
54.535200 0.507900
54.598200 0.429100
54.661100 0.371600
54.724000 0.327300
54.787000 0.294600
54.849900 0.263700
54.912800 0.235800
54.975800 0.211100
55.038700 0.191500
55.101600 0.187800
55.164600 0.163200
55.227500 0.111600
55.290400 0.087900
55.353400 0.070400
55.416300 0.056000
55.479200 0.044400
55.542200 0.036100
55.605100 0.031300
55.668000 0.026900
55.731000 0.022800
55.793900 0.019100
55.856800 0.015600
55.919800 0.012300
55.982700 0.009600
56.045600 0.007400
56.108600 0.005400
56.171500 0.003700
56.234400 0.002200
56.297400 0.000000
56.360300 0.000000
56.423200 0.000000
56.486200 0.000000
56.549100 0.000000
56.612000 0.000000
56.675000 0.000000
56.737900 0.000000
56.800800 0.000000
56.863800 0.000000
56.926700 0.000000
56.989600 0.000000
57.052600 0.000000
57.115500 0.000000
57.178400 0.000000
57.241400 0.000000
57.304300 0.000000
57.367200 0.000000
57.430200 0.000000
57.493100 0.000000
57.556000 0.000000
57.619000 0.000000
57.681900 0.000000
57.744800 0.000000
57.807800 0.000000
57.870700 0.000000
57.933600 0.000000
57.996600 0.000000
58.059500 0.000000
58.122400 0.000000
58.185400 0.000000
58.248300 0.000000
58.311200 0.000000
58.374200 0.000000
58.437100 0.000000
58.500000 0.000000
58.563000 0.000000
58.625900 0.000000
58.688800 0.000000
58.751800 0.000000
58.814700 0.000000
58.877600 0.000000
58.940600 0.000000
59.003500 0.000000
59.066400 0.000000
59.129400 0.000000
59.192300 0.000000
59.255200 0.000000
59.318200 0.000000
59.381100 0.000000
59.444000 0.000000
59.507000 0.000000
59.569900 0.000000
59.632800 0.000000
59.695700 0.000000
59.758700 0.000000
59.821600 0.000000
59.884500 0.000000
59.947500 0.000000
60.010400 0.000000
60.073300 0.000000
60.136300 0.000000
60.199200 0.000000
60.262100 0.000000
60.325100 0.000000
60.388000 0.000000
60.450900 0.000000
60.513900 0.000000
60.576800 0.000000
60.639700 0.000000
60.702700 0.000000
60.765600 0.000000
60.828500 0.000000
60.891500 0.000000
60.954400 0.000000
61.017300 0.000000
61.080300 0.000000
61.143200 0.000000
61.206100 0.000000
61.269100 0.000000
61.332000 0.000000
61.394900 0.000000
61.457900 0.000000
61.520800 0.000000
61.583700 0.000000
61.646700 0.000000
61.709600 0.000000
61.772500 0.000000
61.835500 0.000000
61.898400 0.000000
61.961300 0.000000
62.024300 0.000000
e
