set title 'mp-13497 - Density of States'
set xlabel 'Energy (eV)'
set ylabel 'DOS (states/eV)'
set grid
set xrange [-10:10]
set yrange [0:8.479]
set xzeroaxis lt -1
set terminal png size 800,600
set output 'mp-13497_dos_gnuplot.png'
plot '-' using 1:2 with lines title 'DOS'
-43.827800 0.000000
-43.780400 0.000000
-43.733000 0.000000
-43.685600 0.000000
-43.638300 0.000000
-43.590900 0.000000
-43.543500 0.000000
-43.496100 0.000000
-43.448700 0.000000
-43.401300 0.000000
-43.353900 0.000000
-43.306600 0.000000
-43.259200 0.000000
-43.211800 0.000000
-43.164400 0.000000
-43.117000 0.000000
-43.069600 0.000000
-43.022200 0.000000
-42.974900 0.000000
-42.927500 0.000000
-42.880100 0.000000
-42.832700 0.000000
-42.785300 0.000000
-42.737900 0.000000
-42.690500 0.000000
-42.643200 0.000000
-42.595800 0.000000
-42.548400 0.000000
-42.501000 0.000000
-42.453600 0.000000
-42.406200 0.000000
-42.358800 0.000000
-42.311500 0.000000
-42.264100 0.000000
-42.216700 0.000000
-42.169300 0.000000
-42.121900 0.000000
-42.074500 0.000000
-42.027100 0.000000
-41.979800 0.000000
-41.932400 0.000000
-41.885000 0.000000
-41.837600 0.000000
-41.790200 0.000000
-41.742800 0.000000
-41.695400 0.000000
-41.648100 0.000000
-41.600700 0.000000
-41.553300 0.000000
-41.505900 0.000000
-41.458500 0.000000
-41.411100 0.000000
-41.363700 0.000000
-41.316300 0.000000
-41.269000 0.000000
-41.221600 0.000000
-41.174200 0.000000
-41.126800 0.000000
-41.079400 0.000000
-41.032000 0.000000
-40.984600 0.000000
-40.937300 0.000000
-40.889900 0.000000
-40.842500 0.000000
-40.795100 0.000000
-40.747700 0.000000
-40.700300 0.000000
-40.652900 0.000000
-40.605600 0.000000
-40.558200 0.000000
-40.510800 0.000000
-40.463400 0.000000
-40.416000 0.000000
-40.368600 0.000000
-40.321200 0.000000
-40.273900 0.000000
-40.226500 0.000000
-40.179100 0.000000
-40.131700 0.000000
-40.084300 0.000000
-40.036900 0.000000
-39.989500 0.000000
-39.942200 0.000000
-39.894800 0.000000
-39.847400 0.000000
-39.800000 0.000000
-39.752600 0.000000
-39.705200 0.000000
-39.657800 0.000000
-39.610500 0.000000
-39.563100 0.000000
-39.515700 1340.765400
-39.468300 0.000000
-39.420900 0.000000
-39.373500 0.000000
-39.326100 0.000000
-39.278700 0.000000
-39.231400 0.000000
-39.184000 0.000000
-39.136600 0.000000
-39.089200 0.000000
-39.041800 0.000000
-38.994400 0.000000
-38.947000 0.000000
-38.899700 0.000000
-38.852300 0.000000
-38.804900 0.000000
-38.757500 0.000000
-38.710100 0.000000
-38.662700 0.000000
-38.615300 0.000000
-38.568000 0.000000
-38.520600 0.000000
-38.473200 0.000000
-38.425800 0.000000
-38.378400 0.000000
-38.331000 0.000000
-38.283600 0.000000
-38.236300 0.000000
-38.188900 0.000000
-38.141500 0.000000
-38.094100 0.000000
-38.046700 0.000000
-37.999300 0.000000
-37.951900 0.000000
-37.904600 0.000000
-37.857200 0.000000
-37.809800 0.000000
-37.762400 0.000000
-37.715000 0.000000
-37.667600 0.000000
-37.620200 0.000000
-37.572900 0.000000
-37.525500 0.000000
-37.478100 0.000000
-37.430700 0.000000
-37.383300 0.000000
-37.335900 0.000000
-37.288500 0.000000
-37.241100 0.000000
-37.193800 0.000000
-37.146400 0.000000
-37.099000 0.000000
-37.051600 0.000000
-37.004200 0.000000
-36.956800 0.000000
-36.909400 0.000000
-36.862100 0.000000
-36.814700 0.000000
-36.767300 0.000000
-36.719900 0.000000
-36.672500 0.000000
-36.625100 0.000000
-36.577700 0.000000
-36.530400 0.000000
-36.483000 0.000000
-36.435600 0.000000
-36.388200 0.000000
-36.340800 0.000000
-36.293400 0.000000
-36.246000 0.000000
-36.198700 0.000000
-36.151300 0.000000
-36.103900 0.000000
-36.056500 0.000000
-36.009100 0.000000
-35.961700 0.000000
-35.914300 0.000000
-35.867000 0.000000
-35.819600 0.000000
-35.772200 0.000000
-35.724800 0.000000
-35.677400 0.000000
-35.630000 0.000000
-35.582600 0.000000
-35.535300 0.000000
-35.487900 0.000000
-35.440500 0.000000
-35.393100 0.000000
-35.345700 0.000000
-35.298300 0.000000
-35.250900 0.000000
-35.203500 0.000000
-35.156200 0.000000
-35.108800 0.000000
-35.061400 0.000000
-35.014000 0.000000
-34.966600 0.000000
-34.919200 0.000000
-34.871800 0.000000
-34.824500 0.000000
-34.777100 0.000000
-34.729700 0.000000
-34.682300 0.000000
-34.634900 0.000000
-34.587500 0.000000
-34.540100 0.000000
-34.492800 0.000000
-34.445400 0.000000
-34.398000 0.000000
-34.350600 0.000000
-34.303200 0.000000
-34.255800 0.000000
-34.208400 0.000000
-34.161100 0.000000
-34.113700 0.000000
-34.066300 0.000000
-34.018900 0.000000
-33.971500 0.000000
-33.924100 0.000000
-33.876700 0.000000
-33.829400 0.000000
-33.782000 0.000000
-33.734600 0.000000
-33.687200 0.000000
-33.639800 0.000000
-33.592400 0.000000
-33.545000 0.000000
-33.497700 0.000000
-33.450300 0.000000
-33.402900 0.000000
-33.355500 0.000000
-33.308100 0.000000
-33.260700 0.000000
-33.213300 0.000000
-33.166000 0.000000
-33.118600 0.000000
-33.071200 0.000000
-33.023800 0.000000
-32.976400 0.000000
-32.929000 0.000000
-32.881600 0.000000
-32.834200 0.000000
-32.786900 0.000000
-32.739500 0.000000
-32.692100 0.000000
-32.644700 0.000000
-32.597300 0.000000
-32.549900 0.000000
-32.502500 0.000000
-32.455200 0.000000
-32.407800 0.000000
-32.360400 0.000000
-32.313000 0.000000
-32.265600 0.000000
-32.218200 0.000000
-32.170800 0.000000
-32.123500 0.000000
-32.076100 0.000000
-32.028700 0.000000
-31.981300 0.000000
-31.933900 0.000000
-31.886500 0.000000
-31.839100 0.000000
-31.791800 0.000000
-31.744400 0.000000
-31.697000 0.000000
-31.649600 0.000000
-31.602200 0.000000
-31.554800 0.000000
-31.507400 0.000000
-31.460100 0.000000
-31.412700 0.000000
-31.365300 0.000000
-31.317900 0.000000
-31.270500 0.000000
-31.223100 0.000000
-31.175700 0.000000
-31.128400 0.000000
-31.081000 0.000000
-31.033600 0.000000
-30.986200 0.000000
-30.938800 0.000000
-30.891400 0.000000
-30.844000 0.000000
-30.796600 0.000000
-30.749300 0.000000
-30.701900 0.000000
-30.654500 0.000000
-30.607100 0.000000
-30.559700 0.000000
-30.512300 0.000000
-30.464900 0.000000
-30.417600 0.000000
-30.370200 0.000000
-30.322800 0.000000
-30.275400 0.000000
-30.228000 0.000000
-30.180600 0.000000
-30.133200 0.000000
-30.085900 0.000000
-30.038500 0.000000
-29.991100 0.000000
-29.943700 0.000000
-29.896300 0.000000
-29.848900 0.000000
-29.801500 0.000000
-29.754200 0.000000
-29.706800 0.000000
-29.659400 0.000000
-29.612000 0.000000
-29.564600 0.000000
-29.517200 0.000000
-29.469800 0.000000
-29.422500 0.000000
-29.375100 0.000000
-29.327700 0.000000
-29.280300 0.000000
-29.232900 0.000000
-29.185500 0.000000
-29.138100 0.000000
-29.090800 0.000000
-29.043400 0.000000
-28.996000 0.000000
-28.948600 0.000000
-28.901200 0.000000
-28.853800 0.000000
-28.806400 0.000000
-28.759000 0.000000
-28.711700 0.000000
-28.664300 0.000000
-28.616900 0.000000
-28.569500 0.000000
-28.522100 0.000000
-28.474700 0.000000
-28.427300 0.000000
-28.380000 0.000000
-28.332600 0.000000
-28.285200 0.000000
-28.237800 0.000000
-28.190400 0.000000
-28.143000 0.000000
-28.095600 0.000000
-28.048300 0.000000
-28.000900 0.000000
-27.953500 0.000000
-27.906100 0.000000
-27.858700 0.000000
-27.811300 0.000000
-27.763900 0.000000
-27.716600 0.000000
-27.669200 0.000000
-27.621800 0.000000
-27.574400 0.000000
-27.527000 0.000000
-27.479600 0.000000
-27.432200 0.000000
-27.384900 0.000000
-27.337500 0.000000
-27.290100 0.000000
-27.242700 0.000000
-27.195300 0.000000
-27.147900 0.000000
-27.100500 0.000000
-27.053200 0.000000
-27.005800 0.000000
-26.958400 0.000000
-26.911000 0.000000
-26.863600 0.000000
-26.816200 0.000000
-26.768800 0.000000
-26.721400 0.000000
-26.674100 0.000000
-26.626700 0.000000
-26.579300 0.000000
-26.531900 0.000000
-26.484500 0.000000
-26.437100 0.000000
-26.389700 0.000000
-26.342400 0.000000
-26.295000 0.000000
-26.247600 0.000000
-26.200200 0.000000
-26.152800 0.000000
-26.105400 0.000000
-26.058000 0.000000
-26.010700 0.000000
-25.963300 0.000000
-25.915900 0.000000
-25.868500 0.000000
-25.821100 0.000000
-25.773700 0.000000
-25.726300 0.000000
-25.679000 0.000000
-25.631600 0.000000
-25.584200 0.000000
-25.536800 0.000000
-25.489400 0.000000
-25.442000 0.000000
-25.394600 0.000000
-25.347300 0.000000
-25.299900 0.000000
-25.252500 0.000000
-25.205100 0.000000
-25.157700 0.000000
-25.110300 0.000000
-25.062900 0.000000
-25.015600 0.000000
-24.968200 0.000000
-24.920800 0.000000
-24.873400 0.000000
-24.826000 0.000000
-24.778600 0.000000
-24.731200 0.000000
-24.683800 0.000000
-24.636500 0.000000
-24.589100 0.000000
-24.541700 0.000000
-24.494300 0.000000
-24.446900 0.000000
-24.399500 0.000000
-24.352100 0.000000
-24.304800 0.000000
-24.257400 0.000000
-24.210000 0.000000
-24.162600 0.000000
-24.115200 0.000000
-24.067800 0.000000
-24.020400 0.000000
-23.973100 0.000000
-23.925700 0.000000
-23.878300 0.000000
-23.830900 0.000000
-23.783500 0.000000
-23.736100 0.000000
-23.688700 0.000000
-23.641400 0.000000
-23.594000 0.000000
-23.546600 0.000000
-23.499200 0.000000
-23.451800 0.000000
-23.404400 0.000000
-23.357000 0.000000
-23.309700 0.000000
-23.262300 0.000000
-23.214900 0.000000
-23.167500 0.000000
-23.120100 0.000000
-23.072700 0.000000
-23.025300 0.000000
-22.978000 0.000000
-22.930600 0.000000
-22.883200 0.000000
-22.835800 0.000000
-22.788400 0.000000
-22.741000 0.000000
-22.693600 0.000000
-22.646300 0.000000
-22.598900 0.000000
-22.551500 0.000000
-22.504100 0.000000
-22.456700 0.000000
-22.409300 0.000000
-22.361900 0.000000
-22.314500 0.000000
-22.267200 0.000000
-22.219800 0.000000
-22.172400 0.000000
-22.125000 7.942200
-22.077600 56.628800
-22.030200 7.431400
-21.982800 5.156400
-21.935500 18.780800
-21.888100 23.166200
-21.840700 55.161100
-21.793300 29.449800
-21.745900 30.239900
-21.698500 20.446400
-21.651100 0.000000
-21.603800 0.000000
-21.556400 0.000000
-21.509000 0.000000
-21.461600 0.000000
-21.414200 0.000000
-21.366800 0.000000
-21.319400 0.000000
-21.272100 0.000000
-21.224700 0.000000
-21.177300 0.000000
-21.129900 0.000000
-21.082500 0.000000
-21.035100 0.000000
-20.987700 0.000000
-20.940400 0.000000
-20.893000 0.000000
-20.845600 0.000000
-20.798200 0.000000
-20.750800 0.000000
-20.703400 0.000000
-20.656000 0.000000
-20.608700 0.000000
-20.561300 0.000000
-20.513900 0.000000
-20.466500 0.000000
-20.419100 0.000000
-20.371700 0.000000
-20.324300 0.000000
-20.276900 0.000000
-20.229600 0.000000
-20.182200 0.000000
-20.134800 0.000000
-20.087400 0.000000
-20.040000 0.000000
-19.992600 0.000000
-19.945200 0.000000
-19.897900 0.000000
-19.850500 0.000000
-19.803100 0.000000
-19.755700 0.000000
-19.708300 0.000000
-19.660900 0.000000
-19.613500 0.000000
-19.566200 0.000000
-19.518800 0.000000
-19.471400 0.000000
-19.424000 0.000000
-19.376600 0.000000
-19.329200 0.000000
-19.281800 0.000000
-19.234500 0.000000
-19.187100 0.000000
-19.139700 0.000000
-19.092300 0.000000
-19.044900 0.000000
-18.997500 0.000000
-18.950100 0.000000
-18.902800 0.000000
-18.855400 0.000000
-18.808000 0.000000
-18.760600 0.000000
-18.713200 0.000000
-18.665800 0.000000
-18.618400 0.000000
-18.571100 0.000000
-18.523700 0.000000
-18.476300 0.000000
-18.428900 0.000000
-18.381500 0.000000
-18.334100 0.000000
-18.286700 0.000000
-18.239300 0.000000
-18.192000 0.000000
-18.144600 0.000000
-18.097200 0.000000
-18.049800 0.000000
-18.002400 0.000000
-17.955000 0.000000
-17.907600 0.000000
-17.860300 0.000000
-17.812900 0.000000
-17.765500 0.000000
-17.718100 0.000000
-17.670700 0.000000
-17.623300 0.000000
-17.575900 0.000000
-17.528600 0.000000
-17.481200 0.000000
-17.433800 0.000000
-17.386400 0.000000
-17.339000 0.000000
-17.291600 0.000000
-17.244200 0.000000
-17.196900 0.000000
-17.149500 0.000000
-17.102100 0.000000
-17.054700 0.000000
-17.007300 0.000000
-16.959900 0.000000
-16.912500 0.000000
-16.865200 0.000000
-16.817800 0.000000
-16.770400 0.000000
-16.723000 0.000000
-16.675600 0.000000
-16.628200 0.000000
-16.580800 0.000000
-16.533500 0.000000
-16.486100 0.000000
-16.438700 0.000000
-16.391300 0.000000
-16.343900 0.000000
-16.296500 0.000000
-16.249100 0.000000
-16.201700 0.000000
-16.154400 0.000000
-16.107000 0.000000
-16.059600 0.000000
-16.012200 0.000000
-15.964800 0.000000
-15.917400 0.000000
-15.870000 0.000000
-15.822700 0.000000
-15.775300 0.000000
-15.727900 0.000000
-15.680500 0.000000
-15.633100 0.000000
-15.585700 0.000000
-15.538300 0.000000
-15.491000 0.000000
-15.443600 0.000000
-15.396200 0.000000
-15.348800 0.000000
-15.301400 0.000000
-15.254000 0.000000
-15.206600 0.000000
-15.159300 0.000000
-15.111900 0.000000
-15.064500 0.000000
-15.017100 0.000000
-14.969700 0.000000
-14.922300 0.000000
-14.874900 0.000000
-14.827600 0.000000
-14.780200 0.000000
-14.732800 0.000000
-14.685400 0.000000
-14.638000 0.000000
-14.590600 0.000000
-14.543200 0.000000
-14.495900 0.000000
-14.448500 0.000000
-14.401100 0.000000
-14.353700 0.000000
-14.306300 0.000000
-14.258900 0.000000
-14.211500 0.000000
-14.164100 0.000000
-14.116800 0.000000
-14.069400 0.000000
-14.022000 0.000000
-13.974600 0.000000
-13.927200 0.000000
-13.879800 0.000000
-13.832400 0.000000
-13.785100 0.000000
-13.737700 0.000000
-13.690300 0.000000
-13.642900 0.000000
-13.595500 0.000000
-13.548100 0.000000
-13.500700 0.000000
-13.453400 0.000000
-13.406000 0.000000
-13.358600 0.000000
-13.311200 0.000000
-13.263800 0.000000
-13.216400 0.000000
-13.169000 0.000000
-13.121700 0.000000
-13.074300 0.000000
-13.026900 0.000000
-12.979500 0.000000
-12.932100 0.000000
-12.884700 0.000000
-12.837300 0.000000
-12.790000 0.000000
-12.742600 0.000000
-12.695200 0.000000
-12.647800 0.000000
-12.600400 0.000000
-12.553000 0.000000
-12.505600 0.000000
-12.458300 0.000000
-12.410900 0.000000
-12.363500 0.000000
-12.316100 0.000000
-12.268700 0.000000
-12.221300 0.000000
-12.173900 0.000000
-12.126600 0.000000
-12.079200 0.000000
-12.031800 0.000000
-11.984400 0.000000
-11.937000 0.000000
-11.889600 0.000000
-11.842200 0.000000
-11.794800 0.000000
-11.747500 0.000000
-11.700100 0.000000
-11.652700 0.000000
-11.605300 0.000000
-11.557900 0.000000
-11.510500 0.000000
-11.463100 0.000000
-11.415800 0.000000
-11.368400 0.000000
-11.321000 0.000000
-11.273600 0.000000
-11.226200 0.000000
-11.178800 0.000000
-11.131400 0.000000
-11.084100 0.000000
-11.036700 0.000000
-10.989300 0.000000
-10.941900 0.000000
-10.894500 0.000000
-10.847100 0.000000
-10.799700 0.000000
-10.752400 0.000000
-10.705000 0.000000
-10.657600 0.000000
-10.610200 0.000000
-10.562800 0.000000
-10.515400 0.000000
-10.468000 0.000000
-10.420700 0.000000
-10.373300 0.000000
-10.325900 0.000000
-10.278500 0.000000
-10.231100 0.000000
-10.183700 0.000000
-10.136300 0.000000
-10.089000 0.000000
-10.041600 0.000000
-9.994200 0.000000
-9.946800 0.000000
-9.899400 0.000000
-9.852000 0.000000
-9.804600 0.000000
-9.757200 0.000000
-9.709900 0.000000
-9.662500 0.000000
-9.615100 0.000000
-9.567700 0.000000
-9.520300 0.000000
-9.472900 0.000000
-9.425500 0.000000
-9.378200 0.000000
-9.330800 0.000000
-9.283400 0.000000
-9.236000 0.000000
-9.188600 0.000000
-9.141200 0.000000
-9.093800 0.000000
-9.046500 0.000000
-8.999100 0.000000
-8.951700 0.000000
-8.904300 0.000000
-8.856900 0.000000
-8.809500 0.000000
-8.762100 0.000000
-8.714800 0.000000
-8.667400 0.000000
-8.620000 0.000000
-8.572600 0.000000
-8.525200 0.000000
-8.477800 0.000000
-8.430400 0.000000
-8.383100 0.000000
-8.335700 0.000000
-8.288300 0.000000
-8.240900 0.000000
-8.193500 0.000000
-8.146100 0.000000
-8.098700 0.000000
-8.051400 0.000000
-8.004000 0.000000
-7.956600 0.000000
-7.909200 0.000000
-7.861800 0.000000
-7.814400 0.000000
-7.767000 0.000000
-7.719600 0.000000
-7.672300 0.000000
-7.624900 0.000000
-7.577500 0.000000
-7.530100 0.000000
-7.482700 0.000000
-7.435300 0.000000
-7.387900 0.000000
-7.340600 0.000000
-7.293200 0.000000
-7.245800 0.000000
-7.198400 0.000000
-7.151000 0.000000
-7.103600 0.000000
-7.056200 0.000000
-7.008900 0.000000
-6.961500 0.000000
-6.914100 0.000000
-6.866700 0.000000
-6.819300 0.000000
-6.771900 0.000000
-6.724500 0.000000
-6.677200 0.000000
-6.629800 0.000000
-6.582400 0.000000
-6.535000 0.000000
-6.487600 0.000000
-6.440200 0.000000
-6.392800 0.000000
-6.345500 0.000000
-6.298100 0.000000
-6.250700 0.000000
-6.203300 0.000000
-6.155900 0.000000
-6.108500 0.000000
-6.061100 0.000000
-6.013800 0.000000
-5.966400 0.000000
-5.919000 0.000000
-5.871600 0.000000
-5.824200 0.000000
-5.776800 0.000000
-5.729400 0.000000
-5.682000 0.000000
-5.634700 0.000000
-5.587300 0.000000
-5.539900 0.000000
-5.492500 0.000000
-5.445100 0.000000
-5.397700 0.000000
-5.350300 0.000000
-5.303000 0.000000
-5.255600 0.000000
-5.208200 0.000000
-5.160800 0.000000
-5.113400 0.000000
-5.066000 0.000000
-5.018600 0.000000
-4.971300 0.000000
-4.923900 0.000000
-4.876500 0.000000
-4.829100 0.000000
-4.781700 0.000000
-4.734300 0.000000
-4.686900 0.000000
-4.639600 0.000000
-4.592200 0.000000
-4.544800 0.000000
-4.497400 0.000000
-4.450000 0.000000
-4.402600 0.000000
-4.355200 0.000000
-4.307900 0.000000
-4.260500 0.000000
-4.213100 0.000000
-4.165700 0.000000
-4.118300 0.000000
-4.070900 0.000000
-4.023500 0.000000
-3.976200 0.000000
-3.928800 0.000000
-3.881400 0.000000
-3.834000 0.000000
-3.786600 0.000000
-3.739200 0.000000
-3.691800 0.000000
-3.644500 0.000000
-3.597100 0.000000
-3.549700 0.000000
-3.502300 0.000000
-3.454900 0.000000
-3.407500 0.000000
-3.360100 0.000000
-3.312700 0.000000
-3.265400 0.000000
-3.218000 0.000000
-3.170600 0.000000
-3.123200 0.000000
-3.075800 0.023400
-3.028400 0.069100
-2.981000 0.127700
-2.933700 0.160600
-2.886300 0.173100
-2.838900 0.185300
-2.791500 0.207300
-2.744100 0.225000
-2.696700 0.247600
-2.649300 0.271800
-2.602000 0.295600
-2.554600 0.310500
-2.507200 0.321700
-2.459800 0.335100
-2.412400 0.351200
-2.365000 0.367900
-2.317600 0.384800
-2.270300 0.412700
-2.222900 0.446200
-2.175500 0.468000
-2.128100 0.478100
-2.080700 0.493700
-2.033300 0.488800
-1.985900 0.497100
-1.938600 0.502500
-1.891200 0.507200
-1.843800 0.504400
-1.796400 0.503200
-1.749000 0.505100
-1.701600 0.540600
-1.654200 0.555200
-1.606900 0.574000
-1.559500 0.592000
-1.512100 0.607400
-1.464700 0.619400
-1.417300 0.630900
-1.369900 0.645400
-1.322500 0.663100
-1.275100 0.682400
-1.227800 0.700200
-1.180400 0.710000
-1.133000 0.721700
-1.085600 0.734400
-1.038200 0.748500
-0.990800 0.764300
-0.943400 0.779900
-0.896100 0.794600
-0.848700 0.809600
-0.801300 0.826000
-0.753900 0.843500
-0.706500 0.861400
-0.659100 0.880400
-0.611700 0.899000
-0.564400 0.917200
-0.517000 0.935400
-0.469600 0.956900
-0.422200 0.980700
-0.374800 1.046900
-0.327400 1.663700
-0.280000 1.550100
-0.232700 1.188300
-0.185300 1.134400
-0.137900 1.126400
-0.090500 1.120600
-0.043100 1.115800
0.004300 1.099600
0.051700 1.088100
0.099000 1.097300
0.146400 1.131700
0.193800 1.143700
0.241200 1.163100
0.288600 1.194800
0.336000 1.344200
0.383400 1.862800
0.430700 2.076900
0.478100 2.008600
0.525500 1.902000
0.572900 1.820000
0.620300 1.762300
0.667700 1.748900
0.715100 1.774500
0.762500 1.775900
0.809800 1.710200
0.857200 1.174400
0.904600 1.119700
0.952000 1.124900
0.999400 1.144700
1.046800 1.254200
1.094200 1.506000
1.141500 1.690500
1.188900 1.850400
1.236300 2.690200
1.283700 2.841700
1.331100 2.498300
1.378500 2.213100
1.425900 2.013500
1.473200 2.032100
1.520600 2.092600
1.568000 2.130200
1.615400 2.207800
1.662800 2.307400
1.710200 2.405400
1.757600 2.486000
1.804900 3.088600
1.852300 3.500800
1.899700 2.016800
1.947100 2.280500
1.994500 2.650900
2.041900 2.579700
2.089300 2.307100
2.136600 2.154600
2.184000 2.216200
2.231400 2.523000
2.278800 2.710000
2.326200 2.459000
2.373600 3.540100
2.421000 3.463700
2.468300 3.629400
2.515700 4.925600
2.563100 6.214000
2.610500 7.708100
2.657900 6.990400
2.705300 5.358700
2.752700 5.244600
2.800100 3.460200
2.847400 2.847200
2.894800 2.197500
2.942200 1.954200
2.989600 2.210800
3.037000 1.441000
3.084400 1.152400
3.131800 1.248200
3.179100 1.438300
3.226500 1.686900
3.273900 2.016900
3.321300 2.390900
3.368700 2.944800
3.416100 2.997400
3.463500 3.058000
3.510800 3.255000
3.558200 3.353800
3.605600 2.697600
3.653000 2.657600
3.700400 2.402400
3.747800 2.237100
3.795200 2.240300
3.842500 2.154300
3.889900 2.025200
3.937300 2.091800
3.984700 2.178300
4.032100 2.403700
4.079500 2.322100
4.126900 1.584400
4.174200 2.082600
4.221600 3.121200
4.269000 3.439300
4.316400 3.824200
4.363800 3.713700
4.411200 3.396100
4.458600 3.934100
4.505900 5.881200
4.553300 6.926200
4.600700 7.313900
4.648100 6.291100
4.695500 5.310500
4.742900 5.563600
4.790300 6.594800
4.837700 5.851100
4.885000 6.551900
4.932400 7.068700
4.979800 7.524600
5.027200 6.794000
5.074600 4.243800
5.122000 2.898300
5.169400 2.296300
5.216700 1.915300
5.264100 1.656600
5.311500 1.379100
5.358900 1.084800
5.406300 1.016400
5.453700 0.920600
5.501100 0.833600
5.548400 0.767000
5.595800 0.728600
5.643200 0.706700
5.690600 0.960400
5.738000 1.036600
5.785400 1.068300
5.832800 1.018100
5.880100 1.090400
5.927500 1.166100
5.974900 1.243700
6.022300 1.387500
6.069700 1.736700
6.117100 2.049700
6.164500 2.340600
6.211800 2.555800
6.259200 2.724300
6.306600 2.899500
6.354000 2.978500
6.401400 3.176800
6.448800 3.198800
6.496200 3.294800
6.543500 2.985500
6.590900 2.835500
6.638300 2.626600
6.685700 2.386800
6.733100 2.137400
6.780500 2.008400
6.827900 1.732100
6.875200 1.670000
6.922600 1.815600
6.970000 2.611800
7.017400 2.840100
7.064800 3.330800
7.112200 5.227800
7.159600 5.721400
7.207000 4.817700
7.254300 3.975600
7.301700 3.415200
7.349100 2.977500
7.396500 2.814200
7.443900 2.819100
7.491300 2.738500
7.538700 2.625600
7.586000 2.440200
7.633400 2.144000
7.680800 2.050100
7.728200 2.268000
7.775600 2.280500
7.823000 2.352800
7.870400 2.754500
7.917700 3.011200
7.965100 3.228100
8.012500 3.042200
8.059900 2.747600
8.107300 2.529000
8.154700 2.446100
8.202100 2.512400
8.249400 2.488500
8.296800 2.381800
8.344200 2.314900
8.391600 2.462600
8.439000 2.557800
8.486400 2.789700
8.533800 2.854300
8.581100 3.342200
8.628500 3.565600
8.675900 3.645900
8.723300 3.650200
8.770700 3.259900
8.818100 3.024700
8.865500 1.997700
8.912800 2.290100
8.960200 2.654400
9.007600 3.806300
9.055000 4.005500
9.102400 3.681400
9.149800 3.312300
9.197200 3.044300
9.244600 2.925400
9.291900 2.799600
9.339300 2.703500
9.386700 2.705500
9.434100 2.666400
9.481500 2.798500
9.528900 3.021600
9.576300 3.542800
9.623600 3.937900
9.671000 3.276900
9.718400 2.883800
9.765800 2.530600
9.813200 2.336900
9.860600 2.109100
9.908000 1.981800
9.955300 1.855500
10.002700 1.878400
10.050100 2.209100
10.097500 2.375300
10.144900 2.448700
10.192300 2.590900
10.239700 2.831100
10.287000 2.941500
10.334400 3.075200
10.381800 3.110100
10.429200 3.348200
10.476600 2.912900
10.524000 2.582700
10.571400 2.448700
10.618700 2.318600
10.666100 2.378500
10.713500 2.484000
10.760900 2.643400
10.808300 2.671100
10.855700 2.612900
10.903100 2.555400
10.950400 2.438700
10.997800 2.171500
11.045200 2.118300
11.092600 2.129600
11.140000 2.180400
11.187400 2.219100
11.234800 2.191800
11.282200 2.184200
11.329500 2.267400
11.376900 2.357900
11.424300 2.411700
11.471700 2.485000
11.519100 2.417700
11.566500 2.241000
11.613900 2.461900
11.661200 2.805800
11.708600 4.010900
11.756000 2.972700
11.803400 3.014400
11.850800 3.100800
11.898200 3.089400
11.945600 2.919300
11.992900 2.710400
12.040300 2.309900
12.087700 2.178600
12.135100 2.007800
12.182500 1.862700
12.229900 1.763300
12.277300 1.698100
12.324600 1.849900
12.372000 2.040700
12.419400 2.205800
12.466800 2.225000
12.514200 2.268300
12.561600 2.262800
12.609000 2.270000
12.656300 2.258800
12.703700 2.245800
12.751100 2.201400
12.798500 2.083100
12.845900 1.733600
12.893300 1.533400
12.940700 1.523600
12.988000 1.582000
13.035400 1.819600
13.082800 1.831700
13.130200 1.971800
13.177600 2.235300
13.225000 2.533800
13.272400 2.738700
13.319800 2.941400
13.367100 2.769500
13.414500 2.802800
13.461900 3.055400
13.509300 3.366800
13.556700 3.219300
13.604100 3.183300
13.651500 3.123600
13.698800 3.001100
13.746200 2.577600
13.793600 2.366700
13.841000 2.310000
13.888400 2.277400
13.935800 2.240200
13.983200 2.196400
14.030500 2.298300
14.077900 2.544100
14.125300 2.777800
14.172700 3.023300
14.220100 3.596000
14.267500 3.909500
14.314900 3.905000
14.362200 3.561700
14.409600 3.544900
14.457000 3.488900
14.504400 3.401000
14.551800 3.413800
14.599200 3.348700
14.646600 3.158100
14.693900 3.024600
14.741300 2.966900
14.788700 3.010300
14.836100 3.005200
14.883500 2.956800
14.930900 2.895100
14.978300 2.770400
15.025600 2.329000
15.073000 2.068000
15.120400 2.044900
15.167800 2.025800
15.215200 2.035100
15.262600 2.055600
15.310000 2.089700
15.357400 2.284700
15.404700 2.210800
15.452100 2.210400
15.499500 2.629800
15.546900 2.424600
15.594300 2.465100
15.641700 2.482700
15.689100 2.734000
15.736400 3.131500
15.783800 2.583000
15.831200 2.292500
15.878600 2.093300
15.926000 2.046200
15.973400 2.314300
16.020800 2.614700
16.068100 2.840100
16.115500 2.819500
16.162900 2.708900
16.210300 2.920500
16.257700 3.121300
16.305100 3.312400
16.352500 3.489300
16.399800 3.616400
16.447200 3.571500
16.494600 3.234600
16.542000 2.860900
16.589400 2.930500
16.636800 3.034000
16.684200 3.213700
16.731500 3.390700
16.778900 3.717400
16.826300 3.719900
16.873700 3.296300
16.921100 2.806400
16.968500 2.139600
17.015900 2.203800
17.063200 2.010300
17.110600 2.008100
17.158000 2.222200
17.205400 2.342300
17.252800 2.514500
17.300200 2.533600
17.347600 2.609100
17.394900 2.708200
17.442300 2.966100
17.489700 2.903200
17.537100 2.911200
17.584500 2.674100
17.631900 2.394900
17.679300 2.264000
17.726700 2.352900
17.774000 2.560500
17.821400 2.894200
17.868800 3.098500
17.916200 3.207900
17.963600 3.544600
18.011000 3.968000
18.058400 4.454700
18.105700 3.843600
18.153100 3.264800
18.200500 3.205300
18.247900 3.101500
18.295300 2.940900
18.342700 2.743100
18.390100 2.614000
18.437400 2.434500
18.484800 2.321600
18.532200 2.195800
18.579600 1.995600
18.627000 1.832600
18.674400 1.792200
18.721800 1.944800
18.769100 2.129000
18.816500 2.263300
18.863900 2.399100
18.911300 2.434200
18.958700 2.321700
19.006100 2.270300
19.053500 2.287300
19.100800 2.137300
19.148200 2.004300
19.195600 1.945300
19.243000 1.827400
19.290400 1.847500
19.337800 1.925100
19.385200 2.004500
19.432500 2.090300
19.479900 2.194000
19.527300 2.225900
19.574700 2.298900
19.622100 2.330900
19.669500 2.411800
19.716900 2.606200
19.764300 2.805200
19.811600 2.875400
19.859000 2.934600
19.906400 2.991100
19.953800 3.086200
20.001200 3.085400
20.048600 3.093900
20.096000 3.178700
20.143300 3.547400
20.190700 3.290100
20.238100 3.164500
20.285500 3.123900
20.332900 3.200100
20.380300 3.236100
20.427700 3.191500
20.475000 3.252800
20.522400 3.307500
20.569800 3.384000
20.617200 3.452800
20.664600 3.515300
20.712000 3.631600
20.759400 3.398500
20.806700 3.183000
20.854100 3.518700
20.901500 3.687600
20.948900 3.506400
20.996300 3.246300
21.043700 2.761100
21.091100 2.613300
21.138400 2.561100
21.185800 2.568000
21.233200 2.681600
21.280600 2.731000
21.328000 2.549800
21.375400 2.488600
21.422800 2.539500
21.470100 2.703600
21.517500 2.744200
21.564900 2.933800
21.612300 2.909200
21.659700 3.135600
21.707100 2.998100
21.754500 2.872500
21.801900 2.933900
21.849200 3.019400
21.896600 2.883900
21.944000 2.923600
21.991400 2.999800
22.038800 3.063700
22.086200 3.124600
22.133600 3.115300
22.180900 3.203800
22.228300 3.177000
22.275700 2.981400
22.323100 2.962000
22.370500 3.117300
22.417900 2.901000
22.465300 2.811200
22.512600 2.730600
22.560000 2.900700
22.607400 2.990700
22.654800 2.957700
22.702200 3.048600
22.749600 3.109800
22.797000 2.817600
22.844300 2.687100
22.891700 2.437700
22.939100 2.317900
22.986500 2.303500
23.033900 2.325300
23.081300 2.380300
23.128700 2.374700
23.176000 2.433700
23.223400 2.543600
23.270800 2.680100
23.318200 2.914600
23.365600 3.370900
23.413000 3.438500
23.460400 3.629200
23.507700 4.170500
23.555100 4.455200
23.602500 4.327300
23.649900 4.054100
23.697300 3.534700
23.744700 2.926300
23.792100 2.419000
23.839500 1.970700
23.886800 1.841500
23.934200 1.997000
23.981600 2.229500
24.029000 2.472000
24.076400 2.633000
24.123800 2.686000
24.171200 2.786300
24.218500 2.914400
24.265900 3.375500
24.313300 4.067200
24.360700 3.951700
24.408100 3.698900
24.455500 3.522100
24.502900 3.734200
24.550200 4.167200
24.597600 3.951200
24.645000 3.695900
24.692400 4.202800
24.739800 3.648300
24.787200 3.250700
24.834600 2.914000
24.881900 2.581900
24.929300 2.409200
24.976700 2.277000
25.024100 2.333300
25.071500 2.437900
25.118900 2.776200
25.166300 3.107800
25.213600 4.100600
25.261000 5.162900
25.308400 4.579500
25.355800 4.389800
25.403200 4.073700
25.450600 3.198200
25.498000 3.008300
25.545300 2.594400
25.592700 2.216200
25.640100 2.348600
25.687500 2.369900
25.734900 2.439700
25.782300 2.173900
25.829700 2.188900
25.877000 2.294400
25.924400 2.608400
25.971800 2.977000
26.019200 3.534400
26.066600 3.919000
26.114000 3.885600
26.161400 3.896600
26.208800 3.737400
26.256100 3.292900
26.303500 3.390700
26.350900 3.681000
26.398300 3.850800
26.445700 4.004400
26.493100 4.032400
26.540500 4.507500
26.587800 4.468000
26.635200 4.294700
26.682600 4.005300
26.730000 4.219700
26.777400 4.651700
26.824800 4.682600
26.872200 4.281400
26.919500 4.025900
26.966900 3.918100
27.014300 3.592800
27.061700 3.344100
27.109100 3.193900
27.156500 3.204300
27.203900 3.146400
27.251200 3.254900
27.298600 3.607400
27.346000 3.894700
27.393400 3.826900
27.440800 3.719400
27.488200 3.761400
27.535600 3.257300
27.582900 3.004500
27.630300 2.729400
27.677700 2.466100
27.725100 2.426000
27.772500 2.689800
27.819900 3.085700
27.867300 3.420200
27.914600 3.682700
27.962000 3.873700
28.009400 3.783600
28.056800 3.638700
28.104200 3.417300
28.151600 3.213200
28.199000 2.975400
28.246400 2.682900
28.293700 2.560500
28.341100 2.595500
28.388500 2.826000
28.435900 3.244200
28.483300 3.138100
28.530700 2.999900
28.578100 3.138400
28.625400 3.392500
28.672800 3.518700
28.720200 3.488700
28.767600 3.795600
28.815000 3.640500
28.862400 3.424000
28.909800 3.362800
28.957100 3.288800
29.004500 3.046500
29.051900 2.748600
29.099300 2.560800
29.146700 2.400700
29.194100 2.456000
29.241500 2.722100
29.288800 3.295900
29.336200 3.369500
29.383600 3.484900
29.431000 3.682000
29.478400 3.847500
29.525800 3.711100
29.573200 3.360400
29.620500 3.149400
29.667900 3.109900
29.715300 3.344800
29.762700 3.508300
29.810100 3.590700
29.857500 3.582600
29.904900 3.647900
29.952200 3.932800
29.999600 3.904900
30.047000 3.513500
30.094400 3.284100
30.141800 3.257600
30.189200 3.407900
30.236600 3.777200
30.284000 4.328400
30.331300 4.614600
30.378700 4.936000
30.426100 5.060200
30.473500 4.691100
30.520900 4.125500
30.568300 3.792100
30.615700 3.572700
30.663000 3.467100
30.710400 3.486700
30.757800 3.433900
30.805200 3.490600
30.852600 3.676700
30.900000 4.264300
30.947400 4.611400
30.994700 5.016100
31.042100 4.769100
31.089500 4.270200
31.136900 4.024800
31.184300 3.919000
31.231700 4.004300
31.279100 4.066900
31.326400 4.271900
31.373800 4.225100
31.421200 4.096700
31.468600 3.963600
31.516000 3.764900
31.563400 3.635900
31.610800 3.489100
31.658100 3.438100
31.705500 3.417900
31.752900 3.435000
31.800300 3.658400
31.847700 3.615800
31.895100 3.634000
31.942500 3.316700
31.989800 2.987500
32.037200 2.775800
32.084600 2.783100
32.132000 2.894300
32.179400 3.106100
32.226800 3.295000
32.274200 3.570400
32.321600 3.775900
32.368900 3.658200
32.416300 3.553900
32.463700 3.437600
32.511100 3.538200
32.558500 3.522900
32.605900 3.594600
32.653300 3.777000
32.700600 3.832400
32.748000 3.746200
32.795400 3.237000
32.842800 2.832200
32.890200 2.705400
32.937600 2.767400
32.985000 2.930600
33.032300 2.884700
33.079700 2.911600
33.127100 2.934300
33.174500 3.005000
33.221900 3.192900
33.269300 3.304900
33.316700 3.438200
33.364000 3.711400
33.411400 3.970800
33.458800 4.051500
33.506200 4.011200
33.553600 3.897200
33.601000 3.853800
33.648400 3.787200
33.695700 3.784600
33.743100 3.830700
33.790500 3.660800
33.837900 3.555200
33.885300 3.397300
33.932700 3.460600
33.980100 3.599900
34.027400 3.790100
34.074800 4.050000
34.122200 4.149300
34.169600 4.300600
34.217000 4.021000
34.264400 4.177700
34.311800 4.773700
34.359200 4.851300
34.406500 4.750700
34.453900 4.711600
34.501300 4.778800
34.548700 4.775000
34.596100 4.866800
34.643500 5.215400
34.690900 5.495700
34.738200 5.593500
34.785600 5.437700
34.833000 5.473400
34.880400 6.121600
34.927800 7.693000
34.975200 9.335500
35.022600 10.705000
35.069900 9.963400
35.117300 9.555600
35.164700 9.369000
35.212100 8.522200
35.259500 7.119600
35.306900 6.273900
35.354300 5.931100
35.401600 5.655100
35.449000 4.846000
35.496400 4.488100
35.543800 4.501600
35.591200 4.900000
35.638600 4.621600
35.686000 4.357600
35.733300 4.283000
35.780700 4.325100
35.828100 4.252300
35.875500 4.153400
35.922900 4.334700
35.970300 4.359700
36.017700 4.409900
36.065000 4.382300
36.112400 4.147500
36.159800 3.950900
36.207200 3.761500
36.254600 3.735200
36.302000 3.965900
36.349400 4.588100
36.396700 4.780300
36.444100 4.603800
36.491500 4.209000
36.538900 4.102200
36.586300 4.160500
36.633700 3.845500
36.681100 3.775900
36.728500 3.711400
36.775800 3.651400
36.823200 3.790600
36.870600 3.855200
36.918000 3.823300
36.965400 3.909600
37.012800 4.096400
37.060200 4.240500
37.107500 3.963900
37.154900 3.726000
37.202300 3.503100
37.249700 3.538300
37.297100 3.758100
37.344500 4.062900
37.391900 4.246500
37.439200 4.031600
37.486600 3.675100
37.534000 3.586100
37.581400 3.855800
37.628800 3.481700
37.676200 3.613200
37.723600 4.045400
37.770900 4.550600
37.818300 4.855800
37.865700 4.809100
37.913100 4.447700
37.960500 3.876900
38.007900 3.481900
38.055300 3.570900
38.102600 3.982100
38.150000 3.637200
38.197400 3.644400
38.244800 3.649800
38.292200 3.877300
38.339600 4.232000
38.387000 4.185900
38.434300 4.100800
38.481700 3.984300
38.529100 3.974800
38.576500 3.854300
38.623900 3.824600
38.671300 3.966200
38.718700 3.632300
38.766100 3.418100
38.813400 3.168200
38.860800 3.193000
38.908200 3.435200
38.955600 3.698600
39.003000 3.836800
39.050400 3.695700
39.097800 3.970000
39.145100 3.689000
39.192500 3.647600
39.239900 3.672200
39.287300 3.735800
39.334700 3.884100
39.382100 3.931500
39.429500 3.933000
39.476800 3.798300
39.524200 3.580500
39.571600 3.619600
39.619000 3.624200
39.666400 3.702000
39.713800 4.131700
39.761200 4.000100
39.808500 3.984900
39.855900 3.884900
39.903300 3.834900
39.950700 3.859000
39.998100 3.890500
40.045500 3.879900
40.092900 3.950100
40.140200 4.358300
40.187600 4.450300
40.235000 4.372000
40.282400 4.229300
40.329800 3.934700
40.377200 3.772900
40.424600 3.766700
40.471900 3.768800
40.519300 3.775800
40.566700 4.064100
40.614100 4.276500
40.661500 4.210000
40.708900 4.074900
40.756300 3.964100
40.803700 3.824900
40.851000 3.890900
40.898400 3.647700
40.945800 3.536800
40.993200 3.497600
41.040600 3.529300
41.088000 3.647200
41.135400 3.693600
41.182700 3.704900
41.230100 3.652800
41.277500 3.611500
41.324900 3.585900
41.372300 3.599500
41.419700 3.641300
41.467100 3.602700
41.514400 3.572600
41.561800 3.581700
41.609200 3.531900
41.656600 3.631900
41.704000 3.583800
41.751400 3.541600
41.798800 3.545300
41.846100 3.602600
41.893500 3.840000
41.940900 3.647600
41.988300 3.496500
42.035700 3.334000
42.083100 3.179000
42.130500 3.091500
42.177800 3.094700
42.225200 3.157300
42.272600 3.260800
42.320000 3.307100
42.367400 3.384800
42.414800 3.473600
42.462200 3.545200
42.509500 3.636600
42.556900 3.655600
42.604300 3.648900
42.651700 3.632600
42.699100 3.435000
42.746500 3.187900
42.793900 2.965400
42.841300 2.819200
42.888600 2.712600
42.936000 2.607400
42.983400 2.579400
43.030800 2.648400
43.078200 2.717800
43.125600 2.714700
43.173000 2.608400
43.220300 2.430000
43.267700 2.311000
43.315100 2.113500
43.362500 1.975200
43.409900 1.764900
43.457300 1.639300
43.504700 1.536000
43.552000 1.424500
43.599400 1.312200
43.646800 1.240500
43.694200 1.165600
43.741600 1.100000
43.789000 1.031400
43.836400 1.010900
43.883700 0.938000
43.931100 0.923400
43.978500 0.899000
44.025900 0.840600
44.073300 0.784500
44.120700 0.738700
44.168100 0.704900
44.215400 0.660000
44.262800 0.628800
44.310200 0.591900
44.357600 0.574200
44.405000 0.560000
44.452400 0.545000
44.499800 0.546500
44.547100 0.484400
44.594500 0.395500
44.641900 0.404300
44.689300 0.333800
44.736700 0.298100
44.784100 0.278000
44.831500 0.232800
44.878900 0.200800
44.926200 0.177200
44.973600 0.161400
45.021000 0.148600
45.068400 0.138500
45.115800 0.131000
45.163200 0.117100
45.210600 0.102000
45.257900 0.100400
45.305300 0.090700
45.352700 0.090500
45.400100 0.059100
45.447500 0.032000
45.494900 0.023400
45.542300 0.017600
45.589600 0.014100
45.637000 0.011600
45.684400 0.010200
45.731800 0.009400
45.779200 0.008600
45.826600 0.007800
45.874000 0.007100
45.921300 0.006400
45.968700 0.005700
46.016100 0.005100
46.063500 0.004500
46.110900 0.003900
46.158300 0.003400
46.205700 0.002900
46.253000 0.002400
46.300400 0.002000
46.347800 0.001600
46.395200 0.001300
46.442600 0.000900
46.490000 0.000700
46.537400 0.000400
46.584700 0.000200
46.632100 0.000000
46.679500 0.000000
46.726900 0.000000
46.774300 0.000000
46.821700 0.000000
46.869100 0.000000
46.916400 0.000000
46.963800 0.000000
47.011200 0.000000
47.058600 0.000000
47.106000 0.000000
47.153400 0.000000
47.200800 0.000000
47.248200 0.000000
47.295500 0.000000
47.342900 0.000000
47.390300 0.000000
47.437700 0.000000
47.485100 0.000000
47.532500 0.000000
47.579900 0.000000
47.627200 0.000000
47.674600 0.000000
47.722000 0.000000
47.769400 0.000000
47.816800 0.000000
47.864200 0.000000
47.911600 0.000000
47.958900 0.000000
48.006300 0.000000
48.053700 0.000000
48.101100 0.000000
48.148500 0.000000
48.195900 0.000000
48.243300 0.000000
48.290600 0.000000
48.338000 0.000000
48.385400 0.000000
48.432800 0.000000
48.480200 0.000000
48.527600 0.000000
48.575000 0.000000
48.622300 0.000000
48.669700 0.000000
48.717100 0.000000
48.764500 0.000000
48.811900 0.000000
48.859300 0.000000
48.906700 0.000000
48.954000 0.000000
49.001400 0.000000
49.048800 0.000000
49.096200 0.000000
49.143600 0.000000
49.191000 0.000000
49.238400 0.000000
49.285800 0.000000
49.333100 0.000000
49.380500 0.000000
49.427900 0.000000
49.475300 0.000000
49.522700 0.000000
49.570100 0.000000
49.617500 0.000000
49.664800 0.000000
49.712200 0.000000
49.759600 0.000000
49.807000 0.000000
49.854400 0.000000
49.901800 0.000000
49.949200 0.000000
49.996500 0.000000
50.043900 0.000000
50.091300 0.000000
50.138700 0.000000
50.186100 0.000000
50.233500 0.000000
50.280900 0.000000
50.328200 0.000000
50.375600 0.000000
50.423000 0.000000
50.470400 0.000000
50.517800 0.000000
50.565200 0.000000
50.612600 0.000000
50.659900 0.000000
50.707300 0.000000
50.754700 0.000000
50.802100 0.000000
50.849500 0.000000
50.896900 0.000000
50.944300 0.000000
e
