set title 'mp-32780 - Density of States'
set xlabel 'Energy (eV)'
set ylabel 'DOS (states/eV)'
set grid
set xrange [-10:10]
set yrange [0:44.180]
set xzeroaxis lt -1
set terminal png size 800,600
set output 'mp-32780_dos_gnuplot.png'
plot '-' using 1:2 with lines title 'DOS'
-16.623300 0.000000
-16.608200 0.000000
-16.593100 0.000000
-16.578000 0.000000
-16.562900 0.000000
-16.547900 0.000000
-16.532800 0.000000
-16.517700 0.000000
-16.502600 0.000000
-16.487500 0.000000
-16.472400 0.000000
-16.457400 0.000000
-16.442300 0.000000
-16.427200 0.000000
-16.412100 0.000000
-16.397000 0.000000
-16.381900 0.000000
-16.366800 0.000000
-16.351800 0.000000
-16.336700 0.000000
-16.321600 0.000000
-16.306500 0.000000
-16.291400 0.000000
-16.276300 0.000000
-16.261200 0.000000
-16.246200 0.000000
-16.231100 0.000000
-16.216000 0.000000
-16.200900 0.000000
-16.185800 0.000000
-16.170700 0.000000
-16.155700 0.000000
-16.140600 0.000000
-16.125500 0.000000
-16.110400 0.000000
-16.095300 0.000000
-16.080200 0.000000
-16.065100 0.000000
-16.050100 0.000000
-16.035000 0.000000
-16.019900 0.000000
-16.004800 0.000000
-15.989700 0.000000
-15.974600 0.000000
-15.959500 0.000000
-15.944500 0.000000
-15.929400 0.000000
-15.914300 0.000000
-15.899200 0.000000
-15.884100 0.000000
-15.869000 0.000000
-15.854000 0.000000
-15.838900 0.000000
-15.823800 0.000000
-15.808700 0.000000
-15.793600 0.000000
-15.778500 0.000000
-15.763400 0.000000
-15.748400 0.000000
-15.733300 0.000000
-15.718200 0.000000
-15.703100 0.000000
-15.688000 0.000000
-15.672900 0.000000
-15.657800 0.000000
-15.642800 0.000000
-15.627700 0.000000
-15.612600 0.000000
-15.597500 0.000000
-15.582400 0.000000
-15.567300 0.000000
-15.552200 0.000000
-15.537200 0.000000
-15.522100 0.000000
-15.507000 0.000000
-15.491900 0.000000
-15.476800 0.000000
-15.461700 0.000000
-15.446700 0.000000
-15.431600 0.000000
-15.416500 0.000000
-15.401400 0.000000
-15.386300 0.000100
-15.371200 0.000400
-15.356100 0.001600
-15.341100 0.006500
-15.326000 0.022100
-15.310900 0.064300
-15.295800 0.162200
-15.280700 0.357000
-15.265600 0.693300
-15.250500 1.205700
-15.235500 1.914000
-15.220400 2.837000
-15.205300 4.019800
-15.190200 5.545400
-15.175100 7.498500
-15.160000 9.876700
-15.145000 12.501500
-15.129900 15.010600
-15.114800 16.978200
-15.099700 18.106100
-15.084600 18.352200
-15.069500 17.910100
-15.054400 17.079900
-15.039400 16.140400
-15.024300 15.278600
-15.009200 14.556300
-14.994100 13.915000
-14.979000 13.237600
-14.963900 12.458800
-14.948800 11.653900
-14.933800 11.027600
-14.918700 10.785100
-14.903600 10.974400
-14.888500 11.450100
-14.873400 11.998800
-14.858300 12.484700
-14.843300 12.878400
-14.828200 13.204000
-14.813100 13.511800
-14.798000 13.872400
-14.782900 14.339400
-14.767800 14.921300
-14.752700 15.604400
-14.737700 16.351900
-14.722600 17.015800
-14.707500 17.261800
-14.692400 16.664000
-14.677300 14.956600
-14.662200 12.250800
-14.647100 9.032300
-14.632100 5.933300
-14.617000 3.445100
-14.601900 1.756500
-14.586800 0.781900
-14.571700 0.302300
-14.556600 0.101000
-14.541600 0.029100
-14.526500 0.007200
-14.511400 0.001500
-14.496300 0.000300
-14.481200 0.000000
-14.466100 0.000000
-14.451000 0.000000
-14.436000 0.000000
-14.420900 0.000000
-14.405800 0.000000
-14.390700 0.000000
-14.375600 0.000000
-14.360500 0.000000
-14.345400 0.000000
-14.330400 0.000000
-14.315300 0.000000
-14.300200 0.000000
-14.285100 0.000000
-14.270000 0.000000
-14.254900 0.000000
-14.239900 0.000000
-14.224800 0.000000
-14.209700 0.000000
-14.194600 0.000000
-14.179500 0.000000
-14.164400 0.000000
-14.149300 0.000000
-14.134300 0.000000
-14.119200 0.000000
-14.104100 0.000000
-14.089000 0.000000
-14.073900 0.000000
-14.058800 0.000000
-14.043700 0.000000
-14.028700 0.000000
-14.013600 0.000000
-13.998500 0.000000
-13.983400 0.000000
-13.968300 0.000000
-13.953200 0.000000
-13.938200 0.000000
-13.923100 0.000000
-13.908000 0.000000
-13.892900 0.000000
-13.877800 0.000000
-13.862700 0.000000
-13.847600 0.000000
-13.832600 0.000000
-13.817500 0.000000
-13.802400 0.000000
-13.787300 0.000000
-13.772200 0.000000
-13.757100 0.000000
-13.742000 0.000000
-13.727000 0.000000
-13.711900 0.000000
-13.696800 0.000000
-13.681700 0.000000
-13.666600 0.000000
-13.651500 0.000000
-13.636500 0.000000
-13.621400 0.000000
-13.606300 0.000000
-13.591200 0.000000
-13.576100 0.000000
-13.561000 0.000000
-13.545900 0.000000
-13.530900 0.000000
-13.515800 0.000000
-13.500700 0.000000
-13.485600 0.000000
-13.470500 0.000000
-13.455400 0.000000
-13.440300 0.000000
-13.425300 0.000000
-13.410200 0.000000
-13.395100 0.000000
-13.380000 0.000000
-13.364900 0.000000
-13.349800 0.000000
-13.334800 0.000000
-13.319700 0.000000
-13.304600 0.000000
-13.289500 0.000000
-13.274400 0.000000
-13.259300 0.000000
-13.244200 0.000000
-13.229200 0.000000
-13.214100 0.000000
-13.199000 0.000000
-13.183900 0.000000
-13.168800 0.000000
-13.153700 0.000000
-13.138600 0.000000
-13.123600 0.000000
-13.108500 0.000000
-13.093400 0.000000
-13.078300 0.000000
-13.063200 0.000000
-13.048100 0.000000
-13.033100 0.000000
-13.018000 0.000000
-13.002900 0.000000
-12.987800 0.000000
-12.972700 0.000000
-12.957600 0.000000
-12.942500 0.000000
-12.927500 0.000000
-12.912400 0.000000
-12.897300 0.000000
-12.882200 0.000000
-12.867100 0.000000
-12.852000 0.000000
-12.836900 0.000000
-12.821900 0.000000
-12.806800 0.000000
-12.791700 0.000000
-12.776600 0.000000
-12.761500 0.000000
-12.746400 0.000000
-12.731400 0.000000
-12.716300 0.000000
-12.701200 0.000000
-12.686100 0.000000
-12.671000 0.000000
-12.655900 0.000000
-12.640800 0.000000
-12.625800 0.000000
-12.610700 0.000000
-12.595600 0.000000
-12.580500 0.000000
-12.565400 0.000000
-12.550300 0.000000
-12.535200 0.000000
-12.520200 0.000000
-12.505100 0.000000
-12.490000 0.000000
-12.474900 0.000000
-12.459800 0.000000
-12.444700 0.000000
-12.429700 0.000000
-12.414600 0.000000
-12.399500 0.000000
-12.384400 0.000000
-12.369300 0.000000
-12.354200 0.000000
-12.339100 0.000000
-12.324100 0.000000
-12.309000 0.000000
-12.293900 0.000000
-12.278800 0.000000
-12.263700 0.000000
-12.248600 0.000000
-12.233500 0.000000
-12.218500 0.000000
-12.203400 0.000000
-12.188300 0.000000
-12.173200 0.000000
-12.158100 0.000000
-12.143000 0.000000
-12.128000 0.000000
-12.112900 0.000000
-12.097800 0.000000
-12.082700 0.000000
-12.067600 0.000000
-12.052500 0.000000
-12.037400 0.000000
-12.022400 0.000000
-12.007300 0.000000
-11.992200 0.000000
-11.977100 0.000000
-11.962000 0.000000
-11.946900 0.000000
-11.931800 0.000000
-11.916800 0.000000
-11.901700 0.000000
-11.886600 0.000000
-11.871500 0.000000
-11.856400 0.000000
-11.841300 0.000000
-11.826300 0.000000
-11.811200 0.000000
-11.796100 0.000000
-11.781000 0.000000
-11.765900 0.000000
-11.750800 0.000000
-11.735700 0.000000
-11.720700 0.000000
-11.705600 0.000000
-11.690500 0.000000
-11.675400 0.000000
-11.660300 0.000000
-11.645200 0.000000
-11.630100 0.000000
-11.615100 0.000000
-11.600000 0.000000
-11.584900 0.000000
-11.569800 0.000000
-11.554700 0.000000
-11.539600 0.000000
-11.524600 0.000000
-11.509500 0.000000
-11.494400 0.000000
-11.479300 0.000000
-11.464200 0.000000
-11.449100 0.000000
-11.434000 0.000000
-11.419000 0.000000
-11.403900 0.000000
-11.388800 0.000000
-11.373700 0.000000
-11.358600 0.000000
-11.343500 0.000000
-11.328400 0.000000
-11.313400 0.000000
-11.298300 0.000000
-11.283200 0.000000
-11.268100 0.000000
-11.253000 0.000000
-11.237900 0.000000
-11.222900 0.000000
-11.207800 0.000000
-11.192700 0.000000
-11.177600 0.000000
-11.162500 0.000000
-11.147400 0.000000
-11.132300 0.000000
-11.117300 0.000000
-11.102200 0.000000
-11.087100 0.000000
-11.072000 0.000000
-11.056900 0.000000
-11.041800 0.000000
-11.026700 0.000000
-11.011700 0.000000
-10.996600 0.000000
-10.981500 0.000000
-10.966400 0.000000
-10.951300 0.000000
-10.936200 0.000000
-10.921200 0.000000
-10.906100 0.000000
-10.891000 0.000000
-10.875900 0.000000
-10.860800 0.000000
-10.845700 0.000000
-10.830600 0.000000
-10.815600 0.000000
-10.800500 0.000000
-10.785400 0.000000
-10.770300 0.000000
-10.755200 0.000000
-10.740100 0.000000
-10.725000 0.000000
-10.710000 0.000000
-10.694900 0.000000
-10.679800 0.000000
-10.664700 0.000000
-10.649600 0.000000
-10.634500 0.000000
-10.619400 0.000000
-10.604400 0.000000
-10.589300 0.000000
-10.574200 0.000000
-10.559100 0.000000
-10.544000 0.000000
-10.528900 0.000000
-10.513900 0.000000
-10.498800 0.000000
-10.483700 0.000000
-10.468600 0.000000
-10.453500 0.000000
-10.438400 0.000000
-10.423300 0.000000
-10.408300 0.000000
-10.393200 0.000000
-10.378100 0.000000
-10.363000 0.000000
-10.347900 0.000000
-10.332800 0.000000
-10.317700 0.000000
-10.302700 0.000000
-10.287600 0.000000
-10.272500 0.000000
-10.257400 0.000000
-10.242300 0.000000
-10.227200 0.000000
-10.212200 0.000000
-10.197100 0.000000
-10.182000 0.000000
-10.166900 0.000000
-10.151800 0.000000
-10.136700 0.000000
-10.121600 0.000000
-10.106600 0.000000
-10.091500 0.000000
-10.076400 0.000000
-10.061300 0.000000
-10.046200 0.000000
-10.031100 0.000000
-10.016000 0.000000
-10.001000 0.000000
-9.985900 0.000000
-9.970800 0.000000
-9.955700 0.000000
-9.940600 0.000000
-9.925500 0.000000
-9.910500 0.000000
-9.895400 0.000000
-9.880300 0.000000
-9.865200 0.000000
-9.850100 0.000000
-9.835000 0.000000
-9.819900 0.000000
-9.804900 0.000000
-9.789800 0.000000
-9.774700 0.000000
-9.759600 0.000000
-9.744500 0.000000
-9.729400 0.000000
-9.714300 0.000000
-9.699300 0.000000
-9.684200 0.000000
-9.669100 0.000000
-9.654000 0.000000
-9.638900 0.000000
-9.623800 0.000000
-9.608800 0.000000
-9.593700 0.000000
-9.578600 0.000000
-9.563500 0.000000
-9.548400 0.000000
-9.533300 0.000000
-9.518200 0.000000
-9.503200 0.000000
-9.488100 0.000000
-9.473000 0.000000
-9.457900 0.000000
-9.442800 0.000000
-9.427700 0.000000
-9.412600 0.000000
-9.397600 0.000000
-9.382500 0.000000
-9.367400 0.000000
-9.352300 0.000000
-9.337200 0.000000
-9.322100 0.000000
-9.307100 0.000000
-9.292000 0.000000
-9.276900 0.000000
-9.261800 0.000000
-9.246700 0.000000
-9.231600 0.000000
-9.216500 0.000000
-9.201500 0.000000
-9.186400 0.000000
-9.171300 0.000000
-9.156200 0.000000
-9.141100 0.000000
-9.126000 0.000000
-9.110900 0.000000
-9.095900 0.000000
-9.080800 0.000000
-9.065700 0.000000
-9.050600 0.000000
-9.035500 0.000000
-9.020400 0.000000
-9.005400 0.000000
-8.990300 0.000000
-8.975200 0.000000
-8.960100 0.000000
-8.945000 0.000000
-8.929900 0.000000
-8.914800 0.000000
-8.899800 0.000000
-8.884700 0.000000
-8.869600 0.000000
-8.854500 0.000000
-8.839400 0.000000
-8.824300 0.000000
-8.809200 0.000000
-8.794200 0.000000
-8.779100 0.000000
-8.764000 0.000000
-8.748900 0.000000
-8.733800 0.000000
-8.718700 0.000000
-8.703700 0.000000
-8.688600 0.000000
-8.673500 0.000000
-8.658400 0.000000
-8.643300 0.000000
-8.628200 0.000000
-8.613100 0.000000
-8.598100 0.000000
-8.583000 0.000000
-8.567900 0.000000
-8.552800 0.000000
-8.537700 0.000000
-8.522600 0.000000
-8.507500 0.000000
-8.492500 0.000000
-8.477400 0.000000
-8.462300 0.000000
-8.447200 0.000000
-8.432100 0.000000
-8.417000 0.000000
-8.402000 0.000000
-8.386900 0.000000
-8.371800 0.000000
-8.356700 0.000000
-8.341600 0.000000
-8.326500 0.000000
-8.311400 0.000000
-8.296400 0.000000
-8.281300 0.000000
-8.266200 0.000000
-8.251100 0.000000
-8.236000 0.000000
-8.220900 0.000000
-8.205800 0.000000
-8.190800 0.000000
-8.175700 0.000000
-8.160600 0.000000
-8.145500 0.000000
-8.130400 0.000000
-8.115300 0.000000
-8.100300 0.000000
-8.085200 0.000000
-8.070100 0.000000
-8.055000 0.000000
-8.039900 0.000000
-8.024800 0.000000
-8.009700 0.000000
-7.994700 0.000000
-7.979600 0.000000
-7.964500 0.000000
-7.949400 0.000000
-7.934300 0.000000
-7.919200 0.000000
-7.904100 0.000000
-7.889100 0.000000
-7.874000 0.000000
-7.858900 0.000000
-7.843800 0.000000
-7.828700 0.000000
-7.813600 0.000000
-7.798600 0.000000
-7.783500 0.000000
-7.768400 0.000000
-7.753300 0.000000
-7.738200 0.000000
-7.723100 0.000000
-7.708000 0.000000
-7.693000 0.000000
-7.677900 0.000000
-7.662800 0.000000
-7.647700 0.000000
-7.632600 0.000000
-7.617500 0.000000
-7.602400 0.000000
-7.587400 0.000000
-7.572300 0.000000
-7.557200 0.000000
-7.542100 0.000000
-7.527000 0.000000
-7.511900 0.000000
-7.496900 0.000000
-7.481800 0.000000
-7.466700 0.000000
-7.451600 0.000000
-7.436500 0.000000
-7.421400 0.000000
-7.406300 0.000000
-7.391300 0.000000
-7.376200 0.000000
-7.361100 0.000000
-7.346000 0.000000
-7.330900 0.000000
-7.315800 0.000000
-7.300700 0.000000
-7.285700 0.000000
-7.270600 0.000000
-7.255500 0.000000
-7.240400 0.000000
-7.225300 0.000000
-7.210200 0.000000
-7.195200 0.000000
-7.180100 0.000000
-7.165000 0.000000
-7.149900 0.000000
-7.134800 0.000000
-7.119700 0.000000
-7.104600 0.000000
-7.089600 0.000000
-7.074500 0.000000
-7.059400 0.000000
-7.044300 0.000000
-7.029200 0.000000
-7.014100 0.000000
-6.999000 0.000000
-6.984000 0.000000
-6.968900 0.000000
-6.953800 0.000000
-6.938700 0.000000
-6.923600 0.000000
-6.908500 0.000000
-6.893500 0.000000
-6.878400 0.000000
-6.863300 0.000000
-6.848200 0.000000
-6.833100 0.000000
-6.818000 0.000000
-6.802900 0.000000
-6.787900 0.000000
-6.772800 0.000000
-6.757700 0.000000
-6.742600 0.000000
-6.727500 0.000000
-6.712400 0.000000
-6.697300 0.000000
-6.682300 0.000000
-6.667200 0.000000
-6.652100 0.000000
-6.637000 0.000000
-6.621900 0.000000
-6.606800 0.000000
-6.591800 0.000000
-6.576700 0.000000
-6.561600 0.000000
-6.546500 0.000000
-6.531400 0.000000
-6.516300 0.000000
-6.501200 0.000000
-6.486200 0.000000
-6.471100 0.000000
-6.456000 0.000000
-6.440900 0.000000
-6.425800 0.000000
-6.410700 0.000000
-6.395600 0.000000
-6.380600 0.000000
-6.365500 0.000000
-6.350400 0.000000
-6.335300 0.000000
-6.320200 0.000000
-6.305100 0.000000
-6.290100 0.000000
-6.275000 0.000000
-6.259900 0.000000
-6.244800 0.000000
-6.229700 0.000000
-6.214600 0.000000
-6.199500 0.000000
-6.184500 0.000000
-6.169400 0.000100
-6.154300 0.000400
-6.139200 0.001900
-6.124100 0.008500
-6.109000 0.033200
-6.093900 0.110400
-6.078900 0.316900
-6.063800 0.787800
-6.048700 1.703900
-6.033600 3.221300
-6.018500 5.344100
-6.003400 7.804800
-5.988300 10.061000
-5.973300 11.483100
-5.958200 11.684200
-5.943100 10.791900
-5.928000 9.435500
-5.912900 8.387000
-5.897800 8.074000
-5.882800 8.320100
-5.867700 8.515900
-5.852600 8.085200
-5.837500 6.884700
-5.822400 5.264100
-5.807300 3.814200
-5.792200 3.043600
-5.777200 3.176900
-5.762100 4.106200
-5.747000 5.445900
-5.731900 6.667700
-5.716800 7.299200
-5.701700 7.110200
-5.686600 6.183100
-5.671600 4.834400
-5.656500 3.458400
-5.641400 2.389900
-5.626300 1.838300
-5.611200 1.875100
-5.596100 2.439600
-5.581100 3.354500
-5.566000 4.372800
-5.550900 5.259400
-5.535800 5.856700
-5.520700 6.087700
-5.505600 5.918300
-5.490500 5.353600
-5.475500 4.487200
-5.460400 3.529300
-5.445300 2.743300
-5.430200 2.322600
-5.415100 2.303200
-5.400000 2.573200
-5.384900 2.962700
-5.369900 3.352300
-5.354800 3.732300
-5.339700 4.171400
-5.324600 4.716700
-5.309500 5.298600
-5.294400 5.722400
-5.279400 5.778100
-5.264300 5.395400
-5.249200 4.709900
-5.234100 3.976200
-5.219000 3.428100
-5.203900 3.216600
-5.188800 3.433700
-5.173800 4.123200
-5.158700 5.233100
-5.143600 6.577800
-5.128500 7.887000
-5.113400 8.921500
-5.098300 9.557100
-5.083200 9.778500
-5.068200 9.630700
-5.053100 9.198300
-5.038000 8.622800
-5.022900 8.108800
-5.007800 7.873100
-4.992700 8.039700
-4.977700 8.550300
-4.962600 9.185500
-4.947500 9.710500
-4.932400 10.019500
-4.917300 10.138600
-4.902200 10.107500
-4.887100 9.895600
-4.872100 9.433700
-4.857000 8.691900
-4.841900 7.708700
-4.826800 6.573100
-4.811700 5.403600
-4.796600 4.325800
-4.781500 3.429300
-4.766500 2.727600
-4.751400 2.165900
-4.736300 1.674900
-4.721200 1.221300
-4.706100 0.816000
-4.691000 0.489100
-4.676000 0.259000
-4.660900 0.119700
-4.645800 0.047900
-4.630700 0.016400
-4.615600 0.004800
-4.600500 0.001200
-4.585400 0.000300
-4.570400 0.000000
-4.555300 0.000000
-4.540200 0.000000
-4.525100 0.000000
-4.510000 0.000000
-4.494900 0.000000
-4.479800 0.000000
-4.464800 0.000000
-4.449700 0.000000
-4.434600 0.000000
-4.419500 0.000000
-4.404400 0.000000
-4.389300 0.000000
-4.374300 0.000000
-4.359200 0.000000
-4.344100 0.000000
-4.329000 0.000000
-4.313900 0.000000
-4.298800 0.000000
-4.283700 0.000000
-4.268700 0.000100
-4.253600 0.000400
-4.238500 0.001800
-4.223400 0.007300
-4.208300 0.024500
-4.193200 0.069400
-4.178100 0.166100
-4.163100 0.338600
-4.148000 0.596900
-4.132900 0.932900
-4.117800 1.335900
-4.102700 1.815600
-4.087600 2.397400
-4.072600 3.098000
-4.057500 3.926400
-4.042400 4.923000
-4.027300 6.177600
-4.012200 7.770900
-3.997100 9.681800
-3.982000 11.757700
-3.967000 13.770800
-3.951900 15.500100
-3.936800 16.779400
-3.921700 17.522000
-3.906600 17.746100
-3.891500 17.576800
-3.876400 17.192400
-3.861400 16.741500
-3.846300 16.286100
-3.831200 15.809200
-3.816100 15.284300
-3.801000 14.766300
-3.785900 14.426000
-3.770900 14.470000
-3.755800 14.981200
-3.740700 15.804900
-3.725600 16.595100
-3.710500 17.006500
-3.695400 16.885700
-3.680300 16.321900
-3.665300 15.553100
-3.650200 14.830400
-3.635100 14.316200
-3.620000 14.027900
-3.604900 13.843300
-3.589800 13.602100
-3.574700 13.254900
-3.559700 12.927200
-3.544600 12.823500
-3.529500 13.055700
-3.514400 13.545200
-3.499300 14.068100
-3.484200 14.384500
-3.469200 14.355200
-3.454100 13.994000
-3.439000 13.448100
-3.423900 12.923100
-3.408800 12.583300
-3.393700 12.479100
-3.378600 12.538800
-3.363600 12.616800
-3.348500 12.562600
-3.333400 12.286100
-3.318300 11.804800
-3.303200 11.244200
-3.288100 10.778200
-3.273000 10.539700
-3.258000 10.560300
-3.242900 10.773900
-3.227800 11.072400
-3.212700 11.367400
-3.197600 11.618300
-3.182500 11.820000
-3.167500 11.971300
-3.152400 12.045000
-3.137300 11.974700
-3.122200 11.691200
-3.107100 11.204900
-3.092000 10.662300
-3.076900 10.299700
-3.061900 10.312500
-3.046800 10.736600
-3.031700 11.419700
-3.016600 12.095300
-3.001500 12.514300
-2.986400 12.560500
-2.971300 12.276000
-2.956300 11.790600
-2.941200 11.219100
-2.926100 10.609900
-2.911000 9.963600
-2.895900 9.275000
-2.880800 8.552100
-2.865800 7.816700
-2.850700 7.104700
-2.835600 6.470600
-2.820500 5.990500
-2.805400 5.750600
-2.790300 5.799400
-2.775200 6.075900
-2.760200 6.389000
-2.745100 6.512400
-2.730000 6.337400
-2.714900 5.944400
-2.699800 5.521400
-2.684700 5.223000
-2.669600 5.110600
-2.654600 5.210200
-2.639500 5.585600
-2.624400 6.319700
-2.609300 7.407100
-2.594200 8.676200
-2.579100 9.826400
-2.564100 10.558200
-2.549000 10.712400
-2.533900 10.358400
-2.518800 9.788700
-2.503700 9.393300
-2.488600 9.461600
-2.473500 10.033800
-2.458500 10.889900
-2.443400 11.663700
-2.428300 12.019200
-2.413200 11.817600
-2.398100 11.180500
-2.383000 10.386500
-2.367900 9.675500
-2.352900 9.130300
-2.337800 8.720000
-2.322700 8.415600
-2.307600 8.255300
-2.292500 8.331600
-2.277400 8.744500
-2.262400 9.543300
-2.247300 10.669200
-2.232200 11.945000
-2.217100 13.157100
-2.202000 14.190200
-2.186900 15.087700
-2.171800 15.955300
-2.156800 16.780100
-2.141700 17.344200
-2.126600 17.331800
-2.111500 16.545400
-2.096400 15.051900
-2.081300 13.167400
-2.066200 11.329300
-2.051200 9.943300
-2.036100 9.267400
-2.021000 9.361100
-2.005900 10.105800
-1.990800 11.273000
-1.975700 12.600200
-1.960700 13.866200
-1.945600 14.955300
-1.930500 15.859000
-1.915400 16.580800
-1.900300 17.027600
-1.885200 17.036800
-1.870100 16.541100
-1.855100 15.693700
-1.840000 14.820000
-1.824900 14.255000
-1.809800 14.219900
-1.794700 14.804000
-1.779600 16.021800
-1.764500 17.887400
-1.749500 20.448200
-1.734400 23.735600
-1.719300 27.647800
-1.704200 31.845300
-1.689100 35.753600
-1.674000 38.703600
-1.659000 40.163700
-1.643900 39.960900
-1.628800 38.385900
-1.613700 36.104900
-1.598600 33.888100
-1.583500 32.301600
-1.568400 31.560900
-1.553400 31.591900
-1.538300 32.165700
-1.523200 32.983200
-1.508100 33.728200
-1.493000 34.144400
-1.477900 34.111200
-1.462800 33.654000
-1.447800 32.883900
-1.432700 31.917500
-1.417600 30.831100
-1.402500 29.670000
-1.387400 28.479700
-1.372300 27.304400
-1.357300 26.147200
-1.342200 24.965000
-1.327100 23.744000
-1.312000 22.587500
-1.296900 21.686400
-1.281800 21.153400
-1.266700 20.882900
-1.251700 20.601600
-1.236600 20.066400
-1.221500 19.203700
-1.206400 18.082000
-1.191300 16.816900
-1.176200 15.544100
-1.161100 14.446800
-1.146100 13.722800
-1.131000 13.458500
-1.115900 13.524600
-1.100800 13.624600
-1.085700 13.475900
-1.070600 12.961600
-1.055500 12.143900
-1.040500 11.184900
-1.025400 10.269000
-1.010300 9.544200
-0.995200 9.059600
-0.980100 8.724000
-0.965000 8.342200
-0.950000 7.735800
-0.934900 6.874100
-0.919800 5.919200
-0.904700 5.142100
-0.889600 4.749600
-0.874500 4.742300
-0.859400 4.922800
-0.844400 5.061600
-0.829300 5.074700
-0.814200 5.051000
-0.799100 5.129900
-0.784000 5.372800
-0.768900 5.736100
-0.753800 6.115900
-0.738800 6.393900
-0.723700 6.474800
-0.708600 6.333800
-0.693500 6.048800
-0.678400 5.764400
-0.663300 5.602300
-0.648300 5.597900
-0.633200 5.715000
-0.618100 5.907000
-0.603000 6.153700
-0.587900 6.449400
-0.572800 6.768800
-0.557700 7.054900
-0.542700 7.255200
-0.527600 7.380900
-0.512500 7.516000
-0.497400 7.742800
-0.482300 8.060300
-0.467200 8.400100
-0.452100 8.717300
-0.437100 9.032700
-0.422000 9.377100
-0.406900 9.730400
-0.391800 10.036700
-0.376700 10.256600
-0.361600 10.378900
-0.346600 10.396700
-0.331500 10.302000
-0.316400 10.109900
-0.301300 9.875100
-0.286200 9.679600
-0.271100 9.593600
-0.256000 9.637500
-0.241000 9.773200
-0.225900 9.933400
-0.210800 10.058600
-0.195700 10.106600
-0.180600 10.048400
-0.165500 9.871500
-0.150400 9.576200
-0.135400 9.146800
-0.120300 8.539400
-0.105200 7.732900
-0.090100 6.811100
-0.075000 5.975000
-0.059900 5.440300
-0.044900 5.288000
-0.029800 5.397600
-0.014700 5.535700
0.000400 5.530800
0.015500 5.378500
0.030600 5.187500
0.045700 5.049500
0.060700 4.974200
0.075800 4.928200
0.090900 4.897900
0.106000 4.901000
0.121100 4.952500
0.136200 5.042600
0.151300 5.149400
0.166300 5.260400
0.181400 5.366900
0.196500 5.442300
0.211600 5.440200
0.226700 5.318800
0.241800 5.063700
0.256800 4.690000
0.271900 4.242100
0.287000 3.795900
0.302100 3.433000
0.317200 3.181400
0.332300 2.982900
0.347400 2.741500
0.362400 2.417600
0.377500 2.070100
0.392600 1.799400
0.407700 1.650500
0.422800 1.575900
0.437900 1.484900
0.453000 1.325100
0.468000 1.117500
0.483100 0.925600
0.498200 0.797900
0.513300 0.731900
0.528400 0.684000
0.543500 0.610300
0.558500 0.499700
0.573600 0.373300
0.588700 0.258900
0.603800 0.170400
0.618900 0.106900
0.634000 0.062500
0.649100 0.033000
0.664100 0.015300
0.679200 0.006000
0.694300 0.002000
0.709400 0.000600
0.724500 0.000100
0.739600 0.000000
0.754700 0.000000
0.769700 0.000000
0.784800 0.000000
0.799900 0.000000
0.815000 0.000000
0.830100 0.000000
0.845200 0.000000
0.860200 0.000000
0.875300 0.000000
0.890400 0.000000
0.905500 0.000000
0.920600 0.000000
0.935700 0.000000
0.950800 0.000000
0.965800 0.000000
0.980900 0.000000
0.996000 0.000000
1.011100 0.000000
1.026200 0.000000
1.041300 0.000000
1.056400 0.000000
1.071400 0.000000
1.086500 0.000000
1.101600 0.000000
1.116700 0.000000
1.131800 0.000000
1.146900 0.000000
1.161900 0.000000
1.177000 0.000000
1.192100 0.000000
1.207200 0.000000
1.222300 0.000000
1.237400 0.000000
1.252500 0.000000
1.267500 0.000000
1.282600 0.000000
1.297700 0.000000
1.312800 0.000000
1.327900 0.000000
1.343000 0.000000
1.358100 0.000000
1.373100 0.000000
1.388200 0.000000
1.403300 0.000000
1.418400 0.000000
1.433500 0.000000
1.448600 0.000000
1.463600 0.000000
1.478700 0.000000
1.493800 0.000000
1.508900 0.000000
1.524000 0.000000
1.539100 0.000000
1.554200 0.000000
1.569200 0.000000
1.584300 0.000000
1.599400 0.000000
1.614500 0.000000
1.629600 0.000000
1.644700 0.000000
1.659800 0.000000
1.674800 0.000000
1.689900 0.000000
1.705000 0.000000
1.720100 0.000000
1.735200 0.000000
1.750300 0.000000
1.765300 0.000000
1.780400 0.000000
1.795500 0.000000
1.810600 0.000000
1.825700 0.000000
1.840800 0.000000
1.855900 0.000000
1.870900 0.000000
1.886000 0.000000
1.901100 0.000000
1.916200 0.000000
1.931300 0.000000
1.946400 0.000000
1.961500 0.000000
1.976500 0.000000
1.991600 0.000000
2.006700 0.000000
2.021800 0.000000
2.036900 0.000000
2.052000 0.000000
2.067000 0.000000
2.082100 0.000000
2.097200 0.000000
2.112300 0.000000
2.127400 0.000000
2.142500 0.000000
2.157600 0.000000
2.172600 0.000000
2.187700 0.000000
2.202800 0.000000
2.217900 0.000000
2.233000 0.000000
2.248100 0.000000
2.263200 0.000000
2.278200 0.000000
2.293300 0.000000
2.308400 0.000000
2.323500 0.000000
2.338600 0.000000
2.353700 0.000000
2.368700 0.000000
2.383800 0.000000
2.398900 0.000100
2.414000 0.000500
2.429100 0.001800
2.444200 0.005700
2.459300 0.015800
2.474300 0.037700
2.489400 0.079200
2.504500 0.148000
2.519600 0.248300
2.534700 0.374700
2.549800 0.508100
2.564900 0.620700
2.579900 0.693100
2.595000 0.734300
2.610100 0.780800
2.625200 0.869900
2.640300 1.005300
2.655400 1.146000
2.670400 1.229400
2.685500 1.214800
2.700600 1.116700
2.715700 1.003500
2.730800 0.960700
2.745900 1.039400
2.761000 1.225200
2.776000 1.450200
2.791100 1.640100
2.806200 1.755700
2.821300 1.792800
2.836400 1.751300
2.851500 1.628600
2.866600 1.452800
2.881600 1.310500
2.896700 1.315600
2.911800 1.537600
2.926900 1.951200
2.942000 2.443500
2.957100 2.871500
2.972100 3.133800
2.987200 3.217500
3.002300 3.198300
3.017400 3.196000
3.032500 3.317200
3.047600 3.609800
3.062700 4.041500
3.077700 4.510000
3.092800 4.898800
3.107900 5.154800
3.123000 5.330100
3.138100 5.545500
3.153200 5.911400
3.168300 6.462200
3.183300 7.126200
3.198400 7.725800
3.213500 8.036700
3.228600 7.907100
3.243700 7.352600
3.258800 6.534600
3.273800 5.650100
3.288900 4.854900
3.304000 4.263600
3.319100 3.956700
3.334200 3.941100
3.349300 4.121400
3.364400 4.353000
3.379400 4.544000
3.394500 4.700700
3.409600 4.874100
3.424700 5.080000
3.439800 5.277700
3.454900 5.409000
3.470000 5.439700
3.485000 5.371500
3.500100 5.235400
3.515200 5.079100
3.530300 4.953600
3.545400 4.899200
3.560500 4.938100
3.575500 5.067600
3.590600 5.255200
3.605700 5.447500
3.620800 5.595800
3.635900 5.677500
3.651000 5.701800
3.666100 5.699800
3.681100 5.701700
3.696200 5.701700
3.711300 5.644900
3.726400 5.464800
3.741500 5.148000
3.756600 4.755100
3.771700 4.377000
3.786700 4.071100
3.801800 3.834800
3.816900 3.634800
3.832000 3.460300
3.847100 3.344200
3.862200 3.324400
3.877300 3.385100
3.892300 3.454700
3.907400 3.468300
3.922500 3.426000
3.937600 3.389300
3.952700 3.431100
3.967800 3.589300
3.982800 3.846600
3.997900 4.135600
4.013000 4.362600
4.028100 4.447800
4.043200 4.368800
4.058300 4.174400
4.073400 3.954200
4.088400 3.787900
4.103500 3.717300
4.118600 3.753000
4.133700 3.891800
4.148800 4.124800
4.163900 4.437000
4.179000 4.801400
4.194000 5.183600
4.209100 5.568700
4.224200 5.986300
4.239300 6.481700
4.254400 7.034300
4.269500 7.518300
4.284500 7.783800
4.299600 7.793600
4.314700 7.658500
4.329800 7.525700
4.344900 7.448300
4.360000 7.371600
4.375100 7.215200
4.390100 6.937300
4.405200 6.528800
4.420300 5.984400
4.435400 5.310000
4.450500 4.557600
4.465600 3.832800
4.480700 3.248300
4.495700 2.861800
4.510800 2.660600
4.525900 2.594700
4.541000 2.606100
4.556100 2.627900
4.571200 2.584700
4.586200 2.426500
4.601300 2.172900
4.616400 1.913200
4.631500 1.753000
4.646600 1.747600
4.661700 1.868100
4.676800 2.025700
4.691800 2.142000
4.706900 2.210900
4.722000 2.296700
4.737100 2.464400
4.752200 2.708700
4.767300 2.948500
4.782400 3.088500
4.797400 3.090600
4.812500 2.993400
4.827600 2.871800
4.842700 2.782200
4.857800 2.737000
4.872900 2.714300
4.887900 2.682900
4.903000 2.624400
4.918100 2.536100
4.933200 2.416200
4.948300 2.255200
4.963400 2.054300
4.978500 1.844800
4.993500 1.671700
5.008600 1.555500
5.023700 1.483100
5.038800 1.439800
5.053900 1.438800
5.069000 1.506600
5.084100 1.638000
5.099100 1.774000
5.114200 1.834700
5.129300 1.782300
5.144400 1.652200
5.159500 1.522300
5.174600 1.459300
5.189600 1.495000
5.204700 1.639800
5.219800 1.895100
5.234900 2.247100
5.250000 2.658900
5.265100 3.072700
5.280200 3.415000
5.295200 3.604600
5.310300 3.580100
5.325400 3.345800
5.340500 2.991800
5.355600 2.655900
5.370700 2.448200
5.385800 2.402700
5.400800 2.484000
5.415900 2.625200
5.431000 2.764800
5.446100 2.868800
5.461200 2.938000
5.476300 2.994300
5.491300 3.049500
5.506400 3.084800
5.521500 3.061500
5.536600 2.952700
5.551700 2.763100
5.566800 2.522800
5.581900 2.267500
5.596900 2.027600
5.612000 1.827600
5.627100 1.691100
5.642200 1.641000
5.657300 1.695000
5.672400 1.859200
5.687500 2.119300
5.702500 2.431000
5.717600 2.719100
5.732700 2.896300
5.747800 2.903300
5.762900 2.745000
5.778000 2.492200
5.793000 2.251300
5.808100 2.119600
5.823200 2.148600
5.838300 2.324000
5.853400 2.575400
5.868500 2.817700
5.883600 2.995800
5.898600 3.097500
5.913700 3.132000
5.928800 3.101400
5.943900 2.991700
5.959000 2.787100
5.974100 2.495700
5.989200 2.163000
6.004200 1.854700
6.019300 1.622400
6.034400 1.487600
6.049500 1.453600
6.064600 1.514400
6.079700 1.643900
6.094700 1.786600
6.109800 1.876800
6.124900 1.871900
6.140000 1.768900
6.155100 1.595300
6.170200 1.393700
6.185300 1.215100
6.200300 1.116500
6.215400 1.151900
6.230500 1.346400
6.245600 1.669500
6.260700 2.036800
6.275800 2.349200
6.290900 2.541400
6.305900 2.595800
6.321000 2.520700
6.336100 2.327400
6.351200 2.034400
6.366300 1.685900
6.381400 1.351800
6.396400 1.103400
6.411500 0.983700
6.426600 0.994200
6.441700 1.102900
6.456800 1.264200
6.471900 1.440100
6.487000 1.605700
6.502000 1.740400
6.517100 1.825500
6.532200 1.856400
6.547300 1.851700
6.562400 1.833400
6.577500 1.797800
6.592600 1.715300
6.607600 1.570400
6.622700 1.403700
6.637800 1.317200
6.652900 1.432600
6.668000 1.818000
6.683100 2.425800
6.698100 3.088400
6.713200 3.596100
6.728300 3.811400
6.743400 3.728400
6.758500 3.431100
6.773600 3.011600
6.788700 2.540300
6.803700 2.091700
6.818800 1.757800
6.833900 1.611300
6.849000 1.656700
6.864100 1.821900
6.879200 1.997200
6.894300 2.090400
6.909300 2.061300
6.924400 1.928900
6.939500 1.752300
6.954600 1.596600
6.969700 1.499200
6.984800 1.458400
6.999800 1.451700
7.014900 1.469400
7.030000 1.531400
7.045100 1.676300
7.060200 1.932200
7.075300 2.294200
7.090400 2.719000
7.105400 3.128900
7.120500 3.426900
7.135600 3.529300
7.150700 3.407500
7.165800 3.118700
7.180900 2.798800
7.196000 2.613700
7.211000 2.684400
7.226100 3.032800
7.241200 3.581400
7.256300 4.201000
7.271400 4.770300
7.286500 5.223100
7.301500 5.552900
7.316600 5.770500
7.331700 5.851400
7.346800 5.742200
7.361900 5.430100
7.377000 4.995500
7.392100 4.576300
7.407100 4.276200
7.422200 4.116900
7.437300 4.070800
7.452400 4.113300
7.467500 4.226800
7.482600 4.373700
7.497700 4.496600
7.512700 4.556400
7.527800 4.553100
7.542900 4.501700
7.558000 4.403900
7.573100 4.266300
7.588200 4.140900
7.603200 4.116400
7.618300 4.248100
7.633400 4.503200
7.648500 4.782700
7.663600 4.988700
7.678700 5.070500
7.693800 5.036400
7.708800 4.944600
7.723900 4.871400
7.739000 4.848900
7.754100 4.822800
7.769200 4.689200
7.784300 4.398400
7.799400 4.025500
7.814400 3.728700
7.829500 3.624300
7.844600 3.697300
7.859700 3.827700
7.874800 3.896300
7.889900 3.860500
7.904900 3.740900
7.920000 3.562200
7.935100 3.327100
7.950200 3.042100
7.965300 2.745700
7.980400 2.495500
7.995500 2.334600
8.010500 2.280600
8.025600 2.339700
8.040700 2.509600
8.055800 2.760000
8.070900 3.028800
8.086000 3.259500
8.101100 3.445900
8.116100 3.630700
8.131200 3.858200
8.146300 4.132500
8.161400 4.419900
8.176500 4.675800
8.191600 4.855800
8.206600 4.905600
8.221700 4.771600
8.236800 4.444800
8.251900 3.994400
8.267000 3.546500
8.282100 3.217300
8.297200 3.057900
8.312200 3.052700
8.327300 3.156000
8.342400 3.317400
8.357500 3.473000
8.372600 3.541900
8.387700 3.463900
8.402800 3.252200
8.417800 2.993400
8.432900 2.784600
8.448000 2.665700
8.463100 2.605500
8.478200 2.541100
8.493300 2.431500
8.508300 2.284500
8.523400 2.143400
8.538500 2.056600
8.553600 2.056600
8.568700 2.152600
8.583800 2.320400
8.598900 2.492300
8.613900 2.577800
8.629000 2.521600
8.644100 2.359700
8.659200 2.218100
8.674300 2.239100
8.689400 2.489200
8.704500 2.921000
8.719500 3.412700
8.734600 3.839100
8.749700 4.120100
8.764800 4.235600
8.779900 4.219500
8.795000 4.135100
8.810100 4.036400
8.825100 3.949200
8.840200 3.885400
8.855300 3.863900
8.870400 3.900200
8.885500 3.982000
8.900600 4.072000
8.915600 4.141000
8.930700 4.189500
8.945800 4.234200
8.960900 4.283700
8.976000 4.330300
8.991100 4.355400
9.006200 4.336900
9.021200 4.262800
9.036300 4.151400
9.051400 4.059000
9.066500 4.061400
9.081600 4.219000
9.096700 4.546000
9.111800 4.992200
9.126800 5.461500
9.141900 5.867000
9.157000 6.183300
9.172100 6.440800
9.187200 6.669900
9.202300 6.865500
9.217300 7.002900
9.232400 7.065800
9.247500 7.045700
9.262600 6.933400
9.277700 6.735500
9.292800 6.497800
9.307900 6.297400
9.322900 6.207200
9.338000 6.262600
9.353100 6.446000
9.368200 6.683500
9.383300 6.861700
9.398400 6.875600
9.413500 6.691900
9.428500 6.387200
9.443600 6.123800
9.458700 6.065400
9.473800 6.280100
9.488900 6.686900
9.504000 7.088800
9.519000 7.282900
9.534100 7.175300
9.549200 6.821600
9.564300 6.373100
9.579400 5.989000
9.594500 5.777600
9.609600 5.784500
9.624600 5.998100
9.639700 6.343100
9.654800 6.676000
9.669900 6.826000
9.685000 6.686400
9.700100 6.291500
9.715200 5.799500
9.730200 5.378300
9.745300 5.095900
9.760400 4.908900
9.775500 4.741500
9.790600 4.559700
9.805700 4.377800
9.820700 4.216600
9.835800 4.083300
9.850900 4.002700
9.866000 4.059600
9.881100 4.380000
9.896200 5.031000
9.911300 5.919600
9.926300 6.798200
9.941400 7.403900
9.956500 7.629100
9.971600 7.577700
9.986700 7.454700
10.001800 7.395300
10.016900 7.387300
10.031900 7.334200
10.047000 7.166100
10.062100 6.891400
10.077200 6.574000
10.092300 6.291900
10.107400 6.114400
10.122400 6.092000
10.137500 6.247700
10.152600 6.572400
10.167700 7.025500
10.182800 7.532300
10.197900 7.980200
10.213000 8.238600
10.228000 8.222500
10.243100 7.956500
10.258200 7.567300
10.273300 7.189700
10.288400 6.872300
10.303500 6.571700
10.318600 6.224600
10.333600 5.816700
10.348700 5.395400
10.363800 5.045800
10.378900 4.865200
10.394000 4.934400
10.409100 5.262200
10.424100 5.738500
10.439200 6.165600
10.454300 6.380200
10.469400 6.367000
10.484500 6.259700
10.499600 6.234000
10.514700 6.395300
10.529700 6.736600
10.544800 7.161600
10.559900 7.539200
10.575000 7.772900
10.590100 7.850700
10.605200 7.827000
10.620300 7.738400
10.635300 7.547900
10.650400 7.188800
10.665500 6.663700
10.680600 6.076500
10.695700 5.559700
10.710800 5.173000
10.725800 4.877000
10.740900 4.597300
10.756000 4.308100
10.771100 4.054500
10.786200 3.901200
10.801300 3.863700
10.816400 3.893000
10.831400 3.928400
10.846500 3.960300
10.861600 4.033500
10.876700 4.192100
10.891800 4.431000
10.906900 4.708300
10.922000 4.988900
10.937000 5.260600
10.952100 5.518000
10.967200 5.753000
10.982300 5.965900
10.997400 6.180500
11.012500 6.441900
11.027500 6.794400
11.042600 7.234000
11.057700 7.665200
11.072800 7.913100
11.087900 7.822600
11.103000 7.387800
11.118100 6.800500
11.133100 6.352800
11.148200 6.254900
11.163300 6.513000
11.178400 6.964100
11.193500 7.428300
11.208600 7.835400
11.223700 8.220600
11.238700 8.622700
11.253800 9.009900
11.268900 9.292900
11.284000 9.382700
11.299100 9.230500
11.314200 8.844000
11.329200 8.294200
11.344300 7.704400
11.359400 7.216500
11.374500 6.949900
11.389600 6.961400
11.404700 7.216700
11.419800 7.592200
11.434800 7.930100
11.449900 8.118500
11.465000 8.142000
11.480100 8.069400
11.495200 8.007500
11.510300 8.060600
11.525400 8.295600
11.540400 8.701300
11.555500 9.154000
11.570600 9.440600
11.585700 9.361500
11.600800 8.862200
11.615900 8.085800
11.630900 7.297600
11.646000 6.740700
11.661100 6.525800
11.676200 6.607400
11.691300 6.826500
11.706400 6.981700
11.721500 6.905100
11.736500 6.524200
11.751600 5.892700
11.766700 5.170400
11.781800 4.548500
11.796900 4.156000
11.812000 4.002900
11.827100 3.994000
11.842100 3.997900
11.857200 3.924000
11.872300 3.763500
11.887400 3.575000
11.902500 3.425600
11.917600 3.329900
11.932600 3.232000
11.947700 3.050800
11.962800 2.752100
11.977900 2.380600
11.993000 2.022500
12.008100 1.735100
12.023200 1.514300
12.038200 1.318200
12.053300 1.116500
12.068400 0.918200
12.083500 0.761100
12.098600 0.676200
12.113700 0.657400
12.128800 0.662400
12.143800 0.643100
12.158900 0.576300
12.174000 0.470100
12.189100 0.348500
12.204200 0.234200
12.219300 0.141200
12.234300 0.075200
12.249400 0.034800
12.264500 0.013800
12.279600 0.004700
12.294700 0.001300
12.309800 0.000300
12.324900 0.000100
12.339900 0.000000
12.355000 0.000000
12.370100 0.000000
12.385200 0.000000
12.400300 0.000000
12.415400 0.000000
12.430500 0.000000
12.445500 0.000000
12.460600 0.000000
12.475700 0.000000
12.490800 0.000000
12.505900 0.000000
12.521000 0.000000
12.536000 0.000000
12.551100 0.000000
12.566200 0.000000
12.581300 0.000000
12.596400 0.000000
12.611500 0.000000
12.626600 0.000000
12.641600 0.000000
12.656700 0.000000
12.671800 0.000000
12.686900 0.000000
12.702000 0.000000
12.717100 0.000000
12.732200 0.000000
12.747200 0.000000
12.762300 0.000000
12.777400 0.000000
12.792500 0.000000
12.807600 0.000000
12.822700 0.000000
12.837700 0.000000
12.852800 0.000000
12.867900 0.000000
12.883000 0.000000
12.898100 0.000000
12.913200 0.000000
12.928300 0.000000
12.943300 0.000000
12.958400 0.000000
12.973500 0.000000
12.988600 0.000000
13.003700 0.000000
13.018800 0.000000
13.033900 0.000000
13.048900 0.000000
13.064000 0.000000
13.079100 0.000000
13.094200 0.000000
13.109300 0.000000
13.124400 0.000000
13.139400 0.000000
13.154500 0.000000
13.169600 0.000000
13.184700 0.000000
13.199800 0.000000
13.214900 0.000000
13.230000 0.000000
13.245000 0.000000
13.260100 0.000000
13.275200 0.000000
13.290300 0.000000
13.305400 0.000000
13.320500 0.000000
13.335600 0.000000
13.350600 0.000000
13.365700 0.000000
13.380800 0.000000
13.395900 0.000000
13.411000 0.000000
13.426100 0.000000
13.441100 0.000000
13.456200 0.000000
13.471300 0.000000
13.486400 0.000000
13.501500 0.000000
13.516600 0.000000
13.531700 0.000000
13.546700 0.000000
e
