set title 'mp-1018125 - Density of States'
set xlabel 'Energy (eV)'
set ylabel 'DOS (states/eV)'
set grid
set xrange [-10:10]
set yrange [0:9.236]
set xzeroaxis lt -1
set terminal png size 800,600
set output 'mp-1018125_dos_gnuplot.png'
plot '-' using 1:2 with lines title 'DOS'
-38.663700 0.000000
-38.623300 0.000000
-38.582900 0.000000
-38.542500 0.000000
-38.502100 0.000000
-38.461700 0.000000
-38.421300 0.000000
-38.380900 0.000000
-38.340400 0.000000
-38.300000 0.000000
-38.259600 0.000000
-38.219200 0.000000
-38.178800 0.000000
-38.138400 0.000000
-38.098000 0.000000
-38.057600 0.000000
-38.017200 0.000000
-37.976800 0.000000
-37.936400 0.000000
-37.896000 0.000000
-37.855600 0.000000
-37.815200 0.000000
-37.774800 0.000000
-37.734400 0.000000
-37.694000 0.000000
-37.653600 0.000000
-37.613200 0.000000
-37.572800 0.000000
-37.532400 0.000000
-37.492000 0.000000
-37.451600 0.000000
-37.411200 0.000000
-37.370800 0.000000
-37.330400 0.000000
-37.290000 0.000000
-37.249600 0.000000
-37.209200 0.000000
-37.168800 0.000000
-37.128400 0.000000
-37.088000 0.000000
-37.047600 0.000000
-37.007200 0.000000
-36.966800 0.000000
-36.926400 0.000000
-36.886000 0.000000
-36.845600 0.000000
-36.805200 0.000000
-36.764800 0.000000
-36.724400 0.000000
-36.684000 0.000000
-36.643600 0.000000
-36.603200 0.000000
-36.562800 0.000000
-36.522400 0.000000
-36.482000 0.000000
-36.441500 0.000000
-36.401100 0.000000
-36.360700 0.000000
-36.320300 0.000000
-36.279900 0.000000
-36.239500 0.000000
-36.199100 0.000000
-36.158700 0.000000
-36.118300 0.000000
-36.077900 0.000000
-36.037500 0.000000
-35.997100 0.000000
-35.956700 0.000000
-35.916300 0.000000
-35.875900 0.000000
-35.835500 0.000000
-35.795100 0.000000
-35.754700 0.000000
-35.714300 0.000000
-35.673900 0.000000
-35.633500 0.000000
-35.593100 0.000000
-35.552700 0.000000
-35.512300 0.000000
-35.471900 0.000000
-35.431500 0.000000
-35.391100 0.000000
-35.350700 0.000000
-35.310300 0.000000
-35.269900 0.000000
-35.229500 0.000000
-35.189100 0.000000
-35.148700 0.000000
-35.108300 0.000000
-35.067900 0.000000
-35.027500 0.000000
-34.987100 15.069700
-34.946700 5.608200
-34.906300 3.636500
-34.865900 2.938100
-34.825500 2.938100
-34.785100 2.734300
-34.744700 2.734300
-34.704300 132.671300
-34.663900 83.511200
-34.623500 3.497300
-34.583100 3.497300
-34.542600 5.318300
-34.502200 0.000000
-34.461800 0.000000
-34.421400 0.000000
-34.381000 0.000000
-34.340600 0.000000
-34.300200 0.000000
-34.259800 0.000000
-34.219400 0.000000
-34.179000 0.000000
-34.138600 0.000000
-34.098200 0.000000
-34.057800 0.000000
-34.017400 0.000000
-33.977000 0.000000
-33.936600 0.000000
-33.896200 0.000000
-33.855800 0.000000
-33.815400 0.000000
-33.775000 0.000000
-33.734600 0.000000
-33.694200 0.000000
-33.653800 0.000000
-33.613400 0.000000
-33.573000 0.000000
-33.532600 0.000000
-33.492200 0.000000
-33.451800 0.000000
-33.411400 0.000000
-33.371000 0.000000
-33.330600 0.000000
-33.290200 0.000000
-33.249800 0.000000
-33.209400 0.000000
-33.169000 0.000000
-33.128600 0.000000
-33.088200 0.000000
-33.047800 0.000000
-33.007400 0.000000
-32.967000 0.000000
-32.926600 0.000000
-32.886200 0.000000
-32.845800 0.000000
-32.805400 0.000000
-32.765000 0.000000
-32.724600 0.000000
-32.684200 0.000000
-32.643800 0.000000
-32.603300 0.000000
-32.562900 0.000000
-32.522500 0.000000
-32.482100 0.000000
-32.441700 0.000000
-32.401300 0.000000
-32.360900 0.000000
-32.320500 0.000000
-32.280100 0.000000
-32.239700 0.000000
-32.199300 0.000000
-32.158900 0.000000
-32.118500 0.000000
-32.078100 0.000000
-32.037700 0.000000
-31.997300 0.000000
-31.956900 0.000000
-31.916500 0.000000
-31.876100 0.000000
-31.835700 0.000000
-31.795300 0.000000
-31.754900 0.000000
-31.714500 0.000000
-31.674100 0.000000
-31.633700 0.000000
-31.593300 0.000000
-31.552900 0.000000
-31.512500 0.000000
-31.472100 0.000000
-31.431700 0.000000
-31.391300 0.000000
-31.350900 0.000000
-31.310500 0.000000
-31.270100 0.000000
-31.229700 0.000000
-31.189300 0.000000
-31.148900 0.000000
-31.108500 0.000000
-31.068100 0.000000
-31.027700 0.000000
-30.987300 0.000000
-30.946900 0.000000
-30.906500 0.000000
-30.866100 0.000000
-30.825700 0.000000
-30.785300 0.000000
-30.744900 0.000000
-30.704400 0.000000
-30.664000 0.000000
-30.623600 0.000000
-30.583200 0.000000
-30.542800 0.000000
-30.502400 0.000000
-30.462000 0.000000
-30.421600 0.000000
-30.381200 0.000000
-30.340800 0.000000
-30.300400 0.000000
-30.260000 0.000000
-30.219600 0.000000
-30.179200 0.000000
-30.138800 0.000000
-30.098400 0.000000
-30.058000 0.000000
-30.017600 0.000000
-29.977200 0.000000
-29.936800 0.000000
-29.896400 0.000000
-29.856000 0.000000
-29.815600 0.000000
-29.775200 0.000000
-29.734800 0.000000
-29.694400 0.000000
-29.654000 0.000000
-29.613600 0.000000
-29.573200 0.000000
-29.532800 0.000000
-29.492400 0.000000
-29.452000 0.000000
-29.411600 0.000000
-29.371200 0.000000
-29.330800 0.000000
-29.290400 0.000000
-29.250000 0.000000
-29.209600 0.000000
-29.169200 0.000000
-29.128800 0.000000
-29.088400 0.000000
-29.048000 0.000000
-29.007600 0.000000
-28.967200 0.000000
-28.926800 0.000000
-28.886400 0.000000
-28.846000 0.000000
-28.805500 0.000000
-28.765100 0.000000
-28.724700 0.000000
-28.684300 0.000000
-28.643900 0.000000
-28.603500 0.000000
-28.563100 0.000000
-28.522700 0.000000
-28.482300 0.000000
-28.441900 0.000000
-28.401500 0.000000
-28.361100 0.000000
-28.320700 0.000000
-28.280300 0.000000
-28.239900 0.000000
-28.199500 0.000000
-28.159100 0.000000
-28.118700 0.000000
-28.078300 0.000000
-28.037900 0.000000
-27.997500 0.000000
-27.957100 0.000000
-27.916700 0.000000
-27.876300 0.000000
-27.835900 0.000000
-27.795500 0.000000
-27.755100 0.000000
-27.714700 0.000000
-27.674300 0.000000
-27.633900 0.000000
-27.593500 0.000000
-27.553100 0.000000
-27.512700 0.000000
-27.472300 0.000000
-27.431900 0.000000
-27.391500 0.000000
-27.351100 0.000000
-27.310700 0.000000
-27.270300 0.000000
-27.229900 0.000000
-27.189500 0.000000
-27.149100 0.000000
-27.108700 0.000000
-27.068300 0.000000
-27.027900 0.000000
-26.987500 0.000000
-26.947100 0.000000
-26.906600 0.000000
-26.866200 0.000000
-26.825800 0.000000
-26.785400 0.000000
-26.745000 0.000000
-26.704600 0.000000
-26.664200 0.000000
-26.623800 0.000000
-26.583400 0.000000
-26.543000 12.965100
-26.502600 22.692200
-26.462200 26.012200
-26.421800 40.455300
-26.381400 19.669900
-26.341000 13.760400
-26.300600 6.334500
-26.260200 10.235400
-26.219800 15.102900
-26.179400 17.351200
-26.139000 34.101400
-26.098600 46.542900
-26.058200 23.224400
-26.017800 10.858000
-25.977400 7.488100
-25.937000 0.000000
-25.896600 0.000000
-25.856200 0.000000
-25.815800 0.000000
-25.775400 0.000000
-25.735000 0.000000
-25.694600 0.000000
-25.654200 0.000000
-25.613800 0.000000
-25.573400 0.000000
-25.533000 0.000000
-25.492600 0.000000
-25.452200 0.000000
-25.411800 0.000000
-25.371400 0.000000
-25.331000 0.000000
-25.290600 0.000000
-25.250200 0.000000
-25.209800 0.000000
-25.169400 0.000000
-25.129000 0.000000
-25.088600 0.000000
-25.048200 0.000000
-25.007800 0.000000
-24.967300 0.000000
-24.926900 0.000000
-24.886500 0.000000
-24.846100 0.000000
-24.805700 0.000000
-24.765300 0.000000
-24.724900 0.000000
-24.684500 0.000000
-24.644100 0.000000
-24.603700 0.000000
-24.563300 0.000000
-24.522900 0.000000
-24.482500 0.000000
-24.442100 0.000000
-24.401700 0.000000
-24.361300 0.000000
-24.320900 0.000000
-24.280500 0.000000
-24.240100 0.000000
-24.199700 0.000000
-24.159300 0.000000
-24.118900 0.000000
-24.078500 0.000000
-24.038100 0.000000
-23.997700 0.000000
-23.957300 0.000000
-23.916900 0.000000
-23.876500 0.000000
-23.836100 0.000000
-23.795700 0.000000
-23.755300 0.000000
-23.714900 0.000000
-23.674500 0.000000
-23.634100 0.000000
-23.593700 0.000000
-23.553300 0.000000
-23.512900 0.000000
-23.472500 0.000000
-23.432100 0.000000
-23.391700 0.000000
-23.351300 0.000000
-23.310900 0.000000
-23.270500 0.000000
-23.230100 0.000000
-23.189700 0.000000
-23.149300 0.000000
-23.108900 0.000000
-23.068400 0.000000
-23.028000 0.000000
-22.987600 0.000000
-22.947200 0.000000
-22.906800 0.000000
-22.866400 0.000000
-22.826000 0.000000
-22.785600 0.000000
-22.745200 0.000000
-22.704800 0.000000
-22.664400 0.000000
-22.624000 0.000000
-22.583600 0.000000
-22.543200 0.000000
-22.502800 0.000000
-22.462400 0.000000
-22.422000 0.000000
-22.381600 0.000000
-22.341200 0.000000
-22.300800 0.000000
-22.260400 0.000000
-22.220000 0.000000
-22.179600 0.000000
-22.139200 0.000000
-22.098800 0.000000
-22.058400 0.000000
-22.018000 0.000000
-21.977600 0.000000
-21.937200 0.000000
-21.896800 0.000000
-21.856400 0.000000
-21.816000 0.000000
-21.775600 0.000000
-21.735200 0.000000
-21.694800 0.000000
-21.654400 0.000000
-21.614000 0.000000
-21.573600 0.000000
-21.533200 0.000000
-21.492800 0.000000
-21.452400 0.000000
-21.412000 0.000000
-21.371600 0.000000
-21.331200 0.000000
-21.290800 0.000000
-21.250400 0.000000
-21.210000 0.000000
-21.169500 0.000000
-21.129100 0.000000
-21.088700 0.000000
-21.048300 0.000000
-21.007900 0.000000
-20.967500 0.000000
-20.927100 0.000000
-20.886700 0.000000
-20.846300 0.000000
-20.805900 0.000000
-20.765500 0.000000
-20.725100 0.000000
-20.684700 0.000000
-20.644300 0.000000
-20.603900 0.000000
-20.563500 0.000000
-20.523100 0.000000
-20.482700 0.000000
-20.442300 0.000000
-20.401900 0.000000
-20.361500 0.000000
-20.321100 0.000000
-20.280700 0.000000
-20.240300 0.000000
-20.199900 0.000000
-20.159500 0.000000
-20.119100 0.000000
-20.078700 0.000000
-20.038300 0.000000
-19.997900 0.000000
-19.957500 0.000000
-19.917100 0.000000
-19.876700 0.000000
-19.836300 0.000000
-19.795900 0.000000
-19.755500 0.000000
-19.715100 0.000000
-19.674700 0.000000
-19.634300 0.000000
-19.593900 0.000000
-19.553500 0.000000
-19.513100 0.000000
-19.472700 0.000000
-19.432300 0.000000
-19.391900 0.000000
-19.351500 0.000000
-19.311100 0.000000
-19.270600 0.000000
-19.230200 0.000000
-19.189800 0.000000
-19.149400 0.000000
-19.109000 0.000000
-19.068600 0.000000
-19.028200 0.000000
-18.987800 0.000000
-18.947400 0.000000
-18.907000 0.000000
-18.866600 0.000000
-18.826200 0.000000
-18.785800 0.000000
-18.745400 0.000000
-18.705000 0.000000
-18.664600 0.000000
-18.624200 0.000000
-18.583800 0.000000
-18.543400 0.000000
-18.503000 0.000000
-18.462600 0.000000
-18.422200 0.000000
-18.381800 0.000000
-18.341400 0.000000
-18.301000 0.000000
-18.260600 0.000000
-18.220200 0.000000
-18.179800 0.000000
-18.139400 0.000000
-18.099000 0.000000
-18.058600 0.000000
-18.018200 0.000000
-17.977800 0.000000
-17.937400 0.000000
-17.897000 0.000000
-17.856600 0.000000
-17.816200 0.000000
-17.775800 0.000000
-17.735400 0.000000
-17.695000 0.000000
-17.654600 0.000000
-17.614200 0.000000
-17.573800 0.000000
-17.533400 0.000000
-17.493000 0.000000
-17.452600 0.000000
-17.412200 0.000000
-17.371800 0.000000
-17.331300 0.000000
-17.290900 0.000000
-17.250500 0.000000
-17.210100 0.000000
-17.169700 0.000000
-17.129300 0.000000
-17.088900 0.000000
-17.048500 0.000000
-17.008100 0.000000
-16.967700 0.000000
-16.927300 0.000000
-16.886900 0.000000
-16.846500 0.000000
-16.806100 0.000000
-16.765700 0.000000
-16.725300 0.000000
-16.684900 0.000000
-16.644500 0.000000
-16.604100 0.000000
-16.563700 0.000000
-16.523300 0.000000
-16.482900 0.000000
-16.442500 0.000000
-16.402100 0.000000
-16.361700 0.000000
-16.321300 0.000000
-16.280900 0.000000
-16.240500 0.000000
-16.200100 0.000000
-16.159700 0.000000
-16.119300 0.000000
-16.078900 0.000000
-16.038500 0.000000
-15.998100 0.000000
-15.957700 0.000000
-15.917300 0.000000
-15.876900 0.000000
-15.836500 0.000000
-15.796100 0.000000
-15.755700 0.000000
-15.715300 0.000000
-15.674900 0.000000
-15.634500 0.000000
-15.594100 0.000000
-15.553700 0.000000
-15.513300 0.000000
-15.472900 0.000000
-15.432400 0.000000
-15.392000 0.000000
-15.351600 0.000000
-15.311200 0.000000
-15.270800 0.000000
-15.230400 0.000000
-15.190000 0.000000
-15.149600 0.000000
-15.109200 0.000000
-15.068800 0.000000
-15.028400 0.000000
-14.988000 0.000000
-14.947600 0.000000
-14.907200 0.000000
-14.866800 0.000000
-14.826400 0.000000
-14.786000 0.000000
-14.745600 0.000000
-14.705200 0.000000
-14.664800 0.000000
-14.624400 0.000000
-14.584000 0.000000
-14.543600 0.000000
-14.503200 0.000000
-14.462800 0.000000
-14.422400 0.000000
-14.382000 0.000000
-14.341600 0.000000
-14.301200 0.000000
-14.260800 0.000000
-14.220400 0.000000
-14.180000 0.000000
-14.139600 0.000000
-14.099200 0.000000
-14.058800 0.000000
-14.018400 0.000000
-13.978000 0.000000
-13.937600 0.000000
-13.897200 0.000000
-13.856800 0.000000
-13.816400 0.000000
-13.776000 0.000000
-13.735600 0.000000
-13.695200 0.000000
-13.654800 0.000000
-13.614400 0.000000
-13.574000 0.000000
-13.533500 0.000000
-13.493100 0.000000
-13.452700 0.000000
-13.412300 0.000000
-13.371900 0.000000
-13.331500 0.000000
-13.291100 0.000000
-13.250700 0.000000
-13.210300 0.000000
-13.169900 0.000000
-13.129500 0.000000
-13.089100 0.000000
-13.048700 0.000000
-13.008300 0.000000
-12.967900 0.000000
-12.927500 0.000000
-12.887100 0.000000
-12.846700 0.000000
-12.806300 0.000000
-12.765900 0.000000
-12.725500 0.000000
-12.685100 0.000000
-12.644700 0.000000
-12.604300 0.000000
-12.563900 0.000000
-12.523500 0.000000
-12.483100 0.000000
-12.442700 0.000000
-12.402300 0.000000
-12.361900 0.000000
-12.321500 0.000000
-12.281100 0.000000
-12.240700 0.000000
-12.200300 0.000000
-12.159900 0.000000
-12.119500 0.000000
-12.079100 0.000000
-12.038700 0.000000
-11.998300 0.000000
-11.957900 0.000000
-11.917500 0.000000
-11.877100 0.000000
-11.836700 0.000000
-11.796300 0.000000
-11.755900 0.000000
-11.715500 0.000000
-11.675100 0.000000
-11.634600 0.000000
-11.594200 0.000000
-11.553800 0.000000
-11.513400 0.000000
-11.473000 0.000000
-11.432600 0.000000
-11.392200 0.000000
-11.351800 0.000000
-11.311400 0.000000
-11.271000 0.000000
-11.230600 0.000000
-11.190200 0.000000
-11.149800 0.000000
-11.109400 0.000000
-11.069000 0.000000
-11.028600 0.000000
-10.988200 0.000000
-10.947800 0.000000
-10.907400 0.000000
-10.867000 0.000000
-10.826600 0.000000
-10.786200 0.000000
-10.745800 0.000000
-10.705400 0.000000
-10.665000 0.000000
-10.624600 0.000000
-10.584200 0.000000
-10.543800 0.000000
-10.503400 0.000000
-10.463000 0.000000
-10.422600 0.000000
-10.382200 0.000000
-10.341800 0.000000
-10.301400 0.000000
-10.261000 0.000000
-10.220600 0.000000
-10.180200 0.000000
-10.139800 0.000000
-10.099400 0.000000
-10.059000 0.000000
-10.018600 0.000000
-9.978200 0.000000
-9.937800 0.000000
-9.897400 0.000000
-9.857000 0.000000
-9.816600 0.000000
-9.776200 0.000000
-9.735800 0.000000
-9.695300 0.000000
-9.654900 0.000000
-9.614500 0.000000
-9.574100 0.000000
-9.533700 0.000000
-9.493300 0.000000
-9.452900 0.000000
-9.412500 0.000000
-9.372100 0.000000
-9.331700 0.000000
-9.291300 0.000000
-9.250900 0.000000
-9.210500 0.000000
-9.170100 0.000000
-9.129700 0.000000
-9.089300 0.000000
-9.048900 0.000000
-9.008500 0.000000
-8.968100 0.000000
-8.927700 0.000000
-8.887300 0.000000
-8.846900 0.000000
-8.806500 0.000000
-8.766100 0.000000
-8.725700 0.000000
-8.685300 0.000000
-8.644900 0.000000
-8.604500 0.000000
-8.564100 0.000000
-8.523700 0.000000
-8.483300 0.000000
-8.442900 0.000000
-8.402500 0.000000
-8.362100 0.000000
-8.321700 0.000000
-8.281300 0.000000
-8.240900 0.000000
-8.200500 0.000000
-8.160100 0.000000
-8.119700 0.000000
-8.079300 0.000000
-8.038900 0.000000
-7.998500 0.000000
-7.958100 0.000000
-7.917700 0.000000
-7.877300 0.000000
-7.836900 0.000000
-7.796400 0.000000
-7.756000 0.000000
-7.715600 0.000000
-7.675200 0.000000
-7.634800 0.000000
-7.594400 0.000000
-7.554000 0.000000
-7.513600 0.000000
-7.473200 0.000000
-7.432800 0.000000
-7.392400 0.000000
-7.352000 0.000000
-7.311600 0.000000
-7.271200 0.000000
-7.230800 0.000000
-7.190400 0.000000
-7.150000 0.000000
-7.109600 0.000000
-7.069200 0.000000
-7.028800 0.000000
-6.988400 0.000000
-6.948000 0.000000
-6.907600 0.000000
-6.867200 0.000000
-6.826800 0.000000
-6.786400 0.000000
-6.746000 0.000000
-6.705600 0.000000
-6.665200 0.000000
-6.624800 0.000000
-6.584400 0.000000
-6.544000 0.000000
-6.503600 0.000000
-6.463200 0.000000
-6.422800 0.000000
-6.382400 0.000000
-6.342000 0.000000
-6.301600 0.000000
-6.261200 0.000000
-6.220800 0.000000
-6.180400 0.000000
-6.140000 0.000000
-6.099600 0.000000
-6.059200 0.000000
-6.018800 0.000000
-5.978400 0.000000
-5.938000 0.000000
-5.897500 0.000000
-5.857100 0.000000
-5.816700 0.000000
-5.776300 0.000000
-5.735900 0.000000
-5.695500 0.000000
-5.655100 0.000000
-5.614700 0.000000
-5.574300 0.000000
-5.533900 0.000000
-5.493500 0.000000
-5.453100 0.000000
-5.412700 0.000000
-5.372300 0.000000
-5.331900 0.000000
-5.291500 0.000000
-5.251100 0.000000
-5.210700 0.000000
-5.170300 0.000000
-5.129900 0.000000
-5.089500 0.000000
-5.049100 0.000000
-5.008700 0.000000
-4.968300 0.000000
-4.927900 0.000000
-4.887500 0.000000
-4.847100 0.000000
-4.806700 0.000000
-4.766300 0.000000
-4.725900 0.000000
-4.685500 0.000000
-4.645100 0.000000
-4.604700 0.000000
-4.564300 0.000000
-4.523900 0.000000
-4.483500 0.000000
-4.443100 0.000000
-4.402700 0.000000
-4.362300 0.000000
-4.321900 0.000000
-4.281500 0.000000
-4.241100 0.000000
-4.200700 0.000000
-4.160300 0.000000
-4.119900 0.000000
-4.079500 0.000000
-4.039100 0.000000
-3.998600 0.000000
-3.958200 0.000000
-3.917800 0.000000
-3.877400 0.000000
-3.837000 0.000000
-3.796600 0.000000
-3.756200 0.000000
-3.715800 0.000000
-3.675400 0.000000
-3.635000 0.000000
-3.594600 0.000000
-3.554200 0.000000
-3.513800 0.000000
-3.473400 0.000000
-3.433000 0.000000
-3.392600 0.000000
-3.352200 0.000000
-3.311800 0.000000
-3.271400 0.000000
-3.231000 0.000000
-3.190600 0.000000
-3.150200 0.000000
-3.109800 0.000000
-3.069400 0.000000
-3.029000 0.000000
-2.988600 0.000000
-2.948200 0.000000
-2.907800 0.000000
-2.867400 0.000000
-2.827000 0.000000
-2.786600 0.000000
-2.746200 0.000000
-2.705800 0.000000
-2.665400 0.000000
-2.625000 0.000000
-2.584600 0.000000
-2.544200 0.000000
-2.503800 0.000000
-2.463400 0.000000
-2.423000 0.000000
-2.382600 0.000000
-2.342200 0.000000
-2.301800 0.000000
-2.261400 0.000000
-2.221000 0.000000
-2.180600 0.000000
-2.140200 0.000000
-2.099800 0.000000
-2.059300 0.000000
-2.018900 0.000000
-1.978500 0.000000
-1.938100 0.000000
-1.897700 0.000000
-1.857300 0.000000
-1.816900 0.000000
-1.776500 0.000000
-1.736100 0.000000
-1.695700 0.000000
-1.655300 0.000000
-1.614900 0.000000
-1.574500 0.000000
-1.534100 0.000000
-1.493700 0.000000
-1.453300 0.000000
-1.412900 0.000000
-1.372500 0.000000
-1.332100 0.000000
-1.291700 0.000000
-1.251300 0.000000
-1.210900 0.000000
-1.170500 0.000000
-1.130100 0.000000
-1.089700 0.000000
-1.049300 0.000000
-1.008900 0.000000
-0.968500 0.000000
-0.928100 0.000000
-0.887700 0.000000
-0.847300 0.000000
-0.806900 0.000000
-0.766500 0.000300
-0.726100 0.013200
-0.685700 0.044700
-0.645300 0.072600
-0.604900 0.079500
-0.564500 0.085100
-0.524100 0.098200
-0.483700 0.111800
-0.443300 0.125900
-0.402900 0.136300
-0.362500 0.141700
-0.322100 0.146900
-0.281700 0.154400
-0.241300 0.163000
-0.200900 0.171700
-0.160400 0.180400
-0.120000 0.189200
-0.079600 0.198500
-0.039200 0.207400
0.001200 0.214500
0.041600 0.221100
0.082000 0.228700
0.122400 0.236200
0.162800 0.243700
0.203200 0.251400
0.243600 0.259300
0.284000 0.267900
0.324400 0.276600
0.364800 0.285600
0.405200 0.294700
0.445600 0.304400
0.486000 0.314200
0.526400 0.323700
0.566800 0.333500
0.607200 0.343500
0.647600 0.354200
0.688000 0.365200
0.728400 0.376400
0.768800 0.387900
0.809200 0.399700
0.849600 0.411600
0.890000 0.424500
0.930400 0.443400
0.970800 0.465700
1.011200 0.488000
1.051600 0.514400
1.092000 0.545500
1.132400 0.579400
1.172800 0.632000
1.213200 0.684800
1.253600 0.696700
1.294000 0.766400
1.334400 0.773200
1.374800 0.710500
1.415200 0.678600
1.455600 0.631900
1.496000 0.592200
1.536400 0.578700
1.576800 0.567100
1.617200 0.549400
1.657600 0.539000
1.698000 0.531300
1.738500 0.525500
1.778900 0.520400
1.819300 0.519700
1.859700 0.519100
1.900100 0.518900
1.940500 0.522800
1.980900 0.527000
2.021300 0.529900
2.061700 0.535100
2.102100 0.540600
2.142500 0.546700
2.182900 0.553600
2.223300 0.562000
2.263700 0.582200
2.304100 0.613900
2.344500 0.648300
2.384900 0.687300
2.425300 0.762100
2.465700 0.985700
2.506100 1.314600
2.546500 1.295500
2.586900 1.294600
2.627300 1.322800
2.667700 1.849100
2.708100 2.873500
2.748500 2.722800
2.788900 3.263500
2.829300 3.414700
2.869700 2.991900
2.910100 2.553900
2.950500 2.517200
2.990900 2.771400
3.031300 2.890900
3.071700 3.504600
3.112100 3.852400
3.152500 3.985900
3.192900 4.098000
3.233300 4.216600
3.273700 4.178300
3.314100 4.150500
3.354500 4.140400
3.394900 4.121600
3.435300 4.194200
3.475700 4.470700
3.516100 4.667000
3.556500 3.889100
3.596900 4.508900
3.637400 4.207000
3.677800 2.839600
3.718200 2.832900
3.758600 3.128400
3.799000 2.957000
3.839400 2.903400
3.879800 2.790000
3.920200 2.574300
3.960600 2.263000
4.001000 2.161200
4.041400 2.020400
4.081800 1.931600
4.122200 1.817400
4.162600 1.675600
4.203000 1.652800
4.243400 1.814700
4.283800 2.030300
4.324200 3.951000
4.364600 4.688400
4.405000 5.588600
4.445400 8.058400
4.485800 7.529500
4.526200 5.275300
4.566600 4.839600
4.607000 4.979200
4.647400 5.002700
4.687800 5.586500
4.728200 3.943200
4.768600 3.401700
4.809000 3.040300
4.849400 3.067400
4.889800 3.305000
4.930200 3.128400
4.970600 3.484500
5.011000 3.619400
5.051400 3.497900
5.091800 3.214900
5.132200 3.166100
5.172600 3.206900
5.213000 2.978300
5.253400 2.918200
5.293800 2.791500
5.334200 2.628400
5.374600 3.300300
5.415000 3.895700
5.455400 4.120400
5.495800 3.806700
5.536200 3.777300
5.576700 3.501800
5.617100 3.075300
5.657500 3.158600
5.697900 3.445300
5.738300 3.634200
5.778700 3.559900
5.819100 3.866900
5.859500 4.425100
5.899900 5.063100
5.940300 5.292300
5.980700 5.151600
6.021100 3.958600
6.061500 3.429100
6.101900 2.894500
6.142300 3.201300
6.182700 3.298700
6.223100 3.090300
6.263500 2.957400
6.303900 2.862900
6.344300 3.124800
6.384700 2.891900
6.425100 2.918700
6.465500 3.183600
6.505900 3.239400
6.546300 2.990500
6.586700 3.485400
6.627100 3.708300
6.667500 3.646400
6.707900 3.408600
6.748300 3.315300
6.788700 3.060200
6.829100 2.955000
6.869500 3.013000
6.909900 2.762000
6.950300 2.332800
6.990700 2.362300
7.031100 2.737100
7.071500 2.691800
7.111900 2.480900
7.152300 2.037300
7.192700 1.571200
7.233100 1.281600
7.273500 1.218600
7.313900 1.191600
7.354300 1.274800
7.394700 1.718900
7.435100 1.729200
7.475600 1.547700
7.516000 1.543300
7.556400 1.574600
7.596800 1.613600
7.637200 1.663400
7.677600 1.782100
7.718000 1.994700
7.758400 2.260800
7.798800 2.853600
7.839200 3.516200
7.879600 4.026200
7.920000 3.926700
7.960400 3.631000
8.000800 2.815600
8.041200 2.644800
8.081600 2.692400
8.122000 2.886100
8.162400 3.106800
8.202800 3.365000
8.243200 3.514200
8.283600 3.690700
8.324000 3.950800
8.364400 4.270600
8.404800 5.364900
8.445200 5.031200
8.485600 5.087200
8.526000 4.928000
8.566400 5.190100
8.606800 5.584700
8.647200 5.675500
8.687600 5.840800
8.728000 6.188000
8.768400 6.164800
8.808800 5.321500
8.849200 5.142900
8.889600 5.175000
8.930000 5.198100
8.970400 5.348900
9.010800 6.185700
9.051200 6.063700
9.091600 7.505400
9.132000 7.002700
9.172400 6.736900
9.212800 7.350600
9.253200 5.976000
9.293600 5.154000
9.334000 5.028500
9.374500 5.168800
9.414900 5.127000
9.455300 5.233400
9.495700 5.293900
9.536100 5.740300
9.576500 6.219400
9.616900 7.931600
9.657300 5.957400
9.697700 6.374000
9.738100 8.157200
9.778500 8.396400
9.818900 6.791200
9.859300 6.071400
9.899700 5.947200
9.940100 5.555000
9.980500 4.812000
10.020900 4.224500
10.061300 3.845900
10.101700 3.575100
10.142100 3.327200
10.182500 3.225400
10.222900 3.158000
10.263300 3.183500
10.303700 3.106100
10.344100 3.038300
10.384500 2.993100
10.424900 2.953700
10.465300 2.884500
10.505700 2.756500
10.546100 2.585000
10.586500 2.460800
10.626900 2.430800
10.667300 2.311200
10.707700 2.246300
10.748100 2.174900
10.788500 2.060800
10.828900 1.933500
10.869300 1.650900
10.909700 1.590800
10.950100 1.504600
10.990500 1.526000
11.030900 1.484100
11.071300 1.478400
11.111700 1.452900
11.152100 1.385500
11.192500 1.369100
11.232900 1.316000
11.273400 1.247100
11.313800 1.167600
11.354200 1.090600
11.394600 1.040300
11.435000 1.046700
11.475400 1.028000
11.515800 0.929200
11.556200 0.932900
11.596600 0.955800
11.637000 0.963500
11.677400 0.958900
11.717800 0.953800
11.758200 0.963400
11.798600 0.972200
11.839000 0.985400
11.879400 1.000900
11.919800 1.050600
11.960200 1.100900
12.000600 1.192600
12.041000 1.243800
12.081400 1.251600
12.121800 1.245700
12.162200 1.214000
12.202600 1.160700
12.243000 1.126900
12.283400 1.097100
12.323800 1.067800
12.364200 1.084300
12.404600 1.071700
12.445000 1.044200
12.485400 0.976500
12.525800 0.950800
12.566200 0.924300
12.606600 0.900000
12.647000 0.883200
12.687400 0.854500
12.727800 0.838800
12.768200 0.825300
12.808600 0.813500
12.849000 0.803600
12.889400 0.811100
12.929800 0.806900
12.970200 0.800200
13.010600 0.795600
13.051000 0.794300
13.091400 0.794700
13.131800 0.796600
13.172200 0.800100
13.212700 0.806700
13.253100 0.821000
13.293500 0.847800
13.333900 0.849600
13.374300 0.832100
13.414700 0.819200
13.455100 0.803900
13.495500 0.788400
13.535900 0.773100
13.576300 0.757500
13.616700 0.748900
13.657100 0.744000
13.697500 0.737800
13.737900 0.729300
13.778300 0.730700
13.818700 0.728000
13.859100 0.716700
13.899500 0.703700
13.939900 0.691100
13.980300 0.674900
14.020700 0.659200
14.061100 0.646700
14.101500 0.637800
14.141900 0.630600
14.182300 0.618900
14.222700 0.611200
14.263100 0.604700
14.303500 0.598000
14.343900 0.591400
14.384300 0.584500
14.424700 0.576300
14.465100 0.565500
14.505500 0.552600
14.545900 0.552100
14.586300 0.549500
14.626700 0.546100
14.667100 0.560400
14.707500 0.550700
14.747900 0.546600
14.788300 0.541900
14.828700 0.536200
14.869100 0.528600
14.909500 0.549900
14.949900 0.545600
14.990300 0.568600
15.030700 0.557500
15.071100 0.555200
15.111600 0.577700
15.152000 0.604800
15.192400 0.629600
15.232800 0.654700
15.273200 0.682100
15.313600 0.723400
15.354000 0.763500
15.394400 0.819900
15.434800 0.887000
15.475200 0.926600
15.515600 1.109200
15.556000 1.074600
15.596400 0.998200
15.636800 0.950700
15.677200 0.927300
15.717600 0.913100
15.758000 0.910800
15.798400 0.947100
15.838800 0.904700
15.879200 0.890000
15.919600 0.888600
15.960000 0.890000
16.000400 0.885700
16.040800 0.868400
16.081200 0.865500
16.121600 0.884500
16.162000 0.919400
16.202400 0.968500
16.242800 1.033100
16.283200 1.105700
16.323600 1.185400
16.364000 1.458800
16.404400 1.653800
16.444800 1.715300
16.485200 1.733900
16.525600 1.725100
16.566000 1.732100
16.606400 1.758500
16.646800 1.800000
16.687200 1.855500
16.727600 1.925800
16.768000 2.013500
16.808400 2.072500
16.848800 2.067000
16.889200 1.967000
16.929600 1.995800
16.970000 2.059400
17.010500 2.119000
17.050900 2.046800
17.091300 1.980600
17.131700 1.911600
17.172100 1.810500
17.212500 1.725800
17.252900 1.653700
17.293300 1.587100
17.333700 1.514100
17.374100 1.448300
17.414500 1.398900
17.454900 1.364100
17.495300 1.352100
17.535700 1.349400
17.576100 1.345000
17.616500 1.340600
17.656900 1.334300
17.697300 1.323900
17.737700 1.325900
17.778100 1.303200
17.818500 1.221900
17.858900 1.204300
17.899300 1.231600
17.939700 1.236300
17.980100 1.219400
18.020500 1.144200
18.060900 1.106800
18.101300 1.096000
18.141700 1.104700
18.182100 1.107400
18.222500 1.104900
18.262900 1.102300
18.303300 1.101700
18.343700 1.105100
18.384100 1.110800
18.424500 1.119600
18.464900 1.131100
18.505300 1.147400
18.545700 1.168500
18.586100 1.198700
18.626500 1.231100
18.666900 1.270300
18.707300 1.324500
18.747700 1.396100
18.788100 1.469200
18.828500 1.561800
18.868900 1.658100
18.909400 1.498200
18.949800 1.517500
18.990200 1.500100
19.030600 1.523100
19.071000 1.610700
19.111400 1.655200
19.151800 1.650500
19.192200 1.645300
19.232600 1.645600
19.273000 1.651800
19.313400 1.672000
19.353800 1.700600
19.394200 1.727900
19.434600 1.744000
19.475000 1.750400
19.515400 1.750700
19.555800 1.761300
19.596200 1.804000
19.636600 1.850400
19.677000 1.891200
19.717400 1.949800
19.757800 1.971000
19.798200 1.990300
19.838600 1.946300
19.879000 1.925300
19.919400 1.880300
19.959800 1.864800
20.000200 1.881600
20.040600 1.916500
20.081000 1.956800
20.121400 1.993600
20.161800 2.046400
20.202200 2.092500
20.242600 1.879800
20.283000 1.598400
20.323400 1.693500
20.363800 1.850900
20.404200 1.942700
20.444600 1.973300
20.485000 2.007800
20.525400 2.064500
20.565800 2.131400
20.606200 2.049000
20.646600 1.868600
20.687000 1.875300
20.727400 1.922100
20.767800 2.184600
20.808200 2.198900
20.848700 2.165600
20.889100 2.220400
20.929500 2.226300
20.969900 2.185100
21.010300 2.166800
21.050700 2.170800
21.091100 2.126900
21.131500 2.117800
21.171900 2.020500
21.212300 1.998400
21.252700 1.937300
21.293100 1.911500
21.333500 1.879500
21.373900 1.848200
21.414300 1.758400
21.454700 1.662400
21.495100 1.572200
21.535500 1.504600
21.575900 1.447800
21.616300 1.380600
21.656700 1.344900
21.697100 1.351300
21.737500 1.369200
21.777900 1.384800
21.818300 1.408000
21.858700 1.427900
21.899100 1.433400
21.939500 1.435700
21.979900 1.421100
22.020300 1.614200
22.060700 1.428900
22.101100 1.385200
22.141500 1.411700
22.181900 1.450300
22.222300 1.497000
22.262700 1.559700
22.303100 1.639200
22.343500 1.716500
22.383900 1.754200
22.424300 1.725300
22.464700 1.658700
22.505100 1.610800
22.545500 1.590300
22.585900 1.590400
22.626300 1.606000
22.666700 1.645000
22.707100 1.693100
22.747600 1.595400
22.788000 1.457000
22.828400 1.407000
22.868800 1.502900
22.909200 1.759800
22.949600 1.789100
22.990000 1.854300
23.030400 1.935600
23.070800 2.055600
23.111200 2.128800
23.151600 1.926100
23.192000 1.887600
23.232400 1.890100
23.272800 1.924000
23.313200 2.061900
23.353600 2.147300
23.394000 2.180300
23.434400 2.121500
23.474800 2.036800
23.515200 1.980100
23.555600 1.942700
23.596000 1.938200
23.636400 1.946900
23.676800 2.015300
23.717200 2.101800
23.757600 2.103400
23.798000 2.085700
23.838400 2.116700
23.878800 2.179200
23.919200 2.227000
23.959600 2.239100
24.000000 2.213600
24.040400 2.325000
24.080800 2.356600
24.121200 2.461900
24.161600 2.610500
24.202000 2.712000
24.242400 2.736700
24.282800 2.781700
24.323200 3.117300
24.363600 3.032300
24.404000 2.948200
24.444400 2.952700
24.484800 2.838500
24.525200 2.842500
24.565600 2.781800
24.606000 2.667800
24.646500 2.562900
24.686900 2.422800
24.727300 2.268400
24.767700 2.122900
24.808100 1.987800
24.848500 1.869800
24.888900 1.802200
24.929300 1.747200
24.969700 1.704700
25.010100 1.639000
25.050500 1.665800
25.090900 1.687100
25.131300 1.727200
25.171700 1.757600
25.212100 1.701700
25.252500 1.672900
25.292900 1.614400
25.333300 1.594000
25.373700 1.574500
25.414100 1.632800
25.454500 1.514000
25.494900 1.475800
25.535300 1.467000
25.575700 1.479400
25.616100 1.509100
25.656500 1.527500
25.696900 1.550300
25.737300 1.587600
25.777700 1.678700
25.818100 1.751200
25.858500 1.803200
25.898900 1.898000
25.939300 1.871700
25.979700 1.876100
26.020100 1.864600
26.060500 1.886500
26.100900 1.887200
26.141300 1.785800
26.181700 1.680600
26.222100 1.584600
26.262500 1.502900
26.302900 1.491900
26.343300 1.476800
26.383700 1.444600
26.424100 1.509300
26.464500 1.449700
26.504900 1.374000
26.545300 1.296500
26.585800 1.248100
26.626200 1.224800
26.666600 1.197400
26.707000 1.182500
26.747400 1.188000
26.787800 1.194700
26.828200 1.196100
26.868600 1.232700
26.909000 1.255900
26.949400 1.254600
26.989800 1.258800
27.030200 1.273800
27.070600 1.284200
27.111000 1.318900
27.151400 1.336600
27.191800 1.380900
27.232200 1.469200
27.272600 1.491200
27.313000 1.480900
27.353400 1.527300
27.393800 1.559600
27.434200 1.590800
27.474600 1.592500
27.515000 1.589000
27.555400 1.563600
27.595800 1.533600
27.636200 1.533800
27.676600 1.515600
27.717000 1.481200
27.757400 1.456600
27.797800 1.460800
27.838200 1.497800
27.878600 1.470600
27.919000 1.433100
27.959400 1.445800
27.999800 1.469500
28.040200 1.391300
28.080600 1.363600
28.121000 1.345900
28.161400 1.326700
28.201800 1.312600
28.242200 1.313600
28.282600 1.334000
28.323000 1.366100
28.363400 1.419300
28.403800 1.475900
28.444200 1.546600
28.484700 1.648100
28.525100 1.742100
28.565500 1.816500
28.605900 1.943700
28.646300 2.134300
28.686700 2.343000
28.727100 2.579100
28.767500 3.003100
28.807900 4.011000
28.848300 6.294000
28.888700 7.987800
28.929100 4.309200
28.969500 2.969300
29.009900 2.316500
29.050300 2.037600
29.090700 1.928300
29.131100 1.874500
29.171500 1.837400
29.211900 1.830700
29.252300 1.813200
29.292700 1.824600
29.333100 1.889100
29.373500 1.892300
29.413900 1.913100
29.454300 1.948600
29.494700 1.956800
29.535100 1.908600
29.575500 1.870500
29.615900 1.915300
29.656300 1.922300
29.696700 1.735600
29.737100 1.598100
29.777500 1.537600
29.817900 1.403200
29.858300 1.309300
29.898700 1.287000
29.939100 1.376800
29.979500 1.492200
30.019900 1.712600
30.060300 1.918300
30.100700 2.060200
30.141100 2.329600
30.181500 2.529500
30.221900 2.651300
30.262300 2.852300
30.302700 2.903400
30.343100 3.019400
30.383600 3.035700
30.424000 2.616600
30.464400 2.281400
30.504800 2.119000
30.545200 2.099700
30.585600 2.143600
30.626000 2.062200
30.666400 1.956500
30.706800 1.900700
30.747200 1.810800
30.787600 1.758500
30.828000 1.718500
30.868400 1.680800
30.908800 1.697500
30.949200 1.656600
30.989600 1.705100
31.030000 1.781800
31.070400 1.898700
31.110800 1.897800
31.151200 2.017300
31.191600 1.998000
31.232000 1.918300
31.272400 1.867800
31.312800 1.770100
31.353200 1.728300
31.393600 1.692900
31.434000 1.695900
31.474400 1.732900
31.514800 1.799400
31.555200 1.811800
31.595600 1.811900
31.636000 1.855900
31.676400 1.865800
31.716800 1.763400
31.757200 1.735600
31.797600 1.783800
31.838000 1.922200
31.878400 1.940500
31.918800 1.999100
31.959200 2.032400
31.999600 2.030100
32.040000 2.058300
32.080400 2.040000
32.120800 2.047900
32.161200 2.085800
32.201600 2.133000
32.242000 2.264500
32.282500 2.625000
32.322900 2.680700
32.363300 2.767100
32.403700 2.800400
32.444100 2.795600
32.484500 2.731600
32.524900 2.651900
32.565300 2.751800
32.605700 2.520300
32.646100 2.299200
32.686500 2.231600
32.726900 2.086800
32.767300 2.041600
32.807700 2.052200
32.848100 2.092500
32.888500 2.162900
32.928900 2.230400
32.969300 2.417500
33.009700 2.536100
33.050100 2.524800
33.090500 2.489100
33.130900 2.408100
33.171300 2.367100
33.211700 2.292200
33.252100 2.209300
33.292500 2.187100
33.332900 2.169300
33.373300 2.123800
33.413700 2.058700
33.454100 1.978000
33.494500 1.878500
33.534900 1.791900
33.575300 1.729800
33.615700 1.663800
33.656100 1.602300
33.696500 1.552300
33.736900 1.520800
33.777300 1.499000
33.817700 1.497400
33.858100 1.510700
33.898500 1.520300
33.938900 1.512500
33.979300 1.504400
34.019700 1.514300
34.060100 1.575500
34.100500 1.625400
34.140900 1.690400
34.181300 1.787100
34.221800 1.926300
34.262200 2.199900
34.302600 2.159000
34.343000 2.245400
34.383400 2.270000
34.423800 2.269100
34.464200 2.181300
34.504600 2.123500
34.545000 2.084200
34.585400 2.056400
34.625800 2.056000
34.666200 2.050200
34.706600 2.083500
34.747000 2.100100
34.787400 2.114000
34.827800 2.156200
34.868200 2.192700
34.908600 2.249200
34.949000 2.196600
34.989400 2.099000
35.029800 1.984900
35.070200 1.986300
35.110600 2.017200
35.151000 1.999500
35.191400 2.060200
35.231800 2.053500
35.272200 1.994000
35.312600 1.813000
35.353000 1.734400
35.393400 1.708000
35.433800 1.686200
35.474200 1.646800
35.514600 1.604600
35.555000 1.578900
35.595400 1.570400
35.635800 1.564000
35.676200 1.561800
35.716600 1.566900
35.757000 1.565700
35.797400 1.611600
35.837800 1.738900
35.878200 1.853700
35.918600 1.752800
35.959000 1.737900
35.999400 1.707700
36.039800 1.716000
36.080200 1.719700
36.120700 1.720800
36.161100 1.690400
36.201500 1.612400
36.241900 1.531800
36.282300 1.469300
36.322700 1.479800
36.363100 1.421400
36.403500 1.389300
36.443900 1.395100
36.484300 1.275000
36.524700 1.171900
36.565100 1.120200
36.605500 1.075300
36.645900 1.009400
36.686300 0.958900
36.726700 0.937400
36.767100 0.914900
36.807500 0.894100
36.847900 0.891800
36.888300 0.901700
36.928700 0.910400
36.969100 0.921600
37.009500 0.926700
37.049900 0.908000
37.090300 0.875800
37.130700 0.886700
37.171100 0.826400
37.211500 0.781600
37.251900 0.778300
37.292300 0.750600
37.332700 0.712300
37.373100 0.628400
37.413500 0.586400
37.453900 0.555300
37.494300 0.535200
37.534700 0.507100
37.575100 0.473800
37.615500 0.435300
37.655900 0.381500
37.696300 0.328700
37.736700 0.288700
37.777100 0.260400
37.817500 0.233400
37.857900 0.208300
37.898300 0.184800
37.938700 0.162600
37.979100 0.141200
38.019600 0.120900
38.060000 0.101800
38.100400 0.084000
38.140800 0.067400
38.181200 0.052700
38.221600 0.040100
38.262000 0.029300
38.302400 0.019800
38.342800 0.011600
38.383200 0.005500
38.423600 0.001400
38.464000 0.000000
38.504400 0.000000
38.544800 0.000000
38.585200 0.000000
38.625600 0.000000
38.666000 0.000000
38.706400 0.000000
38.746800 0.000000
38.787200 0.000000
38.827600 0.000000
38.868000 0.000000
38.908400 0.000000
38.948800 0.000000
38.989200 0.000000
39.029600 0.000000
39.070000 0.000000
39.110400 0.000000
39.150800 0.000000
39.191200 0.000000
39.231600 0.000000
39.272000 0.000000
39.312400 0.000000
39.352800 0.000000
39.393200 0.000000
39.433600 0.000000
39.474000 0.000000
39.514400 0.000000
39.554800 0.000000
39.595200 0.000000
39.635600 0.000000
39.676000 0.000000
39.716400 0.000000
39.756800 0.000000
39.797200 0.000000
39.837600 0.000000
39.878000 0.000000
39.918500 0.000000
39.958900 0.000000
39.999300 0.000000
40.039700 0.000000
40.080100 0.000000
40.120500 0.000000
40.160900 0.000000
40.201300 0.000000
40.241700 0.000000
40.282100 0.000000
40.322500 0.000000
40.362900 0.000000
40.403300 0.000000
40.443700 0.000000
40.484100 0.000000
40.524500 0.000000
40.564900 0.000000
40.605300 0.000000
40.645700 0.000000
40.686100 0.000000
40.726500 0.000000
40.766900 0.000000
40.807300 0.000000
40.847700 0.000000
40.888100 0.000000
40.928500 0.000000
40.968900 0.000000
41.009300 0.000000
41.049700 0.000000
41.090100 0.000000
41.130500 0.000000
41.170900 0.000000
41.211300 0.000000
41.251700 0.000000
41.292100 0.000000
41.332500 0.000000
41.372900 0.000000
41.413300 0.000000
41.453700 0.000000
41.494100 0.000000
41.534500 0.000000
41.574900 0.000000
41.615300 0.000000
41.655700 0.000000
41.696100 0.000000
41.736500 0.000000
41.776900 0.000000
41.817300 0.000000
41.857800 0.000000
41.898200 0.000000
41.938600 0.000000
41.979000 0.000000
42.019400 0.000000
42.059800 0.000000
42.100200 0.000000
42.140600 0.000000
e
