set title 'mp-1186091 - Density of States'
set xlabel 'Energy (eV)'
set ylabel 'DOS (states/eV)'
set grid
set xrange [-10:10]
set yrange [0:116.432]
set xzeroaxis lt -1
set terminal png size 800,600
set output 'mp-1186091_dos_gnuplot.png'
plot '-' using 1:2 with lines title 'DOS'
-26.401300 0.000000
-26.375500 0.000000
-26.349600 0.000000
-26.323800 0.000000
-26.297900 0.000000
-26.272000 0.000000
-26.246200 0.000000
-26.220300 0.000000
-26.194500 0.000000
-26.168600 0.000000
-26.142700 0.000000
-26.116900 0.000000
-26.091000 0.000000
-26.065200 0.000000
-26.039300 0.000000
-26.013400 0.000000
-25.987600 0.000000
-25.961700 0.000000
-25.935800 0.000000
-25.910000 0.000000
-25.884100 0.000000
-25.858300 0.000000
-25.832400 0.000000
-25.806500 0.000000
-25.780700 0.000000
-25.754800 0.000000
-25.729000 0.000000
-25.703100 0.000000
-25.677200 0.000000
-25.651400 0.000000
-25.625500 0.000000
-25.599700 0.000000
-25.573800 0.000000
-25.547900 0.000000
-25.522100 0.000000
-25.496200 0.000000
-25.470400 0.000000
-25.444500 0.000000
-25.418600 0.000000
-25.392800 0.000000
-25.366900 0.000000
-25.341100 0.000000
-25.315200 0.000000
-25.289300 0.000000
-25.263500 0.000000
-25.237600 0.000000
-25.211700 0.000000
-25.185900 0.000000
-25.160000 0.000000
-25.134200 0.000000
-25.108300 0.000000
-25.082400 0.000000
-25.056600 0.000000
-25.030700 0.000000
-25.004900 0.000000
-24.979000 0.000000
-24.953100 0.000000
-24.927300 0.000000
-24.901400 0.000000
-24.875600 0.000000
-24.849700 0.000000
-24.823800 0.000000
-24.798000 0.000000
-24.772100 0.000000
-24.746300 0.000000
-24.720400 0.000000
-24.694500 0.000000
-24.668700 0.000000
-24.642800 0.000000
-24.617000 0.000000
-24.591100 0.000000
-24.565200 0.000000
-24.539400 0.000000
-24.513500 0.000000
-24.487700 0.000000
-24.461800 0.000000
-24.435900 0.000000
-24.410100 0.000000
-24.384200 0.000000
-24.358300 0.000000
-24.332500 0.000000
-24.306600 0.000000
-24.280800 0.000000
-24.254900 0.000000
-24.229000 0.000000
-24.203200 0.000200
-24.177300 0.005500
-24.151500 0.087900
-24.125600 0.867300
-24.099700 5.410200
-24.073900 21.894700
-24.048000 59.373600
-24.022200 111.615900
-23.996300 150.024000
-23.970400 148.121100
-23.944600 109.271100
-23.918700 59.549300
-23.892900 22.896900
-23.867000 5.863000
-23.841100 0.954600
-23.815300 0.096000
-23.789400 0.005900
-23.763600 0.000200
-23.737700 0.000000
-23.711800 0.000000
-23.686000 0.000000
-23.660100 0.000000
-23.634200 0.000000
-23.608400 0.000000
-23.582500 0.000000
-23.556700 0.000000
-23.530800 0.000000
-23.504900 0.000000
-23.479100 0.000000
-23.453200 0.000000
-23.427400 0.000000
-23.401500 0.000000
-23.375600 0.000000
-23.349800 0.000000
-23.323900 0.000000
-23.298100 0.000000
-23.272200 0.000000
-23.246300 0.000000
-23.220500 0.000000
-23.194600 0.000000
-23.168800 0.000000
-23.142900 0.000000
-23.117000 0.000000
-23.091200 0.000000
-23.065300 0.000000
-23.039500 0.000000
-23.013600 0.000000
-22.987700 0.000000
-22.961900 0.000000
-22.936000 0.000000
-22.910200 0.000000
-22.884300 0.000000
-22.858400 0.000000
-22.832600 0.000000
-22.806700 0.000000
-22.780800 0.000000
-22.755000 0.000000
-22.729100 0.000000
-22.703300 0.000000
-22.677400 0.000000
-22.651500 0.000000
-22.625700 0.000000
-22.599800 0.000000
-22.574000 0.000000
-22.548100 0.000000
-22.522200 0.000000
-22.496400 0.000000
-22.470500 0.000000
-22.444700 0.000000
-22.418800 0.000000
-22.392900 0.000000
-22.367100 0.000000
-22.341200 0.000000
-22.315400 0.000000
-22.289500 0.000000
-22.263600 0.000000
-22.237800 0.000000
-22.211900 0.000000
-22.186100 0.000000
-22.160200 0.000000
-22.134300 0.000000
-22.108500 0.000000
-22.082600 0.000000
-22.056700 0.000000
-22.030900 0.000000
-22.005000 0.000000
-21.979200 0.000000
-21.953300 0.000000
-21.927400 0.000000
-21.901600 0.000000
-21.875700 0.000000
-21.849900 0.000000
-21.824000 0.000000
-21.798100 0.000000
-21.772300 0.000000
-21.746400 0.000000
-21.720600 0.000000
-21.694700 0.000000
-21.668800 0.000000
-21.643000 0.000000
-21.617100 0.000000
-21.591300 0.000000
-21.565400 0.000000
-21.539500 0.000000
-21.513700 0.000000
-21.487800 0.000000
-21.462000 0.000000
-21.436100 0.000000
-21.410200 0.000000
-21.384400 0.000000
-21.358500 0.000000
-21.332600 0.000000
-21.306800 0.000000
-21.280900 0.000000
-21.255100 0.000000
-21.229200 0.000000
-21.203300 0.000000
-21.177500 0.000000
-21.151600 0.000000
-21.125800 0.000000
-21.099900 0.000000
-21.074000 0.000000
-21.048200 0.000000
-21.022300 0.000000
-20.996500 0.000000
-20.970600 0.000000
-20.944700 0.000000
-20.918900 0.000000
-20.893000 0.000000
-20.867200 0.000000
-20.841300 0.000000
-20.815400 0.000000
-20.789600 0.000000
-20.763700 0.000000
-20.737900 0.000000
-20.712000 0.000000
-20.686100 0.000000
-20.660300 0.000000
-20.634400 0.000000
-20.608600 0.000000
-20.582700 0.000000
-20.556800 0.000000
-20.531000 0.000000
-20.505100 0.000000
-20.479200 0.000000
-20.453400 0.000000
-20.427500 0.000000
-20.401700 0.000000
-20.375800 0.000000
-20.349900 0.000000
-20.324100 0.000000
-20.298200 0.000000
-20.272400 0.000000
-20.246500 0.000000
-20.220600 0.000000
-20.194800 0.000000
-20.168900 0.000000
-20.143100 0.000000
-20.117200 0.000000
-20.091300 0.000000
-20.065500 0.000000
-20.039600 0.000000
-20.013800 0.000000
-19.987900 0.000000
-19.962000 0.000000
-19.936200 0.000000
-19.910300 0.000000
-19.884500 0.000000
-19.858600 0.000000
-19.832700 0.000000
-19.806900 0.000000
-19.781000 0.000000
-19.755100 0.000000
-19.729300 0.000000
-19.703400 0.000000
-19.677600 0.000000
-19.651700 0.000000
-19.625800 0.000000
-19.600000 0.000000
-19.574100 0.000000
-19.548300 0.000000
-19.522400 0.000000
-19.496500 0.000000
-19.470700 0.000000
-19.444800 0.000000
-19.419000 0.000000
-19.393100 0.000000
-19.367200 0.000000
-19.341400 0.000000
-19.315500 0.000000
-19.289700 0.000000
-19.263800 0.000000
-19.237900 0.000000
-19.212100 0.000000
-19.186200 0.000000
-19.160400 0.000000
-19.134500 0.000000
-19.108600 0.000000
-19.082800 0.000000
-19.056900 0.000000
-19.031000 0.000000
-19.005200 0.000000
-18.979300 0.000000
-18.953500 0.000000
-18.927600 0.000000
-18.901700 0.000000
-18.875900 0.000000
-18.850000 0.000000
-18.824200 0.000000
-18.798300 0.000000
-18.772400 0.000000
-18.746600 0.000000
-18.720700 0.000000
-18.694900 0.000000
-18.669000 0.000000
-18.643100 0.000000
-18.617300 0.000000
-18.591400 0.000000
-18.565600 0.000000
-18.539700 0.000000
-18.513800 0.000000
-18.488000 0.000000
-18.462100 0.000000
-18.436300 0.000000
-18.410400 0.000000
-18.384500 0.000000
-18.358700 0.000000
-18.332800 0.000000
-18.307000 0.000000
-18.281100 0.000000
-18.255200 0.000000
-18.229400 0.000000
-18.203500 0.000000
-18.177600 0.000000
-18.151800 0.000000
-18.125900 0.000000
-18.100100 0.000000
-18.074200 0.000000
-18.048300 0.000000
-18.022500 0.000000
-17.996600 0.000000
-17.970800 0.000000
-17.944900 0.000000
-17.919000 0.000000
-17.893200 0.000000
-17.867300 0.000000
-17.841500 0.000000
-17.815600 0.000000
-17.789700 0.000000
-17.763900 0.000000
-17.738000 0.000000
-17.712200 0.000000
-17.686300 0.000000
-17.660400 0.000000
-17.634600 0.000000
-17.608700 0.000000
-17.582900 0.000000
-17.557000 0.000000
-17.531100 0.000000
-17.505300 0.000000
-17.479400 0.000000
-17.453500 0.000000
-17.427700 0.000000
-17.401800 0.000000
-17.376000 0.000000
-17.350100 0.000000
-17.324200 0.000000
-17.298400 0.000000
-17.272500 0.000000
-17.246700 0.000000
-17.220800 0.000000
-17.194900 0.000000
-17.169100 0.000000
-17.143200 0.000000
-17.117400 0.000000
-17.091500 0.000000
-17.065600 0.000000
-17.039800 0.000000
-17.013900 0.000000
-16.988100 0.000000
-16.962200 0.000000
-16.936300 0.000000
-16.910500 0.000000
-16.884600 0.000000
-16.858800 0.000000
-16.832900 0.000000
-16.807000 0.000000
-16.781200 0.000000
-16.755300 0.000000
-16.729400 0.000000
-16.703600 0.000000
-16.677700 0.000000
-16.651900 0.000000
-16.626000 0.000000
-16.600100 0.000000
-16.574300 0.000000
-16.548400 0.000000
-16.522600 0.000000
-16.496700 0.000000
-16.470800 0.000000
-16.445000 0.000000
-16.419100 0.000000
-16.393300 0.000000
-16.367400 0.000000
-16.341500 0.000000
-16.315700 0.000000
-16.289800 0.000000
-16.264000 0.000000
-16.238100 0.000000
-16.212200 0.000000
-16.186400 0.000000
-16.160500 0.000000
-16.134700 0.000000
-16.108800 0.000000
-16.082900 0.000000
-16.057100 0.000000
-16.031200 0.000000
-16.005400 0.000000
-15.979500 0.000000
-15.953600 0.000000
-15.927800 0.000000
-15.901900 0.000000
-15.876000 0.000000
-15.850200 0.000000
-15.824300 0.000000
-15.798500 0.000000
-15.772600 0.000000
-15.746700 0.000000
-15.720900 0.000000
-15.695000 0.000000
-15.669200 0.000000
-15.643300 0.000000
-15.617400 0.000000
-15.591600 0.000000
-15.565700 0.000000
-15.539900 0.000000
-15.514000 0.000000
-15.488100 0.000000
-15.462300 0.000000
-15.436400 0.000000
-15.410600 0.000000
-15.384700 0.000000
-15.358800 0.000000
-15.333000 0.000000
-15.307100 0.000000
-15.281300 0.000000
-15.255400 0.000000
-15.229500 0.000000
-15.203700 0.000000
-15.177800 0.000000
-15.151900 0.000000
-15.126100 0.000000
-15.100200 0.000000
-15.074400 0.000000
-15.048500 0.000000
-15.022600 0.000000
-14.996800 0.000000
-14.970900 0.000000
-14.945100 0.000000
-14.919200 0.000000
-14.893300 0.000000
-14.867500 0.000000
-14.841600 0.000000
-14.815800 0.000000
-14.789900 0.000000
-14.764000 0.000000
-14.738200 0.000000
-14.712300 0.000000
-14.686500 0.000000
-14.660600 0.000000
-14.634700 0.000000
-14.608900 0.000000
-14.583000 0.000000
-14.557200 0.000000
-14.531300 0.000000
-14.505400 0.000000
-14.479600 0.000000
-14.453700 0.000000
-14.427800 0.000000
-14.402000 0.000000
-14.376100 0.000000
-14.350300 0.000000
-14.324400 0.000000
-14.298500 0.000000
-14.272700 0.000000
-14.246800 0.000000
-14.221000 0.000000
-14.195100 0.000000
-14.169200 0.000000
-14.143400 0.000000
-14.117500 0.000000
-14.091700 0.000000
-14.065800 0.000000
-14.039900 0.000000
-14.014100 0.000000
-13.988200 0.000000
-13.962400 0.000000
-13.936500 0.000000
-13.910600 0.000000
-13.884800 0.000000
-13.858900 0.000000
-13.833100 0.000000
-13.807200 0.000000
-13.781300 0.000000
-13.755500 0.000000
-13.729600 0.000000
-13.703800 0.000000
-13.677900 0.000000
-13.652000 0.000000
-13.626200 0.000000
-13.600300 0.000000
-13.574400 0.000000
-13.548600 0.000000
-13.522700 0.000000
-13.496900 0.000000
-13.471000 0.000000
-13.445100 0.000000
-13.419300 0.000000
-13.393400 0.000000
-13.367600 0.000000
-13.341700 0.000000
-13.315800 0.000000
-13.290000 0.000000
-13.264100 0.000000
-13.238300 0.000000
-13.212400 0.000000
-13.186500 0.000000
-13.160700 0.000000
-13.134800 0.000000
-13.109000 0.000000
-13.083100 0.000000
-13.057200 0.000000
-13.031400 0.000000
-13.005500 0.000000
-12.979700 0.000000
-12.953800 0.000000
-12.927900 0.000000
-12.902100 0.000000
-12.876200 0.000000
-12.850300 0.000000
-12.824500 0.000000
-12.798600 0.000000
-12.772800 0.000000
-12.746900 0.000000
-12.721000 0.000000
-12.695200 0.000000
-12.669300 0.000000
-12.643500 0.000000
-12.617600 0.000000
-12.591700 0.000000
-12.565900 0.000000
-12.540000 0.000000
-12.514200 0.000000
-12.488300 0.000000
-12.462400 0.000000
-12.436600 0.000000
-12.410700 0.000000
-12.384900 0.000000
-12.359000 0.000000
-12.333100 0.000000
-12.307300 0.000000
-12.281400 0.000000
-12.255600 0.000000
-12.229700 0.000000
-12.203800 0.000000
-12.178000 0.000000
-12.152100 0.000000
-12.126200 0.000000
-12.100400 0.000000
-12.074500 0.000000
-12.048700 0.000000
-12.022800 0.000000
-11.996900 0.000000
-11.971100 0.000000
-11.945200 0.000000
-11.919400 0.000000
-11.893500 0.000000
-11.867600 0.000000
-11.841800 0.000000
-11.815900 0.000000
-11.790100 0.000000
-11.764200 0.000000
-11.738300 0.000000
-11.712500 0.000000
-11.686600 0.000000
-11.660800 0.000000
-11.634900 0.000000
-11.609000 0.000000
-11.583200 0.000000
-11.557300 0.000000
-11.531500 0.000000
-11.505600 0.000000
-11.479700 0.000000
-11.453900 0.000000
-11.428000 0.000000
-11.402200 0.000000
-11.376300 0.000000
-11.350400 0.000000
-11.324600 0.000000
-11.298700 0.000000
-11.272800 0.000000
-11.247000 0.000000
-11.221100 0.000000
-11.195300 0.000000
-11.169400 0.000000
-11.143500 0.000000
-11.117700 0.000000
-11.091800 0.000000
-11.066000 0.000000
-11.040100 0.000000
-11.014200 0.000000
-10.988400 0.000000
-10.962500 0.000000
-10.936700 0.000000
-10.910800 0.000000
-10.884900 0.000000
-10.859100 0.000000
-10.833200 0.000000
-10.807400 0.000000
-10.781500 0.000000
-10.755600 0.000000
-10.729800 0.000000
-10.703900 0.000000
-10.678100 0.000000
-10.652200 0.000000
-10.626300 0.000000
-10.600500 0.000000
-10.574600 0.000000
-10.548700 0.000000
-10.522900 0.000000
-10.497000 0.000000
-10.471200 0.000000
-10.445300 0.000000
-10.419400 0.000000
-10.393600 0.000000
-10.367700 0.000000
-10.341900 0.000000
-10.316000 0.000000
-10.290100 0.000000
-10.264300 0.000000
-10.238400 0.000000
-10.212600 0.000000
-10.186700 0.000000
-10.160800 0.000000
-10.135000 0.000000
-10.109100 0.000000
-10.083300 0.000000
-10.057400 0.000000
-10.031500 0.000000
-10.005700 0.000000
-9.979800 0.000000
-9.954000 0.000000
-9.928100 0.000000
-9.902200 0.000000
-9.876400 0.000000
-9.850500 0.000000
-9.824600 0.000000
-9.798800 0.000000
-9.772900 0.000000
-9.747100 0.000000
-9.721200 0.000000
-9.695300 0.000000
-9.669500 0.000000
-9.643600 0.000000
-9.617800 0.000000
-9.591900 0.000000
-9.566000 0.000000
-9.540200 0.000000
-9.514300 0.000000
-9.488500 0.000000
-9.462600 0.000000
-9.436700 0.000000
-9.410900 0.000000
-9.385000 0.000000
-9.359200 0.000000
-9.333300 0.000000
-9.307400 0.000000
-9.281600 0.000000
-9.255700 0.000000
-9.229900 0.000000
-9.204000 0.000000
-9.178100 0.000000
-9.152300 0.000000
-9.126400 0.000000
-9.100600 0.000000
-9.074700 0.000000
-9.048800 0.000000
-9.023000 0.000000
-8.997100 0.000000
-8.971200 0.000000
-8.945400 0.000000
-8.919500 0.000000
-8.893700 0.000000
-8.867800 0.000000
-8.841900 0.000000
-8.816100 0.000000
-8.790200 0.000000
-8.764400 0.000000
-8.738500 0.000000
-8.712600 0.000000
-8.686800 0.000000
-8.660900 0.000000
-8.635100 0.000000
-8.609200 0.000000
-8.583300 0.000000
-8.557500 0.000000
-8.531600 0.000000
-8.505800 0.000000
-8.479900 0.000000
-8.454000 0.000000
-8.428200 0.000000
-8.402300 0.000000
-8.376500 0.000000
-8.350600 0.000000
-8.324700 0.000000
-8.298900 0.000000
-8.273000 0.000000
-8.247100 0.000000
-8.221300 0.000000
-8.195400 0.000000
-8.169600 0.000000
-8.143700 0.000000
-8.117800 0.000000
-8.092000 0.000000
-8.066100 0.000000
-8.040300 0.000000
-8.014400 0.000000
-7.988500 0.000000
-7.962700 0.000000
-7.936800 0.000000
-7.911000 0.000000
-7.885100 0.000000
-7.859200 0.000000
-7.833400 0.000000
-7.807500 0.000000
-7.781700 0.000000
-7.755800 0.000000
-7.729900 0.000000
-7.704100 0.000000
-7.678200 0.000000
-7.652400 0.000000
-7.626500 0.000000
-7.600600 0.000000
-7.574800 0.000000
-7.548900 0.000000
-7.523000 0.000000
-7.497200 0.000000
-7.471300 0.000000
-7.445500 0.000000
-7.419600 0.000000
-7.393700 0.000000
-7.367900 0.000000
-7.342000 0.000000
-7.316200 0.000000
-7.290300 0.000000
-7.264400 0.000000
-7.238600 0.000000
-7.212700 0.000000
-7.186900 0.000000
-7.161000 0.000000
-7.135100 0.000000
-7.109300 0.000000
-7.083400 0.000000
-7.057600 0.000000
-7.031700 0.000000
-7.005800 0.000000
-6.980000 0.000000
-6.954100 0.000000
-6.928300 0.000000
-6.902400 0.000000
-6.876500 0.000000
-6.850700 0.000000
-6.824800 0.000000
-6.799000 0.000000
-6.773100 0.000000
-6.747200 0.000000
-6.721400 0.000000
-6.695500 0.000000
-6.669600 0.000000
-6.643800 0.000000
-6.617900 0.000000
-6.592100 0.000000
-6.566200 0.000000
-6.540300 0.000000
-6.514500 0.000000
-6.488600 0.000000
-6.462800 0.000000
-6.436900 0.000000
-6.411000 0.000000
-6.385200 0.000000
-6.359300 0.000000
-6.333500 0.001600
-6.307600 0.035300
-6.281700 0.465100
-6.255900 3.715300
-6.230000 18.033500
-6.204200 53.302500
-6.178300 96.108400
-6.152400 105.847100
-6.126600 71.252000
-6.100700 29.317100
-6.074900 7.368200
-6.049000 1.129700
-6.023100 0.105500
-5.997300 0.006000
-5.971400 0.000200
-5.945500 0.000000
-5.919700 0.000000
-5.893800 0.000000
-5.868000 0.000000
-5.842100 0.000000
-5.816200 0.000000
-5.790400 0.000000
-5.764500 0.000000
-5.738700 0.000000
-5.712800 0.000000
-5.686900 0.000000
-5.661100 0.000000
-5.635200 0.000000
-5.609400 0.000000
-5.583500 0.000000
-5.557600 0.000000
-5.531800 0.000000
-5.505900 0.000000
-5.480100 0.000000
-5.454200 0.000000
-5.428300 0.000000
-5.402500 0.000000
-5.376600 0.000000
-5.350800 0.000000
-5.324900 0.000000
-5.299000 0.000000
-5.273200 0.000000
-5.247300 0.000000
-5.221400 0.000000
-5.195600 0.000000
-5.169700 0.000000
-5.143900 0.000000
-5.118000 0.000000
-5.092100 0.000000
-5.066300 0.000000
-5.040400 0.000000
-5.014600 0.000000
-4.988700 0.000000
-4.962800 0.000000
-4.937000 0.000000
-4.911100 0.000000
-4.885300 0.000000
-4.859400 0.000000
-4.833500 0.000000
-4.807700 0.000000
-4.781800 0.000000
-4.756000 0.000000
-4.730100 0.000000
-4.704200 0.000000
-4.678400 0.000000
-4.652500 0.000000
-4.626700 0.000000
-4.600800 0.000000
-4.574900 0.000000
-4.549100 0.000000
-4.523200 0.000000
-4.497400 0.000000
-4.471500 0.000000
-4.445600 0.000000
-4.419800 0.000000
-4.393900 0.000000
-4.368000 0.000000
-4.342200 0.000000
-4.316300 0.000000
-4.290500 0.000000
-4.264600 0.000100
-4.238700 0.000700
-4.212900 0.004200
-4.187000 0.017000
-4.161200 0.045100
-4.135300 0.087800
-4.109400 0.145200
-4.083600 0.232300
-4.057700 0.347400
-4.031900 0.410100
-4.006000 0.342700
-3.980100 0.238900
-3.954300 0.271900
-3.928400 0.454000
-3.902600 0.618300
-3.876700 0.662200
-3.850800 0.672400
-3.825000 0.695900
-3.799100 0.622500
-3.773300 0.452500
-3.747400 0.368900
-3.721500 0.479500
-3.695700 0.730900
-3.669800 0.937100
-3.643900 0.974700
-3.618100 0.958200
-3.592200 0.934400
-3.566400 0.785600
-3.540500 0.624300
-3.514600 0.727500
-3.488800 1.043500
-3.462900 1.263300
-3.437100 1.291700
-3.411200 1.222000
-3.385300 1.073900
-3.359500 0.912400
-3.333600 0.917600
-3.307800 1.135200
-3.281900 1.435300
-3.256000 1.679000
-3.230200 1.732400
-3.204300 1.519600
-3.178500 1.243700
-3.152600 1.285900
-3.126700 1.677400
-3.100900 1.972200
-3.075000 1.828400
-3.049200 1.498300
-3.023300 1.473000
-2.997400 1.819600
-2.971600 2.216500
-2.945700 2.431900
-2.919800 2.437500
-2.894000 2.222600
-2.868100 1.928500
-2.842300 1.854700
-2.816400 2.034800
-2.790500 2.110700
-2.764700 1.803600
-2.738800 1.297400
-2.713000 0.913200
-2.687100 0.748500
-2.661200 0.760700
-2.635400 0.920800
-2.609500 1.242400
-2.583700 1.543500
-2.557800 1.486800
-2.531900 1.080800
-2.506100 0.653300
-2.480200 0.413100
-2.454400 0.386400
-2.428500 0.599100
-2.402600 0.978800
-2.376800 1.169300
-2.350900 0.920200
-2.325100 0.513800
-2.299200 0.303200
-2.273300 0.241400
-2.247500 0.163700
-2.221600 0.071400
-2.195800 0.018900
-2.169900 0.003000
-2.144000 0.000300
-2.118200 0.000000
-2.092300 0.000000
-2.066400 0.000000
-2.040600 0.000000
-2.014700 0.000000
-1.988900 0.000000
-1.963000 0.000000
-1.937100 0.000000
-1.911300 0.000000
-1.885400 0.000000
-1.859600 0.000000
-1.833700 0.000000
-1.807800 0.000000
-1.782000 0.000000
-1.756100 0.000000
-1.730300 0.000000
-1.704400 0.000000
-1.678500 0.000100
-1.652700 0.000800
-1.626800 0.006100
-1.601000 0.027900
-1.575100 0.076200
-1.549200 0.125000
-1.523400 0.124400
-1.497500 0.082300
-1.471700 0.067200
-1.445800 0.114000
-1.419900 0.172300
-1.394100 0.172000
-1.368200 0.147900
-1.342300 0.209600
-1.316500 0.368900
-1.290600 0.483500
-1.264800 0.420500
-1.238900 0.238500
-1.213000 0.101800
-1.187200 0.092000
-1.161300 0.197800
-1.135500 0.369600
-1.109600 0.550000
-1.083700 0.697000
-1.057900 0.820500
-1.032000 0.984800
-1.006200 1.135400
-0.980300 1.174600
-0.954400 1.278400
-0.928600 1.596600
-0.902700 1.834500
-0.876900 1.657500
-0.851000 1.217400
-0.825100 0.971800
-0.799300 1.127000
-0.773400 1.511900
-0.747600 1.924800
-0.721700 2.184700
-0.695800 2.065300
-0.670000 1.623900
-0.644100 1.242500
-0.618200 1.173500
-0.592400 1.277400
-0.566500 1.297800
-0.540700 1.300800
-0.514800 1.423200
-0.488900 1.565800
-0.463100 1.739600
-0.437200 1.943000
-0.411400 1.962600
-0.385500 1.884200
-0.359600 1.880700
-0.333800 1.707400
-0.307900 1.261100
-0.282100 0.882100
-0.256200 0.811800
-0.230300 1.014100
-0.204500 1.492300
-0.178600 2.223500
-0.152800 2.875000
-0.126900 2.975700
-0.101000 2.435800
-0.075200 1.744200
-0.049300 1.431200
-0.023500 1.504700
0.002400 1.551000
0.028300 1.368700
0.054100 1.174200
0.080000 1.215200
0.105800 1.450900
0.131700 1.547100
0.157600 1.380500
0.183400 1.227500
0.209300 1.264100
0.235200 1.385800
0.261000 1.472500
0.286900 1.533800
0.312700 1.583900
0.338600 1.520300
0.364500 1.344900
0.390300 1.196600
0.416200 1.044000
0.442000 0.898400
0.467900 1.047400
0.493800 1.535200
0.519600 1.924500
0.545500 1.994500
0.571300 1.986800
0.597200 2.052500
0.623100 2.239500
0.648900 2.491100
0.674800 2.436700
0.700600 1.904700
0.726500 1.229900
0.752400 0.865900
0.778200 1.016400
0.804100 1.519400
0.829900 1.974700
0.855800 2.027600
0.881700 1.722200
0.907500 1.527100
0.933400 1.751900
0.959300 2.167200
0.985100 2.367200
1.011000 2.233800
1.036800 2.043800
1.062700 2.094600
1.088600 2.222800
1.114400 2.158200
1.140300 2.118200
1.166100 2.360500
1.192000 2.663000
1.217900 2.654300
1.243700 2.223900
1.269600 1.656100
1.295400 1.403200
1.321300 1.510900
1.347200 1.530500
1.373000 1.262700
1.398900 1.044300
1.424700 1.113500
1.450600 1.400500
1.476500 1.757500
1.502300 1.961600
1.528200 1.867300
1.554000 1.573400
1.579900 1.259000
1.605800 1.101600
1.631600 1.194800
1.657500 1.414000
1.683400 1.712800
1.709200 2.233500
1.735100 2.885100
1.760900 3.244600
1.786800 3.049700
1.812700 2.529400
1.838500 2.013600
1.864400 1.578800
1.890200 1.195300
1.916100 0.882100
1.942000 0.762800
1.967800 0.889500
1.993700 1.109800
2.019500 1.304400
2.045400 1.508500
2.071300 1.726600
2.097100 1.925100
2.123000 2.210200
2.148800 2.620900
2.174700 2.852800
2.200600 2.648600
2.226400 2.182500
2.252300 1.825300
2.278100 1.810800
2.304000 2.131700
2.329900 2.509100
2.355700 2.593600
2.381600 2.399800
2.407400 2.199100
2.433300 2.016300
2.459200 1.700400
2.485000 1.349800
2.510900 1.266300
2.536800 1.463500
2.562600 1.620500
2.588500 1.587600
2.614300 1.603400
2.640200 1.871800
2.666100 2.186600
2.691900 2.280200
2.717800 2.362500
2.743600 2.766500
2.769500 3.172200
2.795400 2.994700
2.821200 2.405900
2.847100 1.971900
2.872900 1.773300
2.898800 1.733100
2.924700 1.943400
2.950500 2.287200
2.976400 2.393800
3.002200 2.056300
3.028100 1.522800
3.054000 1.235600
3.079800 1.398700
3.105700 1.967800
3.131500 2.649500
3.157400 2.927600
3.183300 2.587700
3.209100 1.945300
3.235000 1.384400
3.260900 1.098700
3.286700 1.155500
3.312600 1.455400
3.338400 1.812800
3.364300 2.250100
3.390200 2.661800
3.416000 2.594700
3.441900 2.183500
3.467700 2.167800
3.493600 2.513500
3.519500 2.470200
3.545300 1.944800
3.571200 1.558600
3.597000 1.624700
3.622900 1.925900
3.648800 2.071900
3.674600 1.804200
3.700500 1.385600
3.726300 1.409900
3.752200 2.013100
3.778100 2.637800
3.803900 2.791700
3.829800 2.645900
3.855600 2.417800
3.881500 2.020200
3.907400 1.677600
3.933200 1.695000
3.959100 1.847100
3.985000 1.743800
4.010800 1.438700
4.036700 1.319000
4.062500 1.501400
4.088400 1.618800
4.114300 1.390100
4.140100 1.074200
4.166000 0.999200
4.191800 1.124600
4.217700 1.361000
4.243600 1.864600
4.269400 2.536800
4.295300 2.845600
4.321100 2.731700
4.347000 2.707100
4.372900 2.852200
4.398700 2.826300
4.424600 2.556400
4.450400 2.190200
4.476300 1.875800
4.502200 1.663400
4.528000 1.468900
4.553900 1.290800
4.579700 1.262100
4.605600 1.485300
4.631500 1.943300
4.657300 2.442200
4.683200 2.744300
4.709000 2.802500
4.734900 2.761000
4.760800 2.725700
4.786600 2.570800
4.812500 2.177000
4.838400 1.786600
4.864200 1.701900
4.890100 1.975700
4.915900 2.498400
4.941800 2.906200
4.967700 2.867300
4.993500 2.522800
5.019400 2.126800
5.045200 1.795100
5.071100 1.651700
5.097000 1.699900
5.122800 1.743600
5.148700 1.684500
5.174500 1.631000
5.200400 1.620900
5.226300 1.693000
5.252100 2.050400
5.278000 2.645600
5.303800 3.086300
5.329700 3.188200
5.355600 3.165000
5.381400 3.359200
5.407300 3.758000
5.433100 3.870600
5.459000 3.469500
5.484900 2.949000
5.510700 2.660100
5.536600 2.580800
5.562500 2.710600
5.588300 3.041300
5.614200 3.249300
5.640000 3.167300
5.665900 3.013900
5.691800 2.845600
5.717600 2.578800
5.743500 2.363000
5.769300 2.381900
5.795200 2.574100
5.821100 2.871700
5.846900 3.236000
5.872800 3.324200
5.898600 2.860500
5.924500 2.196700
5.950400 1.916100
5.976200 2.094400
6.002100 2.274800
6.027900 2.204900
6.053800 2.105400
6.079700 2.107700
6.105500 2.096600
6.131400 2.009300
6.157200 1.906400
6.183100 1.854500
6.209000 1.803800
6.234800 1.777200
6.260700 1.933400
6.286600 2.170700
6.312400 2.256700
6.338300 2.309700
6.364100 2.482700
6.390000 2.589400
6.415900 2.473500
6.441700 2.282900
6.467600 2.276900
6.493400 2.519200
6.519300 2.830700
6.545200 3.046300
6.571000 3.051500
6.596900 2.792600
6.622700 2.390000
6.648600 2.010400
6.674500 1.786200
6.700300 1.844000
6.726200 2.195500
6.752000 2.724500
6.777900 3.187700
6.803800 3.318000
6.829600 3.184800
6.855500 3.072700
6.881300 3.041700
6.907200 2.983600
6.933100 2.894500
6.958900 2.709300
6.984800 2.357900
7.010600 2.119600
7.036500 2.345800
7.062400 2.996600
7.088200 3.668600
7.114100 3.856400
7.140000 3.416900
7.165800 2.776200
7.191700 2.360900
7.217500 2.099700
7.243400 1.821800
7.269300 1.611000
7.295100 1.572500
7.321000 1.812900
7.346800 2.526300
7.372700 3.499000
7.398600 3.949200
7.424400 3.543500
7.450300 2.809400
7.476100 2.268100
7.502000 2.131500
7.527900 2.486900
7.553700 2.977200
7.579600 2.922500
7.605400 2.282200
7.631300 1.762600
7.657200 1.763500
7.683000 1.948100
7.708900 1.991000
7.734700 1.983200
7.760600 1.983900
7.786500 2.016600
7.812300 2.387600
7.838200 3.250400
7.864100 4.197800
7.889900 4.719400
7.915800 4.689100
7.941600 4.272100
7.967500 3.637200
7.993400 3.054600
8.019200 2.921500
8.045100 3.102300
8.070900 2.909100
8.096800 2.250100
8.122700 1.761800
8.148500 1.738100
8.174400 1.969100
8.200200 2.296900
8.226100 2.635300
8.252000 2.859700
8.277800 2.910300
8.303700 2.822300
8.329500 2.761000
8.355400 2.904100
8.381300 3.148100
8.407100 3.246600
8.433000 3.139900
8.458800 2.957000
8.484700 2.957700
8.510600 3.311200
8.536400 3.650900
8.562300 3.327100
8.588200 2.416700
8.614000 1.784800
8.639900 1.903200
8.665700 2.379900
8.691600 2.625800
8.717500 2.556300
8.743300 2.632200
8.769200 3.007300
8.795000 3.239300
8.820900 3.299800
8.846800 3.578700
8.872600 4.023200
8.898500 4.323200
8.924300 4.295100
8.950200 3.999500
8.976100 3.654300
9.001900 3.159100
9.027800 2.359800
9.053600 1.672900
9.079500 1.600000
9.105400 2.212800
9.131200 3.227200
9.157100 3.931700
9.182900 3.742100
9.208800 3.029500
9.234700 2.633900
9.260500 2.824300
9.286400 3.141700
9.312200 3.072100
9.338100 2.698100
9.364000 2.411700
9.389800 2.294900
9.415700 2.206600
9.441600 2.060200
9.467400 1.837000
9.493300 1.652700
9.519100 1.787500
9.545000 2.336300
9.570900 3.058300
9.596700 3.768700
9.622600 4.355100
9.648400 4.491900
9.674300 4.025800
9.700200 3.350800
9.726000 2.992400
9.751900 2.983300
9.777700 2.946700
9.803600 2.905400
9.829500 3.213700
9.855300 3.713100
9.881200 4.050500
9.907000 4.332800
9.932900 4.660900
9.958800 4.651000
9.984600 4.129600
10.010500 3.609800
10.036300 3.381900
10.062200 3.262200
10.088100 3.266700
10.113900 3.440600
10.139800 3.564300
10.165700 3.481200
10.191500 3.178400
10.217400 2.765100
10.243200 2.479700
10.269100 2.355500
10.295000 2.151300
10.320800 1.848700
10.346700 1.790100
10.372500 2.137900
10.398400 2.642300
10.424300 2.992000
10.450100 3.011900
10.476000 2.856400
10.501800 2.926000
10.527700 3.209900
10.553600 3.287700
10.579400 3.108000
10.605300 3.087200
10.631100 3.415300
10.657000 3.734200
10.682900 3.706700
10.708700 3.432200
10.734600 3.182600
10.760400 3.172700
10.786300 3.415300
10.812200 3.614000
10.838000 3.344000
10.863900 2.574200
10.889800 1.873300
10.915600 1.828100
10.941500 2.560200
10.967300 3.770500
10.993200 4.887500
11.019100 5.280800
11.044900 4.707700
11.070800 3.635300
11.096600 2.860900
11.122500 2.703400
11.148400 2.764200
11.174200 2.576900
11.200100 2.249800
11.225900 2.135100
11.251800 2.107500
11.277700 1.848700
11.303500 1.537500
11.329400 1.554300
11.355200 1.851200
11.381100 2.172900
11.407000 2.569900
11.432800 3.041900
11.458700 3.242400
11.484500 3.105100
11.510400 2.931000
11.536300 2.841500
11.562100 2.732800
11.588000 2.560300
11.613800 2.460100
11.639700 2.707700
11.665600 3.521300
11.691400 4.579900
11.717300 5.057500
11.743200 4.769200
11.769000 4.348000
11.794900 4.072500
11.820700 3.865700
11.846600 3.796300
11.872500 3.674600
11.898300 3.115800
11.924200 2.262400
11.950000 1.708800
11.975900 1.769600
12.001800 2.164200
12.027600 2.339900
12.053500 2.116600
12.079300 1.895400
12.105200 2.142800
12.131100 2.824900
12.156900 3.514700
12.182800 3.964300
12.208600 4.190000
12.234500 4.279800
12.260400 4.344200
12.286200 4.420700
12.312100 4.364200
12.337900 4.034100
12.363800 3.484800
12.389700 2.891500
12.415500 2.480100
12.441400 2.239700
12.467300 1.947700
12.493100 1.710800
12.519000 1.922600
12.544800 2.714800
12.570700 3.714200
12.596600 4.304000
12.622400 4.293700
12.648300 4.032100
12.674100 3.698600
12.700000 3.173100
12.725900 2.553000
12.751700 2.203600
12.777600 2.405000
12.803400 3.037100
12.829300 3.625200
12.855200 3.889200
12.881000 3.950600
12.906900 3.882300
12.932700 3.624500
12.958600 3.451500
12.984500 3.671400
13.010300 4.071200
13.036200 4.371600
13.062000 4.611100
13.087900 4.859200
13.113800 4.900500
13.139600 4.517500
13.165500 3.918200
13.191400 3.580300
13.217200 3.817300
13.243100 4.346400
13.268900 4.602200
13.294800 4.507900
13.320700 4.214200
13.346500 3.667500
13.372400 3.034000
13.398200 2.556400
13.424100 2.187900
13.450000 1.940400
13.475800 1.888300
13.501700 2.034800
13.527500 2.415700
13.553400 2.946400
13.579300 3.325000
13.605100 3.346500
13.631000 3.063700
13.656800 2.656500
13.682700 2.478000
13.708600 2.742300
13.734400 3.086300
13.760300 3.135000
13.786100 2.978200
13.812000 2.794800
13.837900 2.719600
13.863700 2.938800
13.889600 3.360100
13.915400 3.566900
13.941300 3.499700
13.967200 3.541400
13.993000 3.947600
14.018900 4.595200
14.044800 5.031300
14.070600 4.811600
14.096500 4.059800
14.122300 3.351500
14.148200 2.955900
14.174100 2.787400
14.199900 2.765300
14.225800 2.679500
14.251600 2.356500
14.277500 1.991400
14.303400 1.916800
14.329200 2.351200
14.355100 3.109400
14.380900 3.628000
14.406800 3.889200
14.432700 4.451000
14.458500 5.137700
14.484400 5.197600
14.510200 4.690700
14.536100 4.244500
14.562000 4.117200
14.587800 4.197200
14.613700 4.237900
14.639500 4.050900
14.665400 3.569400
14.691300 2.936400
14.717100 2.554400
14.743000 2.594300
14.768900 2.744900
14.794700 2.869700
14.820600 3.330700
14.846400 4.264800
14.872300 5.145400
14.898200 5.240300
14.924000 4.319600
14.949900 3.034000
14.975700 2.283300
15.001600 2.273200
15.027500 2.734600
15.053300 3.478800
15.079200 4.055300
15.105000 4.052300
15.130900 3.870900
15.156800 3.977700
15.182600 4.154800
15.208500 3.964000
15.234300 3.250000
15.260200 2.374800
15.286100 1.953700
15.311900 2.216900
15.337800 2.827800
15.363600 3.310600
15.389500 3.464500
15.415400 3.439600
15.441200 3.569300
15.467100 3.958900
15.493000 4.472100
15.518800 5.076400
15.544700 5.510900
15.570500 5.310400
15.596400 4.658000
15.622300 4.132300
15.648100 3.734400
15.674000 3.292800
15.699800 3.069400
15.725700 3.132300
15.751600 3.217400
15.777400 3.340300
15.803300 3.453700
15.829100 3.313500
15.855000 3.264800
15.880900 3.817200
15.906700 4.567500
15.932600 4.739000
15.958400 4.380500
15.984300 4.073400
16.010200 3.969500
16.036000 3.905400
16.061900 3.851400
16.087700 3.879000
16.113600 3.913800
16.139500 3.671100
16.165300 3.202300
16.191200 3.041500
16.217000 3.391600
16.242900 3.773800
16.268800 3.693000
16.294600 3.265900
16.320500 2.975100
16.346400 3.181600
16.372200 3.962600
16.398100 4.797000
16.423900 4.960200
16.449800 4.538700
16.475700 4.213900
16.501500 4.327100
16.527400 4.621700
16.553200 4.680200
16.579100 4.324700
16.605000 3.654900
16.630800 3.001000
16.656700 2.743200
16.682500 2.889200
16.708400 3.051800
16.734300 2.942400
16.760100 2.761100
16.786000 2.951000
16.811800 3.550600
16.837700 4.232500
16.863600 4.698200
16.889400 4.795600
16.915300 4.703400
16.941100 4.661500
16.967000 4.485700
16.992900 3.811500
17.018700 2.745200
17.044600 1.950000
17.070500 1.818600
17.096300 2.109200
17.122200 2.493600
17.148000 2.928900
17.173900 3.549700
17.199800 4.308300
17.225600 4.732700
17.251500 4.591700
17.277300 4.488600
17.303200 4.754600
17.329100 4.693800
17.354900 3.963100
17.380800 3.315500
17.406600 3.350300
17.432500 3.725600
17.458400 3.894300
17.484200 3.945300
17.510100 4.201800
17.535900 4.483400
17.561800 4.621800
17.587700 4.777100
17.613500 4.978000
17.639400 5.215400
17.665200 5.274900
17.691100 4.724000
17.717000 3.768000
17.742800 3.089800
17.768700 2.942500
17.794600 3.112400
17.820400 3.375300
17.846300 3.682900
17.872100 3.862000
17.898000 3.666000
17.923900 3.388400
17.949700 3.565100
17.975600 4.058300
18.001400 4.292200
18.027300 4.066600
18.053200 3.598000
18.079000 2.995200
18.104900 2.295900
18.130700 1.916000
18.156600 2.373400
18.182500 3.557700
18.208300 4.643800
18.234200 4.909400
18.260000 4.512200
18.285900 4.145100
18.311800 4.011000
18.337600 3.808600
18.363500 3.526400
18.389300 3.370400
18.415200 3.351100
18.441100 3.619900
18.466900 4.491100
18.492800 5.522300
18.518600 5.897400
18.544500 5.725100
18.570400 5.565700
18.596200 5.555500
18.622100 5.525000
18.648000 5.264700
18.673800 4.709000
18.699700 4.029800
18.725500 3.509500
18.751400 3.344900
18.777300 3.422200
18.803100 3.351300
18.829000 3.086200
18.854800 2.973100
18.880700 3.110300
18.906600 3.444700
18.932400 4.083800
18.958300 4.931700
18.984100 5.513800
19.010000 5.554600
19.035900 5.245300
19.061700 4.844400
19.087600 4.314500
19.113400 3.687400
19.139300 3.340600
19.165200 3.393000
19.191000 3.528800
19.216900 3.445200
19.242700 3.170700
19.268600 3.031400
19.294500 3.200700
19.320300 3.535200
19.346200 3.831100
19.372100 4.020600
19.397900 4.183600
19.423800 4.282000
19.449600 4.248600
19.475500 4.139600
19.501400 3.934100
19.527200 3.615700
19.553100 3.333900
19.578900 3.370000
19.604800 3.868300
19.630700 4.623900
19.656500 5.242300
19.682400 5.415300
19.708200 5.194700
19.734100 4.800200
19.760000 4.232300
19.785800 3.528800
19.811700 3.105400
19.837500 3.244100
19.863400 3.689000
19.889300 4.160200
19.915100 4.611100
19.941000 4.876700
19.966800 4.749900
19.992700 4.274800
20.018600 3.760400
20.044400 3.595000
20.070300 3.819600
20.096200 4.084200
20.122000 4.084100
20.147900 3.850000
20.173700 3.727000
20.199600 3.935500
20.225500 4.281600
20.251300 4.340000
20.277200 3.933600
20.303000 3.419600
20.328900 3.239100
20.354800 3.461500
20.380600 3.801700
20.406500 3.747500
20.432300 3.140900
20.458200 2.613000
20.484100 2.720500
20.509900 3.108800
20.535800 3.240800
20.561600 3.244200
20.587500 3.393400
20.613400 3.525600
20.639200 3.429300
20.665100 3.234000
20.690900 3.081300
20.716800 2.918200
20.742700 2.815800
20.768500 2.927100
20.794400 3.131800
20.820200 3.111400
20.846100 2.710600
20.872000 2.105700
20.897800 1.655800
20.923700 1.545700
20.949600 1.726800
20.975400 2.074900
21.001300 2.363100
21.027100 2.493700
21.053000 2.609000
21.078900 2.689600
21.104700 2.561500
21.130600 2.226400
21.156400 1.819200
21.182300 1.586500
21.208200 1.707000
21.234000 1.914300
21.259900 1.815000
21.285700 1.457300
21.311600 1.263600
21.337500 1.537000
21.363300 2.081300
21.389200 2.450300
21.415000 2.464400
21.440900 2.239000
21.466800 1.909900
21.492600 1.566100
21.518500 1.292700
21.544300 1.026000
21.570200 0.735400
21.596100 0.574600
21.621900 0.573800
21.647800 0.601300
21.673700 0.580600
21.699500 0.539700
21.725400 0.506600
21.751200 0.479600
21.777100 0.482700
21.803000 0.528900
21.828800 0.589000
21.854700 0.669900
21.880500 0.812300
21.906400 1.021000
21.932300 1.282300
21.958100 1.490800
21.984000 1.470200
22.009800 1.319600
22.035700 1.266700
22.061600 1.331900
22.087400 1.498400
22.113300 1.652700
22.139100 1.561900
22.165000 1.251400
22.190900 0.957400
22.216700 0.754300
22.242600 0.575900
22.268400 0.432500
22.294300 0.403000
22.320200 0.475900
22.346000 0.553500
22.371900 0.619600
22.397800 0.690400
22.423600 0.703900
22.449500 0.608500
22.475300 0.489900
22.501200 0.503400
22.527100 0.614600
22.552900 0.604700
22.578800 0.407600
22.604600 0.195100
22.630500 0.108200
22.656400 0.148800
22.682200 0.267800
22.708100 0.359200
22.733900 0.309500
22.759800 0.167800
22.785700 0.077200
22.811500 0.090000
22.837400 0.154000
22.863200 0.177600
22.889100 0.134900
22.915000 0.094800
22.940800 0.101800
22.966700 0.120400
22.992500 0.104500
23.018400 0.059300
23.044300 0.021100
23.070100 0.004600
23.096000 0.000600
23.121800 0.000000
23.147700 0.000000
23.173600 0.000000
23.199400 0.000000
23.225300 0.000000
23.251200 0.000000
23.277000 0.000000
23.302900 0.000000
23.328700 0.000000
23.354600 0.000000
23.380500 0.000000
23.406300 0.000000
23.432200 0.000000
23.458000 0.000000
23.483900 0.000000
23.509800 0.000000
23.535600 0.000000
23.561500 0.000000
23.587300 0.000000
23.613200 0.000000
23.639100 0.000000
23.664900 0.000000
23.690800 0.000000
23.716600 0.000000
23.742500 0.000000
23.768400 0.000000
23.794200 0.000000
23.820100 0.000000
23.845900 0.000000
23.871800 0.000000
23.897700 0.000000
23.923500 0.000000
23.949400 0.000000
23.975300 0.000000
24.001100 0.000000
24.027000 0.000000
24.052800 0.000000
24.078700 0.000000
24.104600 0.000000
24.130400 0.000000
24.156300 0.000000
24.182100 0.000000
24.208000 0.000000
24.233900 0.000000
24.259700 0.000000
24.285600 0.000000
24.311400 0.000000
24.337300 0.000000
24.363200 0.000000
24.389000 0.000000
24.414900 0.000000
24.440700 0.000000
24.466600 0.000000
24.492500 0.000000
24.518300 0.000000
24.544200 0.000000
24.570000 0.000000
24.595900 0.000000
24.621800 0.000000
24.647600 0.000000
24.673500 0.000000
24.699400 0.000000
24.725200 0.000000
24.751100 0.000000
24.776900 0.000000
24.802800 0.000000
24.828700 0.000000
24.854500 0.000000
24.880400 0.000000
24.906200 0.000000
24.932100 0.000000
24.958000 0.000000
24.983800 0.000000
25.009700 0.000000
25.035500 0.000000
25.061400 0.000000
25.087300 0.000000
25.113100 0.000000
25.139000 0.000000
25.164800 0.000000
25.190700 0.000000
25.216600 0.000000
25.242400 0.000000
25.268300 0.000000
25.294100 0.000000
25.320000 0.000000
e
