set title 'mp-1064119 - Density of States'
set xlabel 'Energy (eV)'
set ylabel 'DOS (states/eV)'
set grid
set xrange [-10:10]
set yrange [0:21.866]
set xzeroaxis lt -1
set terminal png size 800,600
set output 'mp-1064119_dos_gnuplot.png'
plot '-' using 1:2 with lines title 'DOS'
-33.097100 0.000000
-33.057800 0.000000
-33.018600 0.000000
-32.979300 0.000000
-32.940100 0.000000
-32.900800 0.000000
-32.861600 0.000000
-32.822300 0.000000
-32.783100 0.000000
-32.743800 0.000000
-32.704600 0.000000
-32.665300 0.000000
-32.626100 0.000000
-32.586800 0.000000
-32.547600 0.000000
-32.508300 0.000000
-32.469100 0.000000
-32.429800 0.000000
-32.390600 0.000000
-32.351300 0.000000
-32.312100 0.000000
-32.272800 0.000000
-32.233600 0.000000
-32.194300 0.000000
-32.155100 0.000000
-32.115800 0.000000
-32.076600 0.000000
-32.037300 0.000000
-31.998100 0.000000
-31.958800 0.000000
-31.919600 0.000000
-31.880300 0.000000
-31.841100 0.000000
-31.801800 0.000000
-31.762600 0.000000
-31.723300 0.000000
-31.684100 0.000000
-31.644800 0.000000
-31.605600 0.000000
-31.566300 0.000000
-31.527100 0.000000
-31.487800 0.000000
-31.448600 0.000000
-31.409300 0.000000
-31.370100 0.000000
-31.330800 0.000000
-31.291600 0.000000
-31.252300 0.000000
-31.213100 0.000000
-31.173800 0.000000
-31.134600 0.000000
-31.095300 0.000000
-31.056100 0.000000
-31.016800 0.000000
-30.977600 0.000000
-30.938300 0.000000
-30.899100 0.000000
-30.859800 0.000000
-30.820600 0.000000
-30.781300 0.000000
-30.742100 0.000000
-30.702800 0.000000
-30.663600 0.000000
-30.624300 0.000000
-30.585100 0.000000
-30.545800 0.000000
-30.506600 0.000000
-30.467300 0.000000
-30.428100 0.000000
-30.388800 0.000000
-30.349600 0.000000
-30.310300 0.000000
-30.271100 0.000000
-30.231800 0.000000
-30.192600 0.000000
-30.153300 0.000000
-30.114100 0.000000
-30.074800 0.000000
-30.035600 0.000000
-29.996300 0.000000
-29.957100 0.000000
-29.917800 0.000000
-29.878600 0.000000
-29.839300 0.000000
-29.800100 0.000000
-29.760800 0.000000
-29.721600 0.000000
-29.682300 0.000000
-29.643100 0.000000
-29.603800 0.000000
-29.564600 0.000000
-29.525300 7.659900
-29.486100 0.000000
-29.446800 0.000000
-29.407600 0.000000
-29.368300 0.000000
-29.329100 0.000000
-29.289800 0.000000
-29.250500 0.000000
-29.211300 0.000000
-29.172000 0.000000
-29.132800 0.000000
-29.093500 0.000000
-29.054300 0.000000
-29.015000 0.000000
-28.975800 0.000000
-28.936500 0.000000
-28.897300 0.000000
-28.858000 0.000000
-28.818800 0.000000
-28.779500 0.000000
-28.740300 0.000000
-28.701000 0.000000
-28.661800 0.000000
-28.622500 0.000000
-28.583300 0.000000
-28.544000 0.000000
-28.504800 0.000000
-28.465500 0.000000
-28.426300 0.000000
-28.387000 0.000000
-28.347800 0.000000
-28.308500 0.000000
-28.269300 0.000000
-28.230000 0.000000
-28.190800 0.000000
-28.151500 0.000000
-28.112300 0.000000
-28.073000 0.000000
-28.033800 0.000000
-27.994500 0.000000
-27.955300 0.000000
-27.916000 0.000000
-27.876800 0.000000
-27.837500 0.000000
-27.798300 0.000000
-27.759000 0.000000
-27.719800 0.000000
-27.680500 0.000000
-27.641300 0.000000
-27.602000 0.000000
-27.562800 0.000000
-27.523500 0.000000
-27.484300 0.000000
-27.445000 0.000000
-27.405800 0.000000
-27.366500 0.000000
-27.327300 0.000000
-27.288000 0.000000
-27.248800 0.000000
-27.209500 0.000000
-27.170300 0.000000
-27.131000 0.000000
-27.091800 0.000000
-27.052500 0.000000
-27.013300 0.000000
-26.974000 0.000000
-26.934800 0.000000
-26.895500 0.000000
-26.856300 0.000000
-26.817000 0.000000
-26.777800 0.000000
-26.738500 0.000000
-26.699300 0.000000
-26.660000 0.000000
-26.620800 0.000000
-26.581500 0.000000
-26.542300 0.000000
-26.503000 0.000000
-26.463800 0.000000
-26.424500 0.000000
-26.385300 0.000000
-26.346000 0.000000
-26.306800 0.000000
-26.267500 0.000000
-26.228300 0.000000
-26.189000 0.000000
-26.149800 0.000000
-26.110500 0.000000
-26.071300 0.000000
-26.032000 0.000000
-25.992800 0.000000
-25.953500 0.000000
-25.914300 0.000000
-25.875000 0.000000
-25.835800 0.000000
-25.796500 0.000000
-25.757300 0.000000
-25.718000 0.000000
-25.678800 0.000000
-25.639500 0.000000
-25.600300 0.000000
-25.561000 0.000000
-25.521800 0.000000
-25.482500 0.000000
-25.443300 0.000000
-25.404000 0.000000
-25.364800 0.000000
-25.325500 0.000000
-25.286300 0.000000
-25.247000 0.000000
-25.207800 0.000000
-25.168500 0.000000
-25.129300 0.000000
-25.090000 0.000000
-25.050800 0.000000
-25.011500 0.000000
-24.972300 0.000000
-24.933000 0.000000
-24.893800 0.000000
-24.854500 0.000000
-24.815300 0.000000
-24.776000 0.000000
-24.736800 0.000000
-24.697500 0.000000
-24.658300 0.000000
-24.619000 0.000000
-24.579800 0.000000
-24.540500 0.000000
-24.501300 0.000000
-24.462000 0.000000
-24.422800 0.000000
-24.383500 0.000000
-24.344300 0.000000
-24.305000 0.000000
-24.265800 0.000000
-24.226500 0.000000
-24.187300 0.000000
-24.148000 0.000000
-24.108800 0.000000
-24.069500 0.000000
-24.030300 0.000000
-23.991000 0.000000
-23.951800 0.000000
-23.912500 0.000000
-23.873300 0.000000
-23.834000 0.000000
-23.794800 0.000000
-23.755500 0.000000
-23.716300 0.000000
-23.677000 0.000000
-23.637800 0.000000
-23.598500 0.000000
-23.559300 0.000000
-23.520000 0.000000
-23.480800 0.000000
-23.441500 0.000000
-23.402300 0.000000
-23.363000 0.000000
-23.323800 0.000000
-23.284500 0.000000
-23.245300 0.000000
-23.206000 0.000000
-23.166800 0.000000
-23.127500 0.000000
-23.088300 0.000000
-23.049000 0.000000
-23.009800 0.000000
-22.970500 0.000000
-22.931300 0.000000
-22.892000 0.000000
-22.852800 0.000000
-22.813500 0.000000
-22.774300 0.000000
-22.735000 0.000000
-22.695800 0.000000
-22.656500 0.000000
-22.617300 0.000000
-22.578000 0.000000
-22.538800 0.000000
-22.499500 0.000000
-22.460300 0.000000
-22.421000 0.000000
-22.381800 0.000000
-22.342500 0.000000
-22.303300 0.000000
-22.264000 0.000000
-22.224800 0.000000
-22.185500 0.000000
-22.146300 0.000000
-22.107000 0.000000
-22.067800 0.000000
-22.028500 0.000000
-21.989300 0.000000
-21.950000 0.000000
-21.910800 0.000000
-21.871500 0.000000
-21.832300 0.000000
-21.793000 0.000000
-21.753800 0.000000
-21.714500 0.000000
-21.675300 0.000000
-21.636000 0.000000
-21.596800 0.000000
-21.557500 0.000000
-21.518300 0.000000
-21.479000 0.000000
-21.439800 0.000000
-21.400500 0.000000
-21.361300 0.000000
-21.322000 0.000000
-21.282800 0.000000
-21.243500 0.000000
-21.204300 0.000000
-21.165000 0.000000
-21.125800 0.000000
-21.086500 0.000000
-21.047300 0.000000
-21.008000 0.000000
-20.968800 0.000000
-20.929500 0.000000
-20.890300 0.000000
-20.851000 0.000000
-20.811800 0.000000
-20.772500 0.000000
-20.733300 0.000000
-20.694000 0.000000
-20.654800 0.000000
-20.615500 0.000000
-20.576300 0.000000
-20.537000 0.000000
-20.497800 0.000000
-20.458500 0.000000
-20.419300 0.000000
-20.380000 0.000000
-20.340800 0.000000
-20.301500 0.000000
-20.262300 0.000000
-20.223000 0.000000
-20.183800 0.000000
-20.144500 0.000000
-20.105300 0.000000
-20.066000 0.000000
-20.026800 0.000000
-19.987500 0.000000
-19.948300 0.000000
-19.909000 0.000000
-19.869800 0.000000
-19.830500 0.000000
-19.791300 0.000000
-19.752000 0.000000
-19.712800 0.000000
-19.673500 0.000000
-19.634300 0.000000
-19.595000 0.000000
-19.555800 0.000000
-19.516500 0.000000
-19.477300 0.000000
-19.438000 0.000000
-19.398800 0.000000
-19.359500 0.000000
-19.320300 0.000000
-19.281000 0.000000
-19.241800 0.000000
-19.202500 0.000000
-19.163300 0.000000
-19.124000 0.000000
-19.084800 0.000000
-19.045500 0.000000
-19.006300 0.000000
-18.967000 0.000000
-18.927800 0.000000
-18.888500 0.000000
-18.849300 0.000000
-18.810000 0.000000
-18.770800 0.000000
-18.731500 0.000000
-18.692300 0.000000
-18.653000 0.000000
-18.613800 0.000000
-18.574500 0.000000
-18.535300 0.000000
-18.496000 0.000000
-18.456800 0.000000
-18.417500 0.000000
-18.378300 0.000000
-18.339000 0.000000
-18.299800 0.000000
-18.260500 0.000000
-18.221300 0.000000
-18.182000 0.000000
-18.142800 0.000000
-18.103500 0.000000
-18.064300 0.000000
-18.025000 0.000000
-17.985800 0.000000
-17.946500 0.000000
-17.907300 0.000000
-17.868000 0.000000
-17.828800 0.000000
-17.789500 0.000000
-17.750300 0.000000
-17.711000 0.000000
-17.671800 0.000000
-17.632500 0.000000
-17.593300 0.000000
-17.554000 0.000000
-17.514800 0.000000
-17.475500 0.000000
-17.436300 0.000000
-17.397000 0.000000
-17.357800 0.000000
-17.318500 0.000000
-17.279300 0.000000
-17.240000 0.000000
-17.200800 0.000000
-17.161500 0.000000
-17.122300 0.000000
-17.083000 0.000000
-17.043800 0.000000
-17.004500 0.000000
-16.965300 0.000000
-16.926000 0.000000
-16.886800 0.000000
-16.847500 0.000000
-16.808300 0.000000
-16.769000 0.000000
-16.729800 0.000000
-16.690500 0.000000
-16.651300 0.000000
-16.612000 0.000000
-16.572800 0.000000
-16.533500 0.000000
-16.494300 0.000000
-16.455000 0.000000
-16.415800 0.000000
-16.376500 0.000000
-16.337300 0.000000
-16.298000 0.000000
-16.258800 0.000000
-16.219500 0.000000
-16.180300 0.000000
-16.141000 0.000000
-16.101800 0.000000
-16.062500 0.000000
-16.023300 0.000000
-15.984000 0.000000
-15.944800 0.000000
-15.905500 0.000000
-15.866300 0.000000
-15.827000 0.000000
-15.787800 0.000000
-15.748500 0.000000
-15.709300 0.000000
-15.670000 0.000000
-15.630800 0.000000
-15.591500 0.000000
-15.552300 0.000000
-15.513000 0.000000
-15.473800 0.000000
-15.434500 0.000000
-15.395300 0.000000
-15.356000 0.000000
-15.316800 0.000000
-15.277500 0.000000
-15.238300 0.000000
-15.199000 0.000000
-15.159800 0.000000
-15.120500 0.000000
-15.081300 0.000000
-15.042000 0.000000
-15.002800 0.000000
-14.963500 0.000000
-14.924300 0.000000
-14.885000 0.000000
-14.845800 0.000000
-14.806500 0.000000
-14.767300 0.000000
-14.728000 0.000000
-14.688800 0.000000
-14.649500 0.000000
-14.610300 0.000000
-14.571000 0.000000
-14.531800 0.000000
-14.492500 0.000000
-14.453300 0.000000
-14.414000 0.000000
-14.374800 0.000000
-14.335500 0.000000
-14.296300 0.000000
-14.257000 0.839200
-14.217800 2.022400
-14.178500 2.978000
-14.139300 4.320300
-14.100000 6.259000
-14.060800 6.342400
-14.021500 5.893500
-13.982300 5.544900
-13.943000 4.923100
-13.903800 3.694600
-13.864500 2.746900
-13.825300 1.763600
-13.786000 1.282900
-13.746800 0.900600
-13.707500 0.518100
-13.668300 0.338500
-13.629000 0.196400
-13.589800 0.000000
-13.550500 0.000000
-13.511300 0.000000
-13.472000 0.000000
-13.432800 0.000000
-13.393500 0.000000
-13.354300 0.000000
-13.315000 0.000000
-13.275800 0.000000
-13.236500 0.391100
-13.197300 3.186600
-13.158000 6.255900
-13.118800 10.083300
-13.079500 16.296600
-13.040300 24.325000
-13.001000 33.106300
-12.961800 0.485300
-12.922500 0.763500
-12.883300 0.963200
-12.844000 1.253100
-12.804800 1.683000
-12.765500 2.245700
-12.726300 3.083100
-12.687000 4.782200
-12.647800 6.006500
-12.608500 6.048900
-12.569300 6.211300
-12.530000 6.381100
-12.490800 5.086300
-12.451500 3.026900
-12.412300 1.941100
-12.373000 0.761000
-12.333800 0.000000
-12.294500 0.000000
-12.255300 0.000000
-12.216000 0.000000
-12.176800 0.000000
-12.137500 0.000000
-12.098300 0.000000
-12.059000 0.000000
-12.019800 0.000000
-11.980500 0.000000
-11.941300 0.000000
-11.902000 0.000000
-11.862800 0.000000
-11.823500 0.000000
-11.784300 0.000000
-11.745000 0.000000
-11.705800 0.000000
-11.666500 0.000000
-11.627300 0.000000
-11.588000 0.000000
-11.548800 0.000000
-11.509500 0.000000
-11.470300 0.000000
-11.431000 0.000000
-11.391800 0.000000
-11.352500 0.000000
-11.313300 0.000000
-11.274000 0.000000
-11.234800 0.000000
-11.195500 0.000000
-11.156300 0.000000
-11.117000 0.000000
-11.077800 0.000000
-11.038500 0.000000
-10.999300 0.000000
-10.960000 0.000000
-10.920800 0.000000
-10.881500 0.000000
-10.842300 0.000000
-10.803000 0.000000
-10.763800 0.000000
-10.724500 0.000000
-10.685300 0.000000
-10.646000 0.000000
-10.606800 0.000000
-10.567500 0.000000
-10.528300 0.000000
-10.489000 0.000000
-10.449800 0.000000
-10.410500 0.000000
-10.371300 0.000000
-10.332000 0.000000
-10.292800 0.000000
-10.253500 0.000000
-10.214300 0.000000
-10.175000 0.000000
-10.135800 0.000000
-10.096500 0.000000
-10.057300 0.000000
-10.018000 0.000000
-9.978800 0.000000
-9.939500 0.000000
-9.900300 0.000000
-9.861000 0.000000
-9.821800 0.000000
-9.782500 0.000000
-9.743300 0.000000
-9.704000 0.000000
-9.664800 0.000000
-9.625500 0.000000
-9.586300 0.000000
-9.547000 0.000000
-9.507800 0.000000
-9.468500 0.000000
-9.429300 0.000000
-9.390000 0.000000
-9.350800 0.000000
-9.311500 0.000000
-9.272300 0.000000
-9.233000 0.000000
-9.193800 0.000000
-9.154500 0.000000
-9.115300 0.000000
-9.076000 0.000000
-9.036800 0.000000
-8.997500 0.000000
-8.958300 0.000000
-8.919000 0.000000
-8.879800 0.000000
-8.840500 0.000000
-8.801300 0.000000
-8.762000 0.000000
-8.722800 0.000000
-8.683500 0.000000
-8.644300 0.000000
-8.605000 0.000000
-8.565800 0.000000
-8.526500 0.000000
-8.487300 0.000000
-8.448000 0.000000
-8.408800 0.000000
-8.369500 0.000000
-8.330300 0.000000
-8.291000 0.000000
-8.251800 0.000000
-8.212500 0.000000
-8.173300 0.000000
-8.134000 0.000000
-8.094800 0.000000
-8.055500 0.000000
-8.016300 0.000000
-7.977000 0.000000
-7.937800 0.000000
-7.898500 0.000000
-7.859300 0.000000
-7.820000 0.000000
-7.780800 0.000000
-7.741500 0.000000
-7.702300 0.000000
-7.663000 0.000000
-7.623800 0.000000
-7.584500 0.000000
-7.545300 0.000000
-7.506000 0.000000
-7.466800 0.000000
-7.427500 0.000000
-7.388300 0.000000
-7.349000 0.000000
-7.309800 0.000000
-7.270500 0.000000
-7.231300 0.000000
-7.192000 0.000000
-7.152800 0.000000
-7.113500 0.000000
-7.074300 0.000000
-7.035000 0.000000
-6.995800 0.000000
-6.956500 0.000000
-6.917300 0.000000
-6.878000 0.000000
-6.838800 0.000000
-6.799500 0.000000
-6.760300 0.000000
-6.721000 0.000000
-6.681800 0.000000
-6.642500 0.000000
-6.603300 0.000000
-6.564000 0.000000
-6.524800 0.000000
-6.485500 0.000000
-6.446300 0.000000
-6.407000 0.000000
-6.367800 0.000000
-6.328500 0.000000
-6.289300 0.000000
-6.250000 0.000000
-6.210800 0.000000
-6.171500 0.000000
-6.132300 0.000000
-6.093000 0.000000
-6.053800 0.000000
-6.014500 0.000000
-5.975300 0.000000
-5.936000 0.000000
-5.896800 0.000000
-5.857500 0.000000
-5.818300 0.000000
-5.779000 0.000000
-5.739800 0.000000
-5.700500 0.000000
-5.661300 0.000000
-5.622000 0.000000
-5.582800 0.000000
-5.543500 0.000000
-5.504300 0.000000
-5.465000 0.000000
-5.425800 0.000000
-5.386500 0.000000
-5.347300 0.000000
-5.308000 0.000000
-5.268800 0.000000
-5.229500 0.000000
-5.190300 0.000000
-5.151000 0.000000
-5.111800 0.000000
-5.072500 0.000000
-5.033300 0.000000
-4.994000 0.000000
-4.954800 0.000000
-4.915500 0.000000
-4.876300 0.000000
-4.837000 0.000000
-4.797800 0.000000
-4.758500 0.000000
-4.719300 0.000000
-4.680000 0.000000
-4.640800 0.000000
-4.601500 0.000000
-4.562300 0.000000
-4.523000 0.000000
-4.483800 0.000000
-4.444500 0.000000
-4.405300 0.000000
-4.366000 0.000000
-4.326800 0.000000
-4.287500 0.000000
-4.248300 0.000000
-4.209000 0.000000
-4.169800 0.000000
-4.130500 0.000000
-4.091300 0.000000
-4.052000 0.000000
-4.012800 0.000000
-3.973500 0.000000
-3.934300 0.000000
-3.895000 0.000000
-3.855800 0.000000
-3.816500 0.000000
-3.777300 0.000000
-3.738000 0.000000
-3.698800 0.000000
-3.659500 0.000000
-3.620300 0.000000
-3.581000 0.000000
-3.541800 0.000000
-3.502500 0.000000
-3.463300 0.000000
-3.424000 0.000000
-3.384800 0.000000
-3.345500 0.000000
-3.306300 0.000000
-3.267000 0.000000
-3.227800 0.000000
-3.188500 0.000000
-3.149300 0.000000
-3.110000 0.000000
-3.070800 0.000000
-3.031500 0.000000
-2.992300 0.000000
-2.953000 0.000000
-2.913800 0.441300
-2.874500 0.941100
-2.835300 1.318300
-2.796000 1.723700
-2.756800 2.325400
-2.717500 3.278900
-2.678300 4.620500
-2.639000 5.139300
-2.599800 5.401600
-2.560500 6.045800
-2.521300 4.542600
-2.482000 4.085800
-2.442800 3.763600
-2.403500 4.010200
-2.364300 0.797800
-2.325000 0.626600
-2.285800 5.004700
-2.246500 12.970600
-2.207300 19.878400
-2.168000 15.486200
-2.128800 12.305100
-2.089500 10.803300
-2.050300 9.879800
-2.011000 6.325300
-1.971800 3.927200
-1.932500 2.677600
-1.893300 1.685100
-1.854000 0.000000
-1.814800 0.000000
-1.775500 0.000000
-1.736300 0.000000
-1.697000 0.000000
-1.657800 0.000000
-1.618500 0.000000
-1.579300 0.000000
-1.540000 0.000000
-1.500800 0.000000
-1.461500 0.000000
-1.422300 0.000000
-1.383000 0.000000
-1.343800 0.000000
-1.304500 0.000000
-1.265300 0.000000
-1.226000 0.000000
-1.186800 0.000000
-1.147500 0.000000
-1.108300 0.000000
-1.069000 0.000000
-1.029800 0.000000
-0.990500 0.000000
-0.951300 0.000000
-0.912000 0.000000
-0.872800 0.000000
-0.833500 0.000000
-0.794300 0.000000
-0.755000 0.000000
-0.715800 0.000000
-0.676500 0.000000
-0.637300 0.000000
-0.598000 0.000000
-0.558800 0.000000
-0.519500 0.000000
-0.480300 0.000000
-0.441000 0.000000
-0.401800 0.000000
-0.362500 0.000000
-0.323300 0.000000
-0.284000 0.000000
-0.244800 0.000000
-0.205500 0.000000
-0.166300 0.000000
-0.127000 0.000000
-0.087800 0.000000
-0.048500 0.000000
-0.009300 0.000000
0.030000 0.000000
0.069200 0.000000
0.108500 0.000000
0.147700 0.000000
0.187000 0.000000
0.226200 0.000000
0.265500 0.000000
0.304700 0.000000
0.344000 0.000000
0.383200 0.000000
0.422500 0.000000
0.461700 0.000000
0.501000 0.000000
0.540200 0.000000
0.579500 0.000000
0.618700 0.000000
0.658000 0.000000
0.697200 0.000000
0.736500 0.000000
0.775700 0.000000
0.815000 0.000000
0.854200 0.000000
0.893500 0.000000
0.932700 0.000000
0.972000 0.000000
1.011200 0.000000
1.050500 0.000000
1.089700 0.000000
1.129000 0.000000
1.168200 0.000000
1.207500 0.000000
1.246700 0.000000
1.286000 0.000000
1.325200 0.000000
1.364500 0.000000
1.403700 0.000000
1.443000 0.000000
1.482200 0.000000
1.521500 0.000000
1.560700 0.000000
1.600000 0.000000
1.639200 0.000000
1.678500 0.000000
1.717700 0.000000
1.757000 0.000000
1.796200 0.000000
1.835500 0.000000
1.874700 0.000000
1.914000 0.000000
1.953200 0.000000
1.992500 0.000000
2.031700 0.000000
2.071000 0.000000
2.110200 0.000000
2.149500 0.000000
2.188700 0.000000
2.228000 0.000000
2.267200 0.000000
2.306500 0.000000
2.345700 0.000000
2.385000 0.000000
2.424200 0.000000
2.463500 0.000000
2.502700 0.000000
2.542000 0.000000
2.581200 0.000000
2.620500 0.000000
2.659700 0.000000
2.699000 0.000000
2.738200 0.000000
2.777500 0.000000
2.816700 0.000000
2.856000 0.000000
2.895200 0.000000
2.934500 0.000000
2.973700 0.000000
3.013000 0.026000
3.052200 0.034500
3.091500 0.043800
3.130700 0.054100
3.170000 0.065200
3.209200 0.077300
3.248500 0.079000
3.287700 0.085300
3.327000 0.091300
3.366200 0.097000
3.405500 0.102300
3.444700 0.107900
3.484000 0.114700
3.523200 0.122300
3.562500 0.130400
3.601700 0.139000
3.641000 0.145400
3.680200 0.151500
3.719500 0.157500
3.758700 0.163200
3.798000 0.169600
3.837200 0.175600
3.876500 0.183000
3.915700 0.190300
3.955000 0.197900
3.994200 0.205800
4.033500 0.213700
4.072700 0.221700
4.112000 0.230000
4.151200 0.238100
4.190500 0.246300
4.229700 0.272700
4.269000 0.282600
4.308200 0.292100
4.347500 0.301100
4.386700 0.300800
4.426000 0.305600
4.465200 0.310200
4.504500 0.314700
4.543700 0.465300
4.583000 0.537400
4.622200 0.610600
4.661500 0.670900
4.700700 0.713500
4.740000 0.764200
4.779200 0.815000
4.818500 0.973700
4.857700 1.000100
4.897000 1.099700
4.936200 1.136800
4.975500 1.165600
5.014700 1.175900
5.054000 1.204300
5.093200 1.246000
5.132500 1.323400
5.171700 1.394100
5.211000 1.462500
5.250200 1.624200
5.289500 1.695400
5.328700 1.690900
5.368000 1.728700
5.407200 1.765700
5.446500 1.854300
5.485700 1.955800
5.525000 2.072700
5.564200 2.520300
5.603500 2.860000
5.642700 3.085000
5.682000 2.958200
5.721200 2.576000
5.760500 3.396500
5.799700 1.887000
5.839000 2.393700
5.878200 2.845000
5.917500 2.470300
5.956700 2.658100
5.996000 3.314200
6.035200 3.780100
6.074500 3.859200
6.113700 3.386300
6.153000 3.129800
6.192200 2.088200
6.231500 2.303700
6.270700 1.318100
6.310000 1.096000
6.349200 0.954900
6.388500 0.837200
6.427700 0.750900
6.467000 0.688600
6.506200 0.623400
6.545500 0.560000
6.584700 0.501700
6.624000 0.459300
6.663200 0.417700
6.702500 0.392100
6.741700 0.356500
6.781000 0.421000
6.820200 0.552400
6.859500 0.603300
6.898700 0.414500
6.938000 0.411500
6.977200 0.410500
7.016500 0.395700
7.055700 0.394300
7.095000 0.398800
7.134200 0.420300
7.173500 0.446600
7.212700 0.474000
7.252000 0.537300
7.291200 0.558900
7.330500 0.594100
7.369700 0.628800
7.409000 0.675000
7.448200 0.735100
7.487500 0.824700
7.526700 1.013900
7.566000 1.188600
7.605200 1.327600
7.644500 1.348300
7.683700 1.487900
7.723000 1.890600
7.762200 2.040600
7.801500 2.113700
7.840700 2.523800
7.880000 2.778400
7.919200 3.034500
7.958500 3.591300
7.997700 4.027800
8.037000 4.263400
8.076200 4.436000
8.115500 4.423000
8.154700 4.898800
8.194000 4.621600
8.233200 3.192900
8.272500 2.401000
8.311700 2.150200
8.351000 2.134500
8.390200 2.451900
8.429500 2.212600
8.468700 2.018000
8.508000 1.914500
8.547200 1.958600
8.586500 2.004900
8.625700 2.039200
8.665000 2.050300
8.704200 2.140800
8.743500 2.192000
8.782700 2.107600
8.822000 2.177100
8.861200 2.357900
8.900500 2.245000
8.939700 2.215900
8.979000 2.211600
9.018200 2.328400
9.057500 2.478800
9.096700 2.624600
9.136000 3.198300
9.175200 3.602500
9.214500 3.616800
9.253700 3.699400
9.293000 3.470900
9.332200 3.236600
9.371500 2.825500
9.410700 2.970400
9.450000 3.776100
9.489200 4.119800
9.528500 4.441600
9.567700 4.744300
9.607000 4.515800
9.646200 4.508700
9.685500 3.864800
9.724700 3.984100
9.764000 4.198700
9.803200 4.342400
9.842500 4.586000
9.881700 4.060800
9.921000 3.327700
9.960200 2.404500
9.999500 2.034300
10.038700 1.470900
10.078000 1.302400
10.117200 1.488000
10.156500 1.424600
10.195700 0.584700
10.235000 1.043000
10.274200 1.193300
10.313500 1.454000
10.352700 1.815900
10.392000 2.023500
10.431200 1.990300
10.470500 1.863000
10.509700 1.784500
10.549000 1.649000
10.588200 1.586100
10.627500 1.475100
10.666700 1.392200
10.706000 1.323900
10.745200 1.275200
10.784500 1.222400
10.823700 1.229600
10.863000 1.097200
10.902200 1.057500
10.941500 1.012700
10.980700 1.009800
11.020000 0.945200
11.059200 0.867800
11.098500 0.722200
11.137700 0.941200
11.177000 0.469500
11.216200 0.439100
11.255500 0.416600
11.294700 0.402500
11.334000 0.394800
11.373200 0.409200
11.412500 0.418400
11.451700 0.533000
11.491000 0.557600
11.530200 0.555500
11.569500 0.542000
11.608700 0.564300
11.648000 0.614600
11.687200 0.660800
11.726500 0.734800
11.765700 0.761300
11.805000 0.815400
11.844200 0.911500
11.883500 1.037500
11.922700 1.043900
11.962000 1.057800
12.001200 1.072800
12.040500 1.105700
12.079700 1.140400
12.119000 1.212300
12.158200 1.354900
12.197500 1.529800
12.236700 1.979800
12.276000 2.821000
12.315200 2.770100
12.354500 2.680300
12.393700 2.865900
12.433000 2.569200
12.472200 3.410300
12.511500 3.123600
12.550700 3.569400
12.590000 3.202800
12.629200 2.704900
12.668500 2.452100
12.707700 2.306700
12.747000 2.211700
12.786200 2.118400
12.825500 2.057300
12.864700 2.029500
12.904000 2.013400
12.943200 2.063300
12.982500 2.097800
13.021700 1.980800
13.061000 1.667200
13.100200 1.643700
13.139500 1.637600
13.178700 1.566200
13.218000 1.510500
13.257200 1.461700
13.296500 1.389400
13.335700 1.261000
13.375000 1.170400
13.414200 1.126900
13.453500 1.100000
13.492700 1.553600
13.532000 1.016800
13.571200 0.955800
13.610500 0.920200
13.649700 0.885400
13.689000 0.856400
13.728200 0.833400
13.767500 0.827500
13.806700 0.761100
13.846000 0.722400
13.885200 0.662200
13.924500 0.666700
13.963700 0.686600
14.003000 0.664100
14.042200 1.508300
14.081500 0.638400
14.120700 0.592500
14.160000 0.537400
14.199200 0.491300
14.238500 0.468800
14.277700 0.447100
14.317000 0.429700
14.356200 0.417800
14.395500 0.408000
14.434700 0.387000
14.474000 0.375100
14.513200 0.365700
14.552500 0.357600
14.591700 0.350300
14.631000 0.343900
14.670200 0.340000
14.709500 0.360700
14.748700 0.359200
14.788000 0.346600
14.827200 0.340300
14.866500 0.315600
14.905700 0.351400
14.945000 0.358100
14.984200 0.364500
15.023500 0.363600
15.062700 0.362400
15.102000 0.361800
15.141200 0.364000
15.180500 0.370700
15.219700 0.383200
15.259000 0.409900
15.298200 0.441700
15.337500 0.480200
15.376700 0.525000
15.416000 0.695700
15.455200 0.879800
15.494500 0.979200
15.533700 1.079900
15.573000 1.173800
15.612200 1.282100
15.651500 1.381300
15.690700 1.479900
15.730000 1.493600
15.769200 1.532100
15.808500 1.547100
15.847700 1.590500
15.887000 2.054200
15.926200 1.884700
15.965500 1.917700
16.004700 1.870900
16.044000 2.135500
16.083200 2.085300
16.122500 2.053800
16.161700 2.834400
16.201000 3.316600
16.240200 3.319000
16.279500 3.957300
16.318700 2.683000
16.358000 2.010400
16.397200 1.972900
16.436500 1.333200
16.475700 0.470400
16.515000 0.255800
16.554200 0.196800
16.593500 0.221600
16.632700 0.294000
16.672000 0.405800
16.711200 0.589900
16.750500 0.719800
16.789700 0.794200
16.829000 1.291700
16.868200 1.558200
16.907500 1.311900
16.946700 1.320700
16.986000 1.357500
17.025200 1.377600
17.064500 1.381200
17.103700 1.380100
17.143000 1.397100
17.182200 1.427800
17.221500 1.454400
17.260700 1.479500
17.300000 1.526600
17.339200 1.584000
17.378500 1.642400
17.417700 1.818500
17.457000 1.940300
17.496200 1.961100
17.535500 2.066600
17.574700 2.115300
17.614000 2.192200
17.653200 2.027500
17.692500 1.874900
17.731700 1.862800
17.771000 1.897000
17.810200 2.009800
17.849500 2.286400
17.888700 2.484100
17.928000 2.615700
17.967200 2.944600
18.006500 2.917500
18.045700 2.987600
18.085000 2.855300
18.124200 2.725400
18.163500 2.671100
18.202700 2.661800
18.242000 2.911900
18.281200 2.709800
18.320500 2.408200
18.359700 1.811500
18.399000 1.764900
18.438200 1.762400
18.477500 1.840400
18.516700 1.775200
18.556000 1.809300
18.595200 1.716800
18.634500 1.697600
18.673700 1.699500
18.713000 1.685800
18.752200 1.688800
18.791500 1.677900
18.830700 1.523100
18.870000 1.470800
18.909200 1.348500
18.948500 1.267200
18.987700 1.235800
19.027000 1.200600
19.066200 1.257600
19.105500 1.298800
19.144700 1.462900
19.184000 1.998900
19.223200 1.943900
19.262500 1.651900
19.301700 1.455800
19.341000 2.143100
19.380200 1.279000
19.419500 1.234300
19.458700 1.272400
19.498000 1.354400
19.537200 1.387600
19.576500 1.410900
19.615700 1.470900
19.655000 1.475500
19.694200 1.470100
19.733500 1.452200
19.772700 1.420900
19.812000 1.322500
19.851200 1.278100
19.890500 1.336200
19.929700 1.401400
19.969000 1.575600
20.008200 1.593400
20.047500 1.716500
20.086700 1.945000
20.126000 2.135900
20.165200 2.244300
20.204500 2.351200
20.243700 2.362200
20.283000 3.692100
20.322200 2.676200
20.361500 2.972600
20.400700 2.997200
20.440000 3.212100
20.479200 3.094900
20.518500 3.159000
20.557700 3.519300
20.597000 3.584500
20.636200 3.240400
20.675500 2.849300
20.714700 2.390300
20.754000 2.518300
20.793200 2.507900
20.832500 2.477700
20.871700 2.675200
20.911000 2.605100
20.950200 2.293400
20.989500 1.872300
21.028700 1.689800
21.068000 1.607100
21.107200 1.651900
21.146500 1.654000
21.185700 1.650000
21.225000 1.609500
21.264200 1.535100
21.303500 1.508100
21.342700 1.453600
21.382000 1.409100
21.421200 1.354700
21.460500 1.289700
21.499700 1.271900
21.539000 1.274700
21.578200 1.357500
21.617500 1.559700
21.656700 1.656000
21.696000 1.732800
21.735200 1.962400
21.774500 2.027000
21.813700 2.066900
21.853000 2.110900
21.892200 1.951900
21.931500 1.877200
21.970700 1.764400
22.010000 1.676500
22.049200 1.647800
22.088500 1.563000
22.127700 1.551000
22.167000 1.538600
22.206200 1.544600
22.245500 1.558100
22.284700 1.514900
22.324000 1.414400
22.363200 1.321300
22.402500 1.269700
22.441700 1.226600
22.481000 1.244200
22.520200 1.173100
22.559500 1.103600
22.598700 1.133200
22.638000 1.142800
22.677200 1.166600
22.716500 1.179100
22.755700 1.246400
22.795000 1.331100
22.834200 1.351000
22.873500 1.365600
22.912700 1.399400
22.952000 1.446800
22.991200 1.443700
23.030500 1.411100
23.069700 1.457800
23.109000 1.604200
23.148200 1.546000
23.187500 1.427100
23.226700 1.314700
23.266000 1.237000
23.305200 1.172600
23.344500 1.099200
23.383700 1.016600
23.423000 0.951300
23.462200 1.025700
23.501500 1.059500
23.540700 1.263900
23.580000 0.980700
23.619200 1.170600
23.658500 1.111000
23.697700 0.945800
23.737000 0.979400
23.776200 1.023200
23.815500 1.063400
23.854700 1.098400
23.894000 1.500600
23.933200 1.483800
23.972500 1.654400
24.011700 1.599400
24.051000 1.653200
24.090200 2.043400
24.129500 2.609800
24.168700 2.411700
24.208000 2.544100
24.247200 2.800200
24.286500 2.537300
24.325700 2.348500
24.365000 2.070600
24.404200 2.002600
24.443500 1.937800
24.482700 1.920300
24.522000 1.902100
24.561200 1.797600
24.600500 1.729200
24.639700 1.769500
24.679000 1.711900
24.718200 1.653000
24.757500 1.641900
24.796700 1.532600
24.836000 1.457300
24.875200 1.487000
24.914500 1.472300
24.953700 1.585800
24.993000 1.632800
25.032200 1.565800
25.071500 1.581300
25.110700 1.637300
25.150000 1.648400
25.189200 1.657700
25.228500 1.417400
25.267700 1.381100
25.307000 1.340900
25.346200 1.383700
25.385500 1.385000
25.424700 1.471600
25.464000 1.536600
25.503200 1.629300
25.542500 1.651100
25.581700 1.684600
25.621000 1.698600
25.660200 1.716000
25.699500 1.724500
25.738700 1.790000
25.778000 1.752800
25.817200 1.810200
25.856500 1.792600
25.895700 1.782700
25.935000 1.793900
25.974200 1.853000
26.013500 1.985700
26.052700 1.973600
26.092000 1.934300
26.131200 1.925800
26.170500 1.999300
26.209700 2.036600
26.249000 2.104100
26.288200 2.121700
26.327500 2.082200
26.366700 2.093500
26.406000 2.066800
26.445200 2.141900
26.484500 2.285000
26.523700 2.233700
26.563000 2.251900
26.602200 2.115900
26.641500 2.161900
26.680700 2.193300
26.720000 2.329800
26.759200 2.264300
26.798500 2.278200
26.837700 2.268300
26.877000 2.187000
26.916200 2.196800
26.955500 2.264300
26.994700 2.393400
27.034000 2.446500
27.073200 2.395800
27.112500 2.497200
27.151700 2.357500
27.191000 2.242900
27.230200 2.123800
27.269500 2.041100
27.308700 2.109500
27.348000 2.012700
27.387200 2.089400
27.426500 2.293000
27.465700 2.955500
27.505000 3.083200
27.544200 3.220200
27.583500 2.913100
27.622700 3.141400
27.662000 2.894200
27.701200 2.727400
27.740500 2.472000
27.779700 2.307100
27.819000 2.128100
27.858200 2.002400
27.897500 1.980200
27.936700 1.898800
27.976000 1.970900
28.015200 2.048400
28.054500 2.200400
28.093700 2.000700
28.133000 2.017300
28.172200 2.018400
28.211500 1.885300
28.250700 1.845000
28.290000 1.809200
28.329200 1.800600
28.368500 1.675200
28.407700 1.714200
28.447000 1.740200
28.486200 1.608500
28.525500 1.512300
28.564700 1.412200
28.604000 1.438200
28.643200 1.387400
28.682500 1.383800
28.721700 1.360600
28.761000 1.411300
28.800200 1.441900
28.839500 1.458900
28.878700 1.538400
28.918000 1.596700
28.957200 1.655400
28.996500 1.650600
29.035700 1.619500
29.075000 1.636200
29.114200 1.786800
29.153500 1.880200
29.192700 1.933700
29.232000 2.042600
29.271200 1.920600
29.310500 1.874800
29.349700 1.702400
29.389000 1.722400
29.428200 1.845300
29.467500 2.025000
29.506700 1.953700
29.546000 1.870900
29.585200 1.884100
29.624500 1.819300
29.663700 1.753800
29.703000 1.621600
29.742200 1.612200
29.781500 1.592700
29.820700 1.668200
29.860000 1.760800
29.899200 1.953900
29.938500 2.021000
29.977700 2.015800
30.017000 2.079200
30.056200 2.239700
30.095500 2.155800
30.134700 2.049400
30.174000 1.952900
30.213200 1.908100
30.252500 1.825500
30.291700 1.752600
30.331000 1.599700
30.370200 1.646400
30.409500 1.780800
30.448700 1.885000
30.488000 1.851700
30.527200 1.948700
30.566500 1.922400
30.605700 1.812200
30.645000 1.639200
30.684200 1.503700
30.723500 1.298400
30.762700 1.150400
30.802000 1.068300
30.841200 1.980600
30.880500 1.281000
30.919700 1.371400
30.959000 1.723800
30.998200 1.770300
31.037500 1.644200
31.076700 1.644000
31.116000 1.569100
31.155200 1.490700
31.194500 1.449200
31.233700 1.346000
31.273000 1.332500
31.312200 1.311000
31.351500 1.343500
31.390700 1.405900
31.430000 1.511400
31.469200 1.747900
31.508500 1.821600
31.547700 1.812100
31.587000 1.853300
31.626200 1.847600
31.665500 1.908700
31.704700 2.274300
31.744000 1.997400
31.783200 1.884400
31.822500 1.713200
31.861700 1.738400
31.901000 1.813600
31.940200 1.794600
31.979500 1.904800
32.018700 2.063400
32.058000 2.225400
32.097200 2.373000
32.136500 2.736800
32.175700 3.046700
32.215000 3.037000
32.254200 2.969300
32.293500 2.719600
32.332700 2.815600
32.372000 2.820000
32.411200 2.706800
32.450500 2.753400
32.489700 2.843200
32.529000 2.855700
32.568200 2.871700
32.607500 2.827100
32.646700 2.553100
32.686000 2.598100
32.725200 2.803600
32.764500 2.920800
32.803700 2.589500
32.843000 2.185500
32.882200 2.007700
32.921500 1.931100
32.960700 1.947000
33.000000 2.086300
33.039200 2.375700
33.078500 2.574500
33.117700 2.777300
33.157000 2.826900
33.196200 2.856300
33.235500 2.567500
33.274700 2.507500
33.314000 2.470100
33.353200 2.514400
33.392500 2.284600
33.431700 2.168100
33.471000 2.084700
33.510200 2.116900
33.549500 2.551800
33.588700 2.654000
33.628000 2.635800
33.667200 2.404600
33.706500 2.466200
33.745700 2.615500
33.785000 2.696800
33.824200 2.512200
33.863500 2.483000
33.902700 2.824700
33.942000 2.827200
33.981200 2.574000
34.020500 2.472300
34.059700 2.454800
34.099000 2.385500
34.138200 2.532300
34.177500 2.665300
34.216700 2.488100
34.256000 2.479800
34.295200 2.276600
34.334500 2.430200
34.373700 2.188600
34.413000 2.059900
34.452200 1.947500
34.491500 2.025000
34.530700 2.373100
34.570000 2.668600
34.609200 2.751600
34.648500 2.627900
34.687700 2.540200
34.727000 2.656400
34.766200 2.405300
34.805500 2.213400
34.844700 2.069300
34.884000 1.734000
34.923200 1.951400
34.962500 1.728300
35.001700 1.548400
35.041000 1.541400
35.080200 1.295000
35.119500 1.221600
35.158700 1.178500
35.198000 1.168400
35.237200 1.243100
35.276500 1.246900
35.315700 1.212600
35.355000 1.193300
35.394200 1.175200
35.433500 1.226700
35.472700 1.284700
35.512000 1.340300
35.551200 1.379000
35.590500 1.527700
35.629700 1.695400
35.669000 2.020900
35.708200 2.351600
35.747500 2.536100
35.786700 2.742300
35.826000 2.836800
35.865200 2.795600
35.904500 2.790500
35.943700 2.737600
35.983000 2.858800
36.022200 2.689600
36.061500 2.057400
36.100700 1.775600
36.140000 1.604000
36.179200 1.576100
36.218500 1.577600
36.257700 1.562800
36.297000 1.587700
36.336200 1.759600
36.375500 2.052900
36.414700 2.200300
36.454000 2.278700
36.493200 2.247300
36.532500 2.251000
36.571700 2.180200
36.611000 2.153800
36.650200 2.075600
36.689500 2.099800
36.728700 2.094900
36.768000 2.202400
36.807200 2.394500
36.846500 2.170100
36.885700 2.080100
36.925000 2.069900
36.964200 1.989600
37.003500 1.977800
37.042700 1.936700
37.082000 1.823700
37.121200 1.689300
37.160500 1.690000
37.199700 1.729400
37.239000 1.794800
37.278200 1.813000
37.317500 1.646300
37.356700 1.587100
37.396000 1.568600
37.435200 1.819000
37.474500 1.591800
37.513700 1.708200
37.553000 1.599100
37.592200 1.597600
37.631500 1.668600
37.670700 1.744600
37.710000 1.836100
37.749200 1.845300
37.788500 1.907600
37.827700 1.884900
37.867000 1.924200
37.906200 1.903400
37.945500 2.104800
37.984700 1.875600
38.024000 1.865300
38.063200 1.891100
38.102500 1.898700
38.141700 1.940800
38.181000 1.973600
38.220200 2.071700
38.259500 2.090000
38.298700 2.204000
38.338000 2.303200
38.377200 2.414300
38.416500 2.711200
38.455700 2.843500
38.495000 2.624300
38.534200 2.557100
38.573500 2.361000
38.612700 2.304800
38.652000 2.392700
38.691200 2.548700
38.730500 2.439000
38.769700 2.406900
38.809000 2.332300
38.848200 2.111300
38.887500 1.982000
38.926700 1.894800
38.966000 1.953600
39.005200 1.999800
39.044500 1.871200
39.083700 1.887200
39.123000 1.809100
39.162200 1.669100
39.201500 1.560300
39.240700 1.314300
39.280000 1.146400
39.319200 1.081000
39.358500 0.773000
39.397700 0.673000
39.437000 0.597600
39.476200 0.570500
39.515500 0.536700
39.554700 0.500800
39.594000 0.418100
39.633200 0.390300
39.672500 0.356200
39.711700 0.326200
39.751000 0.273900
39.790200 0.256500
39.829500 0.239700
39.868700 0.265600
39.908000 0.270700
39.947200 0.211900
39.986500 0.172800
40.025700 0.153600
40.065000 0.134100
40.104200 0.115200
40.143500 0.099200
40.182700 0.066800
40.222000 0.062900
40.261200 0.059200
40.300500 0.055600
40.339700 0.052100
40.379000 0.045700
40.418200 0.043100
40.457500 0.040600
40.496700 0.036500
40.536000 0.033900
40.575200 0.032400
40.614500 0.030900
40.653700 0.029500
40.693000 0.028000
40.732200 0.026600
40.771500 0.025300
40.810700 0.023900
40.850000 0.022600
40.889200 0.021300
40.928500 0.020100
40.967700 0.018900
41.007000 0.017700
41.046200 0.016500
41.085500 0.015400
41.124700 0.014300
41.164000 0.013300
41.203200 0.048400
41.242500 0.006600
41.281700 0.006100
41.321000 0.015200
41.360200 0.010200
41.399500 0.003900
41.438700 0.000600
41.478000 0.000000
41.517200 0.000000
41.556500 0.000000
41.595700 0.000000
41.635000 0.000000
41.674200 0.000000
41.713500 0.000000
41.752700 0.000000
41.792000 0.000000
41.831200 0.000000
41.870500 0.000000
41.909700 0.000000
41.949000 0.000000
41.988200 0.000000
42.027500 0.000000
42.066700 0.000000
42.106000 0.000000
42.145200 0.000000
42.184500 0.000000
42.223700 0.000000
42.263000 0.000000
42.302200 0.000000
42.341500 0.000000
42.380700 0.000000
42.420000 0.000000
42.459200 0.000000
42.498500 0.000000
42.537700 0.000000
42.577000 0.000000
42.616200 0.000000
42.655500 0.000000
42.694700 0.000000
42.734000 0.000000
42.773200 0.000000
42.812500 0.000000
42.851700 0.000000
42.891000 0.000000
42.930200 0.000000
42.969500 0.000000
43.008700 0.000000
43.048000 0.000000
43.087200 0.000000
43.126500 0.000000
43.165700 0.000000
43.205000 0.000000
43.244200 0.000000
43.283500 0.000000
43.322700 0.000000
43.362000 0.000000
43.401200 0.000000
43.440500 0.000000
43.479700 0.000000
43.519000 0.000000
43.558200 0.000000
43.597500 0.000000
43.636700 0.000000
43.676000 0.000000
43.715200 0.000000
43.754500 0.000000
43.793700 0.000000
43.833000 0.000000
43.872200 0.000000
43.911500 0.000000
43.950700 0.000000
43.990000 0.000000
44.029200 0.000000
44.068500 0.000000
44.107700 0.000000
44.147000 0.000000
44.186200 0.000000
44.225500 0.000000
44.264700 0.000000
44.304000 0.000000
44.343200 0.000000
44.382500 0.000000
44.421700 0.000000
44.461000 0.000000
44.500200 0.000000
44.539500 0.000000
44.578700 0.000000
44.618000 0.000000
44.657200 0.000000
44.696500 0.000000
44.735700 0.000000
44.775000 0.000000
44.814200 0.000000
44.853500 0.000000
44.892700 0.000000
44.932000 0.000000
44.971200 0.000000
45.010500 0.000000
45.049700 0.000000
45.089000 0.000000
45.128200 0.000000
45.167500 0.000000
45.206700 0.000000
45.246000 0.000000
45.285200 0.000000
45.324500 0.000000
45.363700 0.000000
45.403000 0.000000
e
