set title 'mp-1069841 - Density of States'
set xlabel 'Energy (eV)'
set ylabel 'DOS (states/eV)'
set grid
set xrange [-10:10]
set yrange [0:10.516]
set xzeroaxis lt -1
set terminal png size 800,600
set output 'mp-1069841_dos_gnuplot.png'
plot '-' using 1:2 with lines title 'DOS'
-35.001400 0.000000
-34.961500 0.000000
-34.921500 0.000000
-34.881500 0.000000
-34.841500 0.000000
-34.801600 0.000000
-34.761600 0.000000
-34.721600 0.000000
-34.681700 0.000000
-34.641700 0.000000
-34.601700 0.000000
-34.561800 0.000000
-34.521800 0.000000
-34.481800 0.000000
-34.441900 0.000000
-34.401900 0.000000
-34.361900 0.000000
-34.321900 0.000000
-34.282000 0.000000
-34.242000 0.000000
-34.202000 0.000000
-34.162100 0.000000
-34.122100 0.000000
-34.082100 0.000000
-34.042200 0.000000
-34.002200 0.000000
-33.962200 0.000000
-33.922300 0.000000
-33.882300 0.000000
-33.842300 0.000000
-33.802300 0.000000
-33.762400 0.000000
-33.722400 0.000000
-33.682400 0.000000
-33.642500 0.000000
-33.602500 0.000000
-33.562500 0.000000
-33.522600 0.000000
-33.482600 0.000000
-33.442600 0.000000
-33.402700 0.000000
-33.362700 0.000000
-33.322700 0.000000
-33.282700 0.000000
-33.242800 0.000000
-33.202800 0.000000
-33.162800 0.000000
-33.122900 0.000000
-33.082900 0.000000
-33.042900 0.000000
-33.003000 0.000000
-32.963000 0.000000
-32.923000 0.000000
-32.883100 0.000000
-32.843100 0.000000
-32.803100 0.000000
-32.763100 0.000000
-32.723200 0.000000
-32.683200 0.000000
-32.643200 0.000000
-32.603300 0.000000
-32.563300 0.000000
-32.523300 0.000000
-32.483400 0.000000
-32.443400 0.000000
-32.403400 0.000000
-32.363500 0.000000
-32.323500 0.000000
-32.283500 0.000000
-32.243500 0.000000
-32.203600 0.000000
-32.163600 0.000000
-32.123600 0.000000
-32.083700 0.000000
-32.043700 0.000000
-32.003700 0.000000
-31.963800 0.000000
-31.923800 0.000000
-31.883800 0.000000
-31.843900 0.000000
-31.803900 0.000000
-31.763900 0.000000
-31.723900 0.000000
-31.684000 0.000000
-31.644000 0.000000
-31.604000 0.000000
-31.564100 0.000000
-31.524100 0.000000
-31.484100 0.000000
-31.444200 0.000000
-31.404200 0.000000
-31.364200 3.488600
-31.324300 8.044500
-31.284300 21.585800
-31.244300 18.496700
-31.204300 10.246000
-31.164400 7.529800
-31.124400 10.209700
-31.084400 27.389600
-31.044500 12.069900
-31.004500 42.030200
-30.964500 18.220900
-30.924600 59.259400
-30.884600 26.808800
-30.844600 102.278400
-30.804700 0.000000
-30.764700 0.000000
-30.724700 0.000000
-30.684700 0.000000
-30.644800 0.000000
-30.604800 0.000000
-30.564800 0.000000
-30.524900 0.000000
-30.484900 0.000000
-30.444900 0.000000
-30.405000 0.000000
-30.365000 0.000000
-30.325000 0.000000
-30.285100 0.000000
-30.245100 0.000000
-30.205100 0.000000
-30.165100 0.000000
-30.125200 0.000000
-30.085200 0.000000
-30.045200 0.000000
-30.005300 0.000000
-29.965300 0.000000
-29.925300 0.000000
-29.885400 0.000000
-29.845400 0.000000
-29.805400 0.000000
-29.765500 0.000000
-29.725500 0.000000
-29.685500 0.000000
-29.645500 0.000000
-29.605600 0.000000
-29.565600 0.000000
-29.525600 0.000000
-29.485700 0.000000
-29.445700 0.000000
-29.405700 0.000000
-29.365800 0.000000
-29.325800 0.000000
-29.285800 0.000000
-29.245900 0.000000
-29.205900 0.000000
-29.165900 0.000000
-29.125900 0.000000
-29.086000 0.000000
-29.046000 0.000000
-29.006000 0.000000
-28.966100 0.000000
-28.926100 0.000000
-28.886100 0.000000
-28.846200 0.000000
-28.806200 0.000000
-28.766200 0.000000
-28.726300 0.000000
-28.686300 0.000000
-28.646300 0.000000
-28.606300 0.000000
-28.566400 0.000000
-28.526400 0.000000
-28.486400 0.000000
-28.446500 0.000000
-28.406500 0.000000
-28.366500 0.000000
-28.326600 0.000000
-28.286600 0.000000
-28.246600 0.000000
-28.206700 0.000000
-28.166700 0.000000
-28.126700 0.000000
-28.086700 0.000000
-28.046800 0.000000
-28.006800 0.000000
-27.966800 0.000000
-27.926900 0.000000
-27.886900 0.000000
-27.846900 0.000000
-27.807000 0.000000
-27.767000 0.000000
-27.727000 0.000000
-27.687100 0.000000
-27.647100 0.000000
-27.607100 0.000000
-27.567100 0.000000
-27.527200 0.000000
-27.487200 0.000000
-27.447200 0.000000
-27.407300 0.000000
-27.367300 0.000000
-27.327300 0.000000
-27.287400 0.000000
-27.247400 0.000000
-27.207400 0.000000
-27.167500 0.000000
-27.127500 0.000000
-27.087500 0.000000
-27.047500 0.000000
-27.007600 0.000000
-26.967600 0.000000
-26.927600 0.000000
-26.887700 0.000000
-26.847700 0.000000
-26.807700 0.000000
-26.767800 0.000000
-26.727800 0.000000
-26.687800 0.000000
-26.647800 0.000000
-26.607900 0.000000
-26.567900 0.000000
-26.527900 0.000000
-26.488000 0.000000
-26.448000 0.000000
-26.408000 0.000000
-26.368100 0.000000
-26.328100 0.000000
-26.288100 0.000000
-26.248200 0.000000
-26.208200 0.000000
-26.168200 0.000000
-26.128200 0.000000
-26.088300 0.000000
-26.048300 0.000000
-26.008300 0.000000
-25.968400 0.000000
-25.928400 0.000000
-25.888400 0.000000
-25.848500 0.000000
-25.808500 0.000000
-25.768500 0.000000
-25.728600 0.000000
-25.688600 0.000000
-25.648600 0.000000
-25.608600 0.000000
-25.568700 0.000000
-25.528700 0.000000
-25.488700 0.000000
-25.448800 0.000000
-25.408800 0.000000
-25.368800 0.000000
-25.328900 0.000000
-25.288900 0.000000
-25.248900 0.000000
-25.209000 0.000000
-25.169000 0.000000
-25.129000 0.000000
-25.089000 0.000000
-25.049100 0.000000
-25.009100 0.000000
-24.969100 0.000000
-24.929200 0.000000
-24.889200 0.000000
-24.849200 0.000000
-24.809300 0.000000
-24.769300 0.000000
-24.729300 0.000000
-24.689400 0.000000
-24.649400 0.000000
-24.609400 0.000000
-24.569400 0.000000
-24.529500 0.000000
-24.489500 0.000000
-24.449500 0.000000
-24.409600 0.000000
-24.369600 0.000000
-24.329600 0.000000
-24.289700 0.000000
-24.249700 0.000000
-24.209700 0.000000
-24.169800 0.000000
-24.129800 0.000000
-24.089800 0.000000
-24.049800 0.000000
-24.009900 0.000000
-23.969900 0.000000
-23.929900 0.000000
-23.890000 0.000000
-23.850000 0.000000
-23.810000 0.000000
-23.770100 0.000000
-23.730100 0.000000
-23.690100 0.000000
-23.650200 0.000000
-23.610200 0.000000
-23.570200 0.000000
-23.530200 0.000000
-23.490300 0.000000
-23.450300 0.000000
-23.410300 0.000000
-23.370400 0.000000
-23.330400 0.000000
-23.290400 0.000000
-23.250500 0.000000
-23.210500 0.000000
-23.170500 0.000000
-23.130600 0.000000
-23.090600 0.000000
-23.050600 0.000000
-23.010600 0.000000
-22.970700 0.000000
-22.930700 0.000000
-22.890700 0.000000
-22.850800 0.000000
-22.810800 0.000000
-22.770800 0.000000
-22.730900 0.000000
-22.690900 0.000000
-22.650900 0.000000
-22.611000 0.000000
-22.571000 0.000000
-22.531000 0.000000
-22.491000 0.000000
-22.451100 0.000000
-22.411100 0.000000
-22.371100 0.000000
-22.331200 0.000000
-22.291200 0.000000
-22.251200 0.000000
-22.211300 0.000000
-22.171300 0.000000
-22.131300 0.000000
-22.091400 0.000000
-22.051400 0.000000
-22.011400 0.000000
-21.971400 0.000000
-21.931500 0.000000
-21.891500 0.000000
-21.851500 0.000000
-21.811600 0.000000
-21.771600 0.000000
-21.731600 0.000000
-21.691700 0.000000
-21.651700 0.000000
-21.611700 0.000000
-21.571800 0.000000
-21.531800 0.000000
-21.491800 0.000000
-21.451800 0.000000
-21.411900 0.000000
-21.371900 0.000000
-21.331900 0.000000
-21.292000 0.000000
-21.252000 0.000000
-21.212000 0.000000
-21.172100 0.000000
-21.132100 0.000000
-21.092100 0.000000
-21.052200 0.000000
-21.012200 0.000000
-20.972200 0.000000
-20.932200 0.000000
-20.892300 0.000000
-20.852300 0.000000
-20.812300 0.000000
-20.772400 0.000000
-20.732400 0.000000
-20.692400 0.000000
-20.652500 0.000000
-20.612500 0.000000
-20.572500 0.000000
-20.532600 0.000000
-20.492600 0.000000
-20.452600 0.000000
-20.412600 0.000000
-20.372700 0.000000
-20.332700 0.000000
-20.292700 0.000000
-20.252800 0.000000
-20.212800 0.000000
-20.172800 0.000000
-20.132900 0.000000
-20.092900 0.000000
-20.052900 0.000000
-20.013000 0.000000
-19.973000 0.000000
-19.933000 0.000000
-19.893000 0.000000
-19.853100 0.000000
-19.813100 0.000000
-19.773100 0.000000
-19.733200 0.000000
-19.693200 0.000000
-19.653200 0.000000
-19.613300 0.000000
-19.573300 0.000000
-19.533300 0.000000
-19.493400 0.000000
-19.453400 0.000000
-19.413400 0.000000
-19.373400 0.000000
-19.333500 0.000000
-19.293500 0.000000
-19.253500 0.000000
-19.213600 0.000000
-19.173600 0.000000
-19.133600 0.000000
-19.093700 0.000000
-19.053700 0.000000
-19.013700 0.000000
-18.973800 0.000000
-18.933800 0.000000
-18.893800 0.000000
-18.853800 0.000000
-18.813900 0.000000
-18.773900 0.000000
-18.733900 0.000000
-18.694000 0.000000
-18.654000 0.000000
-18.614000 0.000000
-18.574100 0.000000
-18.534100 0.000000
-18.494100 0.000000
-18.454200 0.000000
-18.414200 0.000000
-18.374200 0.000000
-18.334200 0.000000
-18.294300 0.000000
-18.254300 0.000000
-18.214300 0.000000
-18.174400 0.000000
-18.134400 0.000000
-18.094400 0.000000
-18.054500 0.000000
-18.014500 0.000000
-17.974500 0.000000
-17.934600 0.000000
-17.894600 0.000000
-17.854600 0.000000
-17.814600 0.000000
-17.774700 0.000000
-17.734700 0.000000
-17.694700 0.000000
-17.654800 0.000000
-17.614800 0.000000
-17.574800 0.000000
-17.534900 0.000000
-17.494900 0.000000
-17.454900 0.000000
-17.415000 0.000000
-17.375000 0.000000
-17.335000 0.000000
-17.295000 0.000000
-17.255100 0.000000
-17.215100 0.000000
-17.175100 0.000000
-17.135200 0.000000
-17.095200 0.000000
-17.055200 0.000000
-17.015300 0.000000
-16.975300 0.000000
-16.935300 0.000000
-16.895400 0.000000
-16.855400 0.000000
-16.815400 0.000000
-16.775400 0.000000
-16.735500 0.000000
-16.695500 0.000000
-16.655500 0.000000
-16.615600 0.000000
-16.575600 0.000000
-16.535600 0.000000
-16.495700 0.000000
-16.455700 0.000000
-16.415700 0.000000
-16.375800 0.000000
-16.335800 0.000000
-16.295800 0.000000
-16.255800 0.000000
-16.215900 0.000000
-16.175900 0.000000
-16.135900 0.000000
-16.096000 0.000000
-16.056000 0.000000
-16.016000 0.000000
-15.976100 0.000000
-15.936100 0.000000
-15.896100 0.000000
-15.856200 0.000000
-15.816200 0.000000
-15.776200 0.000000
-15.736200 0.000000
-15.696300 0.000000
-15.656300 0.000000
-15.616300 0.000000
-15.576400 0.000000
-15.536400 0.000000
-15.496400 0.000000
-15.456500 0.000000
-15.416500 0.000000
-15.376500 0.000000
-15.336600 0.000000
-15.296600 0.000000
-15.256600 0.000000
-15.216600 0.000000
-15.176700 0.000000
-15.136700 0.000000
-15.096700 0.000000
-15.056800 0.000000
-15.016800 0.000000
-14.976800 0.000000
-14.936900 0.000000
-14.896900 0.000000
-14.856900 0.000000
-14.817000 0.000000
-14.777000 0.000000
-14.737000 0.000000
-14.697000 0.000000
-14.657100 0.000000
-14.617100 0.000000
-14.577100 0.000000
-14.537200 0.000000
-14.497200 0.000000
-14.457200 0.000000
-14.417300 0.000000
-14.377300 0.000000
-14.337300 0.000000
-14.297400 0.000000
-14.257400 0.000000
-14.217400 0.000000
-14.177400 0.000000
-14.137500 0.000000
-14.097500 0.000000
-14.057500 0.000000
-14.017600 0.000000
-13.977600 0.000000
-13.937600 0.000000
-13.897700 0.000000
-13.857700 0.000000
-13.817700 0.000000
-13.777800 0.000000
-13.737800 0.000000
-13.697800 0.000000
-13.657800 0.000000
-13.617900 0.000000
-13.577900 0.000000
-13.537900 0.000000
-13.498000 0.000000
-13.458000 0.000000
-13.418000 0.000000
-13.378100 0.000000
-13.338100 0.000000
-13.298100 0.000000
-13.258200 0.000000
-13.218200 0.000000
-13.178200 0.000000
-13.138200 0.000000
-13.098300 0.000000
-13.058300 0.000000
-13.018300 0.000000
-12.978400 0.000000
-12.938400 0.000000
-12.898400 0.000000
-12.858500 0.000000
-12.818500 0.353300
-12.778500 0.707400
-12.738600 0.814500
-12.698600 0.829500
-12.658600 0.864700
-12.618600 0.888800
-12.578700 0.893400
-12.538700 0.931900
-12.498700 0.967600
-12.458800 0.986500
-12.418800 1.021500
-12.378800 1.060900
-12.338900 1.105400
-12.298900 1.152000
-12.258900 1.199600
-12.219000 1.247200
-12.179000 1.327300
-12.139000 1.412400
-12.099000 1.489400
-12.059100 1.565600
-12.019100 1.737500
-11.979100 1.909200
-11.939200 2.078800
-11.899200 2.267800
-11.859200 2.890200
-11.819300 3.601300
-11.779300 10.129400
-11.739300 3.591000
-11.699400 3.484600
-11.659400 3.252600
-11.619400 0.000000
-11.579400 0.000000
-11.539500 0.000000
-11.499500 0.000000
-11.459500 0.000000
-11.419600 0.000000
-11.379600 0.000000
-11.339600 0.000000
-11.299700 0.000000
-11.259700 0.000000
-11.219700 0.000000
-11.179800 0.000000
-11.139800 0.000000
-11.099800 0.000000
-11.059800 0.000000
-11.019900 0.000000
-10.979900 0.000000
-10.939900 0.000000
-10.900000 0.000000
-10.860000 0.000000
-10.820000 0.000000
-10.780100 0.000000
-10.740100 0.000000
-10.700100 0.000000
-10.660200 0.000000
-10.620200 0.000000
-10.580200 0.000000
-10.540200 0.000000
-10.500300 0.000000
-10.460300 0.000000
-10.420300 0.000000
-10.380400 0.000000
-10.340400 0.000000
-10.300400 0.000000
-10.260500 0.000000
-10.220500 0.000000
-10.180500 0.000000
-10.140600 0.000000
-10.100600 0.000000
-10.060600 0.000000
-10.020600 0.000000
-9.980700 0.000000
-9.940700 0.000000
-9.900700 0.000000
-9.860800 0.000000
-9.820800 0.000000
-9.780800 0.000000
-9.740900 0.000000
-9.700900 0.000000
-9.660900 0.000000
-9.621000 0.000000
-9.581000 0.000000
-9.541000 0.000000
-9.501000 0.000000
-9.461100 0.000000
-9.421100 0.000000
-9.381100 0.000000
-9.341200 0.000000
-9.301200 0.000000
-9.261200 0.076200
-9.221300 0.157800
-9.181300 0.206300
-9.141300 0.265500
-9.101400 0.310400
-9.061400 0.368700
-9.021400 0.429900
-8.981400 0.518800
-8.941500 0.652000
-8.901500 0.669900
-8.861500 0.686500
-8.821600 0.700600
-8.781600 0.722000
-8.741600 0.731800
-8.701700 0.750600
-8.661700 0.772600
-8.621700 0.792900
-8.581800 0.812200
-8.541800 0.838600
-8.501800 0.866100
-8.461800 0.893700
-8.421900 0.921100
-8.381900 0.950300
-8.341900 0.990700
-8.302000 1.034800
-8.262000 1.083400
-8.222000 1.133300
-8.182100 1.180900
-8.142100 1.241100
-8.102100 1.331700
-8.062200 1.443300
-8.022200 1.546900
-7.982200 1.651800
-7.942200 1.827700
-7.902300 2.154900
-7.862300 2.544700
-7.822300 3.163800
-7.782400 4.478600
-7.742400 2.848500
-7.702400 2.408000
-7.662500 2.172600
-7.622500 2.049000
-7.582500 0.000000
-7.542600 0.000000
-7.502600 0.000000
-7.462600 0.000000
-7.422600 0.000000
-7.382700 0.000000
-7.342700 0.000000
-7.302700 0.000000
-7.262800 0.000000
-7.222800 0.000000
-7.182800 0.000000
-7.142900 0.000000
-7.102900 0.000000
-7.062900 0.000000
-7.023000 0.000000
-6.983000 0.000000
-6.943000 0.000000
-6.903000 0.000000
-6.863100 0.000000
-6.823100 0.000000
-6.783100 0.000000
-6.743200 0.000000
-6.703200 0.000000
-6.663200 0.000000
-6.623300 0.000000
-6.583300 0.000000
-6.543300 0.000000
-6.503400 0.000000
-6.463400 0.000000
-6.423400 0.000000
-6.383400 0.000000
-6.343500 0.000000
-6.303500 0.000000
-6.263500 0.000000
-6.223600 0.000000
-6.183600 0.000000
-6.143600 0.000000
-6.103700 0.000000
-6.063700 0.000000
-6.023700 0.000000
-5.983800 0.000000
-5.943800 0.000000
-5.903800 0.000000
-5.863800 0.000000
-5.823900 0.000000
-5.783900 0.000000
-5.743900 0.000000
-5.704000 0.000000
-5.664000 0.000000
-5.624000 0.000000
-5.584100 0.000000
-5.544100 0.000000
-5.504100 0.000000
-5.464200 0.000000
-5.424200 0.000000
-5.384200 0.001300
-5.344200 0.046200
-5.304300 0.093500
-5.264300 0.148600
-5.224300 0.179100
-5.184400 0.205800
-5.144400 0.234100
-5.104400 0.266400
-5.064500 0.297000
-5.024500 0.329500
-4.984500 0.369800
-4.944500 0.411300
-4.904600 0.450900
-4.864600 0.494200
-4.824600 0.543800
-4.784700 0.597700
-4.744700 0.655300
-4.704700 0.720200
-4.664800 0.795300
-4.624800 0.875000
-4.584800 0.966500
-4.544900 1.093400
-4.504900 1.271500
-4.464900 1.468600
-4.424900 1.710800
-4.385000 2.031000
-4.345000 2.249600
-4.305000 2.477100
-4.265100 3.003500
-4.225100 3.538200
-4.185100 3.562900
-4.145200 3.703700
-4.105200 3.821600
-4.065200 3.974500
-4.025300 3.549900
-3.985300 2.269600
-3.945300 1.386300
-3.905300 0.162800
-3.865400 0.000000
-3.825400 0.000000
-3.785400 0.000000
-3.745500 0.000000
-3.705500 0.000000
-3.665500 0.000000
-3.625600 0.000000
-3.585600 0.000000
-3.545600 0.000000
-3.505700 0.000000
-3.465700 0.000000
-3.425700 0.000000
-3.385700 0.000000
-3.345800 0.000000
-3.305800 0.000000
-3.265800 0.000000
-3.225900 0.000000
-3.185900 0.000000
-3.145900 0.000000
-3.106000 0.000000
-3.066000 0.000000
-3.026000 0.000000
-2.986100 0.000000
-2.946100 0.000000
-2.906100 0.000000
-2.866100 0.000000
-2.826200 0.000000
-2.786200 0.000000
-2.746200 0.000000
-2.706300 0.000000
-2.666300 0.000000
-2.626300 0.000000
-2.586400 0.000000
-2.546400 0.000000
-2.506400 0.000000
-2.466500 0.000000
-2.426500 0.000000
-2.386500 0.000000
-2.346500 0.000000
-2.306600 0.000000
-2.266600 0.000000
-2.226600 0.000000
-2.186700 0.000000
-2.146700 0.000000
-2.106700 0.000000
-2.066800 0.000000
-2.026800 0.000000
-1.986800 0.000000
-1.946900 0.000000
-1.906900 0.000000
-1.866900 0.000000
-1.826900 0.000000
-1.787000 0.000000
-1.747000 0.000000
-1.707000 0.000000
-1.667100 0.010800
-1.627100 0.029800
-1.587100 0.048500
-1.547200 0.069600
-1.507200 0.090700
-1.467200 0.112700
-1.427300 0.134900
-1.387300 0.147200
-1.347300 0.161800
-1.307300 0.176100
-1.267400 0.191100
-1.227400 0.206400
-1.187400 0.222500
-1.147500 0.243600
-1.107500 0.264200
-1.067500 0.285400
-1.027600 0.307500
-0.987600 0.333000
-0.947600 0.365000
-0.907700 0.398500
-0.867700 0.435600
-0.827700 0.476400
-0.787700 0.527700
-0.747800 0.595100
-0.707800 0.690700
-0.667800 1.488000
-0.627900 1.990000
-0.587900 2.302500
-0.547900 2.253500
-0.508000 2.153400
-0.468000 2.160900
-0.428000 2.160500
-0.388100 2.102900
-0.348100 2.070700
-0.308100 2.074900
-0.268100 2.035100
-0.228200 1.989300
-0.188200 1.888600
-0.148200 2.062500
-0.108300 2.069800
-0.068300 2.240300
-0.028300 2.361100
0.011600 2.595100
0.051600 2.801300
0.091600 3.188200
0.131500 3.563300
0.171500 4.156400
0.211500 3.719100
0.251500 3.582000
0.291400 3.653600
0.331400 3.593400
0.371400 3.090600
0.411300 2.165900
0.451300 1.379100
0.491300 1.280500
0.531200 1.458300
0.571200 2.076700
0.611200 2.977400
0.651100 3.024500
0.691100 3.122300
0.731100 3.281800
0.771100 2.912000
0.811000 2.573600
0.851000 2.291400
0.891000 2.042400
0.930900 1.775300
0.970900 1.632500
1.010900 1.505600
1.050800 1.465900
1.090800 1.445200
1.130800 1.415200
1.170700 1.393700
1.210700 1.354900
1.250700 1.346200
1.290700 1.361000
1.330600 1.381800
1.370600 1.400100
1.410600 1.431700
1.450500 1.467100
1.490500 1.503400
1.530500 1.529700
1.570400 1.578800
1.610400 1.679400
1.650400 1.829900
1.690300 1.955500
1.730300 1.866900
1.770300 1.890600
1.810300 1.910800
1.850200 1.949700
1.890200 2.005500
1.930200 2.068500
1.970100 2.141000
2.010100 2.201000
2.050100 2.290100
2.090000 2.568900
2.130000 2.552800
2.170000 2.618300
2.209900 2.757400
2.249900 2.848100
2.289900 2.792300
2.329900 2.783000
2.369800 2.788500
2.409800 2.759800
2.449800 2.924300
2.489700 3.069600
2.529700 3.527300
2.569700 4.462000
2.609600 4.593100
2.649600 4.618600
2.689600 4.623700
2.729500 4.979900
2.769500 5.312500
2.809500 4.150000
2.849500 3.891000
2.889400 3.743500
2.929400 3.996800
2.969400 4.189100
3.009300 4.522700
3.049300 5.176400
3.089300 5.663200
3.129200 4.673600
3.169200 3.311600
3.209200 2.736500
3.249100 2.549700
3.289100 2.520900
3.329100 2.694300
3.369100 3.098000
3.409000 4.003100
3.449000 4.234700
3.489000 2.960000
3.528900 2.470300
3.568900 2.151400
3.608900 1.799400
3.648800 1.598200
3.688800 1.411300
3.728800 1.220200
3.768700 1.008800
3.808700 0.779200
3.848700 0.556600
3.888700 0.331600
3.928600 0.182700
3.968600 0.092400
4.008600 0.058800
4.048500 0.041200
4.088500 0.025600
4.128500 0.010000
4.168400 0.000300
4.208400 0.000000
4.248400 0.000000
4.288300 0.029200
4.328300 0.224600
4.368300 0.500300
4.408300 0.599400
4.448200 0.706000
4.488200 0.860500
4.528200 1.030000
4.568100 1.237400
4.608100 1.647300
4.648100 1.758100
4.688000 1.686300
4.728000 1.743800
4.768000 1.765900
4.807900 1.796000
4.847900 1.837700
4.887900 1.898900
4.927900 1.976500
4.967800 2.198800
5.007800 2.544700
5.047800 2.356600
5.087700 2.360300
5.127700 2.561600
5.167700 1.992000
5.207600 1.742100
5.247600 1.601100
5.287600 1.491500
5.327500 1.488100
5.367500 1.309500
5.407500 0.985200
5.447500 0.851500
5.487400 0.792700
5.527400 0.787300
5.567400 0.819900
5.607300 0.931000
5.647300 1.138300
5.687300 1.444400
5.727200 1.838300
5.767200 2.237000
5.807200 2.545400
5.847100 2.707600
5.887100 2.812800
5.927100 3.095600
5.967100 3.419800
6.007000 3.791500
6.047000 4.432700
6.087000 4.828400
6.126900 6.098800
6.166900 5.185200
6.206900 3.777800
6.246800 2.427200
6.286800 1.643600
6.326800 1.949000
6.366700 1.784900
6.406700 1.932900
6.446700 2.195500
6.486700 2.362600
6.526600 2.589500
6.566600 2.632400
6.606600 2.610000
6.646500 2.702600
6.686500 2.850400
6.726500 2.955900
6.766400 3.173900
6.806400 3.536600
6.846400 3.163800
6.886300 2.669600
6.926300 2.683100
6.966300 2.674400
7.006300 2.599600
7.046200 2.198600
7.086200 1.731800
7.126200 2.335100
7.166100 2.414700
7.206100 2.443300
7.246100 2.532400
7.286000 2.404300
7.326000 2.241600
7.366000 2.212900
7.405900 2.175200
7.445900 2.158900
7.485900 2.190500
7.525900 2.251000
7.565800 2.367100
7.605800 2.667200
7.645800 3.272500
7.685700 4.183500
7.725700 9.560000
7.765700 2.222200
7.805600 0.492000
7.845600 0.488100
7.885600 0.654400
7.925500 0.886800
7.965500 0.888700
8.005500 0.877700
8.045500 0.907900
8.085400 0.862700
8.125400 0.841900
8.165400 0.836000
8.205300 0.771200
8.245300 0.750300
8.285300 0.782800
8.325200 0.809100
8.365200 0.787000
8.405200 0.730600
8.445100 0.712400
8.485100 0.732400
8.525100 0.752400
8.565100 0.803700
8.605000 0.906600
8.645000 1.001000
8.685000 1.015500
8.724900 1.021100
8.764900 1.057700
8.804900 1.114400
8.844800 1.224900
8.884800 1.363100
8.924800 2.770700
8.964700 3.116700
9.004700 3.612200
9.044700 4.088700
9.084700 4.625200
9.124600 5.286500
9.164600 5.491600
9.204600 6.255800
9.244500 4.884200
9.284500 5.230000
9.324500 5.886600
9.364400 7.209500
9.404400 8.076100
9.444400 7.354400
9.484300 6.151300
9.524300 5.841100
9.564300 5.790300
9.604300 6.021500
9.644200 7.220100
9.684200 7.146100
9.724200 9.191900
9.764100 8.046200
9.804100 6.295500
9.844100 5.332500
9.884000 4.553300
9.924000 4.325300
9.964000 3.678200
10.003900 3.145100
10.043900 2.732300
10.083900 1.966600
10.123900 1.859100
10.163800 2.330000
10.203800 3.084300
10.243800 3.890900
10.283700 5.042700
10.323700 5.332500
10.363700 5.915400
10.403600 5.667200
10.443600 5.255000
10.483600 4.572600
10.523500 4.596400
10.563500 4.717600
10.603500 4.898200
10.643500 4.961300
10.683400 4.503500
10.723400 3.965300
10.763400 4.033100
10.803300 4.083900
10.843300 3.609500
10.883300 3.223100
10.923200 3.369300
10.963200 3.519500
11.003200 4.098100
11.043100 5.792100
11.083100 6.048600
11.123100 3.694000
11.163100 2.950200
11.203000 2.626900
11.243000 2.457400
11.283000 2.345600
11.322900 2.416700
11.362900 2.751800
11.402900 2.769100
11.442800 3.193400
11.482800 3.350200
11.522800 3.626300
11.562700 3.455700
11.602700 3.302100
11.642700 3.026000
11.682700 2.406100
11.722600 1.915200
11.762600 1.695400
11.802600 2.307500
11.842500 2.580200
11.882500 2.683600
11.922500 2.846400
11.962400 3.193800
12.002400 3.366000
12.042400 3.124900
12.082300 3.168500
12.122300 2.613000
12.162300 2.495600
12.202300 2.370500
12.242200 2.135300
12.282200 1.990900
12.322200 1.849000
12.362100 1.706700
12.402100 1.657500
12.442100 1.630500
12.482000 1.602300
12.522000 1.573900
12.562000 1.562000
12.601900 1.549200
12.641900 1.519400
12.681900 1.514600
12.721900 1.573900
12.761800 1.503400
12.801800 1.217500
12.841800 0.865200
12.881700 0.673800
12.921700 0.537600
12.961700 0.432400
13.001600 0.318100
13.041600 0.157300
13.081600 0.014200
13.121500 0.000000
13.161500 0.000000
13.201500 0.000000
13.241500 0.000000
13.281400 0.000000
13.321400 0.000000
13.361400 0.000000
13.401300 0.000000
13.441300 0.000000
13.481300 0.000000
13.521200 0.000000
13.561200 0.000000
13.601200 0.008000
13.641100 0.048500
13.681100 0.089500
13.721100 0.130500
13.761100 0.171400
13.801000 0.108100
13.841000 0.112600
13.881000 0.117100
13.920900 0.121600
13.960900 0.126100
14.000900 0.130600
14.040800 0.135100
14.080800 0.139600
14.120800 0.144200
14.160700 0.144600
14.200700 0.143200
14.240700 0.141900
14.280700 0.140700
14.320600 0.142000
14.360600 0.144600
14.400600 0.147200
14.440500 0.149800
14.480500 0.152400
14.520500 0.155000
14.560400 0.157700
14.600400 0.160300
14.640400 0.162900
14.680300 0.165500
14.720300 0.168100
14.760300 0.170900
14.800300 0.177100
14.840200 0.186900
14.880200 0.200100
14.920200 0.213700
14.960100 0.221100
15.000100 0.226700
15.040100 0.230600
15.080000 0.236400
15.120000 0.243400
15.160000 0.250600
15.199900 0.258000
15.239900 0.265400
15.279900 0.272900
15.319900 0.282500
15.359800 0.292400
15.399800 0.301300
15.439800 0.310300
15.479700 0.322700
15.519700 0.347100
15.559700 0.383900
15.599600 0.421900
15.639600 0.457400
15.679600 0.495000
15.719500 0.533100
15.759500 0.563900
15.799500 0.591700
15.839500 0.633000
15.879400 0.686100
15.919400 0.742000
15.959400 0.811600
15.999300 0.898700
16.039300 0.984700
16.079300 0.999100
16.119200 0.972500
16.159200 1.003900
16.199200 1.026200
16.239100 1.029800
16.279100 1.031300
16.319100 1.037500
16.359100 1.042100
16.399000 1.041900
16.439000 1.042600
16.479000 1.044800
16.518900 1.045400
16.558900 1.044400
16.598900 1.043000
16.638800 1.040900
16.678800 1.034800
16.718800 1.026200
16.758700 1.025400
16.798700 1.028200
16.838700 1.027100
16.878700 1.019500
16.918600 1.013600
16.958600 1.011900
16.998600 1.011300
17.038500 1.010800
17.078500 1.012100
17.118500 1.014100
17.158400 1.017300
17.198400 1.027600
17.238400 1.054400
17.278400 1.078000
17.318300 1.103700
17.358300 1.132900
17.398300 1.138300
17.438200 1.123200
17.478200 1.126100
17.518200 1.131800
17.558100 1.174300
17.598100 1.169000
17.638100 1.185000
17.678000 1.201800
17.718000 1.233500
17.758000 1.278600
17.798000 1.361800
17.837900 1.490200
17.877900 1.667000
17.917900 2.051800
17.957800 2.062000
17.997800 2.276300
18.037800 2.521000
18.077700 2.645200
18.117700 2.628900
18.157700 2.426200
18.197600 2.499900
18.237600 2.172200
18.277600 2.024600
18.317600 1.985400
18.357500 2.488800
18.397500 2.327500
18.437500 2.403000
18.477400 2.691100
18.517400 2.504500
18.557400 2.279200
18.597300 2.015900
18.637300 1.840700
18.677300 1.589800
18.717200 1.271200
18.757200 1.251800
18.797200 1.313000
18.837200 1.416700
18.877100 1.587400
18.917100 1.826500
18.957100 2.262500
18.997000 2.916500
19.037000 2.955200
19.077000 2.805300
19.116900 2.813200
19.156900 2.817800
19.196900 2.800800
19.236800 2.968800
19.276800 3.093200
19.316800 2.907900
19.356800 2.613600
19.396700 2.454200
19.436700 2.040800
19.476700 0.989500
19.516600 0.734200
19.556600 0.977400
19.596600 1.433400
19.636500 2.079500
19.676500 2.497600
19.716500 2.537300
19.756400 2.361200
19.796400 2.309400
19.836400 1.917300
19.876400 1.789000
19.916300 1.706400
19.956300 1.736700
19.996300 1.589600
20.036200 1.213100
20.076200 1.156200
20.116200 1.139500
20.156100 1.102400
20.196100 1.032700
20.236100 0.947800
20.276000 0.810000
20.316000 0.676800
20.356000 0.600800
20.396000 0.576800
20.435900 0.603400
20.475900 0.777500
20.515900 0.824100
20.555800 0.942400
20.595800 1.097300
20.635800 1.088700
20.675700 1.088700
20.715700 1.091900
20.755700 1.087400
20.795600 1.063600
20.835600 1.009600
20.875600 0.978600
20.915600 0.963000
20.955500 0.971100
20.995500 1.015800
21.035500 0.989000
21.075400 0.937200
21.115400 0.917600
21.155400 0.915400
21.195300 0.937100
21.235300 0.978000
21.275300 1.038500
21.315200 1.099900
21.355200 1.170700
21.395200 1.258000
21.435200 1.358500
21.475100 1.465900
21.515100 1.597300
21.555100 1.558900
21.595000 1.522300
21.635000 1.546400
21.675000 1.601800
21.714900 1.635100
21.754900 1.630100
21.794900 1.658800
21.834800 1.732700
21.874800 1.696800
21.914800 1.694300
21.954800 1.934700
21.994700 1.348600
22.034700 1.410100
22.074700 1.504400
22.114600 1.625700
22.154600 1.752200
22.194600 1.723300
22.234500 1.762100
22.274500 1.882900
22.314500 2.092100
22.354400 2.136500
22.394400 2.139000
22.434400 2.151100
22.474400 2.101400
22.514300 1.978400
22.554300 1.915400
22.594300 1.759500
22.634200 1.578200
22.674200 1.417600
22.714200 1.324900
22.754100 1.464700
22.794100 1.430100
22.834100 1.362800
22.874000 1.352000
22.914000 1.345600
22.954000 1.384900
22.994000 1.478500
23.033900 1.523400
23.073900 1.458300
23.113900 1.493900
23.153800 1.500800
23.193800 1.523700
23.233800 1.541100
23.273700 1.563600
23.313700 1.589300
23.353700 1.635700
23.393600 1.653300
23.433600 1.652600
23.473600 1.722400
23.513600 1.853400
23.553500 1.937400
23.593500 1.967900
23.633500 1.992500
23.673400 2.043700
23.713400 2.083600
23.753400 1.850100
23.793300 1.838300
23.833300 1.858800
23.873300 1.904400
23.913200 2.539600
23.953200 2.575400
23.993200 2.416800
24.033200 2.294000
24.073100 2.252100
24.113100 2.240300
24.153100 2.229500
24.193000 2.031700
24.233000 1.803400
24.273000 1.572900
24.312900 1.349000
24.352900 1.218700
24.392900 0.787700
24.432800 0.554000
24.472800 0.526800
24.512800 0.528200
24.552800 0.588100
24.592700 0.656600
24.632700 0.732200
24.672700 0.793500
24.712600 0.847500
24.752600 0.949300
24.792600 1.067000
24.832500 1.149300
24.872500 1.189900
24.912500 1.241700
24.952400 1.318700
24.992400 1.427700
25.032400 1.623300
25.072400 1.749200
25.112300 1.849000
25.152300 1.870000
25.192300 1.941200
25.232200 2.092600
25.272200 2.281000
25.312200 2.367800
25.352100 2.320800
25.392100 2.159000
25.432100 1.545800
25.472000 1.334800
25.512000 1.327100
25.552000 1.311500
25.592000 1.358300
25.631900 1.458500
25.671900 1.651400
25.711900 1.912000
25.751800 2.335100
25.791800 2.793400
25.831800 3.040700
25.871700 3.188100
25.911700 3.596400
25.951700 3.611700
25.991600 2.886000
26.031600 2.131400
26.071600 1.832900
26.111600 1.735100
26.151500 1.737600
26.191500 1.728800
26.231500 1.658800
26.271400 1.652900
26.311400 1.643200
26.351400 1.601600
26.391300 1.601200
26.431300 1.653100
26.471300 1.802700
26.511200 1.912600
26.551200 2.275200
26.591200 2.313100
26.631200 2.363400
26.671100 2.444700
26.711100 2.434100
26.751100 2.565300
26.791000 2.333400
26.831000 2.217300
26.871000 2.098900
26.910900 2.008500
26.950900 1.897700
26.990900 1.834400
27.030800 1.745700
27.070800 1.722700
27.110800 1.832500
27.150800 1.960600
27.190700 2.013500
27.230700 1.850100
27.270700 1.643400
27.310600 1.530600
27.350600 1.481900
27.390600 1.451900
27.430500 1.471200
27.470500 1.592700
27.510500 1.600200
27.550400 1.590300
27.590400 1.560600
27.630400 1.528900
27.670400 1.462000
27.710300 1.456300
27.750300 1.386100
27.790300 1.318400
27.830200 1.314800
27.870200 1.389200
27.910200 1.453200
27.950100 1.547900
27.990100 1.668900
28.030100 1.868100
28.070000 1.978100
28.110000 2.138300
28.150000 2.334200
28.190000 2.622700
28.229900 3.033100
28.269900 3.517100
28.309900 3.895400
28.349800 2.897700
28.389800 2.386100
28.429800 2.061200
28.469700 1.737600
28.509700 1.478000
28.549700 1.319800
28.589600 1.282600
28.629600 1.341000
28.669600 1.364500
28.709600 1.299600
28.749500 1.169600
28.789500 1.055800
28.829500 0.983600
28.869400 0.926400
28.909400 0.758000
28.949400 0.631500
28.989300 0.565800
29.029300 0.560500
29.069300 0.607200
29.109200 0.730000
29.149200 0.893400
29.189200 1.301900
29.229200 1.714300
29.269100 1.587600
29.309100 1.613100
29.349100 1.649000
29.389000 1.705400
29.429000 1.745200
29.469000 1.824000
29.508900 1.952900
29.548900 2.137500
29.588900 2.154100
29.628800 1.978900
29.668800 2.070000
29.708800 2.216600
29.748800 2.333600
29.788700 2.541000
29.828700 2.767900
29.868700 2.788600
29.908600 2.936900
29.948600 2.778000
29.988600 2.594200
30.028500 2.728400
30.068500 3.275700
30.108500 3.770300
30.148400 4.001100
30.188400 4.614000
30.228400 3.698600
30.268400 2.988800
30.308300 2.624900
30.348300 2.396800
30.388300 2.202500
30.428200 2.112400
30.468200 2.051700
30.508200 1.981200
30.548100 1.911400
30.588100 1.857100
30.628100 1.859600
30.668000 1.891500
30.708000 1.886600
30.748000 1.930500
30.788000 1.820500
30.827900 1.617100
30.867900 1.500400
30.907900 1.400700
30.947800 1.324400
30.987800 1.254800
31.027800 1.230600
31.067700 1.231000
31.107700 1.198600
31.147700 1.157400
31.187600 1.155200
31.227600 1.171500
31.267600 1.139000
31.307600 1.114100
31.347500 1.111300
31.387500 1.153300
31.427500 1.210500
31.467400 1.293800
31.507400 1.333000
31.547400 1.384300
31.587300 1.449400
31.627300 1.521900
31.667300 1.535500
31.707200 1.528000
31.747200 1.472300
31.787200 1.310100
31.827200 1.185600
31.867100 1.118100
31.907100 1.069600
31.947100 1.026600
31.987000 0.985400
32.027000 0.974800
32.067000 1.006300
32.106900 1.015200
32.146900 1.053900
32.186900 1.095800
32.226800 1.086700
32.266800 1.068500
32.306800 1.091000
32.346800 1.132700
32.386700 1.196000
32.426700 1.205800
32.466700 1.173600
32.506600 1.127400
32.546600 1.069800
32.586600 1.033000
32.626500 1.029100
32.666500 1.056200
32.706500 1.098400
32.746400 1.160400
32.786400 1.269600
32.826400 1.333100
32.866400 1.417700
32.906300 1.484000
32.946300 1.495400
32.986300 1.505800
33.026200 1.501200
33.066200 1.488200
33.106200 1.492500
33.146100 1.510600
33.186100 1.536900
33.226100 1.558400
33.266000 1.571800
33.306000 1.564300
33.346000 1.532700
33.386000 1.482100
33.425900 1.465800
33.465900 1.495500
33.505900 1.493400
33.545800 1.489600
33.585800 1.485200
33.625800 1.472800
33.665700 1.453600
33.705700 1.442900
33.745700 1.422200
33.785600 1.356400
33.825600 1.287400
33.865600 1.223600
33.905600 1.179900
33.945500 1.136900
33.985500 1.069100
34.025500 1.023300
34.065400 0.995800
34.105400 0.977600
34.145400 0.963200
34.185300 0.929100
34.225300 0.851800
34.265300 0.828600
34.305200 0.812900
34.345200 0.803000
34.385200 0.807900
34.425200 0.890900
34.465100 0.952500
34.505100 0.998200
34.545100 1.045900
34.585000 1.089500
34.625000 1.118200
34.665000 1.142700
34.704900 1.180800
34.744900 1.221600
34.784900 1.267100
34.824800 1.314300
34.864800 1.398800
34.904800 1.415400
34.944800 1.440000
34.984700 1.453400
35.024700 1.469700
35.064700 1.489100
35.104600 1.511300
35.144600 1.540600
35.184600 1.608100
35.224500 1.668100
35.264500 1.749000
35.304500 1.766000
35.344400 1.809600
35.384400 1.824200
35.424400 1.819700
35.464400 1.893600
35.504300 1.978100
35.544300 2.050100
35.584300 2.191200
35.624200 2.212000
35.664200 2.176300
35.704200 2.016900
35.744100 1.955400
35.784100 1.900900
35.824100 1.873400
35.864000 1.864600
35.904000 1.872000
35.944000 1.902900
35.984000 1.946200
36.023900 2.003700
36.063900 2.086200
36.103900 2.206500
36.143800 2.399900
36.183800 2.726900
36.223800 3.207100
36.263700 4.113300
36.303700 6.540300
36.343700 16.216300
36.383600 5.080100
36.423600 3.964300
36.463600 3.422500
36.503600 3.021500
36.543500 2.701600
36.583500 2.487000
36.623500 2.300000
36.663400 2.131400
36.703400 1.966400
36.743400 1.835600
36.783300 1.746400
36.823300 1.681100
36.863300 1.665300
36.903200 1.558000
36.943200 1.489500
36.983200 1.436400
37.023200 1.397100
37.063100 1.367600
37.103100 1.372000
37.143100 1.385900
37.183000 1.402200
37.223000 1.421400
37.263000 1.442900
37.302900 1.467200
37.342900 1.539600
37.382900 1.584300
37.422800 1.615300
37.462800 1.598700
37.502800 1.527400
37.542800 1.470500
37.582700 1.421900
37.622700 1.350800
37.662700 1.283600
37.702600 1.221400
37.742600 1.165500
37.782600 1.119000
37.822500 1.092200
37.862500 1.110200
37.902500 1.134500
37.942400 1.151700
37.982400 1.163700
38.022400 1.181100
38.062400 1.233500
38.102300 1.379300
38.142300 1.410600
38.182300 1.457600
38.222200 1.823800
38.262200 1.890900
38.302200 1.645500
38.342100 1.568000
38.382100 1.591800
38.422100 1.568000
38.462000 1.557800
38.502000 1.558900
38.542000 1.556300
38.582000 1.552100
38.621900 1.576900
38.661900 1.554000
38.701900 1.525200
38.741800 1.606600
38.781800 1.431600
38.821800 1.401500
38.861700 1.384500
38.901700 1.319500
38.941700 1.287300
38.981700 1.353900
39.021600 1.366100
39.061600 1.279700
39.101600 1.229000
39.141500 1.152800
39.181500 0.957600
39.221500 0.878900
39.261400 0.817600
39.301400 0.815800
39.341400 0.871400
39.381300 0.947100
39.421300 0.935300
39.461300 0.847800
39.501300 0.777400
39.541200 0.708100
39.581200 0.633600
39.621200 0.506800
39.661100 0.389100
39.701100 0.310000
39.741100 0.255600
39.781000 0.215100
39.821000 0.188100
39.861000 0.167100
39.900900 0.148200
39.940900 0.130800
39.980900 0.116000
40.020900 0.107900
40.060800 0.101100
40.100800 0.094500
40.140800 0.088000
40.180700 0.081600
40.220700 0.075300
40.260700 0.069200
40.300600 0.063100
40.340600 0.057200
40.380600 0.051600
40.420500 0.047000
40.460500 0.043100
40.500500 0.039300
40.540500 0.035500
40.580400 0.031900
40.620400 0.028400
40.660400 0.024900
40.700300 0.021700
40.740300 0.018600
40.780300 0.015900
40.820200 0.013400
40.860200 0.011200
40.900200 0.009200
40.940100 0.007400
40.980100 0.005900
41.020100 0.004500
41.060100 0.003300
41.100000 0.002300
41.140000 0.001500
41.180000 0.000900
41.219900 0.000400
41.259900 0.000100
41.299900 0.000000
41.339800 0.000000
41.379800 0.000000
41.419800 0.000000
41.459700 0.000000
41.499700 0.000000
41.539700 0.000000
41.579700 0.000000
41.619600 0.000000
41.659600 0.000000
41.699600 0.000000
41.739500 0.000000
41.779500 0.000000
41.819500 0.000000
41.859400 0.000000
41.899400 0.000000
41.939400 0.000000
41.979300 0.000000
42.019300 0.000000
42.059300 0.000000
42.099300 0.000000
42.139200 0.000000
42.179200 0.000000
42.219200 0.000000
42.259100 0.000000
42.299100 0.000000
42.339100 0.000000
42.379000 0.000000
42.419000 0.000000
42.459000 0.000000
42.498900 0.000000
42.538900 0.000000
42.578900 0.000000
42.618900 0.000000
42.658800 0.000000
42.698800 0.000000
42.738800 0.000000
42.778700 0.000000
42.818700 0.000000
42.858700 0.000000
42.898600 0.000000
42.938600 0.000000
42.978600 0.000000
43.018500 0.000000
43.058500 0.000000
43.098500 0.000000
43.138500 0.000000
43.178400 0.000000
43.218400 0.000000
43.258400 0.000000
43.298300 0.000000
43.338300 0.000000
43.378300 0.000000
43.418200 0.000000
43.458200 0.000000
43.498200 0.000000
43.538100 0.000000
43.578100 0.000000
43.618100 0.000000
43.658100 0.000000
43.698000 0.000000
43.738000 0.000000
43.778000 0.000000
43.817900 0.000000
43.857900 0.000000
43.897900 0.000000
43.937800 0.000000
43.977800 0.000000
44.017800 0.000000
44.057700 0.000000
44.097700 0.000000
44.137700 0.000000
44.177700 0.000000
44.217600 0.000000
44.257600 0.000000
44.297600 0.000000
44.337500 0.000000
44.377500 0.000000
44.417500 0.000000
44.457400 0.000000
44.497400 0.000000
44.537400 0.000000
44.577300 0.000000
44.617300 0.000000
44.657300 0.000000
44.697300 0.000000
44.737200 0.000000
44.777200 0.000000
44.817200 0.000000
44.857100 0.000000
44.897100 0.000000
44.937100 0.000000
e
