set title 'mp-567359 - Density of States'
set xlabel 'Energy (eV)'
set ylabel 'DOS (states/eV)'
set grid
set xrange [-10:10]
set yrange [0:369.046]
set xzeroaxis lt -1
set terminal png size 800,600
set output 'mp-567359_dos_gnuplot.png'
plot '-' using 1:2 with lines title 'DOS'
-12.114600 0.000000
-12.100600 0.000000
-12.086700 0.000000
-12.072700 0.000000
-12.058700 0.000000
-12.044800 0.000000
-12.030800 0.000000
-12.016800 0.000000
-12.002800 0.000000
-11.988900 0.000000
-11.974900 0.000000
-11.960900 0.000000
-11.947000 0.000000
-11.933000 0.000000
-11.919000 0.000000
-11.905000 0.000000
-11.891100 0.000000
-11.877100 0.000000
-11.863100 0.000000
-11.849200 0.000000
-11.835200 0.000000
-11.821200 0.000000
-11.807200 0.000000
-11.793300 0.000000
-11.779300 0.000000
-11.765300 0.000000
-11.751400 0.000000
-11.737400 0.000000
-11.723400 0.000000
-11.709400 0.000000
-11.695500 0.000000
-11.681500 0.000000
-11.667500 0.000000
-11.653600 0.000000
-11.639600 0.000000
-11.625600 0.000000
-11.611600 0.000000
-11.597700 0.000000
-11.583700 0.000000
-11.569700 0.000000
-11.555700 0.000000
-11.541800 0.000000
-11.527800 0.000000
-11.513800 0.000000
-11.499900 0.000000
-11.485900 0.000000
-11.471900 0.000000
-11.457900 0.000000
-11.444000 0.000000
-11.430000 0.000000
-11.416000 0.000000
-11.402100 0.000000
-11.388100 0.000000
-11.374100 0.000000
-11.360100 0.000000
-11.346200 0.000000
-11.332200 0.000000
-11.318200 0.000000
-11.304300 0.000000
-11.290300 0.000000
-11.276300 0.000000
-11.262300 0.000000
-11.248400 0.000000
-11.234400 0.000000
-11.220400 0.000000
-11.206500 0.000000
-11.192500 0.000000
-11.178500 0.000000
-11.164500 0.000000
-11.150600 0.000000
-11.136600 0.000000
-11.122600 0.000000
-11.108700 0.000000
-11.094700 0.000000
-11.080700 0.000000
-11.066700 0.000000
-11.052800 0.000000
-11.038800 0.000000
-11.024800 0.000000
-11.010800 0.000000
-10.996900 0.000000
-10.982900 0.000000
-10.968900 0.000000
-10.955000 0.000000
-10.941000 0.000000
-10.927000 0.000000
-10.913000 0.000000
-10.899100 0.000000
-10.885100 0.000000
-10.871100 0.000000
-10.857200 0.000000
-10.843200 0.045000
-10.829200 0.540300
-10.815200 1.035600
-10.801300 1.570700
-10.787300 2.635900
-10.773300 4.154600
-10.759400 4.375100
-10.745400 5.467800
-10.731400 6.560600
-10.717400 6.324400
-10.703500 5.590000
-10.689500 6.289400
-10.675500 7.005400
-10.661600 8.118300
-10.647600 9.359700
-10.633600 10.601100
-10.619600 10.573600
-10.605700 11.412100
-10.591700 12.254400
-10.577700 11.398000
-10.563800 11.841800
-10.549800 12.312900
-10.535800 12.783600
-10.521800 13.254400
-10.507900 13.721300
-10.493900 14.183400
-10.479900 14.645500
-10.465900 15.197200
-10.452000 15.775900
-10.438000 16.475100
-10.424000 17.174400
-10.410100 19.305100
-10.396100 21.238600
-10.382100 31.065900
-10.368100 39.123100
-10.354200 41.114200
-10.340200 48.558500
-10.326200 59.364000
-10.312300 62.471100
-10.298300 55.359200
-10.284300 91.352400
-10.270300 103.622700
-10.256400 90.893500
-10.242400 63.741300
-10.228400 31.558800
-10.214500 35.157800
-10.200500 42.070300
-10.186500 41.674000
-10.172500 44.099200
-10.158600 92.213100
-10.144600 53.172000
-10.130600 33.163100
-10.116700 0.000000
-10.102700 0.000000
-10.088700 0.000000
-10.074700 0.000000
-10.060800 0.000000
-10.046800 0.000000
-10.032800 0.000000
-10.018800 0.000000
-10.004900 0.000000
-9.990900 0.000000
-9.976900 0.000000
-9.963000 0.000000
-9.949000 0.000000
-9.935000 0.000000
-9.921000 0.000000
-9.907100 0.000000
-9.893100 0.000000
-9.879100 0.000000
-9.865200 0.000000
-9.851200 0.000000
-9.837200 0.000000
-9.823200 0.000000
-9.809300 0.000000
-9.795300 0.000000
-9.781300 0.000000
-9.767400 0.000000
-9.753400 0.000000
-9.739400 0.000000
-9.725400 0.000000
-9.711500 0.000000
-9.697500 0.000000
-9.683500 0.000000
-9.669600 0.000000
-9.655600 0.000000
-9.641600 0.000000
-9.627600 0.000000
-9.613700 0.000000
-9.599700 0.000000
-9.585700 0.000000
-9.571800 0.000000
-9.557800 0.000000
-9.543800 0.000000
-9.529800 0.000000
-9.515900 0.000000
-9.501900 0.000000
-9.487900 0.000000
-9.473900 0.000000
-9.460000 0.000000
-9.446000 0.000000
-9.432000 0.000000
-9.418100 0.000000
-9.404100 0.000000
-9.390100 0.000000
-9.376100 0.000000
-9.362200 0.000000
-9.348200 0.000000
-9.334200 0.000000
-9.320300 0.000000
-9.306300 0.000000
-9.292300 0.000000
-9.278300 0.000000
-9.264400 0.000000
-9.250400 0.000000
-9.236400 0.000000
-9.222500 0.000000
-9.208500 0.000000
-9.194500 0.000000
-9.180500 0.000000
-9.166600 0.000000
-9.152600 0.000000
-9.138600 0.000000
-9.124700 0.000000
-9.110700 0.000000
-9.096700 0.000000
-9.082700 0.000000
-9.068800 0.000000
-9.054800 0.000000
-9.040800 0.000000
-9.026900 0.000000
-9.012900 0.000000
-8.998900 0.000000
-8.984900 0.000000
-8.971000 0.000000
-8.957000 0.000000
-8.943000 0.000000
-8.929000 0.000000
-8.915100 0.000000
-8.901100 0.000000
-8.887100 0.000000
-8.873200 0.000000
-8.859200 0.000000
-8.845200 0.000000
-8.831200 0.000000
-8.817300 0.000000
-8.803300 0.000000
-8.789300 0.000000
-8.775400 0.000000
-8.761400 0.000000
-8.747400 0.000000
-8.733400 0.000000
-8.719500 0.000000
-8.705500 0.000000
-8.691500 0.000000
-8.677600 0.000000
-8.663600 0.000000
-8.649600 0.000000
-8.635600 0.000000
-8.621700 0.000000
-8.607700 0.000000
-8.593700 0.000000
-8.579800 0.000000
-8.565800 0.000000
-8.551800 0.000000
-8.537800 0.000000
-8.523900 0.000000
-8.509900 0.000000
-8.495900 0.000000
-8.482000 0.000000
-8.468000 0.000000
-8.454000 0.000000
-8.440000 0.000000
-8.426100 0.000000
-8.412100 0.000000
-8.398100 0.000000
-8.384100 0.000000
-8.370200 0.000000
-8.356200 0.000000
-8.342200 0.000000
-8.328300 0.000000
-8.314300 0.000000
-8.300300 0.000000
-8.286300 0.000000
-8.272400 0.000000
-8.258400 0.000000
-8.244400 0.000000
-8.230500 0.000000
-8.216500 0.000000
-8.202500 0.000000
-8.188500 0.000000
-8.174600 0.000000
-8.160600 0.000000
-8.146600 0.000000
-8.132700 0.000000
-8.118700 0.000000
-8.104700 0.000000
-8.090700 0.000000
-8.076800 0.000000
-8.062800 0.000000
-8.048800 0.000000
-8.034900 0.000000
-8.020900 0.000000
-8.006900 0.000000
-7.992900 0.000000
-7.979000 0.000000
-7.965000 0.000000
-7.951000 0.000000
-7.937100 0.000000
-7.923100 0.000000
-7.909100 0.000000
-7.895100 0.000000
-7.881200 0.000000
-7.867200 0.000000
-7.853200 0.000000
-7.839200 0.000000
-7.825300 0.000000
-7.811300 0.000000
-7.797300 0.000000
-7.783400 0.000000
-7.769400 0.000000
-7.755400 0.000000
-7.741400 0.000000
-7.727500 0.000000
-7.713500 0.000000
-7.699500 0.000000
-7.685600 0.000000
-7.671600 0.000000
-7.657600 0.000000
-7.643600 0.000000
-7.629700 0.000000
-7.615700 0.000000
-7.601700 0.000000
-7.587800 0.000000
-7.573800 0.000000
-7.559800 0.000000
-7.545800 0.000000
-7.531900 0.000000
-7.517900 0.000000
-7.503900 0.000000
-7.490000 0.000000
-7.476000 0.000000
-7.462000 0.000000
-7.448000 0.000000
-7.434100 0.000000
-7.420100 0.000000
-7.406100 0.000000
-7.392200 0.000000
-7.378200 0.000000
-7.364200 0.000000
-7.350200 0.000000
-7.336300 0.000000
-7.322300 0.000000
-7.308300 0.000000
-7.294300 0.000000
-7.280400 0.000000
-7.266400 0.000000
-7.252400 0.000000
-7.238500 0.000000
-7.224500 0.000000
-7.210500 0.000000
-7.196500 0.000000
-7.182600 0.000000
-7.168600 0.000000
-7.154600 0.000000
-7.140700 0.000000
-7.126700 0.000000
-7.112700 0.000000
-7.098700 0.000000
-7.084800 0.000000
-7.070800 0.000000
-7.056800 0.000000
-7.042900 0.000000
-7.028900 0.000000
-7.014900 0.000000
-7.000900 0.000000
-6.987000 0.000000
-6.973000 0.000000
-6.959000 0.000000
-6.945100 0.000000
-6.931100 0.000000
-6.917100 0.000000
-6.903100 0.000000
-6.889200 0.000000
-6.875200 0.000000
-6.861200 0.000000
-6.847300 0.000000
-6.833300 0.000000
-6.819300 0.000000
-6.805300 0.000000
-6.791400 0.000000
-6.777400 0.000000
-6.763400 0.000000
-6.749400 0.000000
-6.735500 0.000000
-6.721500 0.000000
-6.707500 0.000000
-6.693600 0.000000
-6.679600 0.000000
-6.665600 0.000000
-6.651600 0.000000
-6.637700 0.000000
-6.623700 0.000000
-6.609700 0.000000
-6.595800 0.000000
-6.581800 0.000000
-6.567800 15.359800
-6.553800 26.303300
-6.539900 54.094200
-6.525900 71.262400
-6.511900 75.774700
-6.498000 100.238700
-6.484000 61.724000
-6.470000 97.518400
-6.456000 73.117900
-6.442100 59.112000
-6.428100 127.531000
-6.414100 142.725400
-6.400200 177.800600
-6.386200 183.760000
-6.372200 187.790900
-6.358200 335.496000
-6.344300 140.633500
-6.330300 185.291400
-6.316300 161.741500
-6.302400 189.304500
-6.288400 89.000700
-6.274400 76.026900
-6.260400 72.394400
-6.246500 209.825000
-6.232500 79.499700
-6.218500 64.935100
-6.204500 105.757900
-6.190600 43.195700
-6.176600 32.859100
-6.162600 28.059700
-6.148700 23.260400
-6.134700 41.407300
-6.120700 0.000000
-6.106700 0.000000
-6.092800 0.000000
-6.078800 0.000000
-6.064800 0.000000
-6.050900 0.000000
-6.036900 0.000000
-6.022900 0.000000
-6.008900 0.000000
-5.995000 0.000000
-5.981000 0.000000
-5.967000 0.000000
-5.953100 0.000000
-5.939100 0.000000
-5.925100 0.000000
-5.911100 0.000000
-5.897200 0.000000
-5.883200 0.000000
-5.869200 0.000000
-5.855300 0.000000
-5.841300 0.000000
-5.827300 0.000000
-5.813300 0.000000
-5.799400 0.000000
-5.785400 0.000000
-5.771400 0.000000
-5.757500 0.000000
-5.743500 0.000000
-5.729500 0.000000
-5.715500 0.000000
-5.701600 0.000000
-5.687600 0.000000
-5.673600 0.000000
-5.659600 0.000000
-5.645700 0.000000
-5.631700 0.000000
-5.617700 0.000000
-5.603800 0.000000
-5.589800 0.000000
-5.575800 0.000000
-5.561800 0.000000
-5.547900 0.000000
-5.533900 0.000000
-5.519900 0.000000
-5.506000 0.000000
-5.492000 0.000000
-5.478000 0.000000
-5.464000 0.000000
-5.450100 0.000000
-5.436100 0.000000
-5.422100 0.000000
-5.408200 0.000000
-5.394200 0.000000
-5.380200 0.000000
-5.366200 0.000000
-5.352300 0.000000
-5.338300 0.000000
-5.324300 0.000000
-5.310400 0.000000
-5.296400 0.000000
-5.282400 0.000000
-5.268400 0.000000
-5.254500 0.000000
-5.240500 0.000000
-5.226500 0.000000
-5.212600 0.000000
-5.198600 0.000000
-5.184600 0.000000
-5.170600 0.000000
-5.156700 0.000000
-5.142700 0.000000
-5.128700 0.000000
-5.114700 0.000000
-5.100800 0.000000
-5.086800 0.000000
-5.072800 0.000000
-5.058900 0.000000
-5.044900 0.000000
-5.030900 0.000000
-5.016900 0.000000
-5.003000 0.000000
-4.989000 0.000000
-4.975000 0.000000
-4.961100 0.000000
-4.947100 0.000000
-4.933100 0.000000
-4.919100 0.000000
-4.905200 0.000000
-4.891200 0.000000
-4.877200 0.000000
-4.863300 0.000000
-4.849300 0.000000
-4.835300 0.000000
-4.821300 0.000000
-4.807400 0.000000
-4.793400 0.000000
-4.779400 0.000000
-4.765500 0.000000
-4.751500 0.000000
-4.737500 0.000000
-4.723500 0.000000
-4.709600 0.000000
-4.695600 0.000000
-4.681600 0.000000
-4.667700 0.000000
-4.653700 0.000000
-4.639700 0.000000
-4.625700 0.000000
-4.611800 0.000000
-4.597800 0.000000
-4.583800 0.000000
-4.569800 0.000000
-4.555900 0.000000
-4.541900 0.000000
-4.527900 0.000000
-4.514000 0.000000
-4.500000 0.000000
-4.486000 0.000000
-4.472000 0.000000
-4.458100 0.000000
-4.444100 0.000000
-4.430100 0.000000
-4.416200 0.000000
-4.402200 0.000000
-4.388200 0.000000
-4.374200 0.000000
-4.360300 0.000000
-4.346300 0.000000
-4.332300 0.000000
-4.318400 0.000000
-4.304400 0.000000
-4.290400 0.000000
-4.276400 0.000000
-4.262500 0.000000
-4.248500 0.000000
-4.234500 0.000000
-4.220600 0.000000
-4.206600 0.000000
-4.192600 0.000000
-4.178600 0.000000
-4.164700 0.000000
-4.150700 0.000000
-4.136700 0.000000
-4.122800 0.000000
-4.108800 0.000000
-4.094800 0.000000
-4.080800 0.000000
-4.066900 0.000000
-4.052900 0.000000
-4.038900 0.000000
-4.024900 0.000000
-4.011000 0.000000
-3.997000 0.000000
-3.983000 0.000000
-3.969100 0.000000
-3.955100 0.000000
-3.941100 0.000000
-3.927100 0.000000
-3.913200 0.000000
-3.899200 0.000000
-3.885200 0.000000
-3.871300 0.000000
-3.857300 0.000000
-3.843300 0.000000
-3.829300 0.000000
-3.815400 0.000000
-3.801400 0.000000
-3.787400 0.000000
-3.773500 0.000000
-3.759500 0.000000
-3.745500 0.000000
-3.731500 0.000000
-3.717600 0.000000
-3.703600 0.000000
-3.689600 0.000000
-3.675700 0.000000
-3.661700 0.000000
-3.647700 0.000000
-3.633700 0.000000
-3.619800 0.000000
-3.605800 0.000000
-3.591800 0.000000
-3.577800 0.000000
-3.563900 0.000000
-3.549900 0.000000
-3.535900 0.000000
-3.522000 0.000000
-3.508000 0.000000
-3.494000 0.000000
-3.480000 0.000000
-3.466100 0.000000
-3.452100 0.000000
-3.438100 0.000000
-3.424200 0.000000
-3.410200 0.000000
-3.396200 0.000000
-3.382200 0.000000
-3.368300 0.000000
-3.354300 0.000000
-3.340300 0.000000
-3.326400 0.000000
-3.312400 0.000000
-3.298400 0.000000
-3.284400 0.000000
-3.270500 0.000000
-3.256500 0.000000
-3.242500 0.000000
-3.228600 0.000000
-3.214600 0.000000
-3.200600 0.000000
-3.186600 0.000000
-3.172700 0.000000
-3.158700 0.000000
-3.144700 0.000000
-3.130800 0.000000
-3.116800 0.000000
-3.102800 0.000000
-3.088800 0.000000
-3.074900 0.000000
-3.060900 0.000000
-3.046900 0.000000
-3.032900 0.000000
-3.019000 0.000000
-3.005000 0.000000
-2.991000 0.000000
-2.977100 0.000000
-2.963100 0.000000
-2.949100 0.000000
-2.935100 0.000000
-2.921200 0.000000
-2.907200 0.000000
-2.893200 0.000000
-2.879300 0.000000
-2.865300 0.000000
-2.851300 0.000000
-2.837300 0.000000
-2.823400 0.000000
-2.809400 0.000000
-2.795400 0.000000
-2.781500 0.000000
-2.767500 0.000000
-2.753500 0.000000
-2.739500 0.000000
-2.725600 0.000000
-2.711600 0.000000
-2.697600 0.000000
-2.683700 0.000000
-2.669700 0.000000
-2.655700 0.000000
-2.641700 0.000000
-2.627800 0.000000
-2.613800 3.613900
-2.599800 4.516200
-2.585900 13.847800
-2.571900 27.326400
-2.557900 16.809800
-2.543900 19.493200
-2.530000 18.655300
-2.516000 20.346800
-2.502000 18.943400
-2.488000 15.600800
-2.474100 18.783700
-2.460100 23.536100
-2.446100 22.211600
-2.432200 23.737800
-2.418200 23.295800
-2.404200 23.313800
-2.390200 21.204300
-2.376300 18.488500
-2.362300 18.213500
-2.348300 17.938600
-2.334400 18.013200
-2.320400 16.871800
-2.306400 20.170500
-2.292400 22.559700
-2.278500 24.565700
-2.264500 15.680300
-2.250500 11.938600
-2.236600 12.773200
-2.222600 13.607800
-2.208600 16.154100
-2.194600 23.900500
-2.180700 9.732000
-2.166700 13.355500
-2.152700 17.544700
-2.138800 5.575200
-2.124800 5.720700
-2.110800 5.826300
-2.096800 5.829800
-2.082900 5.833300
-2.068900 5.836900
-2.054900 5.760600
-2.041000 5.673100
-2.027000 8.093100
-2.013000 4.211600
-1.999000 2.362100
-1.985100 2.303500
-1.971100 2.244900
-1.957100 2.186300
-1.943100 5.001500
-1.929200 1.350400
-1.915200 0.000000
-1.901200 0.000000
-1.887300 0.000000
-1.873300 0.000000
-1.859300 0.000000
-1.845300 0.000000
-1.831400 0.000000
-1.817400 0.000000
-1.803400 0.000000
-1.789500 0.000000
-1.775500 0.000000
-1.761500 0.000000
-1.747500 0.000000
-1.733600 0.000000
-1.719600 0.000000
-1.705600 0.000000
-1.691700 0.000000
-1.677700 0.000000
-1.663700 4.491100
-1.649700 3.237400
-1.635800 1.983600
-1.621800 7.334700
-1.607800 12.067100
-1.593900 8.587700
-1.579900 6.884000
-1.565900 6.281000
-1.551900 12.235500
-1.538000 10.695900
-1.524000 9.156200
-1.510000 9.367100
-1.496100 9.768900
-1.482100 10.170700
-1.468100 10.572500
-1.454100 16.406200
-1.440200 14.938600
-1.426200 13.520700
-1.412200 14.021400
-1.398200 25.043300
-1.384300 12.069700
-1.370300 12.421900
-1.356300 12.774000
-1.342400 86.739500
-1.328400 10.826900
-1.314400 11.056400
-1.300400 17.901600
-1.286500 12.747600
-1.272500 9.437600
-1.258500 19.137000
-1.244600 12.365700
-1.230600 7.518300
-1.216600 7.558900
-1.202600 7.599600
-1.188700 7.640200
-1.174700 7.680800
-1.160700 5.299800
-1.146800 5.825100
-1.132800 5.805600
-1.118800 5.792600
-1.104800 6.998800
-1.090900 7.054400
-1.076900 7.110000
-1.062900 7.165700
-1.049000 7.222100
-1.035000 7.876000
-1.021000 7.966500
-1.007000 8.056800
-0.993100 8.147100
-0.979100 8.237300
-0.965100 8.978200
-0.951200 9.095900
-0.937200 9.212400
-0.923200 9.328800
-0.909200 9.445300
-0.895300 9.561700
-0.881300 9.678200
-0.867300 9.794600
-0.853300 9.906400
-0.839400 10.013800
-0.825400 10.121200
-0.811400 10.228500
-0.797500 10.335900
-0.783500 10.443300
-0.769500 10.550600
-0.755500 11.592600
-0.741600 12.260100
-0.727600 12.807400
-0.713600 14.044700
-0.699700 14.407700
-0.685700 15.151500
-0.671700 16.283500
-0.657700 17.987900
-0.643800 20.259900
-0.629800 20.412000
-0.615800 20.705400
-0.601900 21.198000
-0.587900 23.151700
-0.573900 21.822900
-0.559900 22.032200
-0.546000 22.241600
-0.532000 22.458100
-0.518000 22.608500
-0.504100 24.005200
-0.490100 24.625100
-0.476100 24.720300
-0.462100 24.854200
-0.448200 22.994900
-0.434200 22.980700
-0.420200 22.908900
-0.406300 22.873100
-0.392300 22.911200
-0.378300 23.075100
-0.364300 23.253500
-0.350400 23.431900
-0.336400 22.683000
-0.322400 22.869400
-0.308400 22.314200
-0.294500 22.660800
-0.280500 23.176400
-0.266500 22.688200
-0.252600 22.990100
-0.238600 21.779500
-0.224600 21.810800
-0.210600 21.861300
-0.196700 23.390200
-0.182700 22.719900
-0.168700 20.391700
-0.154800 19.637100
-0.140800 20.447700
-0.126800 18.011500
-0.112800 16.920200
-0.098900 16.119100
-0.084900 15.318000
-0.070900 14.548400
-0.057000 13.853500
-0.043000 13.357500
-0.029000 12.927800
-0.015000 12.543700
-0.001100 12.159700
0.012900 11.798300
0.026900 11.484300
0.040800 11.222300
0.054800 10.964200
0.068800 10.694700
0.082800 10.425300
0.096700 10.155800
0.110700 9.916200
0.124700 11.005500
0.138600 11.031800
0.152600 11.113300
0.166600 11.221000
0.180600 11.329500
0.194500 11.448300
0.208500 11.712200
0.222500 11.828000
0.236500 11.943900
0.250400 14.077000
0.264400 16.432000
0.278400 17.671800
0.292300 24.984000
0.306300 25.697700
0.320300 26.416800
0.334300 26.202500
0.348200 28.025800
0.362200 29.488100
0.376200 31.902800
0.390100 35.171100
0.404100 30.101200
0.418100 31.449300
0.432100 32.735400
0.446000 29.835700
0.460000 28.378800
0.474000 26.129000
0.487900 25.176800
0.501900 33.533500
0.515900 33.653500
0.529900 37.730900
0.543800 32.725400
0.557800 37.648400
0.571800 36.052900
0.585700 42.178900
0.599700 44.406800
0.613700 42.296500
0.627700 48.096800
0.641600 40.308700
0.655600 32.220500
0.669600 32.562700
0.683500 38.256800
0.697500 33.173400
0.711500 35.697400
0.725500 33.606600
0.739400 50.682400
0.753400 36.350700
0.767400 35.079300
0.781400 29.354900
0.795300 44.538100
0.809300 28.886700
0.823300 28.112300
0.837200 26.864100
0.851200 23.349800
0.865200 24.953200
0.879200 21.714000
0.893100 18.690200
0.907100 13.779000
0.921100 12.892700
0.935000 12.786600
0.949000 10.988400
0.963000 9.190100
0.977000 7.389400
0.990900 5.573900
1.004900 4.075000
1.018900 7.107700
1.032800 5.675000
1.046800 0.000000
1.060800 0.000000
1.074800 0.000000
1.088700 0.000000
1.102700 0.000000
1.116700 0.000000
1.130600 0.000000
1.144600 0.000000
1.158600 0.000000
1.172600 0.000000
1.186500 0.000000
1.200500 0.000000
1.214500 0.000000
1.228400 0.000000
1.242400 0.000000
1.256400 0.000000
1.270400 0.000000
1.284300 0.000000
1.298300 0.000000
1.312300 0.000000
1.326300 0.000000
1.340200 0.000000
1.354200 0.000000
1.368200 0.000000
1.382100 0.000000
1.396100 0.000000
1.410100 0.000000
1.424100 0.000000
1.438000 0.000000
1.452000 0.000000
1.466000 0.000000
1.479900 0.000000
1.493900 0.000000
1.507900 0.000000
1.521900 0.000000
1.535800 0.000000
1.549800 0.000000
1.563800 0.000000
1.577700 0.000000
1.591700 0.000000
1.605700 0.000000
1.619700 0.000000
1.633600 0.000000
1.647600 0.000000
1.661600 0.000000
1.675500 0.000000
1.689500 0.000000
1.703500 0.000000
1.717500 0.000000
1.731400 0.000000
1.745400 0.000000
1.759400 0.000000
1.773300 0.000000
1.787300 0.000000
1.801300 0.000000
1.815300 0.000000
1.829200 0.000000
1.843200 0.000000
1.857200 0.000000
1.871200 0.000000
1.885100 0.000000
1.899100 0.000000
1.913100 0.000000
1.927000 0.000000
1.941000 0.000000
1.955000 0.000000
1.969000 0.000000
1.982900 0.000000
1.996900 0.000000
2.010900 0.000000
2.024800 0.000000
2.038800 0.000000
2.052800 0.000000
2.066800 0.000000
2.080700 0.000000
2.094700 0.000000
2.108700 0.000000
2.122600 0.000000
2.136600 0.000000
2.150600 0.000000
2.164600 0.000000
2.178500 0.000000
2.192500 0.000000
2.206500 0.000000
2.220400 0.000000
2.234400 0.000000
2.248400 0.000000
2.262400 0.000000
2.276300 0.000000
2.290300 0.000000
2.304300 0.000000
2.318200 0.000000
2.332200 0.000000
2.346200 0.000000
2.360200 0.000000
2.374100 0.000000
2.388100 0.000000
2.402100 0.000000
2.416100 0.000000
2.430000 0.000000
2.444000 0.000000
2.458000 0.000000
2.471900 0.000000
2.485900 0.000000
2.499900 0.000000
2.513900 0.000000
2.527800 0.000000
2.541800 0.000000
2.555800 0.000000
2.569700 0.000000
2.583700 0.000000
2.597700 0.000000
2.611700 0.000000
2.625600 0.000000
2.639600 0.000000
2.653600 0.000000
2.667500 0.000000
2.681500 0.000000
2.695500 0.000000
2.709500 0.000000
2.723400 0.000000
2.737400 0.000000
2.751400 0.000000
2.765300 0.000000
2.779300 0.000000
2.793300 0.000000
2.807300 0.000000
2.821200 0.000000
2.835200 0.000000
2.849200 0.000000
2.863100 0.000000
2.877100 0.000000
2.891100 0.000000
2.905100 0.000000
2.919000 0.000000
2.933000 0.000000
2.947000 0.000000
2.961000 0.000000
2.974900 0.000000
2.988900 0.000000
3.002900 0.000000
3.016800 0.000000
3.030800 0.000000
3.044800 0.000000
3.058800 0.000000
3.072700 0.000000
3.086700 0.000000
3.100700 0.000000
3.114600 0.000000
3.128600 0.000000
3.142600 0.000000
3.156600 0.000000
3.170500 0.000000
3.184500 0.000000
3.198500 0.000000
3.212400 0.000000
3.226400 0.000000
3.240400 0.000000
3.254400 0.000000
3.268300 0.000000
3.282300 0.000000
3.296300 0.000000
3.310200 0.000000
3.324200 0.000000
3.338200 0.000000
3.352200 0.000000
3.366100 0.000000
3.380100 0.000000
3.394100 0.943400
3.408100 0.991300
3.422000 1.039200
3.436000 1.087100
3.450000 2.092700
3.463900 2.175900
3.477900 2.259100
3.491900 2.342300
3.505900 2.425500
3.519800 2.508700
3.533800 3.708500
3.547800 3.825500
3.561700 3.942600
3.575700 4.999500
3.589700 5.155400
3.603700 5.311200
3.617600 5.467000
3.631600 5.622800
3.645600 5.778600
3.659500 7.315600
3.673500 7.566500
3.687500 7.817400
3.701500 8.086000
3.715400 8.419100
3.729400 8.788500
3.743400 9.157900
3.757300 9.595800
3.771300 10.071700
3.785300 10.547600
3.799300 11.023500
3.813200 11.499400
3.827200 11.975300
3.841200 12.551700
3.855100 16.688500
3.869100 16.976200
3.883100 17.045400
3.897100 17.114700
3.911000 17.183900
3.925000 21.212900
3.939000 20.444900
3.953000 19.298600
3.966900 19.384400
3.980900 23.867400
3.994900 18.518600
4.008800 16.025400
4.022800 16.153200
4.036800 24.437900
4.050800 13.915400
4.064700 13.812200
4.078700 13.708900
4.092700 17.234900
4.106600 17.733500
4.120600 16.660600
4.134600 15.587600
4.148600 15.648900
4.162500 13.645200
4.176500 11.570000
4.190500 9.343800
4.204400 8.238200
4.218400 7.132700
4.232400 6.206800
4.246400 6.134700
4.260300 6.293500
4.274300 6.452400
4.288300 9.278200
4.302200 7.513200
4.316200 5.748300
4.330200 3.983300
4.344200 3.538600
4.358100 11.250200
4.372100 0.000000
4.386100 0.000000
4.400000 0.000000
4.414000 0.000000
4.428000 0.000000
4.442000 0.000000
4.455900 0.000000
4.469900 0.000000
4.483900 0.000000
4.497900 0.000000
4.511800 0.000000
4.525800 0.000000
4.539800 0.000000
4.553700 0.000000
4.567700 0.000000
4.581700 0.000000
4.595700 0.000000
4.609600 0.000000
4.623600 0.000000
4.637600 0.000000
4.651500 0.000000
4.665500 0.000000
4.679500 0.000000
4.693500 0.000000
4.707400 0.000000
4.721400 0.000000
4.735400 0.000000
4.749300 0.000000
4.763300 0.000000
4.777300 0.000000
4.791300 0.000000
4.805200 0.000000
4.819200 0.000000
4.833200 0.000000
4.847100 0.000000
4.861100 0.000000
4.875100 0.000000
4.889100 0.000000
4.903000 0.000000
4.917000 0.000000
4.931000 0.000000
4.944900 0.000000
4.958900 0.000000
4.972900 0.000000
4.986900 0.000000
5.000800 0.000000
5.014800 0.000000
5.028800 0.000000
5.042800 0.000000
5.056700 0.000000
5.070700 0.000000
5.084700 0.000000
5.098600 0.000000
5.112600 0.000000
5.126600 0.000000
5.140600 0.000000
5.154500 0.000000
5.168500 0.000000
5.182500 0.000000
5.196400 0.000000
5.210400 0.000000
5.224400 0.000000
5.238400 0.000000
5.252300 0.000000
5.266300 0.000000
5.280300 0.000000
5.294200 0.000000
5.308200 0.000000
5.322200 0.000000
5.336200 0.000000
5.350100 0.000000
5.364100 0.000000
5.378100 0.000000
5.392000 0.000000
5.406000 0.000000
5.420000 0.000000
5.434000 0.000000
5.447900 0.010100
5.461900 0.020600
5.475900 0.040900
5.489800 0.071000
5.503800 0.101000
5.517800 0.131100
5.531800 0.161200
5.545700 0.191200
5.559700 0.221300
5.573700 0.253600
5.587700 0.296300
5.601600 0.345900
5.615600 0.395500
5.629600 0.445200
5.643500 0.494800
5.657500 0.544400
5.671500 0.594000
5.685500 0.643600
5.699400 0.693200
5.713400 0.742800
5.727400 0.792500
5.741300 0.842100
5.755300 0.891700
5.769300 0.941300
5.783300 0.990900
5.797200 1.040500
5.811200 1.090100
5.825200 1.139700
5.839100 1.189400
5.853100 1.239000
5.867100 1.288600
5.881100 1.338200
5.895000 1.387800
5.909000 1.437400
5.923000 1.487000
5.936900 2.103100
5.950900 3.113400
5.964900 3.411800
5.978900 3.710100
5.992800 4.008500
6.006800 4.329900
6.020800 4.338100
6.034700 5.050800
6.048700 5.309100
6.062700 5.866800
6.076700 6.572500
6.090600 7.246000
6.104600 7.361100
6.118600 7.898000
6.132600 8.131900
6.146500 8.402600
6.160500 8.663400
6.174500 8.924100
6.188400 9.184800
6.202400 9.409700
6.216400 9.395400
6.230400 10.022300
6.244300 10.095500
6.258300 10.168800
6.272300 10.761600
6.286200 10.892100
6.300200 11.022600
6.314200 11.153100
6.328200 11.283700
6.342100 11.414200
6.356100 11.544700
6.370100 11.675200
6.384000 11.805700
6.398000 11.921200
6.412000 11.914800
6.426000 17.640100
6.439900 16.680900
6.453900 15.721700
6.467900 18.519700
6.481800 17.783000
6.495800 16.744900
6.509800 15.619000
6.523800 14.493100
6.537700 13.367200
6.551700 12.380600
6.565700 11.981800
6.579600 11.920400
6.593600 12.801700
6.607600 12.031700
6.621600 13.126700
6.635500 8.621600
6.649500 8.577000
6.663500 8.437500
6.677500 8.297900
6.691400 8.771600
6.705400 8.296800
6.719400 11.201000
6.733300 11.798900
6.747300 8.241100
6.761300 8.130400
6.775300 8.019600
6.789200 7.908800
6.803200 7.798100
6.817200 7.687300
6.831100 10.371500
6.845100 10.061700
6.859100 12.151700
6.873100 11.888400
6.887000 11.625200
6.901000 11.361900
6.915000 11.047200
6.928900 10.320300
6.942900 9.780700
6.956900 9.241100
6.970900 8.701500
6.984800 7.466200
6.998800 7.097800
7.012800 6.100900
7.026700 5.838400
7.040700 5.049700
7.054700 8.956300
7.068700 8.687700
7.082600 11.962000
7.096600 19.941200
7.110600 26.836400
7.124500 26.391400
7.138500 25.528300
7.152500 22.558400
7.166500 19.621000
7.180400 16.683500
7.194400 14.321700
7.208400 14.646000
7.222400 18.075000
7.236300 23.230100
7.250300 28.801500
7.264300 20.236200
7.278200 12.606600
7.292200 13.076700
7.306200 13.831100
7.320200 25.199900
7.334100 19.555900
7.348100 20.499000
7.362100 12.754600
7.376000 12.818500
7.390000 12.926700
7.404000 14.487200
7.418000 16.047700
7.431900 18.691400
7.445900 20.059500
7.459900 23.241700
7.473800 21.450600
7.487800 19.997100
7.501800 18.502000
7.515800 17.006900
7.529700 15.555100
7.543700 22.545000
7.557700 19.436400
7.571600 17.275500
7.585600 16.315100
7.599600 15.354700
7.613600 15.874800
7.627500 19.477000
7.641500 22.187000
7.655500 26.200700
7.669400 22.936400
7.683400 24.877900
7.697400 27.892900
7.711400 25.569800
7.725300 25.606800
7.739300 27.327600
7.753300 25.768700
7.767300 28.309100
7.781200 33.636000
7.795200 25.986600
7.809200 20.545400
7.823100 18.675900
7.837100 23.755200
7.851100 20.459900
7.865100 18.928400
7.879000 18.109700
7.893000 17.290900
7.907000 22.154000
7.920900 15.040400
7.934900 14.431600
7.948900 16.486400
7.962900 16.418900
7.976800 17.431300
7.990800 16.999700
8.004800 19.844500
8.018700 19.573200
8.032700 18.603600
8.046700 18.520400
8.060700 18.437200
8.074600 18.022900
8.088600 20.138800
8.102600 19.686700
8.116500 19.234600
8.130500 20.521500
8.144500 20.044500
8.158500 19.567400
8.172400 19.090300
8.186400 18.620200
8.200400 18.166100
8.214300 17.347700
8.228300 16.526000
8.242300 18.458700
8.256300 18.377900
8.270200 39.951900
8.284200 15.597700
8.298200 14.563500
8.312200 17.270600
8.326100 22.742800
8.340100 12.490900
8.354100 14.532700
8.368000 13.154100
8.382000 11.803400
8.396000 10.804000
8.410000 9.804500
8.423900 8.805100
8.437900 7.805700
8.451900 7.334200
8.465800 6.714600
8.479800 6.523000
8.493800 6.331500
8.507800 6.139900
8.521700 5.948400
8.535700 5.756800
8.549700 5.565300
8.563600 5.373700
8.577600 5.250900
8.591600 5.253600
8.605600 4.886300
8.619500 4.909300
8.633500 4.940800
8.647500 4.990600
8.661400 4.634500
8.675400 8.998500
8.689400 6.958500
8.703400 4.543800
8.717300 20.166400
8.731300 3.469500
8.745300 3.627100
8.759200 3.784600
8.773200 3.942200
8.787200 4.104400
8.801200 5.032300
8.815100 6.722900
8.829100 8.413600
8.843100 9.737200
8.857100 6.713300
8.871000 6.714200
8.885000 6.715100
8.899000 6.716100
8.912900 6.717000
8.926900 6.718000
8.940900 7.163300
8.954900 6.982000
8.968800 6.962500
8.982800 7.822100
8.996800 8.681700
9.010700 9.541300
9.024700 10.400900
9.038700 11.260500
9.052700 13.025900
9.066600 14.507100
9.080600 13.443200
9.094600 13.224400
9.108500 13.005700
9.122500 14.713200
9.136500 14.137000
9.150500 14.016800
9.164400 29.874900
9.178400 14.491400
9.192400 16.290200
9.206300 18.219800
9.220300 17.071300
9.234300 22.318000
9.248300 16.648600
9.262200 16.456800
9.276200 15.659200
9.290200 14.861600
9.304100 14.064000
9.318100 13.266300
9.332100 12.593200
9.346100 13.386300
9.360000 14.179300
9.374000 14.972400
9.388000 15.765400
9.402000 17.543300
9.415900 19.551700
9.429900 21.551500
9.443900 18.099900
9.457800 16.578000
9.471800 15.681700
9.485800 15.168200
9.499800 22.594500
9.513700 19.922400
9.527700 17.252100
9.541700 16.839900
9.555600 16.534300
9.569600 16.228700
9.583600 17.110000
9.597600 18.492300
9.611500 21.013500
9.625500 21.462600
9.639500 21.847900
9.653400 18.948100
9.667400 17.681000
9.681400 16.801500
9.695400 16.303100
9.709300 14.553900
9.723300 14.218500
9.737300 13.698800
9.751200 13.189200
9.765200 10.966400
9.779200 11.827500
9.793200 12.921100
9.807100 14.045100
9.821100 15.169100
9.835100 16.293200
9.849000 23.766000
9.863000 14.356600
9.877000 14.449800
9.891000 14.735500
9.904900 15.338500
9.918900 15.023900
9.932900 16.218500
9.946900 17.413100
9.960800 18.607700
9.974800 15.202800
9.988800 14.354900
10.002700 16.502700
10.016700 19.302600
10.030700 22.752500
10.044700 15.658800
10.058600 17.291100
10.072600 19.696100
10.086600 12.288900
10.100500 14.428900
10.114500 11.357200
10.128500 11.496600
10.142500 11.636000
10.156400 10.940000
10.170400 10.927300
10.184400 10.914500
10.198300 13.731100
10.212300 12.766100
10.226300 11.801200
10.240300 10.836200
10.254200 10.881300
10.268200 10.778600
10.282200 10.676000
10.296100 10.573300
10.310100 11.666400
10.324100 11.556600
10.338100 11.446800
10.352000 11.336900
10.366000 11.227100
10.380000 11.238000
10.394000 12.103400
10.407900 12.974800
10.421900 14.254400
10.435900 10.863100
10.449800 11.145500
10.463800 11.436700
10.477800 11.748500
10.491800 12.060300
10.505700 13.445200
10.519700 13.774000
10.533700 14.122200
10.547600 12.408300
10.561600 12.498700
10.575600 13.572700
10.589600 13.693500
10.603500 11.719500
10.617500 11.619500
10.631500 11.541500
10.645400 11.468400
10.659400 11.395300
10.673400 10.390900
10.687400 10.317900
10.701300 10.256600
10.715300 10.209400
10.729300 10.170800
10.743200 10.454200
10.757200 9.481900
10.771200 9.552400
10.785200 9.622900
10.799100 9.710600
10.813100 9.804600
10.827100 9.898600
10.841000 10.012200
10.855000 10.150400
10.869000 10.282400
10.883000 10.398400
10.896900 10.514400
10.910900 10.630400
10.924900 10.690200
10.938900 12.060000
10.952800 10.278200
10.966800 10.213900
10.980800 10.155300
10.994700 10.433500
11.008700 10.340100
11.022700 10.246700
11.036700 10.153300
11.050600 10.059900
11.064600 11.844500
11.078600 11.944600
11.092500 13.430600
11.106500 13.468700
11.120500 15.070000
11.134500 15.193400
11.148400 15.115800
11.162400 14.969200
11.176400 14.428100
11.190300 15.642700
11.204300 15.050400
11.218300 14.459300
11.232300 15.984200
11.246200 15.479800
11.260200 15.023500
11.274200 14.567100
11.288100 14.110700
11.302100 13.819200
11.316100 13.558900
11.330100 13.298700
11.344000 13.038500
11.358000 12.789700
11.372000 12.569400
11.385900 12.366700
11.399900 12.419600
11.413900 12.192800
11.427900 12.063300
11.441800 11.937400
11.455800 11.382400
11.469800 11.223600
11.483800 11.064700
11.497700 10.905900
11.511700 10.733200
11.525700 10.558600
11.539600 12.816600
11.553600 16.088500
11.567600 11.236600
11.581600 12.032400
11.595500 13.954100
11.609500 17.560000
11.623500 21.223300
11.637400 13.621000
11.651400 13.827900
11.665400 14.222000
11.679400 14.686700
11.693300 15.154700
11.707300 15.798400
11.721300 16.223300
11.735200 15.211300
11.749200 15.656000
11.763200 14.517200
11.777200 18.191100
11.791100 16.574900
11.805100 14.036200
11.819100 14.456900
11.833000 14.751000
11.847000 14.801500
11.861000 15.272700
11.875000 15.248200
11.888900 14.705100
11.902900 14.696100
11.916900 15.070300
11.930800 15.444500
11.944800 15.586300
11.958800 15.583800
11.972800 15.788800
11.986700 15.993700
12.000700 16.484200
12.014700 16.986000
12.028700 16.300600
12.042600 17.549400
12.056600 16.649800
12.070600 17.358400
12.084500 12.638900
12.098500 13.014700
12.112500 13.126500
12.126500 13.266500
12.140400 16.946000
12.154400 16.448400
12.168400 15.950700
12.182300 15.454200
12.196300 14.962900
12.210300 12.669900
12.224300 12.512000
12.238200 12.762900
12.252200 14.494100
12.266200 16.353200
12.280100 17.367500
12.294100 12.330100
12.308100 12.403800
12.322100 12.477600
12.336000 12.551400
12.350000 14.937100
12.364000 14.364800
12.377900 13.914100
12.391900 13.463400
12.405900 13.012700
12.419900 13.507400
12.433800 13.183700
12.447800 14.140600
12.461800 14.631600
12.475700 15.102700
12.489700 15.492800
12.503700 14.586200
12.517700 15.053300
12.531600 14.986200
12.545600 14.919100
12.559600 14.852000
12.573600 14.784900
12.587500 14.717600
12.601500 14.624000
12.615500 14.530400
12.629400 13.165200
12.643400 12.950400
12.657400 12.612200
12.671400 14.474700
12.685300 14.320800
12.699300 14.512400
12.713300 15.768400
12.727200 15.879600
12.741200 15.990900
12.755200 16.180900
12.769200 16.607000
12.783100 17.064500
12.797100 17.471100
12.811100 17.811800
12.825000 18.152400
12.839000 18.493100
12.853000 17.515900
12.867000 17.390300
12.880900 19.756600
12.894900 18.418600
12.908900 17.820700
12.922800 17.273300
12.936800 20.165200
12.950800 19.914000
12.964800 19.924500
12.978700 19.934900
12.992700 19.945400
13.006700 17.127000
13.020600 13.590500
13.034600 13.142100
13.048600 12.693700
13.062600 14.254000
13.076500 13.763500
13.090500 13.273000
13.104500 12.782400
13.118500 11.251700
13.132400 15.184800
13.146400 14.531200
13.160400 18.584200
13.174300 17.035300
13.188300 20.242600
13.202300 17.963500
13.216300 16.193500
13.230200 16.521100
13.244200 17.023000
13.258200 17.542600
13.272100 18.064400
13.286100 18.586100
13.300100 16.645700
13.314100 16.145200
13.328000 14.081100
13.342000 13.947800
13.356000 13.814400
13.369900 13.681100
13.383900 13.547800
13.397900 10.555400
13.411900 10.541900
13.425800 10.528400
13.439800 10.515000
13.453800 10.500700
13.467700 10.461800
13.481700 10.422300
13.495700 8.267700
13.509700 8.344600
13.523600 10.581000
13.537600 11.153400
13.551600 21.341400
13.565500 9.017600
13.579500 9.212800
13.593500 9.406300
13.607500 17.358600
13.621400 22.114700
13.635400 24.563100
13.649400 17.176700
13.663400 9.201600
13.677300 9.551000
13.691300 9.890100
13.705300 10.222000
13.719200 4.862300
13.733200 4.921600
13.747200 6.320600
13.761200 7.818000
13.775100 9.315500
13.789100 10.813000
13.803100 12.310400
13.817000 15.232700
13.831000 14.739500
13.845000 14.246300
13.859000 13.753100
13.872900 12.263400
13.886900 13.483800
13.900900 16.354200
13.914800 15.915400
13.928800 12.838300
13.942800 8.638900
13.956800 4.679900
13.970700 3.078500
13.984700 2.491700
13.998700 2.523100
14.012600 2.554600
14.026600 3.610900
14.040600 3.677500
14.054600 3.744200
14.068500 4.543300
14.082500 4.669300
14.096500 4.795300
14.110400 4.921200
14.124400 5.047200
14.138400 6.524600
14.152400 6.835900
14.166300 7.192300
14.180300 8.166900
14.194300 8.073400
14.208300 7.849700
14.222200 7.421700
14.236200 6.993800
14.250200 6.458600
14.264100 5.914100
14.278100 5.369600
14.292100 4.825200
14.306100 4.280700
14.320000 18.948100
14.334000 1.868800
14.348000 1.776100
14.361900 1.729400
14.375900 1.683100
14.389900 1.636800
14.403900 1.590600
14.417800 1.544300
14.431800 1.498000
14.445800 1.451700
14.459700 1.405500
14.473700 1.359200
14.487700 1.312900
14.501700 1.266600
14.515600 1.220400
14.529600 1.174100
14.543600 1.127800
14.557500 2.427900
14.571500 0.000000
14.585500 0.000000
14.599500 0.000000
14.613400 0.000000
14.627400 0.000000
14.641400 0.000000
14.655300 0.000000
14.669300 0.000000
14.683300 0.000000
14.697300 0.000000
14.711200 0.000000
14.725200 0.000000
14.739200 0.000000
14.753200 0.000000
14.767100 0.000000
14.781100 0.000000
14.795100 0.000000
14.809000 0.000000
14.823000 0.000000
14.837000 0.000000
14.851000 0.000000
14.864900 0.000000
14.878900 0.000000
14.892900 0.000000
14.906800 0.000000
14.920800 0.000000
14.934800 0.000000
14.948800 0.000000
14.962700 0.000000
14.976700 0.000000
14.990700 0.000000
15.004600 0.000000
15.018600 0.000000
15.032600 0.000000
15.046600 0.000000
15.060500 0.000000
15.074500 0.000000
15.088500 0.000000
15.102400 0.000000
15.116400 0.000000
15.130400 0.000000
15.144400 0.000000
15.158300 0.000000
15.172300 0.000000
15.186300 0.000000
15.200200 0.000000
15.214200 0.000000
15.228200 0.000000
15.242200 0.000000
15.256100 0.000000
15.270100 0.000000
15.284100 0.000000
15.298100 0.000000
15.312000 0.000000
15.326000 0.000000
15.340000 0.000000
15.353900 0.000000
15.367900 0.000000
15.381900 0.000000
15.395900 0.000000
15.409800 0.000000
15.423800 0.000000
15.437800 0.000000
15.451700 0.000000
15.465700 0.000000
15.479700 0.000000
15.493700 0.000000
15.507600 0.000000
15.521600 0.000000
15.535600 0.000000
15.549500 0.000000
15.563500 0.000000
15.577500 0.000000
15.591500 0.000000
15.605400 0.000000
15.619400 0.000000
15.633400 0.000000
15.647300 0.000000
15.661300 0.000000
15.675300 0.000000
15.689300 0.000000
15.703200 0.000000
15.717200 0.000000
15.731200 0.000000
15.745100 0.000000
15.759100 0.000000
15.773100 0.000000
15.787100 0.000000
15.801000 0.000000
15.815000 0.000000
15.829000 0.000000
e
