set title 'mp-976053 - Density of States'
set xlabel 'Energy (eV)'
set ylabel 'DOS (states/eV)'
set grid
set xrange [-10:10]
set yrange [0:3.797]
set xzeroaxis lt -1
set terminal png size 800,600
set output 'mp-976053_dos_gnuplot.png'
plot '-' using 1:2 with lines title 'DOS'
-19.799600 0.000000
-19.775800 0.000000
-19.752000 0.000000
-19.728200 0.000000
-19.704400 0.000000
-19.680600 0.000000
-19.656800 0.000000
-19.633000 0.000000
-19.609200 0.000000
-19.585400 0.000000
-19.561600 0.000000
-19.537800 0.000000
-19.514100 0.000000
-19.490300 0.000000
-19.466500 0.000000
-19.442700 0.000000
-19.418900 0.000000
-19.395100 0.000000
-19.371300 0.000000
-19.347500 0.000000
-19.323700 0.000000
-19.299900 0.000000
-19.276100 0.000000
-19.252300 0.000000
-19.228500 0.000000
-19.204700 0.000000
-19.181000 0.000000
-19.157200 0.000000
-19.133400 0.000000
-19.109600 0.000000
-19.085800 0.000000
-19.062000 0.000000
-19.038200 0.000000
-19.014400 0.000000
-18.990600 0.000000
-18.966800 0.000000
-18.943000 0.000000
-18.919200 0.000000
-18.895400 0.000000
-18.871600 0.000000
-18.847900 0.000000
-18.824100 0.000000
-18.800300 0.000000
-18.776500 0.000000
-18.752700 0.000000
-18.728900 0.000000
-18.705100 0.000000
-18.681300 0.000000
-18.657500 0.000000
-18.633700 0.000000
-18.609900 0.000000
-18.586100 0.000000
-18.562300 0.000000
-18.538500 0.000000
-18.514700 0.000000
-18.491000 0.000000
-18.467200 0.000000
-18.443400 0.000000
-18.419600 0.000000
-18.395800 0.000000
-18.372000 0.000000
-18.348200 0.000000
-18.324400 0.000000
-18.300600 0.000000
-18.276800 0.000000
-18.253000 0.000000
-18.229200 0.000000
-18.205400 0.000000
-18.181600 0.000000
-18.157900 0.000000
-18.134100 0.000000
-18.110300 0.000000
-18.086500 0.000000
-18.062700 0.000000
-18.038900 0.000000
-18.015100 0.000000
-17.991300 0.000000
-17.967500 0.000000
-17.943700 0.000000
-17.919900 0.000000
-17.896100 0.000000
-17.872300 0.000000
-17.848500 0.000000
-17.824800 0.000000
-17.801000 0.000000
-17.777200 0.000000
-17.753400 0.000000
-17.729600 0.000000
-17.705800 0.000000
-17.682000 0.000000
-17.658200 0.000000
-17.634400 180.010800
-17.610600 541.396700
-17.586800 132.266500
-17.563000 180.926600
-17.539200 60.644800
-17.515400 86.925800
-17.491600 85.963700
-17.467900 19.620100
-17.444100 16.538800
-17.420300 0.000000
-17.396500 0.000000
-17.372700 0.000000
-17.348900 0.000000
-17.325100 0.000000
-17.301300 0.000000
-17.277500 0.000000
-17.253700 0.000000
-17.229900 0.000000
-17.206100 0.000000
-17.182300 0.000000
-17.158500 0.000000
-17.134800 0.000000
-17.111000 0.000000
-17.087200 0.000000
-17.063400 0.000000
-17.039600 0.000000
-17.015800 0.000000
-16.992000 0.000000
-16.968200 0.000000
-16.944400 0.000000
-16.920600 0.000000
-16.896800 0.000000
-16.873000 0.000000
-16.849200 0.000000
-16.825400 0.000000
-16.801700 0.000000
-16.777900 0.000000
-16.754100 0.000000
-16.730300 0.000000
-16.706500 0.000000
-16.682700 0.000000
-16.658900 0.000000
-16.635100 0.000000
-16.611300 0.000000
-16.587500 0.000000
-16.563700 0.000000
-16.539900 0.000000
-16.516100 0.000000
-16.492300 0.000000
-16.468600 0.000000
-16.444800 0.000000
-16.421000 0.000000
-16.397200 0.000000
-16.373400 0.000000
-16.349600 0.000000
-16.325800 0.000000
-16.302000 0.000000
-16.278200 0.000000
-16.254400 0.000000
-16.230600 0.000000
-16.206800 0.000000
-16.183000 0.000000
-16.159200 0.000000
-16.135400 0.000000
-16.111700 0.000000
-16.087900 0.000000
-16.064100 0.000000
-16.040300 0.000000
-16.016500 0.000000
-15.992700 0.000000
-15.968900 0.000000
-15.945100 0.000000
-15.921300 0.000000
-15.897500 0.000000
-15.873700 0.000000
-15.849900 0.000000
-15.826100 0.000000
-15.802300 0.000000
-15.778600 0.000000
-15.754800 0.000000
-15.731000 0.000000
-15.707200 0.000000
-15.683400 0.000000
-15.659600 0.000000
-15.635800 0.000000
-15.612000 0.000000
-15.588200 0.000000
-15.564400 0.000000
-15.540600 0.000000
-15.516800 0.000000
-15.493000 0.000000
-15.469200 0.000000
-15.445500 0.000000
-15.421700 0.000000
-15.397900 0.000000
-15.374100 0.000000
-15.350300 0.000000
-15.326500 0.000000
-15.302700 0.000000
-15.278900 0.000000
-15.255100 0.000000
-15.231300 0.000000
-15.207500 0.000000
-15.183700 0.000000
-15.159900 0.000000
-15.136100 0.000000
-15.112300 0.000000
-15.088600 0.000000
-15.064800 0.000000
-15.041000 0.000000
-15.017200 0.000000
-14.993400 0.000000
-14.969600 0.000000
-14.945800 0.000000
-14.922000 0.000000
-14.898200 0.000000
-14.874400 0.000000
-14.850600 0.000000
-14.826800 0.000000
-14.803000 0.000000
-14.779200 0.000000
-14.755500 0.000000
-14.731700 0.000000
-14.707900 0.000000
-14.684100 0.000000
-14.660300 0.000000
-14.636500 0.000000
-14.612700 0.000000
-14.588900 0.000000
-14.565100 0.000000
-14.541300 0.000000
-14.517500 0.000000
-14.493700 0.000000
-14.469900 0.000000
-14.446100 0.000000
-14.422400 0.000000
-14.398600 0.000000
-14.374800 0.000000
-14.351000 0.000000
-14.327200 0.000000
-14.303400 0.000000
-14.279600 0.000000
-14.255800 0.000000
-14.232000 0.000000
-14.208200 0.000000
-14.184400 0.000000
-14.160600 0.000000
-14.136800 0.000000
-14.113000 0.000000
-14.089200 0.000000
-14.065500 0.000000
-14.041700 0.000000
-14.017900 0.000000
-13.994100 0.000000
-13.970300 0.000000
-13.946500 0.000000
-13.922700 0.000000
-13.898900 0.000000
-13.875100 0.000000
-13.851300 0.000000
-13.827500 0.000000
-13.803700 0.000000
-13.779900 0.000000
-13.756100 0.000000
-13.732400 0.000000
-13.708600 0.000000
-13.684800 0.000000
-13.661000 0.000000
-13.637200 0.000000
-13.613400 0.000000
-13.589600 0.000000
-13.565800 0.000000
-13.542000 0.000000
-13.518200 0.000000
-13.494400 0.000000
-13.470600 0.000000
-13.446800 0.000000
-13.423000 0.000000
-13.399300 0.000000
-13.375500 0.000000
-13.351700 0.000000
-13.327900 0.000000
-13.304100 0.000000
-13.280300 0.000000
-13.256500 0.000000
-13.232700 0.000000
-13.208900 0.000000
-13.185100 0.000000
-13.161300 0.000000
-13.137500 0.000000
-13.113700 0.000000
-13.089900 0.000000
-13.066100 0.000000
-13.042400 0.000000
-13.018600 0.000000
-12.994800 0.000000
-12.971000 0.000000
-12.947200 0.000000
-12.923400 0.000000
-12.899600 0.000000
-12.875800 0.000000
-12.852000 0.000000
-12.828200 0.000000
-12.804400 0.000000
-12.780600 0.000000
-12.756800 0.000000
-12.733000 0.000000
-12.709300 0.000000
-12.685500 0.000000
-12.661700 0.000000
-12.637900 0.000000
-12.614100 0.000000
-12.590300 0.000000
-12.566500 0.000000
-12.542700 0.000000
-12.518900 0.000000
-12.495100 0.000000
-12.471300 0.000000
-12.447500 0.000000
-12.423700 0.000000
-12.399900 0.000000
-12.376200 0.000000
-12.352400 0.000000
-12.328600 0.000000
-12.304800 0.000000
-12.281000 0.000000
-12.257200 0.000000
-12.233400 0.000000
-12.209600 0.000000
-12.185800 0.000000
-12.162000 0.000000
-12.138200 0.000000
-12.114400 0.000000
-12.090600 0.000000
-12.066800 0.000000
-12.043100 0.000000
-12.019300 0.000000
-11.995500 0.000000
-11.971700 0.000000
-11.947900 0.000000
-11.924100 0.000000
-11.900300 0.000000
-11.876500 0.000000
-11.852700 0.000000
-11.828900 0.000000
-11.805100 0.000000
-11.781300 0.000000
-11.757500 0.000000
-11.733700 0.000000
-11.709900 0.000000
-11.686200 0.000000
-11.662400 0.000000
-11.638600 0.000000
-11.614800 0.000000
-11.591000 0.000000
-11.567200 0.000000
-11.543400 0.000000
-11.519600 0.000000
-11.495800 0.000000
-11.472000 0.000000
-11.448200 0.000000
-11.424400 0.000000
-11.400600 0.000000
-11.376800 0.000000
-11.353100 0.000000
-11.329300 0.000000
-11.305500 0.000000
-11.281700 0.000000
-11.257900 0.000000
-11.234100 0.000000
-11.210300 0.000000
-11.186500 0.000000
-11.162700 0.000000
-11.138900 0.000000
-11.115100 0.000000
-11.091300 0.000000
-11.067500 0.000000
-11.043700 0.000000
-11.020000 0.000000
-10.996200 0.000000
-10.972400 0.000000
-10.948600 0.000000
-10.924800 0.000000
-10.901000 0.000000
-10.877200 0.000000
-10.853400 0.000000
-10.829600 0.000000
-10.805800 0.000000
-10.782000 0.000000
-10.758200 0.000000
-10.734400 0.000000
-10.710600 0.000000
-10.686800 0.000000
-10.663100 0.000000
-10.639300 0.000000
-10.615500 0.000000
-10.591700 0.000000
-10.567900 0.000000
-10.544100 0.000000
-10.520300 0.000000
-10.496500 0.000000
-10.472700 0.000000
-10.448900 0.000000
-10.425100 0.000000
-10.401300 0.000000
-10.377500 0.000000
-10.353700 0.000000
-10.330000 0.000000
-10.306200 0.000000
-10.282400 0.000000
-10.258600 0.000000
-10.234800 0.000000
-10.211000 0.000000
-10.187200 0.000000
-10.163400 0.000000
-10.139600 0.000000
-10.115800 0.000000
-10.092000 0.000000
-10.068200 0.000000
-10.044400 0.000000
-10.020600 0.000000
-9.996900 0.000000
-9.973100 0.000000
-9.949300 0.000000
-9.925500 0.000000
-9.901700 0.000000
-9.877900 0.000000
-9.854100 0.000000
-9.830300 0.000000
-9.806500 0.000000
-9.782700 0.000000
-9.758900 0.000000
-9.735100 0.000000
-9.711300 0.000000
-9.687500 0.000000
-9.663700 0.000000
-9.640000 0.000000
-9.616200 0.000000
-9.592400 0.000000
-9.568600 0.000000
-9.544800 0.000000
-9.521000 0.000000
-9.497200 0.000000
-9.473400 0.000000
-9.449600 0.000000
-9.425800 0.000000
-9.402000 0.000000
-9.378200 0.000000
-9.354400 0.000000
-9.330600 0.000000
-9.306900 0.000000
-9.283100 0.000000
-9.259300 0.000000
-9.235500 0.000000
-9.211700 0.000000
-9.187900 0.000000
-9.164100 0.000000
-9.140300 0.000000
-9.116500 0.000000
-9.092700 0.000000
-9.068900 0.000000
-9.045100 0.000000
-9.021300 0.000000
-8.997500 0.000000
-8.973800 0.000000
-8.950000 0.000000
-8.926200 0.000000
-8.902400 0.000000
-8.878600 0.000000
-8.854800 0.000000
-8.831000 0.000000
-8.807200 0.000000
-8.783400 0.000000
-8.759600 0.000000
-8.735800 0.000000
-8.712000 0.000000
-8.688200 0.000000
-8.664400 0.000000
-8.640600 0.000000
-8.616900 0.000000
-8.593100 0.000000
-8.569300 0.000000
-8.545500 0.000000
-8.521700 0.000000
-8.497900 0.000000
-8.474100 0.000000
-8.450300 0.000000
-8.426500 0.000000
-8.402700 0.000000
-8.378900 0.000000
-8.355100 0.000000
-8.331300 0.000000
-8.307500 0.000000
-8.283800 0.000000
-8.260000 0.000000
-8.236200 0.000000
-8.212400 0.000000
-8.188600 0.000000
-8.164800 0.000000
-8.141000 0.000000
-8.117200 0.000000
-8.093400 0.000000
-8.069600 0.000000
-8.045800 0.000000
-8.022000 0.000000
-7.998200 0.000000
-7.974400 0.000000
-7.950700 0.000000
-7.926900 0.000000
-7.903100 0.000000
-7.879300 0.000000
-7.855500 0.000000
-7.831700 0.000000
-7.807900 0.000000
-7.784100 0.000000
-7.760300 0.000000
-7.736500 0.000000
-7.712700 0.000000
-7.688900 0.000000
-7.665100 0.000000
-7.641300 0.000000
-7.617500 0.000000
-7.593800 0.000000
-7.570000 0.000000
-7.546200 0.000000
-7.522400 0.000000
-7.498600 0.000000
-7.474800 0.000000
-7.451000 0.000000
-7.427200 0.000000
-7.403400 0.000000
-7.379600 0.000000
-7.355800 0.000000
-7.332000 0.000000
-7.308200 0.000000
-7.284400 0.000000
-7.260700 0.000000
-7.236900 0.000000
-7.213100 0.000000
-7.189300 0.000000
-7.165500 0.000000
-7.141700 0.000000
-7.117900 0.000000
-7.094100 0.000000
-7.070300 0.000000
-7.046500 0.000000
-7.022700 0.000000
-6.998900 0.000000
-6.975100 0.000000
-6.951300 0.000000
-6.927600 0.000000
-6.903800 0.000000
-6.880000 0.030000
-6.856200 0.110000
-6.832400 0.198500
-6.808600 0.260300
-6.784800 0.295600
-6.761000 0.305200
-6.737200 0.338100
-6.713400 0.376600
-6.689600 0.417200
-6.665800 0.453900
-6.642000 0.494800
-6.618200 0.522500
-6.594500 0.544700
-6.570700 0.570300
-6.546900 0.601700
-6.523100 0.636700
-6.499300 0.674700
-6.475500 0.715000
-6.451700 0.766800
-6.427900 0.864800
-6.404100 0.899300
-6.380300 0.896700
-6.356500 0.896600
-6.332700 0.897400
-6.308900 0.910600
-6.285100 0.918900
-6.261300 0.927300
-6.237600 0.934600
-6.213800 0.934900
-6.190000 0.930100
-6.166200 0.932000
-6.142400 0.941000
-6.118600 0.950700
-6.094800 0.962300
-6.071000 0.973900
-6.047200 0.985500
-6.023400 0.997200
-5.999600 1.009100
-5.975800 1.020500
-5.952000 1.031500
-5.928200 1.043700
-5.904500 1.058000
-5.880700 1.074900
-5.856900 1.092700
-5.833100 1.111200
-5.809300 1.131400
-5.785500 1.154300
-5.761700 1.179100
-5.737900 1.205600
-5.714100 1.233800
-5.690300 1.268000
-5.666500 1.305700
-5.642700 1.355500
-5.618900 1.404600
-5.595100 1.478200
-5.571400 1.633800
-5.547600 1.940400
-5.523800 2.200300
-5.500000 2.198600
-5.476200 1.896600
-5.452400 1.618100
-5.428600 1.454200
-5.404800 1.409200
-5.381000 1.346700
-5.357200 1.260300
-5.333400 1.158500
-5.309600 1.091200
-5.285800 1.051800
-5.262000 1.026100
-5.238200 0.998500
-5.214500 0.969100
-5.190700 0.945600
-5.166900 0.923400
-5.143100 0.891600
-5.119300 0.857000
-5.095500 0.830100
-5.071700 0.809700
-5.047900 0.788100
-5.024100 0.765800
-5.000300 0.743500
-4.976500 0.721400
-4.952700 0.699600
-4.928900 0.710200
-4.905100 0.756200
-4.881400 0.742100
-4.857600 0.683000
-4.833800 0.623900
-4.810000 0.564900
-4.786200 0.505900
-4.762400 0.964100
-4.738600 0.000000
-4.714800 0.000000
-4.691000 0.000000
-4.667200 0.000000
-4.643400 0.000000
-4.619600 0.000000
-4.595800 0.000000
-4.572000 0.000000
-4.548300 0.000000
-4.524500 0.000000
-4.500700 0.000000
-4.476900 0.000000
-4.453100 0.000000
-4.429300 0.000000
-4.405500 0.000000
-4.381700 0.000000
-4.357900 0.000000
-4.334100 0.000000
-4.310300 0.000000
-4.286500 0.002400
-4.262700 0.050500
-4.238900 0.073200
-4.215100 0.104000
-4.191400 0.128100
-4.167600 0.145800
-4.143800 0.156600
-4.120000 0.160200
-4.096200 0.174800
-4.072400 0.190100
-4.048600 0.206100
-4.024800 0.222800
-4.001000 0.234200
-3.977200 0.240400
-3.953400 0.250700
-3.929600 0.262200
-3.905800 0.272800
-3.882000 0.282200
-3.858300 0.290400
-3.834500 0.298700
-3.810700 0.308600
-3.786900 0.319100
-3.763100 0.329900
-3.739300 0.341000
-3.715500 0.353300
-3.691700 0.366100
-3.667900 0.378400
-3.644100 0.389100
-3.620300 0.398400
-3.596500 0.406900
-3.572700 0.417300
-3.548900 0.428700
-3.525200 0.440400
-3.501400 0.452500
-3.477600 0.464800
-3.453800 0.477300
-3.430000 0.490100
-3.406200 0.504200
-3.382400 0.519900
-3.358600 0.537000
-3.334800 0.555300
-3.311000 0.876400
-3.287200 1.095800
-3.263400 1.333000
-3.239600 1.486500
-3.215800 1.738300
-3.192000 2.035200
-3.168300 2.094400
-3.144500 1.846300
-3.120700 1.723400
-3.096900 1.737300
-3.073100 1.756400
-3.049300 1.761200
-3.025500 1.766500
-3.001700 1.752500
-2.977900 1.718200
-2.954100 1.661500
-2.930300 1.612300
-2.906500 1.624100
-2.882700 1.648000
-2.858900 1.696600
-2.835200 1.765900
-2.811400 1.781300
-2.787600 1.824100
-2.763800 1.881400
-2.740000 1.878000
-2.716200 1.857900
-2.692400 1.887400
-2.668600 1.920700
-2.644800 1.942600
-2.621000 1.960000
-2.597200 2.092100
-2.573400 2.090400
-2.549600 1.884100
-2.525800 1.782500
-2.502100 1.737800
-2.478300 1.639800
-2.454500 1.508900
-2.430700 1.218400
-2.406900 1.047900
-2.383100 1.068300
-2.359300 1.092200
-2.335500 0.941400
-2.311700 0.935600
-2.287900 0.927800
-2.264100 0.928700
-2.240300 0.928300
-2.216500 0.936600
-2.192700 0.970200
-2.168900 0.944500
-2.145200 0.952100
-2.121400 0.974600
-2.097600 0.997400
-2.073800 1.015400
-2.050000 1.034200
-2.026200 1.053900
-2.002400 1.089900
-1.978600 1.125400
-1.954800 1.160400
-1.931000 1.208100
-1.907200 1.256200
-1.883400 1.312800
-1.859600 1.287800
-1.835800 1.309200
-1.812100 1.332800
-1.788300 1.356600
-1.764500 1.453600
-1.740700 1.443300
-1.716900 1.448600
-1.693100 1.465200
-1.669300 1.479800
-1.645500 1.533000
-1.621700 1.575300
-1.597900 1.578000
-1.574100 1.590600
-1.550300 1.559500
-1.526500 1.552400
-1.502700 1.563400
-1.479000 1.582500
-1.455200 1.690500
-1.431400 1.700800
-1.407600 1.676900
-1.383800 1.618700
-1.360000 1.493200
-1.336200 1.414600
-1.312400 1.380800
-1.288600 1.371700
-1.264800 1.424400
-1.241000 1.497700
-1.217200 1.603100
-1.193400 1.794400
-1.169600 2.027000
-1.145900 1.929900
-1.122100 1.873600
-1.098300 1.884500
-1.074500 1.920200
-1.050700 1.974300
-1.026900 2.096900
-1.003100 2.321900
-0.979300 2.576200
-0.955500 2.736900
-0.931700 2.824300
-0.907900 2.919600
-0.884100 2.950700
-0.860300 2.777700
-0.836500 3.100300
-0.812700 2.765900
-0.789000 2.377200
-0.765200 2.104200
-0.741400 1.860200
-0.717600 1.538500
-0.693800 1.476700
-0.670000 1.422300
-0.646200 1.374300
-0.622400 1.328900
-0.598600 1.281700
-0.574800 1.239500
-0.551000 1.202800
-0.527200 1.171200
-0.503400 1.133200
-0.479600 1.110700
-0.455900 1.083800
-0.432100 1.058600
-0.408300 1.034100
-0.384500 1.010300
-0.360700 0.987600
-0.336900 0.968100
-0.313100 0.954600
-0.289300 0.944400
-0.265500 0.935100
-0.241700 0.927600
-0.217900 0.922800
-0.194100 0.901500
-0.170300 0.885800
-0.146500 0.873100
-0.122800 0.861100
-0.099000 0.849700
-0.075200 0.818500
-0.051400 0.813700
-0.027600 0.809500
-0.003800 0.806400
0.020000 0.794600
0.043800 0.781900
0.067600 0.770600
0.091400 0.760100
0.115200 0.747200
0.139000 0.731200
0.162800 0.712600
0.186600 0.692500
0.210400 0.672200
0.234100 0.651700
0.257900 0.630900
0.281700 0.603500
0.305500 0.583800
0.329300 0.564600
0.353100 0.545800
0.376900 0.527700
0.400700 0.510700
0.424500 0.495700
0.448300 0.480800
0.472100 0.467400
0.495900 0.456500
0.519700 0.447100
0.543500 0.438500
0.567200 0.432200
0.591000 0.432000
0.614800 0.434300
0.638600 0.437700
0.662400 0.437300
0.686200 0.445800
0.710000 0.461500
0.733800 0.477100
0.757600 0.492500
0.781400 0.504900
0.805200 0.516100
0.829000 0.538600
0.852800 0.559700
0.876600 0.576300
0.900300 0.595000
0.924100 0.621100
0.947900 0.596600
0.971700 0.603300
0.995500 0.612100
1.019300 0.623000
1.043100 0.635700
1.066900 0.664900
1.090700 0.702700
1.114500 0.669900
1.138300 0.687100
1.162100 0.707800
1.185900 0.667800
1.209700 0.662400
1.233500 0.657500
1.257200 0.653400
1.281000 0.652800
1.304800 0.662600
1.328600 0.693200
1.352400 0.680500
1.376200 0.703800
1.400000 0.856800
1.423800 0.860300
1.447600 0.848700
1.471400 0.837500
1.495200 0.841400
1.519000 1.167400
1.542800 1.069000
1.566600 1.086200
1.590300 1.113000
1.614100 1.148400
1.637900 1.186800
1.661700 1.213400
1.685500 1.225900
1.709300 1.241300
1.733100 1.256000
1.756900 1.266900
1.780700 1.284000
1.804500 1.284000
1.828300 1.299000
1.852100 1.317400
1.875900 1.322400
1.899700 1.262000
1.923400 1.262900
1.947200 1.384000
1.971000 1.493000
1.994800 1.516500
2.018600 1.547300
2.042400 1.603900
2.066200 1.664500
2.090000 1.766900
2.113800 1.789300
2.137600 1.809000
2.161400 1.831700
2.185200 1.824800
2.209000 1.841300
2.232800 1.834400
2.256600 1.836900
2.280300 1.807300
2.304100 1.794100
2.327900 1.775600
2.351700 1.764500
2.375500 1.755300
2.399300 1.735400
2.423100 1.718500
2.446900 1.706500
2.470700 1.702500
2.494500 1.702800
2.518300 1.705300
2.542100 1.710800
2.565900 1.723200
2.589700 1.737400
2.613400 1.754700
2.637200 1.787300
2.661000 1.814700
2.684800 1.861900
2.708600 1.931200
2.732400 1.964900
2.756200 1.965200
2.780000 1.994900
2.803800 2.024100
2.827600 2.038300
2.851400 2.034800
2.875200 2.080000
2.899000 2.150200
2.922800 2.217500
2.946500 2.311600
2.970300 2.483300
2.994100 2.584000
3.017900 2.691500
3.041700 2.708900
3.065500 2.724500
3.089300 2.726100
3.113100 2.703700
3.136900 2.643400
3.160700 2.579500
3.184500 2.545300
3.208300 2.508000
3.232100 2.394400
3.255900 2.297100
3.279600 2.147200
3.303400 2.038400
3.327200 1.995900
3.351000 1.990900
3.374800 2.000500
3.398600 2.023300
3.422400 2.045600
3.446200 2.085300
3.470000 2.083200
3.493800 2.051700
3.517600 2.019700
3.541400 2.001100
3.565200 1.992500
3.589000 1.989300
3.612800 1.998200
3.636500 2.001700
3.660300 1.982100
3.684100 1.971600
3.707900 1.965200
3.731700 1.958000
3.755500 1.944700
3.779300 1.945300
3.803100 1.952100
3.826900 1.964600
3.850700 1.986800
3.874500 2.019500
3.898300 2.063300
3.922100 2.101100
3.945900 2.115600
3.969600 2.130800
3.993400 2.140200
4.017200 2.144700
4.041000 2.147300
4.064800 2.145800
4.088600 2.065900
4.112400 2.031000
4.136200 2.019100
4.160000 2.011600
4.183800 2.007500
4.207600 2.004600
4.231400 1.999900
4.255200 1.994500
4.279000 2.027300
4.302700 2.039800
4.326500 1.945100
4.350300 1.849100
4.374100 1.817100
4.397900 1.800200
4.421700 1.789000
4.445500 1.771400
4.469300 1.725900
4.493100 1.677800
4.516900 1.644400
4.540700 1.684600
4.564500 1.636300
4.588300 1.651300
4.612100 1.659100
4.635900 1.681900
4.659600 1.721500
4.683400 1.762100
4.707200 1.800800
4.731000 1.857600
4.754800 1.929900
4.778600 1.986700
4.802400 2.013700
4.826200 2.037900
4.850000 2.083900
4.873800 2.145100
4.897600 2.198300
4.921400 2.217500
4.945200 2.208900
4.969000 2.192700
4.992700 2.132000
5.016500 2.093500
5.040300 2.046800
5.064100 2.026900
5.087900 2.034500
5.111700 2.056400
5.135500 2.078500
5.159300 2.101200
5.183100 2.133300
5.206900 2.177500
5.230700 2.225000
5.254500 2.279200
5.278300 2.288800
5.302100 2.242400
5.325800 2.091600
5.349600 1.954200
5.373400 1.915400
5.397200 1.893600
5.421000 1.877500
5.444800 1.876100
5.468600 1.891300
5.492400 1.865200
5.516200 1.841800
5.540000 1.896700
5.563800 1.955600
5.587600 1.984800
5.611400 1.995800
5.635200 1.995300
5.659000 1.998200
5.682700 1.988600
5.706500 1.981000
5.730300 1.969300
5.754100 1.923300
5.777900 1.881900
5.801700 1.807000
5.825500 1.677600
5.849300 1.598000
5.873100 1.528000
5.896900 1.455800
5.920700 1.420600
5.944500 1.399300
5.968300 1.336600
5.992100 1.284700
6.015800 1.250100
6.039600 1.231700
6.063400 1.242400
6.087200 1.388000
6.111000 1.475600
6.134800 1.710100
6.158600 1.924100
6.182400 2.121200
6.206200 2.198000
6.230000 2.230200
6.253800 2.227400
6.277600 2.212600
6.301400 2.237200
6.325200 2.271100
6.348900 2.296300
6.372700 2.721900
6.396500 2.338500
6.420300 2.348800
6.444100 2.326100
6.467900 2.271500
6.491700 2.261500
6.515500 2.243400
6.539300 2.214200
6.563100 2.192700
6.586900 2.240900
6.610700 2.114800
6.634500 2.248900
6.658300 2.231300
6.682100 2.187700
6.705800 2.231200
6.729600 2.262400
6.753400 2.247300
6.777200 2.264200
6.801000 2.266400
6.824800 2.301300
6.848600 2.216400
6.872400 2.173500
6.896200 2.154600
6.920000 2.120600
6.943800 2.099500
6.967600 2.084600
6.991400 2.068300
7.015200 2.068900
7.038900 2.078500
7.062700 2.012000
7.086500 2.017600
7.110300 1.953900
7.134100 1.968400
7.157900 1.999900
7.181700 2.036800
7.205500 2.088500
7.229300 2.142100
7.253100 2.193300
7.276900 2.295300
7.300700 2.288100
7.324500 2.314300
7.348300 2.422200
7.372000 2.544100
7.395800 2.728800
7.419600 2.827900
7.443400 2.849500
7.467200 2.844600
7.491000 2.740100
7.514800 2.693400
7.538600 2.632800
7.562400 2.568400
7.586200 2.507500
7.610000 2.405700
7.633800 2.302900
7.657600 2.250100
7.681400 2.277100
7.705200 2.301800
7.728900 2.221100
7.752700 2.210000
7.776500 2.238400
7.800300 2.277000
7.824100 2.318100
7.847900 2.440200
7.871700 2.528700
7.895500 2.603500
7.919300 2.718800
7.943100 2.779400
7.966900 2.900900
7.990700 3.029800
8.014500 3.118300
8.038300 3.219500
8.062000 3.180000
8.085800 3.145700
8.109600 3.149900
8.133400 3.099700
8.157200 2.990100
8.181000 2.886000
8.204800 2.765200
8.228600 2.668900
8.252400 2.608200
8.276200 2.582200
8.300000 2.701500
8.323800 2.837000
8.347600 3.022500
8.371400 2.993900
8.395100 2.921500
8.418900 2.910400
8.442700 2.942300
8.466500 3.015900
8.490300 3.072600
8.514100 3.118600
8.537900 3.168700
8.561700 3.187300
8.585500 3.191900
8.609300 3.250500
8.633100 3.361900
8.656900 3.451700
8.680700 3.376800
8.704500 3.323500
8.728200 3.287000
8.752000 3.318000
8.775800 3.379900
8.799600 3.393400
8.823400 3.379000
8.847200 3.321700
8.871000 3.161900
8.894800 2.990600
8.918600 2.946200
8.942400 2.935600
8.966200 2.958000
8.990000 2.940900
9.013800 2.912600
9.037600 2.960700
9.061400 2.984600
9.085100 2.914900
9.108900 2.879200
9.132700 2.857000
9.156500 2.865100
9.180300 2.870900
9.204100 2.851600
9.227900 2.796900
9.251700 2.700100
9.275500 2.661100
9.299300 2.537600
9.323100 2.378800
9.346900 2.218100
9.370700 2.074400
9.394500 1.973600
9.418200 1.932500
9.442000 1.924600
9.465800 1.940300
9.489600 1.960700
9.513400 1.968300
9.537200 2.005700
9.561000 2.086200
9.584800 2.155600
9.608600 2.194000
9.632400 2.171700
9.656200 2.190300
9.680000 2.283100
9.703800 2.121200
9.727600 2.012400
9.751300 1.948700
9.775100 1.895200
9.798900 1.849800
9.822700 1.830100
9.846500 1.811400
9.870300 1.794500
9.894100 1.789600
9.917900 1.791700
9.941700 1.797400
9.965500 1.815700
9.989300 1.837600
10.013100 1.875900
10.036900 1.921700
10.060700 1.963200
10.084500 2.023100
10.108200 2.072100
10.132000 2.101100
10.155800 2.145000
10.179600 2.077200
10.203400 2.028200
10.227200 2.020500
10.251000 2.057500
10.274800 2.090800
10.298600 2.114400
10.322400 2.122000
10.346200 2.126200
10.370000 2.132100
10.393800 2.127600
10.417600 2.126300
10.441300 2.116100
10.465100 2.120600
10.488900 2.109600
10.512700 2.093700
10.536500 2.003000
10.560300 1.967000
10.584100 1.969800
10.607900 1.930600
10.631700 1.895100
10.655500 1.868200
10.679300 1.843500
10.703100 1.820500
10.726900 1.833100
10.750700 1.873700
10.774400 1.927600
10.798200 1.957700
10.822000 1.996900
10.845800 2.011000
10.869600 2.000900
10.893400 1.972200
10.917200 1.948200
10.941000 1.997700
10.964800 1.954200
10.988600 1.925400
11.012400 1.939100
11.036200 1.950900
11.060000 1.883800
11.083800 1.790200
11.107600 1.710100
11.131300 1.680100
11.155100 1.657800
11.178900 1.638300
11.202700 1.621000
11.226500 1.606900
11.250300 1.602100
11.274100 1.603700
11.297900 1.603300
11.321700 1.591700
11.345500 1.570300
11.369300 1.551200
11.393100 1.536500
11.416900 1.529400
11.440700 1.524600
11.464400 1.641700
11.488200 1.589700
11.512000 1.579700
11.535800 1.571200
11.559600 1.559400
11.583400 1.548500
11.607200 1.549800
11.631000 1.532100
11.654800 1.503600
11.678600 1.471400
11.702400 1.466600
11.726200 1.481500
11.750000 1.501700
11.773800 1.523800
11.797500 1.546000
11.821300 1.700900
11.845100 1.571800
11.868900 1.570000
11.892700 1.569300
11.916500 1.574300
11.940300 1.576600
11.964100 1.576500
11.987900 1.560900
12.011700 1.532400
12.035500 1.519500
12.059300 1.514600
12.083100 1.515500
12.106900 1.516300
12.130700 1.514000
12.154400 1.512200
12.178200 1.517600
12.202000 1.527200
12.225800 1.539000
12.249600 1.552000
12.273400 1.565600
12.297200 1.579100
12.321000 1.579500
12.344800 1.588900
12.368600 1.605800
12.392400 1.633800
12.416200 1.668700
12.440000 1.702800
12.463800 1.734500
12.487500 1.765000
12.511300 1.821200
12.535100 1.877800
12.558900 1.921900
12.582700 1.903800
12.606500 1.885000
12.630300 1.912200
12.654100 1.963400
12.677900 1.984200
12.701700 1.967800
12.725500 1.937400
12.749300 1.940800
12.773100 1.942800
12.796900 1.941000
12.820600 2.041800
12.844400 2.465200
12.868200 2.089300
12.892000 1.909700
12.915800 1.903200
12.939600 1.906500
12.963400 1.907300
12.987200 1.920300
13.011000 1.912800
13.034800 1.905800
13.058600 2.026200
13.082400 2.150700
13.106200 2.155200
13.130000 2.230600
13.153800 2.068500
13.177500 1.956200
13.201300 1.840900
13.225100 1.830700
13.248900 1.819600
13.272700 1.835400
13.296500 1.860500
13.320300 1.892200
13.344100 2.028300
13.367900 1.980000
13.391700 1.992400
13.415500 2.016800
13.439300 2.046200
13.463100 2.124400
13.486900 2.178400
13.510600 2.223600
13.534400 2.288300
13.558200 2.301700
13.582000 2.297800
13.605800 2.269900
13.629600 2.245300
13.653400 2.234700
13.677200 2.229700
13.701000 2.232200
13.724800 2.236500
13.748600 2.218800
13.772400 2.260400
13.796200 2.328900
13.820000 2.564700
13.843700 2.726300
13.867500 2.774400
13.891300 2.868300
13.915100 3.072100
13.938900 3.097700
13.962700 3.600100
13.986500 3.162700
14.010300 2.840500
14.034100 2.838800
14.057900 2.712800
14.081700 2.629300
14.105500 2.551000
14.129300 2.480800
14.153100 2.426000
14.176800 2.328600
14.200600 2.249100
14.224400 2.197800
14.248200 2.162700
14.272000 2.126400
14.295800 2.109200
14.319600 2.095200
14.343400 2.099700
14.367200 2.128100
14.391000 2.107900
14.414800 2.098900
14.438600 2.296000
14.462400 2.064700
14.486200 2.073700
14.510000 2.141700
14.533700 2.251900
14.557500 2.355800
14.581300 2.324900
14.605100 2.222900
14.628900 2.229200
14.652700 2.221400
14.676500 2.243300
14.700300 2.436300
14.724100 2.229700
14.747900 2.219900
14.771700 2.213200
14.795500 2.231100
14.819300 2.283100
14.843100 2.329800
14.866800 2.365000
14.890600 2.440000
14.914400 2.575400
14.938200 2.698900
14.962000 2.813100
14.985800 2.949100
15.009600 2.978000
15.033400 2.871100
15.057200 2.765500
15.081000 2.691400
15.104800 2.613700
15.128600 2.515800
15.152400 2.432000
15.176200 2.403100
15.199900 2.421600
15.223700 2.323600
15.247500 2.252600
15.271300 2.233900
15.295100 2.259800
15.318900 2.298100
15.342700 2.272400
15.366500 2.229100
15.390300 2.182700
15.414100 2.139900
15.437900 2.118100
15.461700 2.119900
15.485500 2.122700
15.509300 2.133300
15.533100 2.159500
15.556800 2.236500
15.580600 2.301800
15.604400 2.371500
15.628200 2.460500
15.652000 2.578600
15.675800 2.675100
15.699600 2.685300
15.723400 2.606200
15.747200 2.720700
15.771000 2.813900
15.794800 2.970400
15.818600 2.944700
15.842400 2.923100
15.866200 2.929800
15.889900 2.874800
15.913700 2.710500
15.937500 2.658500
15.961300 2.634700
15.985100 2.688800
16.008900 2.655700
16.032700 2.612600
16.056500 2.587600
16.080300 2.577200
16.104100 2.573700
16.127900 2.637200
16.151700 2.613200
16.175500 2.559300
16.199300 2.534800
16.223000 2.526300
16.246800 2.570900
16.270600 2.536700
16.294400 2.511800
16.318200 2.494500
16.342000 2.480000
16.365800 2.485800
16.389600 2.510800
16.413400 2.550100
16.437200 2.621800
16.461000 2.664400
16.484800 2.702100
16.508600 2.740000
16.532400 2.769200
16.556200 2.809200
16.579900 2.878800
16.603700 2.979700
16.627500 2.917600
16.651300 2.937500
16.675100 2.936100
16.698900 2.944100
16.722700 2.924300
16.746500 2.902800
16.770300 2.883700
16.794100 2.834400
16.817900 2.800500
16.841700 2.791500
16.865500 2.779700
16.889300 2.769800
16.913000 2.897300
16.936800 2.758500
16.960600 2.676400
16.984400 2.656700
17.008200 2.645600
17.032000 2.622500
17.055800 2.588300
17.079600 2.563500
17.103400 2.559200
17.127200 2.561300
17.151000 2.571100
17.174800 2.579900
17.198600 2.614000
17.222400 2.675400
17.246100 2.750600
17.269900 2.769000
17.293700 2.774000
17.317500 2.792800
17.341300 2.811400
17.365100 2.838600
17.388900 2.852800
17.412700 2.862100
17.436500 2.878200
17.460300 2.897400
17.484100 2.953200
17.507900 2.994900
17.531700 3.068900
17.555500 3.310500
17.579300 3.231000
17.603000 3.198700
17.626800 3.221700
17.650600 3.202000
17.674400 3.244400
17.698200 3.198800
17.722000 3.236500
17.745800 3.306600
17.769600 3.333100
17.793400 3.268500
17.817200 3.259900
17.841000 3.202300
17.864800 3.241100
17.888600 3.298900
17.912400 3.249700
17.936100 3.237200
17.959900 3.218400
17.983700 3.213200
18.007500 3.129000
18.031300 3.069300
18.055100 3.034400
18.078900 2.985000
18.102700 2.941400
18.126500 2.923700
18.150300 2.938900
18.174100 2.958100
18.197900 3.048700
18.221700 3.089500
18.245500 3.236700
18.269200 3.269100
18.293000 3.291200
18.316800 3.426500
18.340600 3.402300
18.364400 3.382000
18.388200 3.243200
18.412000 3.154400
18.435800 3.105400
18.459600 3.068700
18.483400 3.098000
18.507200 3.116800
18.531000 3.148300
18.554800 3.136000
18.578600 3.203400
18.602300 3.286100
18.626100 3.405900
18.649900 3.503700
18.673700 3.578800
18.697500 3.610300
18.721300 3.974500
18.745100 3.515400
18.768900 3.310000
18.792700 3.160400
18.816500 3.131400
18.840300 3.123300
18.864100 3.060400
18.887900 3.029400
18.911700 2.937100
18.935500 2.826000
18.959200 2.676700
18.983000 2.511000
19.006800 2.359300
19.030600 2.180300
19.054400 2.097600
19.078200 2.034900
19.102000 2.003900
19.125800 1.998500
19.149600 2.033800
19.173400 2.167300
19.197200 2.380500
19.221000 2.475300
19.244800 2.470600
19.268600 2.445300
19.292300 2.415600
19.316100 2.390400
19.339900 2.355100
19.363700 2.343900
19.387500 2.369200
19.411300 2.390200
19.435100 2.374100
19.458900 2.399700
19.482700 2.462700
19.506500 2.544600
19.530300 2.667600
19.554100 2.900900
19.577900 2.868500
19.601700 2.825300
19.625400 2.820900
19.649200 2.810500
19.673000 2.803700
19.696800 2.803100
19.720600 2.807300
19.744400 3.065200
19.768200 2.751200
19.792000 2.684000
19.815800 2.644900
19.839600 2.621200
19.863400 2.633900
19.887200 2.664200
19.911000 2.669300
19.934800 2.689400
19.958600 2.728400
19.982300 2.803100
20.006100 2.903500
20.029900 3.057000
20.053700 3.192900
20.077500 3.280100
20.101300 3.409000
20.125100 3.525200
20.148900 3.622900
20.172700 3.570300
20.196500 3.485700
20.220300 3.455500
20.244100 3.418000
20.267900 3.345800
20.291700 3.255200
20.315400 3.090800
20.339200 2.938600
20.363000 2.872400
20.386800 2.803900
20.410600 2.741000
20.434400 2.650900
20.458200 2.574000
20.482000 2.554300
20.505800 2.570000
20.529600 2.639200
20.553400 2.769400
20.577200 2.935300
20.601000 3.256600
20.624800 3.269100
20.648500 3.265700
20.672300 3.258200
20.696100 3.260200
20.719900 3.262100
20.743700 3.277400
20.767500 3.317900
20.791300 3.376900
20.815100 3.416400
20.838900 3.516300
20.862700 3.616300
20.886500 3.623300
20.910300 3.549200
20.934100 3.545000
20.957900 3.504000
20.981700 3.475200
21.005400 3.445500
21.029200 3.423200
21.053000 3.384400
21.076800 3.358500
21.100600 3.366100
21.124400 3.324700
21.148200 3.308800
21.172000 3.323700
21.195800 3.336000
21.219600 3.336100
21.243400 3.354800
21.267200 3.401000
21.291000 3.426400
21.314800 3.464600
21.338500 3.495300
21.362300 3.571300
21.386100 3.618500
21.409900 3.704400
21.433700 3.790400
21.457500 3.795500
21.481300 3.767000
21.505100 3.653900
21.528900 3.493300
21.552700 3.373700
21.576500 3.239700
21.600300 3.090300
21.624100 3.008300
21.647900 3.050900
21.671600 3.331300
21.695400 3.321500
21.719200 3.085700
21.743000 3.091200
21.766800 3.124000
21.790600 3.146700
21.814400 3.190400
21.838200 3.241800
21.862000 3.330200
21.885800 3.408500
21.909600 3.425900
21.933400 3.355600
21.957200 3.571900
21.981000 3.536600
22.004800 3.454400
22.028500 3.521700
22.052300 3.588200
22.076100 3.679300
22.099900 3.723200
22.123700 3.703000
22.147500 3.712900
22.171300 3.714900
22.195100 3.697400
22.218900 3.642600
22.242700 3.613600
22.266500 3.602200
22.290300 3.601800
22.314100 3.616900
22.337900 3.641700
22.361600 3.628800
22.385400 3.806000
22.409200 3.667100
22.433000 3.710800
22.456800 3.652100
22.480600 3.618400
22.504400 3.587300
22.528200 3.550600
22.552000 3.562900
22.575800 3.522100
22.599600 3.521300
22.623400 3.578400
22.647200 3.605600
22.671000 3.579700
22.694700 3.544600
22.718500 3.488400
22.742300 3.454700
22.766100 3.305400
22.789900 3.279300
22.813700 3.253300
22.837500 3.238300
22.861300 3.231400
22.885100 3.241700
22.908900 3.234000
22.932700 3.306500
22.956500 3.348900
22.980300 3.388800
23.004100 3.466200
23.027900 3.620900
23.051600 3.590500
23.075400 3.634100
23.099200 3.749800
23.123000 3.833100
23.146800 3.884700
23.170600 3.934000
23.194400 3.990600
23.218200 4.190100
23.242000 4.273600
23.265800 4.353600
23.289600 4.405300
23.313400 4.417100
23.337200 4.381100
23.361000 4.330200
23.384700 3.999100
23.408500 3.887100
23.432300 3.758600
23.456100 3.449300
23.479900 3.405200
23.503700 3.416400
23.527500 3.497600
23.551300 3.501300
23.575100 3.397600
23.598900 3.271200
23.622700 3.259200
23.646500 3.270000
23.670300 3.316000
23.694100 3.379800
23.717800 3.518900
23.741600 3.609000
23.765400 3.654500
23.789200 3.508600
23.813000 3.343400
23.836800 3.179000
23.860600 3.021900
23.884400 2.874200
23.908200 2.751700
23.932000 2.675200
23.955800 2.613800
23.979600 2.580400
24.003400 2.600200
24.027200 2.639500
24.050900 2.622000
24.074700 2.559400
24.098500 2.510600
24.122300 2.491900
24.146100 2.477900
24.169900 2.548400
24.193700 2.656700
24.217500 2.660200
24.241300 2.660900
24.265100 2.658800
24.288900 2.644900
24.312700 2.660200
24.336500 2.610800
24.360300 2.511400
24.384100 2.463100
24.407800 2.390200
24.431600 2.297800
24.455400 2.189200
24.479200 2.114200
24.503000 2.068000
24.526800 2.038900
24.550600 2.028900
24.574400 1.995200
24.598200 1.938100
24.622000 1.888000
24.645800 1.760400
24.669600 1.650600
24.693400 1.567600
24.717200 1.462500
24.740900 1.323700
24.764700 1.148400
24.788500 0.998300
24.812300 0.800800
24.836100 0.634100
24.859900 0.508800
24.883700 0.409900
24.907500 0.331600
24.931300 0.262100
24.955100 0.218500
24.978900 0.179700
25.002700 0.146300
25.026500 0.119000
25.050300 0.096200
25.074000 0.077800
25.097800 0.063800
25.121600 0.052300
25.145400 0.042700
25.169200 0.034800
25.193000 0.027700
25.216800 0.021500
25.240600 0.016200
25.264400 0.013900
25.288200 0.012200
25.312000 0.010500
25.335800 0.009000
25.359600 0.007500
25.383400 0.006200
25.407200 0.005100
25.430900 0.004000
25.454700 0.003100
25.478500 0.002300
25.502300 0.001600
25.526100 0.001000
25.549900 0.000600
25.573700 0.000300
25.597500 0.000100
25.621300 0.000000
25.645100 0.000000
25.668900 0.000000
25.692700 0.000000
25.716500 0.000000
25.740300 0.000000
25.764000 0.000000
25.787800 0.000000
25.811600 0.000000
25.835400 0.000000
25.859200 0.000000
25.883000 0.000000
25.906800 0.000000
25.930600 0.000000
25.954400 0.000000
25.978200 0.000000
26.002000 0.000000
26.025800 0.000000
26.049600 0.000000
26.073400 0.000000
26.097100 0.000000
26.120900 0.000000
26.144700 0.000000
26.168500 0.000000
26.192300 0.000000
26.216100 0.000000
26.239900 0.000000
26.263700 0.000000
26.287500 0.000000
26.311300 0.000000
26.335100 0.000000
26.358900 0.000000
26.382700 0.000000
26.406500 0.000000
26.430300 0.000000
26.454000 0.000000
26.477800 0.000000
26.501600 0.000000
26.525400 0.000000
26.549200 0.000000
26.573000 0.000000
26.596800 0.000000
26.620600 0.000000
26.644400 0.000000
26.668200 0.000000
26.692000 0.000000
26.715800 0.000000
26.739600 0.000000
26.763400 0.000000
26.787100 0.000000
26.810900 0.000000
26.834700 0.000000
26.858500 0.000000
26.882300 0.000000
26.906100 0.000000
26.929900 0.000000
26.953700 0.000000
26.977500 0.000000
27.001300 0.000000
27.025100 0.000000
27.048900 0.000000
27.072700 0.000000
27.096500 0.000000
27.120200 0.000000
27.144000 0.000000
27.167800 0.000000
27.191600 0.000000
27.215400 0.000000
27.239200 0.000000
27.263000 0.000000
27.286800 0.000000
27.310600 0.000000
27.334400 0.000000
27.358200 0.000000
27.382000 0.000000
27.405800 0.000000
27.429600 0.000000
27.453400 0.000000
27.477100 0.000000
27.500900 0.000000
27.524700 0.000000
27.548500 0.000000
27.572300 0.000000
27.596100 0.000000
27.619900 0.000000
27.643700 0.000000
27.667500 0.000000
27.691300 0.000000
27.715100 0.000000
27.738900 0.000000
27.762700 0.000000
27.786500 0.000000
e
