set title 'mp-607540 - Density of States'
set xlabel 'Energy (eV)'
set ylabel 'DOS (states/eV)'
set grid
set xrange [-10:10]
set yrange [0:5.988]
set xzeroaxis lt -1
set terminal png size 800,600
set output 'mp-607540_dos_gnuplot.png'
plot '-' using 1:2 with lines title 'DOS'
-29.670600 0.000000
-29.636600 0.000000
-29.602700 0.000000
-29.568800 0.000000
-29.534800 0.000000
-29.500900 0.000000
-29.467000 0.000000
-29.433000 0.000000
-29.399100 0.000000
-29.365100 0.000000
-29.331200 0.000000
-29.297300 0.000000
-29.263300 0.000000
-29.229400 0.000000
-29.195400 0.000000
-29.161500 0.000000
-29.127600 0.000000
-29.093600 0.000000
-29.059700 0.000000
-29.025700 0.000000
-28.991800 0.000000
-28.957900 0.000000
-28.923900 0.000000
-28.890000 0.000000
-28.856000 0.000000
-28.822100 0.000000
-28.788200 0.000000
-28.754200 0.000000
-28.720300 0.000000
-28.686400 0.000000
-28.652400 0.000000
-28.618500 0.000000
-28.584500 0.000000
-28.550600 0.000000
-28.516700 0.000000
-28.482700 0.000000
-28.448800 0.000000
-28.414800 0.000000
-28.380900 0.000000
-28.347000 0.000000
-28.313000 0.000000
-28.279100 0.000000
-28.245100 0.000000
-28.211200 0.000000
-28.177300 0.000000
-28.143300 0.000000
-28.109400 0.000000
-28.075400 0.000000
-28.041500 0.000000
-28.007600 0.000000
-27.973600 0.000000
-27.939700 0.000000
-27.905700 0.000000
-27.871800 0.000000
-27.837900 0.000000
-27.803900 0.000000
-27.770000 0.000000
-27.736100 0.000000
-27.702100 0.000000
-27.668200 0.000000
-27.634200 0.000000
-27.600300 0.000000
-27.566400 0.000000
-27.532400 0.000000
-27.498500 0.000000
-27.464500 0.000000
-27.430600 0.000000
-27.396700 0.000000
-27.362700 0.000000
-27.328800 0.000000
-27.294800 0.000000
-27.260900 0.000000
-27.227000 0.000000
-27.193000 0.000000
-27.159100 0.000000
-27.125100 0.000000
-27.091200 0.000000
-27.057300 0.000000
-27.023300 0.000000
-26.989400 0.000000
-26.955500 0.000000
-26.921500 0.000000
-26.887600 0.000000
-26.853600 0.000000
-26.819700 0.000000
-26.785800 0.000000
-26.751800 0.000000
-26.717900 0.000000
-26.683900 0.000000
-26.650000 0.000000
-26.616100 0.000000
-26.582100 0.040200
-26.548200 0.773300
-26.514200 0.950700
-26.480300 0.969000
-26.446400 0.977800
-26.412400 1.017000
-26.378500 1.029400
-26.344500 1.070300
-26.310600 1.090300
-26.276700 1.127000
-26.242700 1.165600
-26.208800 1.200700
-26.174800 1.245500
-26.140900 1.295600
-26.107000 1.349700
-26.073000 1.404200
-26.039100 1.488900
-26.005200 1.562600
-25.971200 1.663000
-25.937300 1.795900
-25.903300 1.926700
-25.869400 2.187500
-25.835500 2.581800
-25.801500 3.931600
-25.767600 2.741600
-25.733600 2.329400
-25.699700 2.057000
-25.665800 1.848600
-25.631800 1.735800
-25.597900 1.617400
-25.563900 1.536200
-25.530000 1.455700
-25.496100 1.394100
-25.462100 1.335000
-25.428200 1.283900
-25.394200 1.235100
-25.360300 1.220200
-25.326400 1.131500
-25.292400 1.106600
-25.258500 1.067600
-25.224600 0.000000
-25.190600 0.000000
-25.156700 0.000000
-25.122700 0.000000
-25.088800 0.000000
-25.054900 0.000000
-25.020900 0.000000
-24.987000 0.000000
-24.953000 0.000000
-24.919100 0.000000
-24.885200 0.000000
-24.851200 0.000000
-24.817300 0.000000
-24.783300 0.000000
-24.749400 0.000000
-24.715500 0.000000
-24.681500 0.000000
-24.647600 0.000000
-24.613600 0.000000
-24.579700 0.000000
-24.545800 0.000000
-24.511800 0.000000
-24.477900 0.000000
-24.444000 0.000000
-24.410000 0.000000
-24.376100 0.000000
-24.342100 0.000000
-24.308200 0.000000
-24.274300 0.000000
-24.240300 0.000000
-24.206400 0.000000
-24.172400 0.000000
-24.138500 0.000000
-24.104600 0.000000
-24.070600 0.000000
-24.036700 0.000000
-24.002700 0.000000
-23.968800 0.000000
-23.934900 0.000000
-23.900900 0.000000
-23.867000 0.000000
-23.833000 0.000000
-23.799100 0.000000
-23.765200 0.000000
-23.731200 0.000000
-23.697300 0.000000
-23.663300 0.000000
-23.629400 0.000000
-23.595500 0.000000
-23.561500 0.000000
-23.527600 0.000000
-23.493700 0.000000
-23.459700 0.000000
-23.425800 0.000000
-23.391800 0.000000
-23.357900 0.000000
-23.324000 0.000000
-23.290000 0.000000
-23.256100 0.000000
-23.222100 0.000000
-23.188200 0.000000
-23.154300 0.000000
-23.120300 0.000000
-23.086400 0.000000
-23.052400 0.000000
-23.018500 0.000000
-22.984600 0.000000
-22.950600 0.000000
-22.916700 0.000000
-22.882700 0.000000
-22.848800 0.000000
-22.814900 0.000000
-22.780900 0.000000
-22.747000 0.000000
-22.713100 0.000000
-22.679100 0.000000
-22.645200 0.000000
-22.611200 0.000000
-22.577300 0.000000
-22.543400 0.000000
-22.509400 0.000000
-22.475500 0.000000
-22.441500 0.000000
-22.407600 0.000000
-22.373700 0.000000
-22.339700 0.000000
-22.305800 0.000000
-22.271800 0.000000
-22.237900 0.000000
-22.204000 0.000000
-22.170000 0.000000
-22.136100 0.000000
-22.102100 0.000000
-22.068200 0.000000
-22.034300 0.000000
-22.000300 0.000000
-21.966400 0.000000
-21.932500 0.000000
-21.898500 0.000000
-21.864600 0.000000
-21.830600 0.000000
-21.796700 0.000000
-21.762800 0.000000
-21.728800 0.000000
-21.694900 0.000000
-21.660900 0.000000
-21.627000 0.000000
-21.593100 0.000000
-21.559100 0.000000
-21.525200 0.000000
-21.491200 0.000000
-21.457300 0.000000
-21.423400 0.000000
-21.389400 0.000000
-21.355500 0.000000
-21.321500 0.000000
-21.287600 0.000000
-21.253700 0.000000
-21.219700 0.000000
-21.185800 0.000000
-21.151800 0.000000
-21.117900 0.000000
-21.084000 0.000000
-21.050000 0.000000
-21.016100 0.000000
-20.982200 0.000000
-20.948200 0.000000
-20.914300 0.000000
-20.880300 0.000000
-20.846400 0.000000
-20.812500 0.000000
-20.778500 0.000000
-20.744600 0.000000
-20.710600 0.000000
-20.676700 0.000000
-20.642800 0.000000
-20.608800 0.000000
-20.574900 0.000000
-20.540900 0.000000
-20.507000 0.000000
-20.473100 0.000000
-20.439100 0.000000
-20.405200 0.000000
-20.371200 0.000000
-20.337300 0.000000
-20.303400 0.000000
-20.269400 0.000000
-20.235500 0.000000
-20.201600 0.000000
-20.167600 0.000000
-20.133700 0.000000
-20.099700 0.000000
-20.065800 0.000000
-20.031900 0.000000
-19.997900 0.000000
-19.964000 0.000000
-19.930000 0.000000
-19.896100 0.000000
-19.862200 0.000000
-19.828200 0.000000
-19.794300 0.000000
-19.760300 0.000000
-19.726400 0.000000
-19.692500 0.000000
-19.658500 0.000000
-19.624600 0.000000
-19.590600 0.000000
-19.556700 0.000000
-19.522800 0.000000
-19.488800 0.000000
-19.454900 0.000000
-19.420900 0.000000
-19.387000 0.000000
-19.353100 0.000000
-19.319100 0.000000
-19.285200 0.000000
-19.251300 0.000000
-19.217300 0.000000
-19.183400 0.000000
-19.149400 0.000000
-19.115500 0.000000
-19.081600 0.000000
-19.047600 0.000000
-19.013700 0.000000
-18.979700 0.000000
-18.945800 0.000000
-18.911900 0.000000
-18.877900 0.000000
-18.844000 0.000000
-18.810000 0.000000
-18.776100 0.000000
-18.742200 0.000000
-18.708200 0.000000
-18.674300 0.000000
-18.640300 0.000000
-18.606400 0.000000
-18.572500 0.000000
-18.538500 0.000000
-18.504600 0.000000
-18.470700 0.000000
-18.436700 0.000000
-18.402800 0.000000
-18.368800 0.000000
-18.334900 0.000000
-18.301000 0.000000
-18.267000 0.000000
-18.233100 0.000000
-18.199100 0.000000
-18.165200 0.000000
-18.131300 0.000000
-18.097300 0.000000
-18.063400 0.000000
-18.029400 0.000000
-17.995500 0.000000
-17.961600 0.000000
-17.927600 0.000000
-17.893700 0.000000
-17.859700 0.000000
-17.825800 0.000000
-17.791900 0.000000
-17.757900 0.000000
-17.724000 0.000000
-17.690100 0.000000
-17.656100 0.000000
-17.622200 0.000000
-17.588200 0.000000
-17.554300 0.000000
-17.520400 0.000000
-17.486400 0.000000
-17.452500 0.000000
-17.418500 0.000000
-17.384600 0.000000
-17.350700 0.000000
-17.316700 0.000000
-17.282800 0.000000
-17.248800 0.000000
-17.214900 0.000000
-17.181000 0.000000
-17.147000 0.000000
-17.113100 0.000000
-17.079100 0.000000
-17.045200 0.000000
-17.011300 0.000000
-16.977300 0.000000
-16.943400 0.000000
-16.909400 0.000000
-16.875500 0.000000
-16.841600 0.000000
-16.807600 0.000000
-16.773700 0.000000
-16.739800 0.000000
-16.705800 0.000000
-16.671900 0.000000
-16.637900 0.000000
-16.604000 0.000000
-16.570100 0.000000
-16.536100 0.000000
-16.502200 0.000000
-16.468200 0.000000
-16.434300 0.000000
-16.400400 0.000000
-16.366400 0.000000
-16.332500 0.000000
-16.298500 0.000000
-16.264600 0.000000
-16.230700 0.000000
-16.196700 0.000000
-16.162800 0.000000
-16.128800 0.000000
-16.094900 0.000000
-16.061000 0.000000
-16.027000 0.000000
-15.993100 0.000000
-15.959200 0.000000
-15.925200 0.000000
-15.891300 0.000000
-15.857300 0.000000
-15.823400 0.000000
-15.789500 0.000000
-15.755500 0.000000
-15.721600 0.000000
-15.687600 0.000000
-15.653700 0.000000
-15.619800 0.000000
-15.585800 0.000000
-15.551900 0.000000
-15.517900 0.000000
-15.484000 0.000000
-15.450100 0.000000
-15.416100 0.000000
-15.382200 0.000000
-15.348200 0.000000
-15.314300 0.000000
-15.280400 0.000000
-15.246400 0.000000
-15.212500 0.000000
-15.178600 0.000000
-15.144600 0.000000
-15.110700 0.000000
-15.076700 0.000000
-15.042800 0.000000
-15.008900 0.000000
-14.974900 0.000000
-14.941000 0.000000
-14.907000 0.000000
-14.873100 0.000000
-14.839200 0.000000
-14.805200 0.000000
-14.771300 0.098200
-14.737300 0.149000
-14.703400 0.185200
-14.669500 0.221400
-14.635500 0.250100
-14.601600 0.283500
-14.567600 0.315200
-14.533700 0.343000
-14.499800 0.375900
-14.465800 0.408900
-14.431900 0.443700
-14.397900 0.478600
-14.364000 0.520200
-14.330100 0.568300
-14.296100 0.618300
-14.262200 0.732600
-14.228300 0.762800
-14.194300 0.770900
-14.160400 0.787800
-14.126400 0.800400
-14.092500 0.817400
-14.058600 0.832100
-14.024600 0.850700
-13.990700 0.870400
-13.956700 0.889800
-13.922800 0.912700
-13.888900 0.936400
-13.854900 0.961100
-13.821000 0.990800
-13.787000 1.023200
-13.753100 1.058300
-13.719200 1.095400
-13.685200 1.140200
-13.651300 1.194600
-13.617300 1.253800
-13.583400 1.318200
-13.549500 1.416500
-13.515500 1.533500
-13.481600 1.680700
-13.447700 1.996300
-13.413700 2.835300
-13.379800 2.009700
-13.345800 1.722400
-13.311900 1.532900
-13.278000 1.426000
-13.244000 1.320600
-13.210100 1.252500
-13.176100 1.186000
-13.142200 1.131300
-13.108300 1.085300
-13.074300 1.044500
-13.040400 1.006900
-13.006400 0.975800
-12.972500 0.942400
-12.938600 0.920600
-12.904600 0.890900
-12.870700 0.868700
-12.836700 0.848100
-12.802800 0.831800
-12.768900 0.801300
-12.734900 0.781200
-12.701000 0.586000
-12.667000 0.456000
-12.633100 0.340900
-12.599200 0.244000
-12.565200 0.122300
-12.531300 0.000000
-12.497400 0.000000
-12.463400 0.000000
-12.429500 0.000000
-12.395500 0.000000
-12.361600 0.000000
-12.327700 0.000000
-12.293700 0.000000
-12.259800 0.000000
-12.225800 0.000000
-12.191900 0.000000
-12.158000 0.000000
-12.124000 0.000000
-12.090100 0.000000
-12.056100 0.000000
-12.022200 0.000000
-11.988300 0.000000
-11.954300 0.000000
-11.920400 0.000000
-11.886400 0.000000
-11.852500 0.000000
-11.818600 0.000000
-11.784600 0.000000
-11.750700 0.000000
-11.716800 0.000000
-11.682800 0.000000
-11.648900 0.000000
-11.614900 0.000000
-11.581000 0.000000
-11.547100 0.000000
-11.513100 0.000000
-11.479200 0.000000
-11.445200 0.000000
-11.411300 0.000000
-11.377400 0.000000
-11.343400 0.000000
-11.309500 0.000000
-11.275500 0.000000
-11.241600 0.000000
-11.207700 0.000000
-11.173700 0.000000
-11.139800 0.000000
-11.105800 0.000000
-11.071900 0.000000
-11.038000 0.000000
-11.004000 0.000000
-10.970100 0.000000
-10.936200 0.000000
-10.902200 0.000000
-10.868300 0.000000
-10.834300 0.000000
-10.800400 0.000000
-10.766500 0.000000
-10.732500 0.000000
-10.698600 0.000000
-10.664600 0.000000
-10.630700 0.000000
-10.596800 0.000000
-10.562800 0.000000
-10.528900 0.000000
-10.494900 0.000000
-10.461000 0.000000
-10.427100 0.000000
-10.393100 0.000000
-10.359200 0.000000
-10.325200 0.000000
-10.291300 0.000000
-10.257400 0.000000
-10.223400 0.000000
-10.189500 0.000000
-10.155500 0.000000
-10.121600 0.000000
-10.087700 0.000000
-10.053700 0.000000
-10.019800 0.000000
-9.985900 0.000000
-9.951900 0.000000
-9.918000 0.000000
-9.884000 0.000000
-9.850100 0.000000
-9.816200 0.000000
-9.782200 0.000000
-9.748300 0.000000
-9.714300 0.000000
-9.680400 0.000000
-9.646500 0.000000
-9.612500 0.000000
-9.578600 0.000000
-9.544600 0.000000
-9.510700 0.000000
-9.476800 0.000000
-9.442800 0.000000
-9.408900 0.000000
-9.374900 0.000000
-9.341000 0.000000
-9.307100 0.000000
-9.273100 0.000000
-9.239200 0.000000
-9.205300 0.000000
-9.171300 0.000000
-9.137400 0.000000
-9.103400 0.000000
-9.069500 0.000000
-9.035600 0.000000
-9.001600 0.000000
-8.967700 0.000000
-8.933700 0.000000
-8.899800 0.000000
-8.865900 0.000000
-8.831900 0.000000
-8.798000 0.000000
-8.764000 0.000000
-8.730100 0.000000
-8.696200 0.000000
-8.662200 0.000000
-8.628300 0.000000
-8.594300 0.000000
-8.560400 0.000000
-8.526500 0.000000
-8.492500 0.000000
-8.458600 0.000000
-8.424700 0.737300
-8.390700 0.868400
-8.356800 0.814500
-8.322800 0.860600
-8.288900 0.873700
-8.255000 0.900600
-8.221000 0.915800
-8.187100 0.937300
-8.153100 0.972200
-8.119200 1.013600
-8.085300 1.169000
-8.051300 1.355800
-8.017400 1.647500
-7.983400 1.951500
-7.949500 2.543400
-7.915600 2.637800
-7.881600 2.925900
-7.847700 2.876800
-7.813700 2.838400
-7.779800 2.465100
-7.745900 2.267900
-7.711900 2.017000
-7.678000 1.779700
-7.644000 1.643700
-7.610100 1.543000
-7.576200 1.427000
-7.542200 1.339700
-7.508300 1.263300
-7.474400 1.180200
-7.440400 1.105500
-7.406500 1.052000
-7.372500 0.987600
-7.338600 0.937900
-7.304700 0.942700
-7.270700 0.807900
-7.236800 0.769900
-7.202800 0.754700
-7.168900 0.733200
-7.135000 0.701900
-7.101000 0.691200
-7.067100 0.695600
-7.033100 0.735200
-6.999200 0.758300
-6.965300 0.829000
-6.931300 0.934100
-6.897400 0.945100
-6.863400 1.011100
-6.829500 0.467900
-6.795600 0.532400
-6.761600 0.605400
-6.727700 0.746300
-6.693800 0.958400
-6.659800 1.064600
-6.625900 1.153800
-6.591900 2.089000
-6.558000 3.667600
-6.524100 5.443300
-6.490100 4.922700
-6.456200 3.458600
-6.422200 2.705400
-6.388300 2.218300
-6.354400 1.858000
-6.320400 1.567300
-6.286500 1.377300
-6.252500 1.210900
-6.218600 1.036700
-6.184700 0.889200
-6.150700 0.826400
-6.116800 1.050300
-6.082800 1.524800
-6.048900 1.667700
-6.015000 1.604000
-5.981000 1.700100
-5.947100 1.688500
-5.913100 1.742300
-5.879200 1.852000
-5.845300 1.885700
-5.811300 1.922900
-5.777400 2.101700
-5.743500 1.480000
-5.709500 1.338500
-5.675600 1.217000
-5.641600 1.151800
-5.607700 1.118500
-5.573800 1.071200
-5.539800 1.038300
-5.505900 1.015800
-5.471900 1.006700
-5.438000 1.004400
-5.404100 0.977000
-5.370100 0.960100
-5.336200 0.950000
-5.302200 0.950700
-5.268300 0.947600
-5.234400 0.944600
-5.200400 0.953800
-5.166500 0.966300
-5.132500 0.970200
-5.098600 0.972300
-5.064700 0.973900
-5.030700 0.975800
-4.996800 0.984000
-4.962900 0.990200
-4.928900 0.997300
-4.895000 1.028800
-4.861000 1.064100
-4.827100 1.087300
-4.793200 1.119000
-4.759200 1.139100
-4.725300 1.177700
-4.691300 1.190900
-4.657400 1.233900
-4.623500 1.147500
-4.589500 1.045800
-4.555600 1.148300
-4.521600 1.205700
-4.487700 1.256100
-4.453800 1.308300
-4.419800 1.420600
-4.385900 1.693600
-4.351900 2.208500
-4.318000 2.438800
-4.284100 3.930900
-4.250100 3.177000
-4.216200 0.436700
-4.182300 0.379400
-4.148300 0.315200
-4.114400 0.008700
-4.080400 0.000000
-4.046500 0.000000
-4.012600 0.000000
-3.978600 0.000000
-3.944700 0.000000
-3.910700 0.000000
-3.876800 0.000000
-3.842900 0.000000
-3.808900 0.000000
-3.775000 0.000000
-3.741000 0.000000
-3.707100 0.000000
-3.673200 0.000000
-3.639200 0.000000
-3.605300 0.000000
-3.571300 0.000000
-3.537400 0.000000
-3.503500 0.000000
-3.469500 0.000000
-3.435600 0.000000
-3.401600 0.000000
-3.367700 0.000000
-3.333800 0.000000
-3.299800 0.000000
-3.265900 0.000000
-3.232000 0.000000
-3.198000 0.000000
-3.164100 0.000000
-3.130100 0.000000
-3.096200 0.000000
-3.062300 0.000000
-3.028300 0.000000
-2.994400 0.000000
-2.960400 0.000000
-2.926500 0.000000
-2.892600 0.000000
-2.858600 0.000000
-2.824700 0.000000
-2.790700 0.000000
-2.756800 0.000000
-2.722900 0.000000
-2.688900 0.000000
-2.655000 0.000000
-2.621000 0.000000
-2.587100 0.000000
-2.553200 0.000000
-2.519200 0.000000
-2.485300 0.000000
-2.451400 0.000000
-2.417400 0.000000
-2.383500 0.000000
-2.349500 0.000000
-2.315600 0.000000
-2.281700 0.000000
-2.247700 0.000000
-2.213800 0.000000
-2.179800 0.000000
-2.145900 0.000000
-2.112000 0.000000
-2.078000 0.000000
-2.044100 0.000000
-2.010100 0.000000
-1.976200 0.000000
-1.942300 0.000000
-1.908300 0.000000
-1.874400 0.000000
-1.840400 0.000000
-1.806500 0.000000
-1.772600 0.000000
-1.738600 0.000000
-1.704700 0.000000
-1.670700 0.000000
-1.636800 0.000000
-1.602900 0.000000
-1.568900 0.000000
-1.535000 0.000000
-1.501100 0.000000
-1.467100 0.000000
-1.433200 0.001000
-1.399200 0.590200
-1.365300 0.861300
-1.331400 0.789900
-1.297400 0.838100
-1.263500 0.940100
-1.229500 0.979400
-1.195600 1.012100
-1.161700 1.069600
-1.127700 1.138700
-1.093800 1.221900
-1.059800 1.320500
-1.025900 1.526900
-0.992000 1.547100
-0.958000 1.532700
-0.924100 1.530300
-0.890100 1.530500
-0.856200 1.578900
-0.822300 1.560400
-0.788300 1.528700
-0.754400 1.460900
-0.720500 1.205400
-0.686500 1.107000
-0.652600 1.027700
-0.618600 0.956200
-0.584700 0.907500
-0.550800 0.873800
-0.516800 0.843300
-0.482900 0.795500
-0.448900 0.767700
-0.415000 0.742900
-0.381100 0.769100
-0.347100 0.705600
-0.313200 0.674100
-0.279200 0.676300
-0.245300 0.679500
-0.211400 0.665800
-0.177400 0.697500
-0.143500 0.753800
-0.109500 0.855700
-0.075600 1.115700
-0.041700 1.319300
-0.007700 1.176000
0.026200 1.185100
0.060100 1.188400
0.094100 1.206100
0.128000 1.250500
0.162000 1.266400
0.195900 1.233400
0.229800 1.120900
0.263800 1.080000
0.297700 1.048400
0.331700 1.019800
0.365600 0.997200
0.399500 0.975300
0.433500 0.970500
0.467400 0.972500
0.501400 0.973800
0.535300 0.953000
0.569200 0.955200
0.603200 0.958400
0.637100 0.950400
0.671100 0.940800
0.705000 0.934000
0.738900 0.930000
0.772900 0.934800
0.806800 0.950800
0.840800 0.960900
0.874700 0.961300
0.908600 0.959800
0.942600 0.967700
0.976500 0.974200
1.010400 0.981800
1.044400 0.986900
1.078300 0.992100
1.112300 1.003200
1.146200 1.021800
1.180100 1.037900
1.214100 1.060600
1.248000 1.075700
1.282000 1.100400
1.315900 1.113700
1.349800 1.128400
1.383800 1.151200
1.417700 1.187200
1.451700 1.231100
1.485600 1.285400
1.519500 1.339100
1.553500 1.360600
1.587400 1.431200
1.621400 1.384300
1.655300 1.403200
1.689200 1.480500
1.723200 1.453800
1.757100 1.539500
1.791000 1.705500
1.825000 2.075500
1.858900 2.600400
1.892900 3.509500
1.926800 4.649800
1.960700 0.676800
1.994700 0.468800
2.028600 0.236900
2.062600 0.025000
2.096500 0.000000
2.130400 0.000000
2.164400 0.000000
2.198300 0.000000
2.232300 0.000000
2.266200 0.000000
2.300100 0.000000
2.334100 0.000000
2.368000 0.000000
2.402000 0.000000
2.435900 0.000000
2.469800 0.000000
2.503800 0.000000
2.537700 0.000000
2.571600 0.000000
2.605600 0.000000
2.639500 0.000000
2.673500 0.000000
2.707400 0.000000
2.741300 0.000000
2.775300 0.000000
2.809200 0.000000
2.843200 0.000000
2.877100 0.000000
2.911000 0.000000
2.945000 0.000000
2.978900 0.000000
3.012900 0.000000
3.046800 0.000000
3.080700 0.000000
3.114700 0.000000
3.148600 0.000000
3.182600 0.000000
3.216500 0.000000
3.250400 0.000000
3.284400 0.000000
3.318300 0.000000
3.352300 0.000000
3.386200 0.000000
3.420100 0.000000
3.454100 0.000000
3.488000 0.000000
3.521900 0.000000
3.555900 0.000000
3.589800 0.000000
3.623800 0.000000
3.657700 0.000000
3.691600 0.000000
3.725600 0.000000
3.759500 0.000000
3.793500 0.000000
3.827400 0.000000
3.861300 0.000000
3.895300 0.000000
3.929200 0.000000
3.963200 0.000000
3.997100 0.000000
4.031000 0.000000
4.065000 0.000000
4.098900 0.000000
4.132900 0.000000
4.166800 0.000000
4.200700 0.000000
4.234700 0.000000
4.268600 0.000000
4.302500 0.000000
4.336500 0.000000
4.370400 0.000000
4.404400 0.000000
4.438300 0.000000
4.472200 0.000000
4.506200 0.000000
4.540100 0.000000
4.574100 0.000000
4.608000 0.000000
4.641900 0.000000
4.675900 0.000000
4.709800 0.000000
4.743800 0.000000
4.777700 0.000000
4.811600 0.000000
4.845600 0.000000
4.879500 0.000000
4.913500 0.000000
4.947400 0.000000
4.981300 0.000000
5.015300 0.000000
5.049200 0.000000
5.083200 0.000000
5.117100 0.000000
5.151000 0.000000
5.185000 0.000000
5.218900 0.000000
5.252800 0.000000
5.286800 0.000000
5.320700 0.000000
5.354700 0.000000
5.388600 0.000000
5.422500 0.000000
5.456500 0.000000
5.490400 0.000000
5.524400 0.000000
5.558300 0.000000
5.592200 0.000000
5.626200 0.000000
5.660100 0.000000
5.694100 0.000000
5.728000 0.000000
5.761900 0.000000
5.795900 0.000000
5.829800 0.000000
5.863800 0.000000
5.897700 0.000000
5.931600 0.000000
5.965600 0.000000
5.999500 0.000000
6.033400 0.000000
6.067400 0.000000
6.101300 0.000000
6.135300 0.000000
6.169200 0.000000
6.203100 0.000000
6.237100 0.000000
6.271000 0.000000
6.305000 0.000000
6.338900 0.000000
6.372800 0.000000
6.406800 0.000000
6.440700 0.000000
6.474700 0.000000
6.508600 0.000000
6.542500 0.000000
6.576500 0.000000
6.610400 0.000000
6.644400 0.000000
6.678300 0.000000
6.712200 0.000000
6.746200 0.000000
6.780100 0.003600
6.814000 0.026000
6.848000 0.034200
6.881900 0.043000
6.915900 0.055100
6.949800 0.060200
6.983700 0.065100
7.017700 0.071400
7.051600 0.076000
7.085600 0.081400
7.119500 0.087800
7.153400 0.094600
7.187400 0.101200
7.221300 0.104600
7.255300 0.109500
7.289200 0.114200
7.323100 0.119000
7.357100 0.123200
7.391000 0.128800
7.425000 0.134100
7.458900 0.139200
7.492800 0.144400
7.526800 0.149800
7.560700 0.155700
7.594700 0.160300
7.628600 0.165300
7.662500 0.170200
7.696500 0.174500
7.730400 0.178900
7.764300 0.184500
7.798300 0.190200
7.832200 0.195800
7.866200 0.201100
7.900100 0.206600
7.934000 0.212200
7.968000 0.218500
8.001900 0.224700
8.035900 0.230100
8.069800 0.235400
8.103700 0.240900
8.137700 0.246400
8.171600 0.252500
8.205600 0.259000
8.239500 0.265500
8.273400 0.272000
8.307400 0.278300
8.341300 0.284700
8.375300 0.292000
8.409200 0.299700
8.443100 0.307300
8.477100 0.315000
8.511000 0.322100
8.544900 0.329300
8.578900 0.336900
8.612800 0.345200
8.646800 0.353800
8.680700 0.362400
8.714600 0.371100
8.748600 0.379700
8.782500 0.388800
8.816500 0.399300
8.850400 0.410200
8.884300 0.421400
8.918300 0.432800
8.952200 0.444200
8.986200 0.455500
9.020100 0.468800
9.054000 0.481900
9.088000 0.495400
9.121900 0.509200
9.155900 0.523500
9.189800 0.540500
9.223700 0.558800
9.257700 0.578200
9.291600 0.597100
9.325500 0.617000
9.359500 0.642100
9.393400 0.667800
9.427400 0.694500
9.461300 0.724300
9.495200 0.762700
9.529200 0.805700
9.563100 0.853500
9.597100 0.922000
9.631000 1.026100
9.664900 1.085400
9.698900 1.101300
9.732800 1.111500
9.766800 1.122800
9.800700 1.128900
9.834600 1.139800
9.868600 1.157200
9.902500 1.167700
9.936500 1.186000
9.970400 1.214700
10.004300 1.241600
10.038300 1.276800
10.072200 1.379300
10.106200 1.405700
10.140100 1.404400
10.174000 1.420300
10.208000 1.390700
10.241900 1.173700
10.275800 1.090700
10.309800 1.012700
10.343700 0.967000
10.377700 0.946900
10.411600 0.901200
10.445500 0.882300
10.479500 0.801800
10.513400 0.679900
10.547400 0.562700
10.581300 0.453000
10.615200 0.395900
10.649200 0.361300
10.683100 0.325700
10.717100 0.278800
10.751000 0.241900
10.784900 0.205600
10.818900 0.075200
10.852800 0.010700
10.886800 0.016500
10.920700 0.027300
10.954600 0.032800
10.988600 0.033600
11.022500 0.036700
11.056400 0.038700
11.090400 0.042700
11.124300 0.045500
11.158300 0.050100
11.192200 0.053700
11.226100 0.057000
11.260100 0.060600
11.294000 0.066400
11.328000 0.073000
11.361900 0.089700
11.395800 0.120000
11.429800 0.143200
11.463700 0.164700
11.497700 0.193000
11.531600 0.195600
11.565500 0.195000
11.599500 0.200900
11.633400 0.204900
11.667400 0.207800
11.701300 0.211000
11.735200 0.212000
11.769200 0.213800
11.803100 0.217000
11.837100 0.221400
11.871000 0.226800
11.904900 0.232300
11.938900 0.237800
11.972800 0.241300
12.006700 0.242700
12.040700 0.243600
12.074600 0.247600
12.108600 0.252600
12.142500 0.257000
12.176400 0.260700
12.210400 0.264600
12.244300 0.268500
12.278300 0.273200
12.312200 0.278500
12.346100 0.283100
12.380100 0.286900
12.414000 0.299200
12.448000 0.326400
12.481900 0.358300
12.515800 0.378600
12.549800 0.402200
12.583700 0.428600
12.617700 0.458500
12.651600 0.496300
12.685500 0.525400
12.719500 0.523600
12.753400 0.547800
12.787300 0.565800
12.821300 0.573000
12.855200 0.569500
12.889200 0.573700
12.923100 0.571900
12.957000 0.577000
12.991000 0.580200
13.024900 0.583500
13.058900 0.585100
13.092800 0.586000
13.126700 0.588300
13.160700 0.591500
13.194600 0.615800
13.228600 0.635100
13.262500 0.647400
13.296400 0.661500
13.330400 0.675200
13.364300 0.684900
13.398300 0.695300
13.432200 0.709000
13.466100 0.719300
13.500100 0.729500
13.534000 0.742200
13.567900 0.754700
13.601900 0.765100
13.635800 0.779700
13.669800 0.796600
13.703700 0.815600
13.737600 0.831400
13.771600 0.849100
13.805500 0.872900
13.839500 0.898000
13.873400 0.924500
13.907300 0.941100
13.941300 0.929100
13.975200 0.923300
14.009200 0.912600
14.043100 0.911800
14.077000 0.928700
14.111000 0.949900
14.144900 0.997800
14.178900 1.000700
14.212800 0.986400
14.246700 0.979100
14.280700 0.976300
14.314600 0.971100
14.348600 0.967900
14.382500 0.965700
14.416400 0.961200
14.450400 0.956000
14.484300 0.951400
14.518200 0.946200
14.552200 0.939600
14.586100 0.935100
14.620100 0.932800
14.654000 0.930300
14.687900 0.927800
14.721900 0.924600
14.755800 0.924900
14.789800 0.922700
14.823700 0.918700
14.857600 0.914200
14.891600 0.911000
14.925500 0.910800
14.959500 0.911000
14.993400 0.914100
15.027300 0.922200
15.061300 0.927900
15.095200 0.933100
15.129200 0.945000
15.163100 0.955000
15.197000 0.967400
15.231000 0.983900
15.264900 1.002000
15.298800 1.022500
15.332800 1.028700
15.366700 1.007800
15.400700 0.995600
15.434600 0.999000
15.468500 0.986200
15.502500 0.950400
15.536400 0.808000
15.570400 0.760200
15.604300 0.640700
15.638200 0.627000
15.672200 0.631400
15.706100 0.638800
15.740100 0.660200
15.774000 0.706200
15.807900 0.764400
15.841900 0.815300
15.875800 0.856700
15.909800 0.883900
15.943700 0.891300
15.977600 0.899600
16.011600 0.907900
16.045500 0.895100
16.079500 0.878000
16.113400 0.852200
16.147300 0.841600
16.181300 0.831100
16.215200 0.818700
16.249100 0.799300
16.283100 0.786800
16.317000 0.777300
16.351000 0.767200
16.384900 0.751500
16.418800 0.736400
16.452800 0.720500
16.486700 0.702100
16.520700 0.690000
16.554600 0.676500
16.588500 0.661500
16.622500 0.645300
16.656400 0.630200
16.690400 0.614900
16.724300 0.595500
16.758200 0.583800
16.792200 0.568000
16.826100 0.566100
16.860100 0.565200
16.894000 0.554900
16.927900 0.555600
16.961900 0.548900
16.995800 0.517300
17.029700 0.498400
17.063700 0.498100
17.097600 0.508200
17.131600 0.531800
17.165500 0.563900
17.199400 0.581300
17.233400 0.593500
17.267300 0.614900
17.301300 0.627600
17.335200 0.621400
17.369100 0.626500
17.403100 0.634900
17.437000 0.643900
17.471000 0.652200
17.504900 0.658400
17.538800 0.653900
17.572800 0.655500
17.606700 0.675000
17.640700 0.699000
17.674600 0.736600
17.708500 0.770300
17.742500 0.740000
17.776400 0.686400
17.810300 0.638900
17.844300 0.620200
17.878200 0.613900
17.912200 0.616000
17.946100 0.621900
17.980000 0.644900
18.014000 0.658600
18.047900 0.667200
18.081900 0.669700
18.115800 0.687800
18.149700 0.799000
18.183700 0.739600
18.217600 0.717200
18.251600 0.703900
18.285500 0.696600
18.319400 0.696000
18.353400 0.684900
18.387300 0.675400
18.421300 0.667600
18.455200 0.669800
18.489100 0.664300
18.523100 0.651000
18.557000 0.622700
18.591000 0.607500
18.624900 0.571800
18.658800 0.543400
18.692800 0.542000
18.726700 0.543900
18.760600 0.546300
18.794600 0.550300
18.828500 0.552700
18.862500 0.547100
18.896400 0.554200
18.930300 0.565000
18.964300 0.578100
18.998200 0.597100
19.032200 0.624100
19.066100 0.652700
19.100000 0.696700
19.134000 0.738400
19.167900 0.768500
19.201900 0.805100
19.235800 0.835700
19.269700 0.793400
19.303700 0.767900
19.337600 0.764700
19.371600 0.755900
19.405500 0.758800
19.439400 0.764200
19.473400 0.770000
19.507300 0.779700
19.541200 0.788300
19.575200 0.799400
19.609100 0.825500
19.643100 0.858300
19.677000 0.902900
19.710900 0.929200
19.744900 0.919200
19.778800 0.915000
19.812800 0.911500
19.846700 0.919800
19.880600 0.911800
19.914600 0.890900
19.948500 0.875900
19.982500 0.855500
20.016400 0.840000
20.050300 0.829700
20.084300 0.823500
20.118200 0.807800
20.152200 0.792200
20.186100 0.778700
20.220000 0.773100
20.254000 0.771800
20.287900 0.771800
20.321800 0.767700
20.355800 0.766200
20.389700 0.764800
20.423700 0.763700
20.457600 0.765300
20.491500 0.770900
20.525500 0.777700
20.559400 0.781500
20.593400 0.788300
20.627300 0.800400
20.661200 0.818200
20.695200 0.840200
20.729100 0.872000
20.763100 0.913500
20.797000 0.947500
20.830900 0.986900
20.864900 1.043500
20.898800 1.115800
20.932800 1.190200
20.966700 1.196400
21.000600 1.153200
21.034600 1.093300
21.068500 1.081000
21.102500 1.027400
21.136400 0.998100
21.170300 0.982100
21.204300 0.963300
21.238200 0.941100
21.272100 0.938000
21.306100 0.945500
21.340000 0.939000
21.374000 0.932900
21.407900 0.932900
21.441800 0.936500
21.475800 0.928300
21.509700 0.920900
21.543700 0.923400
21.577600 0.881400
21.611500 0.873500
21.645500 0.871300
21.679400 0.876400
21.713400 0.915900
21.747300 0.916400
21.781200 0.907600
21.815200 0.885700
21.849100 0.871500
21.883100 0.841100
21.917000 0.783600
21.950900 0.785100
21.984900 0.696500
22.018800 0.678700
22.052700 0.644300
22.086700 0.615800
22.120600 0.589100
22.154600 0.567900
22.188500 0.547000
22.222400 0.535300
22.256400 0.521300
22.290300 0.512800
22.324300 0.506700
22.358200 0.502400
22.392100 0.499800
22.426100 0.497300
22.460000 0.494700
22.494000 0.492100
22.527900 0.490000
22.561800 0.489800
22.595800 0.488300
22.629700 0.487600
22.663700 0.489800
22.697600 0.494100
22.731500 0.500200
22.765500 0.507400
22.799400 0.516500
22.833400 0.526600
22.867300 0.539200
22.901200 0.551700
22.935200 0.555100
22.969100 0.551100
23.003000 0.553700
23.037000 0.561500
23.070900 0.572300
23.104900 0.590300
23.138800 0.613100
23.172700 0.633700
23.206700 0.657800
23.240600 0.701400
23.274600 0.710200
23.308500 0.696800
23.342400 0.703000
23.376400 0.703800
23.410300 0.703700
23.444300 0.709400
23.478200 0.715700
23.512100 0.722200
23.546100 0.721400
23.580000 0.719800
23.614000 0.720200
23.647900 0.721500
23.681800 0.731600
23.715800 0.721300
23.749700 0.708500
23.783600 0.691800
23.817600 0.684600
23.851500 0.680800
23.885500 0.640100
23.919400 0.570100
23.953300 0.549900
23.987300 0.571100
24.021200 0.607400
24.055200 0.676200
24.089100 0.776600
24.123000 0.722500
24.157000 0.721900
24.190900 0.729900
24.224900 0.696200
24.258800 0.665500
24.292700 0.649800
24.326700 0.635700
24.360600 0.620100
24.394600 0.610500
24.428500 0.596200
24.462400 0.585300
24.496400 0.575700
24.530300 0.571700
24.564200 0.561700
24.598200 0.551900
24.632100 0.544100
24.666100 0.537200
24.700000 0.531800
24.733900 0.526000
24.767900 0.519400
24.801800 0.518600
24.835800 0.517200
24.869700 0.517200
24.903600 0.518300
24.937600 0.520100
24.971500 0.520300
25.005500 0.522800
25.039400 0.529200
25.073300 0.535500
25.107300 0.550300
25.141200 0.569900
25.175200 0.582100
25.209100 0.593800
25.243000 0.605900
25.277000 0.618600
25.310900 0.630700
25.344900 0.633300
25.378800 0.613900
25.412700 0.599500
25.446700 0.586900
25.480600 0.582000
25.514500 0.569500
25.548500 0.556900
25.582400 0.547000
25.616400 0.540600
25.650300 0.536500
25.684200 0.534400
25.718200 0.536300
25.752100 0.539800
25.786100 0.543500
25.820000 0.544000
25.853900 0.545400
25.887900 0.551400
25.921800 0.565300
25.955800 0.570000
25.989700 0.570500
26.023600 0.569900
26.057600 0.571600
26.091500 0.576700
26.125500 0.561200
26.159400 0.557400
26.193300 0.556800
26.227300 0.556500
26.261200 0.557600
26.295100 0.563500
26.329100 0.570200
26.363000 0.577000
26.397000 0.585100
26.430900 0.590500
26.464800 0.598000
26.498800 0.606400
26.532700 0.614200
26.566700 0.625100
26.600600 0.633300
26.634500 0.635900
26.668500 0.634400
26.702400 0.638700
26.736400 0.623000
26.770300 0.623100
26.804200 0.622500
26.838200 0.606800
26.872100 0.603000
26.906100 0.603100
26.940000 0.602900
26.973900 0.602100
27.007900 0.601600
27.041800 0.605200
27.075700 0.622000
27.109700 0.643800
27.143600 0.657700
27.177600 0.675600
27.211500 0.698500
27.245400 0.724300
27.279400 0.748900
27.313300 0.778500
27.347300 0.816600
27.381200 0.866900
27.415100 0.925800
27.449100 0.977200
27.483000 1.052800
27.517000 1.146300
27.550900 1.398000
27.584800 1.374900
27.618800 1.549300
27.652700 1.394500
27.686700 1.184600
27.720600 1.149900
27.754500 1.136000
27.788500 1.114800
27.822400 1.058800
27.856400 1.046700
27.890300 1.049200
27.924200 1.074000
27.958200 1.078100
27.992100 1.090300
28.026000 1.081300
28.060000 1.075000
28.093900 1.070900
28.127900 1.077000
28.161800 1.086000
28.195700 1.093200
28.229700 1.106900
28.263600 1.127100
28.297600 1.151000
28.331500 1.188700
28.365400 1.261300
28.399400 1.348000
28.433300 1.374600
28.467300 1.286900
28.501200 1.232700
28.535100 1.224500
28.569100 1.186000
28.603000 1.150900
28.637000 1.147400
28.670900 1.168800
28.704800 1.194500
28.738800 1.201500
28.772700 1.208000
28.806600 1.217500
28.840600 1.226000
28.874500 1.245600
28.908500 1.301200
28.942400 1.356300
28.976300 1.405500
29.010300 1.384100
29.044200 1.376700
29.078200 1.386200
29.112100 1.384100
29.146000 1.354600
29.180000 1.335000
29.213900 1.330900
29.247900 1.333500
29.281800 1.339300
29.315700 1.325600
29.349700 1.328700
29.383600 1.370700
29.417600 1.460400
29.451500 1.435000
29.485400 1.356400
29.519400 1.293400
29.553300 1.248300
29.587300 1.208400
29.621200 1.185300
29.655100 1.169300
29.689100 1.168200
29.723000 1.157900
29.756900 1.143600
29.790900 1.117100
29.824800 1.093500
29.858800 1.077400
29.892700 1.062800
29.926600 1.063700
29.960600 1.052000
29.994500 1.002700
30.028500 0.955300
30.062400 0.936100
30.096300 0.930600
30.130300 0.929000
30.164200 0.924000
30.198200 0.919200
30.232100 0.912900
30.266000 0.908800
30.300000 0.910500
30.333900 0.900200
30.367900 0.889500
30.401800 0.882900
30.435700 0.887200
30.469700 0.890400
30.503600 0.895800
30.537500 0.905200
30.571500 0.924200
30.605400 0.959300
30.639400 0.991200
30.673300 0.999300
30.707200 0.999500
30.741200 0.971600
30.775100 0.907500
30.809100 0.888100
30.843000 0.867100
30.876900 0.849200
30.910900 0.824800
30.944800 0.806200
30.978800 0.789900
31.012700 0.777100
31.046600 0.767100
31.080600 0.760500
31.114500 0.753200
31.148500 0.726600
31.182400 0.700600
31.216300 0.677100
31.250300 0.658300
31.284200 0.640100
31.318100 0.622400
31.352100 0.607100
31.386000 0.596500
31.420000 0.583500
31.453900 0.572000
31.487800 0.562200
31.521800 0.554300
31.555700 0.550100
31.589700 0.545500
31.623600 0.548000
31.657500 0.550100
31.691500 0.551400
31.725400 0.549700
31.759400 0.552200
31.793300 0.560800
31.827200 0.569500
31.861200 0.579600
31.895100 0.588500
31.929100 0.560100
31.963000 0.549100
31.996900 0.539100
32.030900 0.529900
32.064800 0.521300
32.098800 0.508500
32.132700 0.485100
32.166600 0.455600
32.200600 0.423200
32.234500 0.395900
32.268400 0.380500
32.302400 0.346200
32.336300 0.335900
32.370300 0.324700
32.404200 0.319300
32.438100 0.320600
32.472100 0.313100
32.506000 0.306000
32.540000 0.299400
32.573900 0.291400
32.607800 0.281900
32.641800 0.273200
32.675700 0.266100
32.709700 0.256900
32.743600 0.241900
32.777500 0.229800
32.811500 0.221500
32.845400 0.217600
32.879400 0.210100
32.913300 0.195100
32.947200 0.173900
32.981200 0.165500
33.015100 0.158000
33.049000 0.151500
33.083000 0.145500
33.116900 0.140200
33.150900 0.137500
33.184800 0.135300
33.218700 0.131700
33.252700 0.125900
33.286600 0.116800
33.320600 0.109500
33.354500 0.103200
33.388400 0.097600
33.422400 0.092700
33.456300 0.088400
33.490300 0.084300
33.524200 0.080500
33.558100 0.077400
33.592100 0.074700
33.626000 0.073000
33.660000 0.068000
33.693900 0.063800
33.727800 0.060800
33.761800 0.058100
33.795700 0.055500
33.829600 0.052900
33.863600 0.050700
33.897500 0.048200
33.931500 0.045500
33.965400 0.043100
33.999300 0.040900
34.033300 0.039300
34.067200 0.036500
34.101200 0.034000
34.135100 0.032200
34.169000 0.031400
34.203000 0.037300
34.236900 0.040300
34.270900 0.037400
34.304800 0.033700
34.338700 0.030000
34.372700 0.026300
34.406600 0.019100
34.440600 0.015800
34.474500 0.012800
34.508400 0.010400
34.542400 0.008600
34.576300 0.007500
34.610300 0.006600
34.644200 0.005900
34.678100 0.005300
34.712100 0.004700
34.746000 0.004200
34.779900 0.003700
34.813900 0.003200
34.847800 0.004700
34.881800 0.002300
34.915700 0.001700
34.949600 0.001200
34.983600 0.000800
35.017500 0.000400
35.051500 0.000200
35.085400 0.000100
35.119300 0.000000
35.153300 0.000000
35.187200 0.000000
35.221200 0.000000
35.255100 0.000000
35.289000 0.000000
35.323000 0.000000
35.356900 0.000000
35.390900 0.000000
35.424800 0.000000
35.458700 0.000000
35.492700 0.000000
35.526600 0.000000
35.560500 0.000000
35.594500 0.000000
35.628400 0.000000
35.662400 0.000000
35.696300 0.000000
35.730200 0.000000
35.764200 0.000000
35.798100 0.000000
35.832100 0.000000
35.866000 0.000000
35.899900 0.000000
35.933900 0.000000
35.967800 0.000000
36.001800 0.000000
36.035700 0.000000
36.069600 0.000000
36.103600 0.000000
36.137500 0.000000
36.171500 0.000000
36.205400 0.000000
36.239300 0.000000
36.273300 0.000000
36.307200 0.000000
36.341200 0.000000
36.375100 0.000000
36.409000 0.000000
36.443000 0.000000
36.476900 0.000000
36.510800 0.000000
36.544800 0.000000
36.578700 0.000000
36.612700 0.000000
36.646600 0.000000
36.680500 0.000000
36.714500 0.000000
36.748400 0.000000
36.782400 0.000000
36.816300 0.000000
36.850200 0.000000
36.884200 0.000000
36.918100 0.000000
36.952100 0.000000
36.986000 0.000000
37.019900 0.000000
37.053900 0.000000
37.087800 0.000000
37.121800 0.000000
37.155700 0.000000
37.189600 0.000000
37.223600 0.000000
37.257500 0.000000
37.291400 0.000000
37.325400 0.000000
37.359300 0.000000
37.393300 0.000000
37.427200 0.000000
37.461100 0.000000
37.495100 0.000000
37.529000 0.000000
37.563000 0.000000
37.596900 0.000000
37.630800 0.000000
37.664800 0.000000
37.698700 0.000000
37.732700 0.000000
37.766600 0.000000
37.800500 0.000000
37.834500 0.000000
37.868400 0.000000
37.902400 0.000000
37.936300 0.000000
37.970200 0.000000
38.004200 0.000000
38.038100 0.000000
38.072000 0.000000
38.106000 0.000000
38.139900 0.000000
38.173900 0.000000
38.207800 0.000000
e
