set title 'mp-909 - Density of States'
set xlabel 'Energy (eV)'
set ylabel 'DOS (states/eV)'
set grid
set xrange [-10:10]
set yrange [0:168.570]
set xzeroaxis lt -1
set terminal png size 800,600
set output 'mp-909_dos_gnuplot.png'
plot '-' using 1:2 with lines title 'DOS'
-13.991600 0.000000
-13.978800 0.000000
-13.966100 0.000000
-13.953400 0.000000
-13.940600 0.000000
-13.927900 0.000000
-13.915200 0.000000
-13.902500 0.000000
-13.889700 0.000000
-13.877000 0.000000
-13.864300 0.000000
-13.851600 0.000000
-13.838800 0.000000
-13.826100 0.000000
-13.813400 0.000000
-13.800600 0.000000
-13.787900 0.000000
-13.775200 0.000000
-13.762500 0.000000
-13.749700 0.000000
-13.737000 0.000000
-13.724300 0.000000
-13.711600 0.000000
-13.698800 0.000000
-13.686100 0.000000
-13.673400 0.000000
-13.660700 0.000000
-13.647900 0.000000
-13.635200 0.000000
-13.622500 0.000000
-13.609700 0.000000
-13.597000 0.000000
-13.584300 0.000000
-13.571600 0.000000
-13.558800 0.000000
-13.546100 0.000000
-13.533400 0.000000
-13.520700 0.000000
-13.507900 0.000000
-13.495200 0.000000
-13.482500 0.000000
-13.469800 0.000000
-13.457000 0.000000
-13.444300 0.000000
-13.431600 0.000000
-13.418800 0.000000
-13.406100 0.000000
-13.393400 0.000000
-13.380700 0.000000
-13.367900 0.000000
-13.355200 0.000000
-13.342500 0.000000
-13.329800 0.000000
-13.317000 0.000000
-13.304300 0.000000
-13.291600 0.000000
-13.278800 0.000000
-13.266100 0.000000
-13.253400 0.000000
-13.240700 0.000000
-13.227900 0.000000
-13.215200 0.000000
-13.202500 0.000000
-13.189800 0.000000
-13.177000 0.000000
-13.164300 0.000000
-13.151600 0.000000
-13.138900 0.000000
-13.126100 0.000000
-13.113400 0.000000
-13.100700 0.000000
-13.087900 0.000000
-13.075200 0.000000
-13.062500 0.000000
-13.049800 0.000000
-13.037000 0.000000
-13.024300 0.000000
-13.011600 0.000000
-12.998900 0.000000
-12.986100 0.000000
-12.973400 0.000000
-12.960700 0.000000
-12.947900 0.000000
-12.935200 0.000000
-12.922500 0.000000
-12.909800 0.000000
-12.897000 0.000000
-12.884300 0.000000
-12.871600 0.000000
-12.858900 0.000000
-12.846100 0.000000
-12.833400 6.002500
-12.820700 6.693300
-12.808000 7.384100
-12.795200 8.074900
-12.782500 8.765600
-12.769800 3.020500
-12.757000 9.285100
-12.744300 10.040900
-12.731600 10.796600
-12.718900 11.552300
-12.706100 12.308000
-12.693400 6.169300
-12.680700 6.116100
-12.668000 6.062900
-12.655200 6.009700
-12.642500 5.952700
-12.629800 5.889900
-12.617000 5.827200
-12.604300 5.764400
-12.591600 5.701600
-12.578900 5.638900
-12.566100 8.111400
-12.553400 8.289800
-12.540700 8.468300
-12.528000 8.646700
-12.515200 8.825100
-12.502500 12.229900
-12.489800 13.116900
-12.477100 14.161600
-12.464300 15.271900
-12.451600 16.382200
-12.438900 14.665800
-12.426100 14.342900
-12.413400 14.363700
-12.400700 13.475100
-12.388000 10.093200
-12.375200 10.037900
-12.362500 9.982600
-12.349800 9.927200
-12.337100 9.871900
-12.324300 9.816500
-12.311600 9.761200
-12.298900 9.705800
-12.286100 9.650500
-12.273400 18.028100
-12.260700 17.178200
-12.248000 16.328300
-12.235200 7.087600
-12.222500 7.019600
-12.209800 15.127900
-12.197100 14.357700
-12.184300 4.740100
-12.171600 4.669400
-12.158900 4.598700
-12.146200 4.701800
-12.133400 4.983100
-12.120700 5.264400
-12.108000 5.545700
-12.095200 5.827000
-12.082500 9.370600
-12.069800 8.967400
-12.057100 8.564300
-12.044300 11.361600
-12.031600 10.519000
-12.018900 9.676300
-12.006200 8.833700
-11.993400 4.559500
-11.980700 4.199000
-11.968000 3.838600
-11.955300 3.478200
-11.942500 0.000000
-11.929800 0.000000
-11.917100 0.000000
-11.904300 0.000000
-11.891600 0.000000
-11.878900 0.000000
-11.866200 0.000000
-11.853400 0.000000
-11.840700 0.000000
-11.828000 0.000000
-11.815300 0.000000
-11.802500 0.000000
-11.789800 0.000000
-11.777100 0.000000
-11.764300 0.000000
-11.751600 0.000000
-11.738900 1.350600
-11.726200 3.291200
-11.713400 9.272600
-11.700700 13.532600
-11.688000 13.783600
-11.675300 14.034500
-11.662500 14.285400
-11.649800 16.159000
-11.637100 16.124500
-11.624400 16.090000
-11.611600 14.404300
-11.598900 14.218800
-11.586200 14.033300
-11.573400 13.847900
-11.560700 11.103400
-11.548000 10.924400
-11.535300 10.745400
-11.522500 10.566500
-11.509800 10.387500
-11.497100 10.208600
-11.484400 10.029600
-11.471600 9.850600
-11.458900 9.671700
-11.446200 7.707200
-11.433400 7.381600
-11.420700 12.715300
-11.408000 11.259000
-11.395300 16.816000
-11.382500 17.508400
-11.369800 18.200800
-11.357100 13.089700
-11.344400 13.045700
-11.331600 7.492600
-11.318900 6.755500
-11.306200 6.018500
-11.293500 5.281500
-11.280700 4.742200
-11.268000 4.414600
-11.255300 4.278500
-11.242500 4.190000
-11.229800 4.101600
-11.217100 4.117600
-11.204400 4.145000
-11.191600 4.172400
-11.178900 4.199800
-11.166200 4.227200
-11.153500 4.254600
-11.140700 4.282000
-11.128000 4.309400
-11.115300 4.336800
-11.102500 4.364200
-11.089800 4.391600
-11.077100 4.419000
-11.064400 4.446400
-11.051600 4.473800
-11.038900 4.501200
-11.026200 4.528600
-11.013500 4.556000
-11.000700 4.583400
-10.988000 4.610800
-10.975300 4.638200
-10.962600 4.665600
-10.949800 4.693000
-10.937100 5.520300
-10.924400 7.652500
-10.911600 7.716000
-10.898900 7.779400
-10.886200 9.757600
-10.873500 9.198300
-10.860700 8.639000
-10.848000 8.079700
-10.835300 7.520300
-10.822600 6.961000
-10.809800 6.401700
-10.797100 5.842300
-10.784400 5.283000
-10.771600 2.711900
-10.758900 0.000000
-10.746200 0.000000
-10.733500 0.000000
-10.720700 23.387000
-10.708000 57.926600
-10.695300 23.272300
-10.682600 44.693500
-10.669800 10.061300
-10.657100 39.246100
-10.644400 72.393800
-10.631700 32.726400
-10.618900 101.719000
-10.606200 187.185700
-10.593500 54.539400
-10.580700 51.343700
-10.568000 89.969600
-10.555300 0.000000
-10.542600 0.000000
-10.529800 0.000000
-10.517100 0.000000
-10.504400 0.000000
-10.491700 0.000000
-10.478900 0.000000
-10.466200 0.000000
-10.453500 0.000000
-10.440800 0.000000
-10.428000 0.000000
-10.415300 0.000000
-10.402600 0.000000
-10.389800 0.000000
-10.377100 0.000000
-10.364400 0.000000
-10.351700 0.000000
-10.338900 0.000000
-10.326200 0.000000
-10.313500 0.000000
-10.300800 0.000000
-10.288000 0.000000
-10.275300 0.000000
-10.262600 0.000000
-10.249800 0.000000
-10.237100 0.000000
-10.224400 0.000000
-10.211700 0.000000
-10.198900 0.000000
-10.186200 0.000000
-10.173500 0.000000
-10.160800 0.000000
-10.148000 0.000000
-10.135300 0.000000
-10.122600 0.000000
-10.109900 0.000000
-10.097100 0.000000
-10.084400 0.000000
-10.071700 0.000000
-10.058900 0.000000
-10.046200 0.000000
-10.033500 0.000000
-10.020800 0.000000
-10.008000 0.000000
-9.995300 0.000000
-9.982600 0.000000
-9.969900 0.000000
-9.957100 0.000000
-9.944400 0.000000
-9.931700 0.000000
-9.918900 0.000000
-9.906200 0.000000
-9.893500 0.000000
-9.880800 0.000000
-9.868000 0.000000
-9.855300 0.000000
-9.842600 0.000000
-9.829900 0.000000
-9.817100 0.000000
-9.804400 0.000000
-9.791700 0.000000
-9.779000 0.000000
-9.766200 0.000000
-9.753500 0.000000
-9.740800 0.000000
-9.728000 0.000000
-9.715300 0.000000
-9.702600 0.000000
-9.689900 0.000000
-9.677100 0.000000
-9.664400 0.000000
-9.651700 0.000000
-9.639000 0.000000
-9.626200 0.000000
-9.613500 0.000000
-9.600800 0.000000
-9.588000 0.000000
-9.575300 0.000000
-9.562600 0.000000
-9.549900 0.000000
-9.537100 0.000000
-9.524400 0.000000
-9.511700 0.000000
-9.499000 0.000000
-9.486200 0.000000
-9.473500 0.000000
-9.460800 0.000000
-9.448100 0.000000
-9.435300 0.000000
-9.422600 0.000000
-9.409900 0.000000
-9.397100 0.000000
-9.384400 0.000000
-9.371700 0.000000
-9.359000 0.000000
-9.346200 0.000000
-9.333500 0.000000
-9.320800 0.000000
-9.308100 0.000000
-9.295300 0.000000
-9.282600 0.000000
-9.269900 0.000000
-9.257100 0.000000
-9.244400 0.000000
-9.231700 0.000000
-9.219000 0.000000
-9.206200 0.000000
-9.193500 0.000000
-9.180800 0.000000
-9.168100 0.000000
-9.155300 0.000000
-9.142600 0.000000
-9.129900 0.000000
-9.117200 0.000000
-9.104400 0.000000
-9.091700 0.000000
-9.079000 0.000000
-9.066200 0.000000
-9.053500 0.000000
-9.040800 0.000000
-9.028100 0.000000
-9.015300 0.000000
-9.002600 0.000000
-8.989900 0.000000
-8.977200 0.000000
-8.964400 0.000000
-8.951700 0.000000
-8.939000 0.000000
-8.926300 1.511500
-8.913500 1.673400
-8.900800 3.330200
-8.888100 3.646900
-8.875300 3.963700
-8.862600 4.280400
-8.849900 4.597100
-8.837200 4.913800
-8.824400 5.230500
-8.811700 5.547300
-8.799000 5.864000
-8.786300 6.180700
-8.773500 6.497400
-8.760800 6.814100
-8.748100 7.130900
-8.735300 7.443300
-8.722600 7.461400
-8.709900 7.446900
-8.697200 5.813500
-8.684400 5.710500
-8.671700 5.607400
-8.659000 4.178700
-8.646300 4.146700
-8.633500 4.114800
-8.620800 4.082800
-8.608100 4.050900
-8.595400 4.018900
-8.582600 3.987000
-8.569900 3.955000
-8.557200 3.923100
-8.544400 3.891100
-8.531700 3.859200
-8.519000 3.827200
-8.506300 3.795300
-8.493500 3.763300
-8.480800 3.731400
-8.468100 3.699400
-8.455400 3.667500
-8.442600 3.635500
-8.429900 3.603600
-8.417200 3.571600
-8.404400 3.539700
-8.391700 3.507800
-8.379000 3.475800
-8.366300 3.443900
-8.353500 3.411900
-8.340800 3.477000
-8.328100 3.560300
-8.315400 3.718800
-8.302600 3.908300
-8.289900 4.230000
-8.277200 4.733200
-8.264500 5.236400
-8.251700 5.916200
-8.239000 6.702800
-8.226300 7.489400
-8.213500 21.124800
-8.200800 20.426200
-8.188100 14.082900
-8.175400 13.943400
-8.162600 15.382000
-8.149900 15.030800
-8.137200 7.778600
-8.124500 9.529800
-8.111700 9.709500
-8.099000 9.889100
-8.086300 10.068800
-8.073500 10.248400
-8.060800 10.428000
-8.048100 10.607700
-8.035400 10.787300
-8.022600 10.966900
-8.009900 11.146600
-7.997200 11.326200
-7.984500 11.505900
-7.971700 11.685500
-7.959000 9.977800
-7.946300 14.719200
-7.933600 16.586900
-7.920800 16.449300
-7.908100 12.808800
-7.895400 10.596300
-7.882600 3.313300
-7.869900 8.145000
-7.857200 9.053000
-7.844500 9.960900
-7.831700 8.565000
-7.819000 6.796300
-7.806300 5.027500
-7.793600 0.000000
-7.780800 0.000000
-7.768100 0.000000
-7.755400 0.000000
-7.742600 0.000000
-7.729900 0.000000
-7.717200 0.000000
-7.704500 0.000000
-7.691700 0.000000
-7.679000 0.000000
-7.666300 0.000000
-7.653600 0.000000
-7.640800 0.000000
-7.628100 0.000000
-7.615400 0.000000
-7.602700 0.000000
-7.589900 6.227700
-7.577200 6.554500
-7.564500 6.881300
-7.551700 7.208000
-7.539000 1.412600
-7.526300 8.083900
-7.513600 8.448700
-7.500800 8.813500
-7.488100 9.178300
-7.475400 2.897300
-7.462700 2.894500
-7.449900 2.891800
-7.437200 2.889100
-7.424500 2.886400
-7.411800 19.047900
-7.399000 4.266500
-7.386300 4.263500
-7.373600 4.260600
-7.360800 4.257700
-7.348100 4.254800
-7.335400 23.142500
-7.322700 24.209200
-7.309900 5.728800
-7.297200 5.725300
-7.284500 5.721800
-7.271800 5.718300
-7.259000 5.714700
-7.246300 5.711200
-7.233600 5.707700
-7.220800 5.704200
-7.208100 5.700700
-7.195400 5.697200
-7.182700 5.693600
-7.169900 5.690100
-7.157200 5.691000
-7.144500 5.767700
-7.131800 5.844400
-7.119000 5.921100
-7.106300 6.069200
-7.093600 6.217200
-7.080900 6.365300
-7.068100 6.513400
-7.055400 6.661400
-7.042700 6.809500
-7.029900 6.957500
-7.017200 7.079100
-7.004500 7.157100
-6.991800 7.235100
-6.979000 7.249700
-6.966300 7.264100
-6.953600 7.296800
-6.940900 7.433300
-6.928100 7.569700
-6.915400 7.706100
-6.902700 7.911700
-6.889900 8.018800
-6.877200 8.117500
-6.864500 8.216200
-6.851800 8.314900
-6.839000 8.413500
-6.826300 12.874800
-6.813600 12.467900
-6.800900 12.061000
-6.788100 11.654000
-6.775400 15.573500
-6.762700 14.755000
-6.750000 9.660700
-6.737200 9.257700
-6.724500 8.854700
-6.711800 3.892800
-6.699000 3.895000
-6.686300 3.897200
-6.673600 3.899400
-6.660900 3.901600
-6.648100 3.903800
-6.635400 3.906000
-6.622700 3.908200
-6.610000 3.910400
-6.597200 3.912600
-6.584500 25.454500
-6.571800 23.871900
-6.559000 9.314400
-6.546300 8.746900
-6.533600 8.179400
-6.520900 7.611900
-6.508100 0.000000
-6.495400 0.000000
-6.482700 0.000000
-6.470000 0.000000
-6.457200 0.000000
-6.444500 0.000000
-6.431800 0.000000
-6.419100 0.000000
-6.406300 0.000000
-6.393600 0.000000
-6.380900 0.000000
-6.368100 0.000000
-6.355400 0.000000
-6.342700 0.000000
-6.330000 0.000000
-6.317200 0.000000
-6.304500 0.000000
-6.291800 0.000000
-6.279100 0.000000
-6.266300 0.000000
-6.253600 0.000000
-6.240900 0.000000
-6.228100 0.000000
-6.215400 0.000000
-6.202700 0.000000
-6.190000 0.000000
-6.177200 0.000000
-6.164500 0.000000
-6.151800 0.000000
-6.139100 0.000000
-6.126300 0.000000
-6.113600 0.000000
-6.100900 0.000000
-6.088200 0.000000
-6.075400 0.000000
-6.062700 0.000000
-6.050000 0.000000
-6.037200 0.000000
-6.024500 0.000000
-6.011800 0.000000
-5.999100 0.000000
-5.986300 0.000000
-5.973600 0.000000
-5.960900 0.000000
-5.948200 0.000000
-5.935400 0.000000
-5.922700 0.000000
-5.910000 0.000000
-5.897200 0.000000
-5.884500 0.000000
-5.871800 0.000000
-5.859100 0.000000
-5.846300 0.000000
-5.833600 0.000000
-5.820900 0.000000
-5.808200 0.000000
-5.795400 0.000000
-5.782700 0.000000
-5.770000 0.000000
-5.757300 0.000000
-5.744500 0.000000
-5.731800 0.000000
-5.719100 0.000000
-5.706300 0.000000
-5.693600 0.000000
-5.680900 0.000000
-5.668200 0.000000
-5.655400 0.000000
-5.642700 0.000000
-5.630000 0.000000
-5.617300 0.000000
-5.604500 0.000000
-5.591800 0.000000
-5.579100 0.000000
-5.566400 0.000000
-5.553600 0.000000
-5.540900 0.000000
-5.528200 0.000000
-5.515400 0.000000
-5.502700 0.000000
-5.490000 0.000000
-5.477300 0.000000
-5.464500 0.000000
-5.451800 0.000000
-5.439100 0.000000
-5.426400 0.000000
-5.413600 0.000000
-5.400900 0.000000
-5.388200 0.000000
-5.375400 0.000000
-5.362700 0.000000
-5.350000 0.000000
-5.337300 0.000000
-5.324500 0.000000
-5.311800 0.000000
-5.299100 0.000000
-5.286400 0.000000
-5.273600 0.000000
-5.260900 0.000000
-5.248200 0.000000
-5.235500 0.000000
-5.222700 0.000000
-5.210000 0.000000
-5.197300 0.000000
-5.184500 0.000000
-5.171800 0.000000
-5.159100 0.000000
-5.146400 0.000000
-5.133600 0.000000
-5.120900 0.000000
-5.108200 0.000000
-5.095500 0.000000
-5.082700 0.000000
-5.070000 0.000000
-5.057300 0.000000
-5.044500 0.000000
-5.031800 0.000000
-5.019100 0.000000
-5.006400 0.000000
-4.993600 0.000000
-4.980900 0.000000
-4.968200 0.000000
-4.955500 0.000000
-4.942700 0.000000
-4.930000 0.000000
-4.917300 0.000000
-4.904600 0.000000
-4.891800 0.000000
-4.879100 0.000000
-4.866400 0.000000
-4.853600 0.000000
-4.840900 0.000000
-4.828200 0.000000
-4.815500 0.000000
-4.802700 0.000000
-4.790000 0.000000
-4.777300 0.000000
-4.764600 0.000000
-4.751800 0.000000
-4.739100 0.000000
-4.726400 0.000000
-4.713600 0.000000
-4.700900 0.000000
-4.688200 0.000000
-4.675500 0.000000
-4.662700 0.000000
-4.650000 0.000000
-4.637300 0.000000
-4.624600 0.000000
-4.611800 0.000000
-4.599100 0.000000
-4.586400 0.000000
-4.573700 0.000000
-4.560900 0.000000
-4.548200 0.000000
-4.535500 0.000000
-4.522700 0.000000
-4.510000 0.000000
-4.497300 0.000000
-4.484600 0.000000
-4.471800 0.000000
-4.459100 0.000000
-4.446400 0.000000
-4.433700 0.000000
-4.420900 0.000000
-4.408200 0.000000
-4.395500 0.000000
-4.382700 0.000000
-4.370000 0.000000
-4.357300 0.000000
-4.344600 0.000000
-4.331800 0.000000
-4.319100 0.000000
-4.306400 0.000000
-4.293700 0.000000
-4.280900 0.000000
-4.268200 0.000000
-4.255500 0.000000
-4.242800 0.000000
-4.230000 0.000000
-4.217300 0.000000
-4.204600 0.000000
-4.191800 0.000000
-4.179100 0.000000
-4.166400 0.000000
-4.153700 0.000000
-4.140900 0.000000
-4.128200 0.000000
-4.115500 0.000000
-4.102800 0.000000
-4.090000 0.000000
-4.077300 0.000000
-4.064600 0.000000
-4.051900 0.000000
-4.039100 0.000000
-4.026400 0.000000
-4.013700 0.000000
-4.000900 0.000000
-3.988200 0.000000
-3.975500 0.000000
-3.962800 0.000000
-3.950000 0.000000
-3.937300 0.000000
-3.924600 0.000000
-3.911900 0.000000
-3.899100 0.000000
-3.886400 0.000000
-3.873700 0.000000
-3.860900 0.000000
-3.848200 0.000000
-3.835500 0.000000
-3.822800 0.000000
-3.810000 0.000000
-3.797300 0.000000
-3.784600 0.000000
-3.771900 0.000000
-3.759100 0.000000
-3.746400 0.000000
-3.733700 0.000000
-3.721000 0.000000
-3.708200 0.000000
-3.695500 0.000000
-3.682800 0.000000
-3.670000 0.000000
-3.657300 0.000000
-3.644600 0.000000
-3.631900 0.000000
-3.619100 0.000000
-3.606400 0.000000
-3.593700 0.000000
-3.581000 0.000000
-3.568200 0.000000
-3.555500 0.000000
-3.542800 0.000000
-3.530000 0.000000
-3.517300 0.000000
-3.504600 0.000000
-3.491900 0.000000
-3.479100 0.000000
-3.466400 0.000000
-3.453700 0.000000
-3.441000 0.000000
-3.428200 0.000000
-3.415500 0.000000
-3.402800 0.000000
-3.390100 0.000000
-3.377300 0.000000
-3.364600 0.000000
-3.351900 0.000000
-3.339100 0.000000
-3.326400 0.000000
-3.313700 0.000000
-3.301000 0.000000
-3.288200 0.000000
-3.275500 0.000000
-3.262800 0.000000
-3.250100 0.000000
-3.237300 0.000000
-3.224600 0.000000
-3.211900 0.000000
-3.199100 0.000000
-3.186400 0.000000
-3.173700 0.000000
-3.161000 0.000000
-3.148200 4.897000
-3.135500 5.456800
-3.122800 6.016700
-3.110100 6.576600
-3.097300 12.026400
-3.084600 13.104700
-3.071900 12.564100
-3.059200 13.396300
-3.046400 14.228500
-3.033700 15.060600
-3.021000 10.828000
-3.008200 13.743900
-2.995500 14.299200
-2.982800 14.854600
-2.970100 11.581000
-2.957300 153.245100
-2.944600 24.312500
-2.931900 23.121300
-2.919200 21.481900
-2.906400 18.773800
-2.893700 16.065600
-2.881000 34.564300
-2.868200 40.957400
-2.855500 28.051200
-2.842800 15.247100
-2.830100 4.695800
-2.817300 4.701500
-2.804600 4.707300
-2.791900 4.713000
-2.779200 5.111300
-2.766400 7.409800
-2.753700 9.708400
-2.741000 12.006900
-2.728300 28.166400
-2.715500 30.060500
-2.702800 17.833700
-2.690100 11.182700
-2.677300 9.744200
-2.664600 11.233800
-2.651900 12.723400
-2.639200 14.082400
-2.626400 27.783000
-2.613700 27.961100
-2.601000 19.865300
-2.588300 11.310600
-2.575500 13.435800
-2.562800 14.996500
-2.550100 15.787300
-2.537400 15.226900
-2.524600 14.666500
-2.511900 13.362200
-2.499200 10.406200
-2.486400 9.443700
-2.473700 8.481100
-2.461000 7.518600
-2.448300 8.327400
-2.435500 7.237500
-2.422800 9.142200
-2.410100 10.509100
-2.397400 10.548300
-2.384600 10.587500
-2.371900 10.626700
-2.359200 10.665900
-2.346400 10.705200
-2.333700 23.195100
-2.321000 20.776500
-2.308300 56.283300
-2.295500 13.987200
-2.282800 14.330900
-2.270100 14.674700
-2.257400 15.018500
-2.244600 13.638600
-2.231900 14.882000
-2.219200 17.965000
-2.206500 18.595400
-2.193700 21.420900
-2.181000 21.234000
-2.168300 21.047200
-2.155500 20.860300
-2.142800 18.959400
-2.130100 17.068300
-2.117400 17.254000
-2.104600 17.439800
-2.091900 17.625600
-2.079200 21.245700
-2.066500 24.590200
-2.053700 22.256000
-2.041000 27.868200
-2.028300 20.838100
-2.015500 21.058400
-2.002800 21.360500
-1.990100 21.662600
-1.977400 11.747900
-1.964600 11.897300
-1.951900 12.115300
-1.939200 13.632400
-1.926500 11.978500
-1.913700 10.324700
-1.901000 34.672100
-1.888300 49.851900
-1.875600 24.266100
-1.862800 20.109800
-1.850100 15.953500
-1.837400 11.797100
-1.824600 10.614700
-1.811900 10.122900
-1.799200 20.546000
-1.786500 21.314900
-1.773700 9.043600
-1.761000 6.591000
-1.748300 16.151200
-1.735600 16.687000
-1.722800 17.222700
-1.710100 8.073500
-1.697400 8.021200
-1.684600 7.968900
-1.671900 7.916600
-1.659200 7.864300
-1.646500 31.318200
-1.633700 5.384600
-1.621000 5.331400
-1.608300 5.278300
-1.595600 5.257400
-1.582800 5.446200
-1.570100 5.635000
-1.557400 5.823800
-1.544700 6.012700
-1.531900 4.105600
-1.519200 4.293600
-1.506500 4.481600
-1.493700 4.669600
-1.481000 4.857600
-1.468300 5.045600
-1.455600 11.004800
-1.442800 11.557900
-1.430100 19.232600
-1.417400 20.258000
-1.404700 23.712700
-1.391900 18.952200
-1.379200 15.174600
-1.366500 14.862700
-1.353700 14.550800
-1.341000 14.238900
-1.328300 13.927000
-1.315600 13.615200
-1.302800 13.303300
-1.290100 12.991400
-1.277400 12.679500
-1.264700 9.971700
-1.251900 6.920800
-1.239200 6.200300
-1.226500 5.716600
-1.213800 5.233000
-1.201000 4.749300
-1.188300 4.265600
-1.175600 3.781900
-1.162800 3.298300
-1.150100 3.019900
-1.137400 3.010000
-1.124700 3.000200
-1.111900 3.179500
-1.099200 4.406600
-1.086500 5.633700
-1.073800 6.860800
-1.061000 11.494400
-1.048300 11.351900
-1.035600 11.209400
-1.022900 11.066900
-1.010100 18.645000
-0.997400 25.143600
-0.984700 19.393900
-0.971900 17.020300
-0.959200 8.339300
-0.946500 10.090500
-0.933800 9.789300
-0.921000 10.874800
-0.908300 11.403100
-0.895600 11.966200
-0.882900 12.338800
-0.870100 12.711300
-0.857400 13.031300
-0.844700 13.065500
-0.831900 13.099800
-0.819200 13.134100
-0.806500 13.168400
-0.793800 10.967900
-0.781000 11.805100
-0.768300 11.437400
-0.755600 11.332300
-0.742900 11.297200
-0.730100 11.262000
-0.717400 11.877700
-0.704700 12.493700
-0.692000 13.109800
-0.679200 13.725800
-0.666500 14.341900
-0.653800 18.521700
-0.641000 17.988800
-0.628300 17.513700
-0.615600 17.038600
-0.602900 16.563500
-0.590100 16.088400
-0.577400 14.400000
-0.564700 18.864300
-0.552000 15.156500
-0.539200 22.615400
-0.526500 21.526100
-0.513800 21.929900
-0.501000 22.333600
-0.488300 13.880900
-0.475600 11.693000
-0.462900 16.489800
-0.450100 14.389600
-0.437400 12.716300
-0.424700 3.542500
-0.412000 3.566500
-0.399200 3.590400
-0.386500 8.493400
-0.373800 12.946100
-0.361100 14.639600
-0.348300 16.333200
-0.335600 18.026800
-0.322900 28.404200
-0.310100 30.659500
-0.297400 17.985400
-0.284700 15.364300
-0.272000 12.743200
-0.259200 10.122100
-0.246500 5.813200
-0.233800 11.158000
-0.221100 19.216200
-0.208300 15.381300
-0.195600 15.155000
-0.182900 14.928700
-0.170100 14.702400
-0.157400 40.921800
-0.144700 9.301700
-0.132000 8.110400
-0.119200 11.416900
-0.106500 11.314800
-0.093800 6.676300
-0.081100 7.765500
-0.068300 8.854700
-0.055600 9.943800
-0.042900 47.298900
-0.030200 34.255300
-0.017400 11.882600
-0.004700 10.300800
0.008000 8.718900
0.020800 7.137100
0.033500 5.555200
0.046200 8.433500
0.058900 8.307200
0.071700 8.181000
0.084400 8.826900
0.097100 10.282500
0.109800 11.738100
0.122600 17.942700
0.135300 26.242800
0.148000 30.489300
0.160800 23.078400
0.173500 10.483200
0.186200 0.000000
0.198900 0.000000
0.211700 0.000000
0.224400 0.000000
0.237100 0.000000
0.249800 0.000000
0.262600 0.000000
0.275300 0.000000
0.288000 0.000000
0.300700 0.000000
0.313500 5.235100
0.326200 17.662800
0.338900 18.696200
0.351700 19.729600
0.364400 20.763000
0.377100 14.850200
0.389800 9.447900
0.402600 8.534400
0.415300 19.952300
0.428000 36.406800
0.440700 19.657800
0.453500 7.744000
0.466200 7.723800
0.478900 7.703700
0.491600 7.683500
0.504400 10.568300
0.517100 17.547300
0.529800 24.799900
0.542600 19.026900
0.555300 13.253900
0.568000 0.000000
0.580700 22.055500
0.593500 34.934200
0.606200 20.522200
0.618900 10.998900
0.631600 9.379300
0.644400 29.670900
0.657100 33.796500
0.669800 33.303400
0.682600 23.274100
0.695300 19.754800
0.708000 12.251100
0.720700 27.401700
0.733500 19.991800
0.746200 40.232300
0.758900 10.763700
0.771600 8.975000
0.784400 15.265800
0.797100 22.616900
0.809800 43.979400
0.822500 51.799500
0.835300 35.121500
0.848000 26.517000
0.860700 26.768200
0.873500 18.769800
0.886200 19.929300
0.898900 30.135300
0.911600 24.642900
0.924400 18.028400
0.937100 19.035100
0.949800 19.713600
0.962500 32.074300
0.975300 39.644600
0.988000 45.255800
1.000700 32.253800
1.013500 30.568100
1.026200 28.445400
1.038900 20.541000
1.051600 14.147500
1.064400 11.733200
1.077100 13.034300
1.089800 37.085900
1.102500 84.050800
1.115300 6.754300
1.128000 7.370000
1.140700 10.494400
1.153400 16.800400
1.166200 23.106500
1.178900 24.744600
1.191600 33.683900
1.204400 28.380100
1.217100 17.587800
1.229800 54.773200
1.242500 16.950700
1.255300 15.358400
1.268000 26.049000
1.280700 28.992500
1.293400 31.936100
1.306200 8.734000
1.318900 9.076800
1.331600 12.748500
1.344400 29.941200
1.357100 28.282400
1.369800 11.448400
1.382500 8.666400
1.395300 5.884500
1.408000 3.102500
1.420700 0.320600
1.433400 0.000000
1.446200 0.000000
1.458900 0.000000
1.471600 0.000000
1.484300 0.000000
1.497100 0.000000
1.509800 0.000000
1.522500 0.000000
1.535300 0.000000
1.548000 0.000000
1.560700 0.000000
1.573400 0.000000
1.586200 0.000000
1.598900 0.000000
1.611600 0.000000
1.624300 0.000000
1.637100 0.000000
1.649800 0.000000
1.662500 0.000000
1.675300 0.000000
1.688000 0.000000
1.700700 0.000000
1.713400 0.000000
1.726200 0.000000
1.738900 0.000000
1.751600 0.000000
1.764300 0.000000
1.777100 0.000000
1.789800 0.000000
1.802500 0.000000
1.815200 0.000000
1.828000 0.000000
1.840700 0.000000
1.853400 0.000000
1.866200 0.000000
1.878900 0.000000
1.891600 0.000000
1.904300 0.000000
1.917100 0.000000
1.929800 0.000000
1.942500 0.000000
1.955200 0.000000
1.968000 0.000000
1.980700 0.000000
1.993400 0.000000
2.006100 0.000000
2.018900 0.000000
2.031600 0.000000
2.044300 0.000000
2.057100 0.000000
2.069800 0.000000
2.082500 0.000000
2.095200 0.000000
2.108000 0.000000
2.120700 0.000000
2.133400 0.000000
2.146100 0.000000
2.158900 0.000000
2.171600 0.000000
2.184300 0.000000
2.197100 0.000000
2.209800 0.000000
2.222500 0.000000
2.235200 0.000000
2.248000 0.000000
2.260700 0.000000
2.273400 0.000000
2.286100 0.000000
2.298900 0.000000
2.311600 0.000000
2.324300 0.000000
2.337000 0.000000
2.349800 0.000000
2.362500 0.000000
2.375200 0.000000
2.388000 0.000000
2.400700 0.000000
2.413400 0.000000
2.426100 0.000000
2.438900 0.000000
2.451600 0.000000
2.464300 0.000000
2.477000 0.000000
2.489800 0.000000
2.502500 0.000000
2.515200 0.000000
2.528000 0.000000
2.540700 0.000000
2.553400 0.000000
2.566100 0.000000
2.578900 0.000000
2.591600 0.000000
2.604300 0.000000
2.617000 0.000000
2.629800 0.000000
2.642500 0.000000
2.655200 0.000000
2.667900 0.000000
2.680700 0.000000
2.693400 0.000000
2.706100 0.000000
2.718900 0.000000
2.731600 0.000000
2.744300 0.000000
2.757000 0.000000
2.769800 0.000000
2.782500 0.000000
2.795200 0.000000
2.807900 0.000000
2.820700 0.000000
2.833400 0.000000
2.846100 0.000000
2.858900 0.000000
2.871600 0.000000
2.884300 0.000000
2.897000 0.000000
2.909800 0.000000
2.922500 0.000000
2.935200 0.000000
2.947900 0.000000
2.960700 0.000000
2.973400 3.043500
2.986100 3.639400
2.998800 4.235400
3.011600 4.831300
3.024300 5.427200
3.037000 6.023200
3.049800 6.619100
3.062500 7.215000
3.075200 7.810900
3.087900 8.776200
3.100700 6.330300
3.113400 5.602000
3.126100 4.873700
3.138800 4.145400
3.151600 3.417100
3.164300 2.688800
3.177000 2.026500
3.189800 5.588900
3.202500 7.498300
3.215200 7.541000
3.227900 7.583600
3.240700 7.626200
3.253400 7.668800
3.266100 7.711500
3.278800 7.754100
3.291600 7.796700
3.304300 7.839400
3.317000 7.882000
3.329700 7.924600
3.342500 5.712600
3.355200 5.658100
3.367900 5.603600
3.380700 5.549100
3.393400 6.397900
3.406100 7.267700
3.418800 8.137500
3.431600 9.007300
3.444300 13.694600
3.457000 37.663700
3.469700 11.446600
3.482500 11.371200
3.495200 11.295800
3.507900 11.220400
3.520600 11.144900
3.533400 9.448100
3.546100 17.730500
3.558800 3.701400
3.571600 16.537900
3.584300 19.496800
3.597000 9.755200
3.609700 8.054200
3.622500 6.353200
3.635200 13.215000
3.647900 13.539400
3.660600 13.863800
3.673400 6.631800
3.686100 6.679400
3.698800 6.737100
3.711600 84.610000
3.724300 8.666900
3.737000 8.724600
3.749700 8.782300
3.762500 8.840000
3.775200 8.897700
3.787900 8.955400
3.800600 9.013100
3.813400 9.070800
3.826100 26.453600
3.838800 24.619300
3.851500 6.358100
3.864300 13.121500
3.877000 13.773600
3.889700 14.425700
3.902500 15.077700
3.915200 11.469300
3.927900 12.271600
3.940600 13.074000
3.953400 13.876300
3.966100 14.678700
3.978800 31.707600
3.991500 28.395900
4.004300 11.272800
4.017000 14.048400
4.029700 13.922100
4.042500 19.121600
4.055200 16.908100
4.067900 17.142000
4.080600 18.716900
4.093400 20.972300
4.106100 29.012600
4.118800 29.972100
4.131500 18.336000
4.144300 18.002900
4.157000 17.669900
4.169700 17.336800
4.182400 21.522700
4.195200 21.551600
4.207900 21.570400
4.220600 23.522600
4.233400 23.322700
4.246100 30.240900
4.258800 25.931300
4.271500 25.818500
4.284300 24.083400
4.297000 34.900100
4.309700 17.853900
4.322400 17.451600
4.335200 17.075400
4.347900 16.811600
4.360600 16.570900
4.373400 20.639500
4.386100 19.912800
4.398800 47.844300
4.411500 18.129200
4.424300 17.606300
4.437000 12.501800
4.449700 12.461900
4.462400 12.454100
4.475200 12.447700
4.487900 12.441200
4.500600 12.434800
4.513300 38.043700
4.526100 38.244400
4.538800 21.008700
4.551500 11.666300
4.564300 11.729000
4.577000 11.791800
4.589700 11.854500
4.602400 15.009900
4.615200 14.840600
4.627900 14.673500
4.640600 14.508300
4.653300 14.343100
4.666100 14.177800
4.678800 14.012600
4.691500 13.847300
4.704300 10.592200
4.717000 16.743100
4.729700 26.510200
4.742400 26.300900
4.755200 26.091600
4.767900 11.070600
4.780600 11.654100
4.793300 18.725300
4.806100 18.801900
4.818800 18.905500
4.831500 18.654800
4.844200 11.859100
4.857000 11.995100
4.869700 12.131100
4.882400 12.368800
4.895200 12.794400
4.907900 13.327500
4.920600 36.499800
4.933300 13.777100
4.946100 30.966700
4.958800 28.803100
4.971500 11.666300
4.984200 12.530700
4.997000 13.395100
5.009700 14.247800
5.022400 15.063400
5.035100 21.408500
5.047900 22.829500
5.060600 21.285500
5.073300 22.396700
5.086100 87.029700
5.098800 18.305000
5.111500 18.999000
5.124200 19.680000
5.137000 20.361000
5.149700 23.203400
5.162400 19.558600
5.175100 16.769300
5.187900 17.727300
5.200600 18.685300
5.213300 19.643300
5.226100 40.806600
5.238800 38.342600
5.251500 17.878000
5.264200 18.499800
5.277000 33.496100
5.289700 10.583500
5.302400 10.995700
5.315100 9.144200
5.327900 9.350400
5.340600 9.556700
5.353300 9.763000
5.366000 9.969300
5.378800 10.175600
5.391500 10.381900
5.404200 13.614600
5.417000 14.623200
5.429700 15.806100
5.442400 85.496700
5.455100 14.297100
5.467900 36.264300
5.480600 28.105900
5.493300 11.761300
5.506000 11.936200
5.518800 9.199000
5.531500 9.450300
5.544200 10.025900
5.557000 10.902500
5.569700 12.808800
5.582400 14.862000
5.595100 16.915200
5.607900 8.406100
5.620600 9.049700
5.633300 9.693200
5.646000 13.565400
5.658800 14.272300
5.671500 14.979300
5.684200 15.041300
5.696900 14.487800
5.709700 13.914700
5.722400 13.341500
5.735100 19.805100
5.747900 14.697700
5.760600 13.277700
5.773300 11.857600
5.786000 3.878500
5.798800 15.592000
5.811500 19.774100
5.824200 13.995900
5.836900 20.332800
5.849700 26.630700
5.862400 52.810300
5.875100 10.590800
5.887900 11.315900
5.900600 12.041100
5.913300 12.766200
5.926000 12.416000
5.938800 11.760100
5.951500 11.104200
5.964200 10.448300
5.976900 9.792400
5.989700 9.136500
6.002400 8.480600
6.015100 5.950900
6.027800 5.717300
6.040600 5.483600
6.053300 5.250000
6.066000 5.016300
6.078800 4.782700
6.091500 4.549000
6.104200 4.315400
6.116900 4.081700
6.129700 2.282700
6.142400 2.287300
6.155100 2.291900
6.167800 2.296600
6.180600 0.000000
6.193300 0.000000
6.206000 0.000000
6.218800 0.000000
6.231500 0.000000
6.244200 0.000000
6.256900 0.000000
6.269700 0.000000
6.282400 0.000000
6.295100 0.000000
6.307800 0.000000
6.320600 0.000000
6.333300 0.000000
6.346000 0.000000
6.358700 0.000000
6.371500 0.000000
6.384200 0.000000
6.396900 0.000000
6.409700 0.000000
6.422400 0.000000
6.435100 0.000000
6.447800 0.000000
6.460600 0.000000
6.473300 0.000000
6.486000 0.000000
6.498700 0.000000
6.511500 0.000000
6.524200 0.000000
6.536900 0.000000
6.549600 0.000000
6.562400 0.000000
6.575100 0.000000
6.587800 0.000000
6.600600 0.000000
6.613300 0.000000
6.626000 0.000000
6.638700 0.000000
6.651500 0.000000
6.664200 0.000000
6.676900 0.000000
6.689600 0.000000
6.702400 0.000000
6.715100 0.000000
6.727800 0.000000
6.740600 0.000000
6.753300 0.000000
6.766000 0.000000
6.778700 0.000000
6.791500 0.000000
6.804200 0.000000
6.816900 0.000000
6.829600 0.000000
6.842400 0.000000
6.855100 0.000000
6.867800 0.000000
6.880500 0.000000
6.893300 0.000000
6.906000 0.000000
6.918700 0.000000
6.931500 0.000000
6.944200 0.000000
6.956900 0.000000
6.969600 0.000000
6.982400 0.000000
6.995100 0.000000
7.007800 0.000000
7.020500 0.000000
7.033300 0.000000
7.046000 0.000000
7.058700 0.000000
7.071500 0.000000
7.084200 0.000000
7.096900 0.000000
7.109600 0.000000
7.122400 0.000000
7.135100 0.000000
7.147800 0.000000
7.160500 0.000000
7.173300 0.000000
7.186000 0.000000
7.198700 0.000000
7.211400 0.000000
7.224200 0.000000
7.236900 0.000000
7.249600 0.000000
7.262400 0.000000
7.275100 0.000000
7.287800 0.000000
7.300500 0.000000
7.313300 0.000000
7.326000 0.000000
7.338700 0.000000
7.351400 0.000000
7.364200 0.000000
7.376900 0.000000
7.389600 0.000000
7.402400 0.000000
7.415100 0.000000
7.427800 0.000000
7.440500 0.000000
7.453300 0.000000
7.466000 0.000000
7.478700 0.000000
7.491400 0.000000
7.504200 0.000000
7.516900 0.000000
7.529600 0.000000
7.542300 0.000000
7.555100 0.000000
7.567800 0.000000
7.580500 0.000000
7.593300 0.000000
7.606000 0.000000
7.618700 0.000000
7.631400 0.000000
7.644200 0.000000
7.656900 0.000000
7.669600 0.000000
7.682300 0.000000
7.695100 0.000000
7.707800 0.000000
7.720500 0.000000
7.733300 0.000000
7.746000 0.000000
7.758700 0.000000
7.771400 0.000000
7.784200 0.000000
7.796900 0.000000
7.809600 1.622500
7.822300 4.531700
7.835100 7.440800
7.847800 20.695800
7.860500 20.609400
7.873200 20.523100
7.886000 8.992600
7.898700 8.499400
7.911400 8.006200
7.924200 7.513000
7.936900 9.575200
7.949600 19.457100
7.962300 21.972100
7.975100 17.225300
7.987800 5.054400
8.000500 5.679100
8.013200 6.781700
8.026000 11.881400
8.038700 17.883100
8.051400 17.896000
8.064100 17.908900
8.076900 17.921900
8.089600 17.934800
8.102300 11.262400
8.115100 8.591000
8.127800 5.919600
8.140500 3.987500
8.153200 5.139200
8.166000 6.665200
8.178700 8.191300
8.191400 9.717300
8.204100 11.889600
8.216900 10.783900
8.229600 9.678200
8.242300 8.572500
8.255100 7.466700
8.267800 10.425500
8.280500 10.588300
8.293200 10.751000
8.306000 10.913700
8.318700 11.076500
8.331400 11.239200
8.344100 11.609100
8.356900 12.501800
8.369600 9.150000
8.382300 12.956800
8.395000 12.647500
8.407800 12.338100
8.420500 12.028700
8.433200 12.157700
8.446000 12.504000
8.458700 16.673700
8.471400 13.653700
8.484100 14.697400
8.496900 14.975100
8.509600 14.125900
8.522300 13.276600
8.535000 14.407500
8.547800 13.354400
8.560500 9.687100
8.573200 9.938500
8.586000 10.189900
8.598700 10.441200
8.611400 10.692600
8.624100 16.182500
8.636900 16.474300
8.649600 16.766200
8.662300 17.058100
8.675000 20.741800
8.687800 13.143300
8.700500 8.235600
8.713200 7.357500
8.725900 7.210700
8.738700 7.064000
8.751400 6.917300
8.764100 3.294800
8.776900 3.468800
8.789600 3.642800
8.802300 3.816800
8.815000 0.000000
8.827800 0.000000
8.840500 0.000000
8.853200 97.495700
8.865900 5.184500
8.878700 5.178000
8.891400 5.171500
8.904100 7.730900
8.916900 12.057100
8.929600 16.383200
8.942300 47.760900
8.955000 20.568800
8.967800 48.345000
8.980500 41.134700
8.993200 35.499200
9.005900 15.857400
9.018700 10.417000
9.031400 7.072100
9.044100 10.536300
9.056800 9.902800
9.069600 9.269200
9.082300 8.635600
9.095000 96.851100
9.107800 29.010800
9.120500 20.477600
9.133200 13.202300
9.145900 12.066800
9.158700 11.793800
9.171400 11.520700
9.184100 11.247600
9.196800 10.898400
9.209600 10.231800
9.222300 9.565100
9.235000 8.898400
9.247800 9.448500
9.260500 21.423700
9.273200 28.502900
9.285900 27.105500
9.298700 25.708200
9.311400 9.794600
9.324100 9.463500
9.336800 9.132400
9.349600 8.801300
9.362300 14.836200
9.375000 14.454800
9.387700 36.704400
9.400500 11.144400
9.413200 10.762700
9.425900 10.381000
9.438700 9.999300
9.451400 9.120900
9.464100 35.570200
9.476800 10.681500
9.489600 10.049300
9.502300 10.048700
9.515000 10.048000
9.527700 16.750600
9.540500 16.194500
9.553200 15.638500
9.565900 15.082400
9.578600 7.920800
9.591400 7.918800
9.604100 10.101100
9.616800 10.700900
9.629600 11.205900
9.642300 11.710900
9.655000 12.546400
9.667700 13.649300
9.680500 18.279200
9.693200 18.636600
9.705900 22.275800
9.718600 21.607300
9.731400 20.544600
9.744100 19.482000
9.756800 14.503600
9.769600 13.732800
9.782300 11.650300
9.795000 12.091200
9.807700 26.572900
9.820500 22.826400
9.833200 8.066000
9.845900 8.193000
9.858600 8.320000
9.871400 8.447100
9.884100 8.574100
9.896800 7.852700
9.909500 6.936800
9.922300 20.739900
9.935000 19.206400
9.947700 3.536200
9.960500 3.531800
9.973200 3.527400
9.985900 3.523000
9.998600 3.518600
10.011400 3.514200
10.024100 3.509800
10.036800 3.505300
10.049500 3.500900
10.062300 6.263100
10.075000 6.084200
10.087700 5.905400
10.100500 5.726500
10.113200 5.547600
10.125900 5.368700
10.138600 5.189800
10.151400 5.010900
10.164100 4.832100
10.176800 1.894900
10.189500 1.892200
10.202300 1.889500
10.215000 4.945100
10.227700 4.709100
10.240400 4.473100
10.253200 4.237100
10.265900 4.001100
10.278600 3.765100
10.291400 3.529100
10.304100 3.293100
10.316800 0.000000
10.329500 0.000000
10.342300 0.000000
10.355000 0.000000
10.367700 0.000000
10.380400 0.000000
10.393200 0.000000
10.405900 0.000000
10.418600 0.000000
10.431400 0.000000
10.444100 0.000000
10.456800 0.000000
10.469500 0.000000
10.482300 0.000000
10.495000 0.000000
10.507700 0.000000
10.520400 0.000000
10.533200 0.000000
10.545900 0.000000
10.558600 0.000000
10.571300 0.000000
10.584100 0.000000
10.596800 0.000000
10.609500 0.000000
10.622300 0.000000
10.635000 0.000000
10.647700 0.000000
10.660400 0.000000
10.673200 0.000000
10.685900 0.000000
10.698600 0.000000
10.711300 0.000000
10.724100 0.000000
10.736800 0.000000
10.749500 0.000000
10.762300 0.000000
10.775000 0.000000
10.787700 0.000000
10.800400 0.000000
10.813200 0.000000
10.825900 0.000000
10.838600 0.000000
10.851300 0.000000
10.864100 0.000000
10.876800 0.000000
10.889500 0.000000
10.902200 0.000000
10.915000 0.000000
10.927700 0.000000
10.940400 0.000000
10.953200 0.000000
10.965900 0.000000
10.978600 0.000000
10.991300 0.000000
11.004100 0.000000
11.016800 0.000000
11.029500 0.000000
11.042200 0.000000
11.055000 0.000000
11.067700 0.000000
11.080400 0.000000
11.093100 0.000000
11.105900 0.000000
11.118600 0.000000
11.131300 0.000000
11.144100 0.000000
11.156800 0.000000
11.169500 0.000000
11.182200 0.000000
11.195000 0.000000
11.207700 0.000000
11.220400 0.000000
11.233100 0.000000
11.245900 0.000000
11.258600 0.000000
11.271300 0.000000
11.284100 0.000000
11.296800 0.000000
11.309500 0.000000
11.322200 0.000000
11.335000 0.000000
11.347700 0.000000
11.360400 0.000000
11.373100 0.000000
11.385900 0.000000
11.398600 0.000000
11.411300 0.000000
11.424000 0.000000
11.436800 0.000000
11.449500 0.000000
11.462200 0.000000
e
