set title 'mp-567809 - Density of States'
set xlabel 'Energy (eV)'
set ylabel 'DOS (states/eV)'
set grid
set xrange [-10:10]
set yrange [0:28.943]
set xzeroaxis lt -1
set terminal png size 800,600
set output 'mp-567809_dos_gnuplot.png'
plot '-' using 1:2 with lines title 'DOS'
-12.181700 0.000000
-12.167700 0.000000
-12.153700 0.000000
-12.139700 0.000000
-12.125700 0.000000
-12.111800 0.000000
-12.097800 0.000000
-12.083800 0.000000
-12.069800 0.000000
-12.055800 0.000000
-12.041800 0.000000
-12.027800 0.000000
-12.013900 0.000000
-11.999900 0.000000
-11.985900 0.000000
-11.971900 0.000000
-11.957900 0.000000
-11.943900 0.000000
-11.929900 0.000000
-11.916000 0.000000
-11.902000 0.000000
-11.888000 0.000000
-11.874000 0.000000
-11.860000 0.000000
-11.846000 0.000000
-11.832100 0.000000
-11.818100 0.000000
-11.804100 0.000000
-11.790100 0.000000
-11.776100 0.000000
-11.762100 0.000000
-11.748100 0.000000
-11.734200 0.000000
-11.720200 0.000000
-11.706200 0.000000
-11.692200 0.000000
-11.678200 0.000000
-11.664200 0.000000
-11.650300 0.000000
-11.636300 0.000000
-11.622300 0.000000
-11.608300 0.000000
-11.594300 0.000000
-11.580300 0.000000
-11.566300 0.000000
-11.552400 0.000000
-11.538400 0.000000
-11.524400 0.000000
-11.510400 0.000000
-11.496400 0.000000
-11.482400 0.000000
-11.468400 0.000000
-11.454500 0.000000
-11.440500 0.000000
-11.426500 0.000000
-11.412500 0.000000
-11.398500 0.000000
-11.384500 0.000000
-11.370600 0.000000
-11.356600 0.000000
-11.342600 0.000000
-11.328600 0.000000
-11.314600 0.000000
-11.300600 0.000000
-11.286600 0.000000
-11.272700 0.000000
-11.258700 0.000000
-11.244700 0.000000
-11.230700 0.000000
-11.216700 0.000000
-11.202700 0.000000
-11.188800 0.000000
-11.174800 0.000000
-11.160800 0.000000
-11.146800 0.000000
-11.132800 0.000000
-11.118800 0.000000
-11.104800 0.000000
-11.090900 0.000000
-11.076900 0.000000
-11.062900 0.000000
-11.048900 0.000000
-11.034900 0.000000
-11.020900 0.000000
-11.006900 0.000000
-10.993000 0.000000
-10.979000 0.000000
-10.965000 0.000000
-10.951000 0.000000
-10.937000 0.000000
-10.923000 0.000000
-10.909100 0.008100
-10.895100 0.927400
-10.881100 1.254800
-10.867100 1.827300
-10.853100 2.098200
-10.839100 2.479100
-10.825100 2.903600
-10.811200 3.294000
-10.797200 3.681200
-10.783200 4.157400
-10.769200 4.901200
-10.755200 5.490600
-10.741200 5.885300
-10.727300 6.224500
-10.713300 6.629500
-10.699300 7.213500
-10.685300 9.162400
-10.671300 10.652100
-10.657300 14.233700
-10.643300 16.424500
-10.629400 19.662600
-10.615400 24.063300
-10.601400 24.663700
-10.587400 25.458600
-10.573400 28.077700
-10.559400 32.707200
-10.545400 28.498000
-10.531500 0.000000
-10.517500 0.000000
-10.503500 0.000000
-10.489500 0.000000
-10.475500 0.000000
-10.461500 0.000000
-10.447600 0.000000
-10.433600 0.000000
-10.419600 0.000000
-10.405600 0.000000
-10.391600 0.000000
-10.377600 0.000000
-10.363600 0.000000
-10.349700 0.000000
-10.335700 0.000000
-10.321700 0.000000
-10.307700 0.000000
-10.293700 0.000000
-10.279700 0.000000
-10.265800 0.000000
-10.251800 0.000000
-10.237800 0.000000
-10.223800 0.000000
-10.209800 0.000000
-10.195800 0.000000
-10.181800 0.000000
-10.167900 0.000000
-10.153900 0.000000
-10.139900 0.000000
-10.125900 0.000000
-10.111900 0.000000
-10.097900 0.000000
-10.083900 0.000000
-10.070000 0.000000
-10.056000 0.000000
-10.042000 0.000000
-10.028000 0.000000
-10.014000 0.000000
-10.000000 0.000000
-9.986100 0.000000
-9.972100 0.000000
-9.958100 0.000000
-9.944100 0.000000
-9.930100 0.000000
-9.916100 0.000000
-9.902100 0.000000
-9.888200 0.000000
-9.874200 0.000000
-9.860200 0.000000
-9.846200 0.000000
-9.832200 0.000000
-9.818200 0.000000
-9.804300 0.000000
-9.790300 0.000000
-9.776300 0.000000
-9.762300 0.000000
-9.748300 0.000000
-9.734300 0.000000
-9.720300 0.000000
-9.706400 0.000000
-9.692400 0.000000
-9.678400 0.000000
-9.664400 0.000000
-9.650400 0.000000
-9.636400 0.000000
-9.622500 0.000000
-9.608500 0.000000
-9.594500 0.000000
-9.580500 0.000000
-9.566500 0.000000
-9.552500 0.000000
-9.538500 0.000000
-9.524600 0.000000
-9.510600 0.000000
-9.496600 0.000000
-9.482600 0.000000
-9.468600 0.000000
-9.454600 0.000000
-9.440600 0.000000
-9.426700 0.000000
-9.412700 0.000000
-9.398700 0.000000
-9.384700 0.000000
-9.370700 0.000000
-9.356700 0.000000
-9.342800 0.000000
-9.328800 0.000000
-9.314800 0.000000
-9.300800 0.000000
-9.286800 0.000000
-9.272800 0.000000
-9.258800 0.000000
-9.244900 0.000000
-9.230900 0.000000
-9.216900 0.000000
-9.202900 0.000000
-9.188900 0.000000
-9.174900 0.000000
-9.161000 0.000000
-9.147000 0.000000
-9.133000 0.000000
-9.119000 0.000000
-9.105000 0.000000
-9.091000 0.000000
-9.077000 0.000000
-9.063100 0.000000
-9.049100 0.000000
-9.035100 0.000000
-9.021100 0.000000
-9.007100 0.000000
-8.993100 0.000000
-8.979100 0.000000
-8.965200 0.000000
-8.951200 0.000000
-8.937200 0.000000
-8.923200 0.000000
-8.909200 0.000000
-8.895200 0.000000
-8.881300 0.000000
-8.867300 0.000000
-8.853300 0.000000
-8.839300 0.000000
-8.825300 0.000000
-8.811300 0.000000
-8.797300 0.000000
-8.783400 0.000000
-8.769400 0.000000
-8.755400 0.000000
-8.741400 0.000000
-8.727400 0.000000
-8.713400 0.000000
-8.699500 0.000000
-8.685500 0.000000
-8.671500 0.000000
-8.657500 0.000000
-8.643500 0.000000
-8.629500 0.000000
-8.615500 0.000000
-8.601600 0.000000
-8.587600 0.000000
-8.573600 0.000000
-8.559600 0.000000
-8.545600 0.000000
-8.531600 0.000000
-8.517600 0.000000
-8.503700 0.000000
-8.489700 0.000000
-8.475700 0.000000
-8.461700 0.000000
-8.447700 0.000000
-8.433700 0.000000
-8.419800 0.000000
-8.405800 0.000000
-8.391800 0.000000
-8.377800 0.000000
-8.363800 0.000000
-8.349800 0.000000
-8.335800 0.000000
-8.321900 0.000000
-8.307900 0.000000
-8.293900 0.000000
-8.279900 0.000000
-8.265900 0.000000
-8.251900 0.000000
-8.238000 0.000000
-8.224000 0.000000
-8.210000 0.000000
-8.196000 0.000000
-8.182000 0.000000
-8.168000 0.000000
-8.154000 0.000000
-8.140100 0.000000
-8.126100 0.000000
-8.112100 0.000000
-8.098100 0.000000
-8.084100 0.000000
-8.070100 0.000000
-8.056100 0.000000
-8.042200 0.000000
-8.028200 0.000000
-8.014200 0.000000
-8.000200 0.000000
-7.986200 0.000000
-7.972200 0.000000
-7.958300 0.000000
-7.944300 0.000000
-7.930300 0.000000
-7.916300 0.000000
-7.902300 0.000000
-7.888300 0.000000
-7.874300 0.000000
-7.860400 0.000000
-7.846400 0.000000
-7.832400 0.000000
-7.818400 0.000000
-7.804400 0.000000
-7.790400 0.000000
-7.776500 0.000000
-7.762500 0.000000
-7.748500 0.000000
-7.734500 0.000000
-7.720500 0.000000
-7.706500 0.000000
-7.692500 0.000000
-7.678600 0.000000
-7.664600 0.000000
-7.650600 0.000000
-7.636600 0.000000
-7.622600 0.000000
-7.608600 0.000000
-7.594600 0.000000
-7.580700 0.000000
-7.566700 0.000000
-7.552700 0.000000
-7.538700 0.000000
-7.524700 0.000000
-7.510700 0.000000
-7.496800 0.000000
-7.482800 0.000000
-7.468800 0.000000
-7.454800 0.000000
-7.440800 0.000000
-7.426800 0.000000
-7.412800 0.000000
-7.398900 0.000000
-7.384900 0.000000
-7.370900 0.000000
-7.356900 0.000000
-7.342900 0.000000
-7.328900 0.000000
-7.315000 0.000000
-7.301000 0.000000
-7.287000 0.000000
-7.273000 0.000000
-7.259000 0.000000
-7.245000 0.000000
-7.231000 0.000000
-7.217100 0.000000
-7.203100 0.000000
-7.189100 0.000000
-7.175100 0.000000
-7.161100 0.000000
-7.147100 0.000000
-7.133100 0.000000
-7.119200 0.000000
-7.105200 0.000000
-7.091200 0.000000
-7.077200 0.000000
-7.063200 0.000000
-7.049200 0.000000
-7.035300 0.000000
-7.021300 0.000000
-7.007300 0.000000
-6.993300 0.000000
-6.979300 0.000000
-6.965300 0.000000
-6.951300 0.000000
-6.937400 0.000000
-6.923400 0.000000
-6.909400 0.000000
-6.895400 0.000000
-6.881400 0.000000
-6.867400 0.000000
-6.853500 0.000000
-6.839500 0.000000
-6.825500 0.000000
-6.811500 0.000000
-6.797500 0.000000
-6.783500 0.000000
-6.769500 0.000000
-6.755600 0.000000
-6.741600 0.000000
-6.727600 0.000000
-6.713600 0.000000
-6.699600 0.000000
-6.685600 0.000000
-6.671600 0.000000
-6.657700 0.000000
-6.643700 0.000000
-6.629700 0.000000
-6.615700 0.000000
-6.601700 0.000000
-6.587700 0.000000
-6.573800 0.000000
-6.559800 0.000000
-6.545800 0.000000
-6.531800 0.000000
-6.517800 0.000000
-6.503800 0.000000
-6.489800 0.000000
-6.475900 0.000000
-6.461900 0.000000
-6.447900 0.000000
-6.433900 0.000000
-6.419900 0.000000
-6.405900 0.000000
-6.392000 0.000000
-6.378000 0.000000
-6.364000 0.000000
-6.350000 0.000000
-6.336000 0.000000
-6.322000 0.000000
-6.308000 0.000000
-6.294100 0.000000
-6.280100 0.000000
-6.266100 0.000000
-6.252100 0.000000
-6.238100 0.000000
-6.224100 0.000000
-6.210100 0.000000
-6.196200 0.000000
-6.182200 0.000000
-6.168200 0.000000
-6.154200 0.000000
-6.140200 0.000000
-6.126200 0.000000
-6.112300 0.000000
-6.098300 0.000000
-6.084300 0.000000
-6.070300 0.000000
-6.056300 0.000000
-6.042300 0.000000
-6.028300 0.000000
-6.014400 0.000000
-6.000400 0.000000
-5.986400 0.000000
-5.972400 0.000000
-5.958400 0.000000
-5.944400 0.000000
-5.930500 0.000000
-5.916500 0.000000
-5.902500 0.000000
-5.888500 0.000000
-5.874500 0.000000
-5.860500 0.000000
-5.846500 0.000000
-5.832600 0.000000
-5.818600 0.000000
-5.804600 0.000000
-5.790600 0.000000
-5.776600 0.000000
-5.762600 0.000000
-5.748600 0.000000
-5.734700 0.000000
-5.720700 0.000000
-5.706700 0.000000
-5.692700 0.000000
-5.678700 0.000000
-5.664700 0.000000
-5.650800 0.000000
-5.636800 0.000000
-5.622800 0.000000
-5.608800 0.000000
-5.594800 0.000000
-5.580800 0.000000
-5.566800 0.000000
-5.552900 0.000000
-5.538900 0.000000
-5.524900 0.000000
-5.510900 0.000000
-5.496900 0.000000
-5.482900 0.000000
-5.469000 0.000000
-5.455000 0.000000
-5.441000 0.000000
-5.427000 0.000000
-5.413000 0.000000
-5.399000 0.000000
-5.385000 0.000000
-5.371100 0.000000
-5.357100 0.000000
-5.343100 0.000000
-5.329100 0.000000
-5.315100 0.000000
-5.301100 0.000000
-5.287200 0.000000
-5.273200 0.000000
-5.259200 0.000000
-5.245200 0.000000
-5.231200 0.000000
-5.217200 0.000000
-5.203200 0.000000
-5.189300 0.000000
-5.175300 0.000000
-5.161300 0.000000
-5.147300 0.000000
-5.133300 0.000000
-5.119300 0.000000
-5.105300 0.000000
-5.091400 0.000000
-5.077400 0.000000
-5.063400 0.000000
-5.049400 0.000000
-5.035400 0.000000
-5.021400 0.000000
-5.007500 0.000000
-4.993500 0.000000
-4.979500 0.000000
-4.965500 0.000000
-4.951500 0.000000
-4.937500 0.000000
-4.923500 0.000000
-4.909600 0.000000
-4.895600 0.000000
-4.881600 0.000000
-4.867600 0.000000
-4.853600 0.000000
-4.839600 0.000000
-4.825700 0.000000
-4.811700 0.000000
-4.797700 0.000000
-4.783700 0.000000
-4.769700 0.000000
-4.755700 0.000000
-4.741700 0.000000
-4.727800 0.000000
-4.713800 0.000000
-4.699800 0.000000
-4.685800 0.000000
-4.671800 0.000000
-4.657800 0.000000
-4.643800 0.000000
-4.629900 0.000000
-4.615900 0.000000
-4.601900 0.000000
-4.587900 0.000000
-4.573900 0.000000
-4.559900 0.000000
-4.546000 0.000000
-4.532000 0.000000
-4.518000 0.000000
-4.504000 0.000000
-4.490000 0.000000
-4.476000 0.000000
-4.462000 0.000000
-4.448100 0.000000
-4.434100 0.000000
-4.420100 0.000000
-4.406100 0.000000
-4.392100 0.000000
-4.378100 0.000000
-4.364200 0.000000
-4.350200 0.000000
-4.336200 0.000000
-4.322200 0.000000
-4.308200 0.000000
-4.294200 0.000000
-4.280200 0.000000
-4.266300 0.000000
-4.252300 0.000000
-4.238300 0.000000
-4.224300 0.000000
-4.210300 0.000000
-4.196300 0.000000
-4.182300 0.000000
-4.168400 0.000000
-4.154400 0.000000
-4.140400 0.000000
-4.126400 0.000000
-4.112400 0.000000
-4.098400 0.000000
-4.084500 0.000000
-4.070500 0.000000
-4.056500 0.000000
-4.042500 0.000000
-4.028500 0.000000
-4.014500 0.000000
-4.000500 0.000000
-3.986600 0.000000
-3.972600 0.000000
-3.958600 0.000000
-3.944600 0.000000
-3.930600 0.000000
-3.916600 0.000000
-3.902700 0.000000
-3.888700 0.000000
-3.874700 0.000000
-3.860700 0.000000
-3.846700 0.000000
-3.832700 0.000000
-3.818700 0.000000
-3.804800 0.000000
-3.790800 0.000000
-3.776800 0.000000
-3.762800 0.000000
-3.748800 0.000000
-3.734800 0.000000
-3.720800 0.000000
-3.706900 0.000000
-3.692900 0.000000
-3.678900 0.000000
-3.664900 0.000000
-3.650900 0.000000
-3.636900 0.000000
-3.623000 0.000000
-3.609000 0.000000
-3.595000 0.000000
-3.581000 0.000000
-3.567000 0.000000
-3.553000 0.000000
-3.539000 0.000000
-3.525100 0.000000
-3.511100 0.000000
-3.497100 0.000000
-3.483100 0.000000
-3.469100 0.000000
-3.455100 0.000000
-3.441200 0.000000
-3.427200 0.000000
-3.413200 0.000000
-3.399200 0.000000
-3.385200 0.000000
-3.371200 0.000000
-3.357200 0.000000
-3.343300 0.000000
-3.329300 0.000000
-3.315300 0.000000
-3.301300 0.000000
-3.287300 0.000000
-3.273300 0.000000
-3.259300 0.000000
-3.245400 0.000000
-3.231400 0.000000
-3.217400 0.000000
-3.203400 0.000000
-3.189400 0.000000
-3.175400 0.000000
-3.161500 0.000000
-3.147500 0.000000
-3.133500 0.000000
-3.119500 0.000000
-3.105500 0.000000
-3.091500 0.000000
-3.077500 0.000000
-3.063600 0.000000
-3.049600 0.000000
-3.035600 0.000000
-3.021600 0.000000
-3.007600 0.000000
-2.993600 0.000000
-2.979700 0.000000
-2.965700 0.015000
-2.951700 0.164200
-2.937700 0.393200
-2.923700 0.539900
-2.909700 0.614000
-2.895700 0.681100
-2.881800 0.777100
-2.867800 0.900800
-2.853800 1.028800
-2.839800 1.153600
-2.825800 1.272500
-2.811800 1.476700
-2.797800 1.520600
-2.783900 2.453700
-2.769900 3.891100
-2.755900 4.462500
-2.741900 5.643300
-2.727900 6.905200
-2.713900 12.253500
-2.700000 12.873200
-2.686000 11.961500
-2.672000 12.412500
-2.658000 10.810400
-2.644000 10.565200
-2.630000 9.618100
-2.616000 10.142500
-2.602100 10.673300
-2.588100 10.163400
-2.574100 9.889000
-2.560100 10.208000
-2.546100 9.567500
-2.532100 8.383600
-2.518200 10.134800
-2.504200 12.236500
-2.490200 14.574900
-2.476200 14.075200
-2.462200 13.100800
-2.448200 13.076400
-2.434200 13.099600
-2.420300 12.813800
-2.406300 13.176100
-2.392300 13.128100
-2.378300 13.193300
-2.364300 16.616000
-2.350300 13.612000
-2.336300 11.521500
-2.322400 11.042700
-2.308400 11.305600
-2.294400 10.661000
-2.280400 10.693300
-2.266400 10.737400
-2.252400 12.476300
-2.238500 11.619000
-2.224500 10.968700
-2.210500 10.957900
-2.196500 12.213500
-2.182500 21.502900
-2.168500 16.584800
-2.154500 12.647400
-2.140600 9.847500
-2.126600 9.813800
-2.112600 11.475700
-2.098600 14.207200
-2.084600 16.000600
-2.070600 16.234800
-2.056700 15.936400
-2.042700 17.173300
-2.028700 14.880900
-2.014700 13.297700
-2.000700 11.813800
-1.986700 11.607500
-1.972700 13.228900
-1.958800 12.280900
-1.944800 12.599100
-1.930800 13.637600
-1.916800 15.399200
-1.902800 16.710300
-1.888800 16.115500
-1.874800 12.666900
-1.860900 10.361000
-1.846900 10.103200
-1.832900 11.247700
-1.818900 10.266300
-1.804900 10.009800
-1.790900 11.095700
-1.777000 12.036000
-1.763000 13.478400
-1.749000 16.639400
-1.735000 14.714100
-1.721000 10.079800
-1.707000 8.933500
-1.693000 7.051100
-1.679100 7.006500
-1.665100 7.859900
-1.651100 9.431900
-1.637100 11.057600
-1.623100 10.022300
-1.609100 8.747200
-1.595200 8.596000
-1.581200 6.474400
-1.567200 10.161400
-1.553200 8.410900
-1.539200 9.984000
-1.525200 13.106600
-1.511200 11.191700
-1.497300 5.128500
-1.483300 6.878900
-1.469300 16.820000
-1.455300 14.991900
-1.441300 14.863600
-1.427300 16.480500
-1.413300 15.414500
-1.399400 18.158900
-1.385400 17.114400
-1.371400 17.763400
-1.357400 19.470900
-1.343400 20.135000
-1.329400 22.422800
-1.315500 23.231000
-1.301500 22.593500
-1.287500 21.995200
-1.273500 22.167600
-1.259500 20.987800
-1.245500 26.312100
-1.231500 17.274100
-1.217600 12.077300
-1.203600 11.180600
-1.189600 10.629000
-1.175600 10.286800
-1.161600 9.816400
-1.147600 9.562800
-1.133700 9.253200
-1.119700 9.069500
-1.105700 9.234200
-1.091700 8.764300
-1.077700 8.715700
-1.063700 9.647000
-1.049700 6.623600
-1.035800 5.377700
-1.021800 4.976500
-1.007800 4.676400
-0.993800 4.459100
-0.979800 4.379400
-0.965800 4.290800
-0.951900 4.102500
-0.937900 3.951300
-0.923900 4.267900
-0.909900 4.079000
-0.895900 4.072000
-0.881900 4.042700
-0.867900 4.030900
-0.854000 3.935500
-0.840000 3.885900
-0.826000 3.830800
-0.812000 3.763200
-0.798000 3.685800
-0.784000 3.630600
-0.770000 3.560100
-0.756100 3.494200
-0.742100 3.440000
-0.728100 3.412000
-0.714100 3.388200
-0.700100 3.363600
-0.686100 3.308100
-0.672200 3.061600
-0.658200 2.777400
-0.644200 2.537300
-0.630200 2.442300
-0.616200 2.414500
-0.602200 2.310500
-0.588200 2.167000
-0.574300 2.154500
-0.560300 2.056900
-0.546300 1.961800
-0.532300 1.989500
-0.518300 1.964000
-0.504300 1.813300
-0.490400 1.390000
-0.476400 1.353500
-0.462400 1.427300
-0.448400 1.240800
-0.434400 1.230800
-0.420400 1.224200
-0.406400 1.222400
-0.392500 1.267700
-0.378500 1.281700
-0.364500 1.350200
-0.350500 1.371600
-0.336500 1.335400
-0.322500 1.289300
-0.308500 1.464100
-0.294600 1.606500
-0.280600 1.748500
-0.266600 1.880300
-0.252600 2.065400
-0.238600 2.306700
-0.224600 2.277400
-0.210700 2.495500
-0.196700 2.594800
-0.182700 2.670000
-0.168700 2.854300
-0.154700 3.120200
-0.140700 3.277400
-0.126700 3.229200
-0.112800 3.271600
-0.098800 3.434800
-0.084800 3.774900
-0.070800 3.666600
-0.056800 3.781000
-0.042800 3.915300
-0.028900 4.194400
-0.014900 4.400700
-0.000900 4.584400
0.013100 4.758800
0.027100 4.904800
0.041100 4.965300
0.055100 4.971700
0.069000 4.904100
0.083000 4.932800
0.097000 5.000100
0.111000 5.592300
0.125000 5.003500
0.139000 5.070700
0.153000 5.120500
0.166900 5.188300
0.180900 5.221100
0.194900 5.282900
0.208900 5.341000
0.222900 5.360800
0.236900 5.291700
0.250800 5.325100
0.264800 5.341800
0.278800 5.706400
0.292800 6.255600
0.306800 6.727300
0.320800 7.006700
0.334800 7.127500
0.348700 6.785700
0.362700 6.889700
0.376700 6.978600
0.390700 7.112600
0.404700 7.137500
0.418700 6.972000
0.432600 6.507500
0.446600 6.522700
0.460600 6.609700
0.474600 6.820500
0.488600 7.130000
0.502600 7.751200
0.516600 8.208600
0.530500 8.649700
0.544500 9.538600
0.558500 9.283200
0.572500 8.183600
0.586500 7.679800
0.600500 7.005400
0.614500 6.547500
0.628400 6.316800
0.642400 6.237500
0.656400 6.152600
0.670400 6.129200
0.684400 6.108400
0.698400 5.901000
0.712300 5.785800
0.726300 5.721000
0.740300 5.683700
0.754300 5.633700
0.768300 5.544700
0.782300 5.478600
0.796300 5.419100
0.810200 5.364400
0.824200 5.369100
0.838200 5.359600
0.852200 5.425300
0.866200 5.324300
0.880200 5.466100
0.894100 5.797600
0.908100 5.470000
0.922100 4.219000
0.936100 4.346800
0.950100 4.405900
0.964100 4.450000
0.978100 4.548100
0.992000 4.699400
1.006000 4.474700
1.020000 4.105400
1.034000 4.055800
1.048000 4.015700
1.062000 4.005200
1.076000 4.041600
1.089900 3.986400
1.103900 4.088500
1.117900 4.305400
1.131900 4.762000
1.145900 4.773600
1.159900 4.598700
1.173800 4.954800
1.187800 4.696000
1.201800 3.829500
1.215800 3.096100
1.229800 2.499800
1.243800 2.109400
1.257800 1.891300
1.271700 1.768700
1.285700 1.641500
1.299700 1.523900
1.313700 1.171500
1.327700 0.972300
1.341700 0.820100
1.355600 0.684600
1.369600 0.564800
1.383600 0.441900
1.397600 0.334300
1.411600 0.219700
1.425600 0.112300
1.439600 0.000000
1.453500 0.000000
1.467500 0.000000
1.481500 0.000000
1.495500 0.000000
1.509500 0.000000
1.523500 0.000000
1.537500 0.000000
1.551400 0.000000
1.565400 0.000000
1.579400 0.000000
1.593400 0.000000
1.607400 0.000000
1.621400 0.000000
1.635300 0.000000
1.649300 0.000000
1.663300 0.000000
1.677300 0.000000
1.691300 0.000000
1.705300 0.000000
1.719300 0.000000
1.733200 0.000000
1.747200 0.000000
1.761200 0.000000
1.775200 0.000000
1.789200 0.000000
1.803200 0.000000
1.817100 0.000000
1.831100 0.000000
1.845100 0.000000
1.859100 0.000000
1.873100 0.000000
1.887100 0.000000
1.901100 0.000000
1.915000 0.000000
1.929000 0.000000
1.943000 0.000000
1.957000 0.000000
1.971000 0.000000
1.985000 0.000000
1.999000 0.000000
2.012900 0.000000
2.026900 0.000000
2.040900 0.000000
2.054900 0.000000
2.068900 0.000000
2.082900 0.000000
2.096800 0.000000
2.110800 0.000000
2.124800 0.000000
2.138800 0.000000
2.152800 0.000000
2.166800 0.000000
2.180800 0.000000
2.194700 0.000000
2.208700 0.000000
2.222700 0.000000
2.236700 0.000000
2.250700 0.000000
2.264700 0.000000
2.278600 0.000000
2.292600 0.000000
2.306600 0.000000
2.320600 0.000000
2.334600 0.000000
2.348600 0.000000
2.362600 0.000000
2.376500 0.000000
2.390500 0.000000
2.404500 0.000000
2.418500 0.000000
2.432500 0.000000
2.446500 0.000000
2.460500 0.000000
2.474400 0.000000
2.488400 0.000000
2.502400 0.000000
2.516400 0.000000
2.530400 0.000000
2.544400 0.000000
2.558300 0.000000
2.572300 0.000000
2.586300 0.000000
2.600300 0.000000
2.614300 0.000000
2.628300 0.000000
2.642300 0.000000
2.656200 0.000000
2.670200 0.000000
2.684200 0.000000
2.698200 0.000000
2.712200 0.000000
2.726200 0.000000
2.740100 0.000000
2.754100 0.000000
2.768100 0.000000
2.782100 0.000000
2.796100 0.000000
2.810100 0.000000
2.824100 0.000000
2.838000 0.000000
2.852000 0.000000
2.866000 0.000000
2.880000 0.000000
2.894000 0.000000
2.908000 0.000000
2.922000 0.000000
2.935900 0.000000
2.949900 0.000000
2.963900 0.000000
2.977900 0.000000
2.991900 0.000000
3.005900 0.000000
3.019800 0.000000
3.033800 0.000000
3.047800 0.000200
3.061800 0.001000
3.075800 0.002500
3.089800 0.004700
3.103800 0.007500
3.117700 0.011000
3.131700 0.015200
3.145700 0.020000
3.159700 0.025500
3.173700 0.031600
3.187700 0.038500
3.201600 0.047000
3.215600 0.055000
3.229600 0.062300
3.243600 0.068800
3.257600 0.074600
3.271600 0.079700
3.285600 0.084100
3.299500 0.087700
3.313500 0.090600
3.327500 0.092800
3.341500 0.095000
3.355500 0.097500
3.369500 0.100600
3.383400 0.104200
3.397400 0.108300
3.411400 0.112900
3.425400 0.118000
3.439400 0.123600
3.453400 0.129300
3.467400 0.135200
3.481300 0.141300
3.495300 0.147400
3.509300 0.153700
3.523300 0.160200
3.537300 0.166700
3.551300 0.173200
3.565300 0.179400
3.579200 0.185100
3.593200 0.190300
3.607200 0.195000
3.621200 0.200500
3.635200 0.207400
3.649200 0.214600
3.663100 0.222400
3.677100 0.230600
3.691100 0.239100
3.705100 0.247900
3.719100 0.256600
3.733100 0.264000
3.747100 0.271500
3.761000 0.279000
3.775000 0.286600
3.789000 0.294300
3.803000 0.302000
3.817000 0.309800
3.831000 0.318600
3.844900 0.328200
3.858900 0.338700
3.872900 0.350200
3.886900 0.362500
3.900900 0.375800
3.914900 0.389800
3.928900 0.404200
3.942800 0.418900
3.956800 0.434300
3.970800 0.450000
3.984800 0.466200
3.998800 0.482700
4.012800 0.501000
4.026800 0.522100
4.040700 0.545800
4.054700 0.570800
4.068700 0.597600
4.082700 0.626200
4.096700 0.656900
4.110700 0.690800
4.124600 0.725500
4.138600 0.759000
4.152600 0.796700
4.166600 0.877800
4.180600 1.051100
4.194600 1.270000
4.208600 1.431700
4.222500 1.567800
4.236500 1.690500
4.250500 1.848300
4.264500 1.947600
4.278500 2.035000
4.292500 2.071000
4.306400 2.030800
4.320400 2.018200
4.334400 2.013600
4.348400 2.043500
4.362400 2.412800
4.376400 2.591800
4.390400 2.299800
4.404300 2.149100
4.418300 1.906400
4.432300 1.889700
4.446300 1.873000
4.460300 1.858200
4.474300 1.843400
4.488300 1.833700
4.502200 1.833000
4.516200 1.831000
4.530200 1.826900
4.544200 1.799000
4.558200 1.798400
4.572200 1.799800
4.586100 1.797900
4.600100 1.800300
4.614100 1.804200
4.628100 1.809600
4.642100 1.823200
4.656100 1.836400
4.670100 1.843900
4.684000 1.860100
4.698000 1.877200
4.712000 1.894600
4.726000 1.912300
4.740000 1.930300
4.754000 1.948700
4.767900 2.002300
4.781900 2.007300
4.795900 2.046100
4.809900 2.089800
4.823900 2.135100
4.837900 2.188800
4.851900 2.241000
4.865800 2.288200
4.879800 2.335500
4.893800 2.392900
4.907800 2.489400
4.921800 2.588600
4.935800 2.682700
4.949800 2.764900
4.963700 2.861000
4.977700 3.654500
4.991700 4.314100
5.005700 4.629200
5.019700 4.474400
5.033700 4.312300
5.047600 3.648200
5.061600 3.600400
5.075600 3.479700
5.089600 3.623000
5.103600 3.746000
5.117600 3.911500
5.131600 4.104900
5.145500 4.117400
5.159500 4.120600
5.173500 4.069900
5.187500 3.995700
5.201500 4.049400
5.215500 4.179600
5.229400 4.305900
5.243400 4.610500
5.257400 4.946100
5.271400 5.375000
5.285400 6.419100
5.299400 6.278800
5.313400 5.889700
5.327300 4.791900
5.341300 3.958500
5.355300 3.496100
5.369300 3.288200
5.383300 3.214700
5.397300 2.893900
5.411300 2.610300
5.425200 2.308000
5.439200 2.039200
5.453200 1.840000
5.467200 1.675600
5.481200 1.538400
5.495200 1.425100
5.509100 1.337000
5.523100 1.260200
5.537100 1.197000
5.551100 1.147400
5.565100 1.106900
5.579100 1.108700
5.593100 1.116500
5.607000 1.147700
5.621000 1.185300
5.635000 1.226600
5.649000 1.261600
5.663000 1.279100
5.677000 1.320700
5.690900 1.317200
5.704900 1.297300
5.718900 1.300200
5.732900 1.255100
5.746900 1.222400
5.760900 1.195800
5.774900 1.145500
5.788800 1.141700
5.802800 1.147100
5.816800 1.156800
5.830800 1.170100
5.844800 1.180700
5.858800 1.235700
5.872800 1.247100
5.886700 1.293000
5.900700 1.338200
5.914700 1.383600
5.928700 1.429300
5.942700 1.475700
5.956700 1.522700
5.970600 1.569300
5.984600 1.615400
5.998600 1.665900
6.012600 1.716400
6.026600 1.770200
6.040600 1.823100
6.054600 1.872900
6.068500 1.920500
6.082500 1.968800
6.096500 2.018500
6.110500 2.289100
6.124500 2.031300
6.138500 2.058800
6.152400 2.102100
6.166400 2.148600
6.180400 2.207100
6.194400 2.383600
6.208400 2.431000
6.222400 2.297000
6.236400 2.356100
6.250300 2.425100
6.264300 2.522400
6.278300 2.654200
6.292300 2.776800
6.306300 2.851600
6.320300 2.792700
6.334300 2.701000
6.348200 2.650600
6.362200 2.643000
6.376200 2.644100
6.390200 2.556900
6.404200 2.432700
6.418200 2.278300
6.432100 2.218700
6.446100 2.186200
6.460100 2.150000
6.474100 2.085600
6.488100 2.047500
6.502100 2.026400
6.516100 2.004900
6.530000 1.981500
6.544000 1.954400
6.558000 1.926500
6.572000 1.896400
6.586000 1.861800
6.600000 1.843500
6.613900 1.832100
6.627900 1.826900
6.641900 1.801300
6.655900 1.784400
6.669900 1.770700
6.683900 1.759300
6.697900 1.748300
6.711800 1.737800
6.725800 1.727200
6.739800 1.728100
6.753800 1.760700
6.767800 1.803000
6.781800 1.835700
6.795800 1.868800
6.809700 1.901100
6.823700 1.931100
6.837700 1.965600
6.851700 1.904300
6.865700 1.861900
6.879700 1.830100
6.893600 1.881200
6.907600 1.886600
6.921600 1.884600
6.935600 1.878200
6.949600 1.887700
6.963600 1.913500
6.977600 1.931500
6.991500 1.995500
7.005500 2.090700
7.019500 2.264700
7.033500 2.457900
7.047500 2.563800
7.061500 2.671100
7.075400 2.736400
7.089400 2.687400
7.103400 2.627300
7.117400 2.673000
7.131400 2.785800
7.145400 2.891700
7.159400 2.985100
7.173300 3.082600
7.187300 3.162700
7.201300 3.125100
7.215300 3.103100
7.229300 3.124300
7.243300 3.171300
7.257300 3.224400
7.271200 3.277800
7.285200 3.258800
7.299200 3.194300
7.313200 3.183200
7.327200 3.225000
7.341200 3.297000
7.355100 3.216500
7.369100 3.107600
7.383100 2.994000
7.397100 2.914800
7.411100 2.847600
7.425100 2.785500
7.439100 2.865300
7.453000 2.777400
7.467000 2.803600
7.481000 2.782100
7.495000 2.764200
7.509000 2.875400
7.523000 2.960400
7.536900 2.991800
7.550900 2.897800
7.564900 2.757400
7.578900 2.705100
7.592900 2.594300
7.606900 2.594500
7.620900 2.571700
7.634800 2.497100
7.648800 2.447400
7.662800 2.406900
7.676800 2.386300
7.690800 2.429000
7.704800 2.527600
7.718800 2.710000
7.732700 3.023700
7.746700 3.396100
7.760700 3.545700
7.774700 3.730500
7.788700 3.739300
7.802700 3.759600
7.816600 3.765300
7.830600 4.071700
7.844600 4.207800
7.858600 3.777400
7.872600 3.403800
7.886600 3.250400
7.900600 3.179400
7.914500 3.036900
7.928500 2.919200
7.942500 2.790900
7.956500 2.726600
7.970500 2.617900
7.984500 2.171600
7.998400 2.064700
8.012400 2.002700
8.026400 1.976600
8.040400 1.955900
8.054400 1.942900
8.068400 1.937300
8.082400 2.013800
8.096300 2.115800
8.110300 2.236300
8.124300 2.637800
8.138300 3.040900
8.152300 3.387600
8.166300 3.701400
8.180200 4.044100
8.194200 4.029800
8.208200 3.865000
8.222200 3.767500
8.236200 3.741300
8.250200 3.766600
8.264200 3.627000
8.278100 3.473200
8.292100 3.256400
8.306100 3.004700
8.320100 2.793300
8.334100 2.553200
8.348100 2.340500
8.362100 2.191600
8.376000 2.129900
8.390000 3.025500
8.404000 3.025700
8.418000 2.936500
8.432000 2.859800
8.446000 2.861700
8.459900 2.873400
8.473900 2.901500
8.487900 2.920500
8.501900 2.945900
8.515900 2.968800
8.529900 2.959600
8.543900 2.946500
8.557800 2.910400
8.571800 3.207100
8.585800 2.946600
8.599800 3.021100
8.613800 2.978300
8.627800 2.846300
8.641700 2.745700
8.655700 2.691700
8.669700 2.687300
8.683700 2.726800
8.697700 2.747700
8.711700 2.772000
8.725700 2.849900
8.739600 3.049800
8.753600 3.243000
8.767600 3.395300
8.781600 3.529100
8.795600 3.615000
8.809600 3.646100
8.823600 3.538700
8.837500 3.427700
8.851500 3.208600
8.865500 3.084000
8.879500 2.975500
8.893500 2.903800
8.907500 2.836000
8.921400 2.780400
8.935400 2.747200
8.949400 2.841000
8.963400 2.952600
8.977400 2.980600
8.991400 3.023400
9.005400 3.097900
9.019300 3.096600
9.033300 3.161500
9.047300 3.121400
9.061300 3.112000
9.075300 3.143800
9.089300 3.180400
9.103200 3.214000
9.117200 3.281200
9.131200 3.263600
9.145200 3.251600
9.159200 3.369200
9.173200 4.020300
9.187200 4.837100
9.201100 4.862000
9.215100 4.953000
9.229100 4.818300
9.243100 4.696700
9.257100 4.712000
9.271100 4.461100
9.285100 4.341800
9.299000 4.380600
9.313000 4.414200
9.327000 4.505800
9.341000 4.510800
9.355000 4.501600
9.369000 4.580100
9.382900 4.640200
9.396900 4.638900
9.410900 4.410800
9.424900 4.228800
9.438900 3.888700
9.452900 3.753700
9.466900 3.643700
9.480800 3.566200
9.494800 3.502800
9.508800 3.449300
9.522800 3.415100
9.536800 3.400800
9.550800 3.422000
9.564700 3.465400
9.578700 3.506600
9.592700 3.452500
9.606700 3.390400
9.620700 3.342700
9.634700 3.257600
9.648700 3.199700
9.662600 3.092900
9.676600 3.023000
9.690600 2.938500
9.704600 2.875900
9.718600 2.805000
9.732600 2.743500
9.746600 2.710100
9.760500 2.692400
9.774500 2.719200
9.788500 2.757800
9.802500 2.792000
9.816500 2.817500
9.830500 2.842500
9.844400 2.893500
9.858400 2.837100
9.872400 2.872400
9.886400 2.878800
9.900400 2.882100
9.914400 2.885500
9.928400 2.891800
9.942300 2.883200
9.956300 2.859800
9.970300 2.824300
9.984300 2.782200
9.998300 2.739000
10.012300 2.691500
10.026200 2.685300
10.040200 2.721300
10.054200 2.756200
10.068200 3.062800
10.082200 3.586700
10.096200 3.165800
10.110200 3.173200
10.124100 3.135600
10.138100 3.111700
10.152100 3.095900
10.166100 3.083000
10.180100 3.077600
10.194100 3.066500
10.208100 3.083200
10.222000 3.178700
10.236000 3.318000
10.250000 3.129100
10.264000 3.128200
10.278000 3.156200
10.292000 3.195500
10.305900 3.227700
10.319900 3.218900
10.333900 3.218700
10.347900 3.187900
10.361900 3.164900
10.375900 3.143600
10.389900 3.122800
10.403800 3.108500
10.417800 3.099600
10.431800 3.095500
10.445800 3.089100
10.459800 3.091900
10.473800 3.101900
10.487700 3.121000
10.501700 3.130200
10.515700 3.154700
10.529700 3.188300
10.543700 3.227500
10.557700 3.253600
10.571700 3.376500
10.585600 3.423800
10.599600 3.337200
10.613600 3.367200
10.627600 3.407100
10.641600 3.538400
10.655600 3.708300
10.669600 3.858400
10.683500 3.815900
10.697500 3.891400
10.711500 3.951600
10.725500 3.974500
10.739500 3.975300
10.753500 4.025600
10.767400 4.119300
10.781400 4.165300
10.795400 4.246700
10.809400 4.289500
10.823400 4.342400
10.837400 4.393600
10.851400 4.369800
10.865300 4.378700
10.879300 4.300900
10.893300 4.125900
10.907300 4.022700
10.921300 3.976900
10.935300 3.921600
10.949200 3.729800
10.963200 3.529900
10.977200 3.413300
10.991200 3.315900
11.005200 3.285800
11.019200 3.288400
11.033200 3.671400
11.047100 3.290900
11.061100 3.134800
11.075100 2.812800
11.089100 2.760200
11.103100 2.727100
11.117100 2.703800
11.131100 2.759500
11.145000 2.869700
11.159000 3.000500
11.173000 3.134500
11.187000 3.326600
11.201000 3.460400
11.215000 3.504900
11.228900 3.530200
11.242900 3.563100
11.256900 3.644200
11.270900 3.689900
11.284900 3.649300
11.298900 3.526000
11.312900 3.451000
11.326800 3.378500
11.340800 3.328900
11.354800 3.283500
11.368800 3.233700
11.382800 3.193500
11.396800 3.169600
11.410700 3.145500
11.424700 3.118900
11.438700 3.098100
11.452700 3.080900
11.466700 3.061300
11.480700 3.131700
11.494700 3.074100
11.508600 3.024000
11.522600 2.993800
11.536600 2.988600
11.550600 3.010800
11.564600 3.040700
11.578600 3.027500
11.592600 3.093400
11.606500 3.333200
11.620500 3.221000
11.634500 3.139400
11.648500 3.017700
11.662500 2.910900
11.676500 2.789300
11.690400 2.693500
11.704400 2.572300
11.718400 2.545600
11.732400 2.586700
11.746400 2.642500
11.760400 2.701000
11.774400 2.782500
11.788300 3.184900
11.802300 2.841300
11.816300 2.731500
11.830300 2.650100
11.844300 2.595300
11.858300 2.546000
11.872200 2.536900
11.886200 2.587600
11.900200 2.640500
11.914200 2.679800
11.928200 2.759000
11.942200 2.761100
11.956200 2.735600
11.970100 2.716900
11.984100 2.642100
11.998100 2.591100
12.012100 2.572400
12.026100 2.563700
12.040100 2.553700
12.054100 2.567400
12.068000 2.580600
12.082000 2.590200
12.096000 2.602100
12.110000 2.650300
12.124000 2.787200
12.138000 3.252900
12.151900 3.536800
12.165900 2.870600
12.179900 3.007400
12.193900 3.287600
12.207900 3.127100
12.221900 3.127300
12.235900 3.138600
12.249800 3.150300
12.263800 3.172400
12.277800 3.144700
12.291800 3.141600
12.305800 3.121800
12.319800 3.120300
12.333700 3.168900
12.347700 3.253500
12.361700 3.422400
12.375700 3.546900
12.389700 3.471000
12.403700 3.597000
12.417700 3.807900
12.431600 4.016400
12.445600 4.140900
12.459600 4.172900
12.473600 4.275600
12.487600 4.197500
12.501600 4.161700
12.515500 4.139800
12.529500 4.146600
12.543500 4.207300
12.557500 4.289600
12.571500 4.158100
12.585500 3.965100
12.599500 4.100600
12.613400 4.208800
12.627400 4.302900
12.641400 4.402700
12.655400 4.450000
12.669400 4.472900
12.683400 4.479300
12.697400 4.618500
12.711300 4.531300
12.725300 4.101000
12.739300 4.090400
12.753300 4.063100
12.767300 4.006500
12.781300 3.920800
12.795200 3.815900
12.809200 3.788700
12.823200 3.733100
12.837200 4.125000
12.851200 3.735900
12.865200 3.689500
12.879200 3.578700
12.893100 3.637600
12.907100 3.802300
12.921100 3.848700
12.935100 4.148800
12.949100 4.445000
12.963100 4.484900
12.977000 4.443100
12.991000 4.286600
13.005000 4.154600
13.019000 3.857100
13.033000 3.621300
13.047000 3.571500
13.061000 3.576400
13.074900 3.647300
13.088900 3.597500
13.102900 3.583400
13.116900 3.546700
13.130900 3.505500
13.144900 3.482800
13.158900 3.542300
13.172800 3.455800
13.186800 3.447200
13.200800 3.458300
13.214800 3.413700
13.228800 3.359100
13.242800 3.291800
13.256700 3.201500
13.270700 3.102400
13.284700 3.000000
13.298700 2.866800
13.312700 2.731800
13.326700 2.611200
13.340700 2.449900
13.354600 2.259300
13.368600 2.137500
13.382600 2.106400
13.396600 2.064000
13.410600 1.993300
13.424600 1.876000
13.438500 1.757900
13.452500 1.653400
13.466500 1.552400
13.480500 1.468300
13.494500 1.407600
13.508500 1.310800
13.522500 1.219900
13.536400 1.136000
13.550400 1.134300
13.564400 0.999600
13.578400 0.959100
13.592400 0.922900
13.606400 0.891100
13.620400 0.863700
13.634300 0.840700
13.648300 0.819400
13.662300 0.798400
13.676300 0.778400
13.690300 0.760700
13.704300 0.744600
13.718200 0.754300
13.732200 0.873600
13.746200 0.820800
13.760200 0.485800
13.774200 0.467600
13.788200 0.450200
13.802200 0.471500
13.816100 0.445900
13.830100 0.421300
13.844100 0.397600
13.858100 0.374800
13.872100 0.418900
13.886100 0.409900
13.900000 0.375600
13.914000 0.347300
13.928000 0.324900
13.942000 0.307100
13.956000 0.284700
13.970000 0.262100
13.984000 0.243700
13.997900 0.267000
14.011900 0.240800
14.025900 0.216300
14.039900 0.193800
14.053900 0.173400
14.067900 0.155000
14.081900 0.140300
14.095800 0.130800
14.109800 0.121600
14.123800 0.112800
14.137800 0.104200
14.151800 0.096000
14.165800 0.088100
14.179700 0.080600
14.193700 0.073300
14.207700 0.066400
14.221700 0.060400
14.235700 0.055700
14.249700 0.051100
14.263700 0.046800
14.277600 0.042600
14.291600 0.038700
14.305600 0.035100
14.319600 0.031600
14.333600 0.028300
14.347600 0.025100
14.361500 0.022100
14.375500 0.019300
14.389500 0.016600
14.403500 0.014100
14.417500 0.011800
14.431500 0.009600
14.445500 0.007600
14.459400 0.005800
14.473400 0.004100
14.487400 0.002600
14.501400 0.001300
14.515400 0.000100
14.529400 0.000000
14.543400 0.000000
14.557300 0.000000
14.571300 0.000000
14.585300 0.000000
14.599300 0.000000
14.613300 0.000000
14.627300 0.000000
14.641200 0.000000
14.655200 0.000000
14.669200 0.000000
14.683200 0.000000
14.697200 0.000000
14.711200 0.000000
14.725200 0.000000
14.739100 0.000000
14.753100 0.000000
14.767100 0.000000
14.781100 0.000000
14.795100 0.000000
14.809100 0.000000
14.823000 0.000000
14.837000 0.000000
14.851000 0.000000
14.865000 0.000000
14.879000 0.000000
14.893000 0.000000
14.907000 0.000000
14.920900 0.000000
14.934900 0.000000
14.948900 0.000000
14.962900 0.000000
14.976900 0.000000
14.990900 0.000000
15.004900 0.000000
15.018800 0.000000
15.032800 0.000000
15.046800 0.000000
15.060800 0.000000
15.074800 0.000000
15.088800 0.000000
15.102700 0.000000
15.116700 0.000000
15.130700 0.000000
15.144700 0.000000
15.158700 0.000000
15.172700 0.000000
15.186700 0.000000
15.200600 0.000000
15.214600 0.000000
15.228600 0.000000
15.242600 0.000000
15.256600 0.000000
15.270600 0.000000
15.284500 0.000000
15.298500 0.000000
15.312500 0.000000
15.326500 0.000000
15.340500 0.000000
15.354500 0.000000
15.368500 0.000000
15.382400 0.000000
15.396400 0.000000
15.410400 0.000000
15.424400 0.000000
15.438400 0.000000
15.452400 0.000000
15.466400 0.000000
15.480300 0.000000
15.494300 0.000000
15.508300 0.000000
15.522300 0.000000
15.536300 0.000000
15.550300 0.000000
15.564200 0.000000
15.578200 0.000000
15.592200 0.000000
15.606200 0.000000
15.620200 0.000000
15.634200 0.000000
15.648200 0.000000
15.662100 0.000000
15.676100 0.000000
15.690100 0.000000
15.704100 0.000000
15.718100 0.000000
15.732100 0.000000
15.746000 0.000000
15.760000 0.000000
15.774000 0.000000
15.788000 0.000000
e
