set title 'mp-726184 - Density of States'
set xlabel 'Energy (eV)'
set ylabel 'DOS (states/eV)'
set grid
set xrange [-10:10]
set yrange [0:36.124]
set xzeroaxis lt -1
set terminal png size 800,600
set output 'mp-726184_dos_gnuplot.png'
plot '-' using 1:2 with lines title 'DOS'
-19.000300 0.000000
-18.983800 0.000000
-18.967300 0.000000
-18.950900 0.000000
-18.934400 0.000000
-18.917900 0.000000
-18.901400 0.000000
-18.884900 0.000000
-18.868400 0.000000
-18.851900 0.000000
-18.835400 0.000000
-18.818900 0.000000
-18.802500 0.000000
-18.786000 0.000000
-18.769500 0.000000
-18.753000 0.000000
-18.736500 0.000000
-18.720000 0.000000
-18.703500 0.000000
-18.687000 0.000000
-18.670500 0.000000
-18.654100 0.000000
-18.637600 0.000000
-18.621100 0.000000
-18.604600 0.000000
-18.588100 0.000000
-18.571600 0.000000
-18.555100 0.000000
-18.538600 0.000000
-18.522100 0.000000
-18.505700 0.000000
-18.489200 0.000000
-18.472700 0.000000
-18.456200 0.000000
-18.439700 0.000000
-18.423200 0.000000
-18.406700 0.000000
-18.390200 0.000000
-18.373700 0.000000
-18.357200 0.000000
-18.340800 0.000000
-18.324300 0.000000
-18.307800 0.000000
-18.291300 0.000000
-18.274800 0.000000
-18.258300 0.000000
-18.241800 0.000000
-18.225300 0.000000
-18.208800 0.000000
-18.192400 0.000000
-18.175900 0.000000
-18.159400 0.000000
-18.142900 0.000000
-18.126400 0.000000
-18.109900 0.000000
-18.093400 0.000000
-18.076900 0.000000
-18.060400 0.000000
-18.044000 0.000000
-18.027500 0.000000
-18.011000 0.000000
-17.994500 0.000000
-17.978000 0.000000
-17.961500 0.000000
-17.945000 0.000000
-17.928500 0.000000
-17.912000 0.000000
-17.895600 0.000000
-17.879100 0.000000
-17.862600 0.000000
-17.846100 0.000000
-17.829600 0.000000
-17.813100 0.000000
-17.796600 0.000000
-17.780100 0.000000
-17.763600 0.000000
-17.747200 0.000000
-17.730700 0.000000
-17.714200 0.000000
-17.697700 0.000000
-17.681200 0.000000
-17.664700 0.000000
-17.648200 0.000000
-17.631700 0.000000
-17.615200 0.000000
-17.598800 0.000000
-17.582300 0.000000
-17.565800 0.000000
-17.549300 0.000000
-17.532800 0.000000
-17.516300 0.000000
-17.499800 1.981000
-17.483300 45.147100
-17.466800 62.621600
-17.450400 38.979400
-17.433900 30.148200
-17.417400 32.213500
-17.400900 0.000000
-17.384400 173.913300
-17.367900 189.361800
-17.351400 125.550400
-17.334900 316.956600
-17.318400 0.000000
-17.302000 0.000000
-17.285500 0.000000
-17.269000 0.000000
-17.252500 0.000000
-17.236000 0.000000
-17.219500 0.000000
-17.203000 0.000000
-17.186500 0.000000
-17.170000 0.000000
-17.153600 0.000000
-17.137100 0.000000
-17.120600 0.000000
-17.104100 0.000000
-17.087600 0.000000
-17.071100 0.000000
-17.054600 0.000000
-17.038100 0.000000
-17.021600 0.000000
-17.005200 0.000000
-16.988700 0.000000
-16.972200 0.000000
-16.955700 0.000000
-16.939200 0.000000
-16.922700 0.000000
-16.906200 0.000000
-16.889700 0.000000
-16.873200 0.000000
-16.856800 0.000000
-16.840300 0.000000
-16.823800 0.000000
-16.807300 0.000000
-16.790800 0.000000
-16.774300 0.000000
-16.757800 0.000000
-16.741300 0.000000
-16.724800 0.000000
-16.708300 0.000000
-16.691900 0.000000
-16.675400 0.000000
-16.658900 0.000000
-16.642400 0.000000
-16.625900 0.000000
-16.609400 0.000000
-16.592900 0.000000
-16.576400 0.000000
-16.559900 0.000000
-16.543500 0.000000
-16.527000 0.000000
-16.510500 0.000000
-16.494000 0.000000
-16.477500 0.000000
-16.461000 0.000000
-16.444500 0.000000
-16.428000 0.000000
-16.411500 0.000000
-16.395100 0.000000
-16.378600 0.000000
-16.362100 0.000000
-16.345600 0.000000
-16.329100 0.000000
-16.312600 0.000000
-16.296100 0.000000
-16.279600 0.000000
-16.263100 0.000000
-16.246700 0.000000
-16.230200 0.000000
-16.213700 0.000000
-16.197200 0.000000
-16.180700 0.000000
-16.164200 0.000000
-16.147700 0.000000
-16.131200 0.000000
-16.114700 0.000000
-16.098300 0.000000
-16.081800 0.000000
-16.065300 0.000000
-16.048800 0.000000
-16.032300 0.000000
-16.015800 0.000000
-15.999300 0.000000
-15.982800 0.000000
-15.966300 0.000000
-15.949900 0.000000
-15.933400 0.000000
-15.916900 0.000000
-15.900400 0.000000
-15.883900 0.000000
-15.867400 0.000000
-15.850900 0.000000
-15.834400 0.000000
-15.817900 0.000000
-15.801500 0.000000
-15.785000 0.000000
-15.768500 0.000000
-15.752000 0.000000
-15.735500 0.000000
-15.719000 0.000000
-15.702500 0.000000
-15.686000 0.000000
-15.669500 0.000000
-15.653100 0.000000
-15.636600 0.000000
-15.620100 0.000000
-15.603600 0.000000
-15.587100 0.000000
-15.570600 0.000000
-15.554100 0.000000
-15.537600 0.000000
-15.521100 0.000000
-15.504700 0.000000
-15.488200 0.000000
-15.471700 0.000000
-15.455200 0.000000
-15.438700 0.000000
-15.422200 0.000000
-15.405700 0.000000
-15.389200 0.000000
-15.372700 0.000000
-15.356300 0.000000
-15.339800 0.000000
-15.323300 0.000000
-15.306800 0.000000
-15.290300 0.000000
-15.273800 0.000000
-15.257300 0.000000
-15.240800 0.000000
-15.224300 0.000000
-15.207800 0.000000
-15.191400 0.000000
-15.174900 0.000000
-15.158400 0.000000
-15.141900 0.000000
-15.125400 0.000000
-15.108900 0.000000
-15.092400 0.000000
-15.075900 0.000000
-15.059400 0.000000
-15.043000 0.000000
-15.026500 0.000000
-15.010000 0.000000
-14.993500 0.000000
-14.977000 0.000000
-14.960500 0.000000
-14.944000 0.000000
-14.927500 0.000000
-14.911000 0.000000
-14.894600 0.000000
-14.878100 0.000000
-14.861600 0.000000
-14.845100 0.000000
-14.828600 0.000000
-14.812100 0.000000
-14.795600 0.000000
-14.779100 0.000000
-14.762600 0.000000
-14.746200 0.000000
-14.729700 0.000000
-14.713200 0.000000
-14.696700 0.000000
-14.680200 0.000000
-14.663700 0.000000
-14.647200 0.000000
-14.630700 0.000000
-14.614200 0.000000
-14.597800 0.000000
-14.581300 0.000000
-14.564800 0.000000
-14.548300 0.000000
-14.531800 0.000000
-14.515300 0.000000
-14.498800 0.000000
-14.482300 0.000000
-14.465800 0.000000
-14.449400 0.000000
-14.432900 0.000000
-14.416400 0.000000
-14.399900 0.000000
-14.383400 0.000000
-14.366900 0.000000
-14.350400 0.000000
-14.333900 0.000000
-14.317400 0.000000
-14.301000 0.000000
-14.284500 0.000000
-14.268000 0.000000
-14.251500 0.000000
-14.235000 0.000000
-14.218500 0.000000
-14.202000 0.000000
-14.185500 0.000000
-14.169000 0.000000
-14.152600 0.000000
-14.136100 0.000000
-14.119600 0.000000
-14.103100 0.000000
-14.086600 0.000000
-14.070100 0.000000
-14.053600 0.000000
-14.037100 0.000000
-14.020600 0.000000
-14.004200 0.000000
-13.987700 0.000000
-13.971200 0.000000
-13.954700 0.000000
-13.938200 0.000000
-13.921700 0.000000
-13.905200 0.000000
-13.888700 0.000000
-13.872200 0.000000
-13.855800 0.000000
-13.839300 0.000000
-13.822800 0.000000
-13.806300 0.000000
-13.789800 0.000000
-13.773300 0.000000
-13.756800 0.146100
-13.740300 0.313300
-13.723800 0.480400
-13.707300 0.647600
-13.690900 0.814700
-13.674400 0.981900
-13.657900 1.149100
-13.641400 1.316200
-13.624900 1.483400
-13.608400 1.467700
-13.591900 1.422300
-13.575400 1.376900
-13.558900 1.331500
-13.542500 1.286100
-13.526000 1.240600
-13.509500 1.195200
-13.493000 1.149800
-13.476500 1.104400
-13.460000 1.127100
-13.443500 1.152000
-13.427000 1.176900
-13.410500 1.201700
-13.394100 1.226600
-13.377600 1.251500
-13.361100 1.276300
-13.344600 1.301200
-13.328100 1.326100
-13.311600 1.351000
-13.295100 1.375800
-13.278600 1.400700
-13.262100 1.425600
-13.245700 1.450400
-13.229200 1.475300
-13.212700 1.496000
-13.196200 1.493200
-13.179700 1.490300
-13.163200 1.487500
-13.146700 1.484600
-13.130200 1.481800
-13.113700 1.479000
-13.097300 1.476100
-13.080800 1.473900
-13.064300 1.540100
-13.047800 1.559800
-13.031300 1.579400
-13.014800 1.599000
-12.998300 1.618700
-12.981800 1.638300
-12.965300 1.657900
-12.948900 1.677500
-12.932400 1.697200
-12.915900 1.716800
-12.899400 1.736400
-12.882900 1.756000
-12.866400 1.775700
-12.849900 1.795300
-12.833400 1.814900
-12.816900 1.834600
-12.800500 1.854200
-12.784000 1.873800
-12.767500 1.893400
-12.751000 1.913100
-12.734500 1.949200
-12.718000 2.006100
-12.701500 2.063000
-12.685000 2.051000
-12.668500 2.191800
-12.652100 2.332600
-12.635600 2.473400
-12.619100 2.614200
-12.602600 2.756800
-12.586100 2.899600
-12.569600 2.998500
-12.553100 3.097300
-12.536600 3.196100
-12.520100 3.295000
-12.503700 3.393800
-12.487200 3.492600
-12.470700 3.591500
-12.454200 3.690300
-12.437700 3.789100
-12.421200 3.888000
-12.404700 3.986800
-12.388200 6.498200
-12.371700 6.367500
-12.355300 6.236800
-12.338800 7.970200
-12.322300 10.837400
-12.305800 19.743800
-12.289300 23.080400
-12.272800 8.847500
-12.256300 2.031600
-12.239800 0.000000
-12.223300 0.000000
-12.206800 0.000000
-12.190400 0.000000
-12.173900 0.000000
-12.157400 0.000000
-12.140900 0.000000
-12.124400 0.000000
-12.107900 0.000000
-12.091400 0.000000
-12.074900 0.000000
-12.058400 0.000000
-12.042000 0.000000
-12.025500 0.000000
-12.009000 0.000000
-11.992500 0.000000
-11.976000 0.000000
-11.959500 0.000000
-11.943000 0.000000
-11.926500 0.000000
-11.910000 0.000000
-11.893600 0.000000
-11.877100 0.000000
-11.860600 0.000000
-11.844100 0.000000
-11.827600 0.000000
-11.811100 0.000000
-11.794600 0.000000
-11.778100 0.000000
-11.761600 0.000000
-11.745200 0.000000
-11.728700 0.000000
-11.712200 0.000000
-11.695700 0.000000
-11.679200 0.000000
-11.662700 0.000000
-11.646200 0.000000
-11.629700 0.000000
-11.613200 0.000000
-11.596800 0.000000
-11.580300 0.000000
-11.563800 0.000000
-11.547300 0.000000
-11.530800 0.000000
-11.514300 0.000000
-11.497800 0.000000
-11.481300 0.000000
-11.464800 0.000000
-11.448400 0.000000
-11.431900 0.000000
-11.415400 0.000000
-11.398900 0.000000
-11.382400 0.000000
-11.365900 0.000000
-11.349400 0.000000
-11.332900 0.000000
-11.316400 0.000000
-11.300000 0.000000
-11.283500 0.000000
-11.267000 0.000000
-11.250500 0.000000
-11.234000 0.000000
-11.217500 0.000000
-11.201000 0.000000
-11.184500 0.000000
-11.168000 0.000000
-11.151600 0.000000
-11.135100 0.000000
-11.118600 0.000000
-11.102100 0.000000
-11.085600 0.000000
-11.069100 0.000000
-11.052600 0.000000
-11.036100 0.000000
-11.019600 0.000000
-11.003200 0.000000
-10.986700 0.000000
-10.970200 0.000000
-10.953700 0.000000
-10.937200 0.000000
-10.920700 0.000000
-10.904200 0.000000
-10.887700 0.000000
-10.871200 0.000000
-10.854800 0.000000
-10.838300 0.000000
-10.821800 0.000000
-10.805300 0.000000
-10.788800 0.000000
-10.772300 0.000000
-10.755800 0.000000
-10.739300 0.000000
-10.722800 0.000000
-10.706400 0.000000
-10.689900 0.000000
-10.673400 0.000000
-10.656900 0.000000
-10.640400 0.000000
-10.623900 0.000000
-10.607400 0.000000
-10.590900 0.000000
-10.574400 0.000000
-10.557900 0.000000
-10.541500 0.000000
-10.525000 0.000000
-10.508500 0.000000
-10.492000 0.000000
-10.475500 0.000000
-10.459000 0.000000
-10.442500 0.000000
-10.426000 0.000000
-10.409500 0.000000
-10.393100 0.000000
-10.376600 0.000000
-10.360100 0.000000
-10.343600 0.000000
-10.327100 0.000000
-10.310600 0.000000
-10.294100 0.000000
-10.277600 0.000000
-10.261100 0.000000
-10.244700 0.000000
-10.228200 0.000000
-10.211700 0.000000
-10.195200 0.000000
-10.178700 0.000000
-10.162200 0.000000
-10.145700 0.000000
-10.129200 0.000000
-10.112700 0.000000
-10.096300 0.000000
-10.079800 0.000000
-10.063300 0.000000
-10.046800 0.000000
-10.030300 0.000000
-10.013800 0.000000
-9.997300 0.000000
-9.980800 0.000000
-9.964300 0.000000
-9.947900 0.000000
-9.931400 0.000000
-9.914900 0.000000
-9.898400 0.000000
-9.881900 0.000000
-9.865400 0.000000
-9.848900 0.000000
-9.832400 0.000000
-9.815900 0.000000
-9.799500 0.000000
-9.783000 0.000000
-9.766500 0.000000
-9.750000 0.000000
-9.733500 0.000000
-9.717000 0.000000
-9.700500 0.000000
-9.684000 0.000000
-9.667500 0.000000
-9.651100 0.000000
-9.634600 0.000000
-9.618100 0.000000
-9.601600 0.000000
-9.585100 0.000000
-9.568600 0.000000
-9.552100 0.000000
-9.535600 0.000000
-9.519100 0.000000
-9.502700 0.000000
-9.486200 0.000000
-9.469700 0.000000
-9.453200 0.000000
-9.436700 0.000000
-9.420200 0.000000
-9.403700 0.000000
-9.387200 0.000000
-9.370700 0.000000
-9.354300 0.000000
-9.337800 0.000000
-9.321300 0.000000
-9.304800 0.000000
-9.288300 0.000000
-9.271800 0.000000
-9.255300 0.000000
-9.238800 0.000000
-9.222300 0.000000
-9.205900 0.000000
-9.189400 0.000000
-9.172900 0.000000
-9.156400 0.000000
-9.139900 0.000000
-9.123400 0.000000
-9.106900 0.000000
-9.090400 0.000000
-9.073900 0.000000
-9.057400 0.000000
-9.041000 0.000000
-9.024500 0.000000
-9.008000 0.000000
-8.991500 0.000000
-8.975000 0.000000
-8.958500 0.000000
-8.942000 0.000000
-8.925500 0.000000
-8.909000 0.000000
-8.892600 0.000000
-8.876100 0.000000
-8.859600 0.608900
-8.843100 1.324300
-8.826600 2.039700
-8.810100 2.755000
-8.793600 3.470400
-8.777100 4.185800
-8.760600 4.901100
-8.744200 5.338400
-8.727700 5.236700
-8.711200 5.135000
-8.694700 5.033300
-8.678200 4.931600
-8.661700 4.829900
-8.645200 4.728200
-8.628700 4.626500
-8.612200 4.524800
-8.595800 4.468600
-8.579300 4.480100
-8.562800 4.517500
-8.546300 4.351100
-8.529800 4.184600
-8.513300 4.018200
-8.496800 3.851700
-8.480300 3.698400
-8.463800 3.720200
-8.447400 3.162600
-8.430900 3.127900
-8.414400 3.093200
-8.397900 3.058500
-8.381400 3.023800
-8.364900 2.989100
-8.348400 2.954400
-8.331900 2.919700
-8.315400 2.885000
-8.299000 2.850300
-8.282500 2.815700
-8.266000 2.781000
-8.249500 2.746300
-8.233000 2.711600
-8.216500 2.676900
-8.200000 2.649500
-8.183500 3.613000
-8.167000 3.549200
-8.150600 3.499400
-8.134100 3.487100
-8.117600 3.474800
-8.101100 3.462500
-8.084600 3.450200
-8.068100 3.437900
-8.051600 3.425600
-8.035100 3.383800
-8.018600 3.334900
-8.002200 2.230500
-7.985700 1.991500
-7.969200 1.752500
-7.952700 1.513600
-7.936200 1.274600
-7.919700 1.056700
-7.903200 1.041600
-7.886700 1.026600
-7.870200 1.011500
-7.853800 0.996400
-7.837300 0.981400
-7.820800 0.966300
-7.804300 0.951300
-7.787800 0.936200
-7.771300 0.921200
-7.754800 0.906100
-7.738300 0.891000
-7.721800 0.876000
-7.705400 0.860900
-7.688900 0.845900
-7.672400 0.830800
-7.655900 0.815700
-7.639400 0.800700
-7.622900 0.785600
-7.606400 0.770600
-7.589900 0.755500
-7.573400 0.740500
-7.556900 0.725400
-7.540500 0.710300
-7.524000 0.695300
-7.507500 0.680200
-7.491000 0.665200
-7.474500 0.650100
-7.458000 0.635100
-7.441500 0.620000
-7.425000 0.604900
-7.408500 0.589900
-7.392100 0.579000
-7.375600 0.590700
-7.359100 0.603500
-7.342600 0.616300
-7.326100 0.629200
-7.309600 0.642000
-7.293100 0.654800
-7.276600 0.667700
-7.260100 0.680500
-7.243700 0.693300
-7.227200 0.706100
-7.210700 0.719000
-7.194200 0.731800
-7.177700 0.744600
-7.161200 0.757500
-7.144700 0.551300
-7.128200 0.531500
-7.111700 0.511700
-7.095300 0.491800
-7.078800 0.472000
-7.062300 0.452200
-7.045800 0.432300
-7.029300 0.412500
-7.012800 0.392700
-6.996300 0.372800
-6.979800 0.353000
-6.963300 0.333200
-6.946900 0.313400
-6.930400 0.293500
-6.913900 0.273700
-6.897400 0.253900
-6.880900 0.234000
-6.864400 0.214200
-6.847900 0.194400
-6.831400 0.174600
-6.814900 0.154700
-6.798500 0.134900
-6.782000 0.115100
-6.765500 0.095200
-6.749000 0.075400
-6.732500 0.055600
-6.716000 0.035800
-6.699500 0.015900
-6.683000 0.000000
-6.666500 0.000000
-6.650100 0.000000
-6.633600 0.000000
-6.617100 0.000000
-6.600600 0.000000
-6.584100 0.000000
-6.567600 0.000000
-6.551100 0.000000
-6.534600 0.000000
-6.518100 0.000000
-6.501700 0.000000
-6.485200 0.000000
-6.468700 0.000000
-6.452200 0.000000
-6.435700 0.000000
-6.419200 0.000000
-6.402700 0.000000
-6.386200 0.000000
-6.369700 0.000000
-6.353300 0.000000
-6.336800 0.000000
-6.320300 0.000000
-6.303800 0.000000
-6.287300 0.000000
-6.270800 0.000000
-6.254300 0.000000
-6.237800 0.000000
-6.221300 0.000000
-6.204900 0.000000
-6.188400 0.000000
-6.171900 0.000000
-6.155400 0.000000
-6.138900 0.000000
-6.122400 0.000000
-6.105900 0.000000
-6.089400 0.000000
-6.072900 0.000000
-6.056500 0.000000
-6.040000 0.000000
-6.023500 0.000000
-6.007000 0.000000
-5.990500 0.000000
-5.974000 0.000000
-5.957500 0.000000
-5.941000 0.000000
-5.924500 0.000000
-5.908000 0.000000
-5.891600 0.000000
-5.875100 0.000000
-5.858600 0.000000
-5.842100 0.000000
-5.825600 0.000000
-5.809100 0.000000
-5.792600 0.000000
-5.776100 0.000000
-5.759600 0.000000
-5.743200 0.000000
-5.726700 0.000000
-5.710200 0.000000
-5.693700 0.000000
-5.677200 0.000000
-5.660700 0.000000
-5.644200 0.000000
-5.627700 0.000000
-5.611200 0.000000
-5.594800 0.000000
-5.578300 0.000000
-5.561800 0.000000
-5.545300 0.000000
-5.528800 0.000000
-5.512300 0.000000
-5.495800 0.000000
-5.479300 0.000000
-5.462800 0.000000
-5.446400 0.000000
-5.429900 0.000000
-5.413400 0.000000
-5.396900 0.000000
-5.380400 0.000000
-5.363900 0.000000
-5.347400 0.000000
-5.330900 0.000000
-5.314400 0.000000
-5.298000 0.000000
-5.281500 0.000000
-5.265000 0.000000
-5.248500 0.000000
-5.232000 0.003300
-5.215500 0.039000
-5.199000 0.075000
-5.182500 0.111100
-5.166000 0.147200
-5.149600 0.183200
-5.133100 0.219300
-5.116600 0.255400
-5.100100 0.291400
-5.083600 0.327500
-5.067100 0.363600
-5.050600 0.399600
-5.034100 0.435700
-5.017600 0.471800
-5.001200 0.507800
-4.984700 0.543900
-4.968200 0.580000
-4.951700 0.616000
-4.935200 0.652100
-4.918700 0.688200
-4.902200 0.724200
-4.885700 0.766100
-4.869200 0.841600
-4.852800 0.917200
-4.836300 0.992800
-4.819800 1.068400
-4.803300 1.144000
-4.786800 1.219500
-4.770300 1.295100
-4.753800 1.370700
-4.737300 1.446300
-4.720800 1.521900
-4.704400 1.597500
-4.687900 0.915900
-4.671400 0.840800
-4.654900 0.852300
-4.638400 0.863700
-4.621900 0.875200
-4.605400 0.886600
-4.588900 0.898000
-4.572400 0.909500
-4.556000 0.920900
-4.539500 0.932400
-4.523000 0.943800
-4.506500 0.955300
-4.490000 0.966700
-4.473500 0.978100
-4.457000 0.989600
-4.440500 1.001000
-4.424000 1.012500
-4.407500 1.023900
-4.391100 1.035400
-4.374600 1.046800
-4.358100 1.058200
-4.341600 1.069700
-4.325100 1.081100
-4.308600 1.092600
-4.292100 1.104000
-4.275600 1.115500
-4.259100 1.126900
-4.242700 1.138300
-4.226200 1.302500
-4.209700 1.535300
-4.193200 1.768000
-4.176700 2.000800
-4.160200 2.233600
-4.143700 2.466400
-4.127200 2.699200
-4.110700 2.931900
-4.094300 7.735200
-4.077800 7.099200
-4.061300 2.122500
-4.044800 2.094300
-4.028300 2.066100
-4.011800 2.037900
-3.995300 2.009700
-3.978800 1.981500
-3.962300 1.953300
-3.945900 1.925100
-3.929400 1.896900
-3.912900 1.868700
-3.896400 1.912300
-3.879900 1.992600
-3.863400 2.072900
-3.846900 2.153700
-3.830400 2.273700
-3.813900 2.396000
-3.797500 2.518300
-3.781000 2.640700
-3.764500 2.763000
-3.748000 2.885300
-3.731500 3.007600
-3.715000 3.129900
-3.698500 3.252200
-3.682000 3.374500
-3.665500 3.496800
-3.649100 3.598500
-3.632600 3.763000
-3.616100 3.921400
-3.599600 4.090800
-3.583100 4.282000
-3.566600 4.489600
-3.550100 4.697200
-3.533600 4.918600
-3.517100 5.170500
-3.500700 5.422500
-3.484200 5.674400
-3.467700 4.848200
-3.451200 4.737800
-3.434700 4.689700
-3.418200 4.787100
-3.401700 4.151300
-3.385200 4.233900
-3.368700 4.316500
-3.352300 4.399100
-3.335800 4.481800
-3.319300 4.414200
-3.302800 4.482200
-3.286300 3.970500
-3.269800 3.974700
-3.253300 3.978900
-3.236800 3.983100
-3.220300 3.987300
-3.203900 3.991500
-3.187400 3.995700
-3.170900 3.999900
-3.154400 4.004200
-3.137900 4.008400
-3.121400 4.012600
-3.104900 4.016800
-3.088400 4.021000
-3.071900 4.025200
-3.055500 4.029400
-3.039000 4.033700
-3.022500 4.037900
-3.006000 4.042100
-2.989500 4.046300
-2.973000 4.052100
-2.956500 4.055600
-2.940000 4.068700
-2.923500 3.990700
-2.907000 3.890300
-2.890600 3.789800
-2.874100 32.840400
-2.857600 4.145600
-2.841100 3.932200
-2.824600 3.819200
-2.808100 3.752900
-2.791600 3.686700
-2.775100 3.620400
-2.758600 2.889800
-2.742200 1.935700
-2.725700 1.927000
-2.709200 1.918400
-2.692700 1.909700
-2.676200 1.901100
-2.659700 1.892500
-2.643200 1.883800
-2.626700 4.791500
-2.610200 6.675900
-2.593800 5.729500
-2.577300 4.797000
-2.560800 4.435400
-2.544300 4.201900
-2.527800 3.968400
-2.511300 4.008000
-2.494800 4.093900
-2.478300 4.179800
-2.461800 4.480000
-2.445400 4.804600
-2.428900 5.129200
-2.412400 6.013000
-2.395900 6.952500
-2.379400 7.892000
-2.362900 5.943200
-2.346400 5.916400
-2.329900 5.889600
-2.313400 5.862900
-2.297000 5.836100
-2.280500 5.809300
-2.264000 4.889700
-2.247500 4.880700
-2.231000 4.871700
-2.214500 4.862700
-2.198000 4.813900
-2.181500 4.468000
-2.165000 4.122200
-2.148600 3.776300
-2.132100 3.430500
-2.115600 3.090600
-2.099100 2.728000
-2.082600 2.560600
-2.066100 2.681200
-2.049600 2.893300
-2.033100 3.105400
-2.016600 3.317600
-2.000200 3.529700
-1.983700 3.778100
-1.967200 4.020800
-1.950700 4.263500
-1.934200 4.256100
-1.917700 4.176900
-1.901200 4.098900
-1.884700 4.020900
-1.868200 3.942900
-1.851800 3.864900
-1.835300 3.786900
-1.818800 3.708900
-1.802300 3.630900
-1.785800 3.515300
-1.769300 3.395500
-1.752800 3.275600
-1.736300 3.155800
-1.719800 3.036000
-1.703400 2.916200
-1.686900 2.796300
-1.670400 2.676500
-1.653900 2.556700
-1.637400 2.436900
-1.620900 2.317100
-1.604400 2.197200
-1.587900 2.077400
-1.571400 1.957600
-1.555000 1.837800
-1.538500 1.797600
-1.522000 1.784200
-1.505500 10.581900
-1.489000 7.876400
-1.472500 7.435700
-1.456000 6.995000
-1.439500 6.554300
-1.423000 6.113500
-1.406600 4.509600
-1.390100 4.350900
-1.373600 4.530000
-1.357100 3.378700
-1.340600 2.074300
-1.324100 0.769900
-1.307600 0.000000
-1.291100 0.000000
-1.274600 0.000000
-1.258100 0.000000
-1.241700 0.000000
-1.225200 0.000000
-1.208700 0.000000
-1.192200 0.000000
-1.175700 0.000000
-1.159200 0.000000
-1.142700 0.000000
-1.126200 0.000000
-1.109700 0.000000
-1.093300 0.000000
-1.076800 0.000000
-1.060300 0.000000
-1.043800 0.000000
-1.027300 0.000000
-1.010800 0.000000
-0.994300 0.000000
-0.977800 0.000000
-0.961300 0.000000
-0.944900 0.000000
-0.928400 0.000000
-0.911900 0.000000
-0.895400 0.000000
-0.878900 0.000000
-0.862400 0.000000
-0.845900 0.000000
-0.829400 0.000000
-0.812900 0.000000
-0.796500 0.000000
-0.780000 0.000000
-0.763500 0.000000
-0.747000 0.000000
-0.730500 0.000000
-0.714000 0.000000
-0.697500 0.000000
-0.681000 0.000000
-0.664500 0.000000
-0.648100 0.000000
-0.631600 0.000000
-0.615100 0.000000
-0.598600 0.000000
-0.582100 0.000000
-0.565600 0.000000
-0.549100 0.000000
-0.532600 0.000000
-0.516100 0.000000
-0.499700 0.000000
-0.483200 0.000000
-0.466700 0.000000
-0.450200 0.000000
-0.433700 0.000000
-0.417200 0.000000
-0.400700 0.000000
-0.384200 0.000000
-0.367700 0.000000
-0.351300 0.000000
-0.334800 0.000000
-0.318300 0.000000
-0.301800 0.000000
-0.285300 0.000000
-0.268800 0.000000
-0.252300 0.000000
-0.235800 0.000000
-0.219300 0.000000
-0.202900 0.000000
-0.186400 0.000000
-0.169900 0.000000
-0.153400 0.000000
-0.136900 0.000000
-0.120400 0.000000
-0.103900 0.000000
-0.087400 0.000000
-0.070900 0.000000
-0.054500 0.000000
-0.038000 0.000000
-0.021500 0.000000
-0.005000 0.000000
0.011500 0.000000
0.028000 0.000000
0.044500 0.000000
0.061000 0.000000
0.077500 0.000000
0.093900 0.000000
0.110400 0.000000
0.126900 0.000000
0.143400 0.000000
0.159900 0.000000
0.176400 0.000000
0.192900 0.000000
0.209400 0.000000
0.225900 0.000000
0.242400 0.000000
0.258800 0.000000
0.275300 0.000000
0.291800 0.000000
0.308300 0.000000
0.324800 0.000000
0.341300 0.000000
0.357800 0.000000
0.374300 0.000000
0.390800 0.000000
0.407200 0.000000
0.423700 0.000000
0.440200 0.000000
0.456700 0.000000
0.473200 0.000000
0.489700 0.000000
0.506200 0.000000
0.522700 0.000000
0.539200 0.000000
0.555600 0.000000
0.572100 0.000000
0.588600 0.000000
0.605100 0.000000
0.621600 0.000000
0.638100 0.000000
0.654600 0.000000
0.671100 0.000000
0.687600 0.000000
0.704000 0.000000
0.720500 0.000000
0.737000 0.000000
0.753500 0.000000
0.770000 0.000000
0.786500 0.130900
0.803000 0.439700
0.819500 0.801100
0.836000 1.162500
0.852400 1.524000
0.868900 1.885400
0.885400 2.246800
0.901900 2.608200
0.918400 2.969700
0.934900 5.515500
0.951400 6.638900
0.967900 6.409300
0.984400 6.179700
1.000800 5.950000
1.017300 5.720400
1.033800 5.399500
1.050300 5.996700
1.066800 3.985800
1.083300 2.304600
1.099800 2.275400
1.116300 2.246300
1.132800 2.217100
1.149200 2.188000
1.165700 2.158800
1.182200 2.129700
1.198700 2.100500
1.215200 2.071300
1.231700 2.042200
1.248200 2.013000
1.264700 1.983900
1.281200 1.954700
1.297600 1.925500
1.314100 1.896400
1.330600 1.867200
1.347100 1.839400
1.363600 1.890800
1.380100 1.954700
1.396600 2.018600
1.413100 2.082400
1.429600 2.064100
1.446000 2.039900
1.462500 2.015800
1.479000 1.991600
1.495500 1.967400
1.512000 1.975500
1.528500 1.997800
1.545000 2.020000
1.561500 2.042300
1.578000 2.064600
1.594400 2.086900
1.610900 2.109200
1.627400 2.131400
1.643900 2.153700
1.660400 3.571500
1.676900 1.802400
1.693400 1.787900
1.709900 1.773400
1.726400 1.758800
1.742900 1.744300
1.759300 1.729800
1.775800 1.715200
1.792300 1.700700
1.808800 1.686200
1.825300 1.671600
1.841800 1.706400
1.858300 2.009900
1.874800 2.325800
1.891300 2.641700
1.907700 2.957500
1.924200 3.273400
1.940700 3.750400
1.957200 3.801300
1.973700 3.852200
1.990200 3.903000
2.006700 3.953900
2.023200 4.004700
2.039700 4.055600
2.056100 4.073600
2.072600 4.080200
2.089100 4.086800
2.105600 4.090900
2.122100 4.070200
2.138600 4.049400
2.155100 4.028700
2.171600 4.007900
2.188100 3.987200
2.204500 3.966400
2.221000 3.945700
2.237500 3.924900
2.254000 3.904200
2.270500 3.883400
2.287000 3.862700
2.303500 3.844600
2.320000 3.846400
2.336500 3.854600
2.352900 3.862800
2.369400 3.871000
2.385900 3.964700
2.402400 4.414000
2.418900 4.401000
2.435400 4.388000
2.451900 4.374900
2.468400 4.361900
2.484900 4.348900
2.501300 4.343000
2.517800 4.830000
2.534300 4.701100
2.550800 4.580900
2.567300 4.460600
2.583800 4.340400
2.600300 4.220200
2.616800 4.100000
2.633300 3.979800
2.649700 4.365100
2.666200 4.264900
2.682700 4.247900
2.699200 4.231000
2.715700 4.214000
2.732200 4.197000
2.748700 4.180100
2.765200 4.163100
2.781700 4.146100
2.798100 4.129200
2.814600 4.112200
2.831100 4.100100
2.847600 4.040200
2.864100 3.958700
2.880600 3.877600
2.897100 3.807500
2.913600 3.741600
2.930100 3.598200
2.946500 3.634000
2.963000 3.669800
2.979500 3.694400
2.996000 3.702200
3.012500 3.709900
3.029000 3.717600
3.045500 3.725400
3.062000 3.733100
3.078500 3.744600
3.094900 3.756100
3.111400 3.767600
3.127900 3.779100
3.144400 3.790600
3.160900 3.802100
3.177400 3.813600
3.193900 3.825100
3.210400 3.836700
3.226900 3.587300
3.243300 3.597800
3.259800 3.644400
3.276300 3.692000
3.292800 3.739500
3.309300 3.787100
3.325800 3.834700
3.342300 3.882300
3.358800 3.929800
3.375300 3.977400
3.391800 4.924600
3.408200 5.022600
3.424700 5.145300
3.441200 5.268100
3.457700 5.390800
3.474200 5.513500
3.490700 6.638700
3.507200 6.280000
3.523700 5.780500
3.540200 5.281000
3.556600 4.781500
3.573100 4.330400
3.589600 4.176100
3.606100 3.883900
3.622600 3.587400
3.639100 3.290900
3.655600 3.000500
3.672100 2.774600
3.688600 2.681800
3.705000 2.589100
3.721500 2.496400
3.738000 2.403700
3.754500 2.311000
3.771000 2.218800
3.787500 2.132000
3.804000 2.045300
3.820500 1.959100
3.837000 1.913500
3.853400 1.904100
3.869900 1.894700
3.886400 1.885300
3.902900 1.875900
3.919400 3.175500
3.935900 3.745000
3.952400 4.314500
3.968900 4.884000
3.985400 6.074800
4.001800 6.421400
4.018300 5.407700
4.034800 4.872800
4.051300 4.359400
4.067800 4.963000
4.084300 5.062200
4.100800 5.161300
4.117300 5.260500
4.133800 5.359700
4.150200 5.458900
4.166700 5.558100
4.183200 5.657200
4.199700 5.756400
4.216200 5.855600
4.232700 4.564100
4.249200 2.893400
4.265700 3.389600
4.282200 3.514000
4.298600 4.174500
4.315100 4.860800
4.331600 5.547100
4.348100 6.233400
4.364600 5.472800
4.381100 5.199100
4.397600 4.865000
4.414100 4.510300
4.430600 4.106500
4.447000 3.704500
4.463500 3.302500
4.480000 2.930700
4.496500 2.834800
4.513000 2.848600
4.529500 2.862400
4.546000 2.876200
4.562500 2.890000
4.579000 2.903800
4.595400 2.917600
4.611900 2.931400
4.628400 2.945200
4.644900 2.959000
4.661400 2.972800
4.677900 3.072000
4.694400 3.266000
4.710900 3.460000
4.727400 3.654000
4.743800 3.848100
4.760300 4.042100
4.776800 4.193500
4.793300 4.387900
4.809800 4.608100
4.826300 4.777500
4.842800 4.839300
4.859300 4.958000
4.875800 5.099300
4.892300 5.501600
4.908700 5.448200
4.925200 5.394700
4.941700 5.171400
4.958200 4.958700
4.974700 4.779500
4.991200 4.706000
5.007700 4.632500
5.024200 4.559000
5.040700 4.465400
5.057100 5.279600
5.073600 1.862900
5.090100 8.697600
5.106600 3.791800
5.123100 4.309500
5.139600 5.579700
5.156100 3.434700
5.172600 3.351000
5.189100 3.267400
5.205500 3.183700
5.222000 3.100100
5.238500 3.016400
5.255000 2.932700
5.271500 2.849100
5.288000 2.781800
5.304500 2.834200
5.321000 2.893600
5.337500 3.025000
5.353900 3.198200
5.370400 3.371400
5.386900 3.544500
5.403400 3.717700
5.419900 3.881700
5.436400 3.908400
5.452900 3.935100
5.469400 4.080600
5.485900 5.343700
5.502300 4.978300
5.518800 4.612800
5.535300 4.175100
5.551800 3.648900
5.568300 3.122700
5.584800 2.596500
5.601300 2.070300
5.617800 1.870500
5.634300 1.863700
5.650700 1.857000
5.667200 3.417600
5.683700 3.813200
5.700200 4.208800
5.716700 4.685700
5.733200 5.265000
5.749700 5.475300
5.766200 5.685700
5.782700 5.896100
5.799100 6.106500
5.815600 6.202300
5.832100 6.287400
5.848600 6.372600
5.865100 6.302500
5.881600 6.161500
5.898100 5.917900
5.914600 4.472700
5.931100 4.055300
5.947500 3.637800
5.964000 3.220300
5.980500 2.802800
5.997000 2.385300
6.013500 1.967800
6.030000 1.628100
6.046500 1.511200
6.063000 1.394300
6.079500 1.235300
6.095900 0.918400
6.112400 0.909800
6.128900 0.901200
6.145400 0.892600
6.161900 0.971300
6.178400 1.112300
6.194900 1.253200
6.211400 1.394100
6.227900 1.535100
6.244300 1.679600
6.260800 1.841700
6.277300 2.003800
6.293800 2.166000
6.310300 2.328100
6.326800 2.490200
6.343300 2.652300
6.359800 3.285700
6.376300 3.268300
6.392800 3.250900
6.409200 3.233500
6.425700 3.216100
6.442200 3.198700
6.458700 5.329100
6.475200 5.155200
6.491700 4.981300
6.508200 4.977900
6.524700 5.189600
6.541200 5.401300
6.557600 5.612900
6.574100 5.824600
6.590600 6.058200
6.607100 6.963000
6.623600 8.190400
6.640100 8.286000
6.656600 8.266100
6.673100 8.246200
6.689600 8.226200
6.706000 8.206300
6.722500 7.796200
6.739000 7.275300
6.755500 6.754400
6.772000 6.233500
6.788500 4.760800
6.805000 4.464000
6.821500 4.287800
6.838000 4.117400
6.854400 3.947100
6.870900 3.776700
6.887400 3.606400
6.903900 3.436000
6.920400 3.265600
6.936900 3.095300
6.953400 2.924900
6.969900 2.814900
6.986400 2.813000
7.002800 2.897000
7.019300 4.162700
7.035800 4.091700
7.052300 4.020600
7.068800 3.949600
7.085300 3.878500
7.101800 3.807500
7.118300 3.736400
7.134800 3.503200
7.151200 3.148300
7.167700 2.751000
7.184200 2.443700
7.200700 2.520000
7.217200 2.804300
7.233700 3.145200
7.250200 3.486100
7.266700 9.464900
7.283200 8.881700
7.299600 7.045500
7.316100 5.209300
7.332600 5.006900
7.349100 5.727000
7.365600 6.502600
7.382100 7.525100
7.398600 8.547600
7.415100 9.462200
7.431600 10.224500
7.448000 10.986900
7.464500 10.791200
7.481000 8.633900
7.497500 7.158000
7.514000 5.280500
7.530500 2.789100
7.547000 2.830600
7.563500 2.872200
7.580000 2.913700
7.596400 2.955300
7.612900 2.996800
7.629400 3.038400
7.645900 3.079900
7.662400 3.121500
7.678900 3.200600
7.695400 3.282800
7.711900 3.385600
7.728400 3.496300
7.744800 3.607000
7.761300 3.717700
7.777800 4.243300
7.794300 6.658100
7.810800 7.823900
7.827300 6.821200
7.843800 7.140000
7.860300 7.458800
7.876800 8.418700
7.893200 8.526700
7.909700 6.838100
7.926200 6.012600
7.942700 5.444500
7.959200 5.630900
7.975700 6.011100
7.992200 6.391300
8.008700 6.271900
8.025200 5.719700
8.041700 5.071100
8.058100 5.511900
8.074600 5.366000
8.091100 5.220000
8.107600 6.250400
8.124100 6.449000
8.140600 6.707400
8.157100 6.891500
8.173600 6.955400
8.190100 9.677200
8.206500 8.616000
8.223000 8.466600
8.239500 8.055100
8.256000 7.419700
8.272500 6.737300
8.289000 6.259800
8.305500 5.822300
8.322000 5.384700
8.338500 4.972400
8.354900 4.599600
8.371400 4.259800
8.387900 3.945500
8.404400 3.776200
8.420900 3.660300
8.437400 3.697800
8.453900 3.735400
8.470400 3.875800
8.486900 4.041100
8.503300 4.206400
8.519800 4.371700
8.536300 4.537000
8.552800 4.862800
8.569300 4.749100
8.585800 4.635400
8.602300 4.940800
8.618800 5.377200
8.635300 5.874200
8.651700 9.459000
8.668200 7.183900
8.684700 11.151400
8.701200 7.210700
8.717700 6.867600
8.734200 6.524600
8.750700 6.191000
8.767200 5.909200
8.783700 6.368000
8.800100 6.924100
8.816600 7.684000
8.833100 9.108600
8.849600 9.259000
8.866100 3.931400
8.882600 4.018900
8.899100 4.089300
8.915600 4.209800
8.932100 4.353700
8.948500 4.497500
8.965000 5.802400
8.981500 5.710400
8.998000 5.618400
9.014500 5.526300
9.031000 5.692000
9.047500 5.915600
9.064000 6.139100
9.080500 6.362700
9.096900 9.258000
9.113400 7.409800
9.129900 8.091100
9.146400 8.372200
9.162900 8.902800
9.179400 8.990900
9.195900 7.419300
9.212400 7.150600
9.228900 6.977400
9.245300 6.827000
9.261800 6.676700
9.278300 6.569800
9.294800 15.749700
9.311300 7.856100
9.327800 8.625000
9.344300 9.424800
9.360800 7.449500
9.377300 7.365000
9.393700 7.398300
9.410200 7.431600
9.426700 6.749200
9.443200 6.856900
9.459700 6.974100
9.476200 7.153700
9.492700 7.300200
9.509200 7.251500
9.525700 7.202900
9.542200 6.094400
9.558600 5.720700
9.575100 5.493000
9.591600 5.410500
9.608100 5.327900
9.624600 5.245400
9.641100 5.182900
9.657600 5.947000
9.674100 6.712600
9.690600 7.478100
9.707000 8.501000
9.723500 9.097400
9.740000 7.911000
9.756500 15.471800
9.773000 11.280200
9.789500 10.971900
9.806000 10.663500
9.822500 10.367100
9.839000 9.428700
9.855400 8.961900
9.871900 8.145900
9.888400 7.235700
9.904900 6.325500
9.921400 5.570900
9.937900 4.916500
9.954400 4.293600
9.970900 4.498300
9.987400 4.714600
10.003800 4.106900
10.020300 4.294300
10.036800 4.532500
10.053300 4.770700
10.069800 5.008800
10.086300 5.418000
10.102800 5.882200
10.119300 6.207300
10.135800 12.348600
10.152200 5.138400
10.168700 5.168400
10.185200 5.198400
10.201700 5.228300
10.218200 5.258300
10.234700 5.288300
10.251200 5.318200
10.267700 5.348200
10.284200 5.378200
10.300600 4.516200
10.317100 4.543000
10.333600 5.307900
10.350100 4.961800
10.366600 4.622300
10.383100 4.319400
10.399600 7.586200
10.416100 6.391600
10.432600 6.343000
10.449000 7.255100
10.465500 7.308400
10.482000 7.468600
10.498500 7.724200
10.515000 7.979900
10.531500 8.235500
10.548000 9.991400
10.564500 10.126600
10.581000 9.392500
10.597400 8.658400
10.613900 8.395500
10.630400 8.722300
10.646900 9.049100
10.663400 9.375900
10.679900 9.776900
10.696400 10.220400
10.712900 10.037200
10.729400 8.563300
10.745800 7.089500
10.762300 5.809600
10.778800 5.565900
10.795300 5.300700
10.811800 6.153500
10.828300 5.401600
10.844800 4.655000
10.861300 4.144800
10.877800 4.008100
10.894200 4.205900
10.910700 8.598600
10.927200 11.412900
10.943700 8.507900
10.960200 6.589200
10.976700 8.317800
10.993200 8.504900
11.009700 7.998900
11.026200 7.230200
11.042700 7.890500
11.059100 8.132100
11.075600 8.260000
11.092100 8.275700
11.108600 8.262100
11.125100 8.092400
11.141600 8.054200
11.158100 8.757600
11.174600 8.732400
11.191100 7.718300
11.207500 7.408900
11.224000 7.099500
11.240500 6.830300
11.257000 6.584800
11.273500 6.339300
11.290000 6.154200
11.306500 6.149500
11.323000 6.144900
11.339500 6.134000
11.355900 6.145600
11.372400 6.240200
11.388900 6.323000
11.405400 6.367200
11.421900 6.392300
11.438400 6.462800
11.454900 6.515000
11.471400 6.540100
11.487900 6.565200
11.504300 6.590300
11.520800 6.615400
11.537300 5.551600
11.553800 5.576800
11.570300 5.601900
11.586800 5.671600
11.603300 5.259700
11.619800 5.546500
11.636300 8.274500
11.652700 9.135600
11.669200 6.724900
11.685700 6.410600
11.702200 6.096300
11.718700 5.782100
11.735200 6.631000
11.751700 6.831100
11.768200 8.327800
11.784700 5.528300
11.801100 5.097100
11.817600 4.666000
11.834100 4.287800
11.850600 3.933900
11.867100 3.785200
11.883600 3.683100
11.900100 3.581100
11.916600 3.479000
11.933100 3.376900
11.949500 3.274800
11.966000 3.172800
11.982500 3.070700
11.999000 2.980000
12.015500 2.958100
12.032000 2.936200
12.048500 2.914300
12.065000 2.892400
12.081500 2.870500
12.097900 2.848600
12.114400 2.826700
12.130900 2.804800
12.147400 2.782900
12.163900 2.761000
12.180400 2.739100
12.196900 2.717200
12.213400 2.695300
12.229900 2.673400
12.246300 2.596100
12.262800 2.477500
12.279300 1.993600
12.295800 1.703100
12.312300 1.490600
12.328800 1.278200
12.345300 1.065900
12.361800 0.902400
12.378300 0.775000
12.394700 0.647700
12.411200 0.520300
12.427700 0.393000
12.444200 0.265600
12.460700 0.138200
12.477200 0.010900
12.493700 0.000000
12.510200 0.000000
12.526700 0.000000
12.543100 0.000000
12.559600 0.000000
12.576100 0.000000
12.592600 0.000000
12.609100 0.000000
12.625600 0.000000
12.642100 0.000000
12.658600 0.000000
12.675100 0.000000
12.691600 0.000000
12.708000 0.000000
12.724500 0.000000
12.741000 0.000000
12.757500 0.000000
12.774000 0.000000
12.790500 0.000000
12.807000 0.000000
12.823500 0.000000
12.840000 0.000000
12.856400 0.000000
12.872900 0.000000
12.889400 0.000000
12.905900 0.000000
12.922400 0.000000
12.938900 0.000000
12.955400 0.000000
12.971900 0.000000
12.988400 0.000000
13.004800 0.000000
13.021300 0.000000
13.037800 0.000000
13.054300 0.000000
13.070800 0.000000
13.087300 0.000000
13.103800 0.000000
13.120300 0.000000
13.136800 0.000000
13.153200 0.000000
13.169700 0.000000
13.186200 0.000000
13.202700 0.000000
13.219200 0.000000
13.235700 0.000000
13.252200 0.000000
13.268700 0.000000
13.285200 0.000000
13.301600 0.000000
13.318100 0.000000
13.334600 0.000000
13.351100 0.000000
13.367600 0.000000
13.384100 0.000000
13.400600 0.000000
13.417100 0.000000
13.433600 0.000000
13.450000 0.000000
13.466500 0.000000
13.483000 0.000000
13.499500 0.000000
13.516000 0.000000
13.532500 0.000000
13.549000 0.000000
13.565500 0.000000
13.582000 0.000000
13.598400 0.000000
13.614900 0.000000
13.631400 0.000000
13.647900 0.000000
13.664400 0.000000
13.680900 0.000000
13.697400 0.000000
13.713900 0.000000
13.730400 0.000000
13.746800 0.000000
13.763300 0.000000
13.779800 0.000000
13.796300 0.000000
13.812800 0.000000
13.829300 0.000000
13.845800 0.000000
13.862300 0.000000
13.878800 0.000000
13.895200 0.000000
13.911700 0.000000
13.928200 0.000000
13.944700 0.000000
13.961200 0.000000
13.977700 0.000000
e
