set title 'mp-7542 - Density of States'
set xlabel 'Energy (eV)'
set ylabel 'DOS (states/eV)'
set grid
set xrange [-10:10]
set yrange [0:8.173]
set xzeroaxis lt -1
set terminal png size 800,600
set output 'mp-7542_dos_gnuplot.png'
plot '-' using 1:2 with lines title 'DOS'
-20.297300 0.000000
-20.279000 0.000000
-20.260600 0.000000
-20.242200 0.000000
-20.223800 0.000000
-20.205400 0.000000
-20.187000 0.000000
-20.168600 0.000000
-20.150200 0.000000
-20.131800 0.000000
-20.113400 0.000000
-20.095100 0.000000
-20.076700 0.000000
-20.058300 0.000000
-20.039900 0.000000
-20.021500 0.000000
-20.003100 0.000000
-19.984700 0.000000
-19.966300 0.000000
-19.947900 0.000000
-19.929600 0.000000
-19.911200 0.000000
-19.892800 0.000000
-19.874400 0.000000
-19.856000 0.000000
-19.837600 0.000000
-19.819200 0.000000
-19.800800 0.000000
-19.782400 0.000000
-19.764000 0.000000
-19.745700 0.000000
-19.727300 0.000000
-19.708900 0.000000
-19.690500 0.000000
-19.672100 0.000000
-19.653700 0.000000
-19.635300 0.000000
-19.616900 0.000000
-19.598500 0.000000
-19.580200 0.000000
-19.561800 0.000000
-19.543400 0.000000
-19.525000 0.000000
-19.506600 0.000000
-19.488200 0.000000
-19.469800 0.000000
-19.451400 0.000000
-19.433000 0.000000
-19.414600 0.000000
-19.396300 0.000000
-19.377900 0.000000
-19.359500 0.000000
-19.341100 0.000000
-19.322700 0.000000
-19.304300 0.000000
-19.285900 0.000000
-19.267500 0.000000
-19.249100 0.000000
-19.230800 0.000000
-19.212400 0.000000
-19.194000 0.000000
-19.175600 0.000000
-19.157200 0.000000
-19.138800 0.000000
-19.120400 0.000000
-19.102000 0.000000
-19.083600 0.000000
-19.065200 0.000000
-19.046900 0.000000
-19.028500 0.000000
-19.010100 0.000000
-18.991700 0.000000
-18.973300 0.000000
-18.954900 0.000000
-18.936500 0.000000
-18.918100 0.000000
-18.899700 0.000000
-18.881400 0.000000
-18.863000 0.000000
-18.844600 0.000000
-18.826200 0.000000
-18.807800 0.000000
-18.789400 0.000000
-18.771000 0.000000
-18.752600 0.000000
-18.734200 0.000000
-18.715800 0.000000
-18.697500 0.000000
-18.679100 0.000000
-18.660700 0.000000
-18.642300 0.000000
-18.623900 3311.093500
-18.605500 3036.021900
-18.587100 0.000000
-18.568700 0.000000
-18.550300 0.000000
-18.532000 0.000000
-18.513600 0.000000
-18.495200 0.000000
-18.476800 0.000000
-18.458400 0.000000
-18.440000 0.000000
-18.421600 0.000000
-18.403200 0.000000
-18.384800 0.000000
-18.366400 0.000000
-18.348100 0.000000
-18.329700 0.000000
-18.311300 0.000000
-18.292900 0.000000
-18.274500 0.000000
-18.256100 0.000000
-18.237700 0.000000
-18.219300 0.000000
-18.200900 0.000000
-18.182600 0.000000
-18.164200 0.000000
-18.145800 0.000000
-18.127400 0.000000
-18.109000 0.000000
-18.090600 0.000000
-18.072200 0.000000
-18.053800 0.000000
-18.035400 0.000000
-18.017000 0.000000
-17.998700 0.000000
-17.980300 0.000000
-17.961900 0.000000
-17.943500 0.000000
-17.925100 0.000000
-17.906700 0.000000
-17.888300 0.000000
-17.869900 0.000000
-17.851500 0.000000
-17.833200 0.000000
-17.814800 0.000000
-17.796400 0.000000
-17.778000 0.000000
-17.759600 0.000000
-17.741200 0.000000
-17.722800 0.000000
-17.704400 0.000000
-17.686000 0.000000
-17.667700 0.000000
-17.649300 0.000000
-17.630900 0.000000
-17.612500 0.000000
-17.594100 0.000000
-17.575700 0.000000
-17.557300 0.000000
-17.538900 0.000000
-17.520500 0.000000
-17.502100 0.000000
-17.483800 0.000000
-17.465400 0.000000
-17.447000 0.000000
-17.428600 0.000000
-17.410200 0.000000
-17.391800 0.000000
-17.373400 0.000000
-17.355000 0.000000
-17.336600 0.000000
-17.318300 0.000000
-17.299900 0.000000
-17.281500 0.000000
-17.263100 0.000000
-17.244700 0.000000
-17.226300 0.000000
-17.207900 0.000000
-17.189500 0.000000
-17.171100 0.000000
-17.152700 0.000000
-17.134400 0.000000
-17.116000 0.000000
-17.097600 0.000000
-17.079200 0.000000
-17.060800 0.000000
-17.042400 0.000000
-17.024000 0.000000
-17.005600 0.000000
-16.987200 0.000000
-16.968900 0.000000
-16.950500 0.000000
-16.932100 0.000000
-16.913700 0.000000
-16.895300 0.000000
-16.876900 0.000000
-16.858500 0.000000
-16.840100 0.000000
-16.821700 0.000000
-16.803300 0.000000
-16.785000 0.000000
-16.766600 0.000000
-16.748200 0.000000
-16.729800 0.000000
-16.711400 0.000000
-16.693000 0.000000
-16.674600 0.000000
-16.656200 0.000000
-16.637800 0.000000
-16.619500 0.000000
-16.601100 0.000000
-16.582700 0.000000
-16.564300 0.000000
-16.545900 0.000000
-16.527500 0.000000
-16.509100 0.000000
-16.490700 0.000000
-16.472300 0.000000
-16.453900 0.000000
-16.435600 0.000000
-16.417200 0.000000
-16.398800 0.000000
-16.380400 0.000000
-16.362000 0.000000
-16.343600 0.000000
-16.325200 0.000000
-16.306800 0.000000
-16.288400 0.000000
-16.270100 0.000000
-16.251700 0.000000
-16.233300 0.000000
-16.214900 0.000000
-16.196500 0.000000
-16.178100 0.000000
-16.159700 0.000000
-16.141300 0.000000
-16.122900 0.000000
-16.104500 0.000000
-16.086200 0.000000
-16.067800 0.000000
-16.049400 0.000000
-16.031000 0.000000
-16.012600 0.000000
-15.994200 0.000000
-15.975800 0.000000
-15.957400 0.000000
-15.939000 0.000000
-15.920700 0.000000
-15.902300 0.000000
-15.883900 0.000000
-15.865500 0.000000
-15.847100 0.000000
-15.828700 0.000000
-15.810300 0.000000
-15.791900 0.000000
-15.773500 0.000000
-15.755100 0.000000
-15.736800 0.000000
-15.718400 0.000000
-15.700000 0.000000
-15.681600 0.000000
-15.663200 0.000000
-15.644800 0.000000
-15.626400 0.000000
-15.608000 0.000000
-15.589600 0.000000
-15.571300 0.000000
-15.552900 0.000000
-15.534500 0.000000
-15.516100 0.000000
-15.497700 0.000000
-15.479300 0.000000
-15.460900 0.000000
-15.442500 0.000000
-15.424100 0.000000
-15.405700 0.000000
-15.387400 0.000000
-15.369000 0.000000
-15.350600 0.000000
-15.332200 0.000000
-15.313800 0.000000
-15.295400 0.000000
-15.277000 0.000000
-15.258600 0.000000
-15.240200 0.000000
-15.221900 0.000000
-15.203500 0.000000
-15.185100 0.000000
-15.166700 0.000000
-15.148300 0.000000
-15.129900 0.000000
-15.111500 0.000000
-15.093100 0.000000
-15.074700 0.000000
-15.056300 0.000000
-15.038000 0.000000
-15.019600 0.000000
-15.001200 0.000000
-14.982800 0.000000
-14.964400 0.000000
-14.946000 0.000000
-14.927600 0.000000
-14.909200 0.000000
-14.890800 0.000000
-14.872500 0.000000
-14.854100 0.000000
-14.835700 0.000000
-14.817300 0.000000
-14.798900 0.000000
-14.780500 0.000000
-14.762100 0.000000
-14.743700 0.000000
-14.725300 0.000000
-14.706900 0.000000
-14.688600 0.000000
-14.670200 0.000000
-14.651800 0.000000
-14.633400 0.000000
-14.615000 0.000000
-14.596600 0.000000
-14.578200 0.000000
-14.559800 0.000000
-14.541400 0.000000
-14.523100 0.000000
-14.504700 0.000000
-14.486300 0.000000
-14.467900 0.000000
-14.449500 0.000000
-14.431100 0.000000
-14.412700 0.000000
-14.394300 0.000000
-14.375900 0.000000
-14.357500 0.000000
-14.339200 0.000000
-14.320800 0.000000
-14.302400 0.000000
-14.284000 0.000000
-14.265600 0.000000
-14.247200 0.000000
-14.228800 0.000000
-14.210400 0.000000
-14.192000 0.000000
-14.173700 0.000000
-14.155300 0.000000
-14.136900 0.000000
-14.118500 0.000000
-14.100100 0.000000
-14.081700 0.000000
-14.063300 0.000000
-14.044900 0.000000
-14.026500 0.000000
-14.008100 0.000000
-13.989800 0.000000
-13.971400 0.000000
-13.953000 0.000000
-13.934600 0.000000
-13.916200 0.000000
-13.897800 0.000000
-13.879400 0.000000
-13.861000 0.000000
-13.842600 0.000000
-13.824300 0.000000
-13.805900 0.000000
-13.787500 0.000000
-13.769100 0.000000
-13.750700 0.000000
-13.732300 0.000000
-13.713900 0.000000
-13.695500 0.000000
-13.677100 0.000000
-13.658700 0.000000
-13.640400 0.000000
-13.622000 0.000000
-13.603600 0.000000
-13.585200 0.000000
-13.566800 0.000000
-13.548400 0.000000
-13.530000 0.000000
-13.511600 0.000000
-13.493200 0.000000
-13.474900 0.000000
-13.456500 0.000000
-13.438100 0.000000
-13.419700 0.000000
-13.401300 0.000000
-13.382900 0.000000
-13.364500 0.000000
-13.346100 0.000000
-13.327700 0.000000
-13.309300 0.000000
-13.291000 0.000000
-13.272600 0.000000
-13.254200 0.000000
-13.235800 0.000000
-13.217400 0.000000
-13.199000 0.000000
-13.180600 0.000000
-13.162200 0.000000
-13.143800 0.000000
-13.125500 0.000000
-13.107100 0.000000
-13.088700 0.000000
-13.070300 0.000000
-13.051900 0.000000
-13.033500 0.000000
-13.015100 0.000000
-12.996700 0.000000
-12.978300 0.000000
-12.960000 0.000000
-12.941600 0.000000
-12.923200 0.000000
-12.904800 0.000000
-12.886400 0.000000
-12.868000 0.000000
-12.849600 0.000000
-12.831200 0.000000
-12.812800 0.000000
-12.794400 0.000000
-12.776100 0.000000
-12.757700 0.000000
-12.739300 0.000000
-12.720900 0.000000
-12.702500 0.000000
-12.684100 0.000000
-12.665700 0.000000
-12.647300 0.000000
-12.628900 0.000000
-12.610600 0.000000
-12.592200 0.000000
-12.573800 0.000000
-12.555400 0.000000
-12.537000 0.000000
-12.518600 0.000000
-12.500200 0.000000
-12.481800 0.000000
-12.463400 0.000000
-12.445000 0.000000
-12.426700 0.000000
-12.408300 0.000000
-12.389900 0.000000
-12.371500 0.000000
-12.353100 0.000000
-12.334700 0.000000
-12.316300 0.000000
-12.297900 0.000000
-12.279500 0.000000
-12.261200 0.000000
-12.242800 0.000000
-12.224400 0.000000
-12.206000 0.000000
-12.187600 0.000000
-12.169200 0.000000
-12.150800 0.000000
-12.132400 0.000000
-12.114000 0.000000
-12.095600 0.000000
-12.077300 0.000000
-12.058900 0.000000
-12.040500 0.000000
-12.022100 0.000000
-12.003700 0.000000
-11.985300 0.000000
-11.966900 0.000000
-11.948500 0.000000
-11.930100 0.000000
-11.911800 0.000000
-11.893400 0.000000
-11.875000 0.000000
-11.856600 0.000000
-11.838200 0.000000
-11.819800 0.000000
-11.801400 0.000000
-11.783000 0.000000
-11.764600 0.000000
-11.746200 0.000000
-11.727900 0.000000
-11.709500 0.000000
-11.691100 0.000000
-11.672700 0.000000
-11.654300 0.000000
-11.635900 0.000000
-11.617500 0.000000
-11.599100 0.000000
-11.580700 0.000000
-11.562400 0.000000
-11.544000 0.000000
-11.525600 0.000000
-11.507200 0.000000
-11.488800 0.000000
-11.470400 0.000000
-11.452000 0.000000
-11.433600 0.000000
-11.415200 0.000000
-11.396800 0.000000
-11.378500 0.000000
-11.360100 0.000000
-11.341700 0.000000
-11.323300 0.000000
-11.304900 0.000000
-11.286500 0.000000
-11.268100 0.000000
-11.249700 0.000000
-11.231300 0.000000
-11.213000 0.000000
-11.194600 0.000000
-11.176200 0.000000
-11.157800 0.000000
-11.139400 0.000000
-11.121000 0.000000
-11.102600 0.000000
-11.084200 0.000000
-11.065800 0.000000
-11.047400 0.000000
-11.029100 0.000000
-11.010700 0.000000
-10.992300 0.000000
-10.973900 0.000000
-10.955500 0.000000
-10.937100 0.000000
-10.918700 0.000000
-10.900300 0.000000
-10.881900 0.000000
-10.863600 0.000000
-10.845200 0.000000
-10.826800 0.000000
-10.808400 0.000000
-10.790000 0.000000
-10.771600 0.000000
-10.753200 0.000000
-10.734800 0.000000
-10.716400 0.000000
-10.698000 0.000000
-10.679700 0.000000
-10.661300 0.000000
-10.642900 0.000000
-10.624500 0.000000
-10.606100 0.000000
-10.587700 0.000000
-10.569300 0.000000
-10.550900 0.000000
-10.532500 0.000000
-10.514200 0.000000
-10.495800 0.000000
-10.477400 0.000000
-10.459000 0.000000
-10.440600 0.000000
-10.422200 0.000000
-10.403800 0.000000
-10.385400 0.000000
-10.367000 0.000000
-10.348600 0.000000
-10.330300 0.000000
-10.311900 0.000000
-10.293500 0.000000
-10.275100 0.000000
-10.256700 0.000000
-10.238300 0.000000
-10.219900 0.000000
-10.201500 0.000000
-10.183100 0.000000
-10.164800 0.000000
-10.146400 0.000000
-10.128000 0.000000
-10.109600 0.000000
-10.091200 0.000000
-10.072800 0.000000
-10.054400 0.000000
-10.036000 0.000000
-10.017600 0.000000
-9.999200 0.000000
-9.980900 0.000000
-9.962500 0.000000
-9.944100 0.000000
-9.925700 0.000000
-9.907300 0.000000
-9.888900 0.000000
-9.870500 0.000000
-9.852100 0.000000
-9.833700 0.000000
-9.815400 0.000000
-9.797000 0.000000
-9.778600 0.000000
-9.760200 0.000000
-9.741800 0.000000
-9.723400 0.000000
-9.705000 0.000000
-9.686600 0.000000
-9.668200 0.000000
-9.649800 0.000000
-9.631500 0.000000
-9.613100 0.000000
-9.594700 0.000000
-9.576300 0.000000
-9.557900 0.000000
-9.539500 0.000000
-9.521100 0.000000
-9.502700 0.000000
-9.484300 0.000000
-9.466000 0.000000
-9.447600 0.000000
-9.429200 0.000000
-9.410800 0.000000
-9.392400 0.000000
-9.374000 0.000000
-9.355600 0.000000
-9.337200 0.000000
-9.318800 0.000000
-9.300400 0.000000
-9.282100 0.000000
-9.263700 0.000000
-9.245300 0.000000
-9.226900 0.000000
-9.208500 0.000000
-9.190100 0.000000
-9.171700 0.000000
-9.153300 0.000000
-9.134900 0.000000
-9.116600 0.000000
-9.098200 0.000000
-9.079800 0.000000
-9.061400 0.000000
-9.043000 0.000000
-9.024600 0.000000
-9.006200 0.000000
-8.987800 0.000000
-8.969400 0.000000
-8.951000 0.000000
-8.932700 0.000000
-8.914300 0.000000
-8.895900 0.000000
-8.877500 0.000000
-8.859100 0.000000
-8.840700 0.000000
-8.822300 0.000000
-8.803900 0.000000
-8.785500 0.000000
-8.767200 0.000800
-8.748800 0.088400
-8.730400 0.279000
-8.712000 0.352600
-8.693600 0.395100
-8.675200 0.457700
-8.656800 0.524000
-8.638400 0.594400
-8.620000 0.630300
-8.601600 0.672700
-8.583300 0.710700
-8.564900 0.747300
-8.546500 0.788700
-8.528100 0.835200
-8.509700 0.882900
-8.491300 0.931900
-8.472900 0.968700
-8.454500 1.007000
-8.436100 1.043800
-8.417800 1.080400
-8.399400 1.121500
-8.381000 1.164500
-8.362600 1.208700
-8.344200 1.253900
-8.325800 1.299800
-8.307400 1.347000
-8.289000 1.401400
-8.270600 1.459800
-8.252300 1.521600
-8.233900 1.586400
-8.215500 1.654800
-8.197100 1.726600
-8.178700 1.801800
-8.160300 1.880700
-8.141900 1.964500
-8.123500 2.155400
-8.105100 2.559400
-8.086700 2.572400
-8.068400 2.547000
-8.050000 2.522600
-8.031600 2.509800
-8.013200 2.481300
-7.994800 2.438000
-7.976400 2.424100
-7.958000 2.439100
-7.939600 2.438200
-7.921200 2.430400
-7.902900 2.414500
-7.884500 2.390000
-7.866100 2.368700
-7.847700 2.363000
-7.829300 2.372700
-7.810900 2.390400
-7.792500 2.400100
-7.774100 2.417400
-7.755700 2.465300
-7.737300 2.494700
-7.719000 2.485200
-7.700600 2.491200
-7.682200 2.579400
-7.663800 2.320700
-7.645400 2.054400
-7.627000 1.790700
-7.608600 1.719800
-7.590200 1.812100
-7.571800 2.000600
-7.553500 0.528400
-7.535100 0.000000
-7.516700 0.000000
-7.498300 0.000000
-7.479900 0.000000
-7.461500 0.000000
-7.443100 0.000000
-7.424700 0.000000
-7.406300 0.000000
-7.387900 0.000000
-7.369600 0.000000
-7.351200 0.000000
-7.332800 0.000000
-7.314400 0.000000
-7.296000 0.000000
-7.277600 0.000000
-7.259200 0.000000
-7.240800 0.000000
-7.222400 0.000000
-7.204100 0.000000
-7.185700 0.000000
-7.167300 0.000000
-7.148900 0.139900
-7.130500 0.465300
-7.112100 0.606000
-7.093700 0.756700
-7.075300 0.828100
-7.056900 0.901000
-7.038500 1.001900
-7.020200 1.110100
-7.001800 1.225500
-6.983400 1.349200
-6.965000 1.470000
-6.946600 1.568700
-6.928200 1.670000
-6.909800 1.787300
-6.891400 1.917400
-6.873000 2.064000
-6.854700 2.241300
-6.836300 2.471700
-6.817900 2.772200
-6.799500 3.006700
-6.781100 3.176400
-6.762700 3.313500
-6.744300 3.183200
-6.725900 3.144100
-6.707500 3.212300
-6.689100 3.332100
-6.670800 3.332600
-6.652400 3.356700
-6.634000 3.664400
-6.615600 3.956200
-6.597200 4.117500
-6.578800 3.779100
-6.560400 3.226900
-6.542000 3.155700
-6.523600 3.316100
-6.505300 3.640000
-6.486900 3.804300
-6.468500 4.060700
-6.450100 4.177900
-6.431700 4.107400
-6.413300 3.990700
-6.394900 4.007400
-6.376500 4.039300
-6.358100 3.984800
-6.339700 3.898100
-6.321400 3.928900
-6.303000 4.008400
-6.284600 4.103500
-6.266200 3.941900
-6.247800 3.920100
-6.229400 3.961600
-6.211000 3.885000
-6.192600 4.403600
-6.174200 3.757800
-6.155900 3.679200
-6.137500 3.652900
-6.119100 3.619800
-6.100700 3.546200
-6.082300 3.562500
-6.063900 3.424900
-6.045500 3.457800
-6.027100 3.481200
-6.008700 3.500200
-5.990300 3.626500
-5.972000 3.746700
-5.953600 3.807200
-5.935200 3.420100
-5.916800 2.702700
-5.898400 2.343300
-5.880000 2.111800
-5.861600 1.885300
-5.843200 1.622000
-5.824800 1.385400
-5.806500 1.192800
-5.788100 1.015400
-5.769700 0.471800
-5.751300 0.108100
-5.732900 0.000000
-5.714500 0.000000
-5.696100 0.000000
-5.677700 0.000000
-5.659300 0.000000
-5.640900 0.000000
-5.622600 0.000000
-5.604200 0.000000
-5.585800 0.000000
-5.567400 0.000000
-5.549000 0.000000
-5.530600 0.000000
-5.512200 0.000000
-5.493800 0.000000
-5.475400 0.000000
-5.457100 0.000000
-5.438700 0.000000
-5.420300 0.000000
-5.401900 0.000000
-5.383500 0.000000
-5.365100 0.000000
-5.346700 0.000000
-5.328300 0.000000
-5.309900 0.000000
-5.291500 0.000000
-5.273200 0.000000
-5.254800 0.000000
-5.236400 0.000000
-5.218000 0.000000
-5.199600 0.000000
-5.181200 0.000000
-5.162800 0.000000
-5.144400 0.000000
-5.126000 0.000000
-5.107700 0.000000
-5.089300 0.000000
-5.070900 0.000000
-5.052500 0.158300
-5.034100 0.237800
-5.015700 0.325100
-4.997300 0.420100
-4.978900 0.511800
-4.960500 0.580000
-4.942100 0.642200
-4.923800 0.696800
-4.905400 0.740700
-4.887000 0.794000
-4.868600 0.852600
-4.850200 0.913700
-4.831800 0.972500
-4.813400 1.030300
-4.795000 1.090800
-4.776600 1.156100
-4.758300 1.225300
-4.739900 1.299600
-4.721500 1.376800
-4.703100 1.457600
-4.684700 1.537300
-4.666300 1.630000
-4.647900 1.760900
-4.629500 1.959200
-4.611100 1.997000
-4.592700 2.118300
-4.574400 2.116100
-4.556000 2.089400
-4.537600 2.065600
-4.519200 2.052400
-4.500800 2.045200
-4.482400 2.041500
-4.464000 2.053800
-4.445600 2.089700
-4.427200 2.150800
-4.408900 2.203200
-4.390500 2.174700
-4.372100 2.173100
-4.353700 2.208600
-4.335300 2.234400
-4.316900 2.294500
-4.298500 2.357200
-4.280100 2.439300
-4.261700 2.528300
-4.243300 2.620700
-4.225000 2.768500
-4.206600 2.925900
-4.188200 2.956200
-4.169800 2.871400
-4.151400 2.844200
-4.133000 2.865500
-4.114600 2.916800
-4.096200 2.956800
-4.077800 3.067400
-4.059500 3.072200
-4.041100 2.976200
-4.022700 2.625600
-4.004300 1.765700
-3.985900 1.343000
-3.967500 1.028200
-3.949100 0.852400
-3.930700 0.660600
-3.912300 0.673100
-3.893900 0.652400
-3.875600 0.632200
-3.857200 0.701900
-3.838800 0.789800
-3.820400 0.869600
-3.802000 1.022900
-3.783600 1.212300
-3.765200 1.435600
-3.746800 1.739300
-3.728400 2.293200
-3.710100 2.538800
-3.691700 2.662100
-3.673300 2.585700
-3.654900 2.476100
-3.636500 2.507400
-3.618100 2.479300
-3.599700 2.460000
-3.581300 2.472200
-3.562900 2.490500
-3.544600 2.501200
-3.526200 2.503500
-3.507800 2.499400
-3.489400 2.511700
-3.471000 2.554100
-3.452600 2.574400
-3.434200 2.586300
-3.415800 2.595800
-3.397400 2.607900
-3.379000 2.623100
-3.360700 2.659800
-3.342300 2.689200
-3.323900 2.715600
-3.305500 2.737700
-3.287100 2.747700
-3.268700 2.749300
-3.250300 2.728900
-3.231900 2.691000
-3.213500 2.646000
-3.195200 2.633200
-3.176800 2.620700
-3.158400 2.609900
-3.140000 2.602600
-3.121600 2.616200
-3.103200 2.632500
-3.084800 2.657100
-3.066400 2.704600
-3.048000 2.708800
-3.029600 2.699000
-3.011300 2.692900
-2.992900 2.713100
-2.974500 2.716100
-2.956100 2.762900
-2.937700 2.790500
-2.919300 2.834500
-2.900900 2.824500
-2.882500 2.808100
-2.864100 2.986100
-2.845800 2.503700
-2.827400 2.221600
-2.809000 1.978700
-2.790600 1.870300
-2.772200 1.858200
-2.753800 1.923500
-2.735400 2.001300
-2.717000 2.085200
-2.698600 2.154600
-2.680200 2.223500
-2.661900 2.310800
-2.643500 2.413400
-2.625100 2.519200
-2.606700 2.627700
-2.588300 2.727400
-2.569900 2.823400
-2.551500 2.913400
-2.533100 3.015900
-2.514700 3.166100
-2.496400 3.423300
-2.478000 3.941000
-2.459600 4.033300
-2.441200 3.591900
-2.422800 3.689800
-2.404400 3.635300
-2.386000 3.506200
-2.367600 3.310300
-2.349200 3.021400
-2.330800 2.839300
-2.312500 2.741000
-2.294100 2.644700
-2.275700 2.535600
-2.257300 2.435800
-2.238900 2.315700
-2.220500 2.201700
-2.202100 2.090900
-2.183700 1.970400
-2.165300 1.863600
-2.147000 1.786900
-2.128600 1.753100
-2.110200 1.560500
-2.091800 1.500100
-2.073400 1.457400
-2.055000 1.580900
-2.036600 1.221600
-2.018200 1.165900
-1.999800 1.207900
-1.981400 1.286600
-1.963100 1.376500
-1.944700 1.380100
-1.926300 1.371000
-1.907900 1.402000
-1.889500 1.430200
-1.871100 1.464500
-1.852700 1.501800
-1.834300 1.538700
-1.815900 1.583600
-1.797600 1.650600
-1.779200 1.738500
-1.760800 1.845300
-1.742400 1.924100
-1.724000 1.976800
-1.705600 2.009900
-1.687200 2.028800
-1.668800 2.044700
-1.650400 2.052600
-1.632000 2.041100
-1.613700 1.985100
-1.595300 1.941900
-1.576900 1.936800
-1.558500 1.938900
-1.540100 1.923000
-1.521700 1.905400
-1.503300 1.876000
-1.484900 1.842300
-1.466500 1.823100
-1.448200 1.820500
-1.429800 1.828300
-1.411400 1.844300
-1.393000 1.856300
-1.374600 1.860300
-1.356200 1.859200
-1.337800 1.859300
-1.319400 1.870400
-1.301000 1.891500
-1.282600 1.902400
-1.264300 1.895900
-1.245900 1.879000
-1.227500 1.851100
-1.209100 1.808900
-1.190700 1.767400
-1.172300 1.695700
-1.153900 1.587800
-1.135500 1.514400
-1.117100 1.475100
-1.098800 1.442500
-1.080400 1.415600
-1.062000 1.392000
-1.043600 1.370600
-1.025200 1.349400
-1.006800 1.328300
-0.988400 1.307200
-0.970000 1.286200
-0.951600 1.265300
-0.933200 1.244600
-0.914900 1.224400
-0.896500 1.204900
-0.878100 1.185700
-0.859700 1.166000
-0.841300 1.148700
-0.822900 1.131800
-0.804500 1.115200
-0.786100 1.098900
-0.767700 1.083100
-0.749400 1.067800
-0.731000 1.052200
-0.712600 1.036200
-0.694200 1.021600
-0.675800 1.009800
-0.657400 0.998500
-0.639000 0.987400
-0.620600 0.976500
-0.602200 0.965700
-0.583800 0.955200
-0.565500 0.945000
-0.547100 0.935200
-0.528700 0.926300
-0.510300 0.918700
-0.491900 0.912500
-0.473500 0.913600
-0.455100 0.912800
-0.436700 0.908800
-0.418300 0.901400
-0.400000 0.890500
-0.381600 0.876400
-0.363200 0.859300
-0.344800 0.850300
-0.326400 0.844100
-0.308000 0.832000
-0.289600 0.814000
-0.271200 0.794100
-0.252800 0.809000
-0.234400 0.825900
-0.216100 0.848100
-0.197700 0.878000
-0.179300 0.919500
-0.160900 0.978300
-0.142500 1.050000
-0.124100 1.135200
-0.105700 1.243000
-0.087300 1.429300
-0.068900 1.797200
-0.050600 2.449900
-0.032200 2.392700
-0.013800 2.571800
0.004600 2.858400
0.023000 2.906600
0.041400 2.950300
0.059800 3.280800
0.078200 3.460700
0.096600 3.373900
0.115000 3.172300
0.133300 2.879900
0.151700 2.767900
0.170100 2.710800
0.188500 2.776300
0.206900 2.863600
0.225300 3.004500
0.243700 3.175600
0.262100 3.350300
0.280500 4.683700
0.298800 5.106800
0.317200 5.279100
0.335600 5.254800
0.354000 5.066400
0.372400 4.697000
0.390800 4.236500
0.409200 4.041900
0.427600 4.389100
0.446000 3.737300
0.464400 3.307300
0.482700 3.029000
0.501100 2.868800
0.519500 2.840300
0.537900 2.988500
0.556300 2.919500
0.574700 2.794300
0.593100 2.908800
0.611500 3.024600
0.629900 3.024900
0.648200 3.213300
0.666600 3.269700
0.685000 3.577600
0.703400 3.671900
0.721800 3.670300
0.740200 3.635000
0.758600 3.631100
0.777000 3.738500
0.795400 3.878500
0.813700 3.823000
0.832100 3.583700
0.850500 3.384600
0.868900 3.208400
0.887300 3.105300
0.905700 3.046600
0.924100 3.035100
0.942500 3.044800
0.960900 3.087700
0.979300 3.177700
0.997600 3.283500
1.016000 3.256900
1.034400 3.215300
1.052800 3.057600
1.071200 2.937200
1.089600 2.861000
1.108000 2.843100
1.126400 2.904300
1.144800 2.913600
1.163100 2.895300
1.181500 2.872500
1.199900 2.854800
1.218300 2.822000
1.236700 2.836400
1.255100 2.871000
1.273500 2.920000
1.291900 2.974200
1.310300 3.027800
1.328700 3.149200
1.347000 3.271500
1.365400 3.422400
1.383800 3.530900
1.402200 3.638800
1.420600 3.741900
1.439000 3.897600
1.457400 4.076300
1.475800 4.298800
1.494200 4.472900
1.512500 4.707800
1.530900 5.251400
1.549300 5.556200
1.567700 5.035500
1.586100 4.835300
1.604500 4.601100
1.622900 4.295800
1.641300 4.012800
1.659700 3.884400
1.678100 3.892200
1.696400 3.947300
1.714800 4.044500
1.733200 4.113100
1.751600 4.131100
1.770000 4.110300
1.788400 4.266100
1.806800 4.424300
1.825200 4.505300
1.843600 4.582100
1.861900 4.693100
1.880300 4.566400
1.898700 4.371400
1.917100 4.302300
1.935500 4.247200
1.953900 4.281100
1.972300 4.538900
1.990700 4.401000
2.009100 4.289400
2.027500 4.227400
2.045800 4.114700
2.064200 4.076600
2.082600 4.038900
2.101000 3.991800
2.119400 3.969300
2.137800 4.039600
2.156200 4.327500
2.174600 4.284500
2.193000 4.269800
2.211300 4.520400
2.229700 4.378000
2.248100 3.941400
2.266500 3.724800
2.284900 3.563800
2.303300 3.455500
2.321700 3.397700
2.340100 3.357100
2.358500 3.389400
2.376900 3.413100
2.395200 3.558200
2.413600 3.814300
2.432000 3.821800
2.450400 3.861600
2.468800 3.924900
2.487200 3.987500
2.505600 4.027100
2.524000 4.081000
2.542400 4.112900
2.560700 4.294800
2.579100 4.384100
2.597500 4.626000
2.615900 4.892600
2.634300 5.099800
2.652700 5.233500
2.671100 6.046900
2.689500 5.214000
2.707900 4.945500
2.726300 5.039800
2.744600 5.226700
2.763000 5.413800
2.781400 5.240700
2.799800 4.951700
2.818200 4.655000
2.836600 4.593700
2.855000 4.543600
2.873400 4.534800
2.891800 4.809900
2.910100 5.342200
2.928500 5.661800
2.946900 5.667000
2.965300 5.913800
2.983700 5.013100
3.002100 4.395300
3.020500 4.347100
3.038900 4.397800
3.057300 4.420800
3.075700 4.577200
3.094000 4.825300
3.112400 4.605400
3.130800 4.697000
3.149200 4.694300
3.167600 4.455500
3.186000 4.025100
3.204400 3.840400
3.222800 3.793200
3.241200 3.831300
3.259500 3.828800
3.277900 3.712300
3.296300 3.577400
3.314700 3.466300
3.333100 3.390400
3.351500 3.371100
3.369900 3.390000
3.388300 3.393300
3.406700 3.298500
3.425100 3.308200
3.443400 3.353700
3.461800 3.431500
3.480200 3.675200
3.498600 3.652800
3.517000 3.673500
3.535400 3.724100
3.553800 3.775800
3.572200 3.849000
3.590600 4.318300
3.608900 4.603500
3.627300 4.828700
3.645700 4.984400
3.664100 5.227100
3.682500 5.536100
3.700900 5.665100
3.719300 5.537400
3.737700 5.510300
3.756100 5.356800
3.774500 4.999500
3.792800 4.684800
3.811200 4.283200
3.829600 4.278500
3.848000 4.193600
3.866400 4.084600
3.884800 3.966600
3.903200 4.010500
3.921600 4.168500
3.940000 4.370700
3.958300 4.272400
3.976700 4.180600
3.995100 4.186900
4.013500 4.202800
4.031900 4.267600
4.050300 4.264800
4.068700 4.301400
4.087100 4.346200
4.105500 4.375700
4.123900 4.608900
4.142200 4.590100
4.160600 4.698400
4.179000 4.826500
4.197400 4.853600
4.215800 4.886000
4.234200 4.981400
4.252600 5.093600
4.271000 4.988700
4.289400 4.871600
4.307700 4.789400
4.326100 4.705200
4.344500 4.736100
4.362900 4.584200
4.381300 4.478500
4.399700 4.464300
4.418100 4.524100
4.436500 4.561800
4.454900 4.526200
4.473300 4.546500
4.491600 4.631600
4.510000 4.702900
4.528400 4.746200
4.546800 4.776300
4.565200 4.831200
4.583600 4.952800
4.602000 5.102800
4.620400 5.237400
4.638800 5.166100
4.657100 5.089700
4.675500 5.152000
4.693900 5.274100
4.712300 5.876800
4.730700 7.430000
4.749100 5.167000
4.767500 4.415500
4.785900 4.043900
4.804300 3.738800
4.822700 3.542000
4.841000 3.476100
4.859400 3.646300
4.877800 3.326700
4.896200 3.252800
4.914600 3.110200
4.933000 2.917100
4.951400 2.707700
4.969800 2.551700
4.988200 2.413800
5.006500 2.322200
5.024900 2.200600
5.043300 2.046700
5.061700 1.948800
5.080100 1.912400
5.098500 1.882500
5.116900 1.864200
5.135300 1.856700
5.153700 1.868300
5.172100 1.873700
5.190400 1.838300
5.208800 1.798500
5.227200 1.739300
5.245600 1.758600
5.264000 1.818500
5.282400 1.887200
5.300800 2.029400
5.319200 2.076600
5.337600 1.884800
5.355900 1.860100
5.374300 1.843600
5.392700 1.834500
5.411100 1.829700
5.429500 1.823800
5.447900 1.816600
5.466300 1.815700
5.484700 1.834200
5.503100 1.867500
5.521400 1.911700
5.539800 1.922800
5.558200 1.891600
5.576600 1.863800
5.595000 1.844000
5.613400 1.833000
5.631800 1.830000
5.650200 1.821600
5.668600 1.808100
5.687000 1.793100
5.705300 1.775600
5.723700 1.754100
5.742100 1.723200
5.760500 1.681500
5.778900 1.644600
5.797300 1.633100
5.815700 1.627700
5.834100 1.633000
5.852500 1.646700
5.870800 1.657400
5.889200 1.664900
5.907600 1.645800
5.926000 1.671300
5.944400 1.677800
5.962800 1.664700
5.981200 1.637400
5.999600 1.651200
6.018000 1.668700
6.036400 1.694700
6.054700 1.714800
6.073100 1.705800
6.091500 1.689500
6.109900 1.674800
6.128300 1.718200
6.146700 1.751200
6.165100 1.785000
6.183500 1.815500
6.201900 1.864500
6.220200 1.900500
6.238600 1.921400
6.257000 1.932500
6.275400 1.934700
6.293800 1.932600
6.312200 1.927300
6.330600 1.919400
6.349000 1.908600
6.367400 1.895500
6.385800 1.881300
6.404100 1.866500
6.422500 2.096100
6.440900 1.901300
6.459300 1.519800
6.477700 1.444300
6.496100 1.370600
6.514500 1.332700
6.532900 1.315900
6.551300 1.300200
6.569600 1.286000
6.588000 1.288500
6.606400 1.343000
6.624800 1.427200
6.643200 1.535900
6.661600 1.619100
6.680000 1.635300
6.698400 1.654000
6.716800 1.673100
6.735200 1.684400
6.753500 1.692400
6.771900 1.689200
6.790300 1.660200
6.808700 1.619600
6.827100 1.618700
6.845500 1.611100
6.863900 1.559600
6.882300 1.522500
6.900700 1.536400
6.919000 1.570600
6.937400 1.871100
6.955800 1.825500
6.974200 1.876400
6.992600 1.992800
7.011000 1.914700
7.029400 1.957800
7.047800 2.010800
7.066200 2.077500
7.084600 2.211000
7.102900 2.244200
7.121300 2.469700
7.139700 2.431500
7.158100 3.074100
7.176500 1.403200
7.194900 1.323100
7.213300 1.361600
7.231700 1.364000
7.250100 1.403300
7.268400 1.441100
7.286800 1.475500
7.305200 1.520000
7.323600 1.566500
7.342000 1.449900
7.360400 1.467600
7.378800 1.474200
7.397200 1.471700
7.415600 1.559400
7.434000 1.502700
7.452300 1.517900
7.470700 1.548700
7.489100 1.607300
7.507500 1.686300
7.525900 1.744500
7.544300 1.810800
7.562700 1.861300
7.581100 1.914700
7.599500 1.987100
7.617800 2.086100
7.636200 2.233000
7.654600 2.374700
7.673000 2.519300
7.691400 2.653700
7.709800 2.805400
7.728200 3.016300
7.746600 3.122400
7.765000 3.270500
7.783400 3.404200
7.801700 3.515700
7.820100 3.615700
7.838500 3.720700
7.856900 3.868600
7.875300 3.876500
7.893700 3.941700
7.912100 4.068700
7.930500 4.210200
7.948900 4.417100
7.967200 4.680300
7.985600 4.926100
8.004000 5.199100
8.022400 5.519700
8.040800 5.812300
8.059200 6.102700
8.077600 6.394300
8.096000 6.370400
8.114400 6.558300
8.132800 6.250000
8.151100 6.012600
8.169500 5.936100
8.187900 5.922900
8.206300 5.924400
8.224700 6.016400
8.243100 6.303000
8.261500 6.529300
8.279900 6.492300
8.298300 6.412100
8.316600 6.230300
8.335000 6.191600
8.353400 6.166400
8.371800 6.172300
8.390200 6.173300
8.408600 6.157700
8.427000 6.210200
8.445400 6.383600
8.463800 6.826200
8.482200 7.230900
8.500500 7.094000
8.518900 7.048600
8.537300 6.391800
8.555700 6.149500
8.574100 6.443700
8.592500 6.773400
8.610900 6.329500
8.629300 5.670900
8.647700 5.479800
8.666000 5.554600
8.684400 5.613600
8.702800 5.668400
8.721200 5.843400
8.739600 6.064500
8.758000 6.308800
8.776400 6.476400
8.794800 6.625300
8.813200 6.692300
8.831600 6.672200
8.849900 6.500400
8.868300 6.312600
8.886700 6.160300
8.905100 6.120500
8.923500 5.978100
8.941900 5.795000
8.960300 5.652000
8.978700 5.529600
8.997100 5.493700
9.015400 5.509000
9.033800 5.583900
9.052200 5.852300
9.070600 6.118900
9.089000 6.572700
9.107400 6.614100
9.125800 6.157200
9.144200 5.851400
9.162600 5.755000
9.181000 5.666600
9.199300 5.482700
9.217700 5.395900
9.236100 5.323600
9.254500 5.237700
9.272900 5.226000
9.291300 5.220300
9.309700 5.173100
9.328100 5.091500
9.346500 5.017100
9.364800 4.998000
9.383200 4.946300
9.401600 4.849300
9.420000 4.785400
9.438400 4.754000
9.456800 4.754700
9.475200 4.775100
9.493600 4.813400
9.512000 4.851200
9.530400 4.948800
9.548700 4.945400
9.567100 5.026700
9.585500 5.022000
9.603900 4.917300
9.622300 4.951800
9.640700 4.761200
9.659100 4.483600
9.677500 4.540400
9.695900 4.868500
9.714200 4.871700
9.732600 4.752200
9.751000 4.546800
9.769400 4.510600
9.787800 4.471500
9.806200 4.447300
9.824600 4.447800
9.843000 4.500700
9.861400 4.624400
9.879800 4.747600
9.898100 4.847000
9.916500 4.996500
9.934900 5.188200
9.953300 5.232000
9.971700 5.084600
9.990100 4.933600
10.008500 4.806400
10.026900 4.920700
10.045300 5.044500
10.063600 5.162700
10.082000 5.357300
10.100400 5.619500
10.118800 5.537500
10.137200 5.468100
10.155600 5.193600
10.174000 5.056000
10.192400 5.020100
10.210800 4.981000
10.229100 4.982200
10.247500 4.784000
10.265900 4.940200
10.284300 4.846900
10.302700 4.704600
10.321100 4.660300
10.339500 4.557300
10.357900 4.285500
10.376300 4.260000
10.394700 4.253800
10.413000 4.310800
10.431400 4.337100
10.449800 4.343800
10.468200 4.361600
10.486600 4.387100
10.505000 4.425300
10.523400 4.460700
10.541800 4.442500
10.560200 4.559300
10.578500 4.762300
10.596900 4.906900
10.615300 4.744300
10.633700 4.666600
10.652100 4.613900
10.670500 4.695100
10.688900 4.583400
10.707300 4.561900
10.725700 4.538900
10.744100 4.529200
10.762400 4.536300
10.780800 4.515300
10.799200 4.516100
10.817600 4.535500
10.836000 4.422000
10.854400 4.513300
10.872800 4.594700
10.891200 4.875500
10.909600 4.677300
10.927900 4.549500
10.946300 4.452700
10.964700 4.461600
10.983100 4.493500
11.001500 4.510000
11.019900 4.702100
11.038300 4.310300
11.056700 4.080200
11.075100 3.921400
11.093500 3.792200
11.111800 3.690200
11.130200 3.619700
11.148600 3.574600
11.167000 3.544700
11.185400 3.563800
11.203800 3.607800
11.222200 3.648600
11.240600 3.678000
11.259000 3.686600
11.277300 3.694200
11.295700 3.717000
11.314100 3.765600
11.332500 3.867700
11.350900 4.011600
11.369300 4.126600
11.387700 4.409300
11.406100 4.679400
11.424500 4.800400
11.442900 4.779600
11.461200 4.555900
11.479600 4.106700
11.498000 3.861200
11.516400 3.705900
11.534800 3.595500
11.553200 3.951100
11.571600 3.741400
11.590000 3.696300
11.608400 3.713200
11.626700 3.783500
11.645100 3.896500
11.663500 3.992200
11.681900 4.307700
11.700300 4.165700
11.718700 4.041700
11.737100 3.960600
11.755500 3.931200
11.773900 3.955400
11.792300 4.018800
11.810600 4.214500
11.829000 4.342500
11.847400 4.282400
11.865800 4.170300
11.884200 4.058400
11.902600 3.963500
11.921000 3.888600
11.939400 3.818300
11.957800 3.699800
11.976100 3.601800
11.994500 3.597000
12.012900 3.670700
12.031300 3.648000
12.049700 3.551400
12.068100 3.484500
12.086500 3.449100
12.104900 3.552500
12.123300 3.618200
12.141700 3.733800
12.160000 3.580700
12.178400 3.642000
12.196800 3.665000
12.215200 3.696300
12.233600 3.757200
12.252000 3.865100
12.270400 4.012000
12.288800 4.146300
12.307200 4.220900
12.325500 4.268900
12.343900 4.504000
12.362300 4.635000
12.380700 4.724900
12.399100 4.709300
12.417500 4.890500
12.435900 4.770100
12.454300 4.483800
12.472700 4.283800
12.491100 4.162700
12.509400 4.127600
12.527800 4.102800
12.546200 4.142800
12.564600 4.244500
12.583000 4.286700
12.601400 4.321400
12.619800 4.298000
12.638200 4.339600
12.656600 4.411100
12.674900 4.462700
12.693300 4.504600
12.711700 4.391700
12.730100 4.415900
12.748500 4.223800
12.766900 4.105200
12.785300 4.108600
12.803700 4.097600
12.822100 4.079600
12.840500 4.055200
12.858800 4.019100
12.877200 3.978600
12.895600 3.962000
12.914000 3.969400
12.932400 3.982100
12.950800 3.974300
12.969200 3.942400
12.987600 3.905400
13.006000 3.864000
13.024300 3.743400
13.042700 3.599800
13.061100 3.517700
13.079500 3.419300
13.097900 3.338700
13.116300 3.294800
13.134700 3.305200
13.153100 3.368000
13.171500 3.524100
13.189900 3.701500
13.208200 3.701100
13.226600 3.709700
13.245000 3.522800
13.263400 3.418000
13.281800 3.310400
13.300200 3.171300
13.318600 3.111500
13.337000 3.312200
13.355400 3.202200
13.373700 2.948900
13.392100 2.646900
13.410500 2.466400
13.428900 2.278500
13.447300 2.047500
13.465700 1.818000
13.484100 1.741600
13.502500 1.682600
13.520900 1.634400
13.539300 1.591800
13.557600 1.527800
13.576000 1.441800
13.594400 1.364200
13.612800 1.298300
13.631200 1.245300
13.649600 1.147800
13.668000 0.985000
13.686400 0.894000
13.704800 0.806400
13.723100 0.742600
13.741500 0.692800
13.759900 0.665500
13.778300 0.641300
13.796700 0.620100
13.815100 0.601800
13.833500 0.586500
13.851900 0.573000
13.870300 0.558300
13.888700 0.541800
13.907000 0.524000
13.925400 0.504800
13.943800 0.484400
13.962200 0.462700
13.980600 0.445800
13.999000 0.440000
14.017400 0.443700
14.035800 0.454400
14.054200 0.453900
14.072500 0.442400
14.090900 0.423700
14.109300 0.401200
14.127700 0.374800
14.146100 0.344400
14.164500 0.327200
14.182900 0.310400
14.201300 0.294000
14.219700 0.278000
14.238100 0.262300
14.256400 0.247100
14.274800 0.232400
14.293200 0.219400
14.311600 0.208000
14.330000 0.198300
14.348400 0.190500
14.366800 0.183900
14.385200 0.177300
14.403600 0.170300
14.421900 0.167200
14.440300 0.162900
14.458700 0.156700
14.477100 0.149100
14.495500 0.140500
14.513900 0.129100
14.532300 0.115900
14.550700 0.101200
14.569100 0.085500
14.587500 0.073600
14.605800 0.067000
14.624200 0.060400
14.642600 0.054000
14.661000 0.047600
14.679400 0.041300
14.697800 0.035200
14.716200 0.029100
14.734600 0.023200
14.753000 0.017300
14.771300 0.011600
14.789700 0.006000
14.808100 0.000500
14.826500 0.000000
14.844900 0.000000
14.863300 0.000000
14.881700 0.000000
14.900100 0.000000
14.918500 0.000000
14.936800 0.000000
14.955200 0.000000
14.973600 0.000000
14.992000 0.000000
15.010400 0.000000
15.028800 0.000000
15.047200 0.000000
15.065600 0.000000
15.084000 0.000000
15.102400 0.000000
15.120700 0.000000
15.139100 0.000000
15.157500 0.000000
15.175900 0.000000
15.194300 0.000000
15.212700 0.000000
15.231100 0.000000
15.249500 0.000000
15.267900 0.000000
15.286200 0.000000
15.304600 0.000000
15.323000 0.000000
15.341400 0.000000
15.359800 0.000000
15.378200 0.000000
15.396600 0.000000
15.415000 0.000000
15.433400 0.000000
15.451800 0.000000
15.470100 0.000000
15.488500 0.000000
15.506900 0.000000
15.525300 0.000000
15.543700 0.000000
15.562100 0.000000
15.580500 0.000000
15.598900 0.000000
15.617300 0.000000
15.635600 0.000000
15.654000 0.000000
15.672400 0.000000
15.690800 0.000000
15.709200 0.000000
15.727600 0.000000
15.746000 0.000000
15.764400 0.000000
15.782800 0.000000
15.801200 0.000000
15.819500 0.000000
15.837900 0.000000
15.856300 0.000000
15.874700 0.000000
15.893100 0.000000
15.911500 0.000000
15.929900 0.000000
15.948300 0.000000
15.966700 0.000000
15.985000 0.000000
16.003400 0.000000
16.021800 0.000000
16.040200 0.000000
16.058600 0.000000
16.077000 0.000000
16.095400 0.000000
16.113800 0.000000
16.132200 0.000000
16.150600 0.000000
16.168900 0.000000
16.187300 0.000000
16.205700 0.000000
16.224100 0.000000
16.242500 0.000000
16.260900 0.000000
16.279300 0.000000
16.297700 0.000000
16.316100 0.000000
16.334400 0.000000
16.352800 0.000000
16.371200 0.000000
16.389600 0.000000
16.408000 0.000000
16.426400 0.000000
16.444800 0.000000
16.463200 0.000000
16.481600 0.000000
e
