set title 'mp-556477 - Density of States'
set xlabel 'Energy (eV)'
set ylabel 'DOS (states/eV)'
set grid
set xrange [-10:10]
set yrange [0:34.982]
set xzeroaxis lt -1
set terminal png size 800,600
set output 'mp-556477_dos_gnuplot.png'
plot '-' using 1:2 with lines title 'DOS'
-24.523100 0.000000
-24.500800 0.000000
-24.478500 0.000000
-24.456100 0.000000
-24.433800 0.000000
-24.411500 0.000000
-24.389100 0.000000
-24.366800 0.000000
-24.344500 0.000000
-24.322100 0.000000
-24.299800 0.000000
-24.277400 0.000000
-24.255100 0.000000
-24.232800 0.000000
-24.210400 0.000000
-24.188100 0.000000
-24.165800 0.000000
-24.143400 0.000000
-24.121100 0.000000
-24.098800 0.000000
-24.076400 0.000000
-24.054100 0.000000
-24.031800 0.000000
-24.009400 0.000000
-23.987100 0.000000
-23.964700 0.000000
-23.942400 0.000000
-23.920100 0.000000
-23.897700 0.000000
-23.875400 0.000000
-23.853100 0.000000
-23.830700 0.000000
-23.808400 0.000000
-23.786100 0.000000
-23.763700 0.000000
-23.741400 0.000000
-23.719100 0.000000
-23.696700 0.000000
-23.674400 0.000000
-23.652100 0.000000
-23.629700 0.000000
-23.607400 0.000000
-23.585000 0.000000
-23.562700 0.000000
-23.540400 0.000000
-23.518000 0.000000
-23.495700 0.000000
-23.473400 0.000000
-23.451000 0.000000
-23.428700 0.000000
-23.406400 0.000000
-23.384000 0.000000
-23.361700 0.000000
-23.339400 0.000000
-23.317000 0.000000
-23.294700 0.000000
-23.272300 0.000000
-23.250000 0.000000
-23.227700 0.000000
-23.205300 0.000000
-23.183000 0.000000
-23.160700 0.000000
-23.138300 0.000000
-23.116000 0.000000
-23.093700 0.000000
-23.071300 0.000000
-23.049000 0.000000
-23.026700 0.000000
-23.004300 0.000000
-22.982000 0.000000
-22.959700 0.000000
-22.937300 0.000000
-22.915000 0.000000
-22.892600 0.000000
-22.870300 0.000000
-22.848000 0.000000
-22.825600 0.000000
-22.803300 0.000000
-22.781000 0.000000
-22.758600 0.000000
-22.736300 0.000000
-22.714000 0.000000
-22.691600 0.000000
-22.669300 0.000000
-22.647000 0.000000
-22.624600 0.000000
-22.602300 0.000000
-22.579900 0.000000
-22.557600 0.000000
-22.535300 0.000000
-22.512900 0.000000
-22.490600 0.006600
-22.468300 0.950700
-22.445900 2.901500
-22.423600 5.218800
-22.401300 7.810200
-22.378900 22.354100
-22.356600 14.166100
-22.334300 9.086400
-22.311900 21.279000
-22.289600 14.607600
-22.267300 26.260300
-22.244900 40.705800
-22.222600 47.065300
-22.200200 30.784200
-22.177900 31.947600
-22.155600 23.009500
-22.133200 29.158300
-22.110900 32.478300
-22.088600 19.461900
-22.066200 21.073900
-22.043900 23.559400
-22.021600 33.301600
-21.999200 26.562700
-21.976900 18.171100
-21.954600 31.467100
-21.932200 33.101900
-21.909900 31.396600
-21.887600 61.122200
-21.865200 58.449500
-21.842900 44.561400
-21.820500 43.727200
-21.798200 45.211500
-21.775900 66.379100
-21.753500 76.207600
-21.731200 53.858900
-21.708900 67.403800
-21.686500 50.899300
-21.664200 108.742000
-21.641900 91.226300
-21.619500 47.571400
-21.597200 55.044000
-21.574900 12.003500
-21.552500 11.660100
-21.530200 11.661100
-21.507800 11.662800
-21.485500 11.665400
-21.463200 6.091400
-21.440800 0.000000
-21.418500 0.000000
-21.396200 0.000000
-21.373800 0.000000
-21.351500 0.000000
-21.329200 0.000000
-21.306800 0.000000
-21.284500 0.000000
-21.262200 0.000000
-21.239800 0.000000
-21.217500 0.000000
-21.195200 0.000000
-21.172800 0.000000
-21.150500 0.000000
-21.128100 0.000000
-21.105800 0.000000
-21.083500 0.000000
-21.061100 0.000000
-21.038800 0.000000
-21.016500 0.000000
-20.994100 0.000000
-20.971800 0.000000
-20.949500 0.000000
-20.927100 0.000000
-20.904800 0.000000
-20.882500 0.000000
-20.860100 0.000000
-20.837800 0.000000
-20.815400 0.000000
-20.793100 0.000000
-20.770800 0.000000
-20.748400 0.000000
-20.726100 0.000000
-20.703800 0.000000
-20.681400 0.000000
-20.659100 0.000000
-20.636800 0.000000
-20.614400 0.000000
-20.592100 0.000000
-20.569800 0.000000
-20.547400 0.000000
-20.525100 0.000000
-20.502800 0.000000
-20.480400 0.000000
-20.458100 0.000000
-20.435700 0.000000
-20.413400 0.000000
-20.391100 0.000000
-20.368700 0.000000
-20.346400 0.000000
-20.324100 0.000000
-20.301700 0.000000
-20.279400 0.000000
-20.257100 0.000000
-20.234700 0.000000
-20.212400 0.000000
-20.190100 0.000000
-20.167700 0.000000
-20.145400 0.000000
-20.123000 0.000000
-20.100700 0.000000
-20.078400 0.000000
-20.056000 0.000000
-20.033700 0.000000
-20.011400 0.000000
-19.989000 0.000000
-19.966700 0.000000
-19.944400 0.000000
-19.922000 0.000000
-19.899700 0.000000
-19.877400 0.000000
-19.855000 0.000000
-19.832700 0.000000
-19.810400 0.000000
-19.788000 0.000000
-19.765700 0.000000
-19.743300 0.000000
-19.721000 0.000000
-19.698700 0.000000
-19.676300 0.000000
-19.654000 0.000000
-19.631700 0.000000
-19.609300 0.000000
-19.587000 0.000000
-19.564700 0.000000
-19.542300 0.000000
-19.520000 0.000000
-19.497700 0.000000
-19.475300 0.000000
-19.453000 0.000000
-19.430600 0.000000
-19.408300 0.000000
-19.386000 0.000000
-19.363600 0.000000
-19.341300 0.000000
-19.319000 0.000000
-19.296600 0.000000
-19.274300 0.000000
-19.252000 0.000000
-19.229600 0.000000
-19.207300 0.000000
-19.185000 0.000000
-19.162600 0.000000
-19.140300 0.000000
-19.118000 0.000000
-19.095600 0.000000
-19.073300 0.000000
-19.050900 0.000000
-19.028600 0.000000
-19.006300 0.000000
-18.983900 0.000000
-18.961600 0.000000
-18.939300 0.000000
-18.916900 0.000000
-18.894600 0.000000
-18.872300 0.000000
-18.849900 0.000000
-18.827600 0.000000
-18.805300 0.000000
-18.782900 0.000000
-18.760600 0.000000
-18.738300 0.000000
-18.715900 0.000000
-18.693600 0.000000
-18.671200 0.000000
-18.648900 0.000000
-18.626600 0.000000
-18.604200 0.000000
-18.581900 0.000000
-18.559600 0.000000
-18.537200 0.000000
-18.514900 0.000000
-18.492600 0.000000
-18.470200 0.000000
-18.447900 0.000000
-18.425600 0.000000
-18.403200 0.000000
-18.380900 0.000000
-18.358500 0.000000
-18.336200 0.000000
-18.313900 0.000000
-18.291500 0.000000
-18.269200 0.000000
-18.246900 0.000000
-18.224500 0.000000
-18.202200 0.000000
-18.179900 0.000000
-18.157500 0.000000
-18.135200 0.000000
-18.112900 0.000000
-18.090500 0.000000
-18.068200 0.000000
-18.045900 0.000000
-18.023500 0.000000
-18.001200 0.000000
-17.978800 0.000000
-17.956500 0.000000
-17.934200 0.000000
-17.911800 0.000000
-17.889500 0.000000
-17.867200 0.000000
-17.844800 0.000000
-17.822500 0.000000
-17.800200 0.000000
-17.777800 0.000000
-17.755500 0.000000
-17.733200 0.000000
-17.710800 0.000000
-17.688500 0.000000
-17.666100 0.000000
-17.643800 0.000000
-17.621500 0.000000
-17.599100 0.000000
-17.576800 0.000000
-17.554500 0.000000
-17.532100 0.000000
-17.509800 0.000000
-17.487500 0.000000
-17.465100 0.000000
-17.442800 0.000000
-17.420500 0.000000
-17.398100 0.000000
-17.375800 0.000000
-17.353500 0.000000
-17.331100 0.000000
-17.308800 0.000000
-17.286400 0.000000
-17.264100 0.000000
-17.241800 0.000000
-17.219400 0.000000
-17.197100 0.000000
-17.174800 0.000000
-17.152400 0.000000
-17.130100 0.000000
-17.107800 0.000000
-17.085400 0.000000
-17.063100 0.000000
-17.040800 0.000000
-17.018400 0.000000
-16.996100 0.000000
-16.973700 0.000000
-16.951400 0.000000
-16.929100 0.000000
-16.906700 0.000000
-16.884400 0.000000
-16.862100 0.000000
-16.839700 0.000000
-16.817400 0.000000
-16.795100 0.000000
-16.772700 0.000000
-16.750400 0.000000
-16.728100 0.000000
-16.705700 0.000000
-16.683400 0.000000
-16.661100 0.000000
-16.638700 0.000000
-16.616400 0.000000
-16.594000 0.000000
-16.571700 0.000000
-16.549400 0.000000
-16.527000 0.000000
-16.504700 0.000000
-16.482400 0.000000
-16.460000 0.000000
-16.437700 0.000000
-16.415400 0.000000
-16.393000 0.000000
-16.370700 0.000000
-16.348400 0.000000
-16.326000 0.000000
-16.303700 0.000000
-16.281300 0.000000
-16.259000 0.000000
-16.236700 0.000000
-16.214300 0.000000
-16.192000 0.000000
-16.169700 0.000000
-16.147300 0.000000
-16.125000 0.000000
-16.102700 0.000000
-16.080300 0.000000
-16.058000 0.000000
-16.035700 0.000000
-16.013300 0.000000
-15.991000 0.000000
-15.968700 0.000000
-15.946300 0.000000
-15.924000 0.000000
-15.901600 0.000000
-15.879300 0.000000
-15.857000 0.000000
-15.834600 0.000000
-15.812300 0.000000
-15.790000 0.000000
-15.767600 0.000000
-15.745300 0.000000
-15.723000 0.000000
-15.700600 0.000000
-15.678300 0.000000
-15.656000 0.000000
-15.633600 0.000000
-15.611300 0.000000
-15.589000 0.000000
-15.566600 0.000000
-15.544300 0.000000
-15.521900 0.000000
-15.499600 0.000000
-15.477300 0.000000
-15.454900 0.000000
-15.432600 0.000000
-15.410300 0.000000
-15.387900 0.000000
-15.365600 0.000000
-15.343300 0.000000
-15.320900 0.000000
-15.298600 0.000000
-15.276300 0.000000
-15.253900 0.000000
-15.231600 0.000000
-15.209200 0.000000
-15.186900 0.000000
-15.164600 0.000000
-15.142200 0.000000
-15.119900 0.000000
-15.097600 0.000000
-15.075200 0.000000
-15.052900 0.000000
-15.030600 0.000000
-15.008200 0.000000
-14.985900 0.000000
-14.963600 0.000000
-14.941200 0.000000
-14.918900 0.000100
-14.896600 0.016200
-14.874200 0.058500
-14.851900 0.127300
-14.829500 0.222500
-14.807200 0.335200
-14.784900 0.443100
-14.762500 0.546200
-14.740200 0.650400
-14.717900 0.759500
-14.695500 0.873600
-14.673200 0.997000
-14.650900 1.141800
-14.628500 1.307200
-14.606200 1.458400
-14.583900 1.579600
-14.561500 1.676900
-14.539200 1.820500
-14.516800 1.958700
-14.494500 2.091200
-14.472200 2.222000
-14.449800 2.349500
-14.427500 2.453500
-14.405200 2.470400
-14.382800 2.487000
-14.360500 2.517300
-14.338200 2.593200
-14.315800 2.712200
-14.293500 2.873900
-14.271200 3.095500
-14.248800 3.394800
-14.226500 4.173700
-14.204200 4.782400
-14.181800 5.374700
-14.159500 6.137100
-14.137100 6.964300
-14.114800 7.795200
-14.092500 12.009200
-14.070100 19.910800
-14.047800 9.314600
-14.025500 7.621000
-14.003100 9.348400
-13.980800 11.264100
-13.958500 14.301900
-13.936100 21.011600
-13.913800 12.138600
-13.891500 12.052300
-13.869100 17.532500
-13.846800 21.306800
-13.824400 18.087100
-13.802100 12.457500
-13.779800 10.376700
-13.757400 9.694500
-13.735100 11.950200
-13.712800 13.081500
-13.690400 12.137300
-13.668100 18.407900
-13.645800 24.619400
-13.623400 36.569900
-13.601100 13.441200
-13.578800 15.921300
-13.556400 17.734000
-13.534100 14.706800
-13.511800 12.154100
-13.489400 13.572500
-13.467100 14.663100
-13.444700 17.109100
-13.422400 19.644600
-13.400100 28.888200
-13.377700 25.493100
-13.355400 25.410400
-13.333100 25.355300
-13.310700 27.517200
-13.288400 32.441100
-13.266100 23.344000
-13.243700 24.853400
-13.221400 9.460100
-13.199100 3.675200
-13.176700 3.063100
-13.154400 2.437900
-13.132000 1.456600
-13.109700 0.527200
-13.087400 0.028000
-13.065000 0.000000
-13.042700 0.000000
-13.020400 0.000000
-12.998000 0.000000
-12.975700 0.000000
-12.953400 0.000000
-12.931000 0.000000
-12.908700 0.000000
-12.886400 0.000000
-12.864000 0.000000
-12.841700 0.000000
-12.819400 0.000000
-12.797000 0.000000
-12.774700 0.000000
-12.752300 0.000000
-12.730000 0.000000
-12.707700 0.000000
-12.685300 0.000000
-12.663000 0.000000
-12.640700 0.000000
-12.618300 0.000000
-12.596000 0.000000
-12.573700 0.000000
-12.551300 0.000000
-12.529000 0.000000
-12.506700 0.000000
-12.484300 0.000000
-12.462000 0.000000
-12.439700 0.000000
-12.417300 0.000000
-12.395000 0.000000
-12.372600 0.000000
-12.350300 0.000000
-12.328000 0.000000
-12.305600 0.000000
-12.283300 0.000000
-12.261000 0.000000
-12.238600 0.000000
-12.216300 0.000000
-12.194000 0.000000
-12.171600 0.000000
-12.149300 0.000000
-12.127000 0.000000
-12.104600 0.000000
-12.082300 0.000000
-12.059900 0.000000
-12.037600 0.000000
-12.015300 0.000000
-11.992900 0.000000
-11.970600 0.000000
-11.948300 0.000000
-11.925900 0.000000
-11.903600 0.000000
-11.881300 0.000000
-11.858900 0.000000
-11.836600 0.000000
-11.814300 0.000000
-11.791900 0.000000
-11.769600 0.000000
-11.747300 0.000000
-11.724900 0.000000
-11.702600 0.000000
-11.680200 0.000000
-11.657900 0.000000
-11.635600 0.000000
-11.613200 0.000000
-11.590900 0.000000
-11.568600 0.000000
-11.546200 0.000000
-11.523900 0.000000
-11.501600 0.000000
-11.479200 0.000000
-11.456900 0.000000
-11.434600 0.000000
-11.412200 0.000000
-11.389900 0.000000
-11.367500 0.000000
-11.345200 0.000000
-11.322900 0.000000
-11.300500 0.000000
-11.278200 0.000000
-11.255900 0.000000
-11.233500 0.000000
-11.211200 0.000000
-11.188900 0.000000
-11.166500 0.000000
-11.144200 0.000000
-11.121900 0.000000
-11.099500 0.000000
-11.077200 0.000000
-11.054900 0.000000
-11.032500 0.000000
-11.010200 0.000000
-10.987800 0.000000
-10.965500 0.000000
-10.943200 0.000000
-10.920800 0.000000
-10.898500 0.000000
-10.876200 0.000000
-10.853800 0.000000
-10.831500 0.000000
-10.809200 0.000000
-10.786800 0.000000
-10.764500 0.000000
-10.742200 0.000000
-10.719800 0.000000
-10.697500 0.000000
-10.675100 0.000000
-10.652800 0.000000
-10.630500 0.000000
-10.608100 0.000000
-10.585800 0.000000
-10.563500 0.000000
-10.541100 0.000000
-10.518800 0.000000
-10.496500 0.000000
-10.474100 0.000000
-10.451800 0.000000
-10.429500 0.000000
-10.407100 0.000000
-10.384800 0.000000
-10.362500 0.000000
-10.340100 0.000000
-10.317800 0.000000
-10.295400 0.000000
-10.273100 0.000000
-10.250800 0.000000
-10.228400 0.000000
-10.206100 0.000000
-10.183800 0.000000
-10.161400 0.000000
-10.139100 0.000000
-10.116800 0.000000
-10.094400 0.000000
-10.072100 0.000000
-10.049800 0.000000
-10.027400 0.000000
-10.005100 0.000000
-9.982700 0.000000
-9.960400 0.000000
-9.938100 0.000000
-9.915700 0.000000
-9.893400 0.000000
-9.871100 0.000000
-9.848700 0.000000
-9.826400 0.000000
-9.804100 0.000000
-9.781700 0.000000
-9.759400 0.000000
-9.737100 0.000000
-9.714700 0.000000
-9.692400 0.000000
-9.670100 0.000000
-9.647700 0.000000
-9.625400 0.000000
-9.603000 0.000000
-9.580700 0.000000
-9.558400 0.000000
-9.536000 0.000000
-9.513700 0.000000
-9.491400 0.000000
-9.469000 0.000000
-9.446700 0.000000
-9.424400 0.000000
-9.402000 0.000000
-9.379700 0.000000
-9.357400 0.000000
-9.335000 0.000000
-9.312700 0.000000
-9.290400 0.000000
-9.268000 0.000000
-9.245700 0.000000
-9.223300 0.000000
-9.201000 0.000000
-9.178700 0.000000
-9.156300 0.000000
-9.134000 0.000000
-9.111700 0.000000
-9.089300 0.000000
-9.067000 0.000000
-9.044700 0.000000
-9.022300 0.000000
-9.000000 0.000000
-8.977700 0.000000
-8.955300 0.000000
-8.933000 0.000000
-8.910600 0.000000
-8.888300 0.000000
-8.866000 0.000000
-8.843600 0.000000
-8.821300 0.000000
-8.799000 0.000000
-8.776600 0.000000
-8.754300 0.000000
-8.732000 0.000000
-8.709600 0.000000
-8.687300 0.000000
-8.665000 0.000000
-8.642600 0.000000
-8.620300 0.000000
-8.598000 0.000000
-8.575600 0.000000
-8.553300 0.000000
-8.530900 0.000000
-8.508600 0.000000
-8.486300 0.000000
-8.463900 0.000000
-8.441600 0.000000
-8.419300 0.000000
-8.396900 0.000000
-8.374600 0.000000
-8.352300 0.000000
-8.329900 0.000000
-8.307600 0.000000
-8.285300 0.000000
-8.262900 0.000000
-8.240600 0.000000
-8.218200 0.000000
-8.195900 0.000000
-8.173600 0.000000
-8.151200 0.000000
-8.128900 0.000000
-8.106600 0.000000
-8.084200 0.000000
-8.061900 0.000000
-8.039600 0.000000
-8.017200 0.000000
-7.994900 0.000000
-7.972600 0.000000
-7.950200 0.000000
-7.927900 0.000000
-7.905600 0.000000
-7.883200 0.000000
-7.860900 0.000000
-7.838500 0.000000
-7.816200 0.000000
-7.793900 0.000000
-7.771500 0.000000
-7.749200 0.000000
-7.726900 0.000000
-7.704500 0.000000
-7.682200 0.000000
-7.659900 0.000000
-7.637500 0.000000
-7.615200 0.000000
-7.592900 0.000000
-7.570500 0.000000
-7.548200 0.000000
-7.525800 0.000000
-7.503500 0.000000
-7.481200 0.000000
-7.458800 0.000000
-7.436500 0.000000
-7.414200 0.000000
-7.391800 0.000000
-7.369500 0.000000
-7.347200 0.000000
-7.324800 0.000000
-7.302500 0.000000
-7.280200 0.000000
-7.257800 0.000000
-7.235500 0.000000
-7.213200 0.000000
-7.190800 0.000000
-7.168500 0.000000
-7.146100 0.000000
-7.123800 0.000000
-7.101500 0.000000
-7.079100 0.000000
-7.056800 0.000000
-7.034500 0.000000
-7.012100 0.000000
-6.989800 0.000000
-6.967500 0.000000
-6.945100 0.000000
-6.922800 0.000000
-6.900500 0.000000
-6.878100 0.000000
-6.855800 0.000000
-6.833400 0.000000
-6.811100 0.000000
-6.788800 0.000000
-6.766400 0.000000
-6.744100 0.000000
-6.721800 0.000000
-6.699400 0.000000
-6.677100 0.000000
-6.654800 0.000000
-6.632400 0.000000
-6.610100 0.000000
-6.587800 0.000000
-6.565400 0.000000
-6.543100 0.000000
-6.520800 0.000000
-6.498400 0.000000
-6.476100 0.000000
-6.453700 0.000000
-6.431400 0.000000
-6.409100 0.000000
-6.386700 0.000000
-6.364400 0.000000
-6.342100 0.000000
-6.319700 0.000000
-6.297400 0.000000
-6.275100 0.000000
-6.252700 0.000000
-6.230400 0.000000
-6.208100 0.000000
-6.185700 0.000000
-6.163400 0.000000
-6.141000 0.000000
-6.118700 0.000000
-6.096400 0.000000
-6.074000 0.000000
-6.051700 0.000000
-6.029400 0.000000
-6.007000 0.000000
-5.984700 0.000000
-5.962400 0.000000
-5.940000 0.000000
-5.917700 0.000000
-5.895400 0.000000
-5.873000 0.000000
-5.850700 0.000000
-5.828400 0.000000
-5.806000 0.000000
-5.783700 0.000000
-5.761300 0.000000
-5.739000 0.000000
-5.716700 0.000000
-5.694300 0.000000
-5.672000 0.000000
-5.649700 0.000000
-5.627300 0.000000
-5.605000 0.000000
-5.582700 0.000000
-5.560300 0.000000
-5.538000 0.000000
-5.515700 0.000000
-5.493300 0.000000
-5.471000 0.000000
-5.448700 0.000000
-5.426300 0.000000
-5.404000 0.000000
-5.381600 0.000000
-5.359300 0.000000
-5.337000 0.000000
-5.314600 0.000000
-5.292300 0.000000
-5.270000 0.000000
-5.247600 0.000000
-5.225300 0.000000
-5.203000 0.000000
-5.180600 0.000000
-5.158300 0.000000
-5.136000 0.000000
-5.113600 0.000000
-5.091300 0.000000
-5.068900 0.000000
-5.046600 0.000000
-5.024300 0.000000
-5.001900 0.000000
-4.979600 0.000000
-4.957300 0.000000
-4.934900 0.000000
-4.912600 0.000000
-4.890300 0.000000
-4.867900 0.000000
-4.845600 0.000000
-4.823300 0.000000
-4.800900 0.000000
-4.778600 0.000000
-4.756300 0.000000
-4.733900 0.000000
-4.711600 0.000000
-4.689200 0.000000
-4.666900 0.000000
-4.644600 0.000000
-4.622200 0.000000
-4.599900 0.000000
-4.577600 0.000000
-4.555200 0.000000
-4.532900 0.000000
-4.510600 0.000000
-4.488200 0.000000
-4.465900 0.000000
-4.443600 0.000000
-4.421200 0.000000
-4.398900 0.000000
-4.376500 0.000000
-4.354200 0.000000
-4.331900 0.000000
-4.309500 0.000000
-4.287200 0.000000
-4.264900 0.000000
-4.242500 0.000000
-4.220200 0.000000
-4.197900 0.000000
-4.175500 0.000000
-4.153200 0.000000
-4.130900 0.000000
-4.108500 0.000000
-4.086200 0.000000
-4.063900 0.000000
-4.041500 0.000000
-4.019200 0.000000
-3.996800 0.000000
-3.974500 0.000000
-3.952200 0.000000
-3.929800 0.000000
-3.907500 0.000000
-3.885200 0.000000
-3.862800 0.000000
-3.840500 0.000000
-3.818200 0.000000
-3.795800 0.000000
-3.773500 0.000000
-3.751200 0.000000
-3.728800 0.000000
-3.706500 0.000000
-3.684100 0.000000
-3.661800 0.000000
-3.639500 0.000000
-3.617100 0.000000
-3.594800 0.000000
-3.572500 0.000000
-3.550100 0.000000
-3.527800 0.000000
-3.505500 0.000000
-3.483100 0.000000
-3.460800 0.000000
-3.438500 0.000000
-3.416100 0.000000
-3.393800 0.000000
-3.371500 0.000000
-3.349100 0.000000
-3.326800 0.000000
-3.304400 0.000000
-3.282100 0.000000
-3.259800 0.000000
-3.237400 0.000000
-3.215100 0.000000
-3.192800 0.000000
-3.170400 0.000000
-3.148100 0.000000
-3.125800 0.000000
-3.103400 0.000000
-3.081100 0.000000
-3.058800 0.000000
-3.036400 0.000000
-3.014100 0.000000
-2.991700 0.000000
-2.969400 0.000000
-2.947100 0.000000
-2.924700 0.000000
-2.902400 0.000000
-2.880100 0.000000
-2.857700 0.000000
-2.835400 0.000000
-2.813100 0.000000
-2.790700 0.000000
-2.768400 0.000000
-2.746100 0.000000
-2.723700 0.000000
-2.701400 0.000000
-2.679100 0.000000
-2.656700 0.000000
-2.634400 0.000000
-2.612000 0.000000
-2.589700 0.000000
-2.567400 0.000000
-2.545000 0.000000
-2.522700 0.000000
-2.500400 0.000000
-2.478000 0.000000
-2.455700 0.000000
-2.433400 0.000000
-2.411000 0.000000
-2.388700 0.000000
-2.366400 0.000000
-2.344000 0.000000
-2.321700 0.000000
-2.299400 0.000000
-2.277000 0.000000
-2.254700 0.000000
-2.232300 0.003500
-2.210000 0.026300
-2.187700 0.070400
-2.165300 0.576500
-2.143000 1.338200
-2.120700 2.190300
-2.098300 2.755000
-2.076000 2.937400
-2.053700 3.035900
-2.031300 3.102200
-2.009000 3.240100
-1.986700 3.495700
-1.964300 3.845000
-1.942000 4.303300
-1.919600 4.907200
-1.897300 5.129500
-1.875000 4.919000
-1.852600 4.909800
-1.830300 4.986400
-1.808000 5.144100
-1.785600 5.435100
-1.763300 6.047700
-1.741000 6.838200
-1.718600 7.539900
-1.696300 9.566000
-1.674000 10.014800
-1.651600 8.842700
-1.629300 9.204600
-1.607000 9.729600
-1.584600 10.389700
-1.562300 10.094500
-1.539900 8.332400
-1.517600 6.626900
-1.495300 8.570700
-1.472900 9.700800
-1.450600 10.735500
-1.428300 11.291500
-1.405900 11.922700
-1.383600 15.361200
-1.361300 14.567400
-1.338900 20.815600
-1.316600 11.973200
-1.294300 8.282100
-1.271900 9.170400
-1.249600 10.469700
-1.227200 10.991800
-1.204900 11.053700
-1.182600 11.097100
-1.160200 10.300500
-1.137900 6.279400
-1.115600 3.090800
-1.093200 3.799900
-1.070900 6.633900
-1.048600 11.945600
-1.026200 16.226800
-1.003900 14.026000
-0.981600 10.853200
-0.959200 9.221100
-0.936900 8.281600
-0.914600 10.095100
-0.892200 17.456600
-0.869900 20.864900
-0.847500 22.454600
-0.825200 13.347200
-0.802900 12.167000
-0.780500 12.997100
-0.758200 15.374300
-0.735900 23.417100
-0.713500 23.434000
-0.691200 21.861500
-0.668900 15.639700
-0.646500 12.932200
-0.624200 20.202100
-0.601900 21.151300
-0.579500 17.521100
-0.557200 13.968800
-0.534800 13.947300
-0.512500 25.823200
-0.490200 23.981800
-0.467800 19.594900
-0.445500 15.894400
-0.423200 14.207500
-0.400800 12.959100
-0.378500 12.955400
-0.356200 12.712600
-0.333800 13.612100
-0.311500 17.731900
-0.289200 16.425700
-0.266800 15.493400
-0.244500 16.713900
-0.222200 16.773400
-0.199800 15.642200
-0.177500 14.702600
-0.155100 17.933500
-0.132800 19.367600
-0.110500 12.467400
-0.088100 12.246200
-0.065800 13.981600
-0.043500 19.540100
-0.021100 16.878000
0.001200 17.038700
0.023500 15.144600
0.045900 13.476300
0.068200 16.395600
0.090500 20.102800
0.112900 20.858700
0.135200 20.159100
0.157600 18.602300
0.179900 15.980700
0.202200 9.422000
0.224600 7.125200
0.246900 7.787500
0.269200 13.878900
0.291600 18.277500
0.313900 18.847000
0.336200 16.566600
0.358600 13.425100
0.380900 13.266100
0.403200 14.360300
0.425600 15.484600
0.447900 17.020500
0.470200 16.113600
0.492600 13.684900
0.514900 13.088800
0.537300 14.895000
0.559600 14.926700
0.581900 15.303200
0.604300 14.630900
0.626600 13.949600
0.648900 11.620700
0.671300 11.473700
0.693600 11.758300
0.715900 11.714300
0.738300 13.954800
0.760600 23.868100
0.782900 26.106200
0.805300 14.201300
0.827600 10.853400
0.849900 9.441100
0.872300 24.751700
0.894600 31.801700
0.917000 11.122600
0.939300 13.821400
0.961600 17.242700
0.984000 19.017300
1.006300 18.343100
1.028600 9.997600
1.051000 19.477400
1.073300 24.314600
1.095600 12.700200
1.118000 15.728300
1.140300 20.927000
1.162600 19.402400
1.185000 14.794200
1.207300 12.450700
1.229700 13.450200
1.252000 16.001100
1.274300 17.343000
1.296700 17.356200
1.319000 15.053300
1.341300 15.297800
1.363700 15.049200
1.386000 15.017800
1.408300 15.615900
1.430700 19.460900
1.453000 19.617300
1.475300 17.524200
1.497700 20.653300
1.520000 21.866900
1.542300 21.270400
1.564700 19.581900
1.587000 21.131400
1.609400 19.626600
1.631700 16.005300
1.654000 14.180000
1.676400 11.779300
1.698700 9.326800
1.721000 10.490900
1.743400 9.968200
1.765700 8.029000
1.788000 4.244400
1.810400 2.405100
1.832700 1.265100
1.855000 0.585100
1.877400 0.153200
1.899700 0.000000
1.922100 0.000000
1.944400 0.000000
1.966700 0.000000
1.989100 0.000000
2.011400 0.000000
2.033700 0.000000
2.056100 0.000000
2.078400 0.000000
2.100700 0.000000
2.123100 0.000000
2.145400 0.000000
2.167700 0.000000
2.190100 0.000000
2.212400 0.000000
2.234700 0.000000
2.257100 0.000000
2.279400 0.000000
2.301800 0.000000
2.324100 0.000000
2.346400 0.000000
2.368800 0.000000
2.391100 0.000000
2.413400 0.000000
2.435800 0.000000
2.458100 0.000000
2.480400 0.000000
2.502800 0.000000
2.525100 0.000000
2.547400 0.000000
2.569800 0.000000
2.592100 0.000000
2.614500 0.000000
2.636800 0.000000
2.659100 0.000000
2.681500 0.000000
2.703800 0.000000
2.726100 0.000000
2.748500 0.000000
2.770800 0.000000
2.793100 0.000000
2.815500 0.000000
2.837800 0.000000
2.860100 0.000000
2.882500 0.000000
2.904800 0.000000
2.927100 0.000000
2.949500 0.000000
2.971800 0.000000
2.994200 0.000000
3.016500 0.000000
3.038800 0.000000
3.061200 0.000000
3.083500 0.000000
3.105800 0.000000
3.128200 0.000000
3.150500 0.000000
3.172800 0.000000
3.195200 0.000000
3.217500 0.000000
3.239800 0.000000
3.262200 0.000000
3.284500 0.000000
3.306900 0.000000
3.329200 0.000000
3.351500 0.000000
3.373900 0.000000
3.396200 0.000000
3.418500 0.000000
3.440900 0.000000
3.463200 0.000000
3.485500 0.000000
3.507900 0.000000
3.530200 0.000000
3.552500 0.000000
3.574900 0.000000
3.597200 0.000000
3.619500 0.000000
3.641900 0.000000
3.664200 0.000000
3.686600 0.000000
3.708900 0.000000
3.731200 0.000000
3.753600 0.000000
3.775900 0.000000
3.798200 0.000000
3.820600 0.000000
3.842900 0.000000
3.865200 0.000000
3.887600 0.000000
3.909900 0.000000
3.932200 0.000000
3.954600 0.000000
3.976900 0.000000
3.999200 0.000000
4.021600 0.000000
4.043900 0.000000
4.066300 0.000000
4.088600 0.000000
4.110900 0.000000
4.133300 0.000000
4.155600 0.000000
4.177900 0.000000
4.200300 0.000000
4.222600 0.000000
4.244900 0.000000
4.267300 0.000000
4.289600 0.000000
4.311900 0.000000
4.334300 0.000000
4.356600 0.000000
4.379000 0.000000
4.401300 0.000000
4.423600 0.000000
4.446000 0.000000
4.468300 0.000000
4.490600 0.000000
4.513000 0.000000
4.535300 0.000000
4.557600 0.000000
4.580000 0.000000
4.602300 0.000000
4.624600 0.000000
4.647000 0.000000
4.669300 0.000000
4.691600 0.000000
4.714000 0.000000
4.736300 0.000000
4.758700 0.000000
4.781000 0.000000
4.803300 0.000000
4.825700 0.000000
4.848000 0.000000
4.870300 0.000000
4.892700 0.000000
4.915000 0.000000
4.937300 0.000000
4.959700 0.000000
4.982000 0.000000
5.004300 0.000000
5.026700 0.000000
5.049000 0.000000
5.071400 0.000000
5.093700 0.000000
5.116000 0.000000
5.138400 0.000000
5.160700 0.000000
5.183000 0.000000
5.205400 0.000000
5.227700 0.000000
5.250000 0.000000
5.272400 0.000000
5.294700 0.000000
5.317000 0.000000
5.339400 0.000000
5.361700 0.000000
5.384000 0.000000
5.406400 0.000000
5.428700 0.000000
5.451100 0.000000
5.473400 0.000000
5.495700 0.000000
5.518100 0.000000
5.540400 0.000000
5.562700 0.000000
5.585100 0.000000
5.607400 0.000000
5.629700 0.000000
5.652100 0.000000
5.674400 0.000000
5.696700 0.000000
5.719100 0.000000
5.741400 0.000000
5.763800 0.000000
5.786100 0.000000
5.808400 0.000000
5.830800 0.000000
5.853100 0.000000
5.875400 0.000000
5.897800 0.000000
5.920100 0.000000
5.942400 0.000000
5.964800 0.000000
5.987100 0.000000
6.009400 0.000000
6.031800 0.000000
6.054100 0.000000
6.076400 0.000000
6.098800 0.000000
6.121100 0.000000
6.143500 0.000000
6.165800 0.000000
6.188100 0.000200
6.210500 0.023500
6.232800 0.086800
6.255100 0.174000
6.277500 0.285000
6.299800 0.419200
6.322100 0.565200
6.344500 0.713300
6.366800 0.847200
6.389100 0.976900
6.411500 1.104400
6.433800 1.229700
6.456200 1.354300
6.478500 1.478000
6.500800 1.601400
6.523200 1.731200
6.545500 1.864800
6.567800 2.000400
6.590200 2.108600
6.612500 2.180500
6.634800 2.231600
6.657200 2.271700
6.679500 2.301200
6.701800 2.252600
6.724200 2.213400
6.746500 2.212500
6.768800 2.249700
6.791200 2.284000
6.813500 2.314700
6.835900 2.436700
6.858200 2.649300
6.880500 2.909100
6.902900 3.162000
6.925200 3.364600
6.947500 3.541300
6.969900 3.741100
6.992200 4.734400
7.014500 5.756100
7.036900 5.944600
7.059200 5.643800
7.081500 5.250700
7.103900 4.818100
7.126200 4.625000
7.148500 4.575300
7.170900 4.566700
7.193200 4.502900
7.215600 4.458700
7.237900 4.363700
7.260200 4.597900
7.282600 4.867400
7.304900 5.317600
7.327200 5.762700
7.349600 6.171200
7.371900 6.552900
7.394200 6.959100
7.416600 7.909300
7.438900 9.605000
7.461200 9.387800
7.483600 9.563600
7.505900 9.141200
7.528300 8.030300
7.550600 6.962400
7.572900 6.772200
7.595300 7.401200
7.617600 6.957100
7.639900 6.542600
7.662300 7.095000
7.684600 8.883500
7.706900 7.918800
7.729300 7.619700
7.751600 7.140900
7.773900 6.385200
7.796300 5.946000
7.818600 5.663800
7.840900 5.493200
7.863300 4.992000
7.885600 3.949300
7.908000 3.553100
7.930300 3.528900
7.952600 3.716300
7.975000 4.073300
7.997300 4.521900
8.019600 5.152100
8.042000 6.352200
8.064300 7.683000
8.086600 8.982300
8.109000 10.818900
8.131300 12.052500
8.153600 9.587600
8.176000 8.671600
8.198300 7.324600
8.220700 5.639900
8.243000 5.819000
8.265300 6.490700
8.287700 8.334400
8.310000 6.802300
8.332300 3.932700
8.354700 3.820000
8.377000 4.315100
8.399300 4.855900
8.421700 5.667900
8.444000 6.767100
8.466300 7.770700
8.488700 8.660500
8.511000 9.696600
8.533300 9.712300
8.555700 9.591400
8.578000 9.354900
8.600400 10.843200
8.622700 14.537700
8.645000 12.817500
8.667400 12.342600
8.689700 12.392500
8.712000 12.349700
8.734400 10.699200
8.756700 10.066900
8.779000 9.749000
8.801400 10.849300
8.823700 11.169800
8.846000 12.821900
8.868400 12.749800
8.890700 12.119100
8.913100 12.272300
8.935400 11.174000
8.957700 10.874100
8.980100 11.100900
9.002400 10.968800
9.024700 11.287200
9.047100 12.343100
9.069400 11.214900
9.091700 10.134900
9.114100 9.161900
9.136400 9.143200
9.158700 10.420700
9.181100 11.054900
9.203400 12.771800
9.225700 14.352000
9.248100 9.420000
9.270400 8.694000
9.292800 9.056700
9.315100 10.611400
9.337400 11.509100
9.359800 10.485300
9.382100 7.331800
9.404400 5.895800
9.426800 5.857400
9.449100 6.534600
9.471400 12.108400
9.493800 13.798700
9.516100 9.347700
9.538400 6.967500
9.560800 7.251000
9.583100 9.269200
9.605500 11.061400
9.627800 13.471100
9.650100 16.011300
9.672500 15.396800
9.694800 14.123100
9.717100 11.482700
9.739500 9.791100
9.761800 9.672600
9.784100 11.599400
9.806500 14.692000
9.828800 15.289700
9.851100 13.585800
9.873500 12.341400
9.895800 10.754400
9.918100 10.359700
9.940500 11.123400
9.962800 12.935800
9.985200 14.616200
10.007500 15.682400
10.029800 19.624300
10.052200 11.979800
10.074500 10.519700
10.096800 11.925400
10.119200 13.607400
10.141500 14.459400
10.163800 12.857200
10.186200 10.558900
10.208500 10.498000
10.230800 10.701100
10.253200 11.278900
10.275500 11.589100
10.297800 11.861900
10.320200 11.387400
10.342500 10.278400
10.364900 9.202500
10.387200 8.259000
10.409500 7.339800
10.431900 7.376700
10.454200 7.850300
10.476500 8.283700
10.498900 8.744400
10.521200 9.062800
10.543500 11.364000
10.565900 12.958000
10.588200 11.974500
10.610500 11.646400
10.632900 12.618900
10.655200 12.336000
10.677600 11.888800
10.699900 11.565800
10.722200 10.879000
10.744600 10.607600
10.766900 10.814800
10.789200 10.731900
10.811600 10.206600
10.833900 9.558200
10.856200 9.380900
10.878600 11.025300
10.900900 10.404100
10.923200 9.975400
10.945600 9.812900
10.967900 9.778400
10.990200 9.763900
11.012600 9.750800
11.034900 9.759700
11.057300 7.989300
11.079600 7.425500
11.101900 7.602500
11.124300 7.961300
11.146600 8.420900
11.168900 12.336600
11.191300 11.504300
11.213600 10.509900
11.235900 9.765400
11.258300 9.354300
11.280600 9.847400
11.302900 10.104400
11.325300 12.339800
11.347600 15.107100
11.370000 15.403300
11.392300 15.880200
11.414600 10.124500
11.437000 8.947700
11.459300 10.938200
11.481600 15.399500
11.504000 14.235500
11.526300 12.149500
11.548600 12.394300
11.571000 13.929300
11.593300 13.764600
11.615600 12.106900
11.638000 9.596000
11.660300 8.799300
11.682600 9.838000
11.705000 10.123200
11.727300 10.841500
11.749700 11.225100
11.772000 11.703900
11.794300 12.878100
11.816700 10.590200
11.839000 9.003200
11.861300 9.319500
11.883700 11.601100
11.906000 10.775000
11.928300 10.114400
11.950700 7.682900
11.973000 6.871500
11.995300 6.539000
12.017700 6.839600
12.040000 7.286100
12.062400 7.648400
12.084700 7.637400
12.107000 8.591200
12.129400 8.967100
12.151700 8.528200
12.174000 7.921600
12.196400 7.035700
12.218700 6.857700
12.241000 7.187700
12.263400 9.397200
12.285700 12.321200
12.308000 14.517000
12.330400 13.801500
12.352700 12.086100
12.375000 10.342100
12.397400 11.148700
12.419700 13.071600
12.442100 11.881700
12.464400 10.691200
12.486700 10.895900
12.509100 11.657800
12.531400 11.918100
12.553700 9.920000
12.576100 8.299700
12.598400 6.899500
12.620700 6.450100
12.643100 6.796000
12.665400 6.649100
12.687700 6.132300
12.710100 6.675100
12.732400 6.783500
12.754800 7.709900
12.777100 9.009900
12.799400 9.563700
12.821800 9.595300
12.844100 9.593400
12.866400 9.545600
12.888800 9.729800
12.911100 8.174400
12.933400 7.140500
12.955800 6.754800
12.978100 6.595800
13.000400 6.483200
13.022800 6.322600
13.045100 6.174800
13.067400 6.386900
13.089800 7.925200
13.112100 10.425800
13.134500 14.191300
13.156800 6.745100
13.179100 5.702400
13.201500 5.467800
13.223800 5.357200
13.246100 5.373000
13.268500 5.545000
13.290800 5.925400
13.313100 6.239700
13.335500 6.526100
13.357800 6.802300
13.380100 7.426400
13.402500 7.811500
13.424800 8.661000
13.447100 8.422300
13.469500 8.492200
13.491800 8.576000
13.514200 8.664600
13.536500 8.117100
13.558800 7.435000
13.581200 7.094200
13.603500 7.099300
13.625800 7.583000
13.648200 8.386000
13.670500 9.194500
13.692800 9.977300
13.715200 10.324300
13.737500 9.211600
13.759800 9.678200
13.782200 10.668400
13.804500 9.986600
13.826900 9.927500
13.849200 8.629500
13.871500 7.685800
13.893900 7.420300
13.916200 7.984600
13.938500 8.835800
13.960900 9.057900
13.983200 8.593000
14.005500 7.268800
14.027900 6.345400
14.050200 6.126700
14.072500 5.949100
14.094900 5.814900
14.117200 5.694200
14.139500 5.415500
14.161900 5.093400
14.184200 4.695400
14.206600 4.475000
14.228900 4.324000
14.251200 4.224000
14.273600 4.150300
14.295900 4.190900
14.318200 4.307600
14.340600 4.413700
14.362900 4.485800
14.385200 4.645700
14.407600 4.942100
14.429900 4.968300
14.452200 4.861800
14.474600 4.854700
14.496900 4.842100
14.519300 4.824600
14.541600 4.803400
14.563900 4.775200
14.586300 4.746100
14.608600 4.718500
14.630900 4.691700
14.653300 4.668600
14.675600 4.644600
14.697900 4.625800
14.720300 4.540600
14.742600 4.480800
14.764900 4.482700
14.787300 4.546200
14.809600 4.710300
14.831900 4.943400
14.854300 5.097100
14.876600 5.149400
14.899000 5.218700
14.921300 5.341800
14.943600 5.429600
14.966000 5.465500
14.988300 5.455400
15.010600 5.276100
15.033000 5.042300
15.055300 5.054400
15.077600 5.105200
15.100000 5.158800
15.122300 5.211800
15.144600 5.314500
15.167000 5.473600
15.189300 6.060500
15.211700 7.102600
15.234000 7.304200
15.256300 7.373800
15.278700 7.646700
15.301000 7.555100
15.323300 6.842800
15.345700 5.915100
15.368000 4.886100
15.390300 4.535900
15.412700 4.499600
15.435000 4.639500
15.457300 4.774900
15.479700 4.962800
15.502000 5.115200
15.524300 5.262600
15.546700 6.513900
15.569000 8.006000
15.591400 8.480100
15.613700 8.387600
15.636000 7.346300
15.658400 7.800200
15.680700 8.153200
15.703000 6.439900
15.725400 5.615700
15.747700 5.246400
15.770000 4.628500
15.792400 3.988300
15.814700 3.929600
15.837000 4.331400
15.859400 4.926600
15.881700 5.799000
15.904100 7.623600
15.926400 11.515800
15.948700 10.902900
15.971100 8.123500
15.993400 6.796200
16.015700 5.189100
16.038100 3.512600
16.060400 2.350400
16.082700 1.970600
16.105100 1.938700
16.127400 2.057200
16.149700 2.270000
16.172100 2.622600
16.194400 2.893400
16.216700 2.871300
16.239100 2.942000
16.261400 3.016700
16.283800 3.076800
16.306100 3.151700
16.328400 3.240800
16.350800 3.342100
16.373100 3.455600
16.395400 3.517000
16.417800 3.569100
16.440100 3.603200
16.462400 3.614600
16.484800 3.622100
16.507100 3.705500
16.529400 3.887600
16.551800 3.861700
16.574100 3.852000
16.596400 3.869400
16.618800 3.944800
16.641100 4.071200
16.663500 4.246400
16.685800 4.465000
16.708100 4.531900
16.730500 4.553500
16.752800 4.569500
16.775100 4.572600
16.797500 4.595100
16.819800 4.631300
16.842100 4.682000
16.864500 4.707800
16.886800 4.755300
16.909100 4.861400
16.931500 4.159700
16.953800 3.857700
16.976200 3.603100
16.998500 3.491200
17.020800 3.540800
17.043200 3.705100
17.065500 4.087100
17.087800 4.381000
17.110200 4.489300
17.132500 4.487600
17.154800 4.251100
17.177200 4.029400
17.199500 3.694900
17.221800 3.349900
17.244200 3.037800
17.266500 2.750700
17.288800 2.488500
17.311200 2.339800
17.333500 2.343000
17.355900 2.369500
17.378200 2.414100
17.400500 2.743900
17.422900 3.079100
17.445200 3.142200
17.467500 3.198800
17.489900 3.312300
17.512200 3.424300
17.534500 3.527300
17.556900 3.621300
17.579200 6.134100
17.601500 3.115200
17.623900 2.088100
17.646200 1.949100
17.668600 1.816600
17.690900 1.691500
17.713200 1.569300
17.735600 1.455500
17.757900 1.353900
17.780200 1.264300
17.802600 1.180800
17.824900 1.076700
17.847200 0.945300
17.869600 0.821900
17.891900 0.705500
17.914200 0.613300
17.936600 0.533500
17.958900 0.456900
17.981200 0.383300
18.003600 0.310600
18.025900 0.237200
18.048300 0.163300
18.070600 0.088700
18.092900 0.024600
18.115300 0.000200
18.137600 0.000000
18.159900 0.000000
18.182300 0.000000
18.204600 0.000000
18.226900 0.000000
18.249300 0.000000
18.271600 0.000000
18.293900 0.000000
18.316300 0.000000
18.338600 0.000000
18.361000 0.000000
18.383300 0.000000
18.405600 0.000000
18.428000 0.000000
18.450300 0.000000
18.472600 0.000000
18.495000 0.000000
18.517300 0.000000
18.539600 0.000000
18.562000 0.000000
18.584300 0.000000
18.606600 0.000000
18.629000 0.000000
18.651300 0.000000
18.673600 0.000000
18.696000 0.000000
18.718300 0.000000
18.740700 0.000000
18.763000 0.000000
18.785300 0.000000
18.807700 0.000000
18.830000 0.000000
18.852300 0.000000
18.874700 0.000000
18.897000 0.000000
18.919300 0.000000
18.941700 0.000000
18.964000 0.000000
18.986300 0.000000
19.008700 0.000000
19.031000 0.000000
19.053400 0.000000
19.075700 0.000000
19.098000 0.000000
19.120400 0.000000
19.142700 0.000000
19.165000 0.000000
19.187400 0.000000
19.209700 0.000000
19.232000 0.000000
19.254400 0.000000
19.276700 0.000000
19.299000 0.000000
19.321400 0.000000
19.343700 0.000000
19.366000 0.000000
19.388400 0.000000
19.410700 0.000000
19.433100 0.000000
19.455400 0.000000
19.477700 0.000000
19.500100 0.000000
19.522400 0.000000
19.544700 0.000000
19.567100 0.000000
19.589400 0.000000
19.611700 0.000000
19.634100 0.000000
19.656400 0.000000
19.678700 0.000000
19.701100 0.000000
19.723400 0.000000
19.745700 0.000000
19.768100 0.000000
19.790400 0.000000
19.812800 0.000000
19.835100 0.000000
19.857400 0.000000
19.879800 0.000000
19.902100 0.000000
19.924400 0.000000
19.946800 0.000000
19.969100 0.000000
19.991400 0.000000
20.013800 0.000000
20.036100 0.000000
20.058400 0.000000
20.080800 0.000000
20.103100 0.000000
20.125500 0.000000
20.147800 0.000000
e
