set title 'mp-1183524 - Density of States'
set xlabel 'Energy (eV)'
set ylabel 'DOS (states/eV)'
set grid
set xrange [-10:10]
set yrange [0:20.371]
set xzeroaxis lt -1
set terminal png size 800,600
set output 'mp-1183524_dos_gnuplot.png'
plot '-' using 1:2 with lines title 'DOS'
-15.350600 0.000000
-15.330500 0.000000
-15.310300 0.000000
-15.290200 0.000000
-15.270100 0.000000
-15.250000 0.000000
-15.229900 0.000000
-15.209800 0.000000
-15.189700 0.000000
-15.169600 0.000000
-15.149500 0.000000
-15.129400 0.000000
-15.109300 0.000000
-15.089200 0.000000
-15.069100 0.000000
-15.049000 0.000000
-15.028900 0.000000
-15.008800 0.000000
-14.988700 0.000000
-14.968600 0.000000
-14.948500 0.000000
-14.928400 0.000000
-14.908300 0.000000
-14.888200 0.000000
-14.868100 0.000000
-14.848000 0.000000
-14.827900 0.000000
-14.807800 0.000000
-14.787700 0.000000
-14.767600 0.000000
-14.747400 0.000000
-14.727300 0.000000
-14.707200 0.000000
-14.687100 0.000000
-14.667000 0.000000
-14.646900 0.000000
-14.626800 0.000000
-14.606700 0.000000
-14.586600 0.000000
-14.566500 0.000000
-14.546400 0.000000
-14.526300 0.000000
-14.506200 0.000000
-14.486100 0.000000
-14.466000 0.000000
-14.445900 0.000000
-14.425800 0.000000
-14.405700 0.000000
-14.385600 0.000000
-14.365500 0.000000
-14.345400 0.000000
-14.325300 0.000000
-14.305200 0.000000
-14.285100 0.000000
-14.265000 0.000000
-14.244900 0.000000
-14.224800 0.000000
-14.204700 0.000000
-14.184600 0.000000
-14.164400 0.000000
-14.144300 0.000000
-14.124200 0.000000
-14.104100 0.000000
-14.084000 0.000000
-14.063900 0.000000
-14.043800 0.000000
-14.023700 0.000000
-14.003600 0.000000
-13.983500 0.000000
-13.963400 0.000000
-13.943300 0.000000
-13.923200 0.000000
-13.903100 0.000000
-13.883000 0.000000
-13.862900 0.000000
-13.842800 0.000000
-13.822700 0.000000
-13.802600 0.000000
-13.782500 0.000000
-13.762400 0.000000
-13.742300 0.000000
-13.722200 0.000000
-13.702100 0.000000
-13.682000 0.000000
-13.661900 0.000000
-13.641800 0.000000
-13.621700 0.000000
-13.601600 0.000000
-13.581400 0.000000
-13.561300 0.000000
-13.541200 0.000000
-13.521100 0.000400
-13.501000 0.061700
-13.480900 0.226800
-13.460800 0.495600
-13.440700 0.868100
-13.420600 1.344400
-13.400500 1.266100
-13.380400 1.338500
-13.360300 1.482100
-13.340200 1.630000
-13.320100 1.782100
-13.300000 1.938500
-13.279900 2.099200
-13.259800 2.264000
-13.239700 2.431600
-13.219600 2.601100
-13.199500 2.772400
-13.179400 2.946000
-13.159300 3.156900
-13.139200 3.453000
-13.119100 3.953300
-13.099000 4.455900
-13.078900 5.094100
-13.058800 5.641300
-13.038700 6.016100
-13.018600 6.218300
-12.998400 6.248200
-12.978300 6.105600
-12.958200 10.215400
-12.938100 2.654700
-12.918000 0.000000
-12.897900 0.000000
-12.877800 0.000000
-12.857700 0.296200
-12.837600 2.109400
-12.817500 3.815700
-12.797400 5.493100
-12.777300 6.569200
-12.757200 7.043900
-12.737100 10.840900
-12.717000 7.457100
-12.696900 5.719800
-12.676800 5.415100
-12.656700 5.284600
-12.636600 5.079200
-12.616500 4.798900
-12.596400 4.319500
-12.576300 3.577500
-12.556200 2.893100
-12.536100 2.410700
-12.516000 2.226400
-12.495900 2.059700
-12.475800 1.898300
-12.455700 1.742000
-12.435500 1.591000
-12.415400 1.445300
-12.395300 1.304800
-12.375200 1.169500
-12.355100 0.987100
-12.335000 0.812000
-12.314900 0.635500
-12.294800 0.474100
-12.274700 0.336300
-12.254600 0.222100
-12.234500 0.131600
-12.214400 0.064600
-12.194300 0.021200
-12.174200 0.001400
-12.154100 0.000000
-12.134000 0.000000
-12.113900 0.000000
-12.093800 0.000000
-12.073700 0.000000
-12.053600 0.000000
-12.033500 0.000000
-12.013400 0.000000
-11.993300 6.898800
-11.973200 14.935800
-11.953100 14.950400
-11.933000 26.020300
-11.912900 27.076000
-11.892800 18.926500
-11.872700 12.301500
-11.852500 11.006400
-11.832400 10.680400
-11.812300 11.590200
-11.792200 13.149200
-11.772100 13.304500
-11.752000 9.090200
-11.731900 5.505000
-11.711800 4.741000
-11.691700 12.781400
-11.671600 19.134000
-11.651500 39.141600
-11.631400 19.720600
-11.611300 6.682900
-11.591200 4.657200
-11.571100 16.480800
-11.551000 26.200300
-11.530900 26.683700
-11.510800 19.487000
-11.490700 6.301600
-11.470600 0.000000
-11.450500 0.000000
-11.430400 0.000000
-11.410300 0.000000
-11.390200 0.000000
-11.370100 0.000000
-11.350000 0.000000
-11.329900 0.000000
-11.309800 0.000000
-11.289700 0.000000
-11.269500 0.000000
-11.249400 0.000000
-11.229300 0.000000
-11.209200 0.000000
-11.189100 0.000000
-11.169000 0.000000
-11.148900 0.000000
-11.128800 0.000000
-11.108700 0.000000
-11.088600 0.000000
-11.068500 0.000000
-11.048400 0.000000
-11.028300 0.000000
-11.008200 0.000000
-10.988100 0.000000
-10.968000 0.000000
-10.947900 0.000000
-10.927800 0.000000
-10.907700 0.000000
-10.887600 0.000000
-10.867500 0.000000
-10.847400 0.000000
-10.827300 0.000000
-10.807200 0.000000
-10.787100 0.000000
-10.767000 0.000000
-10.746900 0.000000
-10.726800 0.000000
-10.706600 0.000000
-10.686500 0.000000
-10.666400 0.000000
-10.646300 0.000000
-10.626200 0.000000
-10.606100 0.000000
-10.586000 0.000000
-10.565900 0.000000
-10.545800 0.000000
-10.525700 0.000000
-10.505600 0.000000
-10.485500 0.000000
-10.465400 0.000000
-10.445300 0.000000
-10.425200 0.000000
-10.405100 0.000000
-10.385000 0.000000
-10.364900 0.000000
-10.344800 0.000000
-10.324700 0.000000
-10.304600 0.000000
-10.284500 0.000000
-10.264400 0.000000
-10.244300 0.000000
-10.224200 0.000000
-10.204100 0.000000
-10.184000 0.000000
-10.163900 0.000000
-10.143800 0.000000
-10.123600 0.000000
-10.103500 0.000000
-10.083400 0.000000
-10.063300 0.000000
-10.043200 0.000000
-10.023100 0.000000
-10.003000 0.000000
-9.982900 0.000000
-9.962800 0.000000
-9.942700 0.000000
-9.922600 0.000000
-9.902500 0.000000
-9.882400 0.000000
-9.862300 0.000000
-9.842200 0.000000
-9.822100 0.000000
-9.802000 0.000000
-9.781900 0.000000
-9.761800 0.000000
-9.741700 0.000000
-9.721600 0.000000
-9.701500 0.000000
-9.681400 0.000000
-9.661300 0.000000
-9.641200 0.000000
-9.621100 0.000000
-9.601000 0.000000
-9.580900 0.000000
-9.560800 0.000000
-9.540600 0.000000
-9.520500 0.000000
-9.500400 0.000000
-9.480300 0.000000
-9.460200 0.000000
-9.440100 0.000000
-9.420000 0.000000
-9.399900 0.000000
-9.379800 0.000000
-9.359700 0.000000
-9.339600 0.000000
-9.319500 0.000000
-9.299400 0.000000
-9.279300 0.000000
-9.259200 0.000000
-9.239100 0.000000
-9.219000 0.000000
-9.198900 0.000000
-9.178800 0.000000
-9.158700 0.000000
-9.138600 0.000000
-9.118500 0.000000
-9.098400 0.000000
-9.078300 0.000000
-9.058200 0.000000
-9.038100 0.000000
-9.018000 0.000000
-8.997900 0.000000
-8.977800 0.000000
-8.957600 0.000000
-8.937500 0.000000
-8.917400 0.000000
-8.897300 0.000000
-8.877200 0.000000
-8.857100 0.000000
-8.837000 0.000000
-8.816900 0.000000
-8.796800 0.000000
-8.776700 0.000000
-8.756600 0.000000
-8.736500 0.000000
-8.716400 0.000000
-8.696300 0.000000
-8.676200 0.000000
-8.656100 0.000000
-8.636000 0.000000
-8.615900 0.000000
-8.595800 0.000000
-8.575700 0.000000
-8.555600 0.000000
-8.535500 0.000000
-8.515400 0.000000
-8.495300 0.000000
-8.475200 0.000000
-8.455100 0.000000
-8.435000 0.000000
-8.414900 0.000000
-8.394700 0.000000
-8.374600 0.000000
-8.354500 0.000000
-8.334400 0.000000
-8.314300 0.000000
-8.294200 0.000000
-8.274100 0.000000
-8.254000 0.000000
-8.233900 0.000000
-8.213800 0.000000
-8.193700 0.000000
-8.173600 0.000000
-8.153500 0.000000
-8.133400 0.000000
-8.113300 0.000000
-8.093200 0.000000
-8.073100 0.000000
-8.053000 0.000000
-8.032900 0.000000
-8.012800 0.000000
-7.992700 0.000000
-7.972600 0.000000
-7.952500 0.000000
-7.932400 0.000000
-7.912300 0.000000
-7.892200 0.000000
-7.872100 0.000000
-7.852000 0.000000
-7.831900 0.000000
-7.811700 0.000000
-7.791600 0.000000
-7.771500 0.000000
-7.751400 0.000000
-7.731300 0.000000
-7.711200 0.000000
-7.691100 0.000000
-7.671000 0.000000
-7.650900 0.000000
-7.630800 0.000000
-7.610700 0.000000
-7.590600 0.000000
-7.570500 0.000000
-7.550400 0.000000
-7.530300 0.000000
-7.510200 0.000000
-7.490100 0.000000
-7.470000 0.000000
-7.449900 0.000000
-7.429800 0.000000
-7.409700 0.000000
-7.389600 0.000000
-7.369500 0.000000
-7.349400 0.000000
-7.329300 0.000000
-7.309200 0.000000
-7.289100 0.000000
-7.269000 0.000000
-7.248900 0.000000
-7.228700 0.000000
-7.208600 0.000000
-7.188500 0.000000
-7.168400 0.000000
-7.148300 0.000000
-7.128200 0.000000
-7.108100 0.000000
-7.088000 0.000000
-7.067900 0.000000
-7.047800 0.000000
-7.027700 0.000000
-7.007600 0.000000
-6.987500 0.000000
-6.967400 0.000000
-6.947300 0.000000
-6.927200 0.000000
-6.907100 0.000000
-6.887000 0.000000
-6.866900 0.000000
-6.846800 0.000000
-6.826700 0.000000
-6.806600 0.000000
-6.786500 0.000000
-6.766400 0.000000
-6.746300 0.000000
-6.726200 0.000000
-6.706100 0.000000
-6.686000 0.000000
-6.665800 0.000000
-6.645700 0.000000
-6.625600 0.000000
-6.605500 0.000000
-6.585400 0.000000
-6.565300 0.000000
-6.545200 0.000000
-6.525100 0.000000
-6.505000 0.000000
-6.484900 0.000000
-6.464800 0.000000
-6.444700 0.000000
-6.424600 0.000000
-6.404500 0.000000
-6.384400 0.000000
-6.364300 0.000000
-6.344200 0.000000
-6.324100 0.000000
-6.304000 0.000000
-6.283900 0.000000
-6.263800 0.000000
-6.243700 0.000000
-6.223600 0.000000
-6.203500 0.000000
-6.183400 0.000000
-6.163300 0.000000
-6.143200 0.000000
-6.123100 0.000000
-6.103000 0.000000
-6.082800 0.000000
-6.062700 0.000000
-6.042600 0.000000
-6.022500 0.000000
-6.002400 0.000000
-5.982300 0.000000
-5.962200 0.000000
-5.942100 0.000000
-5.922000 0.000000
-5.901900 0.000000
-5.881800 0.000000
-5.861700 0.000000
-5.841600 0.000000
-5.821500 0.000000
-5.801400 0.000000
-5.781300 0.000000
-5.761200 0.000000
-5.741100 0.000000
-5.721000 0.000000
-5.700900 0.000000
-5.680800 0.000000
-5.660700 0.000000
-5.640600 0.000000
-5.620500 0.000000
-5.600400 0.000000
-5.580300 0.000000
-5.560200 0.000000
-5.540100 0.054300
-5.520000 0.217200
-5.499800 0.442300
-5.479700 0.730800
-5.459600 1.016400
-5.439500 1.296900
-5.419400 1.572200
-5.399300 1.842400
-5.379200 2.095700
-5.359100 2.109000
-5.339000 2.135700
-5.318900 2.243900
-5.298800 2.377400
-5.278700 2.542200
-5.258600 2.805200
-5.238500 3.115200
-5.218400 4.012500
-5.198300 4.453700
-5.178200 4.498900
-5.158100 4.701100
-5.138000 5.309100
-5.117900 6.169700
-5.097800 7.395300
-5.077700 8.642400
-5.057600 10.855800
-5.037500 10.804400
-5.017400 9.771700
-4.997300 9.111000
-4.977200 7.330700
-4.957100 7.034600
-4.937000 7.154600
-4.916800 7.321300
-4.896700 7.151600
-4.876600 6.955900
-4.856500 8.219100
-4.836400 8.364900
-4.816300 8.141200
-4.796200 7.596400
-4.776100 8.795300
-4.756000 1.735800
-4.735900 0.049400
-4.715800 0.785800
-4.695700 1.922600
-4.675600 2.534800
-4.655500 3.077200
-4.635400 3.593100
-4.615300 4.104200
-4.595200 4.597400
-4.575100 5.072700
-4.555000 5.462800
-4.534900 5.561400
-4.514800 5.591100
-4.494700 5.551800
-4.474600 5.477800
-4.454500 5.413000
-4.434400 5.378900
-4.414300 5.416800
-4.394200 5.513100
-4.374100 5.328700
-4.353900 4.395900
-4.333800 3.193100
-4.313700 2.141000
-4.293600 1.378300
-4.273500 1.048000
-4.253400 0.936300
-4.233300 0.948800
-4.213200 1.023600
-4.193100 1.104100
-4.173000 1.185800
-4.152900 1.268900
-4.132800 1.353300
-4.112700 1.439000
-4.092600 1.522000
-4.072500 1.599000
-4.052400 1.670000
-4.032300 1.735000
-4.012200 1.806700
-3.992100 1.940700
-3.972000 2.118400
-3.951900 2.324600
-3.931800 2.506300
-3.911700 2.663500
-3.891600 2.796200
-3.871500 2.904500
-3.851400 2.988100
-3.831300 3.032500
-3.811200 3.028100
-3.791100 4.521300
-3.770900 2.464100
-3.750800 2.445500
-3.730700 2.417200
-3.710600 2.379000
-3.690500 2.331200
-3.670400 2.273600
-3.650300 2.206200
-3.630200 2.127800
-3.610100 2.037000
-3.590000 1.933800
-3.569900 1.818100
-3.549800 1.690000
-3.529700 1.557000
-3.509600 1.492300
-3.489500 1.447700
-3.469400 1.401900
-3.449300 1.355000
-3.429200 1.306800
-3.409100 1.257500
-3.389000 1.207100
-3.368900 1.155500
-3.348800 1.108400
-3.328700 1.068300
-3.308600 1.030100
-3.288500 0.993800
-3.268400 0.959000
-3.248300 0.925400
-3.228200 0.892800
-3.208100 0.861300
-3.187900 0.830800
-3.167800 0.800900
-3.147700 0.771300
-3.127600 0.742000
-3.107500 0.713200
-3.087400 0.684700
-3.067300 0.656600
-3.047200 0.628800
-3.027100 0.601400
-3.007000 0.655500
-2.986900 0.637100
-2.966800 0.584200
-2.946700 0.531200
-2.926600 0.478200
-2.906500 0.425300
-2.886400 0.372400
-2.866300 0.319400
-2.846200 0.266500
-2.826100 0.213600
-2.806000 0.160700
-2.785900 0.108000
-2.765800 0.063200
-2.745700 0.030300
-2.725600 0.009400
-2.705500 0.000400
-2.685400 0.000000
-2.665300 0.000000
-2.645200 0.000000
-2.625000 0.000000
-2.604900 0.000000
-2.584800 0.000000
-2.564700 0.000000
-2.544600 0.000000
-2.524500 0.000000
-2.504400 0.000000
-2.484300 0.000000
-2.464200 0.000000
-2.444100 0.000000
-2.424000 0.000000
-2.403900 0.000000
-2.383800 0.000000
-2.363700 0.000000
-2.343600 0.000000
-2.323500 0.000000
-2.303400 0.000000
-2.283300 0.000000
-2.263200 0.000000
-2.243100 0.000000
-2.223000 0.000000
-2.202900 0.000000
-2.182800 0.000000
-2.162700 0.000000
-2.142600 0.000000
-2.122500 0.000000
-2.102400 0.000000
-2.082300 0.000000
-2.062200 0.000000
-2.042000 0.000000
-2.021900 0.000000
-2.001800 0.000000
-1.981700 0.000000
-1.961600 0.000000
-1.941500 0.000000
-1.921400 0.000000
-1.901300 0.000000
-1.881200 0.000000
-1.861100 0.000000
-1.841000 0.000000
-1.820900 0.000000
-1.800800 0.000000
-1.780700 0.000000
-1.760600 0.000000
-1.740500 0.000000
-1.720400 0.000000
-1.700300 0.000000
-1.680200 0.000000
-1.660100 0.000000
-1.640000 0.000000
-1.619900 0.000000
-1.599800 0.000000
-1.579700 0.000000
-1.559600 0.000000
-1.539500 0.000000
-1.519400 0.000000
-1.499300 0.000000
-1.479200 0.000000
-1.459000 0.000000
-1.438900 0.000000
-1.418800 0.000000
-1.398700 0.000000
-1.378600 0.000000
-1.358500 0.000000
-1.338400 0.000000
-1.318300 0.000000
-1.298200 0.000000
-1.278100 0.000000
-1.258000 0.000000
-1.237900 0.000000
-1.217800 0.000000
-1.197700 0.000000
-1.177600 0.000000
-1.157500 0.000000
-1.137400 0.000000
-1.117300 0.000000
-1.097200 0.000000
-1.077100 0.000000
-1.057000 0.000000
-1.036900 0.000000
-1.016800 0.000000
-0.996700 0.000000
-0.976600 0.000000
-0.956500 0.000000
-0.936400 0.000000
-0.916300 0.000000
-0.896100 0.000000
-0.876000 0.000000
-0.855900 0.000000
-0.835800 0.000000
-0.815700 0.000000
-0.795600 0.000000
-0.775500 0.000000
-0.755400 0.000000
-0.735300 0.000000
-0.715200 0.000000
-0.695100 0.000000
-0.675000 0.000000
-0.654900 0.000000
-0.634800 0.000000
-0.614700 0.000000
-0.594600 0.000000
-0.574500 0.000000
-0.554400 0.000000
-0.534300 0.000000
-0.514200 0.000000
-0.494100 0.000000
-0.474000 0.000000
-0.453900 0.000000
-0.433800 0.000000
-0.413700 0.000000
-0.393600 0.000000
-0.373500 0.000000
-0.353400 0.000000
-0.333300 0.000000
-0.313100 0.000000
-0.293000 0.000000
-0.272900 0.000000
-0.252800 0.000000
-0.232700 1.108400
-0.212600 1.869000
-0.192500 2.063500
-0.172400 2.024000
-0.152300 1.924100
-0.132200 1.799100
-0.112100 1.893100
-0.092000 2.018600
-0.071900 2.171500
-0.051800 2.351500
-0.031700 2.558900
-0.011600 2.793400
0.008500 3.055200
0.028600 3.316100
0.048700 3.833400
0.068800 4.441300
0.088900 4.962200
0.109000 5.327400
0.129100 5.537000
0.149200 5.493700
0.169300 5.421000
0.189400 5.516100
0.209500 5.551600
0.229600 5.527400
0.249700 5.443500
0.269900 5.299300
0.290000 5.096200
0.310100 4.807800
0.330200 4.491100
0.350300 4.315800
0.370400 4.400100
0.390500 5.056800
0.410600 8.185400
0.430700 11.531800
0.450800 14.448600
0.470900 17.217000
0.491000 14.555200
0.511100 11.485000
0.531200 3.897700
0.551300 4.152100
0.571400 4.796100
0.591500 5.815800
0.611600 4.491300
0.631700 4.680900
0.651800 4.821100
0.671900 4.907000
0.692000 4.938600
0.712100 4.942100
0.732200 5.238000
0.752300 5.691400
0.772400 6.329500
0.792500 6.973900
0.812600 7.510400
0.832700 8.321900
0.852900 9.976800
0.873000 10.381600
0.893100 4.500000
0.913200 2.377300
0.933300 1.955300
0.953400 5.264000
0.973500 8.384000
0.993600 8.467800
1.013700 9.261800
1.033800 9.694400
1.053900 9.756100
1.074000 9.447000
1.094100 8.426600
1.114200 7.123600
1.134300 5.995700
1.154400 3.255100
1.174500 4.059300
1.194600 1.032300
1.214700 1.160600
1.234800 1.470000
1.254900 2.004800
1.275000 2.619200
1.295100 3.475500
1.315200 8.870500
1.335300 14.170700
1.355400 16.558400
1.375500 14.375900
1.395600 7.952400
1.415800 5.481300
1.435900 4.288100
1.456000 3.601300
1.476100 2.963100
1.496200 2.364100
1.516300 1.804400
1.536400 1.284000
1.556500 1.232400
1.576600 2.125300
1.596700 4.719100
1.616800 9.773800
1.636900 12.814500
1.657000 15.828200
1.677100 17.045200
1.697200 13.671800
1.717300 8.091500
1.737400 4.034200
1.757500 3.115600
1.777600 2.741600
1.797700 3.535300
1.817800 4.814600
1.837900 6.235900
1.858000 7.792800
1.878100 9.247000
1.898200 10.812400
1.918300 11.341600
1.938400 8.678300
1.958500 5.304100
1.978600 4.479700
1.998800 4.126700
2.018900 3.924900
2.039000 3.727500
2.059100 3.566700
2.079200 3.522900
2.099300 3.893600
2.119400 4.687800
2.139500 5.756000
2.159600 6.969200
2.179700 8.105100
2.199800 9.503700
2.219900 12.898100
2.240000 13.394600
2.260100 11.877500
2.280200 9.322700
2.300300 9.260300
2.320400 8.452600
2.340500 6.984100
2.360600 6.825500
2.380700 7.502500
2.400800 8.224700
2.420900 9.467300
2.441000 9.885200
2.461100 12.183800
2.481200 13.819100
2.501300 7.498200
2.521400 7.139900
2.541500 6.980900
2.561600 7.265100
2.581800 8.627400
2.601900 10.137400
2.622000 12.449900
2.642100 13.510600
2.662200 13.555100
2.682300 9.448000
2.702400 7.103600
2.722500 5.730200
2.742600 5.173800
2.762700 4.980400
2.782800 5.053000
2.802900 5.328500
2.823000 5.975900
2.843100 6.153500
2.863200 5.630100
2.883300 5.370000
2.903400 5.736200
2.923500 6.801200
2.943600 8.219000
2.963700 11.838000
2.983800 15.416700
3.003900 11.752200
3.024000 11.227300
3.044100 11.490300
3.064200 12.140700
3.084300 12.509300
3.104400 10.542100
3.124500 8.298000
3.144700 7.844700
3.164800 7.719100
3.184900 7.982100
3.205000 10.243300
3.225100 12.446700
3.245200 11.797800
3.265300 11.795000
3.285400 13.832100
3.305500 8.994300
3.325600 11.204400
3.345700 11.227000
3.365800 11.477900
3.385900 13.103800
3.406000 13.383600
3.426100 14.926800
3.446200 15.692100
3.466300 14.800000
3.486400 13.996900
3.506500 11.297000
3.526600 9.441400
3.546700 8.711500
3.566800 6.891300
3.586900 6.245300
3.607000 1.388500
3.627100 1.406400
3.647200 1.421300
3.667300 1.434300
3.687400 1.457100
3.707500 1.499300
3.727700 1.610000
3.747800 1.801100
3.767900 2.075000
3.788000 2.442500
3.808100 2.902400
3.828200 3.444200
3.848300 4.067200
3.868400 4.526100
3.888500 4.818700
3.908600 5.222400
3.928700 5.696500
3.948800 6.228500
3.968900 6.938600
3.989000 9.290800
4.009100 10.486700
4.029200 10.529400
4.049300 7.563300
4.069400 6.708100
4.089500 7.583700
4.109600 8.420100
4.129700 9.574800
4.149800 13.613600
4.169900 18.519300
4.190000 12.554700
4.210100 8.311700
4.230200 5.047600
4.250300 3.821500
4.270400 3.311200
4.290500 3.159200
4.310700 3.378800
4.330800 4.164400
4.350900 5.171500
4.371000 6.077400
4.391100 6.616300
4.411200 9.081100
4.431300 12.689300
4.451400 17.634700
4.471500 17.168000
4.491600 13.294200
4.511700 13.198800
4.531800 12.786300
4.551900 11.106200
4.572000 9.986000
4.592100 7.871500
4.612200 6.673100
4.632300 5.498900
4.652400 4.256300
4.672500 3.781500
4.692600 3.352900
4.712700 2.962000
4.732800 2.605700
4.752900 2.279700
4.773000 1.984600
4.793100 1.805500
4.813200 1.661400
4.833300 1.514200
4.853400 1.406200
4.873500 1.258200
4.893700 1.041500
4.913800 0.846300
4.933900 0.667500
4.954000 0.505200
4.974100 0.359300
4.994200 0.229900
5.014300 0.118600
5.034400 0.041800
5.054500 0.004200
5.074600 0.000000
5.094700 0.000000
5.114800 0.000000
5.134900 0.000000
5.155000 0.000000
5.175100 0.000000
5.195200 0.000000
5.215300 0.000000
5.235400 0.000000
5.255500 0.000000
5.275600 0.000000
5.295700 0.000000
5.315800 0.000000
5.335900 0.000000
5.356000 0.000000
5.376100 0.000000
5.396200 0.000000
5.416300 0.000000
5.436400 0.000000
5.456600 0.000000
5.476700 0.000000
5.496800 0.000000
5.516900 0.000000
5.537000 0.000000
5.557100 0.000000
5.577200 0.000000
5.597300 0.000000
5.617400 0.000000
5.637500 0.000000
5.657600 0.000000
5.677700 0.000000
5.697800 0.000000
5.717900 0.000000
5.738000 0.000000
5.758100 0.000000
5.778200 0.000000
5.798300 0.000000
5.818400 0.000000
5.838500 0.000000
5.858600 0.000000
5.878700 0.000000
5.898800 0.000000
5.918900 0.000000
5.939000 0.000000
5.959100 0.000000
5.979200 0.000000
5.999300 0.000000
6.019400 0.000000
6.039600 0.000000
6.059700 0.000000
6.079800 0.000000
6.099900 0.000000
6.120000 0.000000
6.140100 0.000000
6.160200 0.000000
6.180300 0.000000
6.200400 0.000000
6.220500 0.000000
6.240600 0.000000
6.260700 0.000000
6.280800 0.000000
6.300900 0.000000
6.321000 0.000000
6.341100 0.000000
6.361200 0.000000
6.381300 0.000000
6.401400 0.000000
6.421500 0.000000
6.441600 0.000000
6.461700 0.000000
6.481800 0.000000
6.501900 0.000000
6.522000 0.000000
6.542100 0.000000
6.562200 0.000000
6.582300 0.000000
6.602400 0.000000
6.622600 0.000000
6.642700 0.000000
6.662800 0.000000
6.682900 0.000000
6.703000 0.000000
6.723100 0.000000
6.743200 0.000000
6.763300 0.000000
6.783400 0.000000
6.803500 0.000000
6.823600 0.000000
6.843700 0.000000
6.863800 0.000000
6.883900 0.000000
6.904000 0.000000
6.924100 0.000000
6.944200 0.000000
6.964300 0.000000
6.984400 0.000000
7.004500 0.000000
7.024600 0.000000
7.044700 0.000000
7.064800 0.000000
7.084900 0.000000
7.105000 0.000000
7.125100 0.000000
7.145200 0.000000
7.165300 0.000000
7.185500 0.000000
7.205600 0.272700
7.225700 1.175000
7.245800 3.556400
7.265900 5.264000
7.286000 4.514200
7.306100 4.019100
7.326200 4.125300
7.346300 4.151000
7.366400 4.096300
7.386500 3.961200
7.406600 3.881100
7.426700 3.789000
7.446800 3.637200
7.466900 3.464000
7.487000 3.270600
7.507100 3.123900
7.527200 3.739700
7.547300 5.729100
7.567400 5.885100
7.587500 6.601900
7.607600 6.341600
7.627700 5.746700
7.647800 5.568900
7.667900 5.350000
7.688000 5.090000
7.708100 4.808100
7.728200 4.577800
7.748300 4.414400
7.768500 3.819500
7.788600 3.564600
7.808700 3.361800
7.828800 3.202800
7.848900 3.451800
7.869000 3.448300
7.889100 3.448400
7.909200 3.450600
7.929300 3.455000
7.949400 3.461500
7.969500 3.470100
7.989600 3.480900
8.009700 3.493800
8.029800 3.508800
8.049900 3.526000
8.070000 3.773400
8.090100 4.250000
8.110200 4.374900
8.130300 4.205100
8.150400 4.343400
8.170500 4.577000
8.190600 4.778800
8.210700 4.948700
8.230800 5.026200
8.250900 5.084300
8.271000 5.268400
8.291100 5.728600
8.311200 6.508800
8.331300 6.305700
8.351500 6.037400
8.371600 5.506100
8.391700 4.688400
8.411800 3.891700
8.431900 3.589800
8.452000 3.252600
8.472100 2.889300
8.492200 2.519200
8.512300 2.142900
8.532400 1.875700
8.552500 1.761000
8.572600 1.709600
8.592700 1.686800
8.612800 1.690800
8.632900 1.721500
8.653000 1.826100
8.673100 2.148300
8.693200 2.474600
8.713300 2.782400
8.733400 3.072300
8.753500 3.346600
8.773600 3.623200
8.793700 4.051000
8.813800 4.516400
8.833900 5.032000
8.854000 5.707000
8.874100 6.488700
8.894200 7.241300
8.914300 7.525300
8.934500 7.663200
8.954600 8.056700
8.974700 8.499700
8.994800 8.114400
9.014900 6.487900
9.035000 4.966800
9.055100 3.711600
9.075200 2.801600
9.095300 0.701500
9.115400 0.417900
9.135500 0.861000
9.155600 1.284200
9.175700 1.336900
9.195800 1.422800
9.215900 1.720300
9.236000 2.003100
9.256100 2.287500
9.276200 2.610500
9.296300 2.972000
9.316400 3.372100
9.336500 3.810700
9.356600 4.284800
9.376700 4.787000
9.396800 5.247100
9.416900 5.602900
9.437000 5.864400
9.457100 5.980700
9.477200 6.184100
9.497400 6.617500
9.517500 7.056900
9.537600 7.496500
9.557700 7.936200
9.577800 8.647900
9.597900 7.662000
9.618000 6.400900
9.638100 5.595700
9.658200 5.835300
9.678300 7.822500
9.698400 10.699300
9.718500 12.482500
9.738600 12.657000
9.758700 11.849300
9.778800 8.469400
9.798900 4.332800
9.819000 0.927600
9.839100 0.126700
9.859200 0.096700
9.879300 0.070700
9.899400 0.048700
9.919500 0.269300
9.939600 2.134500
9.959700 4.958400
9.979800 10.250800
9.999900 10.229400
10.020000 9.999100
10.040100 10.035500
10.060200 10.160100
10.080400 10.429600
10.100500 10.748900
10.120600 10.086600
10.140700 10.271900
10.160800 10.019800
10.180900 8.033800
10.201000 7.215900
10.221100 6.921000
10.241200 7.004100
10.261300 6.785900
10.281400 6.077900
10.301500 5.170200
10.321600 3.940100
10.341700 3.700500
10.361800 3.509600
10.381900 3.338300
10.402000 3.178900
10.422100 3.031400
10.442200 2.941300
10.462300 2.826600
10.482400 2.806700
10.502500 3.031900
10.522600 3.502600
10.542700 4.184500
10.562800 5.269900
10.582900 6.038900
10.603000 6.431000
10.623100 8.167600
10.643200 8.993100
10.663400 9.309500
10.683500 9.238600
10.703600 10.528400
10.723700 9.585300
10.743800 8.030500
10.763900 6.134400
10.784000 5.066100
10.804100 4.375300
10.824200 3.681300
10.844300 2.920100
10.864400 2.842400
10.884500 3.290600
10.904600 3.703500
10.924700 4.081200
10.944800 4.423600
10.964900 4.730800
10.985000 5.144700
11.005100 5.420000
11.025200 5.520800
11.045300 5.645600
11.065400 5.864400
11.085500 5.495200
11.105600 5.833500
11.125700 6.343500
11.145800 6.215900
11.165900 5.789600
11.186000 5.088900
11.206100 4.347900
11.226300 3.625500
11.246400 2.919900
11.266500 2.225400
11.286600 1.547700
11.306700 1.196600
11.326800 3.071300
11.346900 6.260500
11.367000 4.969200
11.387100 7.734100
11.407200 9.122700
11.427300 9.966200
11.447400 10.793000
11.467500 12.034900
11.487600 12.782500
11.507700 11.722900
11.527800 10.944300
11.547900 8.622800
11.568000 11.204900
11.588100 15.081300
11.608200 9.461600
11.628300 8.685300
11.648400 8.011700
11.668500 7.281500
11.688600 6.524700
11.708700 5.748800
11.728800 5.251000
11.748900 5.534100
11.769000 5.287600
11.789100 0.000000
11.809300 0.000000
11.829400 0.000000
11.849500 0.000000
11.869600 0.000000
11.889700 0.000000
11.909800 0.000000
11.929900 0.000000
11.950000 0.000000
11.970100 0.000000
11.990200 0.000000
12.010300 0.000000
12.030400 0.000000
12.050500 0.000000
12.070600 0.000000
12.090700 0.000000
12.110800 0.000000
12.130900 0.000000
12.151000 0.000000
12.171100 0.000000
12.191200 0.000000
12.211300 0.000000
12.231400 0.000000
12.251500 0.000000
12.271600 0.000000
12.291700 0.000000
12.311800 0.000000
12.331900 0.000000
12.352000 0.000000
12.372100 0.000000
12.392300 0.000000
12.412400 0.000000
12.432500 0.000000
12.452600 0.000000
12.472700 0.000000
12.492800 0.000000
12.512900 0.000000
12.533000 0.000000
12.553100 0.000000
12.573200 0.000000
12.593300 0.000000
12.613400 0.000000
12.633500 0.000000
12.653600 0.000000
12.673700 0.000000
12.693800 0.000000
12.713900 0.000000
12.734000 0.000000
12.754100 0.000000
12.774200 0.000000
12.794300 0.000000
12.814400 0.000000
12.834500 0.000000
12.854600 0.000000
12.874700 0.000000
12.894800 0.000000
12.914900 0.000000
12.935000 0.000000
12.955100 0.000000
12.975300 0.000000
12.995400 0.000000
13.015500 0.000000
13.035600 0.000000
13.055700 0.000000
13.075800 0.000000
13.095900 0.000000
13.116000 0.000000
13.136100 0.000000
13.156200 0.000000
13.176300 0.000000
13.196400 0.000000
13.216500 0.000000
13.236600 0.000000
13.256700 0.000000
13.276800 0.000000
13.296900 0.000000
13.317000 0.000000
13.337100 0.000000
13.357200 0.000000
13.377300 0.000000
13.397400 0.000000
13.417500 0.000000
13.437600 0.000000
13.457700 0.000000
13.477800 0.000000
13.497900 0.000000
13.518000 0.000000
13.538200 0.000000
13.558300 0.000000
13.578400 0.000000
13.598500 0.000000
13.618600 0.000000
13.638700 0.000000
13.658800 0.000000
13.678900 0.000000
13.699000 0.000000
13.719100 0.000000
13.739200 0.006500
13.759300 0.040600
13.779400 0.103900
13.799500 0.196400
13.819600 0.318100
13.839700 0.469000
13.859800 0.649100
13.879900 0.858300
13.900000 1.096800
13.920100 1.186000
13.940200 1.249200
13.960300 1.312200
13.980400 1.375000
14.000500 1.437700
14.020600 1.500200
14.040700 1.564300
14.060800 1.639700
14.080900 1.716100
14.101000 1.793400
14.121200 1.871600
14.141300 1.950600
14.161400 2.030600
14.181500 2.111900
14.201600 2.196700
14.221700 2.285500
14.241800 2.378500
14.261900 2.476500
14.282000 2.579300
14.302100 2.715400
14.322200 3.007000
14.342300 3.221800
14.362400 3.409500
14.382500 3.595500
14.402600 3.780800
14.422700 3.966300
14.442800 4.152000
14.462900 4.345800
14.483000 4.638900
14.503100 4.893500
14.523200 5.118700
14.543300 5.318600
14.563400 5.524800
14.583500 5.713100
14.603600 5.850100
14.623700 5.936000
14.643800 21.805200
14.663900 8.236200
14.684000 5.246400
14.704200 4.546600
14.724300 5.142800
14.744400 5.251100
14.764500 4.813800
14.784600 4.365300
14.804700 4.146100
14.824800 5.744400
14.844900 3.986000
14.865000 3.775900
14.885100 2.886500
14.905200 2.208900
14.925300 2.153100
14.945400 2.590700
14.965500 5.308500
14.985600 6.048000
15.005700 6.449200
15.025800 6.530800
15.045900 6.292800
15.066000 5.870200
15.086100 5.775900
15.106200 5.641400
15.126300 5.158400
15.146400 5.464900
15.166500 6.637400
15.186600 8.647300
15.206700 11.210500
15.226800 15.486200
15.246900 11.222100
15.267100 8.781200
15.287200 6.738800
15.307300 5.755500
15.327400 5.170300
15.347500 4.799900
15.367600 4.842000
15.387700 5.324500
15.407800 5.869500
15.427900 5.932800
15.448000 5.962000
15.468100 5.957300
15.488200 5.925400
15.508300 5.866400
15.528400 5.780100
15.548500 5.684600
15.568600 6.189200
15.588700 6.194700
15.608800 5.694800
15.628900 5.240500
15.649000 5.895900
15.669100 8.168200
15.689200 9.913500
15.709300 10.005000
15.729400 10.276700
15.749500 8.181200
15.769600 7.828300
15.789700 7.365800
15.809800 6.845100
15.829900 6.484900
15.850100 6.104600
15.870200 5.704200
15.890300 5.298800
15.910400 5.054300
15.930500 4.842500
15.950600 5.272200
15.970700 5.425400
15.990800 4.557900
16.010900 4.253200
16.031000 4.079100
16.051100 4.034500
16.071200 4.234800
16.091300 4.547700
16.111400 4.967500
16.131500 5.975900
16.151600 5.998900
16.171700 6.106000
16.191800 6.302200
16.211900 6.502600
16.232000 6.491700
16.252100 5.908600
16.272200 5.861700
16.292300 5.862500
16.312400 5.834000
16.332500 5.623700
16.352600 5.387100
16.372700 5.127500
16.392800 4.850800
16.412900 4.554600
16.433100 4.314600
16.453200 4.202200
16.473300 4.070500
16.493400 3.920200
16.513500 3.608000
16.533600 3.879200
16.553700 3.951500
16.573800 8.665200
16.593900 6.267600
16.614000 5.460300
16.634100 5.178400
16.654200 5.001800
16.674300 4.856700
16.694400 4.746400
16.714500 4.670800
16.734600 4.630000
16.754700 4.604600
16.774800 4.596800
16.794900 5.438500
16.815000 5.468700
16.835100 5.466100
16.855200 5.284400
16.875300 4.922400
16.895400 4.389600
16.915500 3.870200
16.935600 3.428500
16.955700 3.073300
16.975800 2.785400
16.995900 2.564700
17.016100 2.400700
17.036200 2.280300
17.056300 2.181800
17.076400 2.097400
17.096500 2.041800
17.116600 2.082800
17.136700 2.144300
17.156800 2.209300
17.176900 2.275600
17.197000 2.341500
17.217100 2.416700
17.237200 2.500800
17.257300 2.593800
17.277400 2.702100
17.297500 2.839600
17.317600 2.988300
17.337700 3.210100
17.357800 3.557200
17.377900 4.144400
17.398000 5.583200
17.418100 6.832400
17.438200 7.646100
17.458300 7.946600
17.478400 7.760000
17.498500 7.480600
17.518600 7.407800
17.538700 7.068300
17.558800 6.725800
17.579000 6.380100
17.599100 6.030400
17.619200 5.665400
17.639300 5.227600
17.659400 3.017500
17.679500 3.014400
17.699600 3.246500
17.719700 3.748500
17.739800 4.187200
17.759900 4.520700
17.780000 5.009900
17.800100 5.021900
17.820200 4.883500
17.840300 4.764100
17.860400 4.665700
17.880500 4.588300
17.900600 4.531800
17.920700 4.496200
17.940800 4.413400
17.960900 4.373900
17.981000 4.357600
18.001100 4.338100
18.021200 4.315200
18.041300 4.289000
18.061400 4.259600
18.081500 4.232600
18.101600 4.211300
18.121700 4.195800
18.141800 4.219400
18.162000 5.228000
18.182100 4.275200
18.202200 3.739500
18.222300 3.793200
18.242400 3.841400
18.262500 3.884000
18.282600 3.921100
18.302700 3.952700
18.322800 3.978800
18.342900 3.999400
18.363000 4.014500
18.383100 6.996100
18.403200 9.568000
18.423300 9.619300
18.443400 9.040200
18.463500 8.940100
18.483600 8.664400
18.503700 8.198700
18.523800 7.086800
18.543900 6.071200
18.564000 6.474800
18.584100 5.438800
18.604200 4.708700
18.624300 4.009500
18.644400 3.340600
18.664500 2.701900
18.684600 2.093500
18.704700 1.695100
18.724800 1.508700
18.745000 1.332700
18.765100 1.044400
18.785200 0.621000
18.805300 0.119900
18.825400 0.011400
18.845500 0.569100
18.865600 2.328100
18.885700 4.360700
18.905800 1.861700
18.925900 1.738000
18.946000 1.727300
18.966100 1.829400
18.986200 2.048700
19.006300 2.396300
19.026400 3.335000
19.046500 4.452500
19.066600 5.621700
19.086700 6.842600
19.106800 6.175100
19.126900 5.791100
19.147000 5.571700
19.167100 5.428100
19.187200 5.278800
19.207300 5.510800
19.227400 5.624300
19.247500 5.299200
19.267600 5.262600
19.287700 5.240100
19.307900 5.196200
19.328000 5.107900
19.348100 4.886000
19.368200 4.650500
19.388300 4.435200
19.408400 4.269700
19.428500 4.204700
19.448600 4.349300
19.468700 4.672200
19.488800 5.552700
19.508900 6.317700
19.529000 7.137600
19.549100 7.527100
19.569200 7.494200
19.589300 7.383300
19.609400 7.394900
19.629500 7.558100
19.649600 7.943000
19.669700 8.446200
19.689800 8.721600
19.709900 8.464800
19.730000 8.048900
19.750100 7.837800
19.770200 7.548900
19.790300 7.478600
19.810400 7.903300
19.830500 8.607800
19.850600 9.436700
19.870700 10.273500
19.890900 10.555500
19.911000 8.829500
19.931100 9.195400
19.951200 7.968400
19.971300 5.926700
19.991400 4.990100
20.011500 5.451100
20.031600 6.252400
20.051700 6.836900
20.071800 7.123800
20.091900 7.481600
20.112000 8.064600
20.132100 8.883200
20.152200 8.087600
20.172300 7.180800
20.192400 5.585400
20.212500 5.729100
20.232600 5.985200
20.252700 6.353500
20.272800 7.421800
20.292900 7.000000
20.313000 6.601500
20.333100 6.227300
20.353200 6.074900
20.373300 6.666000
20.393400 7.223900
20.413500 6.702200
20.433600 6.381800
20.453700 6.349600
20.473900 6.218200
20.494000 5.987600
20.514100 7.987300
20.534200 6.965700
20.554300 6.544200
20.574400 5.596300
20.594500 4.791400
20.614600 4.453700
20.634700 4.727500
20.654800 5.278500
20.674900 5.884900
20.695000 6.470300
20.715100 6.704900
20.735200 6.066000
20.755300 3.676700
20.775400 2.913900
20.795500 2.392100
20.815600 2.155800
20.835700 2.062900
20.855800 1.752600
20.875900 1.563900
20.896000 1.528600
20.916100 1.598800
20.936200 1.775400
20.956300 3.977400
20.976400 7.524100
20.996500 10.509800
21.016600 11.888300
21.036700 12.435700
21.056900 11.308500
21.077000 9.105000
21.097100 7.182500
21.117200 5.826600
21.137300 4.708300
21.157400 3.372900
21.177500 2.121700
21.197600 2.076800
21.217700 2.165300
21.237800 2.269800
21.257900 2.375600
21.278000 2.892700
21.298100 3.531100
21.318200 4.278000
21.338300 5.131200
21.358400 6.097700
21.378500 7.183900
21.398600 8.389800
21.418700 9.587400
21.438800 9.752000
21.458900 8.676300
21.479000 8.867600
21.499100 7.712000
21.519200 5.988300
21.539300 5.966700
21.559400 6.589200
21.579500 7.397000
21.599600 6.587300
21.619800 5.881500
21.639900 5.452500
21.660000 5.292900
21.680100 5.151000
21.700200 5.073100
21.720300 5.066400
21.740400 5.123400
21.760500 5.173200
21.780600 5.152400
21.800700 5.115200
21.820800 5.078700
21.840900 5.027200
21.861000 5.297100
21.881100 5.207900
21.901200 5.033600
21.921300 4.774400
21.941400 4.404400
21.961500 3.919300
21.981600 3.419400
22.001700 4.169400
22.021800 4.630600
22.041900 5.386000
22.062000 6.900000
22.082100 7.729000
22.102200 7.544000
22.122300 7.339700
22.142400 7.200600
22.162500 6.949200
22.182600 7.052000
22.202800 7.509100
22.222900 8.450200
22.243000 9.824300
22.263100 10.403200
22.283200 10.063600
22.303300 9.347700
22.323400 9.113800
22.343500 8.723200
22.363600 8.298400
22.383700 8.154900
22.403800 8.087900
22.423900 7.304900
22.444000 5.761800
22.464100 4.206500
22.484200 3.685200
22.504300 3.818600
22.524400 4.297900
22.544500 4.886300
22.564600 5.483100
22.584700 6.073000
22.604800 6.663700
22.624900 7.228600
22.645000 7.734000
22.665100 8.177300
22.685200 8.574200
22.705300 7.676100
22.725400 6.500500
22.745500 5.281400
22.765600 4.716400
22.785800 4.406900
22.805900 2.894000
22.826000 1.517100
22.846100 0.896500
22.866200 0.510400
22.886300 0.357500
22.906400 0.303000
22.926500 0.248200
22.946600 0.193000
22.966700 0.138200
22.986800 0.095000
23.006900 0.050300
23.027000 0.004300
23.047100 0.000000
23.067200 0.000000
23.087300 0.000000
23.107400 0.000000
23.127500 0.000000
23.147600 0.000000
23.167700 0.000000
23.187800 0.000000
23.207900 0.000000
23.228000 0.000000
23.248100 0.000000
23.268200 0.000000
23.288300 0.000000
23.308400 0.000000
23.328500 0.000000
23.348700 0.000000
23.368800 0.000000
23.388900 0.000000
23.409000 0.000000
23.429100 0.000000
23.449200 0.000000
23.469300 0.000000
23.489400 0.000000
23.509500 0.000000
23.529600 0.000000
23.549700 0.000000
23.569800 0.000000
23.589900 0.000000
23.610000 0.000000
23.630100 0.000000
23.650200 0.000000
23.670300 0.000000
23.690400 0.000000
23.710500 0.000000
23.730600 0.000000
23.750700 0.000000
23.770800 0.000000
23.790900 0.000000
23.811000 0.000000
23.831100 0.000000
23.851200 0.000000
23.871300 0.000000
23.891400 0.000000
23.911500 0.000000
23.931700 0.000000
23.951800 0.000000
23.971900 0.000000
23.992000 0.000000
24.012100 0.000000
24.032200 0.000000
24.052300 0.000000
24.072400 0.000000
24.092500 0.000000
24.112600 0.000000
24.132700 0.000000
24.152800 0.000000
24.172900 0.000000
24.193000 0.000000
24.213100 0.000000
24.233200 0.000000
24.253300 0.000000
24.273400 0.000000
24.293500 0.000000
24.313600 0.000000
24.333700 0.000000
24.353800 0.000000
24.373900 0.000000
24.394000 0.000000
24.414100 0.000000
24.434200 0.000000
24.454300 0.000000
24.474400 0.000000
24.494500 0.000000
24.514700 0.000000
24.534800 0.000000
24.554900 0.000000
24.575000 0.000000
24.595100 0.000000
24.615200 0.000000
24.635300 0.000000
24.655400 0.000000
24.675500 0.000000
24.695600 0.000000
24.715700 0.000000
24.735800 0.000000
24.755900 0.000000
24.776000 0.000000
24.796100 0.000000
24.816200 0.000000
24.836300 0.000000
24.856400 0.000000
e
