set title 'mp-1219748 - Density of States'
set xlabel 'Energy (eV)'
set ylabel 'DOS (states/eV)'
set grid
set xrange [-10:10]
set yrange [0:58.863]
set xzeroaxis lt -1
set terminal png size 800,600
set output 'mp-1219748_dos_gnuplot.png'
plot '-' using 1:2 with lines title 'DOS'
-17.319700 0.000000
-17.303000 0.000000
-17.286200 0.000000
-17.269500 0.000000
-17.252700 0.000000
-17.236000 0.000000
-17.219200 0.000000
-17.202400 0.000000
-17.185700 0.000000
-17.168900 0.000000
-17.152200 0.000000
-17.135400 0.000000
-17.118600 0.000000
-17.101900 0.000000
-17.085100 0.000000
-17.068400 0.000000
-17.051600 0.000000
-17.034800 0.000000
-17.018100 0.000000
-17.001300 0.000000
-16.984600 0.000000
-16.967800 0.000000
-16.951000 0.000000
-16.934300 0.000000
-16.917500 0.000000
-16.900800 0.000000
-16.884000 0.000000
-16.867200 0.000000
-16.850500 0.000000
-16.833700 0.000000
-16.817000 0.000000
-16.800200 0.000000
-16.783400 0.000000
-16.766700 0.000000
-16.749900 0.000000
-16.733200 0.000000
-16.716400 0.000000
-16.699600 0.000000
-16.682900 0.000000
-16.666100 0.000000
-16.649400 0.000000
-16.632600 0.000000
-16.615800 0.000000
-16.599100 0.000000
-16.582300 0.000000
-16.565600 0.000000
-16.548800 0.000000
-16.532100 0.000000
-16.515300 0.000000
-16.498500 0.000000
-16.481800 0.000000
-16.465000 0.000000
-16.448300 0.000000
-16.431500 0.000000
-16.414700 0.000000
-16.398000 0.000000
-16.381200 0.000000
-16.364500 0.000000
-16.347700 0.000000
-16.330900 0.000000
-16.314200 0.000000
-16.297400 0.000000
-16.280700 0.000000
-16.263900 0.000000
-16.247100 0.000000
-16.230400 0.000000
-16.213600 0.000000
-16.196900 0.000000
-16.180100 0.000000
-16.163300 0.000000
-16.146600 0.000000
-16.129800 0.000000
-16.113100 0.000000
-16.096300 0.000000
-16.079500 0.000000
-16.062800 0.000000
-16.046000 0.000000
-16.029300 0.000000
-16.012500 0.000000
-15.995700 0.000000
-15.979000 0.000000
-15.962200 0.000000
-15.945500 0.000000
-15.928700 0.000000
-15.911900 0.000000
-15.895200 0.000000
-15.878400 0.000000
-15.861700 0.000000
-15.844900 0.000000
-15.828200 0.000000
-15.811400 0.000000
-15.794600 0.004200
-15.777900 0.524200
-15.761100 1.355000
-15.744400 2.360900
-15.727600 4.181700
-15.710800 5.408100
-15.694100 6.713200
-15.677300 6.836500
-15.660600 6.837000
-15.643800 6.837500
-15.627000 6.838000
-15.610300 6.838500
-15.593500 6.839000
-15.576800 6.839500
-15.560000 6.839900
-15.543200 6.642400
-15.526500 6.262800
-15.509700 5.780900
-15.493000 4.956200
-15.476200 4.389400
-15.459400 3.814100
-15.442700 3.812300
-15.425900 3.812500
-15.409200 3.812600
-15.392400 3.812700
-15.375600 3.812900
-15.358900 3.813000
-15.342100 3.813200
-15.325400 3.813300
-15.308600 3.813400
-15.291800 3.813600
-15.275100 3.813700
-15.258300 3.813900
-15.241600 3.814000
-15.224800 3.814200
-15.208000 3.814300
-15.191300 3.814400
-15.174500 3.814600
-15.157800 3.814700
-15.141000 3.814900
-15.124200 3.815000
-15.107500 13.614200
-15.090700 19.624900
-15.074000 13.040500
-15.057200 0.000000
-15.040500 65.801800
-15.023700 35.142900
-15.006900 17.690800
-14.990200 17.590600
-14.973400 18.612500
-14.956700 20.126000
-14.939900 21.808700
-14.923100 21.742500
-14.906400 19.725800
-14.889600 16.866800
-14.872900 10.979100
-14.856100 5.749500
-14.839300 2.421000
-14.822600 0.000000
-14.805800 0.000000
-14.789100 0.000000
-14.772300 0.000000
-14.755500 0.000000
-14.738800 0.000000
-14.722000 0.000000
-14.705300 0.000000
-14.688500 0.000000
-14.671700 0.000000
-14.655000 0.000000
-14.638200 0.000000
-14.621500 0.000000
-14.604700 0.000000
-14.587900 0.000000
-14.571200 0.000000
-14.554400 0.000000
-14.537700 0.000000
-14.520900 0.000000
-14.504100 0.000000
-14.487400 0.000000
-14.470600 0.000000
-14.453900 0.000000
-14.437100 0.000000
-14.420300 0.000000
-14.403600 0.000000
-14.386800 0.000000
-14.370100 0.000000
-14.353300 0.000000
-14.336600 0.000000
-14.319800 0.000000
-14.303000 0.000000
-14.286300 0.000000
-14.269500 0.000000
-14.252800 0.000000
-14.236000 0.000000
-14.219200 0.000000
-14.202500 0.000000
-14.185700 0.000000
-14.169000 0.000000
-14.152200 0.000000
-14.135400 0.000000
-14.118700 0.000000
-14.101900 0.000000
-14.085200 0.000000
-14.068400 0.000000
-14.051600 0.000000
-14.034900 0.000000
-14.018100 0.000000
-14.001400 0.000000
-13.984600 0.000000
-13.967800 0.000000
-13.951100 0.000000
-13.934300 0.000000
-13.917600 0.000000
-13.900800 0.000000
-13.884000 0.000000
-13.867300 0.000000
-13.850500 0.000000
-13.833800 0.000000
-13.817000 0.000000
-13.800200 0.000000
-13.783500 0.000000
-13.766700 0.000000
-13.750000 0.000000
-13.733200 0.000000
-13.716400 0.000000
-13.699700 0.000000
-13.682900 0.000000
-13.666200 0.000000
-13.649400 0.000000
-13.632700 0.000000
-13.615900 0.000000
-13.599100 0.000000
-13.582400 0.000000
-13.565600 0.000000
-13.548900 0.000000
-13.532100 0.000000
-13.515300 0.000000
-13.498600 0.000000
-13.481800 0.000000
-13.465100 0.000000
-13.448300 0.000000
-13.431500 0.000000
-13.414800 0.000000
-13.398000 0.000000
-13.381300 0.000000
-13.364500 0.000000
-13.347700 0.000000
-13.331000 0.000000
-13.314200 0.000000
-13.297500 0.000000
-13.280700 0.000000
-13.263900 0.000000
-13.247200 0.000000
-13.230400 0.000000
-13.213700 0.000000
-13.196900 0.000000
-13.180100 0.000000
-13.163400 0.000000
-13.146600 0.000000
-13.129900 0.000000
-13.113100 0.000000
-13.096300 0.000000
-13.079600 0.000000
-13.062800 0.000000
-13.046100 0.000000
-13.029300 0.000000
-13.012500 0.000000
-12.995800 0.000000
-12.979000 0.000000
-12.962300 0.000000
-12.945500 0.000000
-12.928700 0.000000
-12.912000 0.000000
-12.895200 0.000000
-12.878500 0.000000
-12.861700 0.000000
-12.845000 0.000000
-12.828200 0.000000
-12.811400 0.000000
-12.794700 0.000000
-12.777900 0.000000
-12.761200 0.000000
-12.744400 0.000000
-12.727600 0.000000
-12.710900 0.000000
-12.694100 0.000000
-12.677400 0.000000
-12.660600 0.000000
-12.643800 0.000000
-12.627100 0.000000
-12.610300 0.000000
-12.593600 0.000000
-12.576800 0.000000
-12.560000 0.000000
-12.543300 0.000000
-12.526500 0.000000
-12.509800 0.000000
-12.493000 0.000000
-12.476200 0.000000
-12.459500 0.000000
-12.442700 0.000000
-12.426000 0.000000
-12.409200 0.000000
-12.392400 0.000000
-12.375700 0.000000
-12.358900 0.000000
-12.342200 0.000000
-12.325400 0.000000
-12.308600 0.000000
-12.291900 0.000000
-12.275100 0.000000
-12.258400 0.000000
-12.241600 0.000000
-12.224800 0.000000
-12.208100 0.000000
-12.191300 0.000000
-12.174600 0.000000
-12.157800 0.000000
-12.141100 0.000000
-12.124300 0.000000
-12.107500 0.000000
-12.090800 0.000000
-12.074000 0.000000
-12.057300 0.000000
-12.040500 0.000000
-12.023700 0.000000
-12.007000 0.000000
-11.990200 0.000000
-11.973500 0.000000
-11.956700 0.000000
-11.939900 0.000000
-11.923200 0.000000
-11.906400 0.000000
-11.889700 0.000000
-11.872900 0.000000
-11.856100 0.000000
-11.839400 0.000000
-11.822600 0.000000
-11.805900 0.000000
-11.789100 0.000000
-11.772300 0.000000
-11.755600 0.000000
-11.738800 0.000000
-11.722100 0.000000
-11.705300 0.000000
-11.688500 0.000000
-11.671800 0.000000
-11.655000 0.000000
-11.638300 0.000000
-11.621500 0.000000
-11.604700 0.000000
-11.588000 0.000000
-11.571200 0.000000
-11.554500 0.000000
-11.537700 0.000000
-11.520900 0.000000
-11.504200 0.000000
-11.487400 0.000000
-11.470700 0.000000
-11.453900 0.000000
-11.437200 0.000000
-11.420400 0.000000
-11.403600 0.000000
-11.386900 0.000000
-11.370100 0.000000
-11.353400 0.000000
-11.336600 0.000000
-11.319800 0.000000
-11.303100 0.000000
-11.286300 0.000000
-11.269600 0.000000
-11.252800 0.000000
-11.236000 0.000000
-11.219300 0.000000
-11.202500 0.000000
-11.185800 0.000000
-11.169000 0.000000
-11.152200 0.000000
-11.135500 0.000000
-11.118700 0.000000
-11.102000 0.000000
-11.085200 0.000000
-11.068400 0.000000
-11.051700 0.000000
-11.034900 0.000000
-11.018200 0.000000
-11.001400 0.000000
-10.984600 0.000000
-10.967900 0.000000
-10.951100 0.000000
-10.934400 0.000000
-10.917600 0.000000
-10.900800 0.000000
-10.884100 0.000000
-10.867300 0.000000
-10.850600 0.000000
-10.833800 0.000000
-10.817000 0.000000
-10.800300 0.000000
-10.783500 0.000000
-10.766800 0.000000
-10.750000 0.000000
-10.733300 0.000000
-10.716500 0.000000
-10.699700 0.000000
-10.683000 0.000000
-10.666200 0.000000
-10.649500 0.000000
-10.632700 0.000000
-10.615900 0.000000
-10.599200 0.000000
-10.582400 0.000000
-10.565700 0.000000
-10.548900 0.000000
-10.532100 0.000000
-10.515400 0.000000
-10.498600 0.000000
-10.481900 0.000000
-10.465100 0.000000
-10.448300 0.000000
-10.431600 0.000000
-10.414800 0.000000
-10.398100 0.000000
-10.381300 0.000000
-10.364500 0.000000
-10.347800 0.000000
-10.331000 0.000000
-10.314300 0.000000
-10.297500 0.000000
-10.280700 0.000000
-10.264000 0.000000
-10.247200 0.000000
-10.230500 0.000000
-10.213700 0.000000
-10.196900 0.000000
-10.180200 0.000000
-10.163400 0.000000
-10.146700 0.000000
-10.129900 0.000000
-10.113100 0.000000
-10.096400 0.000000
-10.079600 0.000000
-10.062900 0.000000
-10.046100 0.000000
-10.029300 0.000000
-10.012600 0.000000
-9.995800 0.000000
-9.979100 0.000000
-9.962300 0.000000
-9.945600 0.000000
-9.928800 0.000000
-9.912000 0.000000
-9.895300 0.000000
-9.878500 0.000000
-9.861800 0.000000
-9.845000 0.000000
-9.828200 0.000000
-9.811500 0.000000
-9.794700 0.000000
-9.778000 0.000000
-9.761200 0.000000
-9.744400 0.000000
-9.727700 0.000000
-9.710900 0.000000
-9.694200 0.000000
-9.677400 0.000000
-9.660600 0.000000
-9.643900 0.000000
-9.627100 0.000000
-9.610400 0.000000
-9.593600 0.000000
-9.576800 0.000000
-9.560100 0.000000
-9.543300 0.000000
-9.526600 0.000000
-9.509800 0.000000
-9.493000 0.000000
-9.476300 0.000000
-9.459500 0.000000
-9.442800 0.000000
-9.426000 0.000000
-9.409200 0.000000
-9.392500 0.000000
-9.375700 0.000000
-9.359000 0.000000
-9.342200 0.000000
-9.325400 0.000000
-9.308700 0.000000
-9.291900 0.000000
-9.275200 0.000000
-9.258400 0.000000
-9.241700 0.000000
-9.224900 0.000000
-9.208100 0.000000
-9.191400 0.000000
-9.174600 0.000000
-9.157900 0.000000
-9.141100 0.000000
-9.124300 0.000000
-9.107600 0.000000
-9.090800 0.000000
-9.074100 0.000000
-9.057300 0.000000
-9.040500 0.000000
-9.023800 0.000000
-9.007000 0.000000
-8.990300 0.000000
-8.973500 0.000000
-8.956700 0.000000
-8.940000 0.000000
-8.923200 0.000000
-8.906500 0.000000
-8.889700 0.000000
-8.872900 0.000000
-8.856200 0.000000
-8.839400 0.000000
-8.822700 0.000000
-8.805900 0.000000
-8.789100 0.000000
-8.772400 0.000000
-8.755600 0.000000
-8.738900 0.000000
-8.722100 0.000000
-8.705300 0.000000
-8.688600 0.000000
-8.671800 0.000000
-8.655100 0.000000
-8.638300 0.000000
-8.621500 0.000000
-8.604800 0.000000
-8.588000 0.000000
-8.571300 0.000000
-8.554500 0.000000
-8.537800 0.000000
-8.521000 0.000000
-8.504200 0.000000
-8.487500 0.000000
-8.470700 0.000000
-8.454000 0.000000
-8.437200 0.000000
-8.420400 0.000000
-8.403700 0.000000
-8.386900 0.000000
-8.370200 0.000000
-8.353400 0.000000
-8.336600 0.000000
-8.319900 0.000000
-8.303100 0.000000
-8.286400 0.000000
-8.269600 0.000000
-8.252800 0.000000
-8.236100 0.000000
-8.219300 0.000000
-8.202600 0.000000
-8.185800 0.000000
-8.169000 0.000000
-8.152300 0.000000
-8.135500 0.000000
-8.118800 0.000000
-8.102000 0.000000
-8.085200 0.000000
-8.068500 0.000000
-8.051700 0.000000
-8.035000 0.000000
-8.018200 0.000000
-8.001400 0.000000
-7.984700 0.000000
-7.967900 0.000000
-7.951200 0.000000
-7.934400 0.000000
-7.917600 0.000000
-7.900900 0.000000
-7.884100 0.000000
-7.867400 0.000000
-7.850600 0.000000
-7.833900 0.000000
-7.817100 0.000000
-7.800300 0.000000
-7.783600 0.000000
-7.766800 0.000000
-7.750100 0.000000
-7.733300 0.000000
-7.716500 0.000000
-7.699800 0.000000
-7.683000 0.000000
-7.666300 0.000000
-7.649500 0.000000
-7.632700 0.000000
-7.616000 0.000000
-7.599200 0.000000
-7.582500 0.000000
-7.565700 0.000000
-7.548900 0.000000
-7.532200 0.000000
-7.515400 0.000000
-7.498700 0.000000
-7.481900 0.000000
-7.465100 0.000000
-7.448400 0.000000
-7.431600 0.000000
-7.414900 0.000000
-7.398100 0.000000
-7.381300 0.000000
-7.364600 0.000000
-7.347800 0.000000
-7.331100 0.000000
-7.314300 0.000000
-7.297500 0.000000
-7.280800 0.000000
-7.264000 0.000000
-7.247300 0.000000
-7.230500 0.000000
-7.213700 0.000000
-7.197000 0.000000
-7.180200 0.000000
-7.163500 0.000000
-7.146700 0.000000
-7.129900 0.000000
-7.113200 0.000000
-7.096400 0.000000
-7.079700 0.000000
-7.062900 0.000000
-7.046200 0.000000
-7.029400 0.000000
-7.012600 0.000000
-6.995900 0.000000
-6.979100 0.000000
-6.962400 0.000000
-6.945600 0.000000
-6.928800 0.000000
-6.912100 0.000000
-6.895300 0.000000
-6.878600 0.000000
-6.861800 0.000000
-6.845000 0.000000
-6.828300 0.000000
-6.811500 0.000000
-6.794800 0.000000
-6.778000 0.000000
-6.761200 0.000000
-6.744500 0.000000
-6.727700 0.000000
-6.711000 0.000000
-6.694200 0.000000
-6.677400 0.000000
-6.660700 0.000000
-6.643900 0.000000
-6.627200 0.000000
-6.610400 0.000000
-6.593600 0.000000
-6.576900 0.000000
-6.560100 0.000000
-6.543400 0.000000
-6.526600 0.000000
-6.509800 0.000000
-6.493100 0.000000
-6.476300 0.000000
-6.459600 0.000000
-6.442800 0.000000
-6.426000 0.000000
-6.409300 0.000000
-6.392500 0.000000
-6.375800 0.000000
-6.359000 0.000000
-6.342300 0.000000
-6.325500 0.000000
-6.308700 0.000000
-6.292000 0.000000
-6.275200 0.000000
-6.258500 0.000000
-6.241700 0.000000
-6.224900 0.000000
-6.208200 0.000000
-6.191400 0.000000
-6.174700 0.000000
-6.157900 0.000000
-6.141100 0.000000
-6.124400 0.000000
-6.107600 0.000000
-6.090900 0.000000
-6.074100 0.000000
-6.057300 0.043300
-6.040600 3.372400
-6.023800 10.253200
-6.007100 10.732500
-5.990300 6.270200
-5.973500 9.834600
-5.956800 15.938700
-5.940000 7.142300
-5.923300 5.264900
-5.906500 5.465900
-5.889700 5.659100
-5.873000 5.852500
-5.856200 6.045800
-5.839500 6.239200
-5.822700 6.432700
-5.805900 6.823300
-5.789200 7.300400
-5.772400 7.529900
-5.755700 7.938800
-5.738900 8.179100
-5.722100 8.194300
-5.705400 8.209600
-5.688600 8.225100
-5.671900 8.240700
-5.655100 8.256300
-5.638400 8.272200
-5.621600 8.288100
-5.604800 9.038900
-5.588100 13.954100
-5.571300 14.541300
-5.554600 13.333100
-5.537800 11.907300
-5.521000 9.527400
-5.504300 7.714400
-5.487500 7.267400
-5.470800 7.258300
-5.454000 7.249400
-5.437200 7.240700
-5.420500 6.770900
-5.403700 6.253100
-5.387000 5.201000
-5.370200 4.638000
-5.353400 3.985000
-5.336700 3.493400
-5.319900 3.133300
-5.303200 2.984600
-5.286400 2.983400
-5.269600 2.982200
-5.252900 2.981100
-5.236100 2.979900
-5.219400 2.978800
-5.202600 2.977700
-5.185800 2.976500
-5.169100 2.975400
-5.152300 2.974300
-5.135600 2.973200
-5.118800 2.972200
-5.102000 2.971100
-5.085300 2.970000
-5.068500 2.969000
-5.051800 2.967900
-5.035000 2.966900
-5.018200 2.965800
-5.001500 2.964800
-4.984700 2.963800
-4.968000 2.962800
-4.951200 2.961800
-4.934400 3.090500
-4.917700 3.487300
-4.900900 4.087300
-4.884200 4.704500
-4.867400 5.588800
-4.850700 6.845200
-4.833900 7.980200
-4.817100 7.411500
-4.800400 6.558600
-4.783600 6.533500
-4.766900 4.991800
-4.750100 2.849700
-4.733300 2.006700
-4.716600 1.181300
-4.699800 0.586800
-4.683100 0.164900
-4.666300 0.000000
-4.649500 0.000000
-4.632800 0.000000
-4.616000 0.000000
-4.599300 0.000000
-4.582500 0.000000
-4.565700 0.000000
-4.549000 0.000000
-4.532200 0.000000
-4.515500 0.000000
-4.498700 0.000000
-4.481900 0.000000
-4.465200 0.000000
-4.448400 0.000000
-4.431700 0.000000
-4.414900 0.000000
-4.398100 0.000000
-4.381400 0.000000
-4.364600 0.000000
-4.347900 0.776100
-4.331100 7.406100
-4.314300 9.226900
-4.297600 10.394600
-4.280800 16.721700
-4.264100 14.579400
-4.247300 13.479000
-4.230500 13.230300
-4.213800 14.817900
-4.197000 13.376800
-4.180300 13.297400
-4.163500 13.213300
-4.146800 10.807000
-4.130000 7.788700
-4.113200 5.372000
-4.096500 3.955400
-4.079700 1.822600
-4.063000 1.822500
-4.046200 1.822400
-4.029400 1.822200
-4.012700 1.822100
-3.995900 1.822000
-3.979200 1.821900
-3.962400 1.821800
-3.945600 1.821800
-3.928900 1.821700
-3.912100 1.853100
-3.895400 3.713300
-3.878600 5.215400
-3.861800 5.553300
-3.845100 5.867800
-3.828300 5.206000
-3.811600 4.826200
-3.794800 4.983400
-3.778000 5.140200
-3.761300 5.296600
-3.744500 5.452800
-3.727800 5.608600
-3.711000 5.764000
-3.694200 4.342800
-3.677500 4.342500
-3.660700 4.587100
-3.644000 5.691700
-3.627200 6.534800
-3.610400 8.938500
-3.593700 9.269100
-3.576900 10.773400
-3.560200 11.557500
-3.543400 12.212700
-3.526600 13.254900
-3.509900 13.112000
-3.493100 12.457100
-3.476400 11.979100
-3.459600 12.078400
-3.442900 12.612600
-3.426100 13.360000
-3.409300 13.448600
-3.392600 9.118000
-3.375800 9.112400
-3.359100 9.099900
-3.342300 9.034300
-3.325500 8.848000
-3.308800 8.533700
-3.292000 8.180700
-3.275300 7.875100
-3.258500 7.700900
-3.241700 7.604800
-3.225000 7.409200
-3.208200 7.132700
-3.191500 6.869700
-3.174700 6.636300
-3.157900 6.398900
-3.141200 6.036300
-3.124400 5.718900
-3.107700 5.532100
-3.090900 5.355600
-3.074100 5.191900
-3.057400 5.090000
-3.040600 5.084900
-3.023900 5.130300
-3.007100 5.188200
-2.990300 5.266200
-2.973600 5.365500
-2.956800 5.531900
-2.940100 5.731100
-2.923300 5.874500
-2.906500 6.080000
-2.889800 6.341200
-2.873000 6.586800
-2.856300 6.500500
-2.839500 6.419200
-2.822700 6.342800
-2.806000 6.271400
-2.789200 6.204900
-2.772500 6.143400
-2.755700 6.057100
-2.739000 5.776200
-2.722200 5.268900
-2.705400 4.522400
-2.688700 3.502400
-2.671900 3.914600
-2.655200 3.721300
-2.638400 3.655200
-2.621600 3.472300
-2.604900 3.779500
-2.588100 6.863100
-2.571400 10.059900
-2.554600 8.403400
-2.537800 9.590400
-2.521100 11.468700
-2.504300 13.593800
-2.487600 13.416600
-2.470800 14.342500
-2.454000 17.371000
-2.437300 10.838700
-2.420500 9.820200
-2.403800 6.691100
-2.387000 6.562700
-2.370200 7.412400
-2.353500 6.887800
-2.336700 6.427700
-2.320000 6.064900
-2.303200 5.831500
-2.286400 5.624000
-2.269700 5.653400
-2.252900 6.411900
-2.236200 7.848900
-2.219400 8.421500
-2.202600 8.145500
-2.185900 7.800500
-2.169100 3.771800
-2.152400 0.569300
-2.135600 0.346200
-2.118800 0.189600
-2.102100 0.079600
-2.085300 0.000500
-2.068600 0.000000
-2.051800 0.000000
-2.035000 0.000000
-2.018300 0.000000
-2.001500 0.000000
-1.984800 0.000000
-1.968000 0.000000
-1.951300 0.000000
-1.934500 0.000000
-1.917700 0.000000
-1.901000 0.000000
-1.884200 0.000000
-1.867500 0.000000
-1.850700 0.000000
-1.833900 0.000000
-1.817200 0.000000
-1.800400 0.000000
-1.783700 0.000000
-1.766900 0.000000
-1.750100 0.000000
-1.733400 0.000000
-1.716600 0.000000
-1.699900 0.113100
-1.683100 0.359100
-1.666300 0.624700
-1.649600 0.926200
-1.632800 1.299700
-1.616100 1.816800
-1.599300 1.958900
-1.582500 1.958800
-1.565800 1.958600
-1.549000 1.958500
-1.532300 1.958400
-1.515500 1.958200
-1.498700 1.958100
-1.482000 1.958000
-1.465200 1.957900
-1.448500 1.957700
-1.431700 1.957600
-1.414900 1.957500
-1.398200 1.957300
-1.381400 1.957200
-1.364700 1.957100
-1.347900 1.956900
-1.331100 1.956800
-1.314400 1.956700
-1.297600 1.956600
-1.280900 1.956400
-1.264100 1.956300
-1.247400 1.956200
-1.230600 1.956000
-1.213800 1.955900
-1.197100 1.955800
-1.180300 1.955700
-1.163600 1.955500
-1.146800 1.955400
-1.130000 1.955300
-1.113300 34.915300
-1.096500 53.512200
-1.079800 8.105100
-1.063000 8.087500
-1.046200 8.069900
-1.029500 8.052300
-1.012700 8.034700
-0.996000 8.017100
-0.979200 7.999500
-0.962400 7.982000
-0.945700 7.964500
-0.928900 7.947000
-0.912200 6.815500
-0.895400 6.096200
-0.878600 19.676200
-0.861900 9.030600
-0.845100 10.040000
-0.828400 9.914300
-0.811600 9.354000
-0.794800 9.153200
-0.778100 9.785600
-0.761300 13.072800
-0.744600 34.221700
-0.727800 11.907300
-0.711000 12.022300
-0.694300 12.147900
-0.677500 11.929200
-0.660800 11.191600
-0.644000 10.511900
-0.627200 9.890000
-0.610500 9.308200
-0.593700 8.698600
-0.577000 8.073900
-0.560200 7.490300
-0.543500 6.957300
-0.526700 6.939100
-0.509900 6.661900
-0.493200 6.074600
-0.476400 5.486600
-0.459700 5.464600
-0.442900 6.757100
-0.426100 6.894900
-0.409400 7.361700
-0.392600 8.055300
-0.375900 7.633200
-0.359100 8.292700
-0.342300 9.251100
-0.325600 10.494300
-0.308800 12.022400
-0.292100 11.339700
-0.275300 9.342500
-0.258500 2.816000
-0.241800 0.000000
-0.225000 0.000000
-0.208300 0.000000
-0.191500 0.000000
-0.174700 0.000000
-0.158000 0.000000
-0.141200 0.000000
-0.124500 0.000000
-0.107700 0.000000
-0.090900 0.015400
-0.074200 0.753500
-0.057400 1.732200
-0.040700 2.941500
-0.023900 7.382400
-0.007100 8.611700
0.009600 8.711900
0.026400 11.202600
0.043100 12.922000
0.059900 13.846400
0.076700 12.889800
0.093400 12.524100
0.110200 12.484300
0.126900 13.545800
0.143700 15.934100
0.160400 17.057700
0.177200 15.613500
0.194000 14.752700
0.210700 14.263500
0.227500 20.801800
0.244200 16.284900
0.261000 13.906500
0.277800 13.180400
0.294500 12.556600
0.311300 9.187600
0.328000 8.981600
0.344800 23.743600
0.361600 4.862400
0.378300 4.409500
0.395100 4.033500
0.411800 3.479000
0.428600 2.928000
0.445400 2.388700
0.462100 2.182700
0.478900 2.183200
0.495600 1.998100
0.512400 1.657500
0.529200 1.083800
0.545900 0.100500
0.562700 0.000000
0.579400 0.000000
0.596200 0.000000
0.613000 0.000000
0.629700 0.000000
0.646500 0.000000
0.663200 0.000000
0.680000 0.000000
0.696800 0.000000
0.713500 0.000000
0.730300 0.000000
0.747000 0.000000
0.763800 0.000000
0.780600 0.000000
0.797300 0.000000
0.814100 0.000000
0.830800 0.000000
0.847600 0.000000
0.864400 0.000000
0.881100 0.000000
0.897900 0.000000
0.914600 0.000000
0.931400 0.000000
0.948100 0.000000
0.964900 0.000000
0.981700 0.000000
0.998400 0.000000
1.015200 0.000000
1.031900 0.000000
1.048700 0.000000
1.065500 0.000000
1.082200 0.000000
1.099000 0.000000
1.115700 0.000000
1.132500 0.000000
1.149300 0.000000
1.166000 0.000000
1.182800 0.000000
1.199500 0.000000
1.216300 0.000000
1.233100 0.000000
1.249800 0.000000
1.266600 0.000000
1.283300 0.000000
1.300100 0.000000
1.316900 0.000000
1.333600 0.000000
1.350400 0.000000
1.367100 0.000000
1.383900 0.000000
1.400700 0.000000
1.417400 0.000000
1.434200 0.000000
1.450900 0.000000
1.467700 0.000000
1.484500 0.000000
1.501200 0.000000
1.518000 0.000000
1.534700 0.000000
1.551500 0.000000
1.568300 0.000000
1.585000 0.000000
1.601800 0.000000
1.618500 0.000000
1.635300 0.000000
1.652000 0.000000
1.668800 0.000000
1.685600 0.000000
1.702300 0.057300
1.719100 0.248900
1.735800 0.522100
1.752600 0.805100
1.769400 1.166200
1.786100 1.668000
1.802900 2.188300
1.819600 2.657600
1.836400 3.128100
1.853200 3.540300
1.869900 3.864000
1.886700 4.182400
1.903400 4.501000
1.920200 4.819700
1.937000 5.138700
1.953700 6.076100
1.970500 6.366700
1.987200 7.241900
2.004000 7.236700
2.020800 7.231600
2.037500 7.226400
2.054300 7.221300
2.071000 7.341700
2.087800 7.489400
2.104600 7.659700
2.121300 7.975900
2.138100 8.294700
2.154800 8.613600
2.171600 8.932400
2.188400 9.251400
2.205100 9.570300
2.221900 9.889300
2.238600 10.208300
2.255400 8.815000
2.272200 8.524300
2.288900 6.685900
2.305700 5.815900
2.322400 5.227300
2.339200 4.638500
2.355900 4.049600
2.372700 3.329100
2.389500 2.675200
2.406200 2.001300
2.423000 1.559200
2.439700 1.195600
2.456500 0.953400
2.473300 0.715100
2.490000 0.316500
2.506800 0.015300
2.523500 0.000000
2.540300 0.000000
2.557100 0.000000
2.573800 0.000000
2.590600 0.000000
2.607300 0.000000
2.624100 0.000000
2.640900 0.000000
2.657600 0.000000
2.674400 0.000000
2.691100 0.000000
2.707900 0.000000
2.724700 0.000000
2.741400 0.000000
2.758200 0.000000
2.774900 0.000000
2.791700 0.000000
2.808500 0.000000
2.825200 0.000000
2.842000 0.000000
2.858700 0.000000
2.875500 0.000000
2.892300 0.000000
2.909000 0.000000
2.925800 0.000000
2.942500 0.000000
2.959300 0.000000
2.976100 0.000000
2.992800 0.000000
3.009600 0.000000
3.026300 0.000000
3.043100 0.000000
3.059900 0.000000
3.076600 0.000000
3.093400 0.000000
3.110100 0.000000
3.126900 0.000000
3.143600 0.000000
3.160400 0.000000
3.177200 0.000000
3.193900 0.000000
3.210700 0.000000
3.227400 0.000000
3.244200 0.000000
3.261000 0.000000
3.277700 0.000000
3.294500 0.000000
3.311200 0.000000
3.328000 0.000000
3.344800 0.000000
3.361500 0.000000
3.378300 0.000000
3.395000 0.000000
3.411800 0.000000
3.428600 0.000000
3.445300 0.000000
3.462100 0.000000
3.478800 0.000000
3.495600 0.000000
3.512400 0.000000
3.529100 0.000000
3.545900 0.000000
3.562600 0.000000
3.579400 0.000000
3.596200 0.000000
3.612900 0.000000
3.629700 0.000000
3.646400 0.000000
3.663200 0.000000
3.680000 0.000000
3.696700 0.000000
3.713500 0.000000
3.730200 0.000000
3.747000 0.000000
3.763800 0.000000
3.780500 0.000000
3.797300 0.000000
3.814000 0.000000
3.830800 0.000000
3.847500 0.000000
3.864300 0.000000
3.881100 0.000000
3.897800 0.000000
3.914600 0.000000
3.931300 0.000000
3.948100 0.000000
3.964900 0.000000
3.981600 0.000000
3.998400 0.000000
4.015100 0.000000
4.031900 0.000000
4.048700 0.000000
4.065400 0.000000
4.082200 0.000000
4.098900 0.000000
4.115700 0.000000
4.132500 0.000000
4.149200 0.000000
4.166000 0.000500
4.182700 0.002400
4.199500 0.005600
4.216300 0.010100
4.233000 0.015900
4.249800 0.023000
4.266500 0.031400
4.283300 0.041200
4.300100 0.051700
4.316800 0.062800
4.333600 0.074300
4.350300 0.086300
4.367100 0.098900
4.383900 0.111900
4.400600 0.125400
4.417400 0.139300
4.434100 0.153800
4.450900 0.168800
4.467700 0.184200
4.484400 0.200200
4.501200 0.216100
4.517900 0.231800
4.534700 0.247800
4.551400 0.264200
4.568200 0.281000
4.585000 0.298300
4.601700 0.315900
4.618500 0.334300
4.635200 0.354100
4.652000 0.375200
4.668800 0.398000
4.685500 0.422600
4.702300 0.446700
4.719000 0.469400
4.735800 0.490600
4.752600 0.510400
4.769300 0.528800
4.786100 0.547500
4.802800 0.566800
4.819600 0.586600
4.836400 0.607000
4.853100 0.628000
4.869900 0.649500
4.886600 0.671700
4.903400 0.694400
4.920200 0.717600
4.936900 0.741500
4.953700 0.766000
4.970400 0.791000
4.987200 0.816600
5.004000 0.842800
5.020700 0.870800
5.037500 1.022600
5.054200 1.289900
5.071000 1.637800
5.087800 2.065800
5.104500 2.573200
5.121300 2.988300
5.138000 3.366000
5.154800 3.775000
5.171600 4.254500
5.188300 5.122000
5.205100 6.434600
5.221800 7.062500
5.238600 7.135800
5.255300 7.195800
5.272100 7.729500
5.288900 7.167100
5.305600 6.190600
5.322400 6.108900
5.339100 5.931300
5.355900 5.744200
5.372700 5.582700
5.389400 5.959600
5.406200 6.540700
5.422900 7.373700
5.439700 8.047800
5.456500 7.639200
5.473200 6.938000
5.490000 6.312300
5.506700 6.397600
5.523500 6.503100
5.540300 7.541300
5.557000 7.427800
5.573800 6.846200
5.590500 5.874900
5.607300 5.734500
5.624100 5.555700
5.640800 5.285300
5.657600 4.917800
5.674300 4.333800
5.691100 3.272600
5.707900 1.155300
5.724600 0.479100
5.741400 0.249900
5.758100 0.393300
5.774900 0.633800
5.791700 0.926300
5.808400 1.271300
5.825200 1.668800
5.841900 1.863600
5.858700 1.975900
5.875500 2.051400
5.892200 2.095600
5.909000 2.096200
5.925700 2.045300
5.942500 1.943700
5.959300 1.862300
5.976000 1.898400
5.992800 2.001300
6.009500 2.119900
6.026300 2.230500
6.043000 2.333200
6.059800 2.427800
6.076600 2.519400
6.093300 2.612200
6.110100 2.706100
6.126800 2.801200
6.143600 2.897200
6.160400 2.993100
6.177100 3.089800
6.193900 3.187300
6.210600 3.277200
6.227400 3.346100
6.244200 3.393800
6.260900 3.420400
6.277700 3.436800
6.294400 3.438000
6.311200 3.420400
6.328000 3.381800
6.344700 3.287600
6.361500 3.154200
6.378200 2.988500
6.395000 2.794400
6.411800 2.460900
6.428500 2.321000
6.445300 2.175400
6.462000 2.045800
6.478800 1.923900
6.495600 1.803900
6.512300 1.684900
6.529100 1.567200
6.545800 1.447900
6.562600 1.325200
6.579400 1.198800
6.596100 1.069300
6.612900 0.938400
6.629600 0.806400
6.646400 0.673300
6.663200 0.539100
6.679900 0.403700
6.696700 0.268000
6.713400 0.256100
6.730200 0.286500
6.746900 0.319300
6.763700 0.361000
6.780500 0.402600
6.797200 0.445400
6.814000 0.489300
6.830700 0.556400
6.847500 0.717500
6.864300 1.088100
6.881000 1.171800
6.897800 1.260600
6.914500 1.350500
6.931300 1.441300
6.948100 1.533200
6.964800 1.624400
6.981600 1.710900
6.998300 1.792400
7.015100 1.868800
7.031900 1.940200
7.048600 2.007500
7.065400 2.073900
7.082100 2.139700
7.098900 2.204900
7.115700 2.273000
7.132400 2.385400
7.149200 2.543300
7.165900 2.701100
7.182700 2.853600
7.199500 3.001000
7.216200 3.145600
7.233000 3.319800
7.249700 3.572400
7.266500 3.933200
7.283300 4.307400
7.300000 4.624300
7.316800 4.803700
7.333500 4.815500
7.350300 4.736100
7.367100 4.546500
7.383800 4.224900
7.400600 3.893000
7.417300 3.505500
7.434100 3.129100
7.450800 2.794900
7.467600 2.501700
7.484400 2.243000
7.501100 2.018300
7.517900 1.827400
7.534600 1.700700
7.551400 1.711900
7.568200 1.765900
7.584900 1.835500
7.601700 1.920600
7.618400 2.021300
7.635200 2.135300
7.652000 2.251700
7.668700 2.457500
7.685500 2.954300
7.702200 3.335700
7.719000 3.370900
7.735800 3.515400
7.752500 3.613200
7.769300 3.501600
7.786000 3.251200
7.802800 3.084400
7.819600 2.930600
7.836300 2.767600
7.853100 2.704200
7.869800 2.685300
7.886600 2.691200
7.903400 2.715300
7.920100 2.757700
7.936900 2.818800
7.953600 3.560900
7.970400 3.838300
7.987200 4.132500
8.003900 4.502400
8.020700 4.905100
8.037400 5.141800
8.054200 5.304200
8.071000 5.392400
8.087700 5.430700
8.104500 5.438900
8.121200 5.415500
8.138000 5.373500
8.154800 5.331100
8.171500 5.276100
8.188300 5.224000
8.205000 5.180200
8.221800 6.081000
8.238500 4.628100
8.255300 4.376100
8.272100 4.114900
8.288800 3.840100
8.305600 3.553300
8.322300 3.234400
8.339100 2.859000
8.355900 2.640000
8.372600 2.705900
8.389400 2.764100
8.406100 2.851100
8.422900 3.030900
8.439700 3.254700
8.456400 3.522700
8.473200 4.094000
8.489900 4.377800
8.506700 4.020400
8.523500 3.721300
8.540200 3.480500
8.557000 3.297900
8.573700 3.175800
8.590500 3.119300
8.607300 3.125700
8.624000 3.162000
8.640800 3.346000
8.657500 3.709900
8.674300 3.667500
8.691100 3.413500
8.707800 3.289100
8.724600 3.157100
8.741300 3.017600
8.758100 2.870600
8.774900 2.718000
8.791600 2.630200
8.808400 2.539400
8.825100 2.506500
8.841900 2.519900
8.858700 2.590100
8.875400 2.746800
8.892200 2.848200
8.908900 2.961400
8.925700 3.089300
8.942400 3.230700
8.959200 3.377600
8.976000 3.522800
8.992700 3.662500
9.009500 3.777800
9.026200 3.883400
9.043000 4.007400
9.059800 4.156900
9.076500 4.340200
9.093300 4.699100
9.110000 5.157000
9.126800 5.709600
9.143600 6.779600
9.160300 7.583100
9.177100 7.335000
9.193800 6.832900
9.210600 6.228100
9.227400 5.538000
9.244100 4.912900
9.260900 4.377200
9.277600 4.036800
9.294400 3.779900
9.311200 3.602100
9.327900 3.512300
9.344700 3.519700
9.361400 3.595500
9.378200 3.729800
9.395000 3.805100
9.411700 3.914600
9.428500 4.058500
9.445200 4.491100
9.462000 4.908300
9.478800 5.172300
9.495500 5.089900
9.512300 5.082900
9.529000 5.150800
9.545800 5.111300
9.562600 5.001500
9.579300 4.847800
9.596100 4.648300
9.612800 4.927800
9.629600 5.158200
9.646300 5.168800
9.663100 5.229100
9.679900 5.322500
9.696600 5.434900
9.713400 5.530500
9.730100 6.404900
9.746900 4.955900
9.763700 4.701900
9.780400 4.473800
9.797200 4.287600
9.813900 4.143700
9.830700 4.039400
9.847500 3.973300
9.864200 3.978800
9.881000 4.210300
9.897700 4.686400
9.914500 5.146700
9.931300 5.564000
9.948000 6.285200
9.964800 8.369000
9.981500 8.166600
9.998300 8.731000
10.015100 8.927400
10.031800 8.799200
10.048600 9.377200
10.065300 9.861700
10.082100 8.927900
10.098900 8.429700
10.115600 6.583000
10.132400 5.354800
10.149100 4.805800
10.165900 4.442500
10.182700 4.119200
10.199400 3.827500
10.216200 3.578100
10.232900 3.383000
10.249700 3.242600
10.266500 3.370400
10.283200 3.574600
10.300000 3.601800
10.316700 3.448500
10.333500 3.148600
10.350200 2.963500
10.367000 2.896600
10.383800 2.852800
10.400500 2.838900
10.417300 2.918100
10.434000 3.182200
10.450800 3.430200
10.467600 3.693300
10.484300 3.957700
10.501100 4.286900
10.517800 4.691300
10.534600 5.079300
10.551400 5.428700
10.568100 5.824400
10.584900 6.299700
10.601600 6.777200
10.618400 7.128200
10.635200 7.280700
10.651900 7.224700
10.668700 6.970800
10.685400 6.719700
10.702200 6.282100
10.719000 5.767900
10.735700 5.241300
10.752500 4.854300
10.769200 4.528800
10.786000 4.284500
10.802800 4.034500
10.819500 4.284400
10.836300 4.561400
10.853000 4.852100
10.869800 5.136600
10.886600 5.398500
10.903300 5.663000
10.920100 6.201700
10.936800 6.301600
10.953600 5.518400
10.970400 5.533700
10.987100 5.580700
11.003900 5.380100
11.020600 5.350300
11.037400 5.559100
11.054200 5.784500
11.070900 6.026500
11.087700 6.281500
11.104400 6.431900
11.121200 6.507500
11.137900 6.547500
11.154700 6.556600
11.171500 6.534800
11.188200 6.441700
11.205000 6.272400
11.221700 6.021400
11.238500 5.632300
11.255300 5.200100
11.272000 4.814100
11.288800 4.476000
11.305500 4.463800
11.322300 4.702300
11.339100 5.187900
11.355800 5.864000
11.372600 6.503300
11.389300 7.101200
11.406100 8.830400
11.422900 7.537200
11.439600 7.486300
11.456400 7.417300
11.473100 7.330000
11.489900 7.392800
11.506700 7.484700
11.523400 7.375300
11.540200 7.022400
11.556900 6.597700
11.573700 6.310700
11.590500 6.184400
11.607200 6.136000
11.624000 6.265300
11.640700 6.455900
11.657500 6.963400
11.674300 7.693300
11.691000 8.634700
11.707800 10.123300
11.724500 9.277300
11.741300 7.930000
11.758100 7.538200
11.774800 7.288500
11.791600 7.029200
11.808300 6.761600
11.825100 6.507600
11.841800 6.427100
11.858600 6.658400
11.875400 6.818200
11.892100 7.249800
11.908900 7.634500
11.925600 7.819600
11.942400 7.830500
11.959200 7.814600
11.975900 7.746900
11.992700 7.715100
12.009400 7.702700
12.026200 7.387300
12.043000 6.600900
12.059700 5.920900
12.076500 5.354300
12.093200 4.913800
12.110000 4.630500
12.126800 4.399000
12.143500 4.292900
12.160300 4.281000
12.177000 4.284500
12.193800 4.502600
12.210600 4.868700
12.227300 5.218200
12.244100 5.544100
12.260800 5.902600
12.277600 6.286000
12.294400 6.665000
12.311100 7.020100
12.327900 7.428500
12.344600 8.188600
12.361400 8.669400
12.378200 8.744600
12.394900 8.385100
12.411700 7.588500
12.428400 5.974800
12.445200 4.706200
12.462000 3.982600
12.478700 3.446300
12.495500 3.225000
12.512200 3.044600
12.529000 3.051300
12.545700 3.239800
12.562500 3.355000
12.579300 3.424100
12.596000 3.331500
12.612800 3.257900
12.629500 3.205700
12.646300 3.191000
12.663100 3.273900
12.679800 3.430600
12.696600 3.655100
12.713300 4.079500
12.730100 4.526500
12.746900 4.902500
12.763600 5.120900
12.780400 5.404800
12.797100 5.741200
12.813900 6.042400
12.830700 6.222900
12.847400 6.341500
12.864200 6.439200
12.880900 6.366300
12.897700 6.221800
12.914500 6.365900
12.931200 6.238500
12.948000 6.074200
12.964700 5.913900
12.981500 5.764200
12.998300 5.633100
13.015000 5.499100
13.031800 5.016900
13.048500 4.705600
13.065300 4.730900
13.082100 4.858400
13.098800 5.002900
13.115600 5.137300
13.132300 5.269000
13.149100 5.420100
13.165900 5.606200
13.182600 5.826700
13.199400 6.077400
13.216100 6.441700
13.232900 6.854600
13.249600 7.357200
13.266400 8.063600
13.283200 9.534200
13.299900 8.502900
13.316700 5.184100
13.333400 4.283200
13.350200 3.608400
13.367000 3.906200
13.383700 4.333700
13.400500 4.548900
13.417200 4.830800
13.434000 5.027600
13.450800 5.090000
13.467500 5.036600
13.484300 6.010500
13.501000 6.288300
13.517800 6.466700
13.534600 6.585300
13.551300 6.585700
13.568100 6.515100
13.584800 6.457500
13.601600 6.363100
13.618400 6.161100
13.635100 5.912500
13.651900 5.685000
13.668600 5.417700
13.685400 4.773700
13.702200 4.278700
13.718900 4.004000
13.735700 3.894700
13.752400 3.832200
13.769200 4.065200
13.786000 4.557800
13.802700 5.095400
13.819500 5.285200
13.836200 5.372400
13.853000 5.494100
13.869800 5.743900
13.886500 6.032400
13.903300 6.359400
13.920000 6.668000
13.936800 7.030600
13.953600 7.256100
13.970300 7.355200
13.987100 7.623000
14.003800 7.667200
14.020600 7.086900
14.037300 6.913500
14.054100 6.608800
14.070900 6.105400
14.087600 5.671200
14.104400 5.546600
14.121100 4.906400
14.137900 4.628500
14.154700 4.788400
14.171400 5.062500
14.188200 5.813800
14.204900 6.403100
14.221700 6.638700
14.238500 6.823200
14.255200 6.908100
14.272000 6.973900
14.288700 6.976300
14.305500 6.726100
14.322300 6.573400
14.339000 6.413500
14.355800 6.177200
14.372500 5.833800
14.389300 5.460700
14.406100 5.076600
14.422800 4.698500
14.439600 4.334400
14.456300 3.985100
14.473100 3.625500
14.489900 3.278100
14.506600 2.975100
14.523400 2.600200
14.540100 2.005900
14.556900 1.427000
14.573700 0.872900
14.590400 0.507200
14.607200 0.304600
14.623900 0.173100
14.640700 0.079200
14.657500 0.021600
14.674200 0.000100
14.691000 0.000000
14.707700 0.000000
14.724500 0.000000
14.741200 0.000000
14.758000 0.000000
14.774800 0.000000
14.791500 0.000000
14.808300 0.000000
14.825000 0.000000
14.841800 0.000000
14.858600 0.000000
14.875300 0.000000
14.892100 0.000000
14.908800 0.000000
14.925600 0.000000
14.942400 0.000000
14.959100 0.000000
14.975900 0.000000
14.992600 0.000000
15.009400 0.000000
15.026200 0.000000
15.042900 0.000000
15.059700 0.000000
15.076400 0.000000
15.093200 0.000000
15.110000 0.000000
15.126700 0.000000
15.143500 0.000000
15.160200 0.000000
15.177000 0.000000
15.193800 0.000000
15.210500 0.000000
15.227300 0.000000
15.244000 0.000000
15.260800 0.000000
15.277600 0.000000
15.294300 0.000000
15.311100 0.000000
15.327800 0.000000
15.344600 0.000000
15.361400 0.000000
15.378100 0.000000
15.394900 0.000000
15.411600 0.000000
15.428400 0.000000
15.445100 0.000000
15.461900 0.000000
15.478700 0.000000
15.495400 0.000000
15.512200 0.000000
15.528900 0.000000
15.545700 0.000000
15.562500 0.000000
15.579200 0.000000
15.596000 0.000000
15.612700 0.000000
15.629500 0.000000
15.646300 0.000000
15.663000 0.000000
15.679800 0.000000
15.696500 0.000000
15.713300 0.000000
15.730100 0.000000
15.746800 0.000000
15.763600 0.000000
15.780300 0.000000
15.797100 0.000000
15.813900 0.000000
15.830600 0.000000
15.847400 0.000000
15.864100 0.000000
15.880900 0.000000
15.897700 0.000000
15.914400 0.000000
15.931200 0.000000
15.947900 0.000000
15.964700 0.000000
15.981500 0.000000
15.998200 0.000000
16.015000 0.000000
16.031700 0.000000
16.048500 0.000000
16.065300 0.000000
16.082000 0.000000
16.098800 0.000000
16.115500 0.000000
16.132300 0.000000
16.149100 0.000000
16.165800 0.000000
16.182600 0.000000
16.199300 0.000000
e
