set title 'mp-1217258 - Density of States'
set xlabel 'Energy (eV)'
set ylabel 'DOS (states/eV)'
set grid
set xrange [-10:10]
set yrange [0:16.514]
set xzeroaxis lt -1
set terminal png size 800,600
set output 'mp-1217258_dos_gnuplot.png'
plot '-' using 1:2 with lines title 'DOS'
-47.519800 0.000000
-47.475700 0.000000
-47.431700 0.000000
-47.387600 0.000000
-47.343600 0.000000
-47.299500 0.000000
-47.255500 0.000000
-47.211400 0.000000
-47.167400 0.000000
-47.123300 0.000000
-47.079300 0.000000
-47.035200 0.000000
-46.991200 0.000000
-46.947100 0.000000
-46.903100 0.000000
-46.859000 0.000000
-46.815000 0.000000
-46.770900 0.000000
-46.726900 0.000000
-46.682800 0.000000
-46.638800 0.000000
-46.594700 0.000000
-46.550700 0.000000
-46.506600 0.000000
-46.462600 0.000000
-46.418500 0.000000
-46.374500 0.000000
-46.330400 0.000000
-46.286400 0.000000
-46.242300 0.000000
-46.198300 0.000000
-46.154200 0.000000
-46.110200 0.000000
-46.066100 0.000000
-46.022100 0.000000
-45.978000 0.000000
-45.934000 0.000000
-45.889900 0.000000
-45.845900 0.000000
-45.801800 0.000000
-45.757800 0.000000
-45.713700 0.000000
-45.669700 0.000000
-45.625600 0.000000
-45.581600 0.000000
-45.537500 0.000000
-45.493500 0.000000
-45.449400 0.000000
-45.405400 0.000000
-45.361300 0.000000
-45.317300 0.000000
-45.273200 0.000000
-45.229200 0.000000
-45.185100 0.000000
-45.141100 0.000000
-45.097000 0.000000
-45.053000 0.000000
-45.008900 0.000000
-44.964900 0.000000
-44.920800 0.000000
-44.876800 0.000000
-44.832700 0.000000
-44.788700 0.000000
-44.744600 0.000000
-44.700600 0.000000
-44.656500 0.000000
-44.612500 0.000000
-44.568400 0.000000
-44.524400 0.000000
-44.480300 0.000000
-44.436300 0.000000
-44.392200 0.000000
-44.348200 0.000000
-44.304100 0.000000
-44.260100 0.000000
-44.216000 0.000000
-44.172000 0.000000
-44.127900 0.000000
-44.083900 0.000000
-44.039800 0.000000
-43.995800 0.000000
-43.951700 0.000000
-43.907700 0.000000
-43.863600 0.000000
-43.819600 0.000000
-43.775500 0.000000
-43.731500 0.000000
-43.687400 0.000000
-43.643400 0.000000
-43.599300 0.000000
-43.555300 0.000000
-43.511200 47.250300
-43.467200 0.000000
-43.423100 0.000000
-43.379100 0.000000
-43.335000 0.000000
-43.291000 0.000000
-43.246900 0.000000
-43.202900 0.000000
-43.158800 0.000000
-43.114800 0.000000
-43.070700 0.000000
-43.026700 0.000000
-42.982600 0.000000
-42.938600 0.000000
-42.894500 0.000000
-42.850500 0.000000
-42.806400 0.000000
-42.762400 0.000000
-42.718300 0.000000
-42.674300 0.000000
-42.630200 0.000000
-42.586200 0.000000
-42.542100 0.000000
-42.498100 0.000000
-42.454000 0.000000
-42.410000 0.000000
-42.365900 0.000000
-42.321900 0.000000
-42.277800 0.000000
-42.233800 0.000000
-42.189700 0.000000
-42.145700 0.000000
-42.101600 0.000000
-42.057600 0.000000
-42.013500 0.000000
-41.969500 0.000000
-41.925400 0.000000
-41.881400 0.000000
-41.837300 0.000000
-41.793300 0.000000
-41.749200 0.000000
-41.705200 0.000000
-41.661100 0.000000
-41.617100 0.000000
-41.573000 0.000000
-41.529000 0.000000
-41.484900 0.000000
-41.440900 0.000000
-41.396800 0.000000
-41.352800 0.000000
-41.308700 0.000000
-41.264700 0.000000
-41.220600 0.000000
-41.176600 0.000000
-41.132500 0.000000
-41.088500 0.000000
-41.044400 0.000000
-41.000400 0.000000
-40.956300 0.000000
-40.912300 0.000000
-40.868200 0.000000
-40.824200 0.000000
-40.780100 0.000000
-40.736100 0.000000
-40.692000 0.000000
-40.648000 0.000000
-40.603900 0.000000
-40.559900 0.000000
-40.515800 0.000000
-40.471800 0.000000
-40.427700 0.000000
-40.383700 0.000000
-40.339600 0.000000
-40.295600 0.000000
-40.251500 0.000000
-40.207500 0.000000
-40.163400 0.000000
-40.119400 0.000000
-40.075300 0.000000
-40.031300 0.000000
-39.987200 0.000000
-39.943200 0.000000
-39.899100 0.000000
-39.855100 0.000000
-39.811000 0.000000
-39.767000 0.000000
-39.722900 0.000000
-39.678900 0.000000
-39.634800 0.000000
-39.590800 0.000000
-39.546700 0.000000
-39.502700 0.000000
-39.458600 0.000000
-39.414600 0.000000
-39.370500 0.000000
-39.326500 0.000000
-39.282400 0.000000
-39.238400 0.000000
-39.194300 0.000000
-39.150300 0.000000
-39.106200 0.000000
-39.062200 0.000000
-39.018100 0.000000
-38.974100 0.000000
-38.930000 0.000000
-38.886000 0.000000
-38.841900 0.000000
-38.797900 0.000000
-38.753800 0.000000
-38.709800 0.000000
-38.665700 0.000000
-38.621700 0.000000
-38.577600 0.000000
-38.533600 0.000000
-38.489500 0.000000
-38.445500 0.000000
-38.401400 0.000000
-38.357400 0.000000
-38.313300 0.000000
-38.269300 0.000000
-38.225200 0.000000
-38.181200 0.000000
-38.137100 0.000000
-38.093100 0.000000
-38.049000 0.000000
-38.005000 0.000000
-37.960900 0.000000
-37.916900 0.000000
-37.872800 0.000000
-37.828800 0.000000
-37.784700 0.000000
-37.740700 0.000000
-37.696600 0.000000
-37.652600 0.000000
-37.608500 0.000000
-37.564500 0.000000
-37.520400 0.000000
-37.476400 0.000000
-37.432300 0.000000
-37.388300 0.000000
-37.344200 0.000000
-37.300200 0.000000
-37.256100 0.000000
-37.212100 0.000000
-37.168000 0.000000
-37.124000 0.000000
-37.079900 0.000000
-37.035900 0.000000
-36.991800 0.000000
-36.947800 0.000000
-36.903700 0.000000
-36.859700 0.000000
-36.815600 0.000000
-36.771600 0.000000
-36.727500 0.000000
-36.683500 0.000000
-36.639400 0.000000
-36.595400 0.000000
-36.551300 0.000000
-36.507300 0.000000
-36.463200 0.000000
-36.419200 0.000000
-36.375100 0.000000
-36.331100 0.000000
-36.287000 0.000000
-36.243000 0.000000
-36.198900 0.000000
-36.154900 0.000000
-36.110800 0.000000
-36.066800 0.000000
-36.022700 0.000000
-35.978700 0.000000
-35.934600 0.000000
-35.890600 0.000000
-35.846500 0.000000
-35.802500 0.000000
-35.758400 0.000000
-35.714400 0.000000
-35.670300 0.000000
-35.626300 0.000000
-35.582200 0.000000
-35.538200 0.000000
-35.494100 0.000000
-35.450100 0.000000
-35.406000 0.000000
-35.362000 0.000000
-35.317900 0.000000
-35.273900 0.000000
-35.229800 0.000000
-35.185800 0.000000
-35.141700 0.000000
-35.097700 0.000000
-35.053600 0.000000
-35.009600 0.000000
-34.965500 0.000000
-34.921500 0.000000
-34.877400 0.000000
-34.833400 0.000000
-34.789300 0.000000
-34.745300 0.000000
-34.701200 0.000000
-34.657200 0.000000
-34.613100 0.000000
-34.569100 0.000000
-34.525000 0.000000
-34.481000 0.000000
-34.436900 0.000000
-34.392900 0.000000
-34.348800 0.000000
-34.304800 0.000000
-34.260700 0.000000
-34.216700 0.000000
-34.172600 0.000000
-34.128600 0.000000
-34.084500 0.000000
-34.040500 0.000000
-33.996400 0.000000
-33.952400 0.000000
-33.908300 0.000000
-33.864300 0.000000
-33.820200 0.000000
-33.776200 0.000000
-33.732100 0.000000
-33.688100 0.000000
-33.644000 0.000000
-33.600000 0.000000
-33.555900 0.000000
-33.511900 0.000000
-33.467800 0.000000
-33.423800 0.000000
-33.379700 0.000000
-33.335700 0.000000
-33.291600 0.000000
-33.247600 0.000000
-33.203500 0.000000
-33.159500 0.000000
-33.115400 3.463500
-33.071400 4.259900
-33.027300 5.275900
-32.983300 7.199100
-32.939200 12.698400
-32.895200 18.939300
-32.851100 0.000000
-32.807100 0.000000
-32.763000 0.000000
-32.719000 0.000000
-32.674900 0.000000
-32.630900 0.000000
-32.586800 0.000000
-32.542800 0.000000
-32.498700 0.000000
-32.454700 0.000000
-32.410600 0.000000
-32.366600 0.000000
-32.322500 0.000000
-32.278500 0.000000
-32.234400 0.000000
-32.190400 0.000000
-32.146300 0.000000
-32.102300 0.000000
-32.058200 0.000000
-32.014200 0.000000
-31.970100 0.000000
-31.926100 0.000000
-31.882000 0.000000
-31.838000 0.000000
-31.793900 0.000000
-31.749900 0.000000
-31.705800 0.000000
-31.661800 0.000000
-31.617700 0.000000
-31.573700 0.000000
-31.529600 0.000000
-31.485600 0.000000
-31.441500 0.000000
-31.397500 0.000000
-31.353400 0.000000
-31.309400 0.000000
-31.265300 0.000000
-31.221300 0.000000
-31.177200 0.000000
-31.133200 0.000000
-31.089100 0.000000
-31.045100 0.000000
-31.001000 0.000000
-30.957000 0.000000
-30.912900 0.000000
-30.868900 0.000000
-30.824800 0.000000
-30.780800 0.000000
-30.736700 0.000000
-30.692700 0.000000
-30.648600 0.000000
-30.604600 0.000000
-30.560500 0.000000
-30.516500 0.000000
-30.472400 0.000000
-30.428400 0.000000
-30.384300 0.000000
-30.340300 0.000000
-30.296200 0.000000
-30.252200 0.000000
-30.208100 0.000000
-30.164100 0.000000
-30.120000 0.000000
-30.076000 0.000000
-30.031900 0.000000
-29.987900 0.000000
-29.943800 0.000000
-29.899800 0.000000
-29.855700 0.000000
-29.811700 0.000000
-29.767600 0.000000
-29.723600 0.000000
-29.679500 0.000000
-29.635500 0.000000
-29.591400 0.000000
-29.547400 0.000000
-29.503300 0.000000
-29.459300 0.000000
-29.415200 0.000000
-29.371200 0.000000
-29.327100 0.000000
-29.283100 0.000000
-29.239000 0.000000
-29.195000 0.000000
-29.150900 0.000000
-29.106900 0.000000
-29.062800 0.000000
-29.018800 0.000000
-28.974700 0.000000
-28.930700 0.000000
-28.886600 0.000000
-28.842600 0.000000
-28.798500 0.000000
-28.754500 0.000000
-28.710400 0.000000
-28.666400 0.000000
-28.622300 0.000000
-28.578300 0.000000
-28.534200 0.000000
-28.490200 0.000000
-28.446100 0.000000
-28.402100 0.000000
-28.358000 0.000000
-28.314000 0.000000
-28.269900 0.000000
-28.225900 0.000000
-28.181800 0.000000
-28.137800 0.000000
-28.093700 0.000000
-28.049700 0.000000
-28.005600 0.000000
-27.961600 0.000000
-27.917500 0.000000
-27.873500 0.000000
-27.829400 0.000000
-27.785400 0.000000
-27.741300 0.000000
-27.697300 0.000000
-27.653200 0.000000
-27.609200 0.000000
-27.565100 0.000000
-27.521100 0.000000
-27.477000 0.000000
-27.433000 0.000000
-27.388900 0.000000
-27.344900 0.000000
-27.300800 0.000000
-27.256800 0.000000
-27.212700 0.000000
-27.168700 0.000000
-27.124600 0.000000
-27.080600 0.000000
-27.036500 0.000000
-26.992500 0.000000
-26.948400 0.000000
-26.904400 0.000000
-26.860300 0.000000
-26.816300 0.000000
-26.772200 0.000000
-26.728200 0.000000
-26.684100 0.000000
-26.640100 0.000000
-26.596000 0.000000
-26.552000 0.000000
-26.507900 0.000000
-26.463900 0.000000
-26.419800 0.000000
-26.375800 0.000000
-26.331700 0.000000
-26.287700 0.000000
-26.243600 0.000000
-26.199600 0.000000
-26.155500 0.000000
-26.111500 0.000000
-26.067400 0.000000
-26.023400 0.000000
-25.979300 0.000000
-25.935300 0.000000
-25.891200 0.000000
-25.847200 0.000000
-25.803100 0.000000
-25.759100 0.000000
-25.715000 0.000000
-25.671000 0.000000
-25.626900 0.000000
-25.582900 0.000000
-25.538800 0.000000
-25.494800 0.000000
-25.450700 0.000000
-25.406700 0.000000
-25.362600 0.000000
-25.318600 0.000000
-25.274500 0.000000
-25.230500 0.000000
-25.186400 0.000000
-25.142400 0.000000
-25.098300 0.000000
-25.054300 0.000000
-25.010200 0.000000
-24.966200 0.000000
-24.922100 0.000000
-24.878100 0.000000
-24.834000 0.000000
-24.790000 0.000000
-24.745900 0.000000
-24.701900 0.000000
-24.657800 0.000000
-24.613800 0.000000
-24.569700 0.000000
-24.525700 0.000000
-24.481600 0.000000
-24.437600 0.000000
-24.393500 0.000000
-24.349500 0.000000
-24.305400 0.000000
-24.261400 0.000000
-24.217300 0.000000
-24.173300 0.000000
-24.129200 0.000000
-24.085200 0.000000
-24.041100 0.000000
-23.997100 0.000000
-23.953000 0.000000
-23.909000 0.000000
-23.864900 0.000000
-23.820900 0.000000
-23.776800 0.000000
-23.732800 0.000000
-23.688700 0.000000
-23.644700 0.000000
-23.600600 0.000000
-23.556600 0.000000
-23.512500 0.000000
-23.468500 0.000000
-23.424400 0.000000
-23.380400 0.000000
-23.336300 0.000000
-23.292300 0.000000
-23.248200 0.000000
-23.204200 0.000000
-23.160100 0.000000
-23.116100 0.000000
-23.072000 0.000000
-23.028000 0.000000
-22.983900 0.000000
-22.939900 0.000000
-22.895800 0.000000
-22.851800 0.000000
-22.807700 0.000000
-22.763700 0.000000
-22.719600 0.000000
-22.675600 0.000000
-22.631500 0.000000
-22.587500 0.000000
-22.543400 0.000000
-22.499400 0.000000
-22.455300 0.000000
-22.411300 0.000000
-22.367200 0.000000
-22.323200 0.000000
-22.279100 23.570800
-22.235100 46.098900
-22.191000 17.753900
-22.147000 33.743200
-22.102900 0.000000
-22.058900 0.000000
-22.014800 0.000000
-21.970800 0.000000
-21.926700 0.000000
-21.882700 0.000000
-21.838600 0.000000
-21.794600 0.000000
-21.750500 0.000000
-21.706500 0.000000
-21.662400 0.000000
-21.618400 0.000000
-21.574300 0.000000
-21.530300 0.000000
-21.486200 0.000000
-21.442200 0.000000
-21.398100 0.000000
-21.354100 0.000000
-21.310000 0.000000
-21.266000 0.000000
-21.221900 0.000000
-21.177900 0.000000
-21.133800 0.000000
-21.089800 0.000000
-21.045700 0.000000
-21.001700 0.000000
-20.957600 0.000000
-20.913600 0.000000
-20.869500 0.000000
-20.825500 0.000000
-20.781400 0.000000
-20.737400 0.000000
-20.693300 0.000000
-20.649300 0.000000
-20.605200 0.000000
-20.561200 0.000000
-20.517100 0.000000
-20.473100 0.000000
-20.429000 0.000000
-20.385000 0.000000
-20.340900 0.000000
-20.296900 0.000000
-20.252800 0.000000
-20.208800 0.000000
-20.164700 0.000000
-20.120700 0.000000
-20.076600 0.000000
-20.032600 0.000000
-19.988500 0.000000
-19.944500 0.000000
-19.900400 0.000000
-19.856400 0.000000
-19.812300 0.000000
-19.768300 0.000000
-19.724200 0.000000
-19.680200 0.000000
-19.636100 0.000000
-19.592100 0.000000
-19.548000 0.000000
-19.504000 0.000000
-19.459900 0.000000
-19.415900 0.000000
-19.371800 0.000000
-19.327800 0.000000
-19.283700 0.000000
-19.239700 0.000000
-19.195600 0.000000
-19.151600 0.000000
-19.107500 0.000000
-19.063500 0.000000
-19.019400 0.000000
-18.975400 0.000000
-18.931300 0.000000
-18.887300 0.000000
-18.843200 0.000000
-18.799200 0.000000
-18.755100 0.000000
-18.711100 0.000000
-18.667000 0.000000
-18.623000 0.000000
-18.578900 0.000000
-18.534900 0.000000
-18.490800 0.000000
-18.446800 0.000000
-18.402700 0.000000
-18.358700 0.000000
-18.314600 0.000000
-18.270600 0.000000
-18.226500 0.000000
-18.182500 0.000000
-18.138400 0.000000
-18.094400 0.000000
-18.050300 0.000000
-18.006300 0.000000
-17.962200 0.000000
-17.918200 0.000000
-17.874100 0.000000
-17.830100 0.000000
-17.786000 0.000000
-17.742000 0.000000
-17.697900 0.000000
-17.653900 0.000000
-17.609800 0.000000
-17.565800 0.000000
-17.521700 0.000000
-17.477700 0.000000
-17.433600 0.000000
-17.389600 0.000000
-17.345500 0.000000
-17.301500 0.000000
-17.257400 0.000000
-17.213400 0.000000
-17.169300 0.000000
-17.125300 0.000000
-17.081200 0.000000
-17.037200 0.000000
-16.993100 0.000000
-16.949100 0.000000
-16.905000 0.000000
-16.861000 0.000000
-16.816900 0.000000
-16.772900 0.000000
-16.728800 0.000000
-16.684800 0.000000
-16.640700 0.000000
-16.596700 0.000000
-16.552600 0.000000
-16.508600 0.000000
-16.464500 0.000000
-16.420500 0.000000
-16.376400 0.000000
-16.332400 0.000000
-16.288300 0.000000
-16.244300 0.000000
-16.200200 0.000000
-16.156200 0.000000
-16.112100 0.000000
-16.068100 0.000000
-16.024000 0.000000
-15.980000 0.000000
-15.935900 0.000000
-15.891900 0.000000
-15.847800 0.000000
-15.803800 0.000000
-15.759700 0.000000
-15.715700 0.000000
-15.671600 0.000000
-15.627600 0.000000
-15.583500 0.000000
-15.539500 0.000000
-15.495400 0.000000
-15.451400 0.000000
-15.407300 0.000000
-15.363300 0.000000
-15.319200 0.000000
-15.275200 0.000000
-15.231100 0.000000
-15.187100 0.000000
-15.143000 0.000000
-15.099000 0.000000
-15.054900 0.000000
-15.010900 0.000000
-14.966800 0.000000
-14.922800 0.000000
-14.878700 0.000000
-14.834700 0.000000
-14.790600 0.000000
-14.746600 0.000000
-14.702500 0.000000
-14.658500 0.000000
-14.614400 0.000000
-14.570400 0.000000
-14.526300 0.000000
-14.482300 0.000000
-14.438200 0.000000
-14.394200 0.000000
-14.350100 0.000000
-14.306100 0.000000
-14.262000 0.000000
-14.218000 0.000000
-14.173900 0.000000
-14.129900 0.000000
-14.085800 0.000000
-14.041800 0.000000
-13.997700 0.000000
-13.953700 0.000000
-13.909600 0.000000
-13.865600 0.000000
-13.821500 0.000000
-13.777500 0.000000
-13.733400 0.000000
-13.689400 0.000000
-13.645300 0.000000
-13.601300 0.000000
-13.557200 0.000000
-13.513200 0.000000
-13.469100 0.000000
-13.425100 0.000000
-13.381000 0.000000
-13.337000 0.000000
-13.292900 0.000000
-13.248900 0.000000
-13.204800 0.000000
-13.160800 0.000000
-13.116700 0.000000
-13.072700 0.000000
-13.028600 0.000000
-12.984600 0.000000
-12.940500 0.000000
-12.896500 0.000000
-12.852400 0.000000
-12.808400 0.000000
-12.764300 0.000000
-12.720300 0.000000
-12.676200 0.000000
-12.632200 0.000000
-12.588100 0.000000
-12.544100 0.000000
-12.500000 0.000000
-12.456000 0.000000
-12.411900 0.000000
-12.367900 0.266600
-12.323800 1.694700
-12.279800 2.025200
-12.235700 1.842000
-12.191700 1.980000
-12.147600 2.150400
-12.103600 2.399100
-12.059500 2.814300
-12.015500 4.067000
-11.971400 2.179700
-11.927400 1.995700
-11.883300 1.811800
-11.839300 1.197500
-11.795200 1.056300
-11.751200 0.922200
-11.707100 0.936300
-11.663100 0.962900
-11.619000 1.005300
-11.575000 1.084400
-11.530900 1.163500
-11.486900 1.932000
-11.442800 2.724200
-11.398800 3.447300
-11.354700 4.358900
-11.310700 2.066700
-11.266600 1.007800
-11.222600 2.980900
-11.178500 6.867800
-11.134500 7.559400
-11.090400 7.682300
-11.046400 11.258600
-11.002300 12.467200
-10.958300 1.814000
-10.914200 1.852800
-10.870200 1.891600
-10.826100 1.930400
-10.782100 2.000700
-10.738000 2.076700
-10.694000 2.983600
-10.649900 3.561200
-10.605900 3.488900
-10.561800 2.573900
-10.517800 2.435200
-10.473700 2.240200
-10.429700 2.044000
-10.385600 1.847800
-10.341600 1.708200
-10.297500 1.844500
-10.253500 1.648300
-10.209400 1.556100
-10.165400 1.699500
-10.121300 1.304200
-10.077300 1.174700
-10.033200 0.000000
-9.989200 0.000000
-9.945100 0.000000
-9.901100 0.000000
-9.857000 0.000000
-9.813000 0.000000
-9.768900 0.000000
-9.724900 0.000000
-9.680800 0.000000
-9.636800 0.000000
-9.592700 0.000000
-9.548700 0.000000
-9.504600 0.000000
-9.460600 0.000000
-9.416500 0.000000
-9.372500 0.000000
-9.328400 0.000000
-9.284400 0.000000
-9.240300 0.000000
-9.196300 0.000000
-9.152200 0.000000
-9.108200 0.000000
-9.064100 0.000000
-9.020100 0.000000
-8.976000 0.000000
-8.932000 0.000000
-8.887900 0.000000
-8.843900 0.000000
-8.799800 0.000000
-8.755800 0.000000
-8.711700 0.000000
-8.667700 0.000000
-8.623600 0.000000
-8.579600 0.000000
-8.535500 0.000000
-8.491500 0.000000
-8.447400 0.000000
-8.403400 0.000000
-8.359300 0.000000
-8.315300 0.000000
-8.271200 0.000000
-8.227200 0.000000
-8.183100 0.000000
-8.139100 0.000000
-8.095000 0.000000
-8.051000 0.000000
-8.006900 0.000000
-7.962900 0.000000
-7.918800 0.000000
-7.874800 0.000000
-7.830700 0.000000
-7.786700 0.000000
-7.742600 0.000000
-7.698600 0.000000
-7.654500 0.000000
-7.610500 0.000000
-7.566400 0.000000
-7.522400 0.000000
-7.478300 0.000000
-7.434300 0.000000
-7.390200 0.000000
-7.346200 0.000000
-7.302100 0.000000
-7.258100 0.000000
-7.214000 0.000000
-7.170000 0.000000
-7.125900 0.000000
-7.081900 0.000000
-7.037800 0.000000
-6.993800 0.000000
-6.949700 0.000000
-6.905700 0.000000
-6.861600 0.000000
-6.817600 0.000000
-6.773500 0.000000
-6.729500 0.000000
-6.685400 0.000000
-6.641400 0.000000
-6.597300 0.000000
-6.553300 0.000000
-6.509200 0.000000
-6.465200 0.000000
-6.421100 0.000000
-6.377100 0.000000
-6.333000 0.000000
-6.289000 0.000000
-6.244900 0.000000
-6.200900 0.000000
-6.156800 0.000000
-6.112800 0.000000
-6.068700 0.000000
-6.024700 0.000000
-5.980600 0.000000
-5.936600 0.000000
-5.892500 0.000000
-5.848500 0.000000
-5.804400 0.000000
-5.760400 0.000000
-5.716300 0.000000
-5.672300 0.000000
-5.628200 0.000000
-5.584200 0.000000
-5.540100 0.000000
-5.496100 0.000000
-5.452000 0.000000
-5.408000 0.000000
-5.363900 0.000000
-5.319900 0.000000
-5.275800 0.000000
-5.231800 0.000000
-5.187700 0.000000
-5.143700 0.000000
-5.099600 0.000000
-5.055600 0.000000
-5.011500 0.000000
-4.967500 0.000000
-4.923400 0.000000
-4.879400 0.000000
-4.835300 0.000000
-4.791300 0.000000
-4.747200 0.000000
-4.703200 0.000000
-4.659100 0.000000
-4.615100 0.000000
-4.571000 0.000000
-4.527000 0.000000
-4.482900 0.000000
-4.438900 0.000000
-4.394800 0.000000
-4.350800 0.000000
-4.306700 0.000000
-4.262700 0.000000
-4.218600 0.000000
-4.174600 0.000000
-4.130500 0.000000
-4.086500 0.000000
-4.042400 0.000000
-3.998400 0.000000
-3.954300 0.000000
-3.910300 0.000000
-3.866200 0.000000
-3.822200 0.000000
-3.778100 0.000000
-3.734100 0.000000
-3.690000 0.000000
-3.646000 0.000000
-3.601900 0.000000
-3.557900 0.000000
-3.513800 0.000000
-3.469800 0.000000
-3.425700 0.000000
-3.381700 0.000000
-3.337600 0.000000
-3.293600 0.000000
-3.249500 0.000000
-3.205500 0.000000
-3.161400 0.000000
-3.117400 0.000000
-3.073300 0.000000
-3.029300 0.000000
-2.985200 0.000000
-2.941200 0.000000
-2.897100 0.000000
-2.853100 0.000000
-2.809000 0.000000
-2.765000 0.000000
-2.720900 0.000000
-2.676900 0.000000
-2.632800 0.000000
-2.588800 0.000000
-2.544700 0.000000
-2.500700 0.000000
-2.456600 0.000000
-2.412600 0.000000
-2.368500 0.000000
-2.324500 0.000000
-2.280400 0.000000
-2.236400 0.000000
-2.192300 0.000000
-2.148300 0.000000
-2.104200 0.000000
-2.060200 0.000000
-2.016100 0.000000
-1.972100 0.000000
-1.928000 0.000000
-1.884000 0.000000
-1.839900 0.000000
-1.795900 0.000000
-1.751800 0.000000
-1.707800 0.000000
-1.663700 0.000000
-1.619700 0.000000
-1.575600 0.000000
-1.531600 0.000000
-1.487500 0.000000
-1.443500 0.000000
-1.399400 0.000000
-1.355400 0.000000
-1.311300 0.000000
-1.267300 0.000000
-1.223200 0.000000
-1.179200 0.000000
-1.135100 0.000000
-1.091100 0.000000
-1.047000 0.000000
-1.003000 0.000000
-0.958900 0.000000
-0.914900 0.000000
-0.870800 0.000000
-0.826800 0.000000
-0.782700 0.000000
-0.738700 0.000000
-0.694600 0.000000
-0.650600 0.000000
-0.606500 0.000000
-0.562500 0.000000
-0.518400 0.000000
-0.474400 0.000000
-0.430300 0.000000
-0.386300 0.000000
-0.342200 0.000000
-0.298200 0.000000
-0.254100 0.000000
-0.210100 0.000000
-0.166000 0.000000
-0.122000 0.000000
-0.077900 0.000000
-0.033900 0.000000
0.010200 0.000000
0.054200 0.000000
0.098300 0.000000
0.142300 0.000000
0.186400 0.000000
0.230400 0.000000
0.274500 0.000000
0.318500 0.000000
0.362600 0.000000
0.406600 0.000000
0.450700 0.000000
0.494700 0.000000
0.538800 0.000000
0.582800 0.000000
0.626900 0.000000
0.670900 0.000000
0.715000 0.000000
0.759000 0.000000
0.803100 0.000000
0.847100 0.000000
0.891200 0.000000
0.935200 0.000000
0.979300 0.000000
1.023300 0.000000
1.067400 0.000000
1.111400 0.000000
1.155500 0.007800
1.199500 0.022000
1.243600 0.040800
1.287600 0.062700
1.331700 0.075400
1.375700 0.077500
1.419800 0.085500
1.463800 0.094800
1.507900 0.104300
1.551900 0.111900
1.596000 0.120100
1.640000 0.129100
1.684100 0.138300
1.728100 0.147000
1.772200 0.155200
1.816200 0.163000
1.860300 0.169600
1.904300 0.177100
1.948400 0.185200
1.992400 0.193600
2.036500 0.202300
2.080500 0.211200
2.124600 0.220500
2.168600 0.230000
2.212700 0.239500
2.256700 0.248800
2.300800 0.258400
2.344800 0.267900
2.388900 0.278100
2.432900 0.289000
2.477000 0.300300
2.521000 0.312100
2.565100 0.325200
2.609100 0.340700
2.653200 0.355900
2.697200 0.370600
2.741300 0.384500
2.785300 0.397300
2.829400 0.409400
2.873400 0.420600
2.917500 0.432200
2.961500 0.447300
3.005600 0.463000
3.049600 0.481100
3.093700 0.502700
3.137700 0.528000
3.181800 0.557300
3.225800 0.598600
3.269900 0.715000
3.313900 1.016600
3.357900 1.216700
3.402000 1.338800
3.446000 1.425500
3.490100 1.457600
3.534100 1.545700
3.578200 1.777900
3.622200 2.128400
3.666300 2.639900
3.710300 2.957100
3.754400 2.865200
3.798400 2.725600
3.842500 2.909700
3.886500 2.309700
3.930600 2.041100
3.974600 2.009700
4.018700 1.977500
4.062700 1.935700
4.106800 1.937600
4.150800 1.950800
4.194900 1.935900
4.238900 1.960300
4.283000 2.008100
4.327000 2.065300
4.371100 2.198500
4.415100 2.225800
4.459200 2.216100
4.503200 2.049600
4.547300 1.792100
4.591300 1.758400
4.635400 1.796700
4.679400 2.316700
4.723500 2.744000
4.767500 2.879600
4.811600 3.143800
4.855600 3.322100
4.899700 3.636200
4.943700 3.563600
4.987800 2.850000
5.031800 2.479000
5.075900 2.394600
5.119900 2.666800
5.164000 2.860400
5.208000 2.977600
5.252100 3.071400
5.296100 3.180800
5.340200 2.750400
5.384200 2.098500
5.428300 1.812300
5.472300 1.582700
5.516400 1.185600
5.560400 1.285600
5.604500 1.380200
5.648500 1.507900
5.692600 1.538200
5.736600 1.763800
5.780700 1.868800
5.824700 2.392800
5.868800 3.183000
5.912800 3.539800
5.956900 3.609300
6.000900 3.559000
6.045000 3.805000
6.089000 3.587600
6.133100 3.334300
6.177100 3.065900
6.221200 3.092400
6.265200 3.166100
6.309300 3.236400
6.353300 3.351500
6.397400 3.452800
6.441400 3.486000
6.485500 3.519700
6.529500 3.950500
6.573600 4.312700
6.617600 5.519100
6.661700 5.246300
6.705700 5.058400
6.749800 5.061500
6.793800 4.936600
6.837900 4.348700
6.881900 3.758300
6.926000 3.474400
6.970000 3.322700
7.014100 3.297000
7.058100 3.130800
7.102200 2.834000
7.146200 2.971100
7.190300 3.753000
7.234300 4.688500
7.278400 5.441700
7.322400 4.786200
7.366500 6.912400
7.410500 9.088100
7.454600 12.093200
7.498600 12.177200
7.542700 5.692700
7.586700 6.975900
7.630800 8.865500
7.674800 8.503600
7.718900 7.184800
7.762900 6.927500
7.807000 5.702100
7.851000 4.213800
7.895100 3.343500
7.939100 3.296300
7.983200 3.849300
8.027200 5.265300
8.071300 3.780100
8.115300 5.628600
8.159400 6.461600
8.203400 8.169200
8.247500 9.966000
8.291500 6.170600
8.335600 3.952000
8.379600 3.289400
8.423700 3.051300
8.467700 3.161800
8.511800 3.386200
8.555800 3.707200
8.599900 4.665700
8.643900 6.526800
8.688000 7.903400
8.732000 9.760000
8.776100 9.409100
8.820100 11.437700
8.864200 9.446800
8.908200 10.812600
8.952300 11.115100
8.996300 10.536300
9.040400 11.191600
9.084400 12.358800
9.128500 15.012500
9.172500 14.944400
9.216600 9.238800
9.260600 13.431800
9.304700 10.201800
9.348700 9.261000
9.392800 7.704000
9.436800 7.040300
9.480900 6.761300
9.524900 6.085800
9.569000 6.286300
9.613000 5.660300
9.657100 5.016100
9.701100 4.578600
9.745200 3.855600
9.789200 2.865000
9.833300 2.394100
9.877300 2.354700
9.921400 2.462900
9.965400 2.727100
10.009500 2.811500
10.053500 3.281000
10.097600 4.009400
10.141600 3.553000
10.185700 2.878300
10.229700 2.355600
10.273800 2.051000
10.317800 1.909900
10.361900 1.729300
10.405900 1.642800
10.450000 1.651900
10.494000 1.795000
10.538100 2.205300
10.582100 2.816800
10.626200 2.761900
10.670200 2.904200
10.714300 2.884800
10.758300 2.725600
10.802400 2.610900
10.846400 2.541400
10.890500 2.441100
10.934500 2.423800
10.978600 2.548400
11.022600 2.636100
11.066700 2.543800
11.110700 2.116700
11.154800 2.106000
11.198800 2.659600
11.242900 2.565800
11.286900 2.256100
11.331000 1.924400
11.375000 1.687100
11.419100 1.469000
11.463100 1.450400
11.507200 1.366400
11.551200 1.310000
11.595300 1.492200
11.639300 1.436100
11.683400 1.281500
11.727400 1.714700
11.771500 2.111900
11.815500 1.885100
11.859600 1.793200
11.903600 1.727300
11.947700 1.647800
11.991700 1.589400
12.035800 1.533300
12.079800 1.452400
12.123900 1.418700
12.167900 1.398500
12.212000 1.378000
12.256000 1.339800
12.300100 1.327500
12.344100 1.336100
12.388200 1.327800
12.432200 1.323600
12.476300 1.309600
12.520300 1.290400
12.564400 1.268900
12.608400 1.257800
12.652500 1.244500
12.696500 1.246500
12.740600 1.243300
12.784600 1.226900
12.828700 1.211400
12.872700 1.195800
12.916800 1.180300
12.960800 1.183000
13.004900 1.185400
13.048900 1.158400
13.093000 1.105700
13.137000 1.054700
13.181100 1.031300
13.225100 1.027600
13.269200 1.013600
13.313200 0.991800
13.357300 0.958800
13.401300 0.918500
13.445400 0.953600
13.489400 0.992500
13.533500 1.028400
13.577500 1.324500
13.621600 1.304400
13.665600 1.242900
13.709700 1.308500
13.753700 1.463500
13.797800 1.555900
13.841800 1.539000
13.885900 1.512800
13.929900 1.510700
13.974000 1.480800
14.018000 1.408200
14.062100 1.306900
14.106100 1.212000
14.150200 1.069800
14.194200 0.977000
14.238300 0.911500
14.282300 0.888200
14.326400 0.839300
14.370400 0.803600
14.414500 0.699000
14.458500 0.637800
14.502600 0.606500
14.546600 0.594600
14.590700 0.611900
14.634700 0.635400
14.678800 0.692900
14.722800 0.786800
14.766900 0.817100
14.810900 0.952900
14.855000 1.105100
14.899000 1.325200
14.943100 1.439500
14.987100 1.433900
15.031200 1.516600
15.075200 1.652300
15.119300 1.756100
15.163300 1.646400
15.207400 1.525300
15.251400 1.501900
15.295500 1.467100
15.339500 1.428800
15.383600 1.407500
15.427600 1.380000
15.471700 1.342900
15.515700 1.332500
15.559800 1.547500
15.603800 1.413000
15.647900 1.317900
15.691900 1.269600
15.736000 1.234600
15.780000 1.233400
15.824100 1.207000
15.868100 1.230100
15.912200 1.257100
15.956200 1.216800
16.000300 1.185600
16.044300 1.215800
16.088400 1.406100
16.132400 1.558000
16.176500 1.847000
16.220500 1.980500
16.264600 1.826000
16.308600 1.893800
16.352700 1.888100
16.396700 1.827900
16.440800 1.820300
16.484800 1.843300
16.528900 1.850100
16.572900 1.864900
16.617000 1.865200
16.661000 1.818800
16.705100 1.749700
16.749100 1.580600
16.793200 1.552200
16.837200 1.582400
16.881300 1.674000
16.925300 1.734300
16.969400 1.879100
17.013400 1.948800
17.057500 2.025400
17.101500 2.128400
17.145600 2.196000
17.189600 2.138400
17.233700 2.022700
17.277700 1.925700
17.321800 1.796100
17.365800 1.672000
17.409900 1.630400
17.453900 1.607200
17.498000 1.674700
17.542000 1.769000
17.586100 1.765300
17.630100 1.721400
17.674200 1.768400
17.718200 1.736600
17.762300 1.692200
17.806300 1.625300
17.850400 1.667000
17.894400 1.722000
17.938500 1.801700
17.982500 1.791100
18.026600 1.748600
18.070600 1.617300
18.114700 1.566700
18.158700 1.745200
18.202800 1.631100
18.246800 1.638700
18.290900 1.728200
18.334900 1.703100
18.379000 1.699000
18.423000 1.718900
18.467100 1.725800
18.511100 1.609900
18.555200 1.548900
18.599200 1.532100
18.643300 1.524900
18.687300 1.509700
18.731400 1.492400
18.775400 1.473900
18.819500 1.454600
18.863500 1.442200
18.907600 1.421700
18.951600 1.394700
18.995700 1.423300
19.039700 1.496000
19.083800 1.589400
19.127800 1.793200
19.171900 1.978100
19.215900 2.141000
19.260000 2.393100
19.304000 2.521600
19.348100 2.469700
19.392100 2.560600
19.436200 2.431400
19.480200 2.345900
19.524300 2.274100
19.568300 2.285500
19.612400 2.452000
19.656400 2.214900
19.700500 2.025900
19.744500 1.959400
19.788600 2.016200
19.832600 2.007800
19.876700 1.939600
19.920700 1.840000
19.964800 1.786200
20.008800 1.758700
20.052900 1.745700
20.096900 1.760700
20.141000 1.792900
20.185000 1.795500
20.229100 1.960900
20.273100 1.887200
20.317200 1.874900
20.361200 1.841500
20.405300 1.773500
20.449300 1.773900
20.493400 1.831300
20.537400 1.913300
20.581500 2.004200
20.625500 2.075800
20.669600 2.195600
20.713600 2.286300
20.757700 2.380800
20.801700 2.411100
20.845800 2.458100
20.889800 2.569000
20.933900 2.918100
20.977900 2.513800
21.022000 2.252200
21.066000 2.088500
21.110100 2.034600
21.154100 1.916200
21.198200 1.763300
21.242200 1.766500
21.286300 1.785100
21.330300 1.713200
21.374400 1.511200
21.418400 1.391000
21.462500 1.321900
21.506500 1.221900
21.550600 1.183100
21.594600 1.173000
21.638700 1.215300
21.682700 1.294100
21.726800 1.463800
21.770800 1.499100
21.814900 1.396600
21.858900 1.430600
21.903000 1.496100
21.947000 1.621900
21.991100 1.970700
22.035100 2.138200
22.079200 2.247600
22.123200 2.311200
22.167300 2.549200
22.211300 2.372200
22.255400 2.235900
22.299400 2.177800
22.343500 2.236000
22.387500 2.173900
22.431600 2.099000
22.475600 2.081500
22.519700 2.025100
22.563700 1.904300
22.607800 1.733800
22.651800 1.639200
22.695900 1.633400
22.739900 1.675000
22.784000 1.833500
22.828000 1.943300
22.872100 2.136200
22.916100 2.124200
22.960200 2.182800
23.004200 2.275700
23.048300 2.500200
23.092300 2.466400
23.136400 2.530700
23.180400 2.534600
23.224500 2.425600
23.268500 2.262700
23.312600 2.075600
23.356600 2.023200
23.400700 1.877100
23.444700 1.885900
23.488800 1.911600
23.532800 1.972700
23.576900 1.941700
23.620900 1.877300
23.665000 1.481400
23.709000 1.203700
23.753100 1.139700
23.797100 1.177100
23.841200 1.272100
23.885200 1.449800
23.929300 1.476500
23.973300 1.496400
24.017400 1.518600
24.061400 1.632300
24.105500 1.644500
24.149500 1.709300
24.193600 1.942600
24.237600 2.456200
24.281700 2.335400
24.325700 2.424500
24.369800 2.624900
24.413800 2.766600
24.457900 2.782300
24.501900 2.616000
24.546000 2.248500
24.590000 2.002000
24.634100 1.838700
24.678100 1.754200
24.722200 1.727300
24.766200 1.774200
24.810300 1.701500
24.854300 1.671900
24.898400 1.661500
24.942400 1.644500
24.986500 1.749100
25.030500 1.701700
25.074600 1.602200
25.118600 1.628600
25.162700 1.602900
25.206700 1.623300
25.250800 1.680200
25.294800 1.758900
25.338900 1.852900
25.382900 1.961700
25.427000 2.202500
25.471000 2.424100
25.515100 2.395900
25.559100 2.386900
25.603200 2.424600
25.647200 2.357200
25.691300 2.285800
25.735300 2.293900
25.779400 2.204900
25.823400 2.168700
25.867500 2.138100
25.911500 2.090500
25.955600 1.873000
25.999600 1.780600
26.043700 1.749500
26.087700 1.756300
26.131800 1.865700
26.175800 1.997400
26.219900 2.124500
26.263900 2.246400
26.308000 2.443800
26.352000 2.516800
26.396100 2.468100
26.440100 2.482900
26.484200 2.698200
26.528200 2.931000
26.572300 3.110800
26.616300 3.278700
26.660400 3.372400
26.704400 3.029600
26.748500 2.930800
26.792500 2.462200
26.836600 2.158100
26.880600 1.985200
26.924700 1.910500
26.968700 1.982200
27.012800 2.044900
27.056800 2.090500
27.100900 2.022900
27.144900 2.048600
27.189000 2.085500
27.233000 2.145800
27.277100 2.148300
27.321100 1.905000
27.365200 1.906400
27.409200 1.974800
27.453300 2.154200
27.497300 2.324100
27.541400 2.481500
27.585400 2.671600
27.629500 2.491500
27.673500 2.458300
27.717600 2.486300
27.761600 2.465200
27.805700 2.456400
27.849700 2.451800
27.893800 2.475800
27.937800 2.456700
27.981900 2.384800
28.025900 2.290300
28.070000 2.228400
28.114000 2.225900
28.158100 2.235500
28.202100 2.313200
28.246200 2.357600
28.290200 2.394200
28.334300 2.426600
28.378300 2.532700
28.422400 2.661500
28.466400 2.546800
28.510500 2.527600
28.554500 2.510600
28.598600 2.390400
28.642600 2.340200
28.686700 2.323200
28.730700 2.235500
28.774800 2.126400
28.818800 2.046500
28.862900 1.932400
28.906900 1.807100
28.951000 1.807600
28.995000 1.789600
29.039100 1.698900
29.083100 1.693500
29.127200 1.645400
29.171200 1.639700
29.215300 1.636500
29.259300 1.600500
29.303400 1.691800
29.347400 1.892600
29.391500 1.853200
29.435500 1.960900
29.479600 2.038400
29.523600 2.161400
29.567700 2.332300
29.611700 2.503500
29.655800 2.597300
29.699800 2.914900
29.743900 2.669300
29.787900 2.463000
29.832000 2.287100
29.876000 2.151700
29.920100 2.075400
29.964100 2.058900
30.008200 2.043500
30.052200 1.982600
30.096300 1.948200
30.140300 1.968300
30.184400 1.988500
30.228400 2.113700
30.272500 2.302900
30.316500 2.246000
30.360600 2.168600
30.404600 2.061500
30.448700 1.886400
30.492700 1.824200
30.536800 1.806100
30.580800 1.809400
30.624900 1.780500
30.668900 1.685600
30.713000 1.713300
30.757000 1.785100
30.801100 1.859300
30.845100 2.108100
30.889200 2.376700
30.933200 2.559000
30.977300 2.615500
31.021300 2.554800
31.065400 2.443700
31.109400 2.500200
31.153500 2.291600
31.197500 2.212000
31.241600 2.245100
31.285600 2.187800
31.329700 2.129300
31.373700 2.104900
31.417800 2.000000
31.461800 1.955800
31.505900 1.934700
31.549900 1.898200
31.594000 1.821200
31.638000 1.722300
31.682100 1.598700
31.726100 1.584300
31.770200 1.649100
31.814200 1.734000
31.858300 1.820500
31.902300 1.908400
31.946400 2.042400
31.990400 2.174700
32.034500 2.280100
32.078500 2.370400
32.122600 2.421400
32.166600 2.486200
32.210700 2.540800
32.254700 2.566700
32.298800 2.576300
32.342800 2.507500
32.386900 2.476600
32.430900 2.498000
32.475000 2.505000
32.519000 2.426700
32.563100 2.362000
32.607100 2.311200
32.651200 2.246800
32.695200 2.169200
32.739300 2.179200
32.783300 2.176300
32.827400 2.103700
32.871400 2.029000
32.915500 1.994700
32.959500 2.081300
33.003600 2.347800
33.047600 2.606500
33.091700 2.773400
33.135700 2.751100
33.179800 2.463800
33.223800 2.590300
33.267900 2.866400
33.311900 2.999100
33.356000 2.807000
33.400000 2.651700
33.444100 2.577100
33.488100 2.684500
33.532200 2.932000
33.576200 2.866800
33.620300 2.865100
33.664300 2.758800
33.708400 2.726000
33.752400 2.741600
33.796500 2.558300
33.840500 2.608800
33.884600 2.596800
33.928600 2.686800
33.972700 2.804800
34.016700 2.852800
34.060800 2.836900
34.104800 2.803000
34.148900 2.715700
34.192900 2.594700
34.237000 2.484000
34.281000 2.502000
34.325100 2.434600
34.369100 2.343500
34.413200 2.354100
34.457200 2.412700
34.501300 2.360200
34.545300 2.323300
34.589400 2.291300
34.633400 2.392900
34.677500 2.125200
34.721500 2.193600
34.765600 2.253000
34.809600 2.214700
34.853700 2.157900
34.897700 2.011500
34.941800 1.813000
34.985800 1.662000
35.029900 1.562300
35.073900 1.510800
35.118000 1.570300
35.162000 1.557000
35.206100 1.250100
35.250100 1.032100
35.294200 0.960500
35.338200 0.920000
35.382300 0.889300
35.426300 0.779100
35.470400 0.730900
35.514400 0.689700
35.558500 0.634500
35.602500 0.578200
35.646600 0.512800
35.690600 0.451200
35.734700 0.403100
35.778700 0.325500
35.822800 0.267000
35.866800 0.221600
35.910900 0.190300
35.954900 0.168800
35.999000 0.153700
36.043000 0.142800
36.087100 0.134900
36.131100 0.126100
36.175200 0.114400
36.219200 0.103400
36.263300 0.094100
36.307300 0.041000
36.351400 0.011300
36.395400 0.007000
36.439500 0.004000
36.483500 0.001800
36.527600 0.000500
36.571600 0.000000
36.615700 0.000000
36.659700 0.000000
36.703800 0.000000
36.747800 0.000000
36.791900 0.000000
36.835900 0.000000
36.880000 0.000000
36.924000 0.000000
36.968100 0.000000
37.012100 0.000000
37.056200 0.000000
37.100200 0.000000
37.144300 0.000000
37.188300 0.000000
37.232400 0.000000
37.276400 0.000000
37.320500 0.000000
37.364500 0.000000
37.408600 0.000000
37.452600 0.000000
37.496700 0.000000
37.540700 0.000000
37.584800 0.000000
37.628800 0.000000
37.672900 0.000000
37.716900 0.000000
37.761000 0.000000
37.805000 0.000000
37.849100 0.000000
37.893100 0.000000
37.937200 0.000000
37.981200 0.000000
38.025300 0.000000
38.069300 0.000000
38.113400 0.000000
38.157400 0.000000
38.201500 0.000000
38.245500 0.000000
38.289600 0.000000
38.333600 0.000000
38.377700 0.000000
38.421700 0.000000
38.465800 0.000000
38.509800 0.000000
38.553900 0.000000
38.597900 0.000000
38.642000 0.000000
38.686000 0.000000
38.730100 0.000000
38.774100 0.000000
38.818200 0.000000
38.862200 0.000000
38.906300 0.000000
38.950300 0.000000
38.994400 0.000000
39.038400 0.000000
39.082500 0.000000
39.126500 0.000000
39.170600 0.000000
39.214600 0.000000
39.258700 0.000000
39.302700 0.000000
39.346800 0.000000
39.390800 0.000000
39.434900 0.000000
39.478900 0.000000
39.523000 0.000000
39.567000 0.000000
39.611100 0.000000
39.655100 0.000000
39.699200 0.000000
39.743200 0.000000
39.787300 0.000000
39.831300 0.000000
39.875400 0.000000
39.919400 0.000000
39.963500 0.000000
40.007500 0.000000
40.051600 0.000000
40.095600 0.000000
40.139700 0.000000
40.183700 0.000000
40.227800 0.000000
40.271800 0.000000
40.315900 0.000000
40.359900 0.000000
40.404000 0.000000
40.448000 0.000000
40.492100 0.000000
40.536100 0.000000
40.580200 0.000000
e
