set title 'mp-1019078 - Density of States'
set xlabel 'Energy (eV)'
set ylabel 'DOS (states/eV)'
set grid
set xrange [-10:10]
set yrange [0:5.489]
set xzeroaxis lt -1
set terminal png size 800,600
set output 'mp-1019078_dos_gnuplot.png'
plot '-' using 1:2 with lines title 'DOS'
-39.016600 0.000000
-38.978100 0.000000
-38.939700 0.000000
-38.901200 0.000000
-38.862800 0.000000
-38.824300 0.000000
-38.785900 0.000000
-38.747400 0.000000
-38.708900 0.000000
-38.670500 0.000000
-38.632000 0.000000
-38.593600 0.000000
-38.555100 0.000000
-38.516700 0.000000
-38.478200 0.000000
-38.439700 0.000000
-38.401300 0.000000
-38.362800 0.000000
-38.324400 0.000000
-38.285900 0.000000
-38.247500 0.000000
-38.209000 0.000000
-38.170600 0.000000
-38.132100 0.000000
-38.093600 0.000000
-38.055200 0.000000
-38.016700 0.000000
-37.978300 0.000000
-37.939800 0.000000
-37.901400 0.000000
-37.862900 0.000000
-37.824400 0.000000
-37.786000 0.000000
-37.747500 0.000000
-37.709100 0.000000
-37.670600 0.000000
-37.632200 0.000000
-37.593700 0.000000
-37.555300 0.000000
-37.516800 0.000000
-37.478300 0.000000
-37.439900 0.000000
-37.401400 0.000000
-37.363000 0.000000
-37.324500 0.000000
-37.286100 0.000000
-37.247600 0.000000
-37.209100 0.000000
-37.170700 0.000000
-37.132200 0.000000
-37.093800 0.000000
-37.055300 0.000000
-37.016900 0.000000
-36.978400 0.000000
-36.940000 0.000000
-36.901500 0.000000
-36.863000 0.000000
-36.824600 0.000000
-36.786100 0.000000
-36.747700 0.000000
-36.709200 0.000000
-36.670800 0.000000
-36.632300 0.000000
-36.593800 0.000000
-36.555400 0.000000
-36.516900 0.000000
-36.478500 0.000000
-36.440000 0.000000
-36.401600 0.000000
-36.363100 0.000000
-36.324700 0.000000
-36.286200 0.000000
-36.247700 0.000000
-36.209300 0.000000
-36.170800 0.000000
-36.132400 0.000000
-36.093900 0.000000
-36.055500 0.000000
-36.017000 0.000000
-35.978500 0.000000
-35.940100 0.000000
-35.901600 0.000000
-35.863200 0.000000
-35.824700 0.000000
-35.786300 0.000000
-35.747800 0.000000
-35.709400 0.000000
-35.670900 0.000000
-35.632400 0.000000
-35.594000 0.000000
-35.555500 0.000000
-35.517100 1.167800
-35.478600 4.631100
-35.440200 15.403800
-35.401700 17.526200
-35.363200 10.369300
-35.324800 12.821000
-35.286300 8.802500
-35.247900 8.371400
-35.209400 8.115100
-35.171000 8.609400
-35.132500 8.762500
-35.094100 10.106700
-35.055600 11.524200
-35.017100 7.815700
-34.978700 10.303500
-34.940200 16.004200
-34.901800 16.980800
-34.863300 22.897100
-34.824900 33.639200
-34.786400 31.473200
-34.747900 0.000000
-34.709500 0.000000
-34.671000 0.000000
-34.632600 0.000000
-34.594100 0.000000
-34.555700 0.000000
-34.517200 0.000000
-34.478800 0.000000
-34.440300 0.000000
-34.401800 0.000000
-34.363400 0.000000
-34.324900 0.000000
-34.286500 0.000000
-34.248000 0.000000
-34.209600 0.000000
-34.171100 0.000000
-34.132600 0.000000
-34.094200 0.000000
-34.055700 0.000000
-34.017300 0.000000
-33.978800 0.000000
-33.940400 0.000000
-33.901900 0.000000
-33.863500 0.000000
-33.825000 0.000000
-33.786500 0.000000
-33.748100 0.000000
-33.709600 0.000000
-33.671200 0.000000
-33.632700 0.000000
-33.594300 0.000000
-33.555800 0.000000
-33.517300 0.000000
-33.478900 0.000000
-33.440400 0.000000
-33.402000 0.000000
-33.363500 0.000000
-33.325100 0.000000
-33.286600 0.000000
-33.248200 0.000000
-33.209700 0.000000
-33.171200 0.000000
-33.132800 0.000000
-33.094300 0.000000
-33.055900 0.000000
-33.017400 0.000000
-32.979000 0.000000
-32.940500 0.000000
-32.902000 0.000000
-32.863600 0.000000
-32.825100 0.000000
-32.786700 0.000000
-32.748200 0.000000
-32.709800 0.000000
-32.671300 0.000000
-32.632900 0.000000
-32.594400 0.000000
-32.555900 0.000000
-32.517500 0.000000
-32.479000 0.000000
-32.440600 0.000000
-32.402100 0.000000
-32.363700 0.000000
-32.325200 0.000000
-32.286700 0.000000
-32.248300 0.000000
-32.209800 0.000000
-32.171400 0.000000
-32.132900 0.000000
-32.094500 0.000000
-32.056000 0.000000
-32.017600 0.000000
-31.979100 0.000000
-31.940600 0.000000
-31.902200 0.000000
-31.863700 0.000000
-31.825300 0.000000
-31.786800 0.000000
-31.748400 0.000000
-31.709900 0.000000
-31.671400 0.000000
-31.633000 0.000000
-31.594500 0.000000
-31.556100 0.000000
-31.517600 0.000000
-31.479200 0.000000
-31.440700 0.000000
-31.402300 0.000000
-31.363800 0.000000
-31.325300 0.000000
-31.286900 0.000000
-31.248400 0.000000
-31.210000 0.000000
-31.171500 0.000000
-31.133100 0.000000
-31.094600 0.000000
-31.056100 0.000000
-31.017700 0.000000
-30.979200 0.000000
-30.940800 0.000000
-30.902300 0.000000
-30.863900 0.000000
-30.825400 0.000000
-30.787000 0.000000
-30.748500 0.000000
-30.710000 0.000000
-30.671600 0.000000
-30.633100 0.000000
-30.594700 0.000000
-30.556200 0.000000
-30.517800 0.000000
-30.479300 0.000000
-30.440800 0.000000
-30.402400 0.000000
-30.363900 0.000000
-30.325500 0.000000
-30.287000 0.000000
-30.248600 0.000000
-30.210100 0.000000
-30.171700 0.000000
-30.133200 0.000000
-30.094700 0.000000
-30.056300 0.000000
-30.017800 0.000000
-29.979400 0.000000
-29.940900 0.000000
-29.902500 0.000000
-29.864000 0.000000
-29.825500 0.000000
-29.787100 0.000000
-29.748600 0.000000
-29.710200 0.000000
-29.671700 0.000000
-29.633300 0.000000
-29.594800 0.000000
-29.556400 0.000000
-29.517900 0.000000
-29.479400 0.000000
-29.441000 0.000000
-29.402500 0.000000
-29.364100 0.000000
-29.325600 0.000000
-29.287200 0.000000
-29.248700 0.000000
-29.210200 0.000000
-29.171800 0.000000
-29.133300 0.000000
-29.094900 0.000000
-29.056400 0.000000
-29.018000 0.000000
-28.979500 0.000000
-28.941100 0.000000
-28.902600 0.000000
-28.864100 0.000000
-28.825700 0.000000
-28.787200 0.000000
-28.748800 0.000000
-28.710300 0.000000
-28.671900 0.000000
-28.633400 0.000000
-28.594900 0.000000
-28.556500 0.000000
-28.518000 0.000000
-28.479600 0.000000
-28.441100 0.000000
-28.402700 0.000000
-28.364200 0.000000
-28.325800 0.000000
-28.287300 0.000000
-28.248800 0.000000
-28.210400 0.000000
-28.171900 0.000000
-28.133500 0.000000
-28.095000 0.000000
-28.056600 0.000000
-28.018100 0.000000
-27.979600 0.000000
-27.941200 0.000000
-27.902700 0.000000
-27.864300 0.000000
-27.825800 0.000000
-27.787400 0.000000
-27.748900 0.000000
-27.710500 0.000000
-27.672000 0.000000
-27.633500 0.000000
-27.595100 0.000000
-27.556600 0.000000
-27.518200 0.000000
-27.479700 0.000000
-27.441300 0.000000
-27.402800 0.000000
-27.364300 0.000000
-27.325900 0.000000
-27.287400 0.000000
-27.249000 0.000000
-27.210500 0.000000
-27.172100 0.000000
-27.133600 0.000000
-27.095200 0.000000
-27.056700 0.000000
-27.018200 0.000000
-26.979800 0.000000
-26.941300 0.000000
-26.902900 0.000000
-26.864400 0.000000
-26.826000 0.000000
-26.787500 0.000000
-26.749000 0.000000
-26.710600 0.000000
-26.672100 0.000000
-26.633700 0.000000
-26.595200 0.000000
-26.556800 0.000000
-26.518300 0.000000
-26.479900 0.000000
-26.441400 0.000000
-26.402900 0.000000
-26.364500 0.000000
-26.326000 0.000000
-26.287600 0.000000
-26.249100 0.000000
-26.210700 0.000000
-26.172200 0.000000
-26.133700 0.000000
-26.095300 0.000000
-26.056800 0.000000
-26.018400 0.000000
-25.979900 0.000000
-25.941500 0.000000
-25.903000 0.000000
-25.864600 0.000000
-25.826100 0.000000
-25.787600 0.000000
-25.749200 0.000000
-25.710700 0.000000
-25.672300 0.000000
-25.633800 0.000000
-25.595400 0.000000
-25.556900 0.000000
-25.518400 0.000000
-25.480000 0.000000
-25.441500 0.000000
-25.403100 0.000000
-25.364600 0.000000
-25.326200 0.000000
-25.287700 0.000000
-25.249300 0.000000
-25.210800 0.000000
-25.172300 0.000000
-25.133900 0.000000
-25.095400 0.000000
-25.057000 0.000000
-25.018500 0.000000
-24.980100 0.000000
-24.941600 0.000000
-24.903100 0.000000
-24.864700 0.000000
-24.826200 0.000000
-24.787800 0.000000
-24.749300 0.000000
-24.710900 0.000000
-24.672400 0.000000
-24.634000 0.000000
-24.595500 0.000000
-24.557000 0.000000
-24.518600 0.000000
-24.480100 0.000000
-24.441700 0.000000
-24.403200 0.000000
-24.364800 0.000000
-24.326300 0.000000
-24.287800 0.000000
-24.249400 0.000000
-24.210900 0.000000
-24.172500 0.000000
-24.134000 0.000000
-24.095600 0.000000
-24.057100 0.000000
-24.018700 0.000000
-23.980200 0.000000
-23.941700 0.000000
-23.903300 0.000000
-23.864800 0.000000
-23.826400 0.000000
-23.787900 0.000000
-23.749500 0.000000
-23.711000 0.000000
-23.672500 0.000000
-23.634100 0.000000
-23.595600 0.000000
-23.557200 0.000000
-23.518700 0.000000
-23.480300 0.000000
-23.441800 0.000000
-23.403400 0.000000
-23.364900 0.000000
-23.326400 0.000000
-23.288000 0.000000
-23.249500 0.000000
-23.211100 0.000000
-23.172600 0.000000
-23.134200 0.000000
-23.095700 0.000000
-23.057200 0.000000
-23.018800 0.000000
-22.980300 0.000000
-22.941900 0.000000
-22.903400 0.000000
-22.865000 0.000000
-22.826500 0.000000
-22.788100 0.000000
-22.749600 0.000000
-22.711100 0.000000
-22.672700 0.000000
-22.634200 0.000000
-22.595800 0.000000
-22.557300 0.000000
-22.518900 0.000000
-22.480400 0.000000
-22.441900 0.000000
-22.403500 0.000000
-22.365000 0.000000
-22.326600 0.000000
-22.288100 0.000000
-22.249700 0.000000
-22.211200 0.000000
-22.172800 0.000000
-22.134300 0.000000
-22.095800 0.000000
-22.057400 0.000000
-22.018900 0.000000
-21.980500 0.000000
-21.942000 0.000000
-21.903600 0.000000
-21.865100 0.000000
-21.826600 0.000000
-21.788200 0.000000
-21.749700 0.000000
-21.711300 0.000000
-21.672800 0.000000
-21.634400 0.000000
-21.595900 0.000000
-21.557500 0.000000
-21.519000 0.000000
-21.480500 0.000000
-21.442100 0.000000
-21.403600 0.000000
-21.365200 0.000000
-21.326700 0.000000
-21.288300 0.000000
-21.249800 0.000000
-21.211300 0.000000
-21.172900 0.000000
-21.134400 0.000000
-21.096000 0.000000
-21.057500 0.000000
-21.019100 0.000000
-20.980600 0.000000
-20.942200 0.000000
-20.903700 0.000000
-20.865200 0.000000
-20.826800 0.000000
-20.788300 0.000000
-20.749900 0.000000
-20.711400 0.000000
-20.673000 0.000000
-20.634500 0.000000
-20.596000 0.000000
-20.557600 0.000000
-20.519100 0.000000
-20.480700 0.000000
-20.442200 0.000000
-20.403800 0.000000
-20.365300 0.000000
-20.326900 0.000000
-20.288400 0.000000
-20.249900 0.000000
-20.211500 0.000000
-20.173000 0.000000
-20.134600 0.000000
-20.096100 0.000000
-20.057700 0.000000
-20.019200 0.000000
-19.980700 0.000000
-19.942300 0.000000
-19.903800 0.000000
-19.865400 0.000000
-19.826900 0.000000
-19.788500 0.000000
-19.750000 0.000000
-19.711600 0.000000
-19.673100 0.000000
-19.634600 0.000000
-19.596200 0.000000
-19.557700 0.000000
-19.519300 0.000000
-19.480800 0.000000
-19.442400 0.000000
-19.403900 0.000000
-19.365400 0.000000
-19.327000 0.000000
-19.288500 0.000000
-19.250100 0.000000
-19.211600 0.000000
-19.173200 0.000000
-19.134700 0.000000
-19.096300 0.000000
-19.057800 0.000000
-19.019300 0.000000
-18.980900 0.000000
-18.942400 0.000000
-18.904000 0.000000
-18.865500 0.000000
-18.827100 0.000000
-18.788600 0.000000
-18.750100 0.000000
-18.711700 0.000000
-18.673200 0.000000
-18.634800 0.000000
-18.596300 0.000000
-18.557900 0.000000
-18.519400 0.000000
-18.481000 0.000000
-18.442500 0.000000
-18.404000 0.000000
-18.365600 0.000000
-18.327100 0.000000
-18.288700 0.000000
-18.250200 0.000000
-18.211800 0.000000
-18.173300 0.000000
-18.134800 0.000000
-18.096400 0.000000
-18.057900 0.000000
-18.019500 0.000000
-17.981000 0.000000
-17.942600 0.000000
-17.904100 0.000000
-17.865700 0.000000
-17.827200 0.000000
-17.788700 0.000000
-17.750300 0.000000
-17.711800 0.000000
-17.673400 0.000000
-17.634900 0.000000
-17.596500 0.000000
-17.558000 0.000000
-17.519500 0.000000
-17.481100 0.000000
-17.442600 0.000000
-17.404200 0.000000
-17.365700 0.000000
-17.327300 0.000000
-17.288800 0.000000
-17.250400 0.000000
-17.211900 0.000000
-17.173400 0.000000
-17.135000 0.000000
-17.096500 0.000000
-17.058100 0.000000
-17.019600 0.000000
-16.981200 0.000000
-16.942700 0.000000
-16.904200 0.000000
-16.865800 0.000000
-16.827300 0.000000
-16.788900 0.000000
-16.750400 0.000000
-16.712000 0.000000
-16.673500 0.000000
-16.635100 0.000000
-16.596600 0.000000
-16.558100 0.000000
-16.519700 0.000000
-16.481200 0.000000
-16.442800 0.000000
-16.404300 0.000000
-16.365900 0.000000
-16.327400 0.000000
-16.288900 0.000000
-16.250500 0.000000
-16.212000 0.000000
-16.173600 0.000000
-16.135100 0.000000
-16.096700 0.000000
-16.058200 0.000000
-16.019800 0.000000
-15.981300 0.000000
-15.942800 0.000000
-15.904400 0.000000
-15.865900 0.000000
-15.827500 0.000000
-15.789000 0.000000
-15.750600 0.000000
-15.712100 0.000000
-15.673700 0.000000
-15.635200 0.000000
-15.596700 0.000000
-15.558300 0.000000
-15.519800 0.000000
-15.481400 0.000000
-15.442900 0.000000
-15.404500 0.000000
-15.366000 0.000000
-15.327500 0.000000
-15.289100 0.000000
-15.250600 0.000000
-15.212200 0.000000
-15.173700 0.000000
-15.135300 0.000000
-15.096800 0.000000
-15.058400 0.000000
-15.019900 0.000000
-14.981400 0.000000
-14.943000 0.000000
-14.904500 0.000000
-14.866100 0.000000
-14.827600 0.000000
-14.789200 0.000000
-14.750700 0.000000
-14.712200 0.000000
-14.673800 0.000000
-14.635300 0.000000
-14.596900 0.000000
-14.558400 0.000000
-14.520000 0.000000
-14.481500 0.000000
-14.443100 0.000000
-14.404600 0.000000
-14.366100 0.000000
-14.327700 0.000000
-14.289200 0.000000
-14.250800 0.000000
-14.212300 0.000000
-14.173900 0.000000
-14.135400 0.000000
-14.096900 0.000000
-14.058500 0.000000
-14.020000 0.000000
-13.981600 0.000000
-13.943100 0.000000
-13.904700 0.000000
-13.866200 0.000000
-13.827800 0.000000
-13.789300 0.000000
-13.750800 0.000000
-13.712400 0.000000
-13.673900 0.000000
-13.635500 0.000000
-13.597000 0.000000
-13.558600 0.000000
-13.520100 0.000000
-13.481600 0.000000
-13.443200 0.000000
-13.404700 0.000000
-13.366300 0.000000
-13.327800 0.000000
-13.289400 0.051400
-13.250900 0.220300
-13.212500 0.285100
-13.174000 0.380400
-13.135500 0.431500
-13.097100 0.497000
-13.058600 0.567700
-13.020200 0.641800
-12.981700 0.707900
-12.943300 0.777600
-12.904800 0.861700
-12.866300 0.951900
-12.827900 1.045300
-12.789400 1.156700
-12.751000 1.274800
-12.712500 1.412300
-12.674100 1.586900
-12.635600 1.834100
-12.597200 2.104900
-12.558700 2.432100
-12.520200 3.014100
-12.481800 3.252800
-12.443300 3.705100
-12.404900 4.001100
-12.366400 4.196100
-12.328000 5.346700
-12.289500 5.562000
-12.251000 5.156700
-12.212600 5.243000
-12.174100 4.925400
-12.135700 4.744600
-12.097200 4.644000
-12.058800 4.580000
-12.020300 4.577100
-11.981900 4.702300
-11.943400 5.183100
-11.904900 5.216900
-11.866500 4.509800
-11.828000 2.136500
-11.789600 0.025900
-11.751100 0.000000
-11.712700 0.000000
-11.674200 0.000000
-11.635700 0.000000
-11.597300 0.000000
-11.558800 0.000000
-11.520400 0.000000
-11.481900 0.000000
-11.443500 0.000000
-11.405000 0.000000
-11.366600 0.000000
-11.328100 0.000000
-11.289600 0.000000
-11.251200 0.000000
-11.212700 0.000000
-11.174300 0.000000
-11.135800 0.000000
-11.097400 0.000000
-11.058900 0.000000
-11.020400 0.000000
-10.982000 0.000000
-10.943500 0.000000
-10.905100 0.000000
-10.866600 0.000000
-10.828200 0.000000
-10.789700 0.000000
-10.751300 0.000000
-10.712800 0.000000
-10.674300 0.000000
-10.635900 0.000000
-10.597400 0.000000
-10.559000 0.000000
-10.520500 0.000000
-10.482100 0.000000
-10.443600 0.000000
-10.405100 0.000000
-10.366700 0.000000
-10.328200 0.000000
-10.289800 0.000000
-10.251300 0.000000
-10.212900 0.000000
-10.174400 0.000000
-10.136000 0.000000
-10.097500 0.000000
-10.059000 0.000000
-10.020600 0.000000
-9.982100 0.000000
-9.943700 0.000000
-9.905200 0.000000
-9.866800 0.000000
-9.828300 0.000000
-9.789800 0.000000
-9.751400 0.000000
-9.712900 0.000000
-9.674500 0.000000
-9.636000 0.000000
-9.597600 0.000000
-9.559100 0.000000
-9.520700 0.000000
-9.482200 0.000000
-9.443700 0.000000
-9.405300 0.000000
-9.366800 0.000000
-9.328400 0.000000
-9.289900 0.000000
-9.251500 0.000000
-9.213000 0.000000
-9.174500 0.000000
-9.136100 0.000000
-9.097600 0.000000
-9.059200 0.000000
-9.020700 0.000000
-8.982300 0.000000
-8.943800 0.000000
-8.905400 0.000000
-8.866900 0.000000
-8.828400 0.000000
-8.790000 0.000000
-8.751500 0.000000
-8.713100 0.000000
-8.674600 0.000000
-8.636200 0.000000
-8.597700 0.000000
-8.559200 0.000000
-8.520800 0.000000
-8.482300 0.000000
-8.443900 0.000000
-8.405400 0.000000
-8.367000 0.000000
-8.328500 0.000000
-8.290100 0.000000
-8.251600 0.000000
-8.213100 0.000000
-8.174700 0.000000
-8.136200 0.000000
-8.097800 0.000000
-8.059300 0.000000
-8.020900 0.000000
-7.982400 0.000000
-7.943900 0.000000
-7.905500 0.000000
-7.867000 0.000000
-7.828600 0.003000
-7.790100 0.026000
-7.751700 0.064700
-7.713200 0.091500
-7.674800 0.098500
-7.636300 0.111500
-7.597800 0.128800
-7.559400 0.144000
-7.520900 0.156300
-7.482500 0.168100
-7.444000 0.181000
-7.405600 0.194800
-7.367100 0.206800
-7.328600 0.219800
-7.290200 0.231600
-7.251700 0.241900
-7.213300 0.255200
-7.174800 0.268400
-7.136400 0.281400
-7.097900 0.294800
-7.059500 0.308800
-7.021000 0.323400
-6.982500 0.339800
-6.944100 0.355900
-6.905600 0.371100
-6.867200 0.386700
-6.828700 0.402800
-6.790300 0.419100
-6.751800 0.439100
-6.713300 0.460500
-6.674900 0.482100
-6.636400 0.504400
-6.598000 0.527200
-6.559500 0.553200
-6.521100 0.590600
-6.482600 0.632700
-6.444200 0.667500
-6.405700 0.685800
-6.367200 0.742700
-6.328800 1.048600
-6.290300 1.318900
-6.251900 1.651900
-6.213400 1.798900
-6.175000 1.992500
-6.136500 2.085800
-6.098000 2.121400
-6.059600 2.135300
-6.021100 2.188800
-5.982700 2.241600
-5.944200 2.296700
-5.905800 2.358300
-5.867300 2.417000
-5.828900 2.511100
-5.790400 2.623700
-5.751900 2.737100
-5.713500 2.842000
-5.675000 2.971500
-5.636600 3.243500
-5.598100 3.393000
-5.559700 3.343600
-5.521200 3.261400
-5.482700 3.214600
-5.444300 3.206400
-5.405800 3.109800
-5.367400 2.973400
-5.328900 2.847600
-5.290500 2.769500
-5.252000 2.697700
-5.213600 2.295900
-5.175100 1.979200
-5.136600 1.827000
-5.098200 1.627300
-5.059700 1.422200
-5.021300 1.258100
-4.982800 1.127800
-4.944400 1.006400
-4.905900 0.899500
-4.867400 0.806900
-4.829000 0.727500
-4.790500 0.637600
-4.752100 0.547900
-4.713600 0.480300
-4.675200 0.409300
-4.636700 0.345700
-4.598300 0.260100
-4.559800 0.150000
-4.521300 0.050700
-4.482900 0.015800
-4.444400 0.000900
-4.406000 0.000000
-4.367500 0.000000
-4.329100 0.000000
-4.290600 0.000000
-4.252100 0.000000
-4.213700 0.000000
-4.175200 0.000000
-4.136800 0.000000
-4.098300 0.000000
-4.059900 0.000000
-4.021400 0.000000
-3.983000 0.000000
-3.944500 0.000000
-3.906000 0.000000
-3.867600 0.000000
-3.829100 0.000000
-3.790700 0.000000
-3.752200 0.000000
-3.713800 0.000000
-3.675300 0.000000
-3.636800 0.000000
-3.598400 0.000000
-3.559900 0.000000
-3.521500 0.000000
-3.483000 0.000000
-3.444600 0.001300
-3.406100 0.005700
-3.367700 0.011800
-3.329200 0.019200
-3.290700 0.028100
-3.252300 0.044800
-3.213800 0.076900
-3.175400 0.086500
-3.136900 0.086900
-3.098500 0.098000
-3.060000 0.104800
-3.021500 0.113100
-2.983100 0.126300
-2.944600 0.138100
-2.906200 0.147500
-2.867700 0.157300
-2.829300 0.167500
-2.790800 0.180400
-2.752400 0.194500
-2.713900 0.210200
-2.675400 0.225300
-2.637000 0.239200
-2.598500 0.253100
-2.560100 0.270000
-2.521600 0.292700
-2.483200 0.309700
-2.444700 0.328300
-2.406200 0.347600
-2.367800 0.368800
-2.329300 0.394300
-2.290900 0.427400
-2.252400 0.462500
-2.214000 0.500800
-2.175500 0.546300
-2.137100 0.601400
-2.098600 0.739100
-2.060100 0.928800
-2.021700 1.125200
-1.983200 1.327600
-1.944800 1.830000
-1.906300 2.153500
-1.867900 2.500700
-1.829400 2.782800
-1.790900 3.198900
-1.752500 3.233700
-1.714000 3.231100
-1.675600 3.189900
-1.637100 3.118300
-1.598700 3.085900
-1.560200 3.001800
-1.521800 2.984200
-1.483300 3.037800
-1.444800 3.007700
-1.406400 2.981900
-1.367900 2.988500
-1.329500 3.019800
-1.291000 3.278900
-1.252600 3.240100
-1.214100 3.218200
-1.175600 2.828800
-1.137200 2.600300
-1.098700 2.469500
-1.060300 2.496900
-1.021800 2.730300
-0.983400 2.417500
-0.944900 2.303900
-0.906500 2.314700
-0.868000 2.550600
-0.829500 2.750600
-0.791100 2.387700
-0.752600 2.035300
-0.714200 1.748800
-0.675700 1.742000
-0.637300 1.830000
-0.598800 2.074800
-0.560300 2.679500
-0.521900 3.288300
-0.483400 3.329400
-0.445000 3.049400
-0.406500 2.879600
-0.368100 2.914700
-0.329600 2.966500
-0.291200 3.136000
-0.252700 3.630400
-0.214200 3.397300
-0.175800 3.338500
-0.137300 3.472300
-0.098900 3.496000
-0.060400 3.554500
-0.022000 3.468900
0.016500 3.079800
0.055000 2.805400
0.093400 2.498400
0.131900 2.312500
0.170300 2.187100
0.208800 2.246500
0.247200 2.210100
0.285700 2.189300
0.324100 2.063300
0.362600 1.997800
0.401100 2.011300
0.439500 2.051800
0.478000 2.045400
0.516400 2.141500
0.554900 2.111600
0.593300 2.140000
0.631800 2.205200
0.670300 2.306300
0.708700 2.409400
0.747200 2.488100
0.785600 2.580000
0.824100 2.659900
0.862500 2.501400
0.901000 2.506400
0.939400 2.556500
0.977900 2.534500
1.016400 2.614300
1.054800 2.991400
1.093300 3.362100
1.131700 3.654500
1.170200 4.116200
1.208600 4.915200
1.247100 4.990300
1.285600 4.549800
1.324000 3.652500
1.362500 3.281400
1.400900 2.971600
1.439400 2.882400
1.477800 2.838400
1.516300 2.814400
1.554700 2.767000
1.593200 2.863600
1.631700 2.708600
1.670100 2.750900
1.708600 2.290800
1.747000 1.988500
1.785500 1.939400
1.823900 2.003200
1.862400 2.084400
1.900900 2.087700
1.939300 1.859800
1.977800 1.689900
2.016200 1.644500
2.054700 1.580500
2.093100 1.586700
2.131600 1.547700
2.170000 1.496200
2.208500 1.564900
2.247000 1.636800
2.285400 1.546100
2.323900 1.460000
2.362300 1.434000
2.400800 1.411500
2.439200 1.352700
2.477700 1.329000
2.516200 1.291900
2.554600 1.336000
2.593100 1.482900
2.631500 1.576900
2.670000 1.629400
2.708400 1.667500
2.746900 1.721000
2.785300 1.748700
2.823800 1.999300
2.862300 2.116800
2.900700 2.074900
2.939200 2.078800
2.977600 2.078800
3.016100 2.165800
3.054500 2.290400
3.093000 2.346200
3.131500 2.429100
3.169900 2.474600
3.208400 2.642900
3.246800 2.704000
3.285300 2.733000
3.323700 2.784200
3.362200 2.835500
3.400600 2.871200
3.439100 2.954000
3.477600 3.065100
3.516000 3.232800
3.554500 3.135900
3.592900 2.902300
3.631400 2.641000
3.669800 2.599500
3.708300 2.782000
3.746800 2.958000
3.785200 3.120000
3.823700 3.394600
3.862100 3.423400
3.900600 3.282000
3.939000 3.194700
3.977500 3.072900
4.015900 3.023900
4.054400 3.004500
4.092900 2.834600
4.131300 2.722400
4.169800 2.548300
4.208200 2.593900
4.246700 2.566100
4.285100 2.752000
4.323600 3.165100
4.362100 3.363800
4.400500 3.407400
4.439000 3.521900
4.477400 3.526000
4.515900 3.403500
4.554300 3.065200
4.592800 2.915600
4.631200 2.897600
4.669700 2.800400
4.708200 2.788900
4.746600 2.780100
4.785100 2.746200
4.823500 2.751600
4.862000 2.904300
4.900400 2.916200
4.938900 2.575200
4.977400 2.485600
5.015800 2.550800
5.054300 2.516500
5.092700 2.473700
5.131200 2.321000
5.169600 2.207000
5.208100 2.145800
5.246500 2.189800
5.285000 2.261200
5.323500 2.213900
5.361900 2.137400
5.400400 2.137900
5.438800 2.246100
5.477300 2.395000
5.515700 2.466500
5.554200 2.649500
5.592700 3.180400
5.631100 3.992800
5.669600 4.003500
5.708000 4.119000
5.746500 3.935900
5.784900 3.753800
5.823400 3.639300
5.861800 3.739100
5.900300 3.908500
5.938800 4.301100
5.977200 4.576200
6.015700 4.236700
6.054100 3.808100
6.092600 3.273900
6.131000 3.097300
6.169500 2.976300
6.208000 2.911000
6.246400 2.890600
6.284900 2.395200
6.323300 2.269100
6.361800 2.065400
6.400200 1.940300
6.438700 1.814200
6.477100 1.769900
6.515600 1.780400
6.554100 1.780200
6.592500 1.691200
6.631000 1.674500
6.669400 2.429900
6.707900 2.259400
6.746300 2.109400
6.784800 2.423700
6.823300 2.787700
6.861700 2.443300
6.900200 2.386000
6.938600 2.272400
6.977100 2.275100
7.015500 2.446300
7.054000 2.636300
7.092400 2.507000
7.130900 2.350800
7.169400 2.209700
7.207800 2.101800
7.246300 2.074400
7.284700 2.025100
7.323200 1.992100
7.361600 2.012700
7.400100 2.018100
7.438600 2.072600
7.477000 1.995600
7.515500 1.814500
7.553900 1.705700
7.592400 1.590200
7.630800 1.582800
7.669300 1.593100
7.707700 1.627200
7.746200 1.628300
7.784700 1.638500
7.823100 1.744500
7.861600 1.722300
7.900000 1.746600
7.938500 1.790300
7.976900 1.899500
8.015400 2.084900
8.053900 2.273500
8.092300 2.153400
8.130800 2.095700
8.169200 2.013300
8.207700 1.911400
8.246100 1.904300
8.284600 1.903000
8.323000 1.880000
8.361500 1.914500
8.400000 1.925600
8.438400 1.969400
8.476900 2.129900
8.515300 1.982900
8.553800 1.951000
8.592200 2.011900
8.630700 2.062400
8.669200 2.177700
8.707600 2.298800
8.746100 2.414400
8.784500 2.538000
8.823000 2.671800
8.861400 2.757200
8.899900 2.770100
8.938300 2.811900
8.976800 3.268500
9.015300 2.578000
9.053700 2.472100
9.092200 2.380000
9.130600 2.353200
9.169100 2.397000
9.207500 2.414100
9.246000 2.414600
9.284500 2.614500
9.322900 2.720700
9.361400 3.007300
9.399800 2.915700
9.438300 2.953300
9.476700 2.944700
9.515200 3.158800
9.553600 3.616400
9.592100 4.424000
9.630600 4.126500
9.669000 3.993300
9.707500 3.703600
9.745900 3.694000
9.784400 3.634400
9.822800 3.551100
9.861300 3.638200
9.899700 3.506800
9.938200 3.212300
9.976700 3.036900
10.015100 2.591900
10.053600 1.946000
10.092000 1.797600
10.130500 1.714400
10.168900 1.524400
10.207400 1.343600
10.245900 1.168900
10.284300 1.168700
10.322800 0.773200
10.361200 0.279700
10.399700 0.116600
10.438100 0.118100
10.476600 0.126600
10.515000 0.150500
10.553500 0.196700
10.592000 0.293900
10.630400 0.377600
10.668900 0.454300
10.707300 0.560400
10.745800 0.620000
10.784200 0.776300
10.822700 1.029800
10.861200 1.109200
10.899600 1.206400
10.938100 1.458300
10.976500 1.818200
11.015000 1.855200
11.053400 1.838100
11.091900 1.874200
11.130300 1.934300
11.168800 2.032800
11.207300 2.136900
11.245700 2.263300
11.284200 2.433300
11.322600 2.726000
11.361100 2.987000
11.399500 3.212400
11.438000 3.491100
11.476500 3.167100
11.514900 3.013800
11.553400 2.950300
11.591800 3.001000
11.630300 2.997100
11.668700 2.955400
11.707200 2.946300
11.745600 2.970600
11.784100 3.010500
11.822600 3.076300
11.861000 3.173700
11.899500 3.229400
11.937900 3.280300
11.976400 3.309100
12.014800 3.208700
12.053300 3.083700
12.091800 2.979400
12.130200 2.889400
12.168700 2.816200
12.207100 2.743900
12.245600 2.696200
12.284000 2.659200
12.322500 2.626000
12.360900 2.595000
12.399400 2.566200
12.437900 2.544600
12.476300 2.531800
12.514800 2.525900
12.553200 2.525200
12.591700 2.526700
12.630100 2.530800
12.668600 2.537000
12.707100 2.555600
12.745500 2.592300
12.784000 2.634900
12.822400 2.686700
12.860900 2.718000
12.899300 2.709600
12.937800 2.682500
12.976200 2.708600
13.014700 2.719100
13.053200 2.773500
13.091600 2.890600
13.130100 2.876500
13.168500 2.833400
13.207000 2.823000
13.245400 2.832600
13.283900 2.850100
13.322400 2.902900
13.360800 2.764900
13.399300 2.655200
13.437700 2.586000
13.476200 2.541500
13.514600 2.444600
13.553100 2.311500
13.591500 2.254000
13.630000 2.267900
13.668500 2.347900
13.706900 2.431200
13.745400 2.229600
13.783800 1.913600
13.822300 1.791400
13.860700 1.830500
13.899200 1.712700
13.937700 1.526500
13.976100 1.279200
14.014600 1.067000
14.053000 0.942800
14.091500 0.786100
14.129900 0.658700
14.168400 0.552800
14.206800 0.541200
14.245300 0.562700
14.283800 0.601900
14.322200 0.654300
14.360700 0.717400
14.399100 0.758600
14.437600 0.795700
14.476000 0.862300
14.514500 0.922500
14.553000 1.019600
14.591400 1.030700
14.629900 1.093500
14.668300 1.190900
14.706800 1.289600
14.745200 1.388800
14.783700 1.474500
14.822100 1.581900
14.860600 1.680700
14.899100 1.765900
14.937500 1.828600
14.976000 1.919800
15.014400 1.991000
15.052900 1.988000
15.091300 1.979600
15.129800 1.918700
15.168300 1.965600
15.206700 2.017600
15.245200 2.073200
15.283600 2.126000
15.322100 2.189600
15.360500 2.388600
15.399000 2.182400
15.437400 2.087700
15.475900 2.010100
15.514400 1.935200
15.552800 1.890400
15.591300 1.851900
15.629700 1.773800
15.668200 1.755100
15.706600 1.741300
15.745100 1.724700
15.783600 1.710200
15.822000 1.701500
15.860500 1.710800
15.898900 1.704500
15.937400 1.676900
15.975800 1.632100
16.014300 1.588000
16.052700 1.553600
16.091200 1.544700
16.129700 1.500300
16.168100 1.487600
16.206600 1.486700
16.245000 1.484700
16.283500 1.470700
16.321900 1.455000
16.360400 1.439900
16.398900 1.406900
16.437300 1.353200
16.475800 1.313500
16.514200 1.314600
16.552700 1.278400
16.591100 1.220200
16.629600 1.208700
16.668000 1.235900
16.706500 1.254300
16.745000 1.289200
16.783400 1.326300
16.821900 1.374400
16.860300 1.440700
16.898800 1.520000
16.937200 1.581700
16.975700 1.642600
17.014200 1.638300
17.052600 1.646900
17.091100 1.673000
17.129500 1.657800
17.168000 1.609100
17.206400 1.603400
17.244900 1.616600
17.283300 1.647600
17.321800 1.688100
17.360300 1.736200
17.398700 1.774700
17.437200 1.810500
17.475600 1.871100
17.514100 1.952300
17.552500 2.058600
17.591000 2.131700
17.629500 2.166300
17.667900 2.130200
17.706400 2.131600
17.744800 2.162700
17.783300 2.202700
17.821700 2.263200
17.860200 2.311800
17.898600 2.441500
17.937100 2.545000
17.975600 2.679600
18.014000 2.917800
18.052500 3.011800
18.090900 2.870200
18.129400 2.499300
18.167800 2.376900
18.206300 2.336100
18.244800 2.481600
18.283200 2.471800
18.321700 2.466900
18.360100 2.336600
18.398600 2.301500
18.437000 2.193200
18.475500 2.108600
18.513900 2.059100
18.552400 2.071400
18.590900 2.307600
18.629300 2.477800
18.667800 2.457800
18.706200 2.363200
18.744700 2.037500
18.783100 1.890500
18.821600 2.105000
18.860100 2.098400
18.898500 2.168600
18.937000 2.176200
18.975400 1.969200
19.013900 1.906400
19.052300 1.937800
19.090800 2.022000
19.129200 2.141700
19.167700 2.192200
19.206200 2.321100
19.244600 2.481100
19.283100 2.528300
19.321500 2.524400
19.360000 2.534900
19.398400 2.438600
19.436900 2.440600
19.475400 2.436300
19.513800 2.447600
19.552300 2.475900
19.590700 2.533300
19.629200 2.569600
19.667600 2.538500
19.706100 2.320200
19.744500 2.155400
19.783000 2.045100
19.821500 2.050500
19.859900 2.196900
19.898400 2.340500
19.936800 2.330500
19.975300 2.130000
20.013700 2.113600
20.052200 2.109900
20.090700 2.138000
20.129100 2.096800
20.167600 2.047000
20.206000 1.998500
20.244500 2.036900
20.282900 2.162700
20.321400 2.491400
20.359800 2.610500
20.398300 2.682400
20.436800 2.558700
20.475200 2.553500
20.513700 2.615000
20.552100 2.695300
20.590600 2.682000
20.629000 2.661600
20.667500 2.602900
20.706000 2.525100
20.744400 2.374800
20.782900 2.332600
20.821300 2.308700
20.859800 2.411200
20.898200 2.368500
20.936700 2.354700
20.975100 2.367100
21.013600 2.434700
21.052100 2.499200
21.090500 2.468200
21.129000 2.399600
21.167400 2.370500
21.205900 2.334100
21.244300 2.437900
21.282800 2.409000
21.321300 2.135800
21.359700 2.015500
21.398200 1.928000
21.436600 1.773700
21.475100 1.615900
21.513500 1.444900
21.552000 1.407200
21.590400 1.445500
21.628900 1.578500
21.667400 1.683500
21.705800 1.710300
21.744300 1.802800
21.782700 1.897600
21.821200 2.069600
21.859600 2.125300
21.898100 2.005800
21.936600 2.039000
21.975000 2.056000
22.013500 2.261600
22.051900 2.299400
22.090400 2.233400
22.128800 2.205800
22.167300 1.986700
22.205700 1.957300
22.244200 2.003100
22.282700 1.988200
22.321100 1.943400
22.359600 1.920500
22.398000 1.914500
22.436500 2.020600
22.474900 2.008600
22.513400 1.971000
22.551900 2.033300
22.590300 2.168800
22.628800 2.221300
22.667200 2.197700
22.705700 2.155800
22.744100 2.146200
22.782600 2.190500
22.821000 2.137500
22.859500 2.116600
22.898000 2.178200
22.936400 2.115400
22.974900 2.077400
23.013300 2.064700
23.051800 2.018700
23.090200 1.998100
23.128700 1.968100
23.167200 1.906500
23.205600 1.812300
23.244100 1.755300
23.282500 1.632200
23.321000 1.552100
23.359400 1.632500
23.397900 1.627500
23.436300 1.652600
23.474800 1.709800
23.513300 1.745400
23.551700 1.828900
23.590200 1.903200
23.628600 1.921800
23.667100 1.918000
23.705500 1.911600
23.744000 1.894600
23.782500 1.905500
23.820900 1.941600
23.859400 1.979000
23.897800 2.002300
23.936300 2.026400
23.974700 1.960200
24.013200 1.957000
24.051600 1.966400
24.090100 2.058200
24.128600 2.175400
24.167000 2.305200
24.205500 2.275000
24.243900 2.174300
24.282400 2.152100
24.320800 2.178200
24.359300 2.192200
24.397800 2.226200
24.436200 2.106300
24.474700 2.004500
24.513100 1.957000
24.551600 1.943100
24.590000 1.928600
24.628500 1.899400
24.666900 1.907000
24.705400 1.986700
24.743900 1.870200
24.782300 1.843200
24.820800 1.832700
24.859200 1.828400
24.897700 1.825500
24.936100 1.873100
24.974600 2.013500
25.013100 1.948300
25.051500 1.920700
25.090000 1.843700
25.128400 1.769500
25.166900 1.734900
25.205300 1.706500
25.243800 1.710000
25.282200 1.747200
25.320700 1.738600
25.359200 1.669200
25.397600 1.634800
25.436100 1.623700
25.474500 1.627600
25.513000 1.629000
25.551400 1.648700
25.589900 1.686300
25.628400 1.747300
25.666800 1.876700
25.705300 1.908400
25.743700 1.883000
25.782200 1.823600
25.820600 1.751300
25.859100 1.715200
25.897500 1.628000
25.936000 1.536700
25.974500 1.499100
26.012900 1.438500
26.051400 1.369000
26.089800 1.275900
26.128300 1.200200
26.166700 1.235000
26.205200 1.113700
26.243700 1.079100
26.282100 1.025900
26.320600 1.009500
26.359000 1.027300
26.397500 1.054600
26.435900 1.080000
26.474400 1.085900
26.512800 1.082500
26.551300 1.102300
26.589800 1.132100
26.628200 1.147400
26.666700 1.153300
26.705100 1.168500
26.743600 1.212700
26.782000 1.276500
26.820500 1.321500
26.859000 1.407600
26.897400 1.498100
26.935900 1.464800
26.974300 1.470300
27.012800 1.465500
27.051200 1.428100
27.089700 1.393500
27.128100 1.363000
27.166600 1.341600
27.205100 1.331300
27.243500 1.325100
27.282000 1.332600
27.320400 1.351400
27.358900 1.376500
27.397300 1.397800
27.435800 1.426300
27.474300 1.452300
27.512700 1.479100
27.551200 1.516800
27.589600 1.524500
27.628100 1.501600
27.666500 1.467900
27.705000 1.417000
27.743400 1.423400
27.781900 1.394500
27.820400 1.318600
27.858800 1.285600
27.897300 1.276800
27.935700 1.321700
27.974200 1.417700
28.012600 1.520700
28.051100 1.628600
28.089600 1.711100
28.128000 1.783600
28.166500 1.859400
28.204900 2.008200
28.243400 2.330600
28.281800 2.538000
28.320300 2.539800
28.358700 2.360000
28.397200 2.282500
28.435700 2.303500
28.474100 2.379100
28.512600 2.363700
28.551000 2.381000
28.589500 2.319900
28.627900 2.218400
28.666400 2.204500
28.704900 2.291700
28.743300 2.400300
28.781800 2.517800
28.820200 2.825100
28.858700 3.029800
28.897100 3.042900
28.935600 3.033800
28.974000 2.999600
29.012500 2.920600
29.051000 2.924900
29.089400 2.911400
29.127900 2.835900
29.166300 2.674900
29.204800 2.453300
29.243200 2.327800
29.281700 2.275600
29.320200 2.240400
29.358600 2.189000
29.397100 2.206200
29.435500 2.313600
29.474000 2.261900
29.512400 2.135200
29.550900 1.962900
29.589300 1.874300
29.627800 1.865900
29.666300 1.899100
29.704700 2.001000
29.743200 2.072000
29.781600 2.072500
29.820100 2.058000
29.858500 2.027700
29.897000 1.981500
29.935500 1.967500
29.973900 2.064600
30.012400 2.130900
30.050800 2.222500
30.089300 2.272600
30.127700 2.331500
30.166200 2.390600
30.204600 2.419900
30.243100 2.425800
30.281600 2.443100
30.320000 2.469000
30.358500 2.489000
30.396900 2.515000
30.435400 2.487000
30.473800 2.410500
30.512300 2.347500
30.550800 2.331700
30.589200 2.403800
30.627700 2.352100
30.666100 2.333000
30.704600 2.167800
30.743000 2.131800
30.781500 2.121500
30.819900 2.156700
30.858400 2.206000
30.896900 2.281100
30.935300 2.164000
30.973800 2.116400
31.012200 1.988400
31.050700 1.976300
31.089100 2.017500
31.127600 1.969900
31.166100 2.020700
31.204500 2.172800
31.243000 2.333400
31.281400 2.487700
31.319900 2.554200
31.358300 2.611000
31.396800 2.653700
31.435200 2.646100
31.473700 2.595100
31.512200 2.516500
31.550600 2.409500
31.589100 2.314700
31.627500 2.239300
31.666000 2.170500
31.704400 2.147200
31.742900 2.261400
31.781400 2.288800
31.819800 2.205200
31.858300 2.135600
31.896700 2.058300
31.935200 1.979200
31.973600 1.892100
32.012100 1.825700
32.050500 1.747500
32.089000 1.683500
32.127500 1.631800
32.165900 1.584300
32.204400 1.533300
32.242800 1.496800
32.281300 1.401900
32.319700 1.196200
32.358200 1.090400
32.396700 1.021000
32.435100 0.913900
32.473600 0.743300
32.512000 0.653000
32.550500 0.576100
32.588900 0.525500
32.627400 0.475600
32.665800 0.421500
32.704300 0.370200
32.742800 0.318500
32.781200 0.272600
32.819700 0.229100
32.858100 0.174300
32.896600 0.103900
32.935000 0.089200
32.973500 0.085300
33.012000 0.081900
33.050400 0.078700
33.088900 0.075900
33.127300 0.073200
33.165800 0.070300
33.204200 0.067600
33.242700 0.064800
33.281100 0.063000
33.319600 0.061200
33.358100 0.059200
33.396500 0.057200
33.435000 0.055200
33.473400 0.053200
33.511900 0.051200
33.550300 0.049300
33.588800 0.047300
33.627300 0.045400
33.665700 0.043500
33.704200 0.041600
33.742600 0.039700
33.781100 0.037800
33.819500 0.036000
33.858000 0.034600
33.896400 0.033400
33.934900 0.032200
33.973400 0.031100
34.011800 0.029900
34.050300 0.028800
34.088700 0.027900
34.127200 0.027300
34.165600 0.027000
34.204100 0.027000
34.242600 0.025300
34.281000 0.020400
34.319500 0.013400
34.357900 0.004500
34.396400 0.000000
34.434800 0.000000
34.473300 0.000000
34.511700 0.000000
34.550200 0.000000
34.588700 0.000000
34.627100 0.000000
34.665600 0.000000
34.704000 0.000000
34.742500 0.000000
34.780900 0.000000
34.819400 0.000000
34.857900 0.000000
34.896300 0.000000
34.934800 0.000000
34.973200 0.000000
35.011700 0.000000
35.050100 0.000000
35.088600 0.000000
35.127000 0.000000
35.165500 0.000000
35.204000 0.000000
35.242400 0.000000
35.280900 0.000000
35.319300 0.000000
35.357800 0.000000
35.396200 0.000000
35.434700 0.000000
35.473100 0.000000
35.511600 0.000000
35.550100 0.000000
35.588500 0.000000
35.627000 0.000000
35.665400 0.000000
35.703900 0.000000
35.742300 0.000000
35.780800 0.000000
35.819300 0.000000
35.857700 0.000000
35.896200 0.000000
35.934600 0.000000
35.973100 0.000000
36.011500 0.000000
36.050000 0.000000
36.088400 0.000000
36.126900 0.000000
36.165400 0.000000
36.203800 0.000000
36.242300 0.000000
36.280700 0.000000
36.319200 0.000000
36.357600 0.000000
36.396100 0.000000
36.434600 0.000000
36.473000 0.000000
36.511500 0.000000
36.549900 0.000000
36.588400 0.000000
36.626800 0.000000
36.665300 0.000000
36.703700 0.000000
36.742200 0.000000
36.780700 0.000000
36.819100 0.000000
36.857600 0.000000
36.896000 0.000000
36.934500 0.000000
36.972900 0.000000
37.011400 0.000000
37.049900 0.000000
37.088300 0.000000
37.126800 0.000000
37.165200 0.000000
37.203700 0.000000
37.242100 0.000000
37.280600 0.000000
37.319000 0.000000
37.357500 0.000000
37.396000 0.000000
37.434400 0.000000
37.472900 0.000000
37.511300 0.000000
37.549800 0.000000
37.588200 0.000000
37.626700 0.000000
37.665200 0.000000
37.703600 0.000000
37.742100 0.000000
37.780500 0.000000
37.819000 0.000000
37.857400 0.000000
37.895900 0.000000
e
