set title 'mp-1225704 - Density of States'
set xlabel 'Energy (eV)'
set ylabel 'DOS (states/eV)'
set grid
set xrange [-10:10]
set yrange [0:4.611]
set xzeroaxis lt -1
set terminal png size 800,600
set output 'mp-1225704_dos_gnuplot.png'
plot '-' using 1:2 with lines title 'DOS'
-69.687200 0.000000
-69.617100 0.000000
-69.547000 0.000000
-69.476800 0.000000
-69.406700 0.000000
-69.336600 0.000000
-69.266500 0.000000
-69.196400 0.000000
-69.126300 0.000000
-69.056100 0.000000
-68.986000 0.000000
-68.915900 0.000000
-68.845800 0.000000
-68.775700 0.000000
-68.705500 0.000000
-68.635400 0.000000
-68.565300 0.000000
-68.495200 0.000000
-68.425100 0.000000
-68.355000 0.000000
-68.284800 0.000000
-68.214700 0.000000
-68.144600 0.000000
-68.074500 0.000000
-68.004400 0.000000
-67.934200 0.000000
-67.864100 0.000000
-67.794000 0.000000
-67.723900 0.000000
-67.653800 0.000000
-67.583700 0.000000
-67.513500 0.000000
-67.443400 0.000000
-67.373300 0.000000
-67.303200 0.000000
-67.233100 0.000000
-67.162900 0.000000
-67.092800 0.000000
-67.022700 0.000000
-66.952600 0.000000
-66.882500 0.000000
-66.812400 0.000000
-66.742200 0.000000
-66.672100 0.000000
-66.602000 0.000000
-66.531900 0.000000
-66.461800 0.000000
-66.391600 0.000000
-66.321500 0.000000
-66.251400 0.000000
-66.181300 0.000000
-66.111200 0.000000
-66.041100 0.000000
-65.970900 0.000000
-65.900800 0.000000
-65.830700 0.000000
-65.760600 0.000000
-65.690500 0.000000
-65.620400 0.000000
-65.550200 0.000000
-65.480100 0.000000
-65.410000 0.000000
-65.339900 0.000000
-65.269800 0.000000
-65.199600 0.000000
-65.129500 0.000000
-65.059400 0.000000
-64.989300 0.000000
-64.919200 0.000000
-64.849100 0.000000
-64.778900 0.000000
-64.708800 0.000000
-64.638700 0.000000
-64.568600 0.000000
-64.498500 0.000000
-64.428300 0.000000
-64.358200 0.000000
-64.288100 0.000000
-64.218000 0.000000
-64.147900 0.000000
-64.077800 0.000000
-64.007600 0.000000
-63.937500 0.000000
-63.867400 0.000000
-63.797300 0.000000
-63.727200 0.000000
-63.657000 0.000000
-63.586900 0.000000
-63.516800 0.000000
-63.446700 0.000000
-63.376600 0.000000
-63.306500 0.000000
-63.236300 46.726600
-63.166200 0.000000
-63.096100 0.000000
-63.026000 0.000000
-62.955900 0.000000
-62.885700 0.000000
-62.815600 0.000000
-62.745500 0.000000
-62.675400 0.000000
-62.605300 0.000000
-62.535200 0.000000
-62.465000 0.000000
-62.394900 0.000000
-62.324800 0.000000
-62.254700 0.000000
-62.184600 0.000000
-62.114400 0.000000
-62.044300 0.000000
-61.974200 0.000000
-61.904100 0.000000
-61.834000 0.000000
-61.763900 0.000000
-61.693700 0.000000
-61.623600 0.000000
-61.553500 0.000000
-61.483400 0.000000
-61.413300 0.000000
-61.343100 0.000000
-61.273000 0.000000
-61.202900 0.000000
-61.132800 0.000000
-61.062700 0.000000
-60.992600 0.000000
-60.922400 0.000000
-60.852300 0.000000
-60.782200 0.000000
-60.712100 0.000000
-60.642000 0.000000
-60.571800 0.000000
-60.501700 0.000000
-60.431600 0.000000
-60.361500 0.000000
-60.291400 0.000000
-60.221300 0.000000
-60.151100 0.000000
-60.081000 0.000000
-60.010900 0.000000
-59.940800 0.000000
-59.870700 0.000000
-59.800500 0.000000
-59.730400 0.000000
-59.660300 0.000000
-59.590200 0.000000
-59.520100 0.000000
-59.450000 0.000000
-59.379800 0.000000
-59.309700 0.000000
-59.239600 0.000000
-59.169500 0.000000
-59.099400 0.000000
-59.029200 0.000000
-58.959100 0.000000
-58.889000 0.000000
-58.818900 0.000000
-58.748800 0.000000
-58.678700 0.000000
-58.608500 0.000000
-58.538400 0.000000
-58.468300 0.000000
-58.398200 0.000000
-58.328100 0.000000
-58.257900 0.000000
-58.187800 0.000000
-58.117700 0.000000
-58.047600 0.000000
-57.977500 0.000000
-57.907400 0.000000
-57.837200 0.000000
-57.767100 0.000000
-57.697000 0.000000
-57.626900 0.000000
-57.556800 0.000000
-57.486600 0.000000
-57.416500 0.000000
-57.346400 0.000000
-57.276300 0.000000
-57.206200 0.000000
-57.136100 0.000000
-57.065900 0.000000
-56.995800 0.000000
-56.925700 0.000000
-56.855600 0.000000
-56.785500 0.000000
-56.715300 0.000000
-56.645200 0.000000
-56.575100 0.000000
-56.505000 0.000000
-56.434900 0.000000
-56.364800 0.000000
-56.294600 0.000000
-56.224500 0.000000
-56.154400 0.000000
-56.084300 0.000000
-56.014200 0.000000
-55.944000 0.000000
-55.873900 0.000000
-55.803800 0.000000
-55.733700 0.000000
-55.663600 0.000000
-55.593500 0.000000
-55.523300 0.000000
-55.453200 0.000000
-55.383100 0.000000
-55.313000 0.000000
-55.242900 0.000000
-55.172700 0.000000
-55.102600 0.000000
-55.032500 0.000000
-54.962400 0.000000
-54.892300 0.000000
-54.822200 0.000000
-54.752000 0.000000
-54.681900 0.000000
-54.611800 0.000000
-54.541700 0.000000
-54.471600 0.000000
-54.401400 0.000000
-54.331300 0.000000
-54.261200 0.000000
-54.191100 0.000000
-54.121000 0.000000
-54.050900 0.000000
-53.980700 0.000000
-53.910600 0.000000
-53.840500 0.000000
-53.770400 0.000000
-53.700300 0.000000
-53.630100 0.000000
-53.560000 0.000000
-53.489900 0.000000
-53.419800 0.000000
-53.349700 0.000000
-53.279600 0.000000
-53.209400 0.000000
-53.139300 0.000000
-53.069200 0.000000
-52.999100 0.000000
-52.929000 0.000000
-52.858800 0.000000
-52.788700 0.000000
-52.718600 0.000000
-52.648500 0.000000
-52.578400 0.000000
-52.508300 0.000000
-52.438100 0.000000
-52.368000 0.000000
-52.297900 0.000000
-52.227800 0.000000
-52.157700 0.000000
-52.087500 0.000000
-52.017400 0.000000
-51.947300 0.000000
-51.877200 0.000000
-51.807100 0.000000
-51.737000 0.000000
-51.666800 0.000000
-51.596700 0.000000
-51.526600 0.000000
-51.456500 0.000000
-51.386400 0.000000
-51.316200 0.000000
-51.246100 0.000000
-51.176000 0.000000
-51.105900 0.000000
-51.035800 0.000000
-50.965700 0.000000
-50.895500 0.000000
-50.825400 0.000000
-50.755300 0.000000
-50.685200 0.000000
-50.615100 0.000000
-50.544900 0.000000
-50.474800 0.000000
-50.404700 0.000000
-50.334600 0.000000
-50.264500 0.000000
-50.194400 0.000000
-50.124200 0.000000
-50.054100 0.000000
-49.984000 0.000000
-49.913900 0.000000
-49.843800 0.000000
-49.773600 0.000000
-49.703500 0.000000
-49.633400 0.000000
-49.563300 0.000000
-49.493200 0.000000
-49.423100 0.000000
-49.352900 0.000000
-49.282800 0.000000
-49.212700 0.000000
-49.142600 0.000000
-49.072500 0.000000
-49.002300 0.000000
-48.932200 0.000000
-48.862100 0.000000
-48.792000 0.000000
-48.721900 0.000000
-48.651800 0.000000
-48.581600 0.000000
-48.511500 0.000000
-48.441400 0.000000
-48.371300 0.000000
-48.301200 0.000000
-48.231000 0.000000
-48.160900 0.000000
-48.090800 0.000000
-48.020700 0.000000
-47.950600 0.000000
-47.880500 0.000000
-47.810300 0.000000
-47.740200 0.000000
-47.670100 0.000000
-47.600000 0.000000
-47.529900 0.000000
-47.459700 0.000000
-47.389600 0.000000
-47.319500 0.000000
-47.249400 0.000000
-47.179300 0.000000
-47.109200 0.000000
-47.039000 0.000000
-46.968900 0.000000
-46.898800 0.000000
-46.828700 0.000000
-46.758600 0.000000
-46.688400 0.000000
-46.618300 0.000000
-46.548200 0.000000
-46.478100 0.000000
-46.408000 0.000000
-46.337900 0.000000
-46.267700 0.000000
-46.197600 0.000000
-46.127500 0.000000
-46.057400 0.000000
-45.987300 0.000000
-45.917100 0.000000
-45.847000 0.000000
-45.776900 0.000000
-45.706800 0.000000
-45.636700 0.000000
-45.566600 0.000000
-45.496400 0.000000
-45.426300 0.000000
-45.356200 0.000000
-45.286100 0.000000
-45.216000 0.000000
-45.145800 0.000000
-45.075700 0.000000
-45.005600 0.000000
-44.935500 0.000000
-44.865400 0.000000
-44.795300 0.000000
-44.725100 0.000000
-44.655000 0.000000
-44.584900 0.000000
-44.514800 0.000000
-44.444700 0.000000
-44.374500 0.000000
-44.304400 0.000000
-44.234300 0.000000
-44.164200 0.000000
-44.094100 0.000000
-44.024000 0.000000
-43.953800 0.000000
-43.883700 0.000000
-43.813600 0.000000
-43.743500 0.000000
-43.673400 0.000000
-43.603200 0.000000
-43.533100 0.000000
-43.463000 0.000000
-43.392900 0.000000
-43.322800 0.000000
-43.252700 0.000000
-43.182500 0.000000
-43.112400 0.000000
-43.042300 0.000000
-42.972200 0.000000
-42.902100 0.000000
-42.831900 0.000000
-42.761800 0.000000
-42.691700 0.000000
-42.621600 0.000000
-42.551500 0.000000
-42.481400 0.000000
-42.411200 0.000000
-42.341100 0.000000
-42.271000 0.000000
-42.200900 0.000000
-42.130800 0.000000
-42.060600 0.000000
-41.990500 0.000000
-41.920400 0.000000
-41.850300 0.000000
-41.780200 0.000000
-41.710100 0.000000
-41.639900 0.000000
-41.569800 0.000000
-41.499700 0.000000
-41.429600 0.000000
-41.359500 0.000000
-41.289300 0.000000
-41.219200 0.000000
-41.149100 0.000000
-41.079000 0.000000
-41.008900 0.000000
-40.938800 0.000000
-40.868600 0.000000
-40.798500 0.000000
-40.728400 0.000000
-40.658300 0.000000
-40.588200 0.000000
-40.518000 0.000000
-40.447900 0.000000
-40.377800 0.000000
-40.307700 0.000000
-40.237600 3.763100
-40.167500 4.153500
-40.097300 1.515300
-40.027200 2.273800
-39.957100 3.235500
-39.887000 5.238900
-39.816900 4.454200
-39.746700 9.308800
-39.676600 0.000000
-39.606500 0.000000
-39.536400 0.000000
-39.466300 0.000000
-39.396200 0.000000
-39.326000 0.000000
-39.255900 0.000000
-39.185800 0.000000
-39.115700 0.000000
-39.045600 0.000000
-38.975400 0.000000
-38.905300 0.000000
-38.835200 0.000000
-38.765100 0.000000
-38.695000 0.000000
-38.624900 0.000000
-38.554700 0.000000
-38.484600 0.000000
-38.414500 0.000000
-38.344400 0.000000
-38.274300 0.000000
-38.204200 0.000000
-38.134000 0.000000
-38.063900 0.000000
-37.993800 0.000000
-37.923700 0.000000
-37.853600 0.000000
-37.783400 0.000000
-37.713300 0.000000
-37.643200 0.000000
-37.573100 0.000000
-37.503000 0.000000
-37.432900 0.000000
-37.362700 0.000000
-37.292600 0.000000
-37.222500 0.000000
-37.152400 0.000000
-37.082300 0.000000
-37.012100 0.000000
-36.942000 0.000000
-36.871900 0.000000
-36.801800 0.000000
-36.731700 0.000000
-36.661600 0.000000
-36.591400 0.000000
-36.521300 0.000000
-36.451200 0.000000
-36.381100 0.000000
-36.311000 0.000000
-36.240800 0.000000
-36.170700 0.000000
-36.100600 0.000000
-36.030500 0.000000
-35.960400 0.000000
-35.890300 0.000000
-35.820100 0.000000
-35.750000 0.000000
-35.679900 0.000000
-35.609800 0.000000
-35.539700 0.000000
-35.469500 0.000000
-35.399400 0.000000
-35.329300 0.000000
-35.259200 0.000000
-35.189100 0.000000
-35.119000 0.000000
-35.048800 0.000000
-34.978700 0.000000
-34.908600 0.000000
-34.838500 0.000000
-34.768400 0.000000
-34.698200 0.000000
-34.628100 0.000000
-34.558000 0.000000
-34.487900 0.000000
-34.417800 0.000000
-34.347700 0.000000
-34.277500 0.000000
-34.207400 0.000000
-34.137300 0.000000
-34.067200 0.000000
-33.997100 0.000000
-33.926900 0.000000
-33.856800 0.000000
-33.786700 0.000000
-33.716600 0.000000
-33.646500 0.000000
-33.576400 0.000000
-33.506200 0.000000
-33.436100 0.000000
-33.366000 0.000000
-33.295900 0.000000
-33.225800 0.000000
-33.155600 0.000000
-33.085500 0.000000
-33.015400 0.000000
-32.945300 0.000000
-32.875200 0.000000
-32.805100 0.000000
-32.734900 0.000000
-32.664800 0.000000
-32.594700 0.000000
-32.524600 0.000000
-32.454500 0.000000
-32.384300 0.000000
-32.314200 0.000000
-32.244100 0.000000
-32.174000 0.000000
-32.103900 0.000000
-32.033800 0.000000
-31.963600 0.000000
-31.893500 0.000000
-31.823400 0.000000
-31.753300 0.000000
-31.683200 0.000000
-31.613000 0.000000
-31.542900 0.000000
-31.472800 0.000000
-31.402700 0.000000
-31.332600 0.000000
-31.262500 0.000000
-31.192300 0.000000
-31.122200 0.000000
-31.052100 0.000000
-30.982000 0.000000
-30.911900 0.000000
-30.841700 0.000000
-30.771600 0.000000
-30.701500 0.000000
-30.631400 0.000000
-30.561300 0.000000
-30.491200 0.000000
-30.421000 0.000000
-30.350900 0.000000
-30.280800 0.000000
-30.210700 0.000000
-30.140600 0.000000
-30.070400 0.000000
-30.000300 0.000000
-29.930200 0.000000
-29.860100 0.000000
-29.790000 0.000000
-29.719900 0.000000
-29.649700 0.000000
-29.579600 0.000000
-29.509500 0.000000
-29.439400 0.000000
-29.369300 0.000000
-29.299100 0.000000
-29.229000 0.000000
-29.158900 0.000000
-29.088800 0.000000
-29.018700 0.000000
-28.948600 0.000000
-28.878400 0.000000
-28.808300 0.000000
-28.738200 0.000000
-28.668100 0.000000
-28.598000 0.000000
-28.527800 0.000000
-28.457700 0.000000
-28.387600 0.000000
-28.317500 0.000000
-28.247400 0.000000
-28.177300 0.000000
-28.107100 0.000000
-28.037000 0.000000
-27.966900 0.000000
-27.896800 0.000000
-27.826700 0.000000
-27.756500 0.000000
-27.686400 0.000000
-27.616300 0.000000
-27.546200 0.000000
-27.476100 0.000000
-27.406000 0.000000
-27.335800 0.000000
-27.265700 0.000000
-27.195600 0.000000
-27.125500 0.000000
-27.055400 0.000000
-26.985200 0.000000
-26.915100 0.000000
-26.845000 0.000000
-26.774900 0.000000
-26.704800 0.000000
-26.634700 0.000000
-26.564500 0.000000
-26.494400 0.000000
-26.424300 0.000000
-26.354200 0.000000
-26.284100 0.000000
-26.213900 0.000000
-26.143800 0.000000
-26.073700 0.000000
-26.003600 0.000000
-25.933500 0.000000
-25.863400 0.000000
-25.793200 0.000000
-25.723100 0.000000
-25.653000 0.000000
-25.582900 0.000000
-25.512800 0.000000
-25.442600 0.000000
-25.372500 0.000000
-25.302400 0.000000
-25.232300 0.000000
-25.162200 0.000000
-25.092100 0.000000
-25.021900 0.000000
-24.951800 0.000000
-24.881700 0.000000
-24.811600 0.000000
-24.741500 0.000000
-24.671300 0.000000
-24.601200 0.000000
-24.531100 0.000000
-24.461000 0.000000
-24.390900 0.000000
-24.320800 0.000000
-24.250600 0.000000
-24.180500 0.000000
-24.110400 0.000000
-24.040300 0.000000
-23.970200 0.000000
-23.900000 0.000000
-23.829900 0.000000
-23.759800 0.000000
-23.689700 0.000000
-23.619600 0.000000
-23.549500 0.000000
-23.479300 0.000000
-23.409200 0.000000
-23.339100 0.000000
-23.269000 0.000000
-23.198900 0.000000
-23.128700 0.000000
-23.058600 0.000000
-22.988500 0.000000
-22.918400 0.000000
-22.848300 0.000000
-22.778200 0.000000
-22.708000 0.000000
-22.637900 0.000000
-22.567800 0.000000
-22.497700 0.000000
-22.427600 0.000000
-22.357400 0.000000
-22.287300 0.000000
-22.217200 0.000000
-22.147100 0.000000
-22.077000 0.000000
-22.006900 0.000000
-21.936700 0.000000
-21.866600 0.000000
-21.796500 0.000000
-21.726400 0.000000
-21.656300 0.000000
-21.586100 0.000000
-21.516000 0.000000
-21.445900 0.000000
-21.375800 0.000000
-21.305700 0.000000
-21.235600 0.000000
-21.165400 0.000000
-21.095300 0.000000
-21.025200 0.000000
-20.955100 0.000000
-20.885000 0.000000
-20.814800 0.000000
-20.744700 0.000000
-20.674600 0.000000
-20.604500 0.000000
-20.534400 0.000000
-20.464300 0.000000
-20.394100 0.000000
-20.324000 0.000000
-20.253900 0.000000
-20.183800 0.000000
-20.113700 0.000000
-20.043500 0.000000
-19.973400 0.000000
-19.903300 0.000000
-19.833200 0.000000
-19.763100 0.000000
-19.693000 0.000000
-19.622800 0.000000
-19.552700 0.000000
-19.482600 0.000000
-19.412500 0.000000
-19.342400 0.000000
-19.272200 0.000000
-19.202100 0.000000
-19.132000 0.000000
-19.061900 0.000000
-18.991800 0.000000
-18.921700 0.000000
-18.851500 0.000000
-18.781400 0.000000
-18.711300 0.000000
-18.641200 0.000000
-18.571100 0.000000
-18.500900 0.000000
-18.430800 0.000000
-18.360700 0.000000
-18.290600 0.000000
-18.220500 0.000000
-18.150400 0.000000
-18.080200 0.000000
-18.010100 0.000000
-17.940000 0.000000
-17.869900 0.000000
-17.799800 0.000000
-17.729600 0.000000
-17.659500 0.000000
-17.589400 0.000000
-17.519300 0.000000
-17.449200 0.000000
-17.379100 0.000000
-17.308900 0.000000
-17.238800 0.000000
-17.168700 0.000000
-17.098600 0.000000
-17.028500 0.000000
-16.958300 0.000000
-16.888200 0.000000
-16.818100 0.000000
-16.748000 0.000000
-16.677900 0.000000
-16.607800 0.000000
-16.537600 0.000000
-16.467500 0.000000
-16.397400 0.000000
-16.327300 0.000000
-16.257200 0.000000
-16.187000 0.000000
-16.116900 0.000000
-16.046800 0.000000
-15.976700 0.000000
-15.906600 0.000000
-15.836500 0.000000
-15.766300 0.000000
-15.696200 0.000000
-15.626100 0.000000
-15.556000 0.000000
-15.485900 0.000000
-15.415700 0.000000
-15.345600 0.000000
-15.275500 0.000000
-15.205400 0.000000
-15.135300 0.000000
-15.065200 0.000000
-14.995000 0.000000
-14.924900 0.000000
-14.854800 0.000000
-14.784700 0.000000
-14.714600 0.000000
-14.644400 0.000000
-14.574300 0.000000
-14.504200 0.000000
-14.434100 0.000000
-14.364000 0.000000
-14.293900 0.000000
-14.223700 0.000000
-14.153600 0.000000
-14.083500 0.000000
-14.013400 0.000000
-13.943300 0.000000
-13.873100 0.000000
-13.803000 0.000000
-13.732900 0.000000
-13.662800 0.000000
-13.592700 0.000000
-13.522600 0.000000
-13.452400 0.000000
-13.382300 0.000000
-13.312200 0.000000
-13.242100 0.000000
-13.172000 0.000000
-13.101800 0.000000
-13.031700 0.000000
-12.961600 0.000000
-12.891500 0.000000
-12.821400 0.000000
-12.751300 0.000000
-12.681100 0.000000
-12.611000 0.000000
-12.540900 0.000000
-12.470800 0.000000
-12.400700 0.000000
-12.330500 0.000000
-12.260400 0.000000
-12.190300 0.000000
-12.120200 0.000000
-12.050100 0.000000
-11.980000 0.000000
-11.909800 0.000000
-11.839700 0.000000
-11.769600 0.000000
-11.699500 0.000000
-11.629400 0.000000
-11.559300 0.000000
-11.489100 0.000000
-11.419000 0.000000
-11.348900 0.000000
-11.278800 0.000000
-11.208700 0.000000
-11.138500 0.000000
-11.068400 0.000000
-10.998300 0.000000
-10.928200 0.000000
-10.858100 0.000000
-10.788000 0.000000
-10.717800 0.000000
-10.647700 0.000000
-10.577600 0.000000
-10.507500 0.000000
-10.437400 0.000000
-10.367200 0.000000
-10.297100 0.000000
-10.227000 0.000000
-10.156900 0.000000
-10.086800 0.000000
-10.016700 0.000000
-9.946500 0.000000
-9.876400 0.000000
-9.806300 0.000000
-9.736200 0.000000
-9.666100 0.000000
-9.595900 0.000000
-9.525800 0.000000
-9.455700 0.000000
-9.385600 0.000000
-9.315500 0.000000
-9.245400 0.000000
-9.175200 0.000000
-9.105100 0.000000
-9.035000 0.000000
-8.964900 0.000000
-8.894800 0.000000
-8.824600 0.000000
-8.754500 0.000000
-8.684400 0.000000
-8.614300 0.000000
-8.544200 0.000000
-8.474100 0.000000
-8.403900 0.000000
-8.333800 0.000000
-8.263700 0.000000
-8.193600 0.000000
-8.123500 0.000000
-8.053300 0.000000
-7.983200 0.000000
-7.913100 0.000000
-7.843000 0.000000
-7.772900 0.000000
-7.702800 0.000000
-7.632600 0.000000
-7.562500 0.000000
-7.492400 0.000000
-7.422300 0.000000
-7.352200 0.000000
-7.282000 0.000000
-7.211900 0.000000
-7.141800 0.000000
-7.071700 0.000000
-7.001600 0.000000
-6.931500 0.000000
-6.861300 0.000000
-6.791200 0.000000
-6.721100 0.000000
-6.651000 0.000000
-6.580900 0.000000
-6.510700 0.000000
-6.440600 0.000000
-6.370500 0.000000
-6.300400 0.000000
-6.230300 0.000000
-6.160200 0.000000
-6.090000 0.000000
-6.019900 0.000000
-5.949800 0.000000
-5.879700 0.000000
-5.809600 0.000000
-5.739400 0.000000
-5.669300 0.000000
-5.599200 0.000000
-5.529100 0.000000
-5.459000 0.000000
-5.388900 0.000000
-5.318700 0.000000
-5.248600 0.000000
-5.178500 0.000000
-5.108400 0.000000
-5.038300 0.000000
-4.968100 0.000000
-4.898000 0.000000
-4.827900 0.000000
-4.757800 0.000000
-4.687700 0.000000
-4.617600 0.000000
-4.547400 0.000000
-4.477300 0.000000
-4.407200 0.000000
-4.337100 0.000000
-4.267000 0.000000
-4.196800 0.000000
-4.126700 0.000000
-4.056600 0.000000
-3.986500 0.000000
-3.916400 0.000000
-3.846300 0.000000
-3.776100 0.000000
-3.706000 0.000000
-3.635900 0.000000
-3.565800 0.000000
-3.495700 0.000000
-3.425500 0.000000
-3.355400 0.000000
-3.285300 0.000000
-3.215200 0.000000
-3.145100 0.000000
-3.075000 0.000000
-3.004800 0.000000
-2.934700 0.000000
-2.864600 0.000000
-2.794500 0.000000
-2.724400 0.000000
-2.654200 0.000000
-2.584100 0.000000
-2.514000 0.000000
-2.443900 0.000000
-2.373800 0.000000
-2.303700 0.000000
-2.233500 0.000000
-2.163400 0.000000
-2.093300 0.000000
-2.023200 0.000000
-1.953100 0.000000
-1.882900 0.000000
-1.812800 0.000000
-1.742700 0.003400
-1.672600 0.020700
-1.602500 0.026800
-1.532400 0.033900
-1.462200 0.039700
-1.392100 0.046300
-1.322000 0.050900
-1.251900 0.054200
-1.181800 0.058500
-1.111600 0.063200
-1.041500 0.067900
-0.971400 0.072500
-0.901300 0.076400
-0.831200 0.080400
-0.761100 0.084400
-0.690900 0.088400
-0.620800 0.092800
-0.550700 0.097400
-0.480600 0.102200
-0.410500 0.107100
-0.340300 0.112100
-0.270200 0.116900
-0.200100 0.122200
-0.130000 0.127800
-0.059900 0.133800
0.010200 0.141100
0.080400 0.150200
0.150500 0.160300
0.220600 0.166800
0.290700 0.175200
0.360800 0.181600
0.431000 0.187800
0.501100 0.208400
0.571200 0.220100
0.641300 0.237800
0.711400 0.260900
0.781500 0.292300
0.851700 0.481100
0.921800 0.676700
0.991900 0.675100
1.062000 0.751100
1.132100 0.828300
1.202300 1.129900
1.272400 1.329300
1.342500 1.226000
1.412600 1.127800
1.482700 1.119300
1.552800 1.119400
1.623000 1.169000
1.693100 1.146100
1.763200 1.169900
1.833300 1.188100
1.903400 1.205500
1.973600 1.225900
2.043700 1.385400
2.113800 1.747800
2.183900 1.734900
2.254000 1.815700
2.324100 1.892500
2.394300 1.814400
2.464400 1.584000
2.534500 1.639600
2.604600 1.503500
2.674700 1.407000
2.744900 1.328100
2.815000 1.109100
2.885100 1.376200
2.955200 1.847900
3.025300 1.944200
3.095400 2.421700
3.165600 1.989400
3.235700 1.968300
3.305800 2.221800
3.375900 2.517000
3.446000 2.619500
3.516200 3.006700
3.586300 2.746400
3.656400 3.151500
3.726500 4.192100
3.796600 3.998700
3.866700 3.760700
3.936900 2.504500
4.007000 2.942400
4.077100 2.143400
4.147200 2.562900
4.217300 2.318300
4.287500 2.301800
4.357600 2.390100
4.427700 2.595900
4.497800 2.257800
4.567900 2.030900
4.638000 1.783800
4.708200 1.958200
4.778300 2.231900
4.848400 2.110300
4.918500 2.232600
4.988600 2.164200
5.058800 1.985100
5.128900 1.552000
5.199000 2.275000
5.269100 1.740400
5.339200 1.447700
5.409300 1.340900
5.479500 1.256100
5.549600 1.427000
5.619700 1.524400
5.689800 1.498900
5.759900 1.510100
5.830100 1.573600
5.900200 1.716100
5.970300 1.863500
6.040400 1.599900
6.110500 1.552800
6.180600 1.402400
6.250800 1.101400
6.320900 0.919300
6.391000 0.872100
6.461100 0.546600
6.531200 0.511300
6.601400 0.484300
6.671500 0.448800
6.741600 0.432600
6.811700 0.425100
6.881800 0.422800
6.951900 0.422600
7.022100 0.422800
7.092200 0.420400
7.162300 0.402200
7.232400 0.390700
7.302500 0.377700
7.372700 0.359500
7.442800 0.354300
7.512900 0.349400
7.583000 0.347300
7.653100 0.348400
7.723200 0.348600
7.793400 0.347200
7.863500 0.346100
7.933600 0.349100
8.003700 0.351800
8.073800 0.343800
8.144000 0.324400
8.214100 0.315200
8.284200 0.305100
8.354300 0.297700
8.424400 0.293800
8.494500 0.290700
8.564700 0.286100
8.634800 0.282200
8.704900 0.278200
8.775000 0.274800
8.845100 0.271700
8.915300 0.270400
8.985400 0.272100
9.055500 0.276800
9.125600 0.277800
9.195700 0.266800
9.265800 0.260000
9.336000 0.255100
9.406100 0.251200
9.476200 0.247000
9.546300 0.243700
9.616400 0.242400
9.686600 0.241000
9.756700 0.240400
9.826800 0.240000
9.896900 0.239900
9.967000 0.240300
10.037100 0.241400
10.107300 0.264600
10.177400 0.286700
10.247500 0.267300
10.317600 0.247300
10.387700 0.211200
10.457900 0.198500
10.528000 0.199800
10.598100 0.203600
10.668200 0.209800
10.738300 0.225300
10.808400 0.210400
10.878600 0.196900
10.948700 0.194400
11.018800 0.193000
11.088900 0.192500
11.159000 0.192600
11.229200 0.195200
11.299300 0.197800
11.369400 0.199100
11.439500 0.200300
11.509600 0.214700
11.579700 0.226900
11.649900 0.270100
11.720000 0.174600
11.790100 0.165300
11.860200 0.157900
11.930300 0.155500
12.000500 0.149300
12.070600 0.142200
12.140700 0.133500
12.210800 0.128700
12.280900 0.160300
12.351000 0.184900
12.421200 0.227800
12.491300 0.268800
12.561400 0.274300
12.631500 0.259300
12.701600 0.264700
12.771800 0.283100
12.841900 0.306700
12.912000 0.316800
12.982100 0.309300
13.052200 0.303400
13.122300 0.323400
13.192500 0.305300
13.262600 0.313300
13.332700 0.318800
13.402800 0.320100
13.472900 0.329100
13.543100 0.346400
13.613200 0.374100
13.683300 0.345500
13.753400 0.339600
13.823500 0.331900
13.893600 0.324800
13.963800 0.322800
14.033900 0.322700
14.104000 0.324400
14.174100 0.318200
14.244200 0.310600
14.314400 0.302200
14.384500 0.296000
14.454600 0.290400
14.524700 0.276200
14.594800 0.264700
14.664900 0.258400
14.735100 0.254500
14.805200 0.254000
14.875300 0.251900
14.945400 0.236900
15.015500 0.225500
15.085600 0.218500
15.155800 0.215300
15.225900 0.217800
15.296000 0.214600
15.366100 0.206700
15.436200 0.199800
15.506400 0.199100
15.576500 0.201200
15.646600 0.203500
15.716700 0.210400
15.786800 0.234500
15.856900 0.251000
15.927100 0.263900
15.997200 0.272600
16.067300 0.294500
16.137400 0.292400
16.207500 0.295200
16.277700 0.298600
16.347800 0.370400
16.417900 0.425200
16.488000 0.441800
16.558100 0.442900
16.628200 0.446800
16.698400 0.434800
16.768500 0.409000
16.838600 0.425300
16.908700 0.445000
16.978800 0.483200
17.049000 0.500700
17.119100 0.503300
17.189200 0.495300
17.259300 0.482600
17.329400 0.471600
17.399500 0.456500
17.469700 0.427700
17.539800 0.418600
17.609900 0.415700
17.680000 0.415800
17.750100 0.421600
17.820300 0.430100
17.890400 0.442800
17.960500 0.446700
18.030600 0.462700
18.100700 0.454000
18.170800 0.453800
18.241000 0.456000
18.311100 0.462000
18.381200 0.471300
18.451300 0.481300
18.521400 0.481800
18.591600 0.482800
18.661700 0.483500
18.731800 0.480400
18.801900 0.484400
18.872000 0.485700
18.942100 0.485000
19.012300 0.486600
19.082400 0.481200
19.152500 0.480100
19.222600 0.479900
19.292700 0.481800
19.362900 0.485100
19.433000 0.487500
19.503100 0.490100
19.573200 0.492800
19.643300 0.494600
19.713400 0.500400
19.783600 0.498600
19.853700 0.494600
19.923800 0.487500
19.993900 0.484500
20.064000 0.477600
20.134200 0.473300
20.204300 0.470100
20.274400 0.466400
20.344500 0.463800
20.414600 0.457600
20.484700 0.452900
20.554900 0.452000
20.625000 0.449600
20.695100 0.449700
20.765200 0.449500
20.835300 0.445800
20.905500 0.442400
20.975600 0.440200
21.045700 0.435700
21.115800 0.428300
21.185900 0.423700
21.256000 0.423700
21.326200 0.425800
21.396300 0.422100
21.466400 0.413300
21.536500 0.390100
21.606600 0.383400
21.676800 0.378900
21.746900 0.374700
21.817000 0.369700
21.887100 0.364800
21.957200 0.358200
22.027300 0.347900
22.097500 0.343000
22.167600 0.346300
22.237700 0.338700
22.307800 0.342500
22.377900 0.347500
22.448100 0.356100
22.518200 0.373700
22.588300 0.371000
22.658400 0.381800
22.728500 0.409700
22.798600 0.438300
22.868800 0.445800
22.938900 0.448700
23.009000 0.457800
23.079100 0.467600
23.149200 0.477800
23.219400 0.487200
23.289500 0.492900
23.359600 0.494700
23.429700 0.497200
23.499800 0.494800
23.569900 0.493000
23.640100 0.497300
23.710200 0.493400
23.780300 0.483900
23.850400 0.555300
23.920500 0.491900
23.990700 0.484700
24.060800 0.485200
24.130900 0.482300
24.201000 0.471500
24.271100 0.475500
24.341200 0.512500
24.411400 0.483300
24.481500 0.483100
24.551600 0.482400
24.621700 0.482000
24.691800 0.482400
24.762000 0.478700
24.832100 0.477700
24.902200 0.474900
24.972300 0.466400
25.042400 0.450000
25.112500 0.445400
25.182700 0.421400
25.252800 0.422500
25.322900 0.415600
25.393000 0.404200
25.463100 0.397900
25.533300 0.400900
25.603400 0.405600
25.673500 0.411300
25.743600 0.419900
25.813700 0.427900
25.883800 0.434500
25.954000 0.438900
26.024100 0.445500
26.094200 0.455000
26.164300 0.521900
26.234400 0.532000
26.304600 0.542900
26.374700 0.525100
26.444800 0.524600
26.514900 0.523500
26.585000 0.581000
26.655100 0.530600
26.725300 0.508900
26.795400 0.506900
26.865500 0.532300
26.935600 0.543400
27.005700 0.561300
27.075900 0.585300
27.146000 0.629800
27.216100 0.654200
27.286200 0.643300
27.356300 0.578500
27.426400 0.585200
27.496600 0.582600
27.566700 0.566800
27.636800 0.562500
27.706900 0.579800
27.777000 0.587000
27.847200 0.588700
27.917300 0.587400
27.987400 0.599500
28.057500 0.597900
28.127600 0.586600
28.197700 0.575200
28.267900 0.585700
28.338000 0.601400
28.408100 0.565800
28.478200 0.562100
28.548300 0.544100
28.618500 0.540000
28.688600 0.537600
28.758700 0.540900
28.828800 0.560000
28.898900 0.565900
28.969000 0.567800
29.039200 0.574500
29.109300 0.566300
29.179400 0.561200
29.249500 0.561700
29.319600 0.565800
29.389800 0.574500
29.459900 0.585000
29.530000 0.579700
29.600100 0.575200
29.670200 0.569800
29.740300 0.571700
29.810500 0.548200
29.880600 0.519200
29.950700 0.479800
30.020800 0.452600
30.090900 0.455900
30.161100 0.448500
30.231200 0.445900
30.301300 0.446100
30.371400 0.450700
30.441500 0.464900
30.511600 0.481900
30.581800 0.495500
30.651900 0.510200
30.722000 0.533100
30.792100 0.579800
30.862200 0.621500
30.932400 0.670300
31.002500 0.777200
31.072600 0.978300
31.142700 3.079300
31.212800 2.112000
31.282900 1.101400
31.353100 0.857500
31.423200 0.699100
31.493300 0.579000
31.563400 0.474500
31.633500 0.399100
31.703700 0.363400
31.773800 0.345600
31.843900 0.343000
31.914000 0.315100
31.984100 0.308800
32.054200 0.316600
32.124400 0.345900
32.194500 0.410400
32.264600 0.436800
32.334700 0.442600
32.404800 0.434600
32.475000 0.446400
32.545100 0.465100
32.615200 0.482000
32.685300 0.494400
32.755400 0.512000
32.825500 0.520700
32.895700 0.512000
32.965800 0.497600
33.035900 0.487600
33.106000 0.487900
33.176100 0.494700
33.246300 0.511800
33.316400 0.543500
33.386500 0.557900
33.456600 0.577000
33.526700 0.601700
33.596800 0.648700
33.667000 0.695600
33.737100 0.781000
33.807200 0.827300
33.877300 0.794300
33.947400 0.782200
34.017600 0.787400
34.087700 0.771200
34.157800 0.704300
34.227900 0.683000
34.298000 0.645900
34.368100 0.673900
34.438300 0.563800
34.508400 0.543800
34.578500 0.529800
34.648600 0.526800
34.718700 0.528900
34.788900 0.526600
34.859000 0.518000
34.929100 0.532800
34.999200 0.523600
35.069300 0.523100
35.139400 0.550600
35.209600 0.572500
35.279700 0.571700
35.349800 0.570000
35.419900 0.564900
35.490000 0.557800
35.560200 0.546900
35.630300 0.546100
35.700400 0.546200
35.770500 0.533400
35.840600 0.520600
35.910700 0.513800
35.980900 0.509200
36.051000 0.516500
36.121100 0.538600
36.191200 0.568800
36.261300 0.587100
36.331500 0.619600
36.401600 0.666900
36.471700 0.689000
36.541800 0.684400
36.611900 0.675800
36.682000 0.641100
36.752200 0.628600
36.822300 0.632300
36.892400 0.634000
36.962500 0.593400
37.032600 0.592200
37.102800 0.586300
37.172900 0.601900
37.243000 0.613300
37.313100 0.602900
37.383200 0.610700
37.453300 0.640000
37.523500 0.645400
37.593600 0.673900
37.663700 0.642400
37.733800 0.625800
37.803900 0.612400
37.874100 0.598400
37.944200 0.576900
38.014300 0.588100
38.084400 0.578100
38.154500 0.589300
38.224600 0.629700
38.294800 0.634000
38.364900 0.623800
38.435000 0.611100
38.505100 0.589700
38.575200 0.600800
38.645400 0.612100
38.715500 0.623600
38.785600 0.639900
38.855700 0.645600
38.925800 0.653300
38.995900 0.703500
39.066100 0.697700
39.136200 0.702900
39.206300 0.701100
39.276400 0.706300
39.346500 0.722200
39.416700 0.770700
39.486800 0.884300
39.556900 0.982300
39.627000 1.154100
39.697100 1.509000
39.767200 2.115100
39.837400 3.199500
39.907500 3.456100
39.977600 1.537000
40.047700 1.099100
40.117800 0.947300
40.188000 0.853100
40.258100 0.790400
40.328200 0.756700
40.398300 0.737500
40.468400 0.721600
40.538500 0.712800
40.608700 0.717800
40.678800 0.700400
40.748900 0.657900
40.819000 0.638200
40.889100 0.658500
40.959300 0.689100
41.029400 0.686000
41.099500 0.674400
41.169600 0.670300
41.239700 0.652300
41.309800 0.642400
41.380000 0.632400
41.450100 0.621500
41.520200 0.618000
41.590300 0.629500
41.660400 0.648700
41.730600 0.640400
41.800700 0.642800
41.870800 0.635400
41.940900 0.625900
42.011000 0.620800
42.081100 0.612900
42.151300 0.585200
42.221400 0.578100
42.291500 0.595300
42.361600 0.608400
42.431700 0.621800
42.501800 0.643400
42.572000 0.652800
42.642100 0.651100
42.712200 0.651800
42.782300 0.640100
42.852400 0.646900
42.922600 0.650600
42.992700 0.656700
43.062800 0.646400
43.132900 0.636200
43.203000 0.631300
43.273100 0.634800
43.343300 0.635000
43.413400 0.635000
43.483500 0.630600
43.553600 0.626100
43.623700 0.621600
43.693900 0.619300
43.764000 0.626300
43.834100 0.627700
43.904200 0.628500
43.974300 0.620800
44.044400 0.618300
44.114600 0.612300
44.184700 0.612900
44.254800 0.615700
44.324900 0.633400
44.395000 0.641100
44.465200 0.655200
44.535300 0.671400
44.605400 0.697400
44.675500 0.699800
44.745600 0.691700
44.815700 0.682300
44.885900 0.687600
44.956000 0.710400
45.026100 0.732400
45.096200 0.761200
45.166300 0.752700
45.236500 0.755600
45.306600 0.736600
45.376700 0.742300
45.446800 0.707000
45.516900 0.689000
45.587000 0.671400
45.657200 0.664800
45.727300 0.674400
45.797400 0.693000
45.867500 0.699200
45.937600 0.725600
46.007800 0.736100
46.077900 0.742700
46.148000 0.739900
46.218100 0.743200
46.288200 0.758700
46.358300 0.783400
46.428500 0.776700
46.498600 0.786400
46.568700 0.797600
46.638800 0.808200
46.708900 0.771200
46.779100 0.752700
46.849200 0.722200
46.919300 0.669200
46.989400 0.650200
47.059500 0.627400
47.129600 0.634000
47.199800 0.650800
47.269900 0.659600
47.340000 0.674500
47.410100 0.691200
47.480200 0.694100
47.550400 0.704400
47.620500 0.712200
47.690600 0.731800
47.760700 0.753100
47.830800 0.776100
47.900900 0.819500
47.971100 0.787800
48.041200 0.735300
48.111300 0.711900
48.181400 0.683300
48.251500 0.688600
48.321700 0.700600
48.391800 0.700700
48.461900 0.693100
48.532000 0.727000
48.602100 0.736400
48.672200 0.732600
48.742400 0.721700
48.812500 0.721600
48.882600 0.711000
48.952700 0.706300
49.022800 0.709800
49.093000 0.711800
49.163100 0.699600
49.233200 0.697800
49.303300 0.694100
49.373400 0.691300
49.443500 0.686600
49.513700 0.661800
49.583800 0.610100
49.653900 0.579800
49.724000 0.567400
49.794100 0.570500
49.864300 0.573100
49.934400 0.573600
50.004500 0.562000
50.074600 0.565800
50.144700 0.592700
50.214800 0.614300
50.285000 0.642700
50.355100 0.682600
50.425200 0.718900
50.495300 0.718100
50.565400 0.698100
50.635600 0.659600
50.705700 0.654300
50.775800 0.669400
50.845900 0.671100
50.916000 0.682400
50.986100 0.699200
51.056300 0.693300
51.126400 0.701800
51.196500 0.705900
51.266600 0.693100
51.336700 0.686600
51.406900 0.671500
51.477000 0.656000
51.547100 0.604700
51.617200 0.563800
51.687300 0.543600
51.757400 0.553500
51.827600 0.552500
51.897700 0.560300
51.967800 0.530900
52.037900 0.545300
52.108000 0.577000
52.178200 0.673300
52.248300 0.657100
52.318400 0.684100
52.388500 0.704100
52.458600 0.713400
52.528700 0.710000
52.598900 0.707400
52.669000 0.713700
52.739100 0.720200
52.809200 0.722000
52.879300 0.739500
52.949500 0.782600
53.019600 0.783400
53.089700 0.775200
53.159800 0.744200
53.229900 0.690900
53.300000 0.670600
53.370200 0.657500
53.440300 0.646700
53.510400 0.645200
53.580500 0.634900
53.650600 0.629600
53.720800 0.617600
53.790900 0.626700
53.861000 0.653300
53.931100 0.695100
54.001200 0.724800
54.071300 0.747000
54.141500 0.729000
54.211600 0.716700
54.281700 0.707300
54.351800 0.688700
54.421900 0.686600
54.492100 0.668700
54.562200 0.629300
54.632300 0.595600
54.702400 0.591300
54.772500 0.602200
54.842600 0.623300
54.912800 0.617700
54.982900 0.636400
55.053000 0.657100
55.123100 0.704500
55.193200 0.720700
55.263400 0.704500
55.333500 0.700600
55.403600 0.724200
55.473700 0.771000
55.543800 0.806600
55.613900 0.876000
55.684100 0.861200
55.754200 0.833500
55.824300 0.825600
55.894400 0.832500
55.964500 0.804800
56.034700 0.764700
56.104800 0.726900
56.174900 0.729400
56.245000 0.758300
56.315100 0.756000
56.385200 0.749000
56.455400 0.771200
56.525500 0.801400
56.595600 0.842600
56.665700 0.860800
56.735800 0.851400
56.806000 0.865400
56.876100 0.898400
56.946200 0.908600
57.016300 0.875100
57.086400 0.806100
57.156500 0.745300
57.226700 0.706700
57.296800 0.677200
57.366900 0.684100
57.437000 0.694000
57.507100 0.700000
57.577300 0.731200
57.647400 0.801900
57.717500 0.840600
57.787600 0.885500
57.857700 0.867900
57.927800 0.864800
57.998000 0.841000
58.068100 0.811900
58.138200 0.781100
58.208300 0.783600
58.278400 0.769000
58.348600 0.746800
58.418700 0.735700
58.488800 0.727500
58.558900 0.732200
58.629000 0.731400
58.699100 0.724700
58.769300 0.705600
58.839400 0.742200
58.909500 0.746000
58.979600 0.776900
59.049700 0.817100
59.119900 0.820800
59.190000 0.842100
59.260100 0.861300
59.330200 0.802400
59.400300 0.755500
59.470400 0.738500
59.540600 0.714600
59.610700 0.731900
59.680800 0.721400
59.750900 0.714600
59.821000 0.699200
59.891200 0.677400
59.961300 0.660600
60.031400 0.656000
60.101500 0.617400
60.171600 0.614500
60.241700 0.619400
60.311900 0.609900
60.382000 0.576800
60.452100 0.555500
60.522200 0.553900
60.592300 0.542500
60.662500 0.554400
60.732600 0.572200
60.802700 0.587300
60.872800 0.629100
60.942900 0.596000
61.013000 0.573200
61.083200 0.565300
61.153300 0.538500
61.223400 0.513200
61.293500 0.477800
61.363600 0.428900
61.433800 0.384400
61.503900 0.363500
61.574000 0.350100
61.644100 0.324400
61.714200 0.345600
61.784300 0.326700
61.854500 0.328800
61.924600 0.333400
61.994700 0.306800
62.064800 0.290500
62.134900 0.268200
62.205100 0.239300
62.275200 0.208400
62.345300 0.178400
62.415400 0.151600
62.485500 0.123500
62.555600 0.104200
62.625800 0.089400
62.695900 0.077800
62.766000 0.071400
62.836100 0.067100
62.906200 0.062400
62.976400 0.057200
63.046500 0.050600
63.116600 0.043300
63.186700 0.039300
63.256800 0.064600
63.326900 0.034300
63.397100 0.025000
63.467200 0.020500
63.537300 0.017400
63.607400 0.015200
63.677500 0.013100
63.747700 0.010900
63.817800 0.008200
63.887900 0.005100
63.958000 0.002400
64.028100 0.000600
64.098200 0.000000
64.168400 0.000000
64.238500 0.000000
64.308600 0.000000
64.378700 0.000000
64.448800 0.000000
64.519000 0.000000
64.589100 0.000000
64.659200 0.000000
64.729300 0.000000
64.799400 0.000000
64.869500 0.000000
64.939700 0.000000
65.009800 0.000000
65.079900 0.000000
65.150000 0.000000
65.220100 0.000000
65.290300 0.000000
65.360400 0.000000
65.430500 0.000000
65.500600 0.000000
65.570700 0.000000
65.640800 0.000000
65.711000 0.000000
65.781100 0.000000
65.851200 0.000000
65.921300 0.000000
65.991400 0.000000
66.061600 0.000000
66.131700 0.000000
66.201800 0.000000
66.271900 0.000000
66.342000 0.000000
66.412100 0.000000
66.482300 0.000000
66.552400 0.000000
66.622500 0.000000
66.692600 0.000000
66.762700 0.000000
66.832900 0.000000
66.903000 0.000000
66.973100 0.000000
67.043200 0.000000
67.113300 0.000000
67.183400 0.000000
67.253600 0.000000
67.323700 0.000000
67.393800 0.000000
67.463900 0.000000
67.534000 0.000000
67.604200 0.000000
67.674300 0.000000
67.744400 0.000000
67.814500 0.000000
67.884600 0.000000
67.954700 0.000000
68.024900 0.000000
68.095000 0.000000
68.165100 0.000000
68.235200 0.000000
68.305300 0.000000
68.375500 0.000000
68.445600 0.000000
68.515700 0.000000
68.585800 0.000000
68.655900 0.000000
68.726000 0.000000
68.796200 0.000000
68.866300 0.000000
68.936400 0.000000
69.006500 0.000000
69.076600 0.000000
69.146700 0.000000
69.216900 0.000000
69.287000 0.000000
69.357100 0.000000
69.427200 0.000000
69.497300 0.000000
69.567500 0.000000
69.637600 0.000000
69.707700 0.000000
69.777800 0.000000
69.847900 0.000000
69.918000 0.000000
69.988200 0.000000
70.058300 0.000000
70.128400 0.000000
70.198500 0.000000
70.268600 0.000000
70.338800 0.000000
70.408900 0.000000
70.479000 0.000000
70.549100 0.000000
e
