set title 'mp-1216546 - Density of States'
set xlabel 'Energy (eV)'
set ylabel 'DOS (states/eV)'
set grid
set xrange [-10:10]
set yrange [0:5.503]
set xzeroaxis lt -1
set terminal png size 800,600
set output 'mp-1216546_dos_gnuplot.png'
plot '-' using 1:2 with lines title 'DOS'
-24.949600 0.000000
-24.917800 0.000000
-24.885900 0.000000
-24.854000 0.000000
-24.822100 0.000000
-24.790200 0.000000
-24.758300 0.000000
-24.726400 0.000000
-24.694500 0.000000
-24.662600 0.000000
-24.630800 0.000000
-24.598900 0.000000
-24.567000 0.000000
-24.535100 0.000000
-24.503200 0.000000
-24.471300 0.000000
-24.439400 0.000000
-24.407500 0.000000
-24.375600 0.000000
-24.343700 0.000000
-24.311900 0.000000
-24.280000 0.000000
-24.248100 0.000000
-24.216200 0.000000
-24.184300 0.000000
-24.152400 0.000000
-24.120500 0.000000
-24.088600 0.000000
-24.056700 0.000000
-24.024900 0.000000
-23.993000 0.000000
-23.961100 0.000000
-23.929200 0.000000
-23.897300 0.000000
-23.865400 0.000000
-23.833500 0.000000
-23.801600 0.000000
-23.769700 0.000000
-23.737800 0.000000
-23.706000 0.000000
-23.674100 0.000000
-23.642200 0.000000
-23.610300 0.000000
-23.578400 0.000000
-23.546500 0.000000
-23.514600 0.000000
-23.482700 0.000000
-23.450800 0.000000
-23.419000 0.000000
-23.387100 0.000000
-23.355200 0.000000
-23.323300 0.000000
-23.291400 0.000000
-23.259500 0.000000
-23.227600 0.000000
-23.195700 0.000000
-23.163800 0.000000
-23.131900 0.000000
-23.100100 0.000000
-23.068200 0.000000
-23.036300 0.000000
-23.004400 0.000000
-22.972500 0.000000
-22.940600 0.000000
-22.908700 0.000000
-22.876800 0.000000
-22.844900 0.000000
-22.813100 0.000000
-22.781200 0.000000
-22.749300 0.000000
-22.717400 0.000000
-22.685500 0.000000
-22.653600 0.000000
-22.621700 0.000000
-22.589800 0.000000
-22.557900 0.000000
-22.526000 0.000000
-22.494200 0.000000
-22.462300 0.000000
-22.430400 0.000000
-22.398500 0.000000
-22.366600 0.000000
-22.334700 0.000000
-22.302800 0.000000
-22.270900 0.000000
-22.239000 0.000000
-22.207200 0.000000
-22.175300 0.000000
-22.143400 0.000000
-22.111500 0.000000
-22.079600 0.000000
-22.047700 0.000000
-22.015800 1.313800
-21.983900 6.074300
-21.952000 10.822400
-21.920100 16.029900
-21.888300 7.532800
-21.856400 4.598200
-21.824500 3.439400
-21.792600 3.890700
-21.760700 4.213600
-21.728800 5.696600
-21.696900 9.161100
-21.665000 12.828400
-21.633100 15.102500
-21.601300 9.061700
-21.569400 20.345800
-21.537500 23.112300
-21.505600 21.784000
-21.473700 13.458500
-21.441800 0.000000
-21.409900 0.000000
-21.378000 0.000000
-21.346100 0.000000
-21.314200 0.000000
-21.282400 0.000000
-21.250500 0.000000
-21.218600 0.000000
-21.186700 0.000000
-21.154800 0.000000
-21.122900 0.000000
-21.091000 0.000000
-21.059100 0.000000
-21.027200 0.000000
-20.995400 0.000000
-20.963500 0.000000
-20.931600 0.000000
-20.899700 0.000000
-20.867800 0.000000
-20.835900 0.000000
-20.804000 0.000000
-20.772100 0.000000
-20.740200 0.000000
-20.708300 0.000000
-20.676500 0.000000
-20.644600 0.000000
-20.612700 0.000000
-20.580800 0.000000
-20.548900 0.000000
-20.517000 0.000000
-20.485100 0.000000
-20.453200 0.000000
-20.421300 0.000000
-20.389500 0.000000
-20.357600 0.000000
-20.325700 0.000000
-20.293800 0.000000
-20.261900 0.000000
-20.230000 0.000000
-20.198100 0.000000
-20.166200 0.000000
-20.134300 0.000000
-20.102400 0.000000
-20.070600 0.000000
-20.038700 0.000000
-20.006800 0.000000
-19.974900 0.000000
-19.943000 0.000000
-19.911100 0.000000
-19.879200 0.000000
-19.847300 0.000000
-19.815400 0.000000
-19.783600 0.000000
-19.751700 0.000000
-19.719800 0.000000
-19.687900 0.000000
-19.656000 0.000000
-19.624100 0.000000
-19.592200 0.000000
-19.560300 0.000000
-19.528400 0.000000
-19.496500 0.000000
-19.464700 0.000000
-19.432800 0.000000
-19.400900 0.000000
-19.369000 0.000000
-19.337100 0.000000
-19.305200 0.000000
-19.273300 0.000000
-19.241400 0.000000
-19.209500 0.000000
-19.177700 0.000000
-19.145800 0.000000
-19.113900 0.000000
-19.082000 0.000000
-19.050100 0.000000
-19.018200 0.000000
-18.986300 0.000000
-18.954400 0.000000
-18.922500 0.000000
-18.890600 0.000000
-18.858800 0.000000
-18.826900 0.000000
-18.795000 0.000000
-18.763100 0.000000
-18.731200 0.000000
-18.699300 0.000000
-18.667400 0.000000
-18.635500 0.000000
-18.603600 0.000000
-18.571800 0.000000
-18.539900 0.000000
-18.508000 0.000000
-18.476100 0.000000
-18.444200 0.000000
-18.412300 0.000000
-18.380400 0.000000
-18.348500 0.000000
-18.316600 0.000000
-18.284700 0.000000
-18.252900 0.000000
-18.221000 0.000000
-18.189100 0.000000
-18.157200 0.000000
-18.125300 0.000000
-18.093400 0.000000
-18.061500 0.000000
-18.029600 0.000000
-17.997700 0.000000
-17.965900 0.000000
-17.934000 0.000000
-17.902100 0.000000
-17.870200 0.000000
-17.838300 0.000000
-17.806400 0.000000
-17.774500 0.000000
-17.742600 0.000000
-17.710700 0.000000
-17.678800 0.000000
-17.647000 0.000000
-17.615100 0.000000
-17.583200 0.000000
-17.551300 0.000000
-17.519400 0.000000
-17.487500 0.000000
-17.455600 0.000000
-17.423700 0.000000
-17.391800 0.000000
-17.360000 0.000000
-17.328100 0.000000
-17.296200 0.000000
-17.264300 0.000000
-17.232400 0.000000
-17.200500 0.000000
-17.168600 0.000000
-17.136700 0.000000
-17.104800 0.000000
-17.072900 0.000000
-17.041100 0.000000
-17.009200 0.000000
-16.977300 0.000000
-16.945400 0.000000
-16.913500 0.000000
-16.881600 0.000000
-16.849700 0.000000
-16.817800 0.000000
-16.785900 0.000000
-16.754100 0.000000
-16.722200 0.000000
-16.690300 0.000000
-16.658400 0.000000
-16.626500 0.000000
-16.594600 0.000000
-16.562700 0.000000
-16.530800 0.000000
-16.498900 0.000000
-16.467000 0.000000
-16.435200 0.000000
-16.403300 0.000000
-16.371400 0.000000
-16.339500 0.000000
-16.307600 0.000000
-16.275700 0.000000
-16.243800 0.000000
-16.211900 0.000000
-16.180000 0.000000
-16.148200 0.000000
-16.116300 0.000000
-16.084400 0.000000
-16.052500 0.000000
-16.020600 0.000000
-15.988700 0.000000
-15.956800 0.000000
-15.924900 0.000000
-15.893000 0.000000
-15.861100 0.000000
-15.829300 0.000000
-15.797400 0.000000
-15.765500 0.000000
-15.733600 0.000000
-15.701700 0.000000
-15.669800 0.000000
-15.637900 0.000000
-15.606000 0.000000
-15.574100 0.000000
-15.542300 0.000000
-15.510400 0.000000
-15.478500 0.000000
-15.446600 0.000000
-15.414700 0.000000
-15.382800 0.000000
-15.350900 0.000000
-15.319000 0.000000
-15.287100 0.000000
-15.255200 0.000000
-15.223400 0.000000
-15.191500 0.000000
-15.159600 0.000000
-15.127700 0.000000
-15.095800 0.000000
-15.063900 0.000000
-15.032000 0.000000
-15.000100 0.000000
-14.968200 0.000000
-14.936400 0.000000
-14.904500 0.000000
-14.872600 0.000000
-14.840700 0.000000
-14.808800 0.000000
-14.776900 0.000000
-14.745000 0.000000
-14.713100 0.000000
-14.681200 0.000000
-14.649300 0.000000
-14.617500 0.000000
-14.585600 0.000000
-14.553700 0.000000
-14.521800 0.000000
-14.489900 0.000000
-14.458000 0.000000
-14.426100 0.000000
-14.394200 0.000000
-14.362300 0.000000
-14.330500 0.000000
-14.298600 0.000000
-14.266700 0.000000
-14.234800 0.000000
-14.202900 0.000000
-14.171000 0.000000
-14.139100 0.000000
-14.107200 0.000000
-14.075300 0.000000
-14.043400 0.000000
-14.011600 0.000000
-13.979700 0.000000
-13.947800 0.000000
-13.915900 0.000000
-13.884000 0.000000
-13.852100 0.000000
-13.820200 0.000000
-13.788300 0.000000
-13.756400 0.000000
-13.724600 0.000000
-13.692700 0.000000
-13.660800 0.000000
-13.628900 0.000000
-13.597000 0.000000
-13.565100 0.000000
-13.533200 0.000000
-13.501300 0.000000
-13.469400 0.000000
-13.437500 0.000000
-13.405700 0.000000
-13.373800 0.000000
-13.341900 0.000000
-13.310000 0.000000
-13.278100 0.000000
-13.246200 0.000000
-13.214300 0.000000
-13.182400 0.000000
-13.150500 0.000000
-13.118700 0.000000
-13.086800 0.000000
-13.054900 0.000000
-13.023000 0.000000
-12.991100 0.000000
-12.959200 0.000000
-12.927300 0.000000
-12.895400 0.000000
-12.863500 0.000000
-12.831600 0.000000
-12.799800 0.000000
-12.767900 0.000000
-12.736000 0.000000
-12.704100 0.000000
-12.672200 0.000000
-12.640300 0.000000
-12.608400 0.000000
-12.576500 0.000000
-12.544600 0.000000
-12.512800 0.000000
-12.480900 0.000000
-12.449000 0.000000
-12.417100 0.000000
-12.385200 0.000000
-12.353300 0.000000
-12.321400 0.000000
-12.289500 0.000000
-12.257600 0.000000
-12.225700 0.000000
-12.193900 0.000000
-12.162000 0.000000
-12.130100 0.000000
-12.098200 0.000000
-12.066300 0.000000
-12.034400 0.000000
-12.002500 0.000000
-11.970600 0.000000
-11.938700 0.000000
-11.906900 0.000000
-11.875000 0.000000
-11.843100 0.000000
-11.811200 0.000000
-11.779300 0.000000
-11.747400 0.000000
-11.715500 0.000000
-11.683600 0.000000
-11.651700 0.000000
-11.619800 0.000000
-11.588000 0.000000
-11.556100 0.000000
-11.524200 0.000000
-11.492300 0.000000
-11.460400 0.000000
-11.428500 0.000000
-11.396600 0.000000
-11.364700 0.000000
-11.332800 0.000000
-11.301000 0.000000
-11.269100 0.000000
-11.237200 0.000000
-11.205300 0.000000
-11.173400 0.000000
-11.141500 0.000000
-11.109600 0.000000
-11.077700 0.000000
-11.045800 0.000000
-11.013900 0.000000
-10.982100 0.000000
-10.950200 0.000000
-10.918300 0.000000
-10.886400 0.000000
-10.854500 0.000000
-10.822600 0.000000
-10.790700 0.000000
-10.758800 0.000000
-10.726900 0.000000
-10.695100 0.000000
-10.663200 0.000000
-10.631300 0.000000
-10.599400 0.000000
-10.567500 0.000000
-10.535600 0.000000
-10.503700 0.000000
-10.471800 0.000000
-10.439900 0.000000
-10.408000 0.000000
-10.376200 0.000000
-10.344300 0.000000
-10.312400 0.000000
-10.280500 0.000000
-10.248600 0.000000
-10.216700 0.000000
-10.184800 0.000000
-10.152900 0.000000
-10.121000 0.000000
-10.089200 0.000000
-10.057300 0.000000
-10.025400 0.000000
-9.993500 0.000000
-9.961600 0.000000
-9.929700 0.000000
-9.897800 0.000000
-9.865900 0.000000
-9.834000 0.000000
-9.802100 0.000000
-9.770300 0.000000
-9.738400 0.000000
-9.706500 0.000000
-9.674600 0.000000
-9.642700 0.000000
-9.610800 0.000000
-9.578900 0.000000
-9.547000 0.000000
-9.515100 0.000000
-9.483300 0.000000
-9.451400 0.000000
-9.419500 0.000000
-9.387600 0.000000
-9.355700 0.000000
-9.323800 0.000000
-9.291900 0.000000
-9.260000 0.000000
-9.228100 0.000000
-9.196200 0.000000
-9.164400 0.000000
-9.132500 0.000000
-9.100600 0.000000
-9.068700 0.000000
-9.036800 0.000000
-9.004900 0.000000
-8.973000 0.000000
-8.941100 0.000000
-8.909200 0.000000
-8.877400 0.000000
-8.845500 0.000000
-8.813600 0.000000
-8.781700 0.000000
-8.749800 0.000000
-8.717900 0.000000
-8.686000 0.000000
-8.654100 0.000000
-8.622200 0.000000
-8.590300 0.000000
-8.558500 0.000000
-8.526600 0.000000
-8.494700 0.000000
-8.462800 0.000000
-8.430900 0.000000
-8.399000 0.000000
-8.367100 0.000000
-8.335200 0.000000
-8.303300 0.000000
-8.271500 0.000000
-8.239600 0.000000
-8.207700 0.000000
-8.175800 0.000000
-8.143900 0.000000
-8.112000 0.000000
-8.080100 0.000000
-8.048200 0.000000
-8.016300 0.000000
-7.984400 0.000000
-7.952600 0.000000
-7.920700 0.000000
-7.888800 0.000000
-7.856900 0.000000
-7.825000 0.000000
-7.793100 0.000000
-7.761200 0.000000
-7.729300 0.000000
-7.697400 0.000000
-7.665600 0.000000
-7.633700 0.000000
-7.601800 0.000000
-7.569900 0.000000
-7.538000 0.000000
-7.506100 0.000000
-7.474200 0.000000
-7.442300 0.000000
-7.410400 0.000000
-7.378500 0.000000
-7.346700 0.000000
-7.314800 0.000000
-7.282900 0.000000
-7.251000 0.000000
-7.219100 0.000000
-7.187200 0.000000
-7.155300 0.000000
-7.123400 0.000000
-7.091500 0.000000
-7.059700 0.000000
-7.027800 0.000000
-6.995900 0.000000
-6.964000 0.000000
-6.932100 0.000000
-6.900200 0.000000
-6.868300 0.000000
-6.836400 0.000000
-6.804500 0.000000
-6.772600 0.000000
-6.740800 0.000000
-6.708900 0.000000
-6.677000 0.038800
-6.645100 0.121200
-6.613200 0.174500
-6.581300 0.221700
-6.549400 0.296700
-6.517500 0.387200
-6.485600 0.381500
-6.453800 0.406100
-6.421900 0.425000
-6.390000 0.442000
-6.358100 0.454000
-6.326200 0.466100
-6.294300 0.485400
-6.262400 0.505700
-6.230500 0.532100
-6.198600 0.561900
-6.166700 0.596600
-6.134900 0.628700
-6.103000 0.659400
-6.071100 0.688800
-6.039200 0.718100
-6.007300 0.773100
-5.975400 0.882900
-5.943500 0.968300
-5.911600 1.049900
-5.879700 1.130800
-5.847900 1.211600
-5.816000 1.507300
-5.784100 1.949700
-5.752200 2.497700
-5.720300 3.833500
-5.688400 2.833300
-5.656500 1.918400
-5.624600 2.736100
-5.592700 0.000000
-5.560800 0.000000
-5.529000 0.000000
-5.497100 0.000000
-5.465200 0.000000
-5.433300 0.000000
-5.401400 0.000000
-5.369500 0.000000
-5.337600 0.000000
-5.305700 0.000000
-5.273800 0.000000
-5.242000 0.000000
-5.210100 0.000000
-5.178200 0.000000
-5.146300 0.000000
-5.114400 0.000000
-5.082500 0.000000
-5.050600 0.000000
-5.018700 0.000000
-4.986800 0.000000
-4.954900 0.000000
-4.923100 0.000000
-4.891200 0.000000
-4.859300 0.000000
-4.827400 0.000000
-4.795500 0.000000
-4.763600 0.000000
-4.731700 0.000000
-4.699800 0.000000
-4.667900 0.000000
-4.636100 0.000000
-4.604200 0.000000
-4.572300 0.000000
-4.540400 0.000000
-4.508500 0.000000
-4.476600 0.000000
-4.444700 0.000000
-4.412800 0.000000
-4.380900 0.000000
-4.349000 0.000000
-4.317200 0.000000
-4.285300 0.000000
-4.253400 0.000000
-4.221500 0.000000
-4.189600 0.000000
-4.157700 0.000000
-4.125800 0.000000
-4.093900 0.000000
-4.062000 0.000000
-4.030200 0.000000
-3.998300 0.000000
-3.966400 0.000000
-3.934500 0.000000
-3.902600 0.000000
-3.870700 0.000000
-3.838800 0.000000
-3.806900 0.000000
-3.775000 0.000000
-3.743100 0.000000
-3.711300 0.000000
-3.679400 0.000000
-3.647500 0.000000
-3.615600 0.000000
-3.583700 0.000000
-3.551800 0.000000
-3.519900 0.000000
-3.488000 0.000000
-3.456100 0.000000
-3.424300 0.000000
-3.392400 0.000000
-3.360500 0.000000
-3.328600 0.000000
-3.296700 0.000000
-3.264800 0.000000
-3.232900 0.000000
-3.201000 0.000000
-3.169100 0.000000
-3.137200 0.000000
-3.105400 0.000000
-3.073500 0.000000
-3.041600 0.000000
-3.009700 0.000000
-2.977800 0.000000
-2.945900 0.000000
-2.914000 0.000000
-2.882100 0.000000
-2.850200 0.000000
-2.818400 0.000000
-2.786500 0.000000
-2.754600 0.000000
-2.722700 0.000000
-2.690800 0.000000
-2.658900 0.000000
-2.627000 0.000000
-2.595100 0.000000
-2.563200 0.000000
-2.531300 0.000000
-2.499500 0.000000
-2.467600 0.000000
-2.435700 0.000000
-2.403800 0.000000
-2.371900 0.000000
-2.340000 0.000000
-2.308100 0.000000
-2.276200 0.000000
-2.244300 0.000000
-2.212500 0.000000
-2.180600 0.000000
-2.148700 0.000000
-2.116800 0.000000
-2.084900 0.000000
-2.053000 0.000000
-2.021100 0.000000
-1.989200 0.000000
-1.957300 0.000000
-1.925400 0.000000
-1.893600 0.000000
-1.861700 0.000000
-1.829800 0.000000
-1.797900 0.000000
-1.766000 0.000000
-1.734100 0.000000
-1.702200 0.000000
-1.670300 0.000000
-1.638400 0.000000
-1.606600 0.000000
-1.574700 0.000000
-1.542800 0.000000
-1.510900 0.000000
-1.479000 0.001900
-1.447100 0.010500
-1.415200 0.023300
-1.383300 0.038900
-1.351400 0.056200
-1.319500 0.057900
-1.287700 0.062400
-1.255800 0.068700
-1.223900 0.074800
-1.192000 0.081200
-1.160100 0.088300
-1.128200 0.095600
-1.096300 0.103300
-1.064400 0.111000
-1.032500 0.118800
-1.000700 0.125900
-0.968800 0.132500
-0.936900 0.139200
-0.905000 0.147000
-0.873100 0.156500
-0.841200 0.167100
-0.809300 0.180400
-0.777400 0.195900
-0.745500 0.210700
-0.713600 0.222600
-0.681800 0.229800
-0.649900 0.330000
-0.618000 0.502600
-0.586100 0.670700
-0.554200 0.861600
-0.522300 0.928400
-0.490400 0.958200
-0.458500 0.961500
-0.426600 0.947300
-0.394800 0.949900
-0.362900 0.981100
-0.331000 1.025600
-0.299100 1.087700
-0.267200 1.163100
-0.235300 1.201600
-0.203400 1.192100
-0.171500 1.184200
-0.139600 1.231900
-0.107700 1.299700
-0.075900 1.295800
-0.044000 1.175500
-0.012100 1.108700
0.019800 1.038200
0.051700 0.965700
0.083600 0.897700
0.115500 0.823300
0.147400 0.747500
0.179300 0.700900
0.211100 0.664200
0.243000 0.631500
0.274900 0.472100
0.306800 0.450600
0.338700 0.426500
0.370600 0.405500
0.402500 0.404000
0.434400 0.417700
0.466300 0.448300
0.498200 0.520100
0.530000 0.644200
0.561900 0.682700
0.593800 0.701200
0.625700 0.786900
0.657600 0.885600
0.689500 0.964400
0.721400 1.042300
0.753300 1.244500
0.785200 1.175800
0.817000 1.045500
0.848900 1.036900
0.880800 0.986100
0.912700 0.987800
0.944600 0.978500
0.976500 0.974700
1.008400 0.993600
1.040300 0.993700
1.072200 0.995900
1.104100 0.966300
1.135900 0.937700
1.167800 0.907100
1.199700 0.879100
1.231600 0.856600
1.263500 0.842800
1.295400 0.854900
1.327300 0.887000
1.359200 0.901500
1.391100 0.938000
1.422900 1.100500
1.454800 1.377500
1.486700 4.008100
1.518600 3.616500
1.550500 3.742900
1.582400 1.754300
1.614300 1.533700
1.646200 1.527200
1.678100 1.592400
1.710000 1.876500
1.741800 2.720800
1.773700 5.002300
1.805600 2.880500
1.837500 1.565300
1.869400 0.196400
1.901300 0.080600
1.933200 0.095000
1.965100 0.112000
1.997000 0.132800
2.028800 0.157300
2.060700 0.186800
2.092600 0.274200
2.124500 0.370000
2.156400 0.458200
2.188300 0.523900
2.220200 0.579500
2.252100 0.634200
2.284000 0.691500
2.315900 0.758900
2.347700 0.859600
2.379600 0.888300
2.411500 0.847200
2.443400 0.878200
2.475300 0.898100
2.507200 0.916200
2.539100 0.926600
2.571000 0.914700
2.602900 0.930100
2.634700 0.956300
2.666600 0.999000
2.698500 1.176500
2.730400 1.346100
2.762300 1.247100
2.794200 1.185600
2.826100 1.034700
2.858000 0.934600
2.889900 0.797100
2.921800 0.757400
2.953600 0.755300
2.985500 0.771100
3.017400 0.809000
3.049300 0.882900
3.081200 0.982200
3.113100 1.152400
3.145000 1.367600
3.176900 1.433800
3.208800 1.607500
3.240600 1.455600
3.272500 1.354200
3.304400 1.470100
3.336300 0.821300
3.368200 0.833500
3.400100 0.847200
3.432000 0.863800
3.463900 0.888000
3.495800 0.918600
3.527700 1.026700
3.559500 1.309800
3.591400 1.510100
3.623300 1.669600
3.655200 1.183600
3.687100 0.959000
3.719000 0.826000
3.750900 0.705700
3.782800 0.643400
3.814700 0.606800
3.846500 0.586700
3.878400 0.586100
3.910300 0.571600
3.942200 0.495000
3.974100 0.400000
4.006000 0.435900
4.037900 0.659800
4.069800 1.007900
4.101700 1.146000
4.133600 1.191800
4.165400 1.219900
4.197300 1.266400
4.229200 1.405700
4.261100 1.435700
4.293000 1.402300
4.324900 1.441500
4.356800 1.460600
4.388700 1.454700
4.420600 1.513300
4.452400 1.578800
4.484300 1.808400
4.516200 1.898500
4.548100 1.600900
4.580000 1.214200
4.611900 0.938000
4.643800 0.842600
4.675700 0.763900
4.707600 0.704700
4.739500 0.647700
4.771300 0.601600
4.803200 0.565900
4.835100 0.533100
4.867000 0.504700
4.898900 0.483300
4.930800 0.530900
4.962700 0.594300
4.994600 0.610300
5.026500 0.575500
5.058300 0.584800
5.090200 0.587800
5.122100 0.586300
5.154000 0.587600
5.185900 0.592600
5.217800 0.598800
5.249700 0.593900
5.281600 0.596800
5.313500 0.594500
5.345400 0.590700
5.377200 0.591400
5.409100 0.595300
5.441000 0.603800
5.472900 0.619200
5.504800 0.672300
5.536700 0.689900
5.568600 0.714600
5.600500 0.756000
5.632400 0.750000
5.664200 0.773600
5.696100 0.812600
5.728000 0.879200
5.759900 0.966100
5.791800 1.017800
5.823700 1.047000
5.855600 1.019000
5.887500 0.981300
5.919400 0.987600
5.951300 0.972900
5.983100 0.956400
6.015000 0.961100
6.046900 0.976100
6.078800 1.037500
6.110700 0.964200
6.142600 0.922400
6.174500 0.878500
6.206400 0.840400
6.238300 0.811500
6.270100 0.795000
6.302000 0.777700
6.333900 0.756300
6.365800 0.748300
6.397700 0.768900
6.429600 0.798100
6.461500 0.839400
6.493400 0.892800
6.525300 0.941800
6.557200 0.930100
6.589000 0.893300
6.620900 0.857700
6.652800 0.839900
6.684700 0.852300
6.716600 0.836200
6.748500 0.823600
6.780400 0.822800
6.812300 0.829100
6.844200 0.831500
6.876000 0.877400
6.907900 0.957500
6.939800 1.058100
6.971700 1.072000
7.003600 1.080300
7.035500 1.102600
7.067400 1.201000
7.099300 1.293700
7.131200 1.272400
7.163100 1.333100
7.194900 1.389000
7.226800 1.444200
7.258700 1.520500
7.290600 1.565100
7.322500 1.579200
7.354400 1.616300
7.386300 1.584400
7.418200 1.544200
7.450100 1.535100
7.481900 1.454400
7.513800 1.379800
7.545700 1.316100
7.577600 1.277700
7.609500 1.240900
7.641400 1.263700
7.673300 1.180800
7.705200 1.073200
7.737100 1.007100
7.769000 0.919500
7.800800 0.898400
7.832700 0.951500
7.864600 1.075900
7.896500 1.280600
7.928400 1.377200
7.960300 1.395900
7.992200 1.475400
8.024100 1.503300
8.056000 1.496600
8.087800 1.530400
8.119700 1.671500
8.151600 1.552300
8.183500 1.344800
8.215400 1.249100
8.247300 1.211800
8.279200 1.205200
8.311100 1.068800
8.343000 1.053100
8.374900 1.101600
8.406700 1.148700
8.438600 1.172600
8.470500 1.263000
8.502400 1.385500
8.534300 1.546300
8.566200 1.641600
8.598100 1.667000
8.630000 1.752600
8.661900 1.876500
8.693700 1.980500
8.725600 2.118200
8.757500 2.323100
8.789400 2.326500
8.821300 2.337000
8.853200 2.642800
8.885100 2.290000
8.917000 1.900900
8.948900 1.882500
8.980800 1.845300
9.012600 1.930800
9.044500 2.051500
9.076400 2.011600
9.108300 1.871300
9.140200 1.773200
9.172100 1.696700
9.204000 1.784900
9.235900 1.943300
9.267800 1.985200
9.299600 1.814800
9.331500 1.772400
9.363400 1.796300
9.395300 1.866700
9.427200 1.843700
9.459100 1.698900
9.491000 1.628800
9.522900 1.645100
9.554800 1.488200
9.586700 1.445800
9.618500 1.471500
9.650400 1.771100
9.682300 2.044500
9.714200 1.745000
9.746100 1.712900
9.778000 1.839900
9.809900 1.772000
9.841800 1.715000
9.873700 1.482300
9.905500 1.326100
9.937400 1.295600
9.969300 1.327700
10.001200 1.441600
10.033100 1.420500
10.065000 1.355900
10.096900 1.298200
10.128800 1.400400
10.160700 1.433200
10.192600 1.447600
10.224400 1.482800
10.256300 1.664300
10.288200 1.871300
10.320100 2.117400
10.352000 2.586100
10.383900 1.945100
10.415800 2.047900
10.447700 1.483200
10.479600 1.467900
10.511400 1.547800
10.543300 1.643500
10.575200 1.658400
10.607100 1.611300
10.639000 1.503900
10.670900 1.413600
10.702800 1.345200
10.734700 1.270800
10.766600 1.238900
10.798500 1.329900
10.830300 1.518600
10.862200 1.580300
10.894100 1.790700
10.926000 1.759800
10.957900 1.694600
10.989800 1.731900
11.021700 1.628000
11.053600 1.565500
11.085500 1.549900
11.117300 1.553700
11.149200 1.619500
11.181100 1.689400
11.213000 1.740000
11.244900 1.754800
11.276800 1.725800
11.308700 1.657500
11.340600 1.796600
11.372500 1.550400
11.404400 1.446800
11.436200 1.332100
11.468100 1.257500
11.500000 1.250400
11.531900 1.257600
11.563800 1.252800
11.595700 1.321800
11.627600 1.257800
11.659500 1.291400
11.691400 1.278900
11.723200 1.247900
11.755100 1.251600
11.787000 1.303700
11.818900 1.265400
11.850800 1.162100
11.882700 1.000200
11.914600 0.792000
11.946500 0.665800
11.978400 0.573000
12.010300 0.498500
12.042100 0.441100
12.074000 0.402600
12.105900 0.389800
12.137800 0.382200
12.169700 0.383000
12.201600 0.403200
12.233500 0.442400
12.265400 0.505700
12.297300 0.587000
12.329100 0.688000
12.361000 0.801400
12.392900 0.922000
12.424800 0.969200
12.456700 0.963000
12.488600 0.968700
12.520500 0.949700
12.552400 0.920200
12.584300 0.925300
12.616200 0.922300
12.648000 0.920100
12.679900 0.919600
12.711800 0.915200
12.743700 0.927500
12.775600 0.928800
12.807500 0.872100
12.839400 0.816500
12.871300 0.765500
12.903200 0.723700
12.935000 0.695100
12.966900 0.662900
12.998800 0.626400
13.030700 0.578400
13.062600 0.574800
13.094500 0.499300
13.126400 0.439100
13.158300 0.395000
13.190200 0.319900
13.222100 0.284600
13.253900 0.253700
13.285800 0.240400
13.317700 0.218800
13.349600 0.198300
13.381500 0.178300
13.413400 0.158800
13.445300 0.139700
13.477200 0.121100
13.509100 0.106100
13.540900 0.097300
13.572800 0.092000
13.604700 0.088300
13.636600 0.091100
13.668500 0.105700
13.700400 0.120500
13.732300 0.138200
13.764200 0.153800
13.796100 0.179200
13.828000 0.287600
13.859800 0.342400
13.891700 0.439200
13.923600 0.462800
13.955500 0.531200
13.987400 0.614500
14.019300 0.660200
14.051200 0.731400
14.083100 0.815900
14.115000 0.888400
14.146800 0.970900
14.178700 1.077100
14.210600 1.369800
14.242500 1.373900
14.274400 1.433400
14.306300 1.574600
14.338200 1.415500
14.370100 1.289900
14.402000 1.245300
14.433900 1.205100
14.465700 1.150000
14.497600 1.102600
14.529500 0.924400
14.561400 0.790500
14.593300 0.709200
14.625200 0.640400
14.657100 0.590800
14.689000 0.583900
14.720900 0.642300
14.752700 0.782400
14.784600 0.919500
14.816500 0.978800
14.848400 1.020400
14.880300 1.118000
14.912200 1.236300
14.944100 1.277100
14.976000 1.311000
15.007900 1.331600
15.039800 1.355300
15.071600 1.423900
15.103500 1.451200
15.135400 1.521700
15.167300 1.627300
15.199200 1.729200
15.231100 1.806600
15.263000 1.583000
15.294900 1.351300
15.326800 1.259500
15.358600 1.143900
15.390500 1.099800
15.422400 1.017400
15.454300 0.944900
15.486200 1.014100
15.518100 0.971800
15.550000 0.962000
15.581900 0.946900
15.613800 0.968000
15.645700 0.971700
15.677500 0.980100
15.709400 1.013600
15.741300 0.987800
15.773200 0.957400
15.805100 0.960300
15.837000 0.949000
15.868900 0.962300
15.900800 0.948700
15.932700 0.997400
15.964500 1.010900
15.996400 1.067900
16.028300 1.135000
16.060200 1.167300
16.092100 1.329000
16.124000 1.347900
16.155900 1.461400
16.187800 1.556300
16.219700 1.773300
16.251600 1.606700
16.283400 1.566100
16.315300 1.460500
16.347200 1.349400
16.379100 1.302700
16.411000 1.256400
16.442900 1.227400
16.474800 1.216200
16.506700 1.180500
16.538600 1.185100
16.570400 1.206900
16.602300 1.221100
16.634200 1.202000
16.666100 1.213700
16.698000 1.193500
16.729900 1.196700
16.761800 1.209200
16.793700 1.199700
16.825600 1.221800
16.857500 1.214800
16.889300 1.102300
16.921200 1.001500
16.953100 0.913200
16.985000 0.885400
17.016900 0.901600
17.048800 0.929700
17.080700 0.966600
17.112600 0.977000
17.144500 0.982900
17.176400 0.991400
17.208200 0.982300
17.240100 1.013500
17.272000 1.043900
17.303900 1.141400
17.335800 1.234500
17.367700 1.311500
17.399600 1.406800
17.431500 1.490700
17.463400 1.408900
17.495200 1.332200
17.527100 1.346700
17.559000 1.323800
17.590900 1.261200
17.622800 1.247700
17.654700 1.231500
17.686600 1.136300
17.718500 1.087600
17.750400 1.060900
17.782300 1.016500
17.814100 0.990700
17.846000 0.959600
17.877900 0.964500
17.909800 1.004200
17.941700 1.086600
17.973600 1.373000
18.005500 1.766300
18.037400 1.483200
18.069300 1.406400
18.101100 1.402100
18.133000 1.395000
18.164900 1.388200
18.196800 1.351500
18.228700 1.230300
18.260600 1.171400
18.292500 1.100200
18.324400 1.059100
18.356300 1.022000
18.388200 1.019500
18.420000 1.023500
18.451900 0.973100
18.483800 0.873500
18.515700 0.770800
18.547600 0.724700
18.579500 0.683300
18.611400 0.664400
18.643300 0.615200
18.675200 0.577500
18.707000 0.553300
18.738900 0.531400
18.770800 0.519800
18.802700 0.499300
18.834600 0.452900
18.866500 0.393500
18.898400 0.356000
18.930300 0.339200
18.962200 0.330000
18.994100 0.324900
19.025900 0.322900
19.057800 0.324000
19.089700 0.328300
19.121600 0.332900
19.153500 0.339500
19.185400 0.348800
19.217300 0.361900
19.249200 0.376100
19.281100 0.391400
19.312900 0.407900
19.344800 0.427800
19.376700 0.452100
19.408600 0.504200
19.440500 0.604000
19.472400 0.711800
19.504300 0.655600
19.536200 0.684300
19.568100 0.700100
19.600000 0.674200
19.631800 0.625100
19.663700 0.611300
19.695600 0.609400
19.727500 0.641200
19.759400 0.627100
19.791300 0.644900
19.823200 0.665300
19.855100 0.693500
19.887000 0.735200
19.918800 0.787000
19.950700 0.842900
19.982600 0.891500
20.014500 0.929300
20.046400 0.958800
20.078300 0.975000
20.110200 1.003700
20.142100 0.995900
20.174000 0.980700
20.205900 0.972000
20.237700 0.972300
20.269600 0.975000
20.301500 1.002000
20.333400 0.955900
20.365300 0.982700
20.397200 1.037000
20.429100 1.108800
20.461000 1.201400
20.492900 1.337000
20.524700 1.477300
20.556600 1.589200
20.588500 1.658100
20.620400 1.699400
20.652300 1.713200
20.684200 1.684600
20.716100 1.666500
20.748000 1.652800
20.779900 1.585600
20.811800 1.568400
20.843600 1.622700
20.875500 1.926500
20.907400 1.851400
20.939300 1.823200
20.971200 1.686600
21.003100 1.555300
21.035000 1.421300
21.066900 1.308900
21.098800 1.251500
21.130600 1.234900
21.162500 1.198100
21.194400 1.186300
21.226300 1.184100
21.258200 1.134100
21.290100 1.122600
21.322000 1.115700
21.353900 1.119800
21.385800 1.111400
21.417700 1.058200
21.449500 1.013400
21.481400 0.988400
21.513300 0.979100
21.545200 0.982300
21.577100 0.986200
21.609000 0.999900
21.640900 1.053100
21.672800 1.124800
21.704700 1.160000
21.736500 1.223300
21.768400 1.298600
21.800300 1.360300
21.832200 1.422200
21.864100 1.538700
21.896000 1.604600
21.927900 1.791900
21.959800 1.752200
21.991700 1.545100
22.023600 1.350600
22.055400 1.178900
22.087300 1.002000
22.119200 0.914200
22.151100 0.875200
22.183000 0.955300
22.214900 1.030100
22.246800 1.220700
22.278700 1.338200
22.310600 1.387300
22.342400 1.384200
22.374300 1.288300
22.406200 1.306200
22.438100 1.302300
22.470000 1.275500
22.501900 1.271600
22.533800 1.208300
22.565700 1.128800
22.597600 1.046500
22.629500 1.015100
22.661300 0.960800
22.693200 0.902300
22.725100 0.887600
22.757000 0.978300
22.788900 0.971900
22.820800 1.024100
22.852700 1.065400
22.884600 1.108000
22.916500 1.145100
22.948300 1.175700
22.980200 1.081100
23.012100 0.994200
23.044000 1.014500
23.075900 1.050800
23.107800 1.083800
23.139700 1.101500
23.171600 1.096500
23.203500 1.092100
23.235400 1.108000
23.267200 1.147200
23.299100 1.164300
23.331000 1.149700
23.362900 1.127700
23.394800 1.108400
23.426700 1.162600
23.458600 1.109400
23.490500 1.038900
23.522400 1.013000
23.554200 0.985100
23.586100 1.005500
23.618000 1.053800
23.649900 1.130700
23.681800 1.209100
23.713700 1.292700
23.745600 1.391300
23.777500 1.498900
23.809400 1.603200
23.841300 1.538100
23.873100 1.520700
23.905000 1.513600
23.936900 1.432600
23.968800 1.305300
24.000700 1.274200
24.032600 1.261400
24.064500 1.254600
24.096400 1.222900
24.128300 1.211000
24.160100 1.156200
24.192000 1.081700
24.223900 1.064700
24.255800 1.045100
24.287700 1.031700
24.319600 1.016200
24.351500 1.018500
24.383400 1.058400
24.415300 1.246100
24.447200 1.509400
24.479000 1.630800
24.510900 1.564800
24.542800 1.489200
24.574700 1.470000
24.606600 1.362700
24.638500 1.339500
24.670400 1.351900
24.702300 1.219800
24.734200 1.198900
24.766000 1.164100
24.797900 1.196600
24.829800 1.100600
24.861700 1.018800
24.893600 0.968600
24.925500 0.940200
24.957400 0.916400
24.989300 0.900100
25.021200 0.905900
25.053100 1.008300
25.084900 1.241400
25.116800 1.307700
25.148700 1.253900
25.180600 1.247200
25.212500 1.305000
25.244400 1.376600
25.276300 1.415500
25.308200 1.412600
25.340100 1.391400
25.371900 1.254700
25.403800 1.083500
25.435700 0.957600
25.467600 0.857800
25.499500 0.783700
25.531400 0.706200
25.563300 0.622200
25.595200 0.548700
25.627100 0.498300
25.659000 0.471300
25.690800 0.482000
25.722700 0.514700
25.754600 0.558000
25.786500 0.629000
25.818400 0.721900
25.850300 0.888500
25.882200 0.893500
25.914100 0.911000
25.946000 0.944600
25.977800 0.986900
26.009700 1.027600
26.041600 1.191300
26.073500 1.330400
26.105400 1.432500
26.137300 1.433800
26.169200 1.384500
26.201100 1.358200
26.233000 1.255500
26.264900 1.156200
26.296700 1.083400
26.328600 1.021900
26.360500 0.958400
26.392400 0.906300
26.424300 0.872400
26.456200 0.852200
26.488100 0.843200
26.520000 0.842400
26.551900 0.857000
26.583700 0.845600
26.615600 0.833300
26.647500 0.831200
26.679400 0.853000
26.711300 0.889000
26.743200 0.969400
26.775100 1.016800
26.807000 1.060700
26.838900 1.098300
26.870800 1.143600
26.902600 1.245800
26.934500 1.378200
26.966400 1.513800
26.998300 1.602700
27.030200 1.675300
27.062100 1.721800
27.094000 1.759300
27.125900 1.816400
27.157800 2.028000
27.189600 1.930000
27.221500 1.730200
27.253400 1.572200
27.285300 1.605800
27.317200 1.583100
27.349100 1.301400
27.381000 1.187200
27.412900 1.107800
27.444800 1.061400
27.476700 1.037100
27.508500 0.996800
27.540400 1.012900
27.572300 1.064900
27.604200 1.101300
27.636100 1.165000
27.668000 1.268700
27.699900 1.335400
27.731800 1.445500
27.763700 1.573400
27.795500 1.700300
27.827400 1.864200
27.859300 1.817000
27.891200 1.764300
27.923100 1.670900
27.955000 1.749500
27.986900 1.850700
28.018800 1.595200
28.050700 1.484700
28.082600 1.329200
28.114400 1.237800
28.146300 1.146100
28.178200 1.072000
28.210100 1.029000
28.242000 1.026000
28.273900 1.057800
28.305800 1.125400
28.337700 1.208100
28.369600 1.326000
28.401400 1.436200
28.433300 1.367500
28.465200 1.390500
28.497100 1.427600
28.529000 1.472200
28.560900 1.521400
28.592800 1.656100
28.624700 1.792600
28.656600 1.927900
28.688500 2.016900
28.720300 2.104600
28.752200 2.164000
28.784100 2.101500
28.816000 2.008800
28.847900 1.811700
28.879800 1.736000
28.911700 1.626400
28.943600 1.591700
28.975500 1.590000
29.007300 1.660700
29.039200 1.657900
29.071100 1.628300
29.103000 1.637100
29.134900 1.614000
29.166800 1.578600
29.198700 1.569100
29.230600 1.597100
29.262500 1.502500
29.294400 1.486100
29.326200 1.459800
29.358100 1.440600
29.390000 1.440900
29.421900 1.661100
29.453800 1.414600
29.485700 1.330000
29.517600 1.264500
29.549500 1.261800
29.581400 1.212200
29.613200 1.174100
29.645100 1.143500
29.677000 1.144500
29.708900 1.147400
29.740800 1.069600
29.772700 1.129000
29.804600 1.190700
29.836500 1.258800
29.868400 1.346700
29.900300 1.435900
29.932100 1.452000
29.964000 1.521800
29.995900 1.648400
30.027800 1.789700
30.059700 1.932500
30.091600 2.009700
30.123500 1.927500
30.155400 1.740000
30.187300 1.589700
30.219100 1.436200
30.251000 1.364500
30.282900 1.368500
30.314800 1.452200
30.346700 1.406200
30.378600 1.365000
30.410500 1.341800
30.442400 1.389700
30.474300 1.385800
30.506200 1.383100
30.538000 1.384400
30.569900 1.334700
30.601800 1.296500
30.633700 1.306000
30.665600 1.385800
30.697500 1.355300
30.729400 1.319500
30.761300 1.308200
30.793200 1.274000
30.825000 1.243300
30.856900 1.247300
30.888800 1.269500
30.920700 1.318600
30.952600 1.409400
30.984500 1.475600
31.016400 1.574700
31.048300 1.607500
31.080200 1.591200
31.112100 1.491200
31.143900 1.427800
31.175800 1.387000
31.207700 1.372000
31.239600 1.370700
31.271500 1.351300
31.303400 1.355100
31.335300 1.329800
31.367200 1.300500
31.399100 1.217500
31.430900 1.120200
31.462800 1.056700
31.494700 1.019000
31.526600 0.981200
31.558500 0.948200
31.590400 0.920600
31.622300 0.909700
31.654200 0.914600
31.686100 0.903700
31.718000 0.856600
31.749800 0.828400
31.781700 0.820100
31.813600 0.822000
31.845500 0.839900
31.877400 0.886400
31.909300 0.985400
31.941200 1.061100
31.973100 1.088900
32.005000 1.160700
32.036800 1.231800
32.068700 1.228900
32.100600 1.236700
32.132500 1.239800
32.164400 1.182300
32.196300 1.138900
32.228200 1.128800
32.260100 1.126600
32.292000 1.117600
32.323900 1.106600
32.355700 1.106800
32.387600 1.080200
32.419500 1.072700
32.451400 1.075500
32.483300 1.057400
32.515200 1.069400
32.547100 1.137700
32.579000 1.142500
32.610900 1.099400
32.642700 1.087300
32.674600 1.101200
32.706500 1.145300
32.738400 1.162600
32.770300 1.163600
32.802200 1.210000
32.834100 1.262700
32.866000 1.253400
32.897900 1.239200
32.929800 1.284600
32.961600 1.250900
32.993500 1.186900
33.025400 1.184700
33.057300 1.181400
33.089200 1.156200
33.121100 1.183700
33.153000 1.164900
33.184900 1.160000
33.216800 1.168100
33.248600 1.186200
33.280500 1.225000
33.312400 1.377200
33.344300 1.342700
33.376200 1.415600
33.408100 1.553600
33.440000 1.676000
33.471900 1.703300
33.503800 1.781500
33.535700 1.871000
33.567500 1.832600
33.599400 1.863700
33.631300 1.745800
33.663200 1.689900
33.695100 1.686800
33.727000 1.690700
33.758900 1.707900
33.790800 1.774000
33.822700 1.798200
33.854500 1.807000
33.886400 1.739600
33.918300 1.634300
33.950200 1.553900
33.982100 1.530100
34.014000 1.482200
34.045900 1.472100
34.077800 1.428400
34.109700 1.410600
34.141600 1.242900
34.173400 1.126000
34.205300 1.050100
34.237200 1.002300
34.269100 0.974400
34.301000 0.957900
34.332900 0.946000
34.364800 0.938200
34.396700 0.939000
34.428600 0.934100
34.460400 0.921600
34.492300 0.899400
34.524200 0.863200
34.556100 0.825100
34.588000 0.789900
34.619900 0.758600
34.651800 0.745200
34.683700 0.728500
34.715600 0.713800
34.747500 0.705400
34.779300 0.704100
34.811200 0.718800
34.843100 0.729600
34.875000 0.727600
34.906900 0.696900
34.938800 0.615000
34.970700 0.531000
35.002600 0.486800
35.034500 0.460600
35.066300 0.432100
35.098200 0.410300
35.130100 0.410800
35.162000 0.411700
35.193900 0.406100
35.225800 0.385500
35.257700 0.332300
35.289600 0.281900
35.321500 0.240500
35.353400 0.203600
35.385200 0.172300
35.417100 0.139500
35.449000 0.101100
35.480900 0.068600
35.512800 0.042100
35.544700 0.023100
35.576600 0.018400
35.608500 0.014500
35.640400 0.011000
35.672200 0.008100
35.704100 0.005800
35.736000 0.004100
35.767900 0.002900
35.799800 0.001900
35.831700 0.001100
35.863600 0.000500
35.895500 0.000100
35.927400 0.000000
35.959300 0.000000
35.991100 0.000000
36.023000 0.000000
36.054900 0.000000
36.086800 0.000000
36.118700 0.000000
36.150600 0.000000
36.182500 0.000000
36.214400 0.000000
36.246300 0.000000
36.278100 0.000000
36.310000 0.000000
36.341900 0.000000
36.373800 0.000000
36.405700 0.000000
36.437600 0.000000
36.469500 0.000000
36.501400 0.000000
36.533300 0.000000
36.565200 0.000000
36.597000 0.000000
36.628900 0.000000
36.660800 0.000000
36.692700 0.000000
36.724600 0.000000
36.756500 0.000000
36.788400 0.000000
36.820300 0.000000
36.852200 0.000000
36.884000 0.000000
36.915900 0.000000
36.947800 0.000000
36.979700 0.000000
37.011600 0.000000
37.043500 0.000000
37.075400 0.000000
37.107300 0.000000
37.139200 0.000000
37.171100 0.000000
37.202900 0.000000
37.234800 0.000000
37.266700 0.000000
37.298600 0.000000
37.330500 0.000000
37.362400 0.000000
37.394300 0.000000
37.426200 0.000000
37.458100 0.000000
37.489900 0.000000
37.521800 0.000000
37.553700 0.000000
37.585600 0.000000
37.617500 0.000000
37.649400 0.000000
37.681300 0.000000
37.713200 0.000000
37.745100 0.000000
37.777000 0.000000
37.808800 0.000000
37.840700 0.000000
37.872600 0.000000
37.904500 0.000000
37.936400 0.000000
37.968300 0.000000
38.000200 0.000000
38.032100 0.000000
38.064000 0.000000
38.095800 0.000000
38.127700 0.000000
38.159600 0.000000
38.191500 0.000000
38.223400 0.000000
38.255300 0.000000
38.287200 0.000000
38.319100 0.000000
38.351000 0.000000
38.382900 0.000000
38.414700 0.000000
38.446600 0.000000
38.478500 0.000000
38.510400 0.000000
38.542300 0.000000
38.574200 0.000000
38.606100 0.000000
38.638000 0.000000
38.669900 0.000000
38.701700 0.000000
38.733600 0.000000
38.765500 0.000000
38.797400 0.000000
38.829300 0.000000
e
