set title 'mp-917 - Density of States'
set xlabel 'Energy (eV)'
set ylabel 'DOS (states/eV)'
set grid
set xrange [-10:10]
set yrange [0:18.964]
set xzeroaxis lt -1
set terminal png size 800,600
set output 'mp-917_dos_gnuplot.png'
plot '-' using 1:2 with lines title 'DOS'
-42.390700 0.000000
-42.338500 0.000000
-42.286300 0.000000
-42.234200 0.000000
-42.182000 0.000000
-42.129900 0.000000
-42.077700 0.000000
-42.025500 0.000000
-41.973400 0.000000
-41.921200 0.000000
-41.869100 0.000000
-41.816900 0.000000
-41.764700 0.000000
-41.712600 0.000000
-41.660400 0.000000
-41.608300 0.000000
-41.556100 0.000000
-41.503900 0.000000
-41.451800 0.000000
-41.399600 0.000000
-41.347500 0.000000
-41.295300 0.000000
-41.243100 0.000000
-41.191000 0.000000
-41.138800 0.000000
-41.086700 0.000000
-41.034500 0.000000
-40.982400 0.000000
-40.930200 0.000000
-40.878000 0.000000
-40.825900 0.000000
-40.773700 0.000000
-40.721600 0.000000
-40.669400 0.000000
-40.617200 0.000000
-40.565100 0.000000
-40.512900 0.000000
-40.460800 0.000000
-40.408600 0.000000
-40.356400 0.000000
-40.304300 0.000000
-40.252100 0.000000
-40.200000 0.000000
-40.147800 0.000000
-40.095600 0.000000
-40.043500 0.000000
-39.991300 0.000000
-39.939200 0.000000
-39.887000 0.000000
-39.834800 0.000000
-39.782700 0.000000
-39.730500 0.000000
-39.678400 0.000000
-39.626200 0.000000
-39.574000 0.000000
-39.521900 0.000000
-39.469700 0.000000
-39.417600 0.000000
-39.365400 0.000000
-39.313300 0.000000
-39.261100 0.000000
-39.208900 0.000000
-39.156800 0.000000
-39.104600 0.000000
-39.052500 0.000000
-39.000300 0.000000
-38.948100 0.000000
-38.896000 0.000000
-38.843800 0.000000
-38.791700 0.000000
-38.739500 0.000000
-38.687300 0.000000
-38.635200 0.000000
-38.583000 0.000000
-38.530900 0.000000
-38.478700 0.000000
-38.426500 0.000000
-38.374400 0.000000
-38.322200 0.000000
-38.270100 0.000000
-38.217900 0.000000
-38.165700 0.000000
-38.113600 0.000000
-38.061400 0.000000
-38.009300 0.000000
-37.957100 0.000000
-37.904900 0.000000
-37.852800 0.000000
-37.800600 0.000000
-37.748500 0.000000
-37.696300 0.000000
-37.644100 130.971700
-37.592000 0.000000
-37.539800 0.000000
-37.487700 0.000000
-37.435500 0.000000
-37.383400 0.000000
-37.331200 0.000000
-37.279000 0.000000
-37.226900 0.000000
-37.174700 0.000000
-37.122600 0.000000
-37.070400 0.000000
-37.018200 0.000000
-36.966100 0.000000
-36.913900 0.000000
-36.861800 0.000000
-36.809600 0.000000
-36.757400 0.000000
-36.705300 0.000000
-36.653100 0.000000
-36.601000 0.000000
-36.548800 0.000000
-36.496600 0.000000
-36.444500 0.000000
-36.392300 0.000000
-36.340200 0.000000
-36.288000 0.000000
-36.235800 0.000000
-36.183700 0.000000
-36.131500 0.000000
-36.079400 0.000000
-36.027200 0.000000
-35.975000 0.000000
-35.922900 0.000000
-35.870700 0.000000
-35.818600 0.000000
-35.766400 0.000000
-35.714300 0.000000
-35.662100 0.000000
-35.609900 0.000000
-35.557800 0.000000
-35.505600 0.000000
-35.453500 0.000000
-35.401300 0.000000
-35.349100 0.000000
-35.297000 0.000000
-35.244800 0.000000
-35.192700 0.000000
-35.140500 0.000000
-35.088300 0.000000
-35.036200 0.000000
-34.984000 0.000000
-34.931900 0.000000
-34.879700 0.000000
-34.827500 0.000000
-34.775400 0.000000
-34.723200 0.000000
-34.671100 0.000000
-34.618900 0.000000
-34.566700 0.000000
-34.514600 0.000000
-34.462400 0.000000
-34.410300 0.000000
-34.358100 0.000000
-34.305900 0.000000
-34.253800 0.000000
-34.201600 0.000000
-34.149500 0.000000
-34.097300 0.000000
-34.045100 0.000000
-33.993000 0.000000
-33.940800 0.000000
-33.888700 0.000000
-33.836500 0.000000
-33.784400 0.000000
-33.732200 0.000000
-33.680000 0.000000
-33.627900 0.000000
-33.575700 0.000000
-33.523600 0.000000
-33.471400 0.000000
-33.419200 0.000000
-33.367100 0.000000
-33.314900 0.000000
-33.262800 0.000000
-33.210600 0.000000
-33.158400 0.000000
-33.106300 0.000000
-33.054100 0.000000
-33.002000 0.000000
-32.949800 0.000000
-32.897600 0.000000
-32.845500 0.000000
-32.793300 0.000000
-32.741200 0.000000
-32.689000 0.000000
-32.636800 0.000000
-32.584700 0.000000
-32.532500 0.000000
-32.480400 0.000000
-32.428200 0.000000
-32.376000 0.000000
-32.323900 0.000000
-32.271700 0.000000
-32.219600 0.000000
-32.167400 0.000000
-32.115300 0.000000
-32.063100 0.000000
-32.010900 0.000000
-31.958800 0.000000
-31.906600 0.000000
-31.854500 0.000000
-31.802300 0.000000
-31.750100 0.000000
-31.698000 0.000000
-31.645800 0.000000
-31.593700 0.000000
-31.541500 0.000000
-31.489300 0.000000
-31.437200 0.000000
-31.385000 0.000000
-31.332900 0.000000
-31.280700 0.000000
-31.228500 0.000000
-31.176400 0.000000
-31.124200 0.000000
-31.072100 0.000000
-31.019900 0.000000
-30.967700 0.000000
-30.915600 0.000000
-30.863400 0.000000
-30.811300 0.000000
-30.759100 0.000000
-30.706900 0.000000
-30.654800 0.000000
-30.602600 0.000000
-30.550500 0.000000
-30.498300 0.000000
-30.446100 0.000000
-30.394000 0.000000
-30.341800 0.000000
-30.289700 0.000000
-30.237500 0.000000
-30.185400 0.000000
-30.133200 0.000000
-30.081000 0.000000
-30.028900 0.000000
-29.976700 0.000000
-29.924600 0.000000
-29.872400 0.000000
-29.820200 0.000000
-29.768100 0.000000
-29.715900 0.000000
-29.663800 0.000000
-29.611600 0.000000
-29.559400 0.000000
-29.507300 0.000000
-29.455100 0.000000
-29.403000 0.000000
-29.350800 0.000000
-29.298600 0.000000
-29.246500 0.000000
-29.194300 0.000000
-29.142200 0.000000
-29.090000 0.000000
-29.037800 0.000000
-28.985700 0.000000
-28.933500 0.000000
-28.881400 0.000000
-28.829200 0.000000
-28.777000 0.000000
-28.724900 0.000000
-28.672700 0.000000
-28.620600 0.000000
-28.568400 0.000000
-28.516300 0.000000
-28.464100 0.000000
-28.411900 0.000000
-28.359800 0.000000
-28.307600 0.000000
-28.255500 0.000000
-28.203300 0.000000
-28.151100 0.000000
-28.099000 0.000000
-28.046800 0.000000
-27.994700 0.000000
-27.942500 0.000000
-27.890300 0.000000
-27.838200 0.000000
-27.786000 0.000000
-27.733900 0.000000
-27.681700 0.000000
-27.629500 0.000000
-27.577400 0.000000
-27.525200 0.000000
-27.473100 0.000000
-27.420900 0.000000
-27.368700 0.000000
-27.316600 0.000000
-27.264400 0.000000
-27.212300 0.000000
-27.160100 0.000000
-27.107900 0.000000
-27.055800 0.000000
-27.003600 0.000000
-26.951500 0.000000
-26.899300 0.000000
-26.847100 0.000000
-26.795000 0.000000
-26.742800 0.000000
-26.690700 0.000000
-26.638500 0.000000
-26.586400 0.000000
-26.534200 0.000000
-26.482000 0.000000
-26.429900 0.000000
-26.377700 0.000000
-26.325600 0.000000
-26.273400 0.000000
-26.221200 0.000000
-26.169100 0.000000
-26.116900 0.000000
-26.064800 0.000000
-26.012600 0.000000
-25.960400 0.000000
-25.908300 0.000000
-25.856100 0.000000
-25.804000 0.000000
-25.751800 0.000000
-25.699600 0.000000
-25.647500 0.000000
-25.595300 0.000000
-25.543200 0.000000
-25.491000 0.000000
-25.438800 0.000000
-25.386700 0.000000
-25.334500 0.000000
-25.282400 0.000000
-25.230200 0.000000
-25.178000 0.000000
-25.125900 0.000000
-25.073700 0.000000
-25.021600 0.000000
-24.969400 0.000000
-24.917300 0.000000
-24.865100 0.000000
-24.812900 0.000000
-24.760800 0.000000
-24.708600 0.000000
-24.656500 0.000000
-24.604300 0.000000
-24.552100 0.000000
-24.500000 0.000000
-24.447800 0.000000
-24.395700 0.000000
-24.343500 0.000000
-24.291300 0.000000
-24.239200 0.000000
-24.187000 0.000000
-24.134900 0.000000
-24.082700 0.000000
-24.030500 0.000000
-23.978400 0.000000
-23.926200 0.000000
-23.874100 0.000000
-23.821900 0.000000
-23.769700 0.000000
-23.717600 0.000000
-23.665400 0.000000
-23.613300 0.000000
-23.561100 0.000000
-23.508900 0.000000
-23.456800 0.000000
-23.404600 0.000000
-23.352500 0.000000
-23.300300 0.000000
-23.248100 0.000000
-23.196000 0.000000
-23.143800 0.000000
-23.091700 0.000000
-23.039500 0.000000
-22.987400 0.000000
-22.935200 0.000000
-22.883000 0.000000
-22.830900 0.000000
-22.778700 0.000000
-22.726600 0.000000
-22.674400 0.000000
-22.622200 0.000000
-22.570100 0.000000
-22.517900 0.000000
-22.465800 0.000000
-22.413600 0.000000
-22.361400 0.000000
-22.309300 0.000000
-22.257100 0.000000
-22.205000 0.000000
-22.152800 0.000000
-22.100600 0.000000
-22.048500 0.000000
-21.996300 0.000000
-21.944200 0.000000
-21.892000 0.000000
-21.839800 0.000000
-21.787700 0.000000
-21.735500 0.000000
-21.683400 0.000000
-21.631200 0.000000
-21.579000 0.000000
-21.526900 0.000000
-21.474700 0.000000
-21.422600 0.000000
-21.370400 0.000000
-21.318300 0.000000
-21.266100 0.000000
-21.213900 0.000000
-21.161800 0.000000
-21.109600 0.000000
-21.057500 0.000000
-21.005300 0.000000
-20.953100 0.000000
-20.901000 0.000000
-20.848800 0.000000
-20.796700 0.000000
-20.744500 0.000000
-20.692300 0.000000
-20.640200 0.000000
-20.588000 0.000000
-20.535900 0.000000
-20.483700 0.000000
-20.431500 0.000000
-20.379400 0.000000
-20.327200 0.000000
-20.275100 0.000000
-20.222900 0.000000
-20.170700 0.000000
-20.118600 0.000000
-20.066400 0.000000
-20.014300 0.000000
-19.962100 0.000000
-19.909900 0.000000
-19.857800 0.000000
-19.805600 0.000000
-19.753500 0.000000
-19.701300 0.000000
-19.649100 0.000000
-19.597000 0.000000
-19.544800 0.000000
-19.492700 0.000000
-19.440500 0.000000
-19.388400 0.000000
-19.336200 0.000000
-19.284000 0.000000
-19.231900 0.000000
-19.179700 0.000000
-19.127600 0.000000
-19.075400 0.000000
-19.023200 0.000000
-18.971100 0.000000
-18.918900 0.000000
-18.866800 0.000000
-18.814600 30.628900
-18.762400 95.762400
-18.710300 45.743000
-18.658100 54.550100
-18.606000 0.000000
-18.553800 0.000000
-18.501600 0.000000
-18.449500 0.000000
-18.397300 0.000000
-18.345200 0.000000
-18.293000 0.000000
-18.240800 0.000000
-18.188700 0.000000
-18.136500 0.000000
-18.084400 0.000000
-18.032200 0.000000
-17.980000 0.000000
-17.927900 0.000000
-17.875700 0.000000
-17.823600 0.000000
-17.771400 0.000000
-17.719300 0.000000
-17.667100 0.000000
-17.614900 0.000000
-17.562800 0.000000
-17.510600 0.000000
-17.458500 0.000000
-17.406300 0.000000
-17.354100 0.000000
-17.302000 0.000000
-17.249800 0.000000
-17.197700 0.000000
-17.145500 0.000000
-17.093300 0.000000
-17.041200 0.000000
-16.989000 0.000000
-16.936900 0.000000
-16.884700 0.000000
-16.832500 0.000000
-16.780400 0.000000
-16.728200 0.000000
-16.676100 0.000000
-16.623900 0.000000
-16.571700 0.000000
-16.519600 0.000000
-16.467400 0.000000
-16.415300 0.000000
-16.363100 0.000000
-16.310900 0.000000
-16.258800 0.000000
-16.206600 0.000000
-16.154500 0.000000
-16.102300 0.000000
-16.050100 0.000000
-15.998000 0.000000
-15.945800 0.000000
-15.893700 0.000000
-15.841500 0.000000
-15.789400 0.000000
-15.737200 0.000000
-15.685000 0.000000
-15.632900 0.000000
-15.580700 0.000000
-15.528600 0.000000
-15.476400 0.000000
-15.424200 0.000000
-15.372100 0.000000
-15.319900 0.000000
-15.267800 0.000000
-15.215600 0.000000
-15.163400 0.000000
-15.111300 0.000000
-15.059100 0.000000
-15.007000 0.000000
-14.954800 0.000000
-14.902600 0.000000
-14.850500 0.000000
-14.798300 0.000000
-14.746200 0.000000
-14.694000 0.000000
-14.641800 0.000000
-14.589700 0.000000
-14.537500 0.000000
-14.485400 0.000000
-14.433200 0.000000
-14.381000 0.000000
-14.328900 0.000000
-14.276700 0.000000
-14.224600 0.000000
-14.172400 0.000000
-14.120300 0.000000
-14.068100 0.000000
-14.015900 0.000000
-13.963800 0.000000
-13.911600 0.000000
-13.859500 0.000000
-13.807300 0.000000
-13.755100 0.000000
-13.703000 0.000000
-13.650800 0.000000
-13.598700 0.000000
-13.546500 0.000000
-13.494300 0.000000
-13.442200 0.000000
-13.390000 0.000000
-13.337900 0.000000
-13.285700 0.000000
-13.233500 0.000000
-13.181400 0.000000
-13.129200 0.000000
-13.077100 0.000000
-13.024900 0.000000
-12.972700 0.000000
-12.920600 0.000000
-12.868400 0.000000
-12.816300 0.000000
-12.764100 0.000000
-12.711900 0.000000
-12.659800 0.000000
-12.607600 0.000000
-12.555500 0.000000
-12.503300 0.000000
-12.451100 0.000000
-12.399000 0.000000
-12.346800 0.000000
-12.294700 0.000000
-12.242500 0.000000
-12.190400 0.000000
-12.138200 0.000000
-12.086000 0.000000
-12.033900 0.000000
-11.981700 0.000000
-11.929600 0.000000
-11.877400 0.000000
-11.825200 0.000000
-11.773100 0.000000
-11.720900 0.000000
-11.668800 0.000000
-11.616600 0.000000
-11.564400 0.000000
-11.512300 0.000000
-11.460100 0.000000
-11.408000 0.081400
-11.355800 1.646800
-11.303600 3.225400
-11.251500 4.210200
-11.199300 6.811800
-11.147200 14.466600
-11.095000 2.835700
-11.042800 12.848700
-10.990700 21.563000
-10.938500 0.000000
-10.886400 0.000000
-10.834200 0.000000
-10.782000 0.000000
-10.729900 0.000000
-10.677700 0.000000
-10.625600 0.000000
-10.573400 0.000000
-10.521300 0.000000
-10.469100 0.000000
-10.416900 0.000000
-10.364800 0.000000
-10.312600 0.000000
-10.260500 0.000000
-10.208300 0.000000
-10.156100 0.000000
-10.104000 0.000000
-10.051800 0.000000
-9.999700 0.000000
-9.947500 0.000000
-9.895300 0.000000
-9.843200 0.000000
-9.791000 0.000000
-9.738900 0.000000
-9.686700 0.000000
-9.634500 0.000000
-9.582400 0.000000
-9.530200 0.000000
-9.478100 0.000000
-9.425900 0.000000
-9.373700 0.000000
-9.321600 0.000000
-9.269400 0.000000
-9.217300 0.000000
-9.165100 0.000000
-9.112900 0.000000
-9.060800 0.000000
-9.008600 0.000000
-8.956500 0.000000
-8.904300 0.000000
-8.852100 0.000000
-8.800000 0.000000
-8.747800 0.000000
-8.695700 0.000000
-8.643500 0.000000
-8.591400 0.000000
-8.539200 0.000000
-8.487000 0.000000
-8.434900 0.000000
-8.382700 0.000000
-8.330600 0.000000
-8.278400 0.000000
-8.226200 0.000000
-8.174100 0.000000
-8.121900 0.000000
-8.069800 0.000000
-8.017600 0.000000
-7.965400 0.000000
-7.913300 0.000000
-7.861100 0.000000
-7.809000 0.000000
-7.756800 0.000000
-7.704600 0.000000
-7.652500 0.000000
-7.600300 0.000000
-7.548200 0.000000
-7.496000 0.000000
-7.443800 0.000000
-7.391700 0.000000
-7.339500 0.000000
-7.287400 0.000000
-7.235200 0.000000
-7.183000 0.000000
-7.130900 0.000000
-7.078700 0.000000
-7.026600 0.000000
-6.974400 0.000000
-6.922300 0.000000
-6.870100 0.000000
-6.817900 0.000000
-6.765800 0.000000
-6.713600 0.000000
-6.661500 0.000000
-6.609300 0.000000
-6.557100 0.000000
-6.505000 0.000000
-6.452800 0.000000
-6.400700 0.000000
-6.348500 0.000000
-6.296300 0.000000
-6.244200 0.000000
-6.192000 0.000000
-6.139900 0.000000
-6.087700 0.000000
-6.035500 0.000000
-5.983400 0.000000
-5.931200 0.000000
-5.879100 0.000000
-5.826900 0.000000
-5.774700 0.000000
-5.722600 0.000000
-5.670400 0.000000
-5.618300 0.000000
-5.566100 0.000000
-5.513900 0.000000
-5.461800 0.000000
-5.409600 0.000000
-5.357500 0.000000
-5.305300 0.000000
-5.253100 0.000000
-5.201000 0.000000
-5.148800 0.000000
-5.096700 0.000000
-5.044500 0.000000
-4.992400 0.000000
-4.940200 0.000000
-4.888000 0.000000
-4.835900 0.000000
-4.783700 0.000000
-4.731600 0.000000
-4.679400 0.000000
-4.627200 0.000000
-4.575100 0.000000
-4.522900 0.000000
-4.470800 0.000000
-4.418600 0.000000
-4.366400 0.000000
-4.314300 0.000000
-4.262100 0.000000
-4.210000 0.000000
-4.157800 0.000000
-4.105600 0.000000
-4.053500 0.000000
-4.001300 0.000000
-3.949200 0.000000
-3.897000 0.000000
-3.844800 0.000000
-3.792700 0.000000
-3.740500 0.000000
-3.688400 0.000000
-3.636200 0.000000
-3.584000 0.000000
-3.531900 0.000000
-3.479700 0.000000
-3.427600 0.000000
-3.375400 0.000000
-3.323300 0.000000
-3.271100 0.006900
-3.218900 0.106200
-3.166800 0.642500
-3.114600 1.400800
-3.062500 2.119700
-3.010300 2.902100
-2.958100 3.080200
-2.906000 3.232700
-2.853800 3.204000
-2.801700 3.336000
-2.749500 3.527100
-2.697300 4.236900
-2.645200 4.756100
-2.593000 6.127900
-2.540900 6.161300
-2.488700 5.881800
-2.436500 5.225100
-2.384400 5.224600
-2.332200 4.622700
-2.280100 2.376700
-2.227900 1.751700
-2.175700 1.415800
-2.123600 1.140400
-2.071400 0.874200
-2.019300 0.721800
-1.967100 0.623900
-1.914900 0.519800
-1.862800 0.422000
-1.810600 0.330300
-1.758500 0.244000
-1.706300 0.163200
-1.654100 0.090000
-1.602000 0.037500
-1.549800 0.401700
-1.497700 1.615200
-1.445500 3.856100
-1.393400 5.051300
-1.341200 5.145700
-1.289000 3.641800
-1.236900 3.317500
-1.184700 3.519400
-1.132600 3.767900
-1.080400 3.907600
-1.028200 4.229200
-0.976100 4.208100
-0.923900 5.716600
-0.871800 4.759500
-0.819600 3.996600
-0.767400 3.524800
-0.715300 3.625600
-0.663100 4.349500
-0.611000 5.167700
-0.558800 4.815900
-0.506600 6.001500
-0.454500 7.122600
-0.402300 8.863500
-0.350200 10.373800
-0.298000 8.442600
-0.245800 8.200200
-0.193700 6.579800
-0.141500 5.061500
-0.089400 3.211900
-0.037200 2.687500
0.015000 2.331700
0.067100 2.375300
0.119300 2.175800
0.171400 1.452000
0.223600 1.031400
0.275700 2.921000
0.327900 14.912100
0.380100 17.240000
0.432200 5.393200
0.484400 7.730500
0.536500 8.601700
0.588700 7.675500
0.640900 6.208100
0.693000 5.440000
0.745200 1.672500
0.797300 0.000000
0.849500 0.000000
0.901700 0.000000
0.953800 0.000000
1.006000 0.000000
1.058100 0.000000
1.110300 0.000000
1.162500 0.000000
1.214600 0.000000
1.266800 0.000000
1.318900 0.000000
1.371100 0.000000
1.423300 0.000000
1.475400 0.000000
1.527600 0.000000
1.579700 0.000000
1.631900 0.000000
1.684100 0.000000
1.736200 0.000000
1.788400 0.000000
1.840500 0.000000
1.892700 0.000000
1.944900 0.000000
1.997000 0.000000
2.049200 0.000000
2.101300 0.000000
2.153500 0.000000
2.205600 0.000000
2.257800 0.000000
2.310000 0.000000
2.362100 0.000000
2.414300 0.000000
2.466400 0.000000
2.518600 0.000000
2.570800 0.000000
2.622900 0.000000
2.675100 0.000000
2.727200 0.000000
2.779400 0.000000
2.831600 0.000000
2.883700 0.000000
2.935900 0.000000
2.988000 0.000000
3.040200 0.000000
3.092400 0.000000
3.144500 0.000000
3.196700 0.034700
3.248800 0.084900
3.301000 0.148200
3.353200 0.224600
3.405300 0.310200
3.457500 0.397300
3.509600 0.485600
3.561800 0.576000
3.614000 0.656100
3.666100 0.770900
3.718300 0.874000
3.770400 0.965000
3.822600 1.043700
3.874700 1.107400
3.926900 1.152300
3.979100 1.223400
4.031200 1.470600
4.083400 1.801400
4.135500 1.977800
4.187700 1.832200
4.239900 1.658100
4.292000 1.476400
4.344200 1.322000
4.396300 1.182500
4.448500 1.080000
4.500700 1.001700
4.552800 0.901300
4.605000 0.910400
4.657100 0.996600
4.709300 1.157000
4.761500 1.453900
4.813600 2.758300
4.865800 3.827700
4.917900 3.362900
4.970100 3.945200
5.022300 3.517700
5.074400 3.312500
5.126600 3.141700
5.178700 2.807900
5.230900 2.548700
5.283100 2.681500
5.335200 2.752700
5.387400 2.742400
5.439500 3.197400
5.491700 2.875900
5.543900 2.961500
5.596000 3.223700
5.648200 3.589000
5.700300 4.269900
5.752500 5.028100
5.804600 5.093200
5.856800 4.548600
5.909000 4.375300
5.961100 3.982700
6.013300 4.075600
6.065400 4.196300
6.117600 3.802000
6.169800 3.644900
6.221900 2.534100
6.274100 2.714500
6.326200 3.286300
6.378400 3.975000
6.430600 3.806800
6.482700 3.495400
6.534900 3.102700
6.587000 2.863700
6.639200 3.044100
6.691400 2.579200
6.743500 2.266200
6.795700 2.169500
6.847800 2.312400
6.900000 3.009400
6.952200 3.742400
7.004300 4.237200
7.056500 4.321300
7.108600 4.338900
7.160800 4.588100
7.213000 4.994600
7.265100 4.783200
7.317300 4.736100
7.369400 5.137500
7.421600 4.647500
7.473700 4.622900
7.525900 5.208000
7.578100 5.773100
7.630200 6.123100
7.682400 6.583000
7.734500 7.481500
7.786700 7.817000
7.838900 8.658000
7.891000 8.423400
7.943200 7.743100
7.995300 7.632500
8.047500 8.381700
8.099700 8.589500
8.151800 10.741100
8.204000 8.688200
8.256100 7.986800
8.308300 8.530200
8.360500 7.366300
8.412600 5.727200
8.464800 4.715700
8.516900 4.577900
8.569100 4.692500
8.621300 5.332300
8.673400 4.245200
8.725600 4.299600
8.777700 3.831800
8.829900 4.821200
8.882100 5.792200
8.934200 9.875900
8.986400 4.759100
9.038500 4.065200
9.090700 4.299800
9.142900 5.108100
9.195000 6.170700
9.247200 9.005600
9.299300 8.110200
9.351500 7.787700
9.403600 6.176700
9.455800 5.213000
9.508000 9.427100
9.560100 6.902100
9.612300 5.793500
9.664400 6.760900
9.716600 3.301300
9.768800 1.989100
9.820900 3.769100
9.873100 13.544900
9.925200 7.356900
9.977400 6.106900
10.029600 4.537800
10.081700 2.826900
10.133900 1.699600
10.186000 1.430800
10.238200 1.977100
10.290400 2.798500
10.342500 3.824300
10.394700 4.533400
10.446800 3.763900
10.499000 2.895200
10.551200 2.463600
10.603300 2.778000
10.655500 3.489400
10.707600 4.020000
10.759800 3.866900
10.812000 4.216500
10.864100 3.549100
10.916300 3.390000
10.968400 2.983700
11.020600 2.925600
11.072700 2.684500
11.124900 2.461300
11.177100 2.554600
11.229200 2.714900
11.281400 2.905500
11.333500 4.000300
11.385700 2.498300
11.437900 1.406400
11.490000 0.922300
11.542200 0.865800
11.594300 1.210300
11.646500 1.787600
11.698700 2.248800
11.750800 2.643800
11.803000 2.788400
11.855100 2.871300
11.907300 3.193800
11.959500 2.933300
12.011600 2.432400
12.063800 2.201500
12.115900 1.949400
12.168100 1.863900
12.220300 2.358500
12.272400 2.798500
12.324600 3.288000
12.376700 3.047700
12.428900 3.030900
12.481100 3.079700
12.533200 3.036400
12.585400 2.819000
12.637500 2.953900
12.689700 3.004200
12.741900 2.953400
12.794000 2.824800
12.846200 3.020200
12.898300 3.287600
12.950500 3.207600
13.002600 3.137100
13.054800 3.140900
13.107000 3.569200
13.159100 3.640300
13.211300 2.943400
13.263400 2.091800
13.315600 1.926400
13.367800 1.769600
13.419900 1.633800
13.472100 1.610800
13.524200 1.545900
13.576400 1.439600
13.628600 1.385400
13.680700 1.534300
13.732900 1.837100
13.785000 2.157000
13.837200 2.550900
13.889400 2.751000
13.941500 3.119500
13.993700 3.011100
14.045800 3.065300
14.098000 3.195000
14.150200 2.972500
14.202300 3.287900
14.254500 3.042300
14.306600 2.781900
14.358800 2.491900
14.411000 2.492800
14.463100 2.507900
14.515300 2.671700
14.567400 2.783300
14.619600 2.701700
14.671700 2.774300
14.723900 2.947000
14.776100 3.161200
14.828200 3.034300
14.880400 3.050700
14.932500 3.075600
14.984700 2.990200
15.036900 2.904700
15.089000 2.639500
15.141200 2.532000
15.193300 2.152400
15.245500 1.805000
15.297700 1.674300
15.349800 1.559000
15.402000 1.527600
15.454100 1.825700
15.506300 1.885100
15.558500 2.183900
15.610600 2.769500
15.662800 3.623500
15.714900 3.710000
15.767100 3.750200
15.819300 3.629600
15.871400 3.068200
15.923600 2.528600
15.975700 1.861100
16.027900 1.621500
16.080100 1.442700
16.132200 1.696400
16.184400 2.194400
16.236500 2.977400
16.288700 3.198200
16.340900 3.425200
16.393000 3.746700
16.445200 4.306700
16.497300 4.264400
16.549500 3.218000
16.601600 2.881700
16.653800 2.411200
16.706000 1.807800
16.758100 1.526500
16.810300 1.284000
16.862400 1.444700
16.914600 1.903600
16.966800 2.255400
17.018900 2.381000
17.071100 2.488200
17.123200 2.630300
17.175400 2.847000
17.227600 3.271900
17.279700 3.859600
17.331900 4.227600
17.384000 3.821400
17.436200 2.688300
17.488400 1.925100
17.540500 1.392900
17.592700 0.999700
17.644800 0.685100
17.697000 0.459600
17.749200 0.335500
17.801300 0.310000
17.853500 0.363800
17.905600 0.449000
17.957800 0.627100
18.010000 1.234100
18.062100 1.821400
18.114300 2.632200
18.166400 3.872100
18.218600 5.058500
18.270700 4.821500
18.322900 4.384700
18.375100 3.854900
18.427200 3.385600
18.479400 3.042500
18.531500 2.706100
18.583700 1.849900
18.635900 2.140900
18.688000 3.070000
18.740200 4.257000
18.792300 5.208200
18.844500 5.640000
18.896700 4.616700
18.948800 3.672200
19.001000 3.127600
19.053100 2.681700
19.105300 2.288600
19.157500 1.882500
19.209600 1.770600
19.261800 2.435900
19.313900 3.291400
19.366100 3.659900
19.418300 4.721200
19.470400 4.923800
19.522600 4.164200
19.574700 3.646100
19.626900 2.858600
19.679100 2.422500
19.731200 2.531600
19.783400 2.603100
19.835500 2.592900
19.887700 3.254200
19.939900 4.408200
19.992000 4.659200
20.044200 4.617000
20.096300 5.547700
20.148500 4.559600
20.200600 4.298100
20.252800 3.955000
20.305000 4.074300
20.357100 3.325600
20.409300 4.327500
20.461400 3.528900
20.513600 3.196600
20.565800 3.287400
20.617900 4.267400
20.670100 4.351600
20.722200 4.729500
20.774400 3.981300
20.826600 3.422500
20.878700 3.600800
20.930900 3.577500
20.983000 3.231300
21.035200 3.189600
21.087400 2.853500
21.139500 2.876500
21.191700 2.977500
21.243800 2.941600
21.296000 3.088600
21.348200 3.170500
21.400300 3.243600
21.452500 3.335000
21.504600 3.502100
21.556800 3.987700
21.609000 4.006600
21.661100 4.565100
21.713300 5.166700
21.765400 4.626000
21.817600 3.975300
21.869700 3.609900
21.921900 3.289700
21.974100 3.023500
22.026200 2.990200
22.078400 3.028200
22.130500 3.431900
22.182700 3.529000
22.234900 3.862000
22.287000 4.214400
22.339200 4.601400
22.391300 4.669400
22.443500 4.459200
22.495700 4.234700
22.547800 4.052900
22.600000 3.565800
22.652100 3.074400
22.704300 2.487500
22.756500 2.247400
22.808600 2.275600
22.860800 2.446600
22.912900 2.592600
22.965100 2.937600
23.017300 3.732700
23.069400 4.853900
23.121600 4.763500
23.173700 4.326700
23.225900 4.386200
23.278100 5.110800
23.330200 5.061000
23.382400 4.582900
23.434500 3.629100
23.486700 2.886000
23.538900 2.134100
23.591000 2.096800
23.643200 2.338000
23.695300 2.748000
23.747500 3.772600
23.799600 4.802500
23.851800 5.601800
23.904000 5.772600
23.956100 4.952500
24.008300 3.550800
24.060400 3.246800
24.112600 3.198400
24.164800 3.336200
24.216900 3.735700
24.269100 4.005300
24.321200 4.617600
24.373400 4.809200
24.425600 4.509600
24.477700 4.685400
24.529900 3.979700
24.582000 4.340700
24.634200 4.451100
24.686400 4.503800
24.738500 4.378400
24.790700 4.787600
24.842800 4.651400
24.895000 4.523500
24.947200 3.859500
24.999300 3.136800
25.051500 3.096200
25.103600 3.741700
25.155800 4.704700
25.208000 4.636200
25.260100 4.500300
25.312300 3.817100
25.364400 3.414800
25.416600 3.317200
25.468700 2.686700
25.520900 2.482500
25.573100 2.497900
25.625200 3.159900
25.677400 4.073900
25.729500 4.555000
25.781700 4.947400
25.833900 4.690600
25.886000 4.036700
25.938200 3.478800
25.990300 3.228500
26.042500 3.276500
26.094700 3.227300
26.146800 3.567800
26.199000 4.184100
26.251100 4.297500
26.303300 4.198500
26.355500 3.830400
26.407600 3.486400
26.459800 3.246500
26.511900 2.828500
26.564100 2.467600
26.616300 2.349600
26.668400 2.556700
26.720600 2.666800
26.772700 2.673000
26.824900 2.829700
26.877100 3.137900
26.929200 3.534400
26.981400 4.304800
27.033500 4.218400
27.085700 4.486800
27.137900 4.981500
27.190000 4.125900
27.242200 3.755400
27.294300 4.074900
27.346500 4.200300
27.398600 3.924800
27.450800 4.159000
27.503000 4.092200
27.555100 4.227200
27.607300 4.303500
27.659400 4.388300
27.711600 3.630100
27.763800 3.433600
27.815900 3.304400
27.868100 3.405200
27.920200 3.831000
27.972400 4.213500
28.024600 4.405600
28.076700 4.442300
28.128900 4.444400
28.181000 4.437500
28.233200 3.866800
28.285400 3.916800
28.337500 3.988200
28.389700 4.092700
28.441800 3.778800
28.494000 3.357100
28.546200 3.115600
28.598300 3.424400
28.650500 3.708400
28.702600 3.915100
28.754800 4.049300
28.807000 4.017400
28.859100 4.089300
28.911300 4.264700
28.963400 4.439200
29.015600 4.946000
29.067700 5.032100
29.119900 4.972100
29.172100 4.187200
29.224200 3.904000
29.276400 4.476800
29.328500 4.464700
29.380700 4.380000
29.432900 4.231500
29.485000 3.883700
29.537200 3.654900
29.589300 3.631100
29.641500 3.851400
29.693700 4.037400
29.745800 4.114100
29.798000 4.024700
29.850100 3.995600
29.902300 4.504400
29.954500 5.716300
30.006600 6.556100
30.058800 5.768500
30.110900 5.129600
30.163100 4.470600
30.215300 3.950600
30.267400 3.703900
30.319600 3.993500
30.371700 4.488200
30.423900 5.007900
30.476100 4.948100
30.528200 4.170400
30.580400 3.677400
30.632500 4.133100
30.684700 3.815900
30.736900 4.808900
30.789000 5.654500
30.841200 4.679700
30.893300 4.245100
30.945500 4.187200
30.997600 4.501200
31.049800 4.948300
31.102000 5.448200
31.154100 5.221500
31.206300 5.625600
31.258400 5.284700
31.310600 4.841600
31.362800 5.147800
31.414900 4.570700
31.467100 5.083700
31.519200 5.203800
31.571400 4.858200
31.623600 4.733000
31.675700 5.032800
31.727900 5.240700
31.780000 5.634600
31.832200 5.535600
31.884400 5.840000
31.936500 6.580200
31.988700 7.179300
32.040800 6.269000
32.093000 5.329100
32.145200 4.986400
32.197300 4.747200
32.249500 4.940000
32.301600 4.929300
32.353800 5.008700
32.406000 4.809900
32.458100 4.726800
32.510300 4.705500
32.562400 4.582500
32.614600 4.503500
32.666700 4.398700
32.718900 4.452700
32.771100 4.269800
32.823200 4.857300
32.875400 5.179500
32.927500 5.033900
32.979700 4.559200
33.031900 4.439800
33.084000 4.488000
33.136200 4.585100
33.188300 4.812100
33.240500 4.909800
33.292700 4.597700
33.344800 4.446700
33.397000 4.236400
33.449100 4.400900
33.501300 4.495100
33.553500 3.872900
33.605600 3.676700
33.657800 3.379100
33.709900 3.295500
33.762100 3.376700
33.814300 3.618900
33.866400 3.811900
33.918600 3.887000
33.970700 3.983100
34.022900 4.178900
34.075100 3.925300
34.127200 4.281800
34.179400 4.511700
34.231500 4.666300
34.283700 4.471000
34.335900 4.268000
34.388000 4.114300
34.440200 3.874600
34.492300 4.356000
34.544500 4.635100
34.596600 4.394200
34.648800 4.317300
34.701000 4.460800
34.753100 4.182000
34.805300 3.793900
34.857400 3.619400
34.909600 3.469400
34.961800 3.499300
35.013900 3.639300
35.066100 3.932100
35.118200 4.179200
35.170400 4.448200
35.222600 4.524800
35.274700 3.669600
35.326900 3.231700
35.379000 3.250700
35.431200 3.536500
35.483400 3.971200
35.535500 4.209000
35.587700 4.541100
35.639800 4.315600
35.692000 3.882900
35.744200 3.705400
35.796300 3.818300
35.848500 3.929900
35.900600 4.218900
35.952800 4.378300
36.005000 4.278700
36.057100 4.558800
36.109300 4.195100
36.161400 4.022000
36.213600 3.907800
36.265700 3.744200
36.317900 3.650400
36.370100 3.879700
36.422200 3.788100
36.474400 3.309800
36.526500 3.428500
36.578700 3.675900
36.630900 3.768500
36.683000 3.742300
36.735200 3.567500
36.787300 3.466700
36.839500 3.476700
36.891700 3.526600
36.943800 3.635200
36.996000 3.720900
37.048100 4.076200
37.100300 4.328600
37.152500 4.319500
37.204600 4.268300
37.256800 4.016900
37.308900 3.775400
37.361100 3.745700
37.413300 3.750300
37.465400 4.081800
37.517600 4.258500
37.569700 4.327600
37.621900 4.286000
37.674100 4.230200
37.726200 4.259000
37.778400 4.502100
37.830500 4.816000
37.882700 4.848200
37.934900 4.731500
37.987000 4.417500
38.039200 4.096000
38.091300 3.761700
38.143500 3.448700
38.195600 3.489600
38.247800 3.651400
38.300000 3.832600
38.352100 4.062800
38.404300 4.489500
38.456400 4.584500
38.508600 4.833100
38.560800 5.022800
38.612900 5.199000
38.665100 5.203100
38.717200 4.239100
38.769400 4.133100
38.821600 4.258500
38.873700 5.115000
38.925900 5.186700
38.978000 5.191500
39.030200 4.952600
39.082400 4.873700
39.134500 4.467200
39.186700 4.324200
39.238800 4.121100
39.291000 3.978200
39.343200 4.088800
39.395300 4.211200
39.447500 4.101400
39.499600 4.110600
39.551800 4.320200
39.604000 4.371200
39.656100 4.210500
39.708300 3.675900
39.760400 3.774100
39.812600 4.208000
39.864700 4.566600
39.916900 4.687600
39.969100 4.618100
40.021200 4.697600
40.073400 4.650100
40.125500 4.456500
40.177700 3.836700
40.229900 3.555800
40.282000 3.611300
40.334200 3.746200
40.386300 4.092000
40.438500 4.538500
40.490700 4.961700
40.542800 4.979500
40.595000 5.231800
40.647100 5.137100
40.699300 5.262600
40.751500 5.231000
40.803600 5.103500
40.855800 4.967500
40.907900 4.492000
40.960100 4.130000
41.012300 4.201200
41.064400 3.989600
41.116600 4.041700
41.168700 4.493500
41.220900 5.311700
41.273100 5.974900
41.325200 6.053000
41.377400 5.492100
41.429500 4.670300
41.481700 4.315300
41.533900 4.139700
41.586000 3.976200
41.638200 3.602400
41.690300 3.685400
41.742500 3.865300
41.794600 4.600200
41.846800 4.018400
41.899000 3.954800
41.951100 3.915600
42.003300 3.831200
42.055400 4.198700
42.107600 4.722700
42.159800 5.538800
42.211900 6.959000
42.264100 5.983800
42.316200 5.469500
42.368400 4.755800
42.420600 4.503900
42.472700 4.332700
42.524900 4.450200
42.577000 4.851100
42.629200 5.508200
42.681400 5.951000
42.733500 4.944100
42.785700 4.698700
42.837800 4.162500
42.890000 3.738400
42.942200 3.485500
42.994300 3.585300
43.046500 4.198000
43.098600 5.050600
43.150800 5.355800
43.203000 5.444800
43.255100 5.386100
43.307300 6.043100
43.359400 5.639500
43.411600 5.369500
43.463700 4.962100
43.515900 4.410700
43.568100 4.597100
43.620200 5.012100
43.672400 4.980000
43.724500 4.832600
43.776700 4.996500
43.828900 4.861100
43.881000 4.694400
43.933200 4.760200
43.985300 4.511900
44.037500 4.111000
44.089700 3.935500
44.141800 4.670100
44.194000 5.352200
44.246100 5.287400
44.298300 4.795500
44.350500 4.664500
44.402600 4.654100
44.454800 4.839900
44.506900 4.847600
44.559100 4.305100
44.611300 4.308700
44.663400 3.982900
44.715600 4.389000
44.767700 5.105900
44.819900 5.299700
44.872100 4.997800
44.924200 4.713700
44.976400 5.154600
45.028500 5.607600
45.080700 5.248000
45.132900 5.067400
45.185000 4.629000
45.237200 4.689900
45.289300 4.753100
45.341500 4.821100
45.393600 5.163700
45.445800 4.663300
45.498000 4.608400
45.550100 4.762300
45.602300 4.574600
45.654400 4.704300
45.706600 5.019300
45.758800 5.574700
45.810900 6.111000
45.863100 6.280900
45.915200 5.374700
45.967400 4.953800
46.019600 4.730600
46.071700 4.311800
46.123900 4.194600
46.176000 4.235900
46.228200 4.467500
46.280400 4.411900
46.332500 4.470700
46.384700 4.586500
46.436800 4.899700
46.489000 5.144200
46.541200 5.219300
46.593300 5.371000
46.645500 5.160300
46.697600 4.999100
46.749800 4.941500
46.802000 5.194100
46.854100 5.534800
46.906300 5.806600
46.958400 5.859200
47.010600 5.641500
47.062700 5.177800
47.114900 5.054400
47.167100 5.326300
47.219200 5.366800
47.271400 5.079800
47.323500 4.934400
47.375700 5.304400
47.427900 5.820100
47.480000 5.663100
47.532200 4.676600
47.584300 4.407100
47.636500 5.254900
47.688700 5.359000
47.740800 5.465400
47.793000 5.297700
47.845100 4.901400
47.897300 4.865000
47.949500 5.198900
48.001600 5.584500
48.053800 5.790300
48.105900 5.120900
48.158100 4.660800
48.210300 4.375800
48.262400 4.203700
48.314600 4.362600
48.366700 4.643700
48.418900 4.744600
48.471100 4.447400
48.523200 4.216400
48.575400 4.623900
48.627500 4.896000
48.679700 5.047400
48.731900 5.209000
48.784000 5.081000
48.836200 5.147900
48.888300 5.961200
48.940500 5.352800
48.992600 4.729600
49.044800 4.541100
49.097000 4.444400
49.149100 4.591500
49.201300 5.149200
49.253400 5.497200
49.305600 5.658200
49.357800 5.190400
49.409900 5.048300
49.462100 4.943400
49.514200 4.676900
49.566400 4.681400
49.618600 4.983200
49.670700 5.265500
49.722900 5.533200
49.775000 5.036400
49.827200 4.651000
49.879400 4.606700
49.931500 4.585700
49.983700 4.587300
50.035800 4.784200
50.088000 4.992000
50.140200 5.223000
50.192300 5.259300
50.244500 4.842500
50.296600 4.508900
50.348800 4.406300
50.401000 4.618000
50.453100 4.854300
50.505300 5.151500
50.557400 5.684900
50.609600 5.807200
50.661700 5.489000
50.713900 5.752800
50.766100 5.492000
50.818200 5.244200
50.870400 5.469300
50.922500 5.786200
50.974700 5.514500
51.026900 5.274800
51.079000 5.016100
51.131200 4.936800
51.183300 4.810700
51.235500 4.776400
51.287700 4.772700
51.339800 4.697800
51.392000 5.018000
51.444100 5.341800
51.496300 5.740300
51.548500 5.193300
51.600600 5.137500
51.652800 4.730800
51.704900 4.837500
51.757100 5.170500
51.809300 5.396100
51.861400 5.699500
51.913600 5.651300
51.965700 5.389100
52.017900 5.091200
52.070100 4.968200
52.122200 4.679400
52.174400 4.777700
52.226500 5.083200
52.278700 5.273300
52.330900 5.347400
52.383000 5.326000
52.435200 5.406000
52.487300 5.316300
52.539500 5.033300
52.591600 5.071300
52.643800 5.240000
52.696000 5.512000
52.748100 5.550200
52.800300 5.216300
52.852400 5.154900
52.904600 5.283900
52.956800 5.264300
53.008900 5.361500
53.061100 5.340700
53.113200 5.337700
53.165400 5.423700
53.217600 5.345900
53.269700 5.266500
53.321900 5.433900
53.374000 5.713500
53.426200 6.147400
53.478400 6.390300
53.530500 6.362800
53.582700 6.204300
53.634800 5.450800
53.687000 4.959300
53.739200 4.779200
53.791300 4.660900
53.843500 4.610500
53.895600 4.719200
53.947800 5.125800
54.000000 5.553400
54.052100 5.440200
54.104300 5.141800
54.156400 4.766300
54.208600 4.631000
54.260700 4.491300
54.312900 4.563900
54.365100 4.979700
54.417200 5.168100
54.469400 5.808600
54.521500 5.449800
54.573700 5.252100
54.625900 5.043000
54.678000 5.543400
54.730200 5.441100
54.782300 5.903100
54.834500 5.659200
54.886700 5.063700
54.938800 4.364800
54.991000 4.367800
55.043100 4.715900
55.095300 5.059600
55.147500 5.477100
55.199600 6.494700
55.251800 6.513600
55.303900 5.382300
55.356100 5.009800
55.408300 4.918800
55.460400 5.331200
55.512600 5.357100
55.564700 5.564900
55.616900 6.028300
55.669100 5.829600
55.721200 5.401600
55.773400 4.885800
55.825500 4.665300
55.877700 4.497000
55.929900 4.832800
55.982000 4.718800
56.034200 4.515800
56.086300 4.482600
56.138500 4.279200
56.190600 4.686600
56.242800 3.727900
56.295000 3.718200
56.347100 3.391000
56.399300 3.258100
56.451400 3.333400
56.503600 3.881900
56.555800 3.414500
56.607900 2.674600
56.660100 2.320000
56.712200 1.835800
56.764400 1.350100
56.816600 0.977100
56.868700 0.745400
56.920900 0.491400
56.973000 0.282600
57.025200 0.142800
57.077400 0.039300
57.129500 0.007000
57.181700 0.000000
57.233800 0.000000
57.286000 0.000000
57.338200 0.000000
57.390300 0.000000
57.442500 0.000000
57.494600 0.000000
57.546800 0.000000
57.599000 0.000000
57.651100 0.000000
57.703300 0.000000
57.755400 0.000000
57.807600 0.000000
57.859700 0.000000
57.911900 0.000000
57.964100 0.000000
58.016200 0.000000
58.068400 0.000000
58.120500 0.000000
58.172700 0.000000
58.224900 0.000000
58.277000 0.000000
58.329200 0.000000
58.381300 0.000000
58.433500 0.000000
58.485700 0.000000
58.537800 0.000000
58.590000 0.000000
58.642100 0.000000
58.694300 0.000000
58.746500 0.000000
58.798600 0.000000
58.850800 0.000000
58.902900 0.000000
58.955100 0.000000
59.007300 0.000000
59.059400 0.000000
59.111600 0.000000
59.163700 0.000000
59.215900 0.000000
59.268100 0.000000
59.320200 0.000000
59.372400 0.000000
59.424500 0.000000
59.476700 0.000000
59.528900 0.000000
59.581000 0.000000
59.633200 0.000000
59.685300 0.000000
59.737500 0.000000
59.789600 0.000000
59.841800 0.000000
59.894000 0.000000
59.946100 0.000000
59.998300 0.000000
60.050400 0.000000
60.102600 0.000000
60.154800 0.000000
60.206900 0.000000
60.259100 0.000000
60.311200 0.000000
60.363400 0.000000
60.415600 0.000000
60.467700 0.000000
60.519900 0.000000
60.572000 0.000000
60.624200 0.000000
60.676400 0.000000
60.728500 0.000000
60.780700 0.000000
60.832800 0.000000
60.885000 0.000000
60.937200 0.000000
60.989300 0.000000
61.041500 0.000000
61.093600 0.000000
61.145800 0.000000
61.198000 0.000000
61.250100 0.000000
61.302300 0.000000
61.354400 0.000000
61.406600 0.000000
61.458700 0.000000
61.510900 0.000000
61.563100 0.000000
61.615200 0.000000
61.667400 0.000000
61.719500 0.000000
61.771700 0.000000
61.823900 0.000000
61.876000 0.000000
61.928200 0.000000
e
