set title 'mp-1018675 - Density of States'
set xlabel 'Energy (eV)'
set ylabel 'DOS (states/eV)'
set grid
set xrange [-10:10]
set yrange [0:14.680]
set xzeroaxis lt -1
set terminal png size 800,600
set output 'mp-1018675_dos_gnuplot.png'
plot '-' using 1:2 with lines title 'DOS'
-19.432000 0.000000
-19.414100 0.000000
-19.396200 0.000000
-19.378300 0.000000
-19.360400 0.000000
-19.342500 0.000000
-19.324600 0.000000
-19.306700 0.000000
-19.288800 0.000000
-19.270900 0.000000
-19.253000 0.000000
-19.235100 0.000000
-19.217200 0.000000
-19.199300 0.000000
-19.181400 0.000000
-19.163500 0.000000
-19.145600 0.000000
-19.127700 0.000000
-19.109800 0.000000
-19.091900 0.000000
-19.073900 0.000000
-19.056000 0.000000
-19.038100 0.000000
-19.020200 0.000000
-19.002300 0.000000
-18.984400 0.000000
-18.966500 0.000000
-18.948600 0.000000
-18.930700 0.000000
-18.912800 0.000000
-18.894900 0.000000
-18.877000 0.000000
-18.859100 0.000000
-18.841200 0.000000
-18.823300 0.000000
-18.805400 0.000000
-18.787500 0.000000
-18.769600 0.000000
-18.751700 0.000000
-18.733800 0.000000
-18.715900 0.000000
-18.698000 0.000000
-18.680100 0.000000
-18.662200 0.000000
-18.644300 0.000000
-18.626400 0.000000
-18.608500 0.000000
-18.590600 0.000000
-18.572700 0.000000
-18.554800 0.000000
-18.536900 0.000000
-18.519000 0.000000
-18.501100 0.000000
-18.483200 0.000000
-18.465300 0.000000
-18.447400 0.000000
-18.429500 0.000000
-18.411600 0.000000
-18.393700 0.000000
-18.375800 0.000000
-18.357900 0.000000
-18.340000 0.000000
-18.322100 0.000000
-18.304200 0.000000
-18.286300 0.000000
-18.268400 0.000000
-18.250500 0.000000
-18.232600 0.000000
-18.214700 0.000000
-18.196800 0.000000
-18.178900 0.000000
-18.161000 0.000000
-18.143100 0.000000
-18.125200 0.000000
-18.107300 0.000000
-18.089400 0.000000
-18.071500 0.000000
-18.053600 0.000000
-18.035700 0.000000
-18.017800 0.000000
-17.999900 0.000000
-17.982000 0.000000
-17.964100 0.000000
-17.946200 0.000000
-17.928300 0.000000
-17.910400 0.000000
-17.892500 0.000000
-17.874600 0.000000
-17.856700 0.000000
-17.838800 0.000000
-17.820900 0.000000
-17.803000 3.029100
-17.785100 25.511300
-17.767200 31.704500
-17.749300 52.570700
-17.731400 36.849100
-17.713500 44.830700
-17.695600 46.119500
-17.677700 30.710100
-17.659800 51.983900
-17.641900 100.981400
-17.624000 115.882300
-17.606100 35.143600
-17.588200 42.691800
-17.570300 57.664300
-17.552400 0.000000
-17.534500 0.000000
-17.516600 0.000000
-17.498700 0.000000
-17.480800 0.000000
-17.462900 0.000000
-17.445000 0.000000
-17.427100 0.000000
-17.409200 0.000000
-17.391300 0.000000
-17.373400 0.000000
-17.355500 0.000000
-17.337600 0.000000
-17.319700 0.000000
-17.301800 0.000000
-17.283900 0.000000
-17.266000 0.000000
-17.248100 0.000000
-17.230200 0.000000
-17.212300 0.000000
-17.194400 0.000000
-17.176500 0.000000
-17.158600 0.000000
-17.140700 0.000000
-17.122800 0.000000
-17.104800 0.000000
-17.086900 0.000000
-17.069000 0.000000
-17.051100 0.000000
-17.033200 0.000000
-17.015300 0.000000
-16.997400 0.000000
-16.979500 0.000000
-16.961600 0.000000
-16.943700 0.000000
-16.925800 0.000000
-16.907900 0.000000
-16.890000 0.000000
-16.872100 0.000000
-16.854200 0.000000
-16.836300 0.000000
-16.818400 0.000000
-16.800500 0.000000
-16.782600 0.000000
-16.764700 0.000000
-16.746800 0.000000
-16.728900 0.000000
-16.711000 0.000000
-16.693100 0.000000
-16.675200 0.000000
-16.657300 0.000000
-16.639400 0.000000
-16.621500 0.000000
-16.603600 0.000000
-16.585700 0.000000
-16.567800 0.000000
-16.549900 0.000000
-16.532000 0.000000
-16.514100 0.000000
-16.496200 0.000000
-16.478300 0.000000
-16.460400 0.000000
-16.442500 0.000000
-16.424600 0.000000
-16.406700 0.000000
-16.388800 0.000000
-16.370900 0.000000
-16.353000 0.000000
-16.335100 0.000000
-16.317200 0.000000
-16.299300 0.000000
-16.281400 0.000000
-16.263500 0.000000
-16.245600 0.000000
-16.227700 0.000000
-16.209800 0.000000
-16.191900 0.000000
-16.174000 0.000000
-16.156100 0.000000
-16.138200 0.000000
-16.120300 0.000000
-16.102400 0.000000
-16.084500 0.000000
-16.066600 0.000000
-16.048700 0.000000
-16.030800 0.000000
-16.012900 0.000000
-15.995000 0.000000
-15.977100 0.000000
-15.959200 0.000000
-15.941300 0.000000
-15.923400 0.000000
-15.905500 0.000000
-15.887600 0.000000
-15.869700 0.000000
-15.851800 0.000000
-15.833900 0.000000
-15.816000 0.000000
-15.798100 0.000000
-15.780200 0.000000
-15.762300 0.000000
-15.744400 0.000000
-15.726500 0.000000
-15.708600 0.000000
-15.690700 0.000000
-15.672800 0.000000
-15.654900 0.000000
-15.637000 0.000000
-15.619100 0.000000
-15.601200 0.000000
-15.583300 0.000000
-15.565400 0.000000
-15.547500 0.000000
-15.529600 0.000000
-15.511700 0.000000
-15.493800 0.000000
-15.475900 0.000000
-15.458000 0.000000
-15.440100 0.000000
-15.422200 0.000000
-15.404300 0.000000
-15.386400 0.000000
-15.368500 0.000000
-15.350600 0.000000
-15.332700 0.000000
-15.314800 0.000000
-15.296900 0.000000
-15.279000 0.000000
-15.261100 0.000000
-15.243200 0.000000
-15.225300 0.000000
-15.207400 0.000000
-15.189500 0.000000
-15.171600 0.000000
-15.153600 0.000000
-15.135700 0.000000
-15.117800 0.000000
-15.099900 0.000000
-15.082000 0.000000
-15.064100 0.000000
-15.046200 0.000000
-15.028300 0.000000
-15.010400 0.000000
-14.992500 0.000000
-14.974600 0.000000
-14.956700 0.000000
-14.938800 0.000000
-14.920900 0.000000
-14.903000 0.000000
-14.885100 0.000000
-14.867200 0.000000
-14.849300 0.000000
-14.831400 0.000000
-14.813500 0.000000
-14.795600 0.000000
-14.777700 0.000000
-14.759800 0.000000
-14.741900 0.000000
-14.724000 0.000000
-14.706100 0.000000
-14.688200 0.000000
-14.670300 0.000000
-14.652400 0.000000
-14.634500 0.000000
-14.616600 0.000000
-14.598700 0.000000
-14.580800 0.000000
-14.562900 0.000000
-14.545000 0.000000
-14.527100 0.000000
-14.509200 0.000000
-14.491300 0.000000
-14.473400 0.000000
-14.455500 0.000000
-14.437600 0.000000
-14.419700 0.000000
-14.401800 0.000000
-14.383900 0.000000
-14.366000 0.000000
-14.348100 0.000000
-14.330200 0.000000
-14.312300 0.000000
-14.294400 0.000000
-14.276500 0.000000
-14.258600 0.000000
-14.240700 0.000000
-14.222800 0.000000
-14.204900 0.000000
-14.187000 0.000000
-14.169100 0.000000
-14.151200 0.000000
-14.133300 0.000000
-14.115400 0.000000
-14.097500 0.000000
-14.079600 0.000000
-14.061700 0.000000
-14.043800 0.000000
-14.025900 0.000000
-14.008000 0.000000
-13.990100 0.000000
-13.972200 0.000000
-13.954300 0.000000
-13.936400 0.000000
-13.918500 0.000000
-13.900600 0.000000
-13.882700 0.000000
-13.864800 0.000000
-13.846900 0.000000
-13.829000 0.000000
-13.811100 0.000000
-13.793200 0.000000
-13.775300 0.000000
-13.757400 0.000000
-13.739500 0.000000
-13.721600 0.000000
-13.703700 0.000000
-13.685800 0.000000
-13.667900 0.000000
-13.650000 0.000000
-13.632100 0.000000
-13.614200 0.000000
-13.596300 0.000000
-13.578400 0.000000
-13.560500 0.000000
-13.542600 0.000000
-13.524700 0.000000
-13.506800 0.000000
-13.488900 0.000000
-13.471000 0.000000
-13.453100 0.000000
-13.435200 0.000000
-13.417300 0.000000
-13.399400 0.000000
-13.381500 0.000000
-13.363600 0.000000
-13.345700 0.000000
-13.327800 0.000000
-13.309900 0.000000
-13.292000 0.000000
-13.274100 0.000000
-13.256200 0.000000
-13.238300 0.000000
-13.220400 0.000000
-13.202500 0.000000
-13.184500 0.000000
-13.166600 0.000000
-13.148700 0.000000
-13.130800 0.000000
-13.112900 0.000000
-13.095000 0.000000
-13.077100 0.000000
-13.059200 0.000000
-13.041300 0.000000
-13.023400 0.000000
-13.005500 0.000000
-12.987600 0.000000
-12.969700 0.000000
-12.951800 0.000000
-12.933900 0.000000
-12.916000 0.000000
-12.898100 0.000000
-12.880200 0.000000
-12.862300 0.000000
-12.844400 0.000000
-12.826500 0.000000
-12.808600 0.000000
-12.790700 0.000000
-12.772800 0.000000
-12.754900 0.000000
-12.737000 0.000000
-12.719100 0.000000
-12.701200 0.000000
-12.683300 0.000000
-12.665400 0.000000
-12.647500 0.000000
-12.629600 0.000000
-12.611700 0.000000
-12.593800 0.000000
-12.575900 0.000000
-12.558000 0.000000
-12.540100 0.000000
-12.522200 0.000000
-12.504300 0.000000
-12.486400 0.000000
-12.468500 0.000000
-12.450600 0.000000
-12.432700 0.000000
-12.414800 0.000000
-12.396900 0.000000
-12.379000 0.000000
-12.361100 0.000000
-12.343200 0.000000
-12.325300 0.000000
-12.307400 0.000000
-12.289500 0.000000
-12.271600 0.000000
-12.253700 0.000000
-12.235800 0.000000
-12.217900 0.000000
-12.200000 0.000000
-12.182100 0.000000
-12.164200 0.000000
-12.146300 0.000000
-12.128400 0.000000
-12.110500 0.000000
-12.092600 0.000000
-12.074700 0.000000
-12.056800 0.000000
-12.038900 0.000000
-12.021000 0.000000
-12.003100 0.000000
-11.985200 0.000000
-11.967300 0.000000
-11.949400 0.000000
-11.931500 0.000000
-11.913600 0.000000
-11.895700 0.000000
-11.877800 0.000000
-11.859900 0.000000
-11.842000 0.000000
-11.824100 0.000000
-11.806200 0.000000
-11.788300 0.000000
-11.770400 0.000000
-11.752500 0.000000
-11.734600 0.000000
-11.716700 0.000000
-11.698800 0.000000
-11.680900 0.000000
-11.663000 0.000000
-11.645100 0.000000
-11.627200 0.000000
-11.609300 0.000000
-11.591400 0.000000
-11.573500 0.000000
-11.555600 0.000000
-11.537700 0.000000
-11.519800 0.000000
-11.501900 0.000000
-11.484000 0.000000
-11.466100 0.000000
-11.448200 0.000000
-11.430300 0.000000
-11.412400 0.000000
-11.394500 0.000000
-11.376600 0.000000
-11.358700 0.000000
-11.340800 0.000000
-11.322900 0.000000
-11.305000 0.000000
-11.287100 0.000000
-11.269200 0.000000
-11.251300 0.000000
-11.233300 0.000000
-11.215400 0.000000
-11.197500 0.000000
-11.179600 0.000000
-11.161700 0.000000
-11.143800 0.000000
-11.125900 0.000000
-11.108000 0.000000
-11.090100 0.000000
-11.072200 0.000000
-11.054300 0.000000
-11.036400 0.000000
-11.018500 0.000000
-11.000600 0.000000
-10.982700 0.000000
-10.964800 0.000000
-10.946900 0.000000
-10.929000 0.000000
-10.911100 0.000000
-10.893200 0.000000
-10.875300 0.000000
-10.857400 0.000000
-10.839500 0.000000
-10.821600 0.000000
-10.803700 0.000000
-10.785800 0.000000
-10.767900 0.000000
-10.750000 0.000000
-10.732100 0.000000
-10.714200 0.000000
-10.696300 0.000000
-10.678400 0.000000
-10.660500 0.000000
-10.642600 0.000000
-10.624700 0.000000
-10.606800 0.000000
-10.588900 0.000000
-10.571000 0.000000
-10.553100 0.000000
-10.535200 0.000000
-10.517300 0.000000
-10.499400 0.000000
-10.481500 0.000000
-10.463600 0.000000
-10.445700 0.000000
-10.427800 0.000000
-10.409900 0.000000
-10.392000 0.000000
-10.374100 0.000000
-10.356200 0.000000
-10.338300 0.000000
-10.320400 0.000000
-10.302500 0.000000
-10.284600 0.000000
-10.266700 0.000000
-10.248800 0.000000
-10.230900 0.000000
-10.213000 0.000000
-10.195100 0.000000
-10.177200 0.000000
-10.159300 0.000000
-10.141400 0.000000
-10.123500 0.000000
-10.105600 0.000000
-10.087700 0.000000
-10.069800 0.000000
-10.051900 0.000000
-10.034000 0.000000
-10.016100 0.000000
-9.998200 0.000000
-9.980300 0.000000
-9.962400 0.000000
-9.944500 0.000000
-9.926600 0.000000
-9.908700 0.000000
-9.890800 0.000000
-9.872900 0.000000
-9.855000 0.000000
-9.837100 0.000000
-9.819200 0.000000
-9.801300 0.000000
-9.783400 0.000000
-9.765500 0.000000
-9.747600 0.000000
-9.729700 0.000000
-9.711800 0.000000
-9.693900 0.000000
-9.676000 0.000000
-9.658100 0.000000
-9.640200 0.000000
-9.622300 0.000000
-9.604400 0.000000
-9.586500 0.000000
-9.568600 0.000000
-9.550700 0.000000
-9.532800 0.000000
-9.514900 0.000000
-9.497000 0.000000
-9.479100 0.000000
-9.461200 0.000000
-9.443300 0.000000
-9.425400 0.000000
-9.407500 0.000000
-9.389600 0.000000
-9.371700 0.000000
-9.353800 0.003800
-9.335900 0.140600
-9.318000 0.363000
-9.300100 0.475000
-9.282200 0.591500
-9.264200 0.790600
-9.246300 0.842800
-9.228400 0.826300
-9.210500 0.839600
-9.192600 0.844800
-9.174700 0.848100
-9.156800 0.827400
-9.138900 0.812100
-9.121000 0.826500
-9.103100 0.843300
-9.085200 0.863800
-9.067300 0.875100
-9.049400 0.871800
-9.031500 0.868800
-9.013600 0.854900
-8.995700 0.844000
-8.977800 0.846100
-8.959900 0.850100
-8.942000 0.857400
-8.924100 0.867100
-8.906200 0.880200
-8.888300 0.893500
-8.870400 0.905100
-8.852500 0.903600
-8.834600 0.897000
-8.816700 0.885300
-8.798800 0.878800
-8.780900 0.880400
-8.763000 0.883700
-8.745100 0.888200
-8.727200 0.893600
-8.709300 0.900300
-8.691400 0.907100
-8.673500 0.913900
-8.655600 0.920700
-8.637700 0.927700
-8.619800 0.937800
-8.601900 0.940000
-8.584000 0.937100
-8.566100 0.929700
-8.548200 0.928100
-8.530300 0.929000
-8.512400 0.930100
-8.494500 0.932200
-8.476600 0.935500
-8.458700 0.939200
-8.440800 0.944300
-8.422900 0.951000
-8.405000 0.959200
-8.387100 0.967200
-8.369200 0.974900
-8.351300 0.982100
-8.333400 0.989400
-8.315500 0.996100
-8.297600 0.994500
-8.279700 0.987800
-8.261800 0.984700
-8.243900 0.984600
-8.226000 0.988400
-8.208100 0.994600
-8.190200 1.000900
-8.172300 1.006300
-8.154400 1.011800
-8.136500 1.017200
-8.118600 1.022600
-8.100700 1.028000
-8.082800 1.033500
-8.064900 1.039000
-8.047000 1.044400
-8.029100 1.050700
-8.011200 1.060400
-7.993300 1.072300
-7.975400 1.083800
-7.957500 1.085700
-7.939600 1.083000
-7.921700 1.085500
-7.903800 1.088300
-7.885900 1.091800
-7.868000 1.096400
-7.850100 1.101000
-7.832200 1.105600
-7.814300 1.110200
-7.796400 1.124200
-7.778500 1.139000
-7.760600 1.148800
-7.742700 1.158700
-7.724800 1.168500
-7.706900 1.178300
-7.689000 1.187900
-7.671100 1.196700
-7.653200 1.205100
-7.635300 1.213600
-7.617400 1.222100
-7.599500 1.238500
-7.581600 1.251900
-7.563700 1.267900
-7.545800 1.281700
-7.527900 1.292200
-7.510000 1.303600
-7.492100 1.314900
-7.474200 1.326200
-7.456300 1.337900
-7.438400 1.349600
-7.420500 1.405100
-7.402600 1.626600
-7.384700 1.711600
-7.366800 1.785000
-7.348900 1.892200
-7.331000 1.996900
-7.313100 2.078700
-7.295100 2.154400
-7.277200 2.252200
-7.259300 2.403700
-7.241400 2.560100
-7.223500 2.769100
-7.205600 2.993800
-7.187700 3.186200
-7.169800 4.057500
-7.151900 3.659500
-7.134000 3.374000
-7.116100 3.212100
-7.098200 3.053500
-7.080300 3.101300
-7.062400 3.217800
-7.044500 2.939900
-7.026600 2.911200
-7.008700 2.882900
-6.990800 2.866600
-6.972900 2.855300
-6.955000 2.845900
-6.937100 2.832700
-6.919200 2.852400
-6.901300 2.885000
-6.883400 2.925700
-6.865500 3.075300
-6.847600 3.267000
-6.829700 3.544200
-6.811800 4.153200
-6.793900 5.669100
-6.776000 6.951000
-6.758100 3.410400
-6.740200 2.153600
-6.722300 1.496700
-6.704400 1.003900
-6.686500 0.597000
-6.668600 0.657400
-6.650700 1.934700
-6.632800 3.327500
-6.614900 5.163900
-6.597000 6.612600
-6.579100 8.028000
-6.561200 10.853600
-6.543300 8.980400
-6.525400 8.213200
-6.507500 7.775100
-6.489600 7.713100
-6.471700 7.699600
-6.453800 7.815800
-6.435900 8.331500
-6.418000 8.977400
-6.400100 9.749200
-6.382200 11.092700
-6.364300 13.345000
-6.346400 12.246600
-6.328500 11.672200
-6.310600 10.293300
-6.292700 8.303700
-6.274800 4.186000
-6.256900 1.100800
-6.239000 1.060900
-6.221100 1.020900
-6.203200 0.980900
-6.185300 0.940900
-6.167400 0.900800
-6.149500 0.860800
-6.131600 0.813000
-6.113700 0.796000
-6.095800 0.778900
-6.077900 0.761900
-6.060000 0.744800
-6.042100 0.727800
-6.024200 0.709700
-6.006300 0.690800
-5.988400 0.671900
-5.970500 0.653100
-5.952600 0.625200
-5.934700 0.608600
-5.916800 0.595200
-5.898900 0.584700
-5.881000 0.578600
-5.863100 0.572500
-5.845200 0.566400
-5.827300 0.560300
-5.809400 0.554200
-5.791500 0.548100
-5.773600 0.542000
-5.755700 0.535900
-5.737800 0.529800
-5.719900 0.504200
-5.702000 0.503700
-5.684100 0.503100
-5.666200 0.502500
-5.648300 0.501900
-5.630400 0.501300
-5.612500 0.505200
-5.594600 0.514300
-5.576700 0.513400
-5.558800 0.500900
-5.540900 0.488300
-5.523000 0.475700
-5.505100 0.463200
-5.487200 0.452100
-5.469300 0.447600
-5.451400 0.443000
-5.433500 0.438500
-5.415600 0.433900
-5.397700 0.429400
-5.379800 0.424800
-5.361900 0.420200
-5.343900 0.415700
-5.326000 0.415600
-5.308100 0.439100
-5.290200 0.462700
-5.272300 0.445900
-5.254400 0.427600
-5.236500 0.409200
-5.218600 0.390900
-5.200700 0.372600
-5.182800 0.354200
-5.164900 0.335900
-5.147000 0.356900
-5.129100 0.400500
-5.111200 0.444100
-5.093300 0.455200
-5.075400 0.332800
-5.057500 0.210400
-5.039600 0.088000
-5.021700 0.000000
-5.003800 0.000000
-4.985900 0.000000
-4.968000 0.000000
-4.950100 0.000000
-4.932200 0.000000
-4.914300 0.000000
-4.896400 0.000000
-4.878500 0.000000
-4.860600 0.000000
-4.842700 0.000000
-4.824800 0.000000
-4.806900 0.000000
-4.789000 0.000000
-4.771100 0.000000
-4.753200 0.000000
-4.735300 0.000000
-4.717400 0.000000
-4.699500 0.000000
-4.681600 0.000000
-4.663700 0.000000
-4.645800 0.000000
-4.627900 0.000000
-4.610000 0.000000
-4.592100 0.000000
-4.574200 0.000000
-4.556300 0.000000
-4.538400 0.000000
-4.520500 0.000000
-4.502600 0.000000
-4.484700 0.000000
-4.466800 0.000000
-4.448900 0.000000
-4.431000 0.000000
-4.413100 0.000000
-4.395200 0.000000
-4.377300 0.000000
-4.359400 0.000000
-4.341500 0.000000
-4.323600 0.000000
-4.305700 0.000000
-4.287800 0.000000
-4.269900 0.000000
-4.252000 0.000000
-4.234100 0.000000
-4.216200 0.000000
-4.198300 0.000000
-4.180400 0.000000
-4.162500 0.000000
-4.144600 0.000000
-4.126700 0.000000
-4.108800 0.000000
-4.090900 0.000000
-4.073000 0.000000
-4.055100 0.000000
-4.037200 0.000000
-4.019300 0.000000
-4.001400 0.000000
-3.983500 0.000000
-3.965600 0.000000
-3.947700 0.000000
-3.929800 0.000000
-3.911900 0.000000
-3.894000 0.000000
-3.876100 0.000000
-3.858200 0.000000
-3.840300 0.000000
-3.822400 0.000000
-3.804500 0.000000
-3.786600 0.000000
-3.768700 0.000000
-3.750800 0.000000
-3.732900 0.000000
-3.715000 0.000000
-3.697100 0.000000
-3.679200 0.000000
-3.661300 0.000000
-3.643400 0.000000
-3.625500 0.000000
-3.607600 0.000000
-3.589700 0.000000
-3.571800 0.000000
-3.553900 0.000000
-3.536000 0.000000
-3.518100 0.000000
-3.500200 0.000000
-3.482300 0.000000
-3.464400 0.000000
-3.446500 0.000000
-3.428600 0.000000
-3.410700 0.000000
-3.392800 0.000000
-3.374800 0.000000
-3.356900 0.000000
-3.339000 0.000000
-3.321100 0.000000
-3.303200 0.000000
-3.285300 0.000000
-3.267400 0.000000
-3.249500 0.000000
-3.231600 0.000000
-3.213700 0.000000
-3.195800 0.000000
-3.177900 0.000000
-3.160000 0.000000
-3.142100 0.000000
-3.124200 0.000000
-3.106300 0.000000
-3.088400 0.000000
-3.070500 0.000000
-3.052600 0.000000
-3.034700 0.000000
-3.016800 0.000000
-2.998900 0.000000
-2.981000 0.000000
-2.963100 0.000000
-2.945200 0.000000
-2.927300 0.000000
-2.909400 0.000000
-2.891500 0.000000
-2.873600 0.000000
-2.855700 0.000000
-2.837800 0.000000
-2.819900 0.000000
-2.802000 0.000000
-2.784100 0.000000
-2.766200 0.000000
-2.748300 0.000000
-2.730400 0.000000
-2.712500 0.000000
-2.694600 0.000000
-2.676700 0.000000
-2.658800 0.000000
-2.640900 0.000000
-2.623000 0.000000
-2.605100 0.000000
-2.587200 0.000000
-2.569300 0.000000
-2.551400 0.000000
-2.533500 0.000000
-2.515600 0.000000
-2.497700 0.000000
-2.479800 0.000000
-2.461900 0.000000
-2.444000 0.000000
-2.426100 0.000000
-2.408200 0.000000
-2.390300 0.000000
-2.372400 0.000000
-2.354500 0.000000
-2.336600 0.000000
-2.318700 0.000000
-2.300800 0.000000
-2.282900 0.000000
-2.265000 0.000000
-2.247100 0.000000
-2.229200 0.000000
-2.211300 0.000000
-2.193400 0.000000
-2.175500 0.000000
-2.157600 0.000000
-2.139700 0.000000
-2.121800 0.000000
-2.103900 0.000000
-2.086000 0.000000
-2.068100 0.000000
-2.050200 0.000000
-2.032300 0.000000
-2.014400 0.000000
-1.996500 0.000000
-1.978600 0.000000
-1.960700 0.000000
-1.942800 0.000000
-1.924900 0.000000
-1.907000 0.000000
-1.889100 0.000000
-1.871200 0.000000
-1.853300 0.000000
-1.835400 0.000000
-1.817500 0.000000
-1.799600 0.000000
-1.781700 0.000000
-1.763800 0.000000
-1.745900 0.000000
-1.728000 0.000000
-1.710100 0.000000
-1.692200 0.000000
-1.674300 0.000000
-1.656400 0.000000
-1.638500 0.000000
-1.620600 0.000000
-1.602700 0.000000
-1.584800 0.000000
-1.566900 0.000000
-1.549000 0.000000
-1.531100 0.000000
-1.513200 0.000000
-1.495300 0.000000
-1.477400 0.000000
-1.459500 0.000000
-1.441600 0.000000
-1.423700 0.000000
-1.405700 0.000000
-1.387800 0.000000
-1.369900 0.000000
-1.352000 0.000000
-1.334100 0.000000
-1.316200 0.000000
-1.298300 0.000000
-1.280400 0.000000
-1.262500 0.000000
-1.244600 0.000000
-1.226700 0.000000
-1.208800 0.000000
-1.190900 0.000000
-1.173000 0.000000
-1.155100 0.000000
-1.137200 0.000000
-1.119300 0.000000
-1.101400 0.000000
-1.083500 0.000000
-1.065600 0.000000
-1.047700 0.000000
-1.029800 0.000000
-1.011900 0.086300
-0.994000 0.213800
-0.976100 0.377000
-0.958200 0.453700
-0.940300 0.537400
-0.922400 0.613900
-0.904500 0.706600
-0.886600 0.802300
-0.868700 0.922200
-0.850800 1.025300
-0.832900 1.078600
-0.815000 1.043800
-0.797100 1.016700
-0.779200 1.040200
-0.761300 1.113800
-0.743400 1.105000
-0.725500 1.040400
-0.707600 1.029000
-0.689700 1.024100
-0.671800 1.020100
-0.653900 1.020500
-0.636000 1.020900
-0.618100 1.022300
-0.600200 1.036800
-0.582300 1.047700
-0.564400 1.040500
-0.546500 1.026700
-0.528600 1.038600
-0.510700 1.043100
-0.492800 1.045000
-0.474900 1.044500
-0.457000 1.043500
-0.439100 1.039700
-0.421200 1.038900
-0.403300 1.039900
-0.385400 1.041500
-0.367500 1.046200
-0.349600 1.049100
-0.331700 1.046600
-0.313800 1.036100
-0.295900 1.030700
-0.278000 1.031200
-0.260100 1.037500
-0.242200 1.047900
-0.224300 1.059100
-0.206400 1.070600
-0.188500 1.082100
-0.170600 1.090100
-0.152700 1.096800
-0.134800 1.102000
-0.116900 1.107700
-0.099000 1.112600
-0.081100 1.117000
-0.063200 1.124900
-0.045300 1.141600
-0.027400 1.162600
-0.009500 1.177000
0.008400 1.193800
0.026300 1.212400
0.044200 1.280700
0.062100 1.454100
0.080000 1.682200
0.097900 1.893500
0.115800 2.124800
0.133700 2.338000
0.151600 2.523700
0.169500 2.764900
0.187400 3.182100
0.205300 3.685800
0.223200 4.133300
0.241100 4.147400
0.259000 4.242500
0.276900 5.686200
0.294800 6.117400
0.312700 3.223900
0.330600 2.898100
0.348500 2.947800
0.366400 2.696100
0.384300 2.665900
0.402200 2.676600
0.420100 2.717500
0.438000 2.722800
0.455900 2.746400
0.473800 2.832600
0.491700 2.986200
0.509600 3.214900
0.527500 3.442900
0.545500 3.574600
0.563400 3.534900
0.581300 3.544700
0.599200 3.570900
0.617100 3.776200
0.635000 3.976500
0.652900 4.034100
0.670800 4.032900
0.688700 3.900400
0.706600 3.498000
0.724500 3.423500
0.742400 3.407000
0.760300 3.378400
0.778200 3.600800
0.796100 3.367900
0.814000 3.210300
0.831900 3.024500
0.849800 2.859900
0.867700 2.741700
0.885600 2.569600
0.903500 2.426500
0.921400 2.364300
0.939300 2.344400
0.957200 2.388000
0.975100 2.470700
0.993000 2.624000
1.010900 2.717000
1.028800 2.620200
1.046700 2.686200
1.064600 2.982000
1.082500 3.330400
1.100400 3.713800
1.118300 3.933800
1.136200 4.167900
1.154100 4.373800
1.172000 4.540200
1.189900 4.668800
1.207800 4.792500
1.225700 4.886900
1.243600 4.930600
1.261500 5.129700
1.279400 5.363500
1.297300 6.013600
1.315200 7.285700
1.333100 5.486200
1.351000 4.525400
1.368900 3.666500
1.386800 3.267200
1.404700 3.152800
1.422600 3.054800
1.440500 2.954000
1.458400 2.871000
1.476300 2.793400
1.494200 2.805100
1.512100 2.700700
1.530000 2.714900
1.547900 2.764300
1.565800 2.846000
1.583700 3.151700
1.601600 3.617800
1.619500 3.405100
1.637400 3.471900
1.655300 3.578200
1.673200 3.734100
1.691100 3.946300
1.709000 4.147500
1.726900 4.206700
1.744800 4.376200
1.762700 4.486900
1.780600 4.569800
1.798500 4.683700
1.816400 4.912500
1.834300 5.282100
1.852200 5.783200
1.870100 6.225100
1.888000 6.400200
1.905900 6.418500
1.923800 6.278400
1.941700 6.202600
1.959600 6.297900
1.977500 6.350200
1.995400 6.308100
2.013300 6.359400
2.031200 6.190400
2.049100 5.970400
2.067000 5.688800
2.084900 5.154600
2.102800 4.773900
2.120700 4.626600
2.138600 4.420100
2.156500 4.313600
2.174400 4.237500
2.192300 4.224000
2.210200 4.277500
2.228100 4.362300
2.246000 4.557100
2.263900 4.955100
2.281800 5.189600
2.299700 5.272700
2.317600 5.352100
2.335500 5.372100
2.353400 5.448300
2.371300 5.694900
2.389200 5.256100
2.407100 4.828800
2.425000 4.560400
2.442900 4.369100
2.460800 4.291000
2.478700 4.256100
2.496600 4.597000
2.514600 4.441400
2.532500 4.616000
2.550400 4.988000
2.568300 5.391300
2.586200 5.971100
2.604100 6.594800
2.622000 6.818900
2.639900 6.948300
2.657800 6.633900
2.675700 4.275200
2.693600 4.112400
2.711500 4.438400
2.729400 5.066700
2.747300 5.532800
2.765200 6.087900
2.783100 6.533800
2.801000 7.212600
2.818900 7.734900
2.836800 7.926000
2.854700 7.814900
2.872600 7.718600
2.890500 7.410800
2.908400 7.221100
2.926300 7.249600
2.944200 7.335700
2.962100 7.817800
2.980000 8.183100
2.997900 8.083200
3.015800 7.889300
3.033700 7.722300
3.051600 7.686400
3.069500 7.853200
3.087400 7.222700
3.105300 5.845100
3.123200 5.284500
3.141100 4.650500
3.159000 4.241200
3.176900 4.055000
3.194800 3.934700
3.212700 3.774600
3.230600 3.736100
3.248500 4.109900
3.266400 4.248400
3.284300 4.644100
3.302200 5.002800
3.320100 5.553200
3.338000 6.061700
3.355900 6.387200
3.373800 6.914200
3.391700 7.006800
3.409600 7.719900
3.427500 7.847900
3.445400 7.735900
3.463300 8.045200
3.481200 8.046200
3.499100 7.608200
3.517000 6.936900
3.534900 6.412700
3.552800 5.999500
3.570700 5.929500
3.588600 5.010200
3.606500 4.694500
3.624400 4.442700
3.642300 4.491400
3.660200 4.519100
3.678100 4.464000
3.696000 4.492200
3.713900 4.500600
3.731800 4.503000
3.749700 4.519500
3.767600 4.546900
3.785500 4.712300
3.803400 4.732000
3.821300 4.736100
3.839200 4.703500
3.857100 4.535600
3.875000 4.407600
3.892900 4.219900
3.910800 3.974100
3.928700 3.721000
3.946600 3.288900
3.964500 2.218000
3.982400 2.002300
4.000300 2.036600
4.018200 2.076800
4.036100 2.169500
4.054000 2.299900
4.071900 2.425500
4.089800 2.623200
4.107700 2.843300
4.125600 3.003800
4.143500 3.215400
4.161400 3.291800
4.179300 3.239000
4.197200 3.260700
4.215100 3.257900
4.233000 3.248900
4.250900 3.234800
4.268800 3.236100
4.286700 3.420100
4.304600 3.315900
4.322500 3.109400
4.340400 2.744600
4.358300 2.359500
4.376200 2.175000
4.394100 2.069200
4.412000 2.015800
4.429900 1.967300
4.447800 1.922100
4.465800 1.861800
4.483700 1.818400
4.501600 1.779500
4.519500 1.736400
4.537400 1.705600
4.555300 1.675300
4.573200 1.643500
4.591100 1.613800
4.609000 1.588600
4.626900 1.570100
4.644800 1.559000
4.662700 1.583700
4.680600 1.558200
4.698500 1.502000
4.716400 1.460800
4.734300 1.424300
4.752200 1.396400
4.770100 1.350100
4.788000 1.282900
4.805900 1.210700
4.823800 1.044200
4.841700 0.973100
4.859600 0.968200
4.877500 0.964000
4.895400 0.960300
4.913300 0.956600
4.931200 0.952900
4.949100 0.949500
4.967000 0.946300
4.984900 0.943000
5.002800 0.939700
5.020700 0.935700
5.038600 0.930800
5.056500 0.924900
5.074400 0.917100
5.092300 0.906600
5.110200 0.895100
5.128100 0.878900
5.146000 0.870500
5.163900 0.867200
5.181800 0.866100
5.199700 0.865700
5.217600 0.865300
5.235500 0.865000
5.253400 0.864900
5.271300 0.865000
5.289200 0.865300
5.307100 0.865700
5.325000 0.866100
5.342900 0.866500
5.360800 0.867100
5.378700 0.867600
5.396600 0.867900
5.414500 0.868000
5.432400 0.868100
5.450300 0.867000
5.468200 0.864500
5.486100 0.862400
5.504000 0.860700
5.521900 0.860700
5.539800 0.861300
5.557700 0.861900
5.575600 0.862500
5.593500 0.863200
5.611400 0.863800
5.629300 0.869100
5.647200 0.876500
5.665100 0.884000
5.683000 0.889100
5.700900 0.893500
5.718800 0.897900
5.736700 0.903500
5.754600 0.911200
5.772500 0.921000
5.790400 0.932900
5.808300 0.946400
5.826200 0.962700
5.844100 0.980800
5.862000 0.999600
5.879900 1.014500
5.897800 1.025300
5.915700 1.031900
5.933600 1.034400
5.951500 1.035300
5.969400 1.035900
5.987300 1.035900
6.005200 1.035500
6.023100 1.034800
6.041000 1.035300
6.058900 1.036500
6.076800 1.032100
6.094700 1.020800
6.112600 1.003700
6.130500 1.040700
6.148400 1.036200
6.166300 1.040800
6.184200 1.070800
6.202100 1.103400
6.220000 1.134200
6.237900 1.177600
6.255800 1.210200
6.273700 1.234800
6.291600 1.260500
6.309500 1.266200
6.327400 1.272500
6.345300 1.280200
6.363200 1.290900
6.381100 1.281000
6.399000 1.301000
6.416900 1.319500
6.434900 1.336100
6.452800 1.361900
6.470700 1.398500
6.488600 1.558100
6.506500 1.767300
6.524400 1.828600
6.542300 1.810200
6.560200 1.862100
6.578100 1.837700
6.596000 1.754200
6.613900 1.655500
6.631800 1.539400
6.649700 1.462200
6.667600 1.430200
6.685500 1.431900
6.703400 1.424300
6.721300 1.421000
6.739200 1.396200
6.757100 1.500400
6.775000 1.381700
6.792900 1.294000
6.810800 1.271300
6.828700 1.261200
6.846600 1.251900
6.864500 1.244200
6.882400 1.236900
6.900300 1.229800
6.918200 1.222700
6.936100 1.215500
6.954000 1.208300
6.971900 1.571100
6.989800 1.194000
7.007700 1.169600
7.025600 1.161800
7.043500 1.154600
7.061400 1.147800
7.079300 1.141500
7.097200 1.135700
7.115100 1.130000
7.133000 1.124300
7.150900 1.118800
7.168800 1.113300
7.186700 1.108100
7.204600 1.103000
7.222500 4.099200
7.240400 1.090000
7.258300 1.085500
7.276200 1.081000
7.294100 1.076500
7.312000 1.072200
7.329900 1.067800
7.347800 1.063500
7.365700 1.059200
7.383600 1.054800
7.401500 1.053900
7.419400 1.057900
7.437300 1.215000
7.455200 1.434500
7.473100 1.434000
7.491000 1.421800
7.508900 1.440500
7.526800 1.458700
7.544700 1.426300
7.562600 1.423400
7.580500 1.441300
7.598400 1.462100
7.616300 1.483400
7.634200 1.507200
7.652100 2.011600
7.670000 1.759500
7.687900 1.620600
7.705800 1.652700
7.723700 1.747500
7.741600 1.796400
7.759500 2.200100
7.777400 2.105300
7.795300 2.000800
7.813200 1.898100
7.831100 1.811300
7.849000 1.762100
7.866900 1.678000
7.884800 1.574200
7.902700 1.563700
7.920600 1.490500
7.938500 1.480600
7.956400 1.743100
7.974300 2.091900
7.992200 2.618000
8.010100 2.844300
8.028000 2.967300
8.045900 3.049700
8.063800 3.131800
8.081700 3.189100
8.099600 3.325200
8.117500 3.530900
8.135400 3.629300
8.153300 3.626600
8.171200 3.529000
8.189100 3.445600
8.207000 3.512800
8.224900 3.616100
8.242800 3.841200
8.260700 3.928100
8.278600 4.342700
8.296500 5.115300
8.314400 6.050500
8.332300 6.776100
8.350200 7.319200
8.368100 7.618600
8.386000 7.776500
8.404000 7.740700
8.421900 7.742300
8.439800 7.736600
8.457700 7.547600
8.475600 7.111500
8.493500 7.201500
8.511400 7.405600
8.529300 7.753900
8.547200 8.338900
8.565100 8.576600
8.583000 7.717500
8.600900 6.705400
8.618800 5.468000
8.636700 4.824300
8.654600 4.613600
8.672500 4.348100
8.690400 4.196700
8.708300 4.033900
8.726200 4.123700
8.744100 4.119600
8.762000 4.081300
8.779900 4.094300
8.797800 4.387100
8.815700 3.797500
8.833600 3.818900
8.851500 4.018700
8.869400 4.186500
8.887300 4.103700
8.905200 4.028000
8.923100 4.062700
8.941000 4.043400
8.958900 4.004600
8.976800 4.043400
8.994700 4.109600
9.012600 4.424100
9.030500 4.475400
9.048400 4.599000
9.066300 4.790000
9.084200 5.014200
9.102100 5.193400
9.120000 5.296400
9.137900 5.248400
9.155800 5.321000
9.173700 5.428900
9.191600 5.536800
9.209500 5.561000
9.227400 5.626000
9.245300 5.968100
9.263200 6.028100
9.281100 6.129200
9.299000 6.206600
9.316900 6.624300
9.334800 7.073400
9.352700 6.951300
9.370600 6.858000
9.388500 6.707600
9.406400 6.814500
9.424300 6.755400
9.442200 6.759600
9.460100 6.612700
9.478000 6.490300
9.495900 6.389100
9.513800 5.927000
9.531700 5.743300
9.549600 6.041000
9.567500 6.595400
9.585400 6.922700
9.603300 7.214400
9.621200 6.867600
9.639100 6.183600
9.657000 5.585100
9.674900 5.499800
9.692800 5.391600
9.710700 5.327200
9.728600 5.243100
9.746500 5.047600
9.764400 4.983800
9.782300 4.926900
9.800200 4.930700
9.818100 4.890800
9.836000 4.856500
9.853900 4.710700
9.871800 4.483800
9.889700 4.302700
9.907600 4.216800
9.925500 4.195500
9.943400 4.188500
9.961300 4.173500
9.979200 4.177900
9.997100 4.171200
10.015000 4.144100
10.032900 4.094600
10.050800 4.111500
10.068700 4.342700
10.086600 4.959100
10.104500 5.168000
10.122400 5.568800
10.140300 5.955600
10.158200 6.272500
10.176100 5.748100
10.194000 5.781000
10.211900 6.149700
10.229800 7.049500
10.247700 6.058600
10.265600 5.691500
10.283500 5.716400
10.301400 5.808600
10.319300 5.962200
10.337200 6.213500
10.355200 6.348200
10.373100 6.535300
10.391000 6.726800
10.408900 6.852200
10.426800 6.527600
10.444700 7.038700
10.462600 7.884800
10.480500 8.121500
10.498400 8.074100
10.516300 7.927700
10.534200 8.307300
10.552100 8.217300
10.570000 7.959700
10.587900 8.238600
10.605800 9.058200
10.623700 9.457300
10.641600 8.143400
10.659500 7.274400
10.677400 6.313100
10.695300 5.880700
10.713200 5.602200
10.731100 5.382500
10.749000 5.176300
10.766900 5.038000
10.784800 4.966900
10.802700 4.991100
10.820600 4.971200
10.838500 4.911800
10.856400 4.913500
10.874300 4.860700
10.892200 4.793600
10.910100 4.647900
10.928000 4.503400
10.945900 4.380500
10.963800 4.321700
10.981700 4.405800
10.999600 4.539700
11.017500 4.686100
11.035400 4.969700
11.053300 5.552200
11.071200 5.144400
11.089100 4.759300
11.107000 4.729500
11.124900 4.686100
11.142800 4.941100
11.160700 5.243600
11.178600 5.313000
11.196500 5.403700
11.214400 5.567300
11.232300 5.743000
11.250200 5.682000
11.268100 5.684000
11.286000 5.531600
11.303900 5.313900
11.321800 5.240200
11.339700 4.878600
11.357600 4.851900
11.375500 4.859200
11.393400 4.884400
11.411300 4.944600
11.429200 5.222500
11.447100 4.804400
11.465000 4.740600
11.482900 4.666400
11.500800 4.702300
11.518700 4.675300
11.536600 4.630900
11.554500 4.539700
11.572400 4.531800
11.590300 4.455400
11.608200 4.409000
11.626100 4.350900
11.644000 4.253000
11.661900 4.121000
11.679800 3.983200
11.697700 3.853000
11.715600 3.809700
11.733500 3.644600
11.751400 3.579600
11.769300 3.507500
11.787200 3.431400
11.805100 3.376600
11.823000 3.378500
11.840900 3.384300
11.858800 3.332500
11.876700 3.218300
11.894600 3.113200
11.912500 3.101300
11.930400 2.908600
11.948300 2.869400
11.966200 2.827100
11.984100 2.757600
12.002000 2.751000
12.019900 2.574900
12.037800 2.489300
12.055700 2.502600
12.073600 2.576200
12.091500 2.758200
12.109400 2.881900
12.127300 2.944600
12.145200 3.074000
12.163100 3.113100
12.181000 2.960200
12.198900 2.768700
12.216800 3.094700
12.234700 2.556100
12.252600 2.121900
12.270500 1.970100
12.288400 1.871900
12.306300 1.786100
12.324300 1.705600
12.342200 1.616300
12.360100 1.564800
12.378000 1.524200
12.395900 1.487100
12.413800 1.449200
12.431700 1.414800
12.449600 1.384200
12.467500 1.354200
12.485400 1.324900
12.503300 1.295000
12.521200 1.272000
12.539100 1.250800
12.557000 1.235300
12.574900 1.236200
12.592800 1.246500
12.610700 1.260800
12.628600 1.282200
12.646500 1.307500
12.664400 1.327700
12.682300 1.349600
12.700200 1.376300
12.718100 1.406600
12.736000 1.444800
12.753900 1.504300
12.771800 1.575400
12.789700 1.651700
12.807600 1.734900
12.825500 1.831500
12.843400 1.943900
12.861300 2.016700
12.879200 2.081900
12.897100 2.152100
12.915000 2.333400
12.932900 2.521600
12.950800 2.561700
12.968700 2.555900
12.986600 2.529900
13.004500 2.471200
13.022400 2.365200
13.040300 2.269600
13.058200 2.206300
13.076100 2.065200
13.094000 1.912200
13.111900 1.856000
13.129800 1.817400
13.147700 1.796100
13.165600 1.853300
13.183500 1.987000
13.201400 2.056700
13.219300 2.153400
13.237200 2.295000
13.255100 2.641200
13.273000 2.245900
13.290900 2.224000
13.308800 2.359700
13.326700 2.540400
13.344600 2.679700
13.362500 2.809000
13.380400 2.938800
13.398300 3.072000
13.416200 3.260000
13.434100 3.607500
13.452000 3.677700
13.469900 3.690700
13.487800 3.739100
13.505700 3.759600
13.523600 3.771900
13.541500 3.778900
13.559400 3.788400
13.577300 3.814700
13.595200 3.836000
13.613100 3.767900
13.631000 3.666800
13.648900 3.550500
13.666800 3.406600
13.684700 3.266200
13.702600 3.095900
13.720500 3.015700
13.738400 3.020900
13.756300 3.096300
13.774200 3.178200
13.792100 3.207400
13.810000 3.151500
13.827900 3.109800
13.845800 3.095800
13.863700 3.139400
13.881600 3.331000
13.899500 3.585700
13.917400 3.789400
13.935300 3.939000
13.953200 3.898400
13.971100 3.859600
13.989000 3.810500
14.006900 3.637200
14.024800 3.530100
14.042700 3.436700
14.060600 3.279100
14.078500 3.234500
14.096400 3.205500
14.114300 3.173300
14.132200 3.138500
14.150100 3.132000
14.168000 3.246200
14.185900 3.180800
14.203800 2.874400
14.221700 2.615600
14.239600 2.307200
14.257500 1.796700
14.275400 1.473200
14.293400 1.225200
14.311300 0.999600
14.329200 0.795800
14.347100 0.609900
14.365000 0.402600
14.382900 0.336900
14.400800 0.293800
14.418700 0.257300
14.436600 0.226800
14.454500 0.203400
14.472400 0.182500
14.490300 0.166200
14.508200 0.153400
14.526100 0.143400
14.544000 0.133900
14.561900 0.124600
14.579800 0.115500
14.597700 0.106700
14.615600 0.098100
14.633500 0.089700
14.651400 0.081700
14.669300 0.073800
14.687200 0.066200
14.705100 0.061000
14.723000 0.059800
14.740900 0.059000
14.758800 0.000000
14.776700 0.000000
14.794600 0.000000
14.812500 0.000000
14.830400 0.000000
14.848300 0.000000
14.866200 0.000000
14.884100 0.000000
14.902000 0.000000
14.919900 0.000000
14.937800 0.000000
14.955700 0.000000
14.973600 0.000000
14.991500 0.000000
15.009400 0.000000
15.027300 0.000000
15.045200 0.000000
15.063100 0.000000
15.081000 0.000000
15.098900 0.000000
15.116800 0.000000
15.134700 0.000000
15.152600 0.000000
15.170500 0.000000
15.188400 0.000000
15.206300 0.000000
15.224200 0.000000
15.242100 0.000000
15.260000 0.000000
15.277900 0.000000
15.295800 0.000000
15.313700 0.000000
15.331600 0.000000
15.349500 0.000000
15.367400 0.000000
15.385300 0.000000
15.403200 0.000000
15.421100 0.000000
15.439000 0.000000
15.456900 0.000000
15.474800 0.000000
15.492700 0.000000
15.510600 0.000000
15.528500 0.000000
15.546400 0.000000
15.564300 0.000000
15.582200 0.000000
15.600100 0.000000
15.618000 0.000000
15.635900 0.000000
15.653800 0.000000
15.671700 0.000000
15.689600 0.000000
15.707500 0.000000
15.725400 0.000000
15.743300 0.000000
15.761200 0.000000
15.779100 0.000000
15.797000 0.000000
15.814900 0.000000
15.832800 0.000000
15.850700 0.000000
15.868600 0.000000
15.886500 0.000000
15.904400 0.000000
15.922300 0.000000
15.940200 0.000000
15.958100 0.000000
15.976000 0.000000
15.993900 0.000000
16.011800 0.000000
16.029700 0.000000
16.047600 0.000000
16.065500 0.000000
16.083400 0.000000
16.101300 0.000000
16.119200 0.000000
16.137100 0.000000
16.155000 0.000000
16.172900 0.000000
16.190800 0.000000
16.208700 0.000000
16.226600 0.000000
16.244600 0.000000
16.262500 0.000000
16.280400 0.000000
16.298300 0.000000
16.316200 0.000000
16.334100 0.000000
16.352000 0.000000
16.369900 0.000000
e
