set title 'mp-1072256 - Density of States'
set xlabel 'Energy (eV)'
set ylabel 'DOS (states/eV)'
set grid
set xrange [-10:10]
set yrange [0:12.660]
set xzeroaxis lt -1
set terminal png size 800,600
set output 'mp-1072256_dos_gnuplot.png'
plot '-' using 1:2 with lines title 'DOS'
-28.874400 0.000000
-28.846800 0.000000
-28.819100 0.000000
-28.791500 0.000000
-28.763800 0.000000
-28.736100 0.000000
-28.708500 0.000000
-28.680800 0.000000
-28.653200 0.000000
-28.625500 0.000000
-28.597900 0.000000
-28.570200 0.000000
-28.542500 0.000000
-28.514900 0.000000
-28.487200 0.000000
-28.459600 0.000000
-28.431900 0.000000
-28.404200 0.000000
-28.376600 0.000000
-28.348900 0.000000
-28.321300 0.000000
-28.293600 0.000000
-28.265900 0.000000
-28.238300 0.000000
-28.210600 0.000000
-28.183000 0.000000
-28.155300 0.000000
-28.127600 0.000000
-28.100000 0.000000
-28.072300 0.000000
-28.044700 0.000000
-28.017000 0.000000
-27.989300 0.000000
-27.961700 0.000000
-27.934000 0.000000
-27.906400 0.000000
-27.878700 0.000000
-27.851000 0.000000
-27.823400 0.000000
-27.795700 0.000000
-27.768100 0.000000
-27.740400 0.000000
-27.712800 0.000000
-27.685100 0.000000
-27.657400 0.000000
-27.629800 0.000000
-27.602100 0.000000
-27.574500 0.000000
-27.546800 0.000000
-27.519100 0.000000
-27.491500 0.000000
-27.463800 0.000000
-27.436200 0.000000
-27.408500 0.000000
-27.380800 0.000000
-27.353200 0.000000
-27.325500 0.000000
-27.297900 0.000000
-27.270200 0.000000
-27.242500 0.000000
-27.214900 0.000000
-27.187200 0.000000
-27.159600 0.000000
-27.131900 0.000000
-27.104200 0.000000
-27.076600 0.000000
-27.048900 0.000000
-27.021300 0.000000
-26.993600 0.000000
-26.966000 0.000000
-26.938300 0.000000
-26.910600 0.000000
-26.883000 0.000000
-26.855300 0.000000
-26.827700 0.000000
-26.800000 0.000000
-26.772300 0.000000
-26.744700 0.000000
-26.717000 0.000000
-26.689400 0.000000
-26.661700 0.000000
-26.634000 0.000000
-26.606400 0.000000
-26.578700 0.000000
-26.551100 0.000000
-26.523400 0.000000
-26.495700 0.000000
-26.468100 0.000000
-26.440400 0.000000
-26.412800 0.000000
-26.385100 0.000000
-26.357400 1.334400
-26.329800 44.861900
-26.302100 22.918400
-26.274500 24.206600
-26.246800 26.625100
-26.219200 14.904100
-26.191500 16.864100
-26.163800 53.933100
-26.136200 28.163400
-26.108500 35.424200
-26.080900 77.891800
-26.053200 44.841100
-26.025500 57.963700
-25.997900 86.531900
-25.970200 29.336800
-25.942600 54.635000
-25.914900 20.585500
-25.887200 15.448800
-25.859600 26.077500
-25.831900 100.506700
-25.804300 34.712600
-25.776600 0.000000
-25.748900 0.000000
-25.721300 0.000000
-25.693600 0.000000
-25.666000 0.000000
-25.638300 0.000000
-25.610600 0.000000
-25.583000 0.000000
-25.555300 0.000000
-25.527700 0.000000
-25.500000 0.000000
-25.472300 0.000000
-25.444700 0.000000
-25.417000 0.000000
-25.389400 0.000000
-25.361700 0.000000
-25.334100 0.000000
-25.306400 0.000000
-25.278700 0.000000
-25.251100 0.000000
-25.223400 0.000000
-25.195800 0.000000
-25.168100 0.000000
-25.140400 0.000000
-25.112800 0.000000
-25.085100 0.000000
-25.057500 0.000000
-25.029800 0.000000
-25.002100 0.000000
-24.974500 0.000000
-24.946800 0.000000
-24.919200 0.000000
-24.891500 0.000000
-24.863800 0.000000
-24.836200 0.000000
-24.808500 0.000000
-24.780900 0.000000
-24.753200 0.000000
-24.725500 0.000000
-24.697900 0.000000
-24.670200 0.000000
-24.642600 0.000000
-24.614900 0.000000
-24.587300 0.000000
-24.559600 0.000000
-24.531900 0.000000
-24.504300 0.000000
-24.476600 0.000000
-24.449000 0.000000
-24.421300 0.000000
-24.393600 0.000000
-24.366000 0.000000
-24.338300 0.000000
-24.310700 0.000000
-24.283000 0.000000
-24.255300 0.000000
-24.227700 0.000000
-24.200000 0.000000
-24.172400 0.000000
-24.144700 0.000000
-24.117000 0.000000
-24.089400 0.000000
-24.061700 0.000000
-24.034100 0.000000
-24.006400 0.000000
-23.978700 0.000000
-23.951100 0.000000
-23.923400 0.000000
-23.895800 0.000000
-23.868100 0.000000
-23.840500 0.000000
-23.812800 0.000000
-23.785100 0.000000
-23.757500 0.000000
-23.729800 0.000000
-23.702200 0.000000
-23.674500 0.000000
-23.646800 0.000000
-23.619200 0.000000
-23.591500 0.000000
-23.563900 0.000000
-23.536200 0.000000
-23.508500 0.000000
-23.480900 0.000000
-23.453200 0.000000
-23.425600 0.000000
-23.397900 0.000000
-23.370200 0.000000
-23.342600 0.000000
-23.314900 0.000000
-23.287300 0.000000
-23.259600 0.000000
-23.231900 0.000000
-23.204300 0.000000
-23.176600 0.000000
-23.149000 0.000000
-23.121300 0.000000
-23.093600 0.000000
-23.066000 0.000000
-23.038300 0.000000
-23.010700 0.000000
-22.983000 0.000000
-22.955400 0.000000
-22.927700 0.000000
-22.900000 0.000000
-22.872400 0.000000
-22.844700 0.000000
-22.817100 0.000000
-22.789400 0.000000
-22.761700 0.000000
-22.734100 0.000000
-22.706400 0.000000
-22.678800 0.000000
-22.651100 0.000000
-22.623400 0.000000
-22.595800 0.000000
-22.568100 0.000000
-22.540500 0.000000
-22.512800 0.000000
-22.485100 0.000000
-22.457500 0.000000
-22.429800 0.000000
-22.402200 0.000000
-22.374500 0.000000
-22.346800 0.000000
-22.319200 0.000000
-22.291500 0.000000
-22.263900 0.000000
-22.236200 0.000000
-22.208600 0.000000
-22.180900 0.000000
-22.153200 0.000000
-22.125600 0.000000
-22.097900 0.000000
-22.070300 0.000000
-22.042600 0.000000
-22.014900 0.000000
-21.987300 0.000000
-21.959600 0.000000
-21.932000 0.000000
-21.904300 0.000000
-21.876600 0.000000
-21.849000 0.000000
-21.821300 0.000000
-21.793700 0.000000
-21.766000 0.000000
-21.738300 0.000000
-21.710700 0.000000
-21.683000 0.000000
-21.655400 0.000000
-21.627700 0.000000
-21.600000 0.000000
-21.572400 0.000000
-21.544700 0.000000
-21.517100 0.000000
-21.489400 0.000000
-21.461800 0.000000
-21.434100 0.000000
-21.406400 0.000000
-21.378800 0.000000
-21.351100 0.000000
-21.323500 0.000000
-21.295800 0.000000
-21.268100 0.000000
-21.240500 0.000000
-21.212800 0.000000
-21.185200 0.000000
-21.157500 0.000000
-21.129800 0.000000
-21.102200 0.000000
-21.074500 0.000000
-21.046900 0.000000
-21.019200 0.000000
-20.991500 0.000000
-20.963900 0.000000
-20.936200 0.000000
-20.908600 0.000000
-20.880900 0.000000
-20.853200 0.000000
-20.825600 0.000000
-20.797900 0.000000
-20.770300 0.000000
-20.742600 0.000000
-20.714900 0.000000
-20.687300 0.000000
-20.659600 0.000000
-20.632000 0.000000
-20.604300 0.000000
-20.576700 0.000000
-20.549000 0.000000
-20.521300 0.000000
-20.493700 0.000000
-20.466000 0.000000
-20.438400 0.000000
-20.410700 0.000000
-20.383000 0.000000
-20.355400 0.000000
-20.327700 0.000000
-20.300100 0.000000
-20.272400 0.000000
-20.244700 0.000000
-20.217100 0.000000
-20.189400 0.000000
-20.161800 0.000000
-20.134100 0.000000
-20.106400 0.000000
-20.078800 0.000000
-20.051100 0.000000
-20.023500 0.000000
-19.995800 0.000000
-19.968100 0.000000
-19.940500 0.000000
-19.912800 0.000000
-19.885200 15.974100
-19.857500 10.424300
-19.829900 10.424200
-19.802200 8.497000
-19.774500 8.496900
-19.746900 0.000000
-19.719200 53.808800
-19.691600 22.510000
-19.663900 17.643100
-19.636200 62.168700
-19.608600 129.562600
-19.580900 24.813900
-19.553300 0.000000
-19.525600 0.000000
-19.497900 0.000000
-19.470300 0.000000
-19.442600 0.000000
-19.415000 0.000000
-19.387300 0.000000
-19.359600 0.000000
-19.332000 0.000000
-19.304300 0.000000
-19.276700 0.000000
-19.249000 0.000000
-19.221300 0.000000
-19.193700 0.000000
-19.166000 0.000000
-19.138400 0.000000
-19.110700 0.000000
-19.083100 0.000000
-19.055400 0.000000
-19.027700 0.000000
-19.000100 0.000000
-18.972400 0.000000
-18.944800 0.000000
-18.917100 0.000000
-18.889400 0.000000
-18.861800 0.000000
-18.834100 0.000000
-18.806500 0.000000
-18.778800 0.000000
-18.751100 0.000000
-18.723500 0.000000
-18.695800 0.000000
-18.668200 0.000000
-18.640500 0.000000
-18.612800 0.000000
-18.585200 0.000000
-18.557500 0.000000
-18.529900 0.000000
-18.502200 0.000000
-18.474500 0.000000
-18.446900 0.000000
-18.419200 0.000000
-18.391600 0.000000
-18.363900 0.000000
-18.336200 0.000000
-18.308600 0.000000
-18.280900 0.000000
-18.253300 0.000000
-18.225600 0.000000
-18.198000 0.000000
-18.170300 0.000000
-18.142600 0.000000
-18.115000 0.000000
-18.087300 0.000000
-18.059700 0.000000
-18.032000 0.000000
-18.004300 0.000000
-17.976700 0.000000
-17.949000 0.000000
-17.921400 0.000000
-17.893700 0.000000
-17.866000 0.000000
-17.838400 0.000000
-17.810700 0.000000
-17.783100 0.000000
-17.755400 0.000000
-17.727700 0.000000
-17.700100 0.000000
-17.672400 0.000000
-17.644800 0.000000
-17.617100 0.000000
-17.589400 0.000000
-17.561800 0.000000
-17.534100 0.000000
-17.506500 0.000000
-17.478800 0.000000
-17.451200 0.000000
-17.423500 0.000000
-17.395800 0.000000
-17.368200 0.000000
-17.340500 0.000000
-17.312900 0.000000
-17.285200 0.000000
-17.257500 0.000000
-17.229900 0.000000
-17.202200 0.000000
-17.174600 0.000000
-17.146900 0.000000
-17.119200 0.000000
-17.091600 0.000000
-17.063900 0.000000
-17.036300 0.000000
-17.008600 0.000000
-16.980900 0.000000
-16.953300 0.000000
-16.925600 0.000000
-16.898000 0.000000
-16.870300 0.000000
-16.842600 0.000000
-16.815000 0.000000
-16.787300 0.000000
-16.759700 0.000000
-16.732000 0.000000
-16.704400 0.000000
-16.676700 0.000000
-16.649000 0.000000
-16.621400 0.000000
-16.593700 0.000000
-16.566100 0.000000
-16.538400 0.000000
-16.510700 0.000000
-16.483100 0.000000
-16.455400 0.000000
-16.427800 0.000000
-16.400100 0.000000
-16.372400 0.000000
-16.344800 0.000000
-16.317100 0.000000
-16.289500 0.000000
-16.261800 0.000000
-16.234100 0.000000
-16.206500 0.000000
-16.178800 0.000000
-16.151200 0.000000
-16.123500 0.000000
-16.095800 0.000000
-16.068200 0.000000
-16.040500 0.000000
-16.012900 0.000000
-15.985200 0.000000
-15.957500 0.000000
-15.929900 0.000000
-15.902200 0.000000
-15.874600 0.000000
-15.846900 0.000000
-15.819300 0.000000
-15.791600 0.000000
-15.763900 0.000000
-15.736300 0.000000
-15.708600 0.000000
-15.681000 0.000000
-15.653300 0.000000
-15.625600 0.000000
-15.598000 0.000000
-15.570300 0.000000
-15.542700 0.000000
-15.515000 0.000000
-15.487300 0.000000
-15.459700 0.000000
-15.432000 0.000000
-15.404400 0.000000
-15.376700 0.000000
-15.349000 0.000000
-15.321400 0.000000
-15.293700 0.000000
-15.266100 0.000000
-15.238400 0.000000
-15.210700 0.000000
-15.183100 0.000000
-15.155400 0.000000
-15.127800 0.000000
-15.100100 0.000000
-15.072500 0.000000
-15.044800 0.000000
-15.017100 0.000000
-14.989500 0.000000
-14.961800 0.000000
-14.934200 0.000000
-14.906500 0.000000
-14.878800 0.000000
-14.851200 0.000000
-14.823500 0.000000
-14.795900 0.000000
-14.768200 0.000000
-14.740500 0.000000
-14.712900 0.000000
-14.685200 0.000000
-14.657600 0.000000
-14.629900 0.000000
-14.602200 0.000000
-14.574600 0.000000
-14.546900 0.000000
-14.519300 0.000000
-14.491600 0.000000
-14.463900 0.000000
-14.436300 0.000000
-14.408600 0.000000
-14.381000 0.000000
-14.353300 0.000000
-14.325700 0.000000
-14.298000 0.000000
-14.270300 0.000000
-14.242700 0.000000
-14.215000 0.000000
-14.187400 0.000000
-14.159700 0.000000
-14.132000 0.000000
-14.104400 0.000000
-14.076700 0.000000
-14.049100 0.000000
-14.021400 0.000000
-13.993700 0.000000
-13.966100 0.000000
-13.938400 0.000000
-13.910800 0.000000
-13.883100 0.000000
-13.855400 0.000000
-13.827800 0.000000
-13.800100 0.000000
-13.772500 0.000000
-13.744800 0.000000
-13.717100 0.000000
-13.689500 0.000000
-13.661800 0.000000
-13.634200 0.000000
-13.606500 0.000000
-13.578800 0.000000
-13.551200 0.000000
-13.523500 0.000000
-13.495900 0.000000
-13.468200 0.000000
-13.440600 0.000000
-13.412900 0.000000
-13.385200 0.000000
-13.357600 0.000000
-13.329900 0.000000
-13.302300 0.000000
-13.274600 0.000000
-13.246900 0.000000
-13.219300 0.000000
-13.191600 0.000000
-13.164000 0.000000
-13.136300 0.000000
-13.108600 0.000000
-13.081000 0.000000
-13.053300 0.000000
-13.025700 0.000000
-12.998000 0.000000
-12.970300 0.000000
-12.942700 0.000000
-12.915000 0.000000
-12.887400 0.000000
-12.859700 0.000000
-12.832000 0.000000
-12.804400 0.000000
-12.776700 0.000000
-12.749100 0.000000
-12.721400 0.000000
-12.693800 0.000000
-12.666100 0.000000
-12.638400 0.000000
-12.610800 0.000000
-12.583100 0.000000
-12.555500 0.000000
-12.527800 0.000000
-12.500100 0.000000
-12.472500 0.000000
-12.444800 0.000000
-12.417200 0.000000
-12.389500 0.000000
-12.361800 0.000000
-12.334200 0.000000
-12.306500 0.000000
-12.278900 0.000000
-12.251200 0.000000
-12.223500 0.000000
-12.195900 0.000000
-12.168200 0.000000
-12.140600 0.000000
-12.112900 0.000000
-12.085200 0.000000
-12.057600 0.000000
-12.029900 0.000000
-12.002300 0.000000
-11.974600 0.000000
-11.947000 0.000000
-11.919300 0.000000
-11.891600 0.000000
-11.864000 0.000000
-11.836300 0.000000
-11.808700 0.000000
-11.781000 0.000000
-11.753300 0.000000
-11.725700 0.000000
-11.698000 0.000000
-11.670400 0.000000
-11.642700 0.000000
-11.615000 0.000000
-11.587400 0.000000
-11.559700 0.000000
-11.532100 0.000000
-11.504400 0.000000
-11.476700 0.000000
-11.449100 0.000000
-11.421400 0.000000
-11.393800 0.000000
-11.366100 0.000000
-11.338400 0.000000
-11.310800 0.000000
-11.283100 0.000000
-11.255500 0.000000
-11.227800 0.000000
-11.200100 0.000000
-11.172500 0.000000
-11.144800 0.000000
-11.117200 0.000000
-11.089500 0.000000
-11.061900 0.000000
-11.034200 0.000000
-11.006500 0.000000
-10.978900 0.000000
-10.951200 0.000000
-10.923600 0.000000
-10.895900 0.000000
-10.868200 0.000000
-10.840600 0.000000
-10.812900 0.000000
-10.785300 0.000000
-10.757600 0.000000
-10.729900 0.000000
-10.702300 0.000000
-10.674600 0.000000
-10.647000 0.000000
-10.619300 0.000000
-10.591600 0.000000
-10.564000 0.000000
-10.536300 0.000000
-10.508700 0.000000
-10.481000 0.000000
-10.453300 0.000000
-10.425700 0.000000
-10.398000 0.000000
-10.370400 0.000000
-10.342700 0.000000
-10.315100 0.000000
-10.287400 0.000000
-10.259700 0.000000
-10.232100 0.000000
-10.204400 0.000000
-10.176800 0.000000
-10.149100 0.000000
-10.121400 0.000000
-10.093800 0.000000
-10.066100 0.000000
-10.038500 0.000000
-10.010800 0.000000
-9.983100 0.000000
-9.955500 0.000000
-9.927800 0.000000
-9.900200 0.000000
-9.872500 0.000000
-9.844800 0.000000
-9.817200 0.000000
-9.789500 0.000000
-9.761900 0.000000
-9.734200 0.000000
-9.706500 0.000000
-9.678900 0.000000
-9.651200 0.000000
-9.623600 0.000000
-9.595900 0.000000
-9.568300 0.000000
-9.540600 0.000000
-9.512900 0.000000
-9.485300 0.000000
-9.457600 0.000000
-9.430000 0.000000
-9.402300 0.000000
-9.374600 0.000000
-9.347000 0.000000
-9.319300 0.000000
-9.291700 0.000000
-9.264000 0.000000
-9.236300 0.000000
-9.208700 0.000000
-9.181000 0.000000
-9.153400 0.000000
-9.125700 0.000000
-9.098000 0.000000
-9.070400 0.000000
-9.042700 0.000000
-9.015100 0.000000
-8.987400 0.000000
-8.959700 0.000000
-8.932100 0.000000
-8.904400 0.000000
-8.876800 0.000000
-8.849100 0.000000
-8.821400 0.000000
-8.793800 0.000000
-8.766100 0.000000
-8.738500 0.000000
-8.710800 0.000000
-8.683200 0.000000
-8.655500 0.000000
-8.627800 0.000000
-8.600200 0.000000
-8.572500 0.000000
-8.544900 0.000000
-8.517200 0.000000
-8.489500 0.000000
-8.461900 0.000000
-8.434200 0.000000
-8.406600 0.000000
-8.378900 0.000000
-8.351200 0.000000
-8.323600 0.000000
-8.295900 0.000000
-8.268300 0.000000
-8.240600 0.000000
-8.212900 0.000000
-8.185300 0.000000
-8.157600 0.000000
-8.130000 0.000000
-8.102300 0.000000
-8.074600 0.000000
-8.047000 0.000000
-8.019300 0.000000
-7.991700 0.000000
-7.964000 0.000000
-7.936400 0.000000
-7.908700 0.000000
-7.881000 0.000000
-7.853400 0.000000
-7.825700 0.000000
-7.798100 0.000000
-7.770400 0.000000
-7.742700 0.000000
-7.715100 0.000000
-7.687400 0.000000
-7.659800 0.000000
-7.632100 0.000000
-7.604400 0.000000
-7.576800 0.000000
-7.549100 0.000000
-7.521500 0.000000
-7.493800 0.000000
-7.466100 0.000000
-7.438500 0.000000
-7.410800 0.000000
-7.383200 0.000000
-7.355500 0.000000
-7.327800 0.000000
-7.300200 0.000000
-7.272500 0.000000
-7.244900 0.000000
-7.217200 0.000000
-7.189500 0.000000
-7.161900 0.000000
-7.134200 0.000000
-7.106600 0.000000
-7.078900 0.000000
-7.051300 0.000000
-7.023600 0.000000
-6.995900 0.000000
-6.968300 0.000000
-6.940600 0.000000
-6.913000 0.000000
-6.885300 0.000000
-6.857600 0.000000
-6.830000 0.000000
-6.802300 0.000000
-6.774700 0.000000
-6.747000 0.000000
-6.719300 0.000000
-6.691700 0.000000
-6.664000 0.000000
-6.636400 0.000000
-6.608700 0.000000
-6.581000 0.000000
-6.553400 0.036600
-6.525700 0.153800
-6.498100 0.321300
-6.470400 0.343100
-6.442700 0.414500
-6.415100 0.484200
-6.387400 0.552300
-6.359800 0.596500
-6.332100 0.669600
-6.304500 0.728800
-6.276800 0.793500
-6.249100 0.855700
-6.221500 0.918000
-6.193800 0.998200
-6.166200 1.092500
-6.138500 1.183500
-6.110800 1.286200
-6.083200 1.401100
-6.055500 1.687500
-6.027900 1.892500
-6.000200 1.904300
-5.972500 1.838900
-5.944900 1.849000
-5.917200 1.836800
-5.889600 1.835000
-5.861900 1.837500
-5.834200 1.835000
-5.806600 1.804400
-5.778900 1.784800
-5.751300 1.770500
-5.723600 1.741500
-5.695900 1.703500
-5.668300 1.672600
-5.640600 1.494000
-5.613000 1.400300
-5.585300 1.356700
-5.557700 1.316500
-5.530000 1.275600
-5.502300 1.226400
-5.474700 1.176900
-5.447000 1.135900
-5.419400 1.100200
-5.391700 1.078500
-5.364000 1.060000
-5.336400 1.044000
-5.308700 1.030600
-5.281100 1.019500
-5.253400 1.013900
-5.225700 1.021400
-5.198100 1.041800
-5.170400 1.073600
-5.142800 1.119100
-5.115100 1.274600
-5.087400 1.443800
-5.059800 1.553500
-5.032100 1.811400
-5.004500 1.132500
-4.976800 0.834400
-4.949100 0.662100
-4.921500 0.522400
-4.893800 0.421100
-4.866200 0.346000
-4.838500 0.272300
-4.810800 0.152000
-4.783200 0.000000
-4.755500 0.000000
-4.727900 0.042800
-4.700200 0.162200
-4.672600 0.253000
-4.644900 0.316500
-4.617200 0.393800
-4.589600 0.499100
-4.561900 0.636500
-4.534300 0.858700
-4.506600 1.063100
-4.478900 1.451000
-4.451300 1.711700
-4.423600 1.253300
-4.396000 0.926700
-4.368300 0.813900
-4.340600 0.751400
-4.313000 0.706900
-4.285300 0.681500
-4.257700 0.665300
-4.230000 0.654100
-4.202300 0.646300
-4.174700 0.640500
-4.147000 0.635500
-4.119400 0.633300
-4.091700 0.632100
-4.064000 0.627700
-4.036400 0.624300
-4.008700 0.621900
-3.981100 0.619400
-3.953400 0.616800
-3.925800 0.614200
-3.898100 0.611400
-3.870400 0.608300
-3.842800 0.605100
-3.815100 0.601200
-3.787500 0.596400
-3.759800 0.591100
-3.732100 0.583100
-3.704500 0.577000
-3.676800 0.572300
-3.649200 0.567900
-3.621500 0.564000
-3.593800 0.560600
-3.566200 0.557300
-3.538500 0.554300
-3.510900 0.551300
-3.483200 0.548400
-3.455500 0.546200
-3.427900 0.544200
-3.400200 0.544100
-3.372600 0.544100
-3.344900 0.544100
-3.317200 0.544100
-3.289600 0.544100
-3.261900 0.544200
-3.234300 0.544200
-3.206600 0.544200
-3.179000 0.544000
-3.151300 0.543600
-3.123600 0.543300
-3.096000 0.542800
-3.068300 0.542100
-3.040700 0.541200
-3.013000 0.540000
-2.985300 0.538700
-2.957700 0.537100
-2.930000 0.534300
-2.902400 0.531000
-2.874700 0.528300
-2.847000 0.525900
-2.819400 0.523800
-2.791700 0.521800
-2.764100 0.519800
-2.736400 0.517900
-2.708700 0.516000
-2.681100 0.514400
-2.653400 0.512500
-2.625800 0.510900
-2.598100 0.510500
-2.570400 0.510500
-2.542800 0.510400
-2.515100 0.510400
-2.487500 0.512100
-2.459800 0.520900
-2.432100 0.533400
-2.404500 0.543400
-2.376800 0.553400
-2.349200 0.564200
-2.321500 0.576000
-2.293900 0.587400
-2.266200 0.598300
-2.238500 0.609400
-2.210900 0.620800
-2.183200 0.632500
-2.155600 0.644600
-2.127900 0.657500
-2.100200 0.671300
-2.072600 0.685700
-2.044900 0.685800
-2.017300 0.694700
-1.989600 0.693900
-1.961900 0.685100
-1.934300 0.672300
-1.906600 0.661900
-1.879000 0.649000
-1.851300 0.635100
-1.823600 0.620300
-1.796000 0.604300
-1.768300 0.587000
-1.740700 0.568400
-1.713000 0.548600
-1.685300 0.527400
-1.657700 0.504200
-1.630000 0.480400
-1.602400 0.456300
-1.574700 0.431900
-1.547100 0.407000
-1.519400 0.376100
-1.491700 0.342600
-1.464100 0.306500
-1.436400 0.269700
-1.408800 0.249000
-1.381100 0.386600
-1.353400 0.447800
-1.325800 0.477800
-1.298100 0.506500
-1.270500 0.546900
-1.242800 0.581400
-1.215100 0.609100
-1.187500 0.629700
-1.159800 0.667300
-1.132200 0.705200
-1.104500 0.732600
-1.076800 0.749900
-1.049200 0.761000
-1.021500 0.777600
-0.993900 0.811300
-0.966200 0.847700
-0.938500 0.889000
-0.910900 0.936000
-0.883200 0.988600
-0.855600 1.044900
-0.827900 1.130600
-0.800300 1.211800
-0.772600 1.297500
-0.744900 1.449100
-0.717300 1.480500
-0.689600 1.535500
-0.662000 1.583200
-0.634300 1.537000
-0.606600 1.484500
-0.579000 1.465000
-0.551300 1.470300
-0.523700 1.551900
-0.496000 1.495200
-0.468300 1.419300
-0.440700 1.359600
-0.413000 1.318000
-0.385400 1.365500
-0.357700 1.384800
-0.330000 1.428000
-0.302400 1.445900
-0.274700 1.453800
-0.247100 1.571600
-0.219400 1.710200
-0.191700 1.724300
-0.164100 1.685200
-0.136400 1.702000
-0.108800 1.745800
-0.081100 1.797600
-0.053400 1.876200
-0.025800 1.965900
0.001900 2.067400
0.029500 2.160900
0.057200 2.210600
0.084800 2.212400
0.112500 2.210600
0.140200 2.206000
0.167800 2.132300
0.195500 2.112300
0.223100 2.084400
0.250800 2.132700
0.278500 2.181500
0.306100 2.241000
0.333800 2.250600
0.361400 2.338600
0.389100 2.334300
0.416800 2.321900
0.444400 2.293600
0.472100 2.191200
0.499700 2.158600
0.527400 2.162600
0.555100 2.389800
0.582700 2.531100
0.610400 2.585100
0.638000 2.664900
0.665700 2.728800
0.693400 2.708000
0.721000 2.747400
0.748700 2.734800
0.776300 2.669600
0.804000 2.621900
0.831600 2.590200
0.859300 2.628600
0.887000 2.659300
0.914600 2.952500
0.942300 3.007900
0.969900 3.059600
0.997600 2.714800
1.025300 2.513400
1.052900 2.307700
1.080600 2.097900
1.108200 1.932200
1.135900 1.787600
1.163600 1.688100
1.191200 1.595400
1.218900 1.545300
1.246500 1.461700
1.274200 1.361100
1.301900 1.763500
1.329500 2.545100
1.357200 2.661400
1.384800 2.911900
1.412500 3.207700
1.440200 3.315900
1.467800 3.458700
1.495500 3.501300
1.523100 3.634000
1.550800 4.140500
1.578400 3.766300
1.606100 3.301800
1.633800 2.874700
1.661400 2.559400
1.689100 2.459200
1.716700 2.434300
1.744400 2.005400
1.772100 2.035600
1.799700 2.211100
1.827400 2.503300
1.855000 2.799500
1.882700 2.602200
1.910400 2.632700
1.938000 2.757900
1.965700 3.089200
1.993300 3.554700
2.021000 3.763900
2.048700 3.642900
2.076300 3.433600
2.104000 3.167500
2.131600 3.079100
2.159300 3.043400
2.187000 3.017900
2.214600 3.058300
2.242300 2.918800
2.269900 2.863300
2.297600 2.956700
2.325300 3.377600
2.352900 3.765500
2.380600 4.300900
2.408200 3.963200
2.435900 3.428900
2.463500 3.529700
2.491200 3.841400
2.518900 3.760700
2.546500 2.781000
2.574200 2.663400
2.601800 2.940400
2.629500 2.774300
2.657200 2.941100
2.684800 3.093900
2.712500 4.196900
2.740100 5.278900
2.767800 5.676200
2.795500 6.206500
2.823100 6.674700
2.850800 7.278300
2.878400 7.866800
2.906100 8.522200
2.933800 10.795700
2.961400 11.456200
2.989100 11.509200
3.016700 10.266200
3.044400 9.890100
3.072100 9.257000
3.099700 8.180800
3.127400 7.529600
3.155000 5.858800
3.182700 4.177500
3.210300 3.599900
3.238000 3.397200
3.265700 3.572000
3.293300 4.149200
3.321000 4.527600
3.348600 6.090300
3.376300 7.451000
3.404000 8.936000
3.431600 11.413300
3.459300 7.027900
3.486900 6.666400
3.514600 6.363900
3.542300 5.916800
3.569900 5.872200
3.597600 6.883700
3.625200 8.800600
3.652900 7.913400
3.680600 7.929400
3.708200 6.937800
3.735900 6.549900
3.763500 6.449000
3.791200 6.366100
3.818900 5.637300
3.846500 4.933200
3.874200 4.644300
3.901800 3.750100
3.929500 3.454400
3.957100 3.310300
3.984800 2.828500
4.012500 2.424600
4.040100 2.215900
4.067800 2.131900
4.095400 2.715100
4.123100 3.124900
4.150800 3.369200
4.178400 3.233800
4.206100 3.436800
4.233700 3.867500
4.261400 4.928200
4.289100 5.821400
4.316700 5.981900
4.344400 5.550200
4.372000 5.161900
4.399700 5.433900
4.427400 6.580800
4.455000 6.683200
4.482700 5.811100
4.510300 4.823200
4.538000 4.170700
4.565700 3.613400
4.593300 3.681600
4.621000 4.548500
4.648600 4.722300
4.676300 5.135400
4.704000 5.240100
4.731600 5.196000
4.759300 5.071000
4.786900 4.475200
4.814600 3.913600
4.842200 3.723500
4.869900 3.628400
4.897600 3.639100
4.925200 3.693700
4.952900 3.709400
4.980500 3.618300
5.008200 4.705200
5.035900 5.156000
5.063500 5.656200
5.091200 5.477700
5.118800 5.394900
5.146500 5.399000
5.174200 5.333900
5.201800 5.264100
5.229500 5.120100
5.257100 4.992000
5.284800 5.389200
5.312500 5.396600
5.340100 5.148600
5.367800 5.419600
5.395400 5.574400
5.423100 5.139200
5.450800 5.166900
5.478400 5.590200
5.506100 6.200800
5.533700 7.582600
5.561400 7.531900
5.589000 5.759800
5.616700 5.572600
5.644400 5.477700
5.672000 5.221600
5.699700 5.417500
5.727300 5.669300
5.755000 5.921600
5.782700 6.016800
5.810300 5.652900
5.838000 5.707600
5.865600 5.626800
5.893300 5.224000
5.921000 4.806100
5.948600 4.144300
5.976300 4.182600
6.003900 4.002000
6.031600 3.981200
6.059300 3.997300
6.086900 4.301200
6.114600 4.373000
6.142200 4.400500
6.169900 4.248300
6.197600 4.124500
6.225200 4.129600
6.252900 4.102300
6.280500 4.311400
6.308200 4.534700
6.335800 4.717500
6.363500 4.777100
6.391200 4.691400
6.418800 4.699400
6.446500 4.723200
6.474100 4.933900
6.501800 5.278300
6.529500 5.939100
6.557100 6.288700
6.584800 6.005700
6.612400 5.322200
6.640100 5.046200
6.667800 4.872800
6.695400 4.791700
6.723100 4.917300
6.750700 5.125400
6.778400 5.501500
6.806100 6.088300
6.833700 4.614800
6.861400 4.363300
6.889000 4.229900
6.916700 4.121600
6.944400 3.796300
6.972000 3.906300
6.999700 4.909900
7.027300 6.098800
7.055000 6.470000
7.082700 6.302400
7.110300 6.695400
7.138000 6.328500
7.165600 6.108900
7.193300 5.659000
7.220900 5.463000
7.248600 5.919000
7.276300 5.836200
7.303900 5.918500
7.331600 6.249700
7.359200 6.291400
7.386900 6.261700
7.414600 6.174800
7.442200 6.400100
7.469900 8.237900
7.497500 7.414700
7.525200 7.512900
7.552900 7.618200
7.580500 8.042000
7.608200 6.919200
7.635800 6.378700
7.663500 5.965500
7.691200 5.351700
7.718800 4.804300
7.746500 3.846700
7.774100 3.497100
7.801800 3.261700
7.829500 3.070800
7.857100 3.718900
7.884800 3.314900
7.912400 3.795700
7.940100 3.816900
7.967700 3.936100
7.995400 4.160900
8.023100 4.481600
8.050700 4.946700
8.078400 5.705400
8.106000 6.712000
8.133700 5.217700
8.161400 5.140900
8.189000 5.134600
8.216700 5.173700
8.244300 5.703000
8.272000 6.451200
8.299700 7.082400
8.327300 7.653900
8.355000 8.592200
8.382600 9.298000
8.410300 8.372900
8.438000 7.765200
8.465600 7.310900
8.493300 6.946900
8.520900 6.352000
8.548600 6.310900
8.576300 7.156400
8.603900 7.092900
8.631600 6.503000
8.659200 5.419800
8.686900 4.816600
8.714500 4.510400
8.742200 4.258700
8.769900 4.115200
8.797500 4.086000
8.825200 4.107300
8.852800 4.312600
8.880500 4.957800
8.908200 6.286800
8.935800 7.522500
8.963500 7.643300
8.991100 8.179000
9.018800 8.140300
9.046500 8.581800
9.074100 8.150200
9.101800 6.902900
9.129400 7.181100
9.157100 10.164300
9.184800 8.703900
9.212400 7.884400
9.240100 6.449200
9.267700 5.700300
9.295400 5.016700
9.323100 4.783200
9.350700 4.123900
9.378400 3.992000
9.406000 4.197800
9.433700 5.070500
9.461400 5.156300
9.489000 4.977600
9.516700 4.669100
9.544300 4.646600
9.572000 4.112900
9.599600 3.329100
9.627300 2.779300
9.655000 2.479400
9.682600 2.458600
9.710300 2.756500
9.737900 3.509800
9.765600 3.995100
9.793300 4.159100
9.820900 4.464700
9.848600 4.744900
9.876200 5.245800
9.903900 5.906300
9.931600 6.378500
9.959200 6.015000
9.986900 5.505600
10.014500 4.838300
10.042200 3.968600
10.069900 3.426400
10.097500 3.099300
10.125200 2.921400
10.152800 2.865600
10.180500 3.383700
10.208200 3.047000
10.235800 3.267900
10.263500 3.757500
10.291100 4.544700
10.318800 5.414300
10.346400 6.776700
10.374100 8.725200
10.401800 8.999100
10.429400 8.469800
10.457100 6.255900
10.484700 5.304500
10.512400 5.071800
10.540100 4.898000
10.567700 4.608500
10.595400 4.310400
10.623000 4.068900
10.650700 4.056300
10.678400 4.105100
10.706000 4.166200
10.733700 4.184500
10.761300 4.489400
10.789000 5.129400
10.816700 4.921100
10.844300 4.538600
10.872000 4.590900
10.899600 5.068100
10.927300 5.477100
10.955000 4.559400
10.982600 4.261200
11.010300 3.942600
11.037900 3.741100
11.065600 3.700300
11.093200 3.655400
11.120900 3.751000
11.148600 3.825100
11.176200 4.578700
11.203900 4.610000
11.231500 4.949900
11.259200 4.947500
11.286900 4.682800
11.314500 4.194600
11.342200 3.526200
11.369800 3.327200
11.397500 2.498500
11.425200 2.478200
11.452800 2.469800
11.480500 2.675000
11.508100 2.812100
11.535800 3.403400
11.563500 3.539900
11.591100 3.556800
11.618800 3.731700
11.646400 4.205300
11.674100 4.009500
11.701800 3.779100
11.729400 3.852600
11.757100 4.067800
11.784700 4.076500
11.812400 3.564800
11.840100 3.030000
11.867700 2.676200
11.895400 2.416400
11.923000 2.442400
11.950700 2.168600
11.978300 2.167200
12.006000 2.243400
12.033700 2.362100
12.061300 2.498400
12.089000 2.641400
12.116600 2.813500
12.144300 3.022700
12.172000 3.494200
12.199600 3.368400
12.227300 3.172400
12.254900 3.003100
12.282600 2.890800
12.310300 2.807200
12.337900 2.757800
12.365600 2.614900
12.393200 2.464500
12.420900 2.349700
12.448600 2.245600
12.476200 2.222200
12.503900 2.436700
12.531500 2.595000
12.559200 2.652100
12.586900 2.681400
12.614500 2.663300
12.642200 2.646400
12.669800 2.629700
12.697500 2.626600
12.725100 2.599600
12.752800 2.617500
12.780500 2.667200
12.808100 2.728600
12.835800 2.819400
12.863400 3.057300
12.891100 3.684100
12.918800 5.083700
12.946400 4.992400
12.974100 4.752700
13.001700 4.086400
13.029400 3.874000
13.057100 3.776400
13.084700 3.750000
13.112400 3.761200
13.140000 3.873100
13.167700 3.847500
13.195400 3.848200
13.223000 3.984400
13.250700 4.077600
13.278300 3.893500
13.306000 3.632300
13.333700 3.408600
13.361300 3.177600
13.389000 3.023600
13.416600 2.911700
13.444300 2.812100
13.472000 2.756900
13.499600 2.922700
13.527300 2.763500
13.554900 2.381600
13.582600 2.320100
13.610200 2.269100
13.637900 2.233700
13.665600 2.184100
13.693200 2.153000
13.720900 2.274000
13.748500 2.204800
13.776200 2.174100
13.803900 2.172800
13.831500 2.216600
13.859200 2.292900
13.886800 2.471100
13.914500 2.772900
13.942200 2.664000
13.969800 2.582800
13.997500 2.555100
14.025100 2.608700
14.052800 2.689100
14.080500 2.698500
14.108100 2.677300
14.135800 2.710200
14.163400 2.731900
14.191100 2.720800
14.218800 2.698200
14.246400 2.623500
14.274100 2.571700
14.301700 2.498500
14.329400 2.472500
14.357000 2.429600
14.384700 2.396400
14.412400 2.432900
14.440000 2.529900
14.467700 2.723100
14.495300 2.778700
14.523000 2.913900
14.550700 2.780600
14.578300 2.772100
14.606000 2.623200
14.633600 2.560600
14.661300 2.506800
14.689000 2.539700
14.716600 2.628700
14.744300 2.736400
14.771900 2.724700
14.799600 2.858200
14.827300 2.983500
14.854900 3.028600
14.882600 3.186000
14.910200 3.274700
14.937900 3.750600
14.965600 3.986700
14.993200 4.180600
15.020900 4.752600
15.048500 4.993600
15.076200 5.346800
15.103800 5.438400
15.131500 5.087400
15.159200 5.077600
15.186800 4.948600
15.214500 4.708500
15.242100 4.508900
15.269800 4.513800
15.297500 4.482700
15.325100 4.361900
15.352800 4.405000
15.380400 4.965900
15.408100 4.675300
15.435800 4.182100
15.463400 4.158300
15.491100 4.085400
15.518700 3.985100
15.546400 3.927800
15.574100 3.897300
15.601700 4.016900
15.629400 4.049700
15.657000 4.044400
15.684700 4.223400
15.712400 4.415600
15.740000 4.682700
15.767700 4.993000
15.795300 5.541600
15.823000 6.406500
15.850700 8.217600
15.878300 9.549600
15.906000 11.779400
15.933600 18.595600
15.961300 545.431700
15.988900 21.483800
16.016600 10.319600
16.044300 8.177200
16.071900 7.233800
16.099600 7.149300
16.127200 6.435500
16.154900 5.589700
16.182600 5.027600
16.210200 4.486400
16.237900 4.078600
16.265500 3.829100
16.293200 4.073800
16.320900 4.698300
16.348500 5.158000
16.376200 5.557600
16.403800 6.013700
16.431500 6.711300
16.459200 6.916700
16.486800 6.545800
16.514500 6.671200
16.542100 6.417900
16.569800 6.046000
16.597500 5.803500
16.625100 5.491900
16.652800 5.208700
16.680400 4.879300
16.708100 4.930800
16.735700 5.275300
16.763400 5.129600
16.791100 4.901200
16.818700 4.545000
16.846400 4.071500
16.874000 3.777800
16.901700 3.526100
16.929400 3.345200
16.957000 3.311200
16.984700 3.346700
17.012300 3.738400
17.040000 3.682800
17.067700 4.150400
17.095300 4.463900
17.123000 4.837400
17.150600 5.118200
17.178300 5.125800
17.206000 4.825500
17.233600 4.439600
17.261300 4.322400
17.288900 4.302800
17.316600 4.221600
17.344300 4.186600
17.371900 4.245400
17.399600 3.933000
17.427200 3.882800
17.454900 3.871300
17.482500 3.874300
17.510200 3.903500
17.537900 3.924200
17.565500 3.999500
17.593200 4.153400
17.620800 4.231000
17.648500 4.263800
17.676200 4.281200
17.703800 4.279300
17.731500 4.350700
17.759100 4.334000
17.786800 4.353400
17.814500 4.391300
17.842100 4.372800
17.869800 4.442600
17.897400 3.825500
17.925100 3.749400
17.952800 3.698500
17.980400 3.631800
18.008100 3.551800
18.035700 3.476000
18.063400 3.620100
18.091100 3.841000
18.118700 3.774700
18.146400 3.751700
18.174000 3.827700
18.201700 3.980600
18.229400 4.034800
18.257000 4.172300
18.284700 4.325900
18.312300 4.658400
18.340000 4.923200
18.367600 4.746500
18.395300 4.888800
18.423000 5.050000
18.450600 5.188200
18.478300 5.341400
18.505900 5.344400
18.533600 5.333500
18.561300 5.391300
18.588900 4.923000
18.616600 4.947500
18.644200 4.713900
18.671900 4.271100
18.699600 3.965600
18.727200 3.812800
18.754900 3.632200
18.782500 3.551100
18.810200 3.661600
18.837900 3.870400
18.865500 3.914300
18.893200 4.114200
18.920800 4.171300
18.948500 4.059800
18.976200 4.166500
19.003800 4.254800
19.031500 4.453900
19.059100 4.530600
19.086800 4.682800
19.114400 4.802600
19.142100 4.719900
19.169800 4.562500
19.197400 4.862300
19.225100 5.511100
19.252700 5.689000
19.280400 5.711200
19.308100 5.175600
19.335700 4.454800
19.363400 3.952400
19.391000 3.394600
19.418700 3.193200
19.446400 3.061100
19.474000 2.944000
19.501700 2.866100
19.529300 2.915100
19.557000 2.926000
19.584700 2.914600
19.612300 2.969200
19.640000 3.011700
19.667600 2.986000
19.695300 2.922100
19.723000 3.050000
19.750600 3.227800
19.778300 3.526200
19.805900 4.286600
19.833600 4.765500
19.861200 4.749200
19.888900 4.516300
19.916600 4.501700
19.944200 4.443500
19.971900 5.272200
19.999500 3.579600
20.027200 3.576900
20.054900 3.959300
20.082500 4.241000
20.110200 4.510600
20.137800 4.617600
20.165500 4.533200
20.193200 4.492100
20.220800 4.371800
20.248500 4.261700
20.276100 4.061600
20.303800 3.874200
20.331500 3.701900
20.359100 3.572800
20.386800 3.692800
20.414400 3.849000
20.442100 3.962100
20.469800 4.156900
20.497400 4.419200
20.525100 4.793100
20.552700 5.151500
20.580400 5.898600
20.608100 6.129000
20.635700 5.382800
20.663400 4.635200
20.691000 3.708600
20.718700 3.688000
20.746300 4.240800
20.774000 3.540400
20.801700 3.403900
20.829300 3.375500
20.857000 3.802100
20.884600 3.654700
20.912300 4.038900
20.940000 4.566700
20.967600 5.103600
20.995300 5.629200
21.022900 5.991400
21.050600 6.118100
21.078300 6.141100
21.105900 5.976100
21.133600 5.696000
21.161200 5.309000
21.188900 4.870000
21.216600 4.661200
21.244200 4.707500
21.271900 5.039700
21.299500 5.127200
21.327200 5.370700
21.354900 5.664100
21.382500 5.944100
21.410200 5.382800
21.437800 4.853000
21.465500 4.323400
21.493100 4.029400
21.520800 4.066100
21.548500 4.033600
21.576100 3.910900
21.603800 3.811800
21.631400 3.671700
21.659100 3.498000
21.686800 3.339600
21.714400 3.138000
21.742100 2.838600
21.769700 2.625200
21.797400 2.609800
21.825100 2.444300
21.852700 2.655700
21.880400 3.009300
21.908000 3.459700
21.935700 3.957500
21.963400 4.511300
21.991000 5.187500
22.018700 6.348900
22.046300 6.920600
22.074000 6.472000
22.101700 6.907200
22.129300 6.351100
22.157000 5.427500
22.184600 4.284200
22.212300 4.147500
22.239900 3.837300
22.267600 3.691400
22.295300 3.685600
22.322900 4.030800
22.350600 4.333000
22.378200 4.673500
22.405900 4.959200
22.433600 5.116200
22.461200 5.764500
22.488900 5.523800
22.516500 4.469200
22.544200 4.850300
22.571900 4.598000
22.599500 4.489300
22.627200 4.329900
22.654800 4.214800
22.682500 4.168200
22.710200 4.093000
22.737800 4.057200
22.765500 4.126200
22.793100 4.356300
22.820800 4.612300
22.848500 4.660500
22.876100 4.644900
22.903800 4.652000
22.931400 4.554800
22.959100 4.271400
22.986800 3.915200
23.014400 3.880800
23.042100 3.630500
23.069700 3.441200
23.097400 3.415600
23.125000 3.472700
23.152700 4.228900
23.180400 5.150400
23.208000 5.166100
23.235700 5.420800
23.263300 5.530400
23.291000 5.558600
23.318700 5.869700
23.346300 6.223700
23.374000 4.662400
23.401600 3.625700
23.429300 3.583500
23.457000 3.432300
23.484600 3.276700
23.512300 3.205200
23.539900 2.809000
23.567600 2.413900
23.595300 2.105000
23.622900 1.895100
23.650600 1.066300
23.678200 0.759600
23.705900 0.544800
23.733600 0.425600
23.761200 0.326000
23.788900 0.200100
23.816500 0.126600
23.844200 0.070800
23.871800 0.020000
23.899500 0.005400
23.927200 0.000000
23.954800 0.000000
23.982500 0.000000
24.010100 0.000000
24.037800 0.000000
24.065500 0.000000
24.093100 0.000000
24.120800 0.000000
24.148400 0.000000
24.176100 0.000000
24.203800 0.000000
24.231400 0.000000
24.259100 0.000000
24.286700 0.000000
24.314400 0.000000
24.342100 0.000000
24.369700 0.000000
24.397400 0.000000
24.425000 0.000000
24.452700 0.000000
24.480400 0.000000
24.508000 0.000000
24.535700 0.000000
24.563300 0.000000
24.591000 0.000000
24.618600 0.000000
24.646300 0.000000
24.674000 0.000000
24.701600 0.000000
24.729300 0.000000
24.756900 0.000000
24.784600 0.000000
24.812300 0.000000
24.839900 0.000000
24.867600 0.000000
24.895200 0.000000
24.922900 0.000000
24.950600 0.000000
24.978200 0.000000
25.005900 0.000000
25.033500 0.000000
25.061200 0.000000
25.088900 0.000000
25.116500 0.000000
25.144200 0.000000
25.171800 0.000000
25.199500 0.000000
25.227200 0.000000
25.254800 0.000000
25.282500 0.000000
25.310100 0.000000
25.337800 0.000000
25.365500 0.000000
25.393100 0.000000
25.420800 0.000000
25.448400 0.000000
25.476100 0.000000
25.503700 0.000000
25.531400 0.000000
25.559100 0.000000
25.586700 0.000000
25.614400 0.000000
25.642000 0.000000
25.669700 0.000000
25.697400 0.000000
25.725000 0.000000
25.752700 0.000000
25.780300 0.000000
25.808000 0.000000
25.835700 0.000000
25.863300 0.000000
25.891000 0.000000
25.918600 0.000000
25.946300 0.000000
25.974000 0.000000
26.001600 0.000000
26.029300 0.000000
26.056900 0.000000
26.084600 0.000000
26.112300 0.000000
26.139900 0.000000
26.167600 0.000000
26.195200 0.000000
26.222900 0.000000
26.250500 0.000000
26.278200 0.000000
26.305900 0.000000
26.333500 0.000000
26.361200 0.000000
26.388800 0.000000
26.416500 0.000000
26.444200 0.000000
e
