set title 'mp-982018 - Density of States'
set xlabel 'Energy (eV)'
set ylabel 'DOS (states/eV)'
set grid
set xrange [-10:10]
set yrange [0:9.877]
set xzeroaxis lt -1
set terminal png size 800,600
set output 'mp-982018_dos_gnuplot.png'
plot '-' using 1:2 with lines title 'DOS'
-21.556600 0.000000
-21.533600 0.000000
-21.510600 0.000000
-21.487600 0.000000
-21.464700 0.000000
-21.441700 0.000000
-21.418700 0.000000
-21.395700 0.000000
-21.372800 0.000000
-21.349800 0.000000
-21.326800 0.000000
-21.303800 0.000000
-21.280900 0.000000
-21.257900 0.000000
-21.234900 0.000000
-21.212000 0.000000
-21.189000 0.000000
-21.166000 0.000000
-21.143000 0.000000
-21.120100 0.000000
-21.097100 0.000000
-21.074100 0.000000
-21.051100 0.000000
-21.028200 0.000000
-21.005200 0.000000
-20.982200 0.000000
-20.959200 0.000000
-20.936300 0.000000
-20.913300 0.000000
-20.890300 0.000000
-20.867400 0.000000
-20.844400 0.000000
-20.821400 0.000000
-20.798400 0.000000
-20.775500 0.000000
-20.752500 0.000000
-20.729500 0.000000
-20.706500 0.000000
-20.683600 0.000000
-20.660600 0.000000
-20.637600 0.000000
-20.614700 0.000000
-20.591700 0.000000
-20.568700 0.000000
-20.545700 0.000000
-20.522800 0.000000
-20.499800 0.000000
-20.476800 0.000000
-20.453800 0.000000
-20.430900 0.000000
-20.407900 0.000000
-20.384900 0.000000
-20.361900 0.000000
-20.339000 0.000000
-20.316000 0.000000
-20.293000 0.000000
-20.270100 0.000000
-20.247100 0.000000
-20.224100 0.000000
-20.201100 0.000000
-20.178200 0.000000
-20.155200 0.000000
-20.132200 0.000000
-20.109200 0.000000
-20.086300 0.000000
-20.063300 0.000000
-20.040300 0.000000
-20.017300 0.000000
-19.994400 0.000000
-19.971400 0.000000
-19.948400 0.000000
-19.925500 0.000000
-19.902500 0.000000
-19.879500 0.000000
-19.856500 0.000000
-19.833600 0.000000
-19.810600 0.000000
-19.787600 0.000000
-19.764600 0.000000
-19.741700 0.000000
-19.718700 0.000000
-19.695700 0.000000
-19.672800 0.000000
-19.649800 0.000000
-19.626800 0.000000
-19.603800 0.000100
-19.580900 0.001100
-19.557900 0.009700
-19.534900 0.060300
-19.511900 0.263500
-19.489000 0.828000
-19.466000 1.960200
-19.443000 3.765800
-19.420000 6.364300
-19.397100 9.866600
-19.374100 14.048900
-19.351100 18.498400
-19.328200 23.086000
-19.305200 27.548200
-19.282200 30.736100
-19.259200 31.461900
-19.236300 30.030000
-19.213300 27.705100
-19.190300 25.222700
-19.167300 22.829400
-19.144400 20.958400
-19.121400 20.276200
-19.098400 21.244300
-19.075400 23.462300
-19.052500 25.791600
-19.029500 27.459600
-19.006500 28.506900
-18.983600 29.026500
-18.960600 28.497300
-18.937600 26.087300
-18.914600 21.796800
-18.891700 17.434000
-18.868700 15.488400
-18.845700 16.541400
-18.822700 18.931100
-18.799800 21.033500
-18.776800 22.292100
-18.753800 22.298500
-18.730900 21.114800
-18.707900 19.790700
-18.684900 18.622400
-18.661900 16.470700
-18.639000 12.618300
-18.616000 7.877800
-18.593000 3.813600
-18.570000 1.372400
-18.547100 0.355600
-18.524100 0.064900
-18.501100 0.008200
-18.478100 0.000700
-18.455200 0.000000
-18.432200 0.000000
-18.409200 0.000000
-18.386300 0.000000
-18.363300 0.000000
-18.340300 0.000000
-18.317300 0.000000
-18.294400 0.000000
-18.271400 0.000000
-18.248400 0.000000
-18.225400 0.000000
-18.202500 0.000000
-18.179500 0.000000
-18.156500 0.000000
-18.133500 0.000000
-18.110600 0.000000
-18.087600 0.000000
-18.064600 0.000000
-18.041700 0.000000
-18.018700 0.000000
-17.995700 0.000000
-17.972700 0.000000
-17.949800 0.000000
-17.926800 0.000000
-17.903800 0.000000
-17.880800 0.000000
-17.857900 0.000000
-17.834900 0.000000
-17.811900 0.000000
-17.789000 0.000000
-17.766000 0.000000
-17.743000 0.000000
-17.720000 0.000000
-17.697100 0.000000
-17.674100 0.000000
-17.651100 0.000000
-17.628100 0.000000
-17.605200 0.000000
-17.582200 0.000000
-17.559200 0.000000
-17.536200 0.000000
-17.513300 0.000000
-17.490300 0.000000
-17.467300 0.000000
-17.444400 0.000000
-17.421400 0.000000
-17.398400 0.000000
-17.375400 0.000000
-17.352500 0.000000
-17.329500 0.000000
-17.306500 0.000000
-17.283500 0.000000
-17.260600 0.000000
-17.237600 0.000000
-17.214600 0.000000
-17.191600 0.000000
-17.168700 0.000000
-17.145700 0.000000
-17.122700 0.000000
-17.099800 0.000000
-17.076800 0.000000
-17.053800 0.000000
-17.030800 0.000000
-17.007900 0.000000
-16.984900 0.000000
-16.961900 0.000000
-16.938900 0.000000
-16.916000 0.000000
-16.893000 0.000000
-16.870000 0.000000
-16.847100 0.000000
-16.824100 0.000000
-16.801100 0.000000
-16.778100 0.000000
-16.755200 0.000000
-16.732200 0.000000
-16.709200 0.000000
-16.686200 0.000000
-16.663300 0.000000
-16.640300 0.000000
-16.617300 0.000000
-16.594300 0.000000
-16.571400 0.000000
-16.548400 0.000000
-16.525400 0.000000
-16.502500 0.000000
-16.479500 0.000000
-16.456500 0.000000
-16.433500 0.000000
-16.410600 0.000000
-16.387600 0.000000
-16.364600 0.000000
-16.341600 0.000000
-16.318700 0.000000
-16.295700 0.000000
-16.272700 0.000000
-16.249700 0.000000
-16.226800 0.000000
-16.203800 0.000000
-16.180800 0.000000
-16.157900 0.000000
-16.134900 0.000000
-16.111900 0.000000
-16.088900 0.000000
-16.066000 0.000000
-16.043000 0.000000
-16.020000 0.000000
-15.997000 0.000000
-15.974100 0.000000
-15.951100 0.000000
-15.928100 0.000000
-15.905200 0.000000
-15.882200 0.000000
-15.859200 0.000000
-15.836200 0.000000
-15.813300 0.000000
-15.790300 0.000000
-15.767300 0.000000
-15.744300 0.000000
-15.721400 0.000000
-15.698400 0.000000
-15.675400 0.000000
-15.652400 0.000000
-15.629500 0.000000
-15.606500 0.000000
-15.583500 0.000000
-15.560600 0.000000
-15.537600 0.000000
-15.514600 0.000000
-15.491600 0.000000
-15.468700 0.000000
-15.445700 0.000000
-15.422700 0.000000
-15.399700 0.000000
-15.376800 0.000000
-15.353800 0.000000
-15.330800 0.000000
-15.307800 0.000000
-15.284900 0.000000
-15.261900 0.000000
-15.238900 0.000000
-15.216000 0.000000
-15.193000 0.000000
-15.170000 0.000000
-15.147000 0.000000
-15.124100 0.000000
-15.101100 0.000000
-15.078100 0.000000
-15.055100 0.000000
-15.032200 0.000000
-15.009200 0.000000
-14.986200 0.000000
-14.963300 0.000000
-14.940300 0.000000
-14.917300 0.000000
-14.894300 0.000000
-14.871400 0.000000
-14.848400 0.000000
-14.825400 0.000000
-14.802400 0.000000
-14.779500 0.000000
-14.756500 0.000000
-14.733500 0.000000
-14.710500 0.000000
-14.687600 0.000000
-14.664600 0.000000
-14.641600 0.000000
-14.618700 0.000000
-14.595700 0.000000
-14.572700 0.000000
-14.549700 0.000000
-14.526800 0.000000
-14.503800 0.000000
-14.480800 0.000000
-14.457800 0.000000
-14.434900 0.000000
-14.411900 0.000000
-14.388900 0.000000
-14.365900 0.000000
-14.343000 0.000000
-14.320000 0.000000
-14.297000 0.000000
-14.274100 0.000000
-14.251100 0.000000
-14.228100 0.000000
-14.205100 0.000000
-14.182200 0.000000
-14.159200 0.000000
-14.136200 0.000000
-14.113200 0.000000
-14.090300 0.000000
-14.067300 0.000000
-14.044300 0.000000
-14.021400 0.000000
-13.998400 0.000000
-13.975400 0.000000
-13.952400 0.000000
-13.929500 0.000000
-13.906500 0.000000
-13.883500 0.000000
-13.860500 0.000000
-13.837600 0.000000
-13.814600 0.000000
-13.791600 0.000000
-13.768600 0.000000
-13.745700 0.000000
-13.722700 0.000000
-13.699700 0.000000
-13.676800 0.000000
-13.653800 0.000000
-13.630800 0.000000
-13.607800 0.000000
-13.584900 0.000000
-13.561900 0.000000
-13.538900 0.000000
-13.515900 0.000000
-13.493000 0.000000
-13.470000 0.000000
-13.447000 0.000000
-13.424100 0.000000
-13.401100 0.000000
-13.378100 0.000000
-13.355100 0.000000
-13.332200 0.000000
-13.309200 0.000000
-13.286200 0.000000
-13.263200 0.000000
-13.240300 0.000000
-13.217300 0.000000
-13.194300 0.000000
-13.171300 0.000000
-13.148400 0.000000
-13.125400 0.000000
-13.102400 0.000000
-13.079500 0.000000
-13.056500 0.000000
-13.033500 0.000000
-13.010500 0.000000
-12.987600 0.000000
-12.964600 0.000000
-12.941600 0.000000
-12.918600 0.000000
-12.895700 0.000000
-12.872700 0.000000
-12.849700 0.000000
-12.826700 0.000000
-12.803800 0.000000
-12.780800 0.000000
-12.757800 0.000000
-12.734900 0.000000
-12.711900 0.000000
-12.688900 0.000000
-12.665900 0.000000
-12.643000 0.000000
-12.620000 0.000000
-12.597000 0.000000
-12.574000 0.000000
-12.551100 0.000000
-12.528100 0.000000
-12.505100 0.000000
-12.482200 0.000000
-12.459200 0.000000
-12.436200 0.000000
-12.413200 0.000000
-12.390300 0.000000
-12.367300 0.000000
-12.344300 0.000000
-12.321300 0.000000
-12.298400 0.000000
-12.275400 0.000000
-12.252400 0.000000
-12.229400 0.000000
-12.206500 0.000000
-12.183500 0.000000
-12.160500 0.000000
-12.137600 0.000000
-12.114600 0.000000
-12.091600 0.000000
-12.068600 0.000000
-12.045700 0.000000
-12.022700 0.000000
-11.999700 0.000000
-11.976700 0.000000
-11.953800 0.000000
-11.930800 0.000000
-11.907800 0.000000
-11.884800 0.000000
-11.861900 0.000000
-11.838900 0.000000
-11.815900 0.000000
-11.793000 0.000000
-11.770000 0.000000
-11.747000 0.000000
-11.724000 0.000000
-11.701100 0.000000
-11.678100 0.000000
-11.655100 0.000000
-11.632100 0.000000
-11.609200 0.000000
-11.586200 0.000000
-11.563200 0.000000
-11.540300 0.000000
-11.517300 0.000000
-11.494300 0.000000
-11.471300 0.000000
-11.448400 0.000000
-11.425400 0.000000
-11.402400 0.000000
-11.379400 0.000000
-11.356500 0.000000
-11.333500 0.000000
-11.310500 0.000000
-11.287500 0.000000
-11.264600 0.000000
-11.241600 0.000000
-11.218600 0.000000
-11.195700 0.000000
-11.172700 0.000000
-11.149700 0.000000
-11.126700 0.000000
-11.103800 0.000000
-11.080800 0.000000
-11.057800 0.000000
-11.034800 0.000000
-11.011900 0.000000
-10.988900 0.000000
-10.965900 0.000000
-10.942900 0.000000
-10.920000 0.000000
-10.897000 0.000000
-10.874000 0.000000
-10.851100 0.000000
-10.828100 0.000000
-10.805100 0.000000
-10.782100 0.000000
-10.759200 0.000000
-10.736200 0.000000
-10.713200 0.000000
-10.690200 0.000000
-10.667300 0.000000
-10.644300 0.000000
-10.621300 0.000000
-10.598400 0.000000
-10.575400 0.000000
-10.552400 0.000000
-10.529400 0.000000
-10.506500 0.000000
-10.483500 0.000000
-10.460500 0.000000
-10.437500 0.000000
-10.414600 0.000000
-10.391600 0.000000
-10.368600 0.000000
-10.345600 0.000000
-10.322700 0.000000
-10.299700 0.000000
-10.276700 0.000000
-10.253800 0.000000
-10.230800 0.000000
-10.207800 0.000000
-10.184800 0.000000
-10.161900 0.000000
-10.138900 0.000000
-10.115900 0.000000
-10.092900 0.000000
-10.070000 0.000000
-10.047000 0.000000
-10.024000 0.000000
-10.001000 0.000000
-9.978100 0.000000
-9.955100 0.000000
-9.932100 0.000000
-9.909200 0.000000
-9.886200 0.000000
-9.863200 0.000000
-9.840200 0.000000
-9.817300 0.000000
-9.794300 0.000000
-9.771300 0.000000
-9.748300 0.000000
-9.725400 0.000000
-9.702400 0.000000
-9.679400 0.000000
-9.656500 0.000000
-9.633500 0.000000
-9.610500 0.000000
-9.587500 0.000000
-9.564600 0.000000
-9.541600 0.000000
-9.518600 0.000000
-9.495600 0.000000
-9.472700 0.000000
-9.449700 0.000000
-9.426700 0.000000
-9.403700 0.000000
-9.380800 0.000000
-9.357800 0.000000
-9.334800 0.000000
-9.311900 0.000000
-9.288900 0.000000
-9.265900 0.000000
-9.242900 0.000000
-9.220000 0.000000
-9.197000 0.000000
-9.174000 0.000000
-9.151000 0.000000
-9.128100 0.000000
-9.105100 0.000000
-9.082100 0.000000
-9.059100 0.000000
-9.036200 0.000000
-9.013200 0.000000
-8.990200 0.000000
-8.967300 0.000000
-8.944300 0.000000
-8.921300 0.000000
-8.898300 0.000000
-8.875400 0.000000
-8.852400 0.000000
-8.829400 0.000000
-8.806400 0.000000
-8.783500 0.000000
-8.760500 0.000000
-8.737500 0.000000
-8.714600 0.000000
-8.691600 0.000000
-8.668600 0.000000
-8.645600 0.000000
-8.622700 0.000000
-8.599700 0.000000
-8.576700 0.000000
-8.553700 0.000000
-8.530800 0.000000
-8.507800 0.000000
-8.484800 0.000000
-8.461800 0.000000
-8.438900 0.000000
-8.415900 0.000000
-8.392900 0.000000
-8.370000 0.000000
-8.347000 0.000000
-8.324000 0.000000
-8.301000 0.000000
-8.278100 0.000000
-8.255100 0.000000
-8.232100 0.000000
-8.209100 0.000000
-8.186200 0.000000
-8.163200 0.000000
-8.140200 0.000000
-8.117200 0.000000
-8.094300 0.000000
-8.071300 0.000000
-8.048300 0.000000
-8.025400 0.000000
-8.002400 0.000000
-7.979400 0.000000
-7.956400 0.000000
-7.933500 0.000000
-7.910500 0.000000
-7.887500 0.000000
-7.864500 0.000000
-7.841600 0.000000
-7.818600 0.000000
-7.795600 0.000000
-7.772700 0.000000
-7.749700 0.000000
-7.726700 0.000000
-7.703700 0.000000
-7.680800 0.000000
-7.657800 0.000000
-7.634800 0.000000
-7.611800 0.000000
-7.588900 0.000000
-7.565900 0.000000
-7.542900 0.000000
-7.519900 0.000000
-7.497000 0.000000
-7.474000 0.000000
-7.451000 0.000000
-7.428100 0.000000
-7.405100 0.000000
-7.382100 0.000000
-7.359100 0.000000
-7.336200 0.000000
-7.313200 0.000000
-7.290200 0.000000
-7.267200 0.000000
-7.244300 0.000000
-7.221300 0.000000
-7.198300 0.000000
-7.175300 0.000000
-7.152400 0.000000
-7.129400 0.000000
-7.106400 0.000000
-7.083500 0.000000
-7.060500 0.000000
-7.037500 0.000000
-7.014500 0.000000
-6.991600 0.000000
-6.968600 0.000000
-6.945600 0.000000
-6.922600 0.000000
-6.899700 0.000000
-6.876700 0.000000
-6.853700 0.000000
-6.830800 0.000000
-6.807800 0.000000
-6.784800 0.000000
-6.761800 0.000000
-6.738900 0.000000
-6.715900 0.000000
-6.692900 0.000000
-6.669900 0.000000
-6.647000 0.000000
-6.624000 0.000000
-6.601000 0.000000
-6.578000 0.000000
-6.555100 0.000000
-6.532100 0.000000
-6.509100 0.000000
-6.486200 0.000000
-6.463200 0.000000
-6.440200 0.000000
-6.417200 0.000000
-6.394300 0.000000
-6.371300 0.000000
-6.348300 0.000000
-6.325300 0.000000
-6.302400 0.000000
-6.279400 0.000000
-6.256400 0.000000
-6.233400 0.000000
-6.210500 0.000000
-6.187500 0.000000
-6.164500 0.000000
-6.141600 0.000000
-6.118600 0.000000
-6.095600 0.000000
-6.072600 0.000000
-6.049700 0.000000
-6.026700 0.000000
-6.003700 0.000000
-5.980700 0.000000
-5.957800 0.000000
-5.934800 0.000000
-5.911800 0.000000
-5.888900 0.000000
-5.865900 0.000000
-5.842900 0.000000
-5.819900 0.000000
-5.797000 0.000000
-5.774000 0.000000
-5.751000 0.000000
-5.728000 0.000000
-5.705100 0.000000
-5.682100 0.000000
-5.659100 0.000000
-5.636100 0.000000
-5.613200 0.000000
-5.590200 0.000000
-5.567200 0.000000
-5.544300 0.000000
-5.521300 0.000000
-5.498300 0.000000
-5.475300 0.000000
-5.452400 0.000000
-5.429400 0.000000
-5.406400 0.000000
-5.383400 0.000000
-5.360500 0.000000
-5.337500 0.000000
-5.314500 0.000000
-5.291500 0.000000
-5.268600 0.000000
-5.245600 0.000000
-5.222600 0.000200
-5.199700 0.001300
-5.176700 0.006000
-5.153700 0.019600
-5.130700 0.047800
-5.107800 0.096400
-5.084800 0.174700
-5.061800 0.283200
-5.038800 0.388900
-5.015900 0.446900
-4.992900 0.463000
-4.969900 0.492800
-4.947000 0.548800
-4.924000 0.593700
-4.901000 0.662800
-4.878000 0.847800
-4.855100 1.093600
-4.832100 1.189600
-4.809100 1.095500
-4.786100 1.048200
-4.763200 1.177100
-4.740200 1.340300
-4.717200 1.467100
-4.694200 1.657200
-4.671300 1.891700
-4.648300 2.050000
-4.625300 2.149900
-4.602400 2.252900
-4.579400 2.311700
-4.556400 2.273000
-4.533400 2.227400
-4.510500 2.411200
-4.487500 2.968400
-4.464500 3.757400
-4.441500 4.586500
-4.418600 5.594000
-4.395600 7.097900
-4.372600 8.716300
-4.349600 8.978800
-4.326700 6.951700
-4.303700 3.814300
-4.280700 1.441200
-4.257800 0.369600
-4.234800 0.063800
-4.211800 0.007400
-4.188800 0.000600
-4.165900 0.000000
-4.142900 0.000000
-4.119900 0.000000
-4.096900 0.000000
-4.074000 0.000000
-4.051000 0.000000
-4.028000 0.000000
-4.005100 0.000000
-3.982100 0.000000
-3.959100 0.000000
-3.936100 0.000000
-3.913200 0.000000
-3.890200 0.000000
-3.867200 0.000000
-3.844200 0.000000
-3.821300 0.000000
-3.798300 0.000000
-3.775300 0.000000
-3.752300 0.000000
-3.729400 0.000000
-3.706400 0.000000
-3.683400 0.000000
-3.660500 0.000000
-3.637500 0.000000
-3.614500 0.000000
-3.591500 0.000000
-3.568600 0.000000
-3.545600 0.000000
-3.522600 0.000000
-3.499600 0.000000
-3.476700 0.000000
-3.453700 0.000000
-3.430700 0.000000
-3.407700 0.000000
-3.384800 0.000000
-3.361800 0.000000
-3.338800 0.000000
-3.315900 0.000000
-3.292900 0.000000
-3.269900 0.000000
-3.246900 0.000000
-3.224000 0.000000
-3.201000 0.000000
-3.178000 0.000000
-3.155000 0.000000
-3.132100 0.000000
-3.109100 0.000000
-3.086100 0.000000
-3.063200 0.000000
-3.040200 0.000000
-3.017200 0.000000
-2.994200 0.000000
-2.971300 0.000000
-2.948300 0.000000
-2.925300 0.000000
-2.902300 0.000000
-2.879400 0.000000
-2.856400 0.000000
-2.833400 0.000000
-2.810400 0.000000
-2.787500 0.000000
-2.764500 0.000000
-2.741500 0.000000
-2.718600 0.000000
-2.695600 0.000000
-2.672600 0.000000
-2.649600 0.000000
-2.626700 0.000000
-2.603700 0.000000
-2.580700 0.000000
-2.557700 0.000000
-2.534800 0.000000
-2.511800 0.000000
-2.488800 0.000000
-2.465800 0.000000
-2.442900 0.000000
-2.419900 0.000000
-2.396900 0.000000
-2.374000 0.000000
-2.351000 0.000000
-2.328000 0.000000
-2.305000 0.000000
-2.282100 0.000000
-2.259100 0.000000
-2.236100 0.000000
-2.213100 0.000000
-2.190200 0.000000
-2.167200 0.000000
-2.144200 0.000000
-2.121300 0.000000
-2.098300 0.000000
-2.075300 0.000000
-2.052300 0.000000
-2.029400 0.000000
-2.006400 0.000000
-1.983400 0.000000
-1.960400 0.000000
-1.937500 0.000000
-1.914500 0.000000
-1.891500 0.000000
-1.868500 0.000000
-1.845600 0.000000
-1.822600 0.000000
-1.799600 0.000000
-1.776700 0.000000
-1.753700 0.000000
-1.730700 0.000000
-1.707700 0.000000
-1.684800 0.000000
-1.661800 0.000000
-1.638800 0.000000
-1.615800 0.000000
-1.592900 0.000000
-1.569900 0.000000
-1.546900 0.000000
-1.523900 0.000000
-1.501000 0.000000
-1.478000 0.000000
-1.455000 0.000000
-1.432100 0.000000
-1.409100 0.000000
-1.386100 0.000000
-1.363100 0.000000
-1.340200 0.000000
-1.317200 0.000000
-1.294200 0.000000
-1.271200 0.000000
-1.248300 0.000000
-1.225300 0.000000
-1.202300 0.000000
-1.179400 0.000000
-1.156400 0.000000
-1.133400 0.000000
-1.110400 0.000000
-1.087500 0.000000
-1.064500 0.000000
-1.041500 0.000000
-1.018500 0.000000
-0.995600 0.000000
-0.972600 0.000000
-0.949600 0.000000
-0.926600 0.000000
-0.903700 0.000000
-0.880700 0.000000
-0.857700 0.000000
-0.834800 0.000000
-0.811800 0.000000
-0.788800 0.000000
-0.765800 0.000000
-0.742900 0.000000
-0.719900 0.000000
-0.696900 0.000000
-0.673900 0.000000
-0.651000 0.000000
-0.628000 0.000000
-0.605000 0.000000
-0.582000 0.000000
-0.559100 0.000000
-0.536100 0.000000
-0.513100 0.000000
-0.490200 0.000000
-0.467200 0.000000
-0.444200 0.000000
-0.421200 0.000000
-0.398300 0.000000
-0.375300 0.000000
-0.352300 0.000000
-0.329300 0.000000
-0.306400 0.000000
-0.283400 0.000000
-0.260400 0.000000
-0.237500 0.000000
-0.214500 0.000000
-0.191500 0.000000
-0.168500 0.000000
-0.145600 0.000000
-0.122600 0.000000
-0.099600 0.000000
-0.076600 0.000000
-0.053700 0.000000
-0.030700 0.000100
-0.007700 0.000700
0.015300 0.003800
0.038200 0.013200
0.061200 0.032400
0.084200 0.059600
0.107100 0.092300
0.130100 0.136900
0.153100 0.211900
0.176100 0.345900
0.199000 0.550700
0.222000 0.776900
0.245000 0.939200
0.268000 1.010300
0.290900 1.044200
0.313900 1.114200
0.336900 1.272800
0.359900 1.545000
0.382800 1.892800
0.405800 2.156300
0.428800 2.161400
0.451700 1.991400
0.474700 1.962900
0.497700 2.201000
0.520700 2.417300
0.543600 2.268500
0.566600 1.819300
0.589600 1.462600
0.612600 1.465500
0.635500 1.821300
0.658500 2.438000
0.681500 3.154200
0.704400 3.643500
0.727400 3.647000
0.750400 3.301400
0.773400 2.963900
0.796300 2.796400
0.819300 2.732500
0.842300 2.644500
0.865300 2.411600
0.888200 2.002900
0.911200 1.575300
0.934200 1.339400
0.957200 1.279900
0.980100 1.204400
1.003100 1.077500
1.026100 1.106400
1.049000 1.459400
1.072000 1.995500
1.095000 2.320600
1.118000 2.176900
1.140900 1.732800
1.163900 1.371700
1.186900 1.313300
1.209900 1.527100
1.232800 1.821500
1.255800 1.969500
1.278800 1.876700
1.301800 1.640400
1.324700 1.403100
1.347700 1.164600
1.370700 0.902200
1.393600 0.804700
1.416600 1.100600
1.439600 1.725900
1.462600 2.336300
1.485500 2.615700
1.508500 2.555900
1.531500 2.421200
1.554500 2.402600
1.577400 2.425600
1.600400 2.379500
1.623400 2.308000
1.646300 2.295600
1.669300 2.401000
1.692300 2.688900
1.715300 3.147200
1.738200 3.639800
1.761200 4.091900
1.784200 4.558700
1.807200 4.889300
1.830100 4.710600
1.853100 4.035400
1.876100 3.348900
1.899100 2.976100
1.922000 2.886500
1.945000 3.007100
1.968000 3.387700
1.990900 4.036800
2.013900 4.653700
2.036900 4.844400
2.059900 4.613400
2.082800 4.175100
2.105800 3.527000
2.128800 2.670400
2.151800 1.869900
2.174700 1.449800
2.197700 1.535300
2.220700 2.016500
2.243700 2.613900
2.266600 2.946400
2.289600 2.871800
2.312600 2.751400
2.335500 2.926800
2.358500 3.141700
2.381500 2.956300
2.404500 2.428200
2.427400 1.972500
2.450400 1.859200
2.473400 2.129000
2.496400 2.617800
2.519300 2.944600
2.542300 2.854600
2.565300 2.485700
2.588200 2.073800
2.611200 1.701000
2.634200 1.448500
2.657200 1.402200
2.680100 1.443900
2.703100 1.363500
2.726100 1.138000
2.749100 0.870800
2.772000 0.615800
2.795000 0.419600
2.818000 0.361600
2.841000 0.474400
2.863900 0.691400
2.886900 0.876200
2.909900 0.909500
2.932800 0.785500
2.955800 0.633000
2.978800 0.627000
3.001800 0.859100
3.024700 1.219300
3.047700 1.406600
3.070700 1.228300
3.093700 0.850600
3.116600 0.582200
3.139600 0.517400
3.162600 0.536000
3.185600 0.564500
3.208500 0.670800
3.231500 0.900300
3.254500 1.165900
3.277400 1.372900
3.300400 1.556200
3.323400 1.810500
3.346400 2.153600
3.369300 2.424900
3.392300 2.353200
3.415300 1.930700
3.438300 1.533200
3.461200 1.483200
3.484200 1.722300
3.507200 2.010200
3.530100 2.258400
3.553100 2.472000
3.576100 2.585800
3.599100 2.672300
3.622000 3.027900
3.645000 3.775900
3.668000 4.588700
3.691000 5.004600
3.713900 4.950600
3.736900 4.791600
3.759900 4.831000
3.782900 4.949300
3.805800 4.900400
3.828800 4.702000
3.851800 4.467400
3.874700 4.129300
3.897700 3.604300
3.920700 3.045100
3.943700 2.742200
3.966600 2.885000
3.989600 3.382500
4.012600 3.855000
4.035600 4.045000
4.058500 4.118000
4.081500 4.245500
4.104500 4.334900
4.127500 4.345600
4.150400 4.289200
4.173400 4.008000
4.196400 3.422500
4.219300 2.802200
4.242300 2.422500
4.265300 2.237600
4.288300 2.144700
4.311200 2.164300
4.334200 2.249600
4.357200 2.277600
4.380200 2.269600
4.403100 2.370400
4.426100 2.656900
4.449100 3.093800
4.472000 3.549300
4.495000 3.815300
4.518000 3.776900
4.541000 3.595200
4.563900 3.509100
4.586900 3.468800
4.609900 3.334400
4.632900 3.303700
4.655800 3.627600
4.678800 4.108100
4.701800 4.309600
4.724800 4.045500
4.747700 3.540600
4.770700 3.300700
4.793700 3.651500
4.816600 4.358800
4.839600 4.840800
4.862600 4.662800
4.885600 3.901800
4.908500 3.067700
4.931500 2.612300
4.954500 2.667000
4.977500 3.113100
5.000400 3.623000
5.023400 3.822000
5.046400 3.684700
5.069400 3.663500
5.092300 4.186500
5.115300 5.155400
5.138300 6.151000
5.161200 6.921000
5.184200 7.483500
5.207200 7.811300
5.230200 7.521200
5.253100 6.283500
5.276100 4.592000
5.299100 3.443000
5.322100 3.124200
5.345000 3.028500
5.368000 2.720100
5.391000 2.408300
5.413900 2.321000
5.436900 2.333500
5.459900 2.294400
5.482900 2.257200
5.505800 2.274000
5.528800 2.282000
5.551800 2.335300
5.574800 2.588000
5.597700 3.045500
5.620700 3.642700
5.643700 4.333000
5.666700 4.934700
5.689600 5.153200
5.712600 4.884000
5.735600 4.437600
5.758500 4.313700
5.781500 4.765000
5.804500 5.642300
5.827500 6.467600
5.850400 6.767500
5.873400 6.540200
5.896400 6.185300
5.919400 5.914000
5.942300 5.479900
5.965300 4.714900
5.988300 4.136100
6.011300 4.485700
6.034200 5.685900
6.057200 6.790800
6.080200 7.049500
6.103100 6.634900
6.126100 6.074700
6.149100 5.425100
6.172100 4.557000
6.195000 3.697300
6.218000 3.197000
6.241000 3.185300
6.264000 3.529200
6.286900 3.817000
6.309900 3.610300
6.332900 2.966600
6.355800 2.430800
6.378800 2.431700
6.401800 2.859700
6.424800 3.308000
6.447700 3.623500
6.470700 3.936700
6.493700 4.212400
6.516700 4.204300
6.539600 3.883300
6.562600 3.527800
6.585600 3.294500
6.608600 3.026500
6.631500 2.638100
6.654500 2.387000
6.677500 2.530500
6.700400 2.948500
6.723400 3.399600
6.746400 3.879600
6.769400 4.359900
6.792300 4.562700
6.815300 4.362800
6.838300 3.970800
6.861300 3.584100
6.884200 3.229000
6.907200 2.853200
6.930200 2.500600
6.953100 2.444100
6.976100 2.910900
6.999100 3.681700
7.022100 4.231300
7.045000 4.316700
7.068000 4.214000
7.091000 4.224800
7.114000 4.226000
7.136900 4.058200
7.159900 3.877200
7.182900 3.758900
7.205900 3.621600
7.228800 3.568100
7.251800 3.729000
7.274800 4.020000
7.297700 4.287900
7.320700 4.394600
7.343700 4.236000
7.366700 3.931200
7.389600 3.871400
7.412600 4.432200
7.435600 5.558400
7.458600 6.603600
7.481500 6.853800
7.504500 6.336200
7.527500 5.685600
7.550500 5.264000
7.573400 5.018800
7.596400 4.903800
7.619400 4.921400
7.642300 5.065600
7.665300 5.323200
7.688300 5.570500
7.711300 5.659400
7.734200 5.544900
7.757200 5.227200
7.780200 4.759700
7.803200 4.295200
7.826100 4.048800
7.849100 4.107500
7.872100 4.210200
7.895000 4.044500
7.918000 3.768200
7.941000 3.797900
7.964000 4.197800
7.986900 4.661000
8.009900 4.935800
8.032900 5.018900
8.055900 5.085600
8.078800 5.339800
8.101800 5.750100
8.124800 6.027400
8.147800 5.991800
8.170700 5.771100
8.193700 5.547100
8.216700 5.220700
8.239600 4.622000
8.262600 3.983800
8.285600 3.742700
8.308600 3.952900
8.331500 4.315300
8.354500 4.692400
8.377500 5.156300
8.400500 5.555500
8.423400 5.617600
8.446400 5.465800
8.469400 5.489500
8.492400 5.803100
8.515300 6.110600
8.538300 6.000100
8.561300 5.359300
8.584200 4.558000
8.607200 4.095500
8.630200 4.094300
8.653200 4.289100
8.676100 4.414300
8.699100 4.459100
8.722100 4.491400
8.745100 4.418200
8.768000 4.255600
8.791000 4.369800
8.814000 4.965200
8.836900 5.622100
8.859900 5.732200
8.882900 5.186300
8.905900 4.435800
8.928800 3.938600
8.951800 3.740400
8.974800 3.748800
8.997800 4.046000
9.020700 4.622700
9.043700 5.192400
9.066700 5.599500
9.089700 6.133100
9.112600 6.995400
9.135600 7.636400
9.158600 7.317000
9.181500 6.265600
9.204500 5.472800
9.227500 5.475500
9.250500 5.968400
9.273400 6.277600
9.296400 5.899200
9.319400 4.886300
9.342400 3.811700
9.365300 3.273000
9.388300 3.346700
9.411300 3.547800
9.434300 3.448100
9.457200 3.096400
9.480200 2.750900
9.503200 2.579700
9.526100 2.613800
9.549100 2.718300
9.572100 2.733300
9.595100 2.735900
9.618000 2.872000
9.641000 3.012600
9.664000 3.008400
9.687000 3.056200
9.709900 3.392200
9.732900 3.957100
9.755900 4.584400
9.778800 5.140100
9.801800 5.455900
9.824800 5.399800
9.847800 5.031600
9.870700 4.563100
9.893700 4.173700
9.916700 3.949000
9.939700 3.898500
9.962600 4.029000
9.985600 4.383600
10.008600 4.879000
10.031600 5.286200
10.054500 5.403700
10.077500 5.167600
10.100500 4.768800
10.123400 4.515200
10.146400 4.415300
10.169400 4.195600
10.192400 3.756700
10.215300 3.299200
10.238300 2.972200
10.261300 2.713100
10.284300 2.517600
10.307200 2.517000
10.330200 2.732200
10.353200 2.987400
10.376200 3.121200
10.399100 3.198200
10.422100 3.387300
10.445100 3.696000
10.468000 3.998500
10.491000 4.271600
10.514000 4.684000
10.537000 5.371400
10.559900 6.114200
10.582900 6.444200
10.605900 6.271800
10.628900 6.060300
10.651800 6.038200
10.674800 5.840800
10.697800 5.259500
10.720700 4.644300
10.743700 4.296200
10.766700 4.103600
10.789700 3.971800
10.812600 4.039100
10.835600 4.270700
10.858600 4.294100
10.881600 3.968200
10.904500 3.687800
10.927500 3.750400
10.950500 3.937500
10.973500 3.906900
10.996400 3.526700
11.019400 2.919500
11.042400 2.417900
11.065300 2.323800
11.088300 2.673300
11.111300 3.239200
11.134300 3.715200
11.157200 3.869200
11.180200 3.640100
11.203200 3.233300
11.226200 2.983100
11.249100 3.002200
11.272100 3.141800
11.295100 3.263600
11.318100 3.299900
11.341000 3.210200
11.364000 3.071700
11.387000 3.003700
11.409900 2.933900
11.432900 2.683000
11.455900 2.318100
11.478900 2.132100
11.501800 2.274100
11.524800 2.657500
11.547800 3.092500
11.570800 3.306300
11.593700 3.057800
11.616700 2.431400
11.639700 1.845900
11.662600 1.659200
11.685600 1.898300
11.708600 2.340600
11.731600 2.699400
11.754500 2.793300
11.777500 2.602200
11.800500 2.195900
11.823500 1.726400
11.846400 1.401000
11.869400 1.318300
11.892400 1.381100
11.915400 1.439000
11.938300 1.533400
11.961300 1.854000
11.984300 2.346100
12.007200 2.651100
12.030200 2.596800
12.053200 2.451400
12.076200 2.532600
12.099100 2.811000
12.122100 3.088400
12.145100 3.273600
12.168100 3.334600
12.191000 3.293000
12.214000 3.207900
12.237000 3.032600
12.260000 2.708600
12.282900 2.358000
12.305900 2.163100
12.328900 2.124400
12.351800 2.124300
12.374800 2.108400
12.397800 2.110000
12.420800 2.273300
12.443700 2.709500
12.466700 3.208100
12.489700 3.438400
12.512700 3.402900
12.535600 3.321300
12.558600 3.285500
12.581600 3.304900
12.604500 3.443500
12.627500 3.710100
12.650500 3.924100
12.673500 3.813400
12.696400 3.260000
12.719400 2.455300
12.742400 1.773600
12.765400 1.454000
12.788300 1.475300
12.811300 1.647100
12.834300 1.737800
12.857300 1.683600
12.880200 1.642400
12.903200 1.677900
12.926200 1.631100
12.949100 1.524100
12.972100 1.676400
12.995100 2.142200
13.018100 2.443500
13.041000 2.164400
13.064000 1.517600
13.087000 1.093600
13.110000 1.266300
13.132900 1.925400
13.155900 2.662700
13.178900 3.165300
13.201900 3.344600
13.224800 3.230600
13.247800 2.996900
13.270800 2.904100
13.293700 3.056900
13.316700 3.310700
13.339700 3.418700
13.362700 3.346700
13.385600 3.366800
13.408600 3.585000
13.431600 3.727800
13.454600 3.723000
13.477500 3.900600
13.500500 4.381200
13.523500 4.833500
13.546400 4.880900
13.569400 4.429300
13.592400 3.684100
13.615400 3.017900
13.638300 2.767200
13.661300 3.003900
13.684300 3.559900
13.707300 4.344100
13.730200 5.371100
13.753200 6.409500
13.776200 6.934200
13.799200 6.565000
13.822100 5.522600
13.845100 4.488300
13.868100 3.897000
13.891000 3.668800
13.914000 3.635400
13.937000 3.775300
13.960000 4.029200
13.982900 4.285100
14.005900 4.463100
14.028900 4.418500
14.051900 3.981000
14.074800 3.148000
14.097800 2.188500
14.120800 1.556600
14.143800 1.541200
14.166700 1.994400
14.189700 2.587300
14.212700 3.167200
14.235600 3.672000
14.258600 4.028000
14.281600 4.197100
14.304600 4.085200
14.327500 3.649300
14.350500 3.079600
14.373500 2.586300
14.396500 2.248200
14.419400 2.092400
14.442400 2.032500
14.465400 1.940300
14.488300 1.923300
14.511300 2.233900
14.534300 2.844000
14.557300 3.351800
14.580200 3.423100
14.603200 3.156100
14.626200 2.848100
14.649200 2.636600
14.672100 2.529800
14.695100 2.518000
14.718100 2.557100
14.741100 2.593400
14.764000 2.627700
14.787000 2.666200
14.810000 2.711600
14.832900 2.897400
14.855900 3.345300
14.878900 3.875400
14.901900 4.181900
14.924800 4.125500
14.947800 3.710900
14.970800 3.123200
14.993800 2.705800
15.016700 2.597700
15.039700 2.638000
15.062700 2.691100
15.085700 2.751100
15.108600 2.828800
15.131600 2.961200
15.154600 3.196300
15.177500 3.495600
15.200500 3.718800
15.223500 3.755400
15.246500 3.721900
15.269400 3.849600
15.292400 4.106800
15.315400 4.234800
15.338400 4.183500
15.361300 4.203900
15.384300 4.450000
15.407300 4.718500
15.430200 4.638900
15.453200 4.066900
15.476200 3.291800
15.499200 2.828500
15.522100 2.989600
15.545100 3.616900
15.568100 4.213400
15.591100 4.373400
15.614000 4.096500
15.637000 3.665100
15.660000 3.340300
15.683000 3.264700
15.705900 3.398500
15.728900 3.520200
15.751900 3.494000
15.774800 3.376600
15.797800 3.279600
15.820800 3.393200
15.843800 3.840700
15.866700 4.353700
15.889700 4.537700
15.912700 4.386300
15.935700 4.196500
15.958600 4.142900
15.981600 4.103500
16.004600 3.858700
16.027600 3.410800
16.050500 3.030900
16.073500 3.004900
16.096500 3.409000
16.119400 4.039800
16.142400 4.505400
16.165400 4.479300
16.188400 3.921100
16.211300 3.123600
16.234300 2.469200
16.257300 2.106300
16.280300 1.974700
16.303200 1.973300
16.326200 2.017500
16.349200 2.161300
16.372100 2.605900
16.395100 3.303900
16.418100 3.788600
16.441100 3.695000
16.464000 3.179400
16.487000 2.706200
16.510000 2.607100
16.533000 2.851000
16.555900 3.130500
16.578900 3.112400
16.601900 2.729700
16.624900 2.306800
16.647800 2.304800
16.670800 2.925300
16.693800 3.919200
16.716700 4.718500
16.739700 4.884500
16.762700 4.506800
16.785700 4.001200
16.808600 3.542500
16.831600 3.052200
16.854600 2.613800
16.877600 2.425100
16.900500 2.538000
16.923500 2.885700
16.946500 3.402800
16.969500 4.022300
16.992400 4.532300
17.015400 4.636000
17.038400 4.371000
17.061300 4.073800
17.084300 3.779400
17.107300 3.302600
17.130300 2.794000
17.153200 2.543700
17.176200 2.558600
17.199200 2.760400
17.222200 3.150500
17.245100 3.532900
17.268100 3.556300
17.291100 3.150700
17.314000 2.584300
17.337000 2.132600
17.360000 1.949700
17.383000 2.202300
17.405900 2.937200
17.428900 3.788900
17.451900 4.289600
17.474900 4.388900
17.497800 4.238000
17.520800 3.876100
17.543800 3.456200
17.566800 3.294500
17.589700 3.519200
17.612700 3.940400
17.635700 4.347100
17.658600 4.694100
17.681600 4.922400
17.704600 4.878000
17.727600 4.463100
17.750500 3.763400
17.773500 3.063700
17.796500 2.722800
17.819500 2.878200
17.842400 3.279300
17.865400 3.525400
17.888400 3.430300
17.911400 3.155100
17.934300 3.037200
17.957300 3.233000
17.980300 3.532800
18.003200 3.645000
18.026200 3.548600
18.049200 3.366200
18.072200 3.221500
18.095100 3.313200
18.118100 3.691100
18.141100 4.057200
18.164100 4.124400
18.187000 3.987900
18.210000 3.978000
18.233000 4.269800
18.255900 4.631900
18.278900 4.644500
18.301900 4.176000
18.324900 3.515800
18.347800 3.086400
18.370800 2.983000
18.393800 2.963400
18.416800 3.028100
18.439700 3.472600
18.462700 4.196200
18.485700 4.693100
18.508700 4.780400
18.531600 4.606100
18.554600 4.256800
18.577600 3.942700
18.600500 3.970500
18.623500 4.179600
18.646500 4.063500
18.669500 3.562000
18.692400 3.147800
18.715400 3.230900
18.738400 3.749500
18.761400 4.270900
18.784300 4.532500
18.807300 4.665300
18.830300 4.801700
18.853300 4.812700
18.876200 4.484400
18.899200 3.863500
18.922200 3.316600
18.945100 3.157700
18.968100 3.457700
18.991100 4.072200
19.014100 4.560000
19.037000 4.475500
19.060000 3.938400
19.083000 3.465200
19.106000 3.268900
19.128900 3.202800
19.151900 3.185900
19.174900 3.206900
19.197800 3.128000
19.220800 2.843400
19.243800 2.500200
19.266800 2.394600
19.289700 2.751600
19.312700 3.562200
19.335700 4.475300
19.358700 5.032700
19.381600 5.112400
19.404600 4.926300
19.427600 4.643300
19.450600 4.252200
19.473500 3.757800
19.496500 3.277000
19.519500 2.879900
19.542400 2.557300
19.565400 2.388400
19.588400 2.451000
19.611400 2.612400
19.634300 2.683100
19.657300 2.715100
19.680300 2.920000
19.703300 3.270800
19.726200 3.482500
19.749200 3.431900
19.772200 3.254000
19.795200 3.123200
19.818100 3.173400
19.841100 3.388800
19.864100 3.550000
19.887000 3.531100
19.910000 3.547300
19.933000 3.878100
19.956000 4.447600
19.978900 4.917400
20.001900 5.071600
20.024900 4.888100
20.047900 4.493700
20.070800 4.197700
20.093800 4.199800
20.116800 4.329400
20.139700 4.370900
20.162700 4.424500
20.185700 4.739100
20.208700 5.294900
20.231600 5.749300
20.254600 5.819400
20.277600 5.546200
20.300600 5.127500
20.323500 4.696200
20.346500 4.434800
20.369500 4.607700
20.392500 5.163100
20.415400 5.532900
20.438400 5.192600
20.461400 4.259600
20.484300 3.310400
20.507300 2.862900
20.530300 3.111100
20.553300 3.816300
20.576200 4.434800
20.599200 4.584900
20.622200 4.321100
20.645200 3.993500
20.668100 3.924200
20.691100 4.042800
20.714100 3.973700
20.737100 3.642700
20.760000 3.462900
20.783000 3.761000
20.806000 4.322100
20.828900 4.666200
20.851900 4.568300
20.874900 4.162300
20.897900 3.665400
20.920800 3.246800
20.943800 3.144000
20.966800 3.591000
20.989800 4.467400
21.012700 5.183000
21.035700 5.236200
21.058700 4.793900
21.081600 4.395100
21.104600 4.314400
21.127600 4.469500
21.150600 4.641700
21.173500 4.573800
21.196500 4.117600
21.219500 3.419900
21.242500 2.775300
21.265400 2.305800
21.288400 1.927100
21.311400 1.580100
21.334400 1.356400
21.357300 1.420400
21.380300 1.850200
21.403300 2.564400
21.426200 3.432100
21.449200 4.288100
21.472200 4.849700
21.495200 4.965200
21.518100 4.860200
21.541100 4.837800
21.564100 4.903000
21.587100 4.839500
21.610000 4.489700
21.633000 3.945700
21.656000 3.540500
21.679000 3.435800
21.701900 3.334000
21.724900 2.992600
21.747900 2.631500
21.770800 2.488400
21.793800 2.506800
21.816800 2.549200
21.839800 2.485600
21.862700 2.236100
21.885700 1.897900
21.908700 1.572100
21.931700 1.235400
21.954600 0.963900
21.977600 0.901500
22.000600 1.009900
22.023500 1.105400
22.046500 1.032400
22.069500 0.789300
22.092500 0.569100
22.115400 0.609900
22.138400 0.948900
22.161400 1.333400
22.184400 1.458000
22.207300 1.247900
22.230300 0.843700
22.253300 0.462400
22.276300 0.256200
22.299200 0.202700
22.322200 0.177800
22.345200 0.119100
22.368100 0.054400
22.391100 0.016600
22.414100 0.003400
22.437100 0.000500
22.460000 0.000000
22.483000 0.000000
22.506000 0.000000
22.529000 0.000000
22.551900 0.000000
22.574900 0.000000
22.597900 0.000000
22.620900 0.000000
22.643800 0.000000
22.666800 0.000000
22.689800 0.000000
22.712700 0.000000
22.735700 0.000000
22.758700 0.000000
22.781700 0.000000
22.804600 0.000000
22.827600 0.000000
22.850600 0.000000
22.873600 0.000000
22.896500 0.000000
22.919500 0.000000
22.942500 0.000000
22.965400 0.000000
22.988400 0.000000
23.011400 0.000000
23.034400 0.000000
23.057300 0.000000
23.080300 0.000000
23.103300 0.000000
23.126300 0.000000
23.149200 0.000000
23.172200 0.000000
23.195200 0.000000
23.218200 0.000000
23.241100 0.000000
23.264100 0.000000
23.287100 0.000000
23.310000 0.000000
23.333000 0.000000
23.356000 0.000000
23.379000 0.000000
23.401900 0.000000
23.424900 0.000000
23.447900 0.000000
23.470900 0.000000
23.493800 0.000000
23.516800 0.000000
23.539800 0.000000
23.562800 0.000000
23.585700 0.000000
23.608700 0.000000
23.631700 0.000000
23.654600 0.000000
23.677600 0.000000
23.700600 0.000000
23.723600 0.000000
23.746500 0.000000
23.769500 0.000000
23.792500 0.000000
23.815500 0.000000
23.838400 0.000000
23.861400 0.000000
23.884400 0.000000
23.907300 0.000000
23.930300 0.000000
23.953300 0.000000
23.976300 0.000000
23.999200 0.000000
24.022200 0.000000
24.045200 0.000000
24.068200 0.000000
24.091100 0.000000
24.114100 0.000000
24.137100 0.000000
24.160100 0.000000
24.183000 0.000000
24.206000 0.000000
24.229000 0.000000
24.251900 0.000000
24.274900 0.000000
24.297900 0.000000
24.320900 0.000000
24.343800 0.000000
24.366800 0.000000
24.389800 0.000000
e
