set title 'mp-570559 - Density of States'
set xlabel 'Energy (eV)'
set ylabel 'DOS (states/eV)'
set grid
set xrange [-10:10]
set yrange [0:679.900]
set xzeroaxis lt -1
set terminal png size 800,600
set output 'mp-570559_dos_gnuplot.png'
plot '-' using 1:2 with lines title 'DOS'
-12.074000 0.000000
-12.059900 0.000000
-12.045800 0.000000
-12.031800 0.000000
-12.017700 0.000000
-12.003700 0.000000
-11.989600 0.000000
-11.975600 0.000000
-11.961500 0.000000
-11.947500 0.000000
-11.933400 0.000000
-11.919300 0.000000
-11.905300 0.000000
-11.891200 0.000000
-11.877200 0.000000
-11.863100 0.000000
-11.849100 0.000000
-11.835000 0.000000
-11.821000 0.000000
-11.806900 0.000000
-11.792800 0.000000
-11.778800 0.000000
-11.764700 0.000000
-11.750700 0.000000
-11.736600 0.000000
-11.722600 0.000000
-11.708500 0.000000
-11.694500 0.000000
-11.680400 0.000000
-11.666300 0.000000
-11.652300 0.000000
-11.638200 0.000000
-11.624200 0.000000
-11.610100 0.000000
-11.596100 0.000000
-11.582000 0.000000
-11.568000 0.000000
-11.553900 0.000000
-11.539900 0.000000
-11.525800 0.000000
-11.511700 0.000000
-11.497700 0.000000
-11.483600 0.000000
-11.469600 0.000000
-11.455500 0.000000
-11.441500 0.000000
-11.427400 0.000000
-11.413400 0.000000
-11.399300 0.000000
-11.385200 0.000000
-11.371200 0.000000
-11.357100 0.000000
-11.343100 0.000000
-11.329000 0.000000
-11.315000 0.000000
-11.300900 0.000000
-11.286900 0.000000
-11.272800 0.000000
-11.258700 0.000000
-11.244700 0.000000
-11.230600 0.000000
-11.216600 0.000000
-11.202500 0.000000
-11.188500 0.000000
-11.174400 0.000000
-11.160400 0.000000
-11.146300 0.000000
-11.132200 0.000000
-11.118200 0.000000
-11.104100 0.000000
-11.090100 0.000000
-11.076000 0.000000
-11.062000 0.000000
-11.047900 0.000000
-11.033900 0.000000
-11.019800 0.000000
-11.005800 0.000000
-10.991700 0.000000
-10.977600 0.000000
-10.963600 0.000000
-10.949500 0.000000
-10.935500 0.000000
-10.921400 0.000000
-10.907400 0.000000
-10.893300 0.000000
-10.879300 0.000000
-10.865200 0.000000
-10.851100 0.000000
-10.837100 0.000000
-10.823000 0.000000
-10.809000 0.000000
-10.794900 0.044700
-10.780900 0.536000
-10.766800 1.695300
-10.752800 3.200100
-10.738700 4.704900
-10.724600 7.236200
-10.710600 8.516400
-10.696500 10.665400
-10.682500 9.627800
-10.668400 10.905400
-10.654400 9.422300
-10.640300 9.785700
-10.626300 10.149200
-10.612200 10.512600
-10.598200 10.876100
-10.584100 11.239500
-10.570000 11.602900
-10.556000 11.987500
-10.541900 12.421800
-10.527900 12.876600
-10.513800 13.379000
-10.499800 13.934600
-10.485700 14.488600
-10.471700 15.040500
-10.457600 15.584100
-10.443500 16.118700
-10.429500 16.653200
-10.415400 17.187700
-10.401400 17.722200
-10.387300 18.256700
-10.373300 18.791300
-10.359200 20.389400
-10.345200 24.381700
-10.331100 41.672600
-10.317000 48.653500
-10.303000 65.315700
-10.288900 78.706800
-10.274900 86.681700
-10.260800 95.847600
-10.246800 116.181600
-10.232700 176.919200
-10.218700 149.305600
-10.204600 44.879200
-10.190500 0.000000
-10.176500 0.000000
-10.162400 0.000000
-10.148400 0.000000
-10.134300 0.000000
-10.120300 0.000000
-10.106200 0.000000
-10.092200 0.000000
-10.078100 0.000000
-10.064100 0.000000
-10.050000 0.000000
-10.035900 0.000000
-10.021900 0.000000
-10.007800 0.000000
-9.993800 0.000000
-9.979700 0.000000
-9.965700 0.000000
-9.951600 0.000000
-9.937600 0.000000
-9.923500 0.000000
-9.909400 0.000000
-9.895400 0.000000
-9.881300 0.000000
-9.867300 0.000000
-9.853200 0.000000
-9.839200 0.000000
-9.825100 0.000000
-9.811100 0.000000
-9.797000 0.000000
-9.782900 0.000000
-9.768900 0.000000
-9.754800 0.000000
-9.740800 0.000000
-9.726700 0.000000
-9.712700 0.000000
-9.698600 0.000000
-9.684600 0.000000
-9.670500 0.000000
-9.656400 0.000000
-9.642400 0.000000
-9.628300 0.000000
-9.614300 0.000000
-9.600200 0.000000
-9.586200 0.000000
-9.572100 0.000000
-9.558100 0.000000
-9.544000 0.000000
-9.530000 0.000000
-9.515900 0.000000
-9.501800 0.000000
-9.487800 0.000000
-9.473700 0.000000
-9.459700 0.000000
-9.445600 0.000000
-9.431600 0.000000
-9.417500 0.000000
-9.403500 0.000000
-9.389400 0.000000
-9.375300 0.000000
-9.361300 0.000000
-9.347200 0.000000
-9.333200 0.000000
-9.319100 0.000000
-9.305100 0.000000
-9.291000 0.000000
-9.277000 0.000000
-9.262900 0.000000
-9.248800 0.000000
-9.234800 0.000000
-9.220700 0.000000
-9.206700 0.000000
-9.192600 0.000000
-9.178600 0.000000
-9.164500 0.000000
-9.150500 0.000000
-9.136400 0.000000
-9.122300 0.000000
-9.108300 0.000000
-9.094200 0.000000
-9.080200 0.000000
-9.066100 0.000000
-9.052100 0.000000
-9.038000 0.000000
-9.024000 0.000000
-9.009900 0.000000
-8.995900 0.000000
-8.981800 0.000000
-8.967700 0.000000
-8.953700 0.000000
-8.939600 0.000000
-8.925600 0.000000
-8.911500 0.000000
-8.897500 0.000000
-8.883400 0.000000
-8.869400 0.000000
-8.855300 0.000000
-8.841200 0.000000
-8.827200 0.000000
-8.813100 0.000000
-8.799100 0.000000
-8.785000 0.000000
-8.771000 0.000000
-8.756900 0.000000
-8.742900 0.000000
-8.728800 0.000000
-8.714700 0.000000
-8.700700 0.000000
-8.686600 0.000000
-8.672600 0.000000
-8.658500 0.000000
-8.644500 0.000000
-8.630400 0.000000
-8.616400 0.000000
-8.602300 0.000000
-8.588200 0.000000
-8.574200 0.000000
-8.560100 0.000000
-8.546100 0.000000
-8.532000 0.000000
-8.518000 0.000000
-8.503900 0.000000
-8.489900 0.000000
-8.475800 0.000000
-8.461800 0.000000
-8.447700 0.000000
-8.433600 0.000000
-8.419600 0.000000
-8.405500 0.000000
-8.391500 0.000000
-8.377400 0.000000
-8.363400 0.000000
-8.349300 0.000000
-8.335300 0.000000
-8.321200 0.000000
-8.307100 0.000000
-8.293100 0.000000
-8.279000 0.000000
-8.265000 0.000000
-8.250900 0.000000
-8.236900 0.000000
-8.222800 0.000000
-8.208800 0.000000
-8.194700 0.000000
-8.180600 0.000000
-8.166600 0.000000
-8.152500 0.000000
-8.138500 0.000000
-8.124400 0.000000
-8.110400 0.000000
-8.096300 0.000000
-8.082300 0.000000
-8.068200 0.000000
-8.054200 0.000000
-8.040100 0.000000
-8.026000 0.000000
-8.012000 0.000000
-7.997900 0.000000
-7.983900 0.000000
-7.969800 0.000000
-7.955800 0.000000
-7.941700 0.000000
-7.927700 0.000000
-7.913600 0.000000
-7.899500 0.000000
-7.885500 0.000000
-7.871400 0.000000
-7.857400 0.000000
-7.843300 0.000000
-7.829300 0.000000
-7.815200 0.000000
-7.801200 0.000000
-7.787100 0.000000
-7.773000 0.000000
-7.759000 0.000000
-7.744900 0.000000
-7.730900 0.000000
-7.716800 0.000000
-7.702800 0.000000
-7.688700 0.000000
-7.674700 0.000000
-7.660600 0.000000
-7.646500 0.000000
-7.632500 0.000000
-7.618400 0.000000
-7.604400 0.000000
-7.590300 0.000000
-7.576300 0.000000
-7.562200 0.000000
-7.548200 0.000000
-7.534100 0.000000
-7.520100 0.000000
-7.506000 0.000000
-7.491900 0.000000
-7.477900 0.000000
-7.463800 0.000000
-7.449800 0.000000
-7.435700 0.000000
-7.421700 0.000000
-7.407600 0.000000
-7.393600 0.000000
-7.379500 0.000000
-7.365400 0.000000
-7.351400 0.000000
-7.337300 0.000000
-7.323300 0.000000
-7.309200 0.000000
-7.295200 0.000000
-7.281100 0.000000
-7.267100 0.000000
-7.253000 0.000000
-7.238900 0.000000
-7.224900 0.000000
-7.210800 0.000000
-7.196800 0.000000
-7.182700 0.000000
-7.168700 0.000000
-7.154600 0.000000
-7.140600 0.000000
-7.126500 0.000000
-7.112400 0.000000
-7.098400 0.000000
-7.084300 0.000000
-7.070300 0.000000
-7.056200 0.000000
-7.042200 0.000000
-7.028100 0.000000
-7.014100 0.000000
-7.000000 0.000000
-6.986000 0.000000
-6.971900 0.000000
-6.957800 0.000000
-6.943800 0.000000
-6.929700 0.000000
-6.915700 0.000000
-6.901600 0.000000
-6.887600 0.000000
-6.873500 0.000000
-6.859500 0.000000
-6.845400 0.000000
-6.831300 0.000000
-6.817300 0.000000
-6.803200 0.000000
-6.789200 0.000000
-6.775100 0.000000
-6.761100 0.000000
-6.747000 0.000000
-6.733000 0.000000
-6.718900 0.000000
-6.704800 0.000000
-6.690800 0.000000
-6.676700 0.000000
-6.662700 0.000000
-6.648600 0.000000
-6.634600 0.000000
-6.620500 0.000000
-6.606500 0.000000
-6.592400 0.000000
-6.578300 0.000000
-6.564300 0.000000
-6.550200 0.000000
-6.536200 0.000000
-6.522100 0.000000
-6.508100 0.000000
-6.494000 85.924800
-6.480000 137.745000
-6.465900 241.612900
-6.451900 164.264700
-6.437800 81.895700
-6.423700 77.367200
-6.409700 72.897800
-6.395600 320.982600
-6.381600 213.043500
-6.367500 154.767000
-6.353500 60.939800
-6.339400 103.183200
-6.325400 618.090600
-6.311300 196.363500
-6.297200 163.241800
-6.283200 265.786300
-6.269100 122.155000
-6.255100 82.024000
-6.241000 69.927500
-6.227000 57.830900
-6.212900 131.442700
-6.198900 0.000000
-6.184800 0.000000
-6.170700 0.000000
-6.156700 0.000000
-6.142600 0.000000
-6.128600 0.000000
-6.114500 0.000000
-6.100500 0.000000
-6.086400 0.000000
-6.072400 0.000000
-6.058300 0.000000
-6.044200 0.000000
-6.030200 0.000000
-6.016100 0.000000
-6.002100 0.000000
-5.988000 0.000000
-5.974000 0.000000
-5.959900 0.000000
-5.945900 0.000000
-5.931800 0.000000
-5.917800 0.000000
-5.903700 0.000000
-5.889600 0.000000
-5.875600 0.000000
-5.861500 0.000000
-5.847500 0.000000
-5.833400 0.000000
-5.819400 0.000000
-5.805300 0.000000
-5.791300 0.000000
-5.777200 0.000000
-5.763100 0.000000
-5.749100 0.000000
-5.735000 0.000000
-5.721000 0.000000
-5.706900 0.000000
-5.692900 0.000000
-5.678800 0.000000
-5.664800 0.000000
-5.650700 0.000000
-5.636600 0.000000
-5.622600 0.000000
-5.608500 0.000000
-5.594500 0.000000
-5.580400 0.000000
-5.566400 0.000000
-5.552300 0.000000
-5.538300 0.000000
-5.524200 0.000000
-5.510200 0.000000
-5.496100 0.000000
-5.482000 0.000000
-5.468000 0.000000
-5.453900 0.000000
-5.439900 0.000000
-5.425800 0.000000
-5.411800 0.000000
-5.397700 0.000000
-5.383700 0.000000
-5.369600 0.000000
-5.355500 0.000000
-5.341500 0.000000
-5.327400 0.000000
-5.313400 0.000000
-5.299300 0.000000
-5.285300 0.000000
-5.271200 0.000000
-5.257200 0.000000
-5.243100 0.000000
-5.229000 0.000000
-5.215000 0.000000
-5.200900 0.000000
-5.186900 0.000000
-5.172800 0.000000
-5.158800 0.000000
-5.144700 0.000000
-5.130700 0.000000
-5.116600 0.000000
-5.102500 0.000000
-5.088500 0.000000
-5.074400 0.000000
-5.060400 0.000000
-5.046300 0.000000
-5.032300 0.000000
-5.018200 0.000000
-5.004200 0.000000
-4.990100 0.000000
-4.976100 0.000000
-4.962000 0.000000
-4.947900 0.000000
-4.933900 0.000000
-4.919800 0.000000
-4.905800 0.000000
-4.891700 0.000000
-4.877700 0.000000
-4.863600 0.000000
-4.849600 0.000000
-4.835500 0.000000
-4.821400 0.000000
-4.807400 0.000000
-4.793300 0.000000
-4.779300 0.000000
-4.765200 0.000000
-4.751200 0.000000
-4.737100 0.000000
-4.723100 0.000000
-4.709000 0.000000
-4.694900 0.000000
-4.680900 0.000000
-4.666800 0.000000
-4.652800 0.000000
-4.638700 0.000000
-4.624700 0.000000
-4.610600 0.000000
-4.596600 0.000000
-4.582500 0.000000
-4.568400 0.000000
-4.554400 0.000000
-4.540300 0.000000
-4.526300 0.000000
-4.512200 0.000000
-4.498200 0.000000
-4.484100 0.000000
-4.470100 0.000000
-4.456000 0.000000
-4.442000 0.000000
-4.427900 0.000000
-4.413800 0.000000
-4.399800 0.000000
-4.385700 0.000000
-4.371700 0.000000
-4.357600 0.000000
-4.343600 0.000000
-4.329500 0.000000
-4.315500 0.000000
-4.301400 0.000000
-4.287300 0.000000
-4.273300 0.000000
-4.259200 0.000000
-4.245200 0.000000
-4.231100 0.000000
-4.217100 0.000000
-4.203000 0.000000
-4.189000 0.000000
-4.174900 0.000000
-4.160800 0.000000
-4.146800 0.000000
-4.132700 0.000000
-4.118700 0.000000
-4.104600 0.000000
-4.090600 0.000000
-4.076500 0.000000
-4.062500 0.000000
-4.048400 0.000000
-4.034300 0.000000
-4.020300 0.000000
-4.006200 0.000000
-3.992200 0.000000
-3.978100 0.000000
-3.964100 0.000000
-3.950000 0.000000
-3.936000 0.000000
-3.921900 0.000000
-3.907900 0.000000
-3.893800 0.000000
-3.879700 0.000000
-3.865700 0.000000
-3.851600 0.000000
-3.837600 0.000000
-3.823500 0.000000
-3.809500 0.000000
-3.795400 0.000000
-3.781400 0.000000
-3.767300 0.000000
-3.753200 0.000000
-3.739200 0.000000
-3.725100 0.000000
-3.711100 0.000000
-3.697000 0.000000
-3.683000 0.000000
-3.668900 0.000000
-3.654900 0.000000
-3.640800 0.000000
-3.626700 0.000000
-3.612700 0.000000
-3.598600 0.000000
-3.584600 0.000000
-3.570500 0.000000
-3.556500 0.000000
-3.542400 0.000000
-3.528400 0.000000
-3.514300 0.000000
-3.500200 0.000000
-3.486200 0.000000
-3.472100 0.000000
-3.458100 0.000000
-3.444000 0.000000
-3.430000 0.000000
-3.415900 0.000000
-3.401900 0.000000
-3.387800 0.000000
-3.373800 0.000000
-3.359700 0.000000
-3.345600 0.000000
-3.331600 0.000000
-3.317500 0.000000
-3.303500 0.000000
-3.289400 0.000000
-3.275400 0.000000
-3.261300 0.000000
-3.247300 0.000000
-3.233200 0.000000
-3.219100 0.000000
-3.205100 0.000000
-3.191000 0.000000
-3.177000 0.000000
-3.162900 0.000000
-3.148900 0.000000
-3.134800 0.000000
-3.120800 0.000000
-3.106700 0.000000
-3.092600 0.000000
-3.078600 0.000000
-3.064500 0.000000
-3.050500 0.000000
-3.036400 0.000000
-3.022400 0.000000
-3.008300 0.000000
-2.994300 0.000000
-2.980200 0.000000
-2.966200 0.000000
-2.952100 0.000000
-2.938000 0.000000
-2.924000 0.000000
-2.909900 0.000000
-2.895900 0.000000
-2.881800 0.000000
-2.867800 0.000000
-2.853700 0.000000
-2.839700 0.000000
-2.825600 0.000000
-2.811500 0.000000
-2.797500 0.000000
-2.783400 0.000000
-2.769400 0.000000
-2.755300 0.000000
-2.741300 0.000000
-2.727200 0.000000
-2.713200 0.000000
-2.699100 0.000000
-2.685000 0.000000
-2.671000 0.000000
-2.656900 0.000000
-2.642900 0.000000
-2.628800 0.000000
-2.614800 0.000000
-2.600700 0.000000
-2.586700 0.000000
-2.572600 18.454600
-2.558500 6.812700
-2.544500 24.847200
-2.530400 33.499400
-2.516400 33.172700
-2.502300 31.874100
-2.488300 36.464000
-2.474200 33.775800
-2.460200 31.778100
-2.446100 25.877700
-2.432100 25.302800
-2.418000 24.727900
-2.403900 19.383400
-2.389900 18.970400
-2.375800 17.046800
-2.361800 14.983500
-2.347700 13.442700
-2.333700 13.378000
-2.319600 13.313400
-2.305600 13.740200
-2.291500 14.754600
-2.277400 15.769000
-2.263400 21.156300
-2.249300 24.204600
-2.235300 19.504200
-2.221200 15.334100
-2.207200 14.309000
-2.193100 18.687500
-2.179100 33.336600
-2.165000 4.836800
-2.150900 4.839400
-2.136900 4.841900
-2.122800 4.783400
-2.108800 4.677500
-2.094700 4.571700
-2.080700 4.465900
-2.066600 4.360100
-2.052600 4.254200
-2.038500 4.148400
-2.024400 4.042600
-2.010400 3.936700
-1.996300 10.437300
-1.982300 4.835500
-1.968200 0.000000
-1.954200 0.000000
-1.940100 0.000000
-1.926100 0.000000
-1.912000 0.000000
-1.898000 0.000000
-1.883900 0.000000
-1.869800 0.000000
-1.855800 0.000000
-1.841700 0.000000
-1.827700 0.000000
-1.813600 0.000000
-1.799600 0.000000
-1.785500 0.000000
-1.771500 0.000000
-1.757400 0.000000
-1.743300 0.000000
-1.729300 0.000000
-1.715200 0.000000
-1.701200 0.000000
-1.687100 0.000000
-1.673100 0.000000
-1.659000 5.772300
-1.645000 10.360700
-1.630900 7.337700
-1.616800 4.726000
-1.602800 3.773700
-1.588700 3.984300
-1.574700 9.552100
-1.560600 8.114800
-1.546600 6.677500
-1.532500 11.561900
-1.518500 10.286700
-1.504400 9.089700
-1.490300 14.358400
-1.476300 12.753600
-1.462200 12.105700
-1.448200 12.608200
-1.434100 13.110800
-1.420100 13.613300
-1.406000 14.115800
-1.392000 14.618400
-1.377900 15.120900
-1.363900 22.075400
-1.349800 10.938800
-1.335700 11.194700
-1.321700 11.450500
-1.307600 11.706300
-1.293600 11.962100
-1.279500 16.237000
-1.265500 10.053000
-1.251400 22.935300
-1.237400 7.500800
-1.223300 7.520600
-1.209200 7.540400
-1.195200 14.666400
-1.181100 7.769000
-1.167100 5.328100
-1.153000 5.257600
-1.139000 5.747600
-1.124900 6.303900
-1.110900 6.318400
-1.096800 6.339400
-1.082700 6.360400
-1.068700 7.027500
-1.054600 7.094200
-1.040600 7.821600
-1.026500 7.917300
-1.012500 8.675600
-0.998400 8.801000
-0.984400 8.926500
-0.970300 9.051900
-0.956200 9.177400
-0.942200 9.302800
-0.928100 9.421000
-0.914100 9.539100
-0.900000 9.657300
-0.886000 9.766200
-0.871900 9.869700
-0.857900 9.973100
-0.843800 10.076500
-0.829800 10.179900
-0.815700 10.283400
-0.801600 10.386800
-0.787600 10.490200
-0.773500 10.593600
-0.759500 10.697100
-0.745400 11.657600
-0.731400 12.227900
-0.717300 12.798300
-0.703300 13.368700
-0.689200 15.877300
-0.675100 18.275900
-0.661100 18.828700
-0.647000 19.792300
-0.633000 19.987400
-0.618900 21.366400
-0.604900 21.636400
-0.590800 23.101900
-0.576800 21.216900
-0.562700 21.833300
-0.548600 23.328600
-0.534600 23.943800
-0.520500 24.039000
-0.506500 24.116100
-0.492400 23.022900
-0.478400 23.052700
-0.464300 23.082400
-0.450300 23.149700
-0.436200 22.009900
-0.422200 21.794100
-0.408100 21.640500
-0.394000 21.662200
-0.380000 21.757300
-0.365900 22.235400
-0.351900 22.804900
-0.337800 23.398800
-0.323800 24.178600
-0.309700 25.197700
-0.295700 26.206900
-0.281600 27.033000
-0.267500 27.166300
-0.253500 26.767600
-0.239400 23.045900
-0.225400 22.818600
-0.211300 22.591200
-0.197300 19.392800
-0.183200 18.725900
-0.169200 18.058900
-0.155100 19.103500
-0.141000 20.547600
-0.127000 19.023800
-0.112900 17.512000
-0.098900 16.107700
-0.084800 14.703400
-0.070800 13.564200
-0.056700 13.171000
-0.042700 12.777900
-0.028600 12.509100
-0.014500 12.100800
-0.000500 11.692600
0.013600 11.299900
0.027600 10.945500
0.041700 10.668200
0.055700 10.393200
0.069800 10.128000
0.083800 9.976200
0.097900 9.835200
0.111900 9.694100
0.126000 10.641800
0.140100 10.740800
0.154100 10.934400
0.168200 11.034700
0.182200 11.137900
0.196300 11.362000
0.210300 11.462500
0.224400 13.003400
0.238400 13.524300
0.252500 14.045100
0.266600 15.920400
0.280600 16.681500
0.294700 18.536300
0.308700 20.404000
0.322800 22.271700
0.336800 22.475500
0.350900 25.410500
0.364900 27.600700
0.379000 27.733800
0.393100 27.607600
0.407100 27.786200
0.421200 28.492100
0.435200 28.657700
0.449300 28.338000
0.463300 37.887800
0.477400 61.811100
0.491400 57.068200
0.505500 50.088900
0.519600 40.216300
0.533600 31.566900
0.547700 28.967300
0.561700 36.846900
0.575800 36.652000
0.589800 39.100900
0.603900 44.257500
0.617900 37.732600
0.632000 32.504200
0.646000 27.420400
0.660100 40.567000
0.674200 36.875300
0.688200 46.987600
0.702300 39.760300
0.716300 40.179500
0.730400 40.706100
0.744400 39.444900
0.758500 38.115100
0.772500 36.597500
0.786600 34.580800
0.800700 33.506800
0.814700 28.115300
0.828800 26.110900
0.842800 24.419300
0.856900 20.834200
0.870900 18.514500
0.885000 16.236600
0.899000 14.183500
0.913100 19.581200
0.927200 13.532900
0.941200 9.619500
0.955300 4.483300
0.969300 7.655000
0.983400 0.000000
0.997400 0.000000
1.011500 0.000000
1.025500 0.000000
1.039600 0.000000
1.053700 0.000000
1.067700 0.000000
1.081800 0.000000
1.095800 0.000000
1.109900 0.000000
1.123900 0.000000
1.138000 0.000000
1.152000 0.000000
1.166100 0.000000
1.180100 0.000000
1.194200 0.000000
1.208300 0.000000
1.222300 0.000000
1.236400 0.000000
1.250400 0.000000
1.264500 0.000000
1.278500 0.000000
1.292600 0.000000
1.306600 0.000000
1.320700 0.000000
1.334800 0.000000
1.348800 0.000000
1.362900 0.000000
1.376900 0.000000
1.391000 0.000000
1.405000 0.000000
1.419100 0.000000
1.433100 0.000000
1.447200 0.000000
1.461300 0.000000
1.475300 0.000000
1.489400 0.000000
1.503400 0.000000
1.517500 0.000000
1.531500 0.000000
1.545600 0.000000
1.559600 0.000000
1.573700 0.000000
1.587800 0.000000
1.601800 0.000000
1.615900 0.000000
1.629900 0.000000
1.644000 0.000000
1.658000 0.000000
1.672100 0.000000
1.686100 0.000000
1.700200 0.000000
1.714200 0.000000
1.728300 0.000000
1.742400 0.000000
1.756400 0.000000
1.770500 0.000000
1.784500 0.000000
1.798600 0.000000
1.812600 0.000000
1.826700 0.000000
1.840700 0.000000
1.854800 0.000000
1.868900 0.000000
1.882900 0.000000
1.897000 0.000000
1.911000 0.000000
1.925100 0.000000
1.939100 0.000000
1.953200 0.000000
1.967200 0.000000
1.981300 0.000000
1.995400 0.000000
2.009400 0.000000
2.023500 0.000000
2.037500 0.000000
2.051600 0.000000
2.065600 0.000000
2.079700 0.000000
2.093700 0.000000
2.107800 0.000000
2.121800 0.000000
2.135900 0.000000
2.150000 0.000000
2.164000 0.000000
2.178100 0.000000
2.192100 0.000000
2.206200 0.000000
2.220200 0.000000
2.234300 0.000000
2.248300 0.000000
2.262400 0.000000
2.276500 0.000000
2.290500 0.000000
2.304600 0.000000
2.318600 0.000000
2.332700 0.000000
2.346700 0.000000
2.360800 0.000000
2.374800 0.000000
2.388900 0.000000
2.403000 0.000000
2.417000 0.000000
2.431100 0.000000
2.445100 0.000000
2.459200 0.000000
2.473200 0.000000
2.487300 0.000000
2.501300 0.000000
2.515400 0.000000
2.529500 0.000000
2.543500 0.000000
2.557600 0.000000
2.571600 0.000000
2.585700 0.000000
2.599700 0.000000
2.613800 0.000000
2.627800 0.000000
2.641900 0.000000
2.655900 0.000000
2.670000 0.000000
2.684100 0.000000
2.698100 0.000000
2.712200 0.000000
2.726200 0.000000
2.740300 0.000000
2.754300 0.000000
2.768400 0.000000
2.782400 0.000000
2.796500 0.000000
2.810600 0.000000
2.824600 0.000000
2.838700 0.000000
2.852700 0.000000
2.866800 0.000000
2.880800 0.000000
2.894900 0.000000
2.908900 0.000000
2.923000 0.000000
2.937100 0.000000
2.951100 0.000000
2.965200 0.000000
2.979200 0.000000
2.993300 0.000000
3.007300 0.000000
3.021400 0.000000
3.035400 0.000000
3.049500 0.000000
3.063600 0.000000
3.077600 0.000000
3.091700 0.000000
3.105700 0.000000
3.119800 0.000000
3.133800 0.000000
3.147900 0.000000
3.161900 0.000000
3.176000 0.000000
3.190000 0.000000
3.204100 0.000000
3.218200 0.000000
3.232200 0.000000
3.246300 0.000000
3.260300 0.000000
3.274400 0.000000
3.288400 0.000000
3.302500 0.000000
3.316500 0.000000
3.330600 0.000000
3.344700 0.000000
3.358700 0.000000
3.372800 0.000000
3.386800 0.000000
3.400900 0.002500
3.414900 0.012800
3.429000 0.860200
3.443000 0.912700
3.457100 1.873600
3.471200 1.964900
3.485200 2.056100
3.499300 2.147400
3.513300 2.238700
3.527400 2.330000
3.541400 3.563400
3.555500 3.688500
3.569500 4.914300
3.583600 5.069000
3.597700 5.223700
3.611700 5.378400
3.625800 6.942200
3.639800 7.109200
3.653900 7.276200
3.667900 7.443200
3.682000 7.610200
3.696000 7.786000
3.710100 7.992800
3.724100 8.229200
3.738200 8.754500
3.752300 9.287200
3.766300 9.895400
3.780400 10.517500
3.794400 11.183900
3.808500 11.930300
3.822500 12.676700
3.836600 13.423100
3.850600 14.169500
3.864700 14.915900
3.878800 15.852000
3.892800 16.861700
3.906900 25.099200
3.920900 15.779600
3.935000 21.259600
3.949000 17.989100
3.963100 14.957800
3.977100 20.850300
3.991200 19.585200
4.005300 18.237100
4.019300 20.194900
4.033400 18.012600
4.047400 21.141300
4.061500 20.300900
4.075500 19.241000
4.089600 18.132900
4.103600 18.005200
4.117700 16.013500
4.131800 15.532600
4.145800 13.708000
4.159900 12.786500
4.173900 11.865000
4.188000 10.943500
4.202000 10.021900
4.216100 9.100400
4.230100 8.178900
4.244200 7.257400
4.258200 6.815000
4.272300 7.638600
4.286400 12.218500
4.300400 7.368800
4.314500 0.000000
4.328500 0.000000
4.342600 0.000000
4.356600 0.000000
4.370700 0.000000
4.384700 0.000000
4.398800 0.000000
4.412900 0.000000
4.426900 0.000000
4.441000 0.000000
4.455000 0.000000
4.469100 0.000000
4.483100 0.000000
4.497200 0.000000
4.511200 0.000000
4.525300 0.000000
4.539400 0.000000
4.553400 0.000000
4.567500 0.000000
4.581500 0.000000
4.595600 0.000000
4.609600 0.000000
4.623700 0.000000
4.637700 0.000000
4.651800 0.000000
4.665800 0.000000
4.679900 0.000000
4.694000 0.000000
4.708000 0.000000
4.722100 0.000000
4.736100 0.000000
4.750200 0.000000
4.764200 0.000000
4.778300 0.000000
4.792300 0.000000
4.806400 0.000000
4.820500 0.000000
4.834500 0.000000
4.848600 0.000000
4.862600 0.000000
4.876700 0.000000
4.890700 0.000000
4.904800 0.000000
4.918800 0.000000
4.932900 0.000000
4.947000 0.000000
4.961000 0.000000
4.975100 0.000000
4.989100 0.000000
5.003200 0.000000
5.017200 0.000000
5.031300 0.000000
5.045300 0.000000
5.059400 0.000000
5.073500 0.000000
5.087500 0.000000
5.101600 0.000000
5.115600 0.000000
5.129700 0.000000
5.143700 0.000000
5.157800 0.000000
5.171800 0.000000
5.185900 0.000000
5.199900 0.000000
5.214000 0.000000
5.228100 0.000000
5.242100 0.000000
5.256200 0.000000
5.270200 0.000000
5.284300 0.000000
5.298300 0.000000
5.312400 0.000000
5.326400 0.000000
5.340500 0.000000
5.354600 0.000000
5.368600 0.000000
5.382700 0.000000
5.396700 0.000000
5.410800 0.000000
5.424800 0.000000
5.438900 0.000000
5.452900 0.000000
5.467000 0.000000
5.481100 0.000000
5.495100 0.009500
5.509200 0.045800
5.523200 0.095900
5.537300 0.145900
5.551300 0.195900
5.565400 0.246000
5.579400 0.296000
5.593500 0.346100
5.607600 0.396100
5.621600 0.446100
5.635700 0.496200
5.649700 0.546200
5.663800 0.596200
5.677800 0.646300
5.691900 0.696300
5.705900 0.746300
5.720000 0.796400
5.734000 0.846400
5.748100 0.896500
5.762200 0.946500
5.776200 0.996500
5.790300 1.046600
5.804300 1.096600
5.818400 1.146600
5.832400 1.196700
5.846500 1.246700
5.860500 1.296700
5.874600 1.346800
5.888700 1.396800
5.902700 1.446800
5.916800 1.496900
5.930800 1.546900
5.944900 1.597000
5.958900 1.647000
5.973000 1.697000
5.987000 2.445900
6.001100 3.250600
6.015200 4.287700
6.029200 4.585800
6.043300 5.551200
6.057300 5.974100
6.071400 6.659400
6.085400 7.429100
6.099500 8.078000
6.113500 8.313000
6.127600 8.599600
6.141700 8.917500
6.155700 9.197300
6.169800 9.477200
6.183800 10.257000
6.197900 10.297200
6.211900 10.337500
6.226000 10.903600
6.240000 10.997000
6.254100 11.090400
6.268100 11.183800
6.282200 11.277200
6.296300 11.370600
6.310300 11.464000
6.324400 11.557400
6.338400 11.650800
6.352500 11.744200
6.366500 11.837600
6.380600 11.931000
6.394600 12.024400
6.408700 15.950100
6.422800 15.397700
6.436800 14.845300
6.450900 14.292900
6.464900 13.682500
6.479000 17.875600
6.493000 16.599400
6.507100 15.637300
6.521100 14.675200
6.535200 13.713000
6.549300 12.750900
6.563300 11.788800
6.577400 11.342000
6.591400 11.319100
6.605500 11.424900
6.619500 11.530700
6.633600 11.636500
6.647600 9.246900
6.661700 6.960900
6.675800 6.993600
6.689800 7.157900
6.703900 7.494900
6.717900 9.865400
6.732000 10.212000
6.746000 10.558500
6.760100 10.905100
6.774100 8.952700
6.788200 8.747500
6.802200 8.542300
6.816300 11.283900
6.830400 13.605600
6.844400 12.997100
6.858500 12.388600
6.872500 11.452300
6.886600 10.621900
6.900600 9.930100
6.914700 9.269200
6.928700 8.830300
6.942800 8.392200
6.956900 8.133600
6.970900 7.134300
6.985000 6.277600
6.999000 6.235600
7.013100 6.193700
7.027100 6.151700
7.041200 6.109700
7.055200 5.385900
7.069300 10.206100
7.083400 13.917100
7.097400 26.392000
7.111500 23.323600
7.125500 23.150700
7.139600 21.158000
7.153600 19.178500
7.167700 17.849400
7.181700 16.714800
7.195800 15.821700
7.209900 14.988700
7.223900 14.393300
7.238000 12.054000
7.252000 15.161900
7.266100 14.621900
7.280100 14.118700
7.294200 13.615500
7.308200 13.321500
7.322300 13.377000
7.336300 41.516900
7.350400 17.832800
7.364500 18.626800
7.378500 19.420800
7.392600 20.214700
7.406600 20.073100
7.420700 16.640000
7.434700 15.304800
7.448800 16.597700
7.462800 17.664100
7.476900 19.306400
7.491000 20.948700
7.505000 23.739400
7.519100 21.080200
7.533100 21.642300
7.547200 21.755600
7.561200 22.855100
7.575300 24.316700
7.589300 26.553000
7.603400 28.789400
7.617500 31.025800
7.631500 24.034000
7.645600 22.414100
7.659600 19.718300
7.673700 34.872800
7.687700 21.478700
7.701800 19.715400
7.715800 22.759200
7.729900 38.185700
7.743900 22.804500
7.758000 21.051000
7.772100 22.240200
7.786100 23.902000
7.800200 19.470500
7.814200 27.773200
7.828300 19.717800
7.842300 18.949000
7.856400 18.605200
7.870400 18.261300
7.884500 17.917500
7.898600 17.573700
7.912600 17.229900
7.926700 24.034400
7.940700 14.302900
7.954800 14.541600
7.968800 14.626100
7.982900 14.691500
7.996900 14.756900
8.011000 14.822300
8.025100 13.380700
8.039100 20.662600
8.053200 25.435100
8.067200 26.209300
8.081300 24.475100
8.095300 23.760800
8.109400 23.106800
8.123400 22.101400
8.137500 21.567800
8.151600 21.085700
8.165600 20.603600
8.179700 20.121500
8.193700 19.605900
8.207800 18.952700
8.221800 17.963300
8.235900 16.978100
8.249900 17.339600
8.264000 30.998700
8.278000 19.574200
8.292100 20.904200
8.306200 17.950300
8.320200 15.945700
8.334300 13.941100
8.348300 11.470200
8.362400 9.511200
8.376400 8.253800
8.390500 7.259500
8.404500 7.041800
8.418600 6.344700
8.432700 6.173500
8.446700 6.002300
8.460800 5.831000
8.474800 5.659800
8.488900 5.488500
8.502900 5.317300
8.517000 4.616600
8.531000 4.489000
8.545100 4.361400
8.559200 4.233800
8.573200 4.106200
8.587300 4.109300
8.601300 4.266900
8.615400 4.424600
8.629400 4.582200
8.643500 4.739900
8.657500 4.897600
8.671600 10.031000
8.685700 8.060400
8.699700 6.096500
8.713800 8.887200
8.727800 4.626100
8.741900 5.053500
8.755900 5.334600
8.770000 5.569800
8.784000 5.805000
8.798100 5.964300
8.812100 6.794900
8.826200 8.039000
8.840300 9.283100
8.854300 9.697500
8.868400 7.169800
8.882400 7.025800
8.896500 6.881800
8.910500 6.737800
8.924600 6.593800
8.938600 6.449800
8.952700 6.305800
8.966800 6.161800
8.980800 6.017800
8.994900 5.873800
9.008900 6.832600
9.023000 10.870400
9.037000 10.882500
9.051100 12.016700
9.065100 11.798600
9.079200 12.829200
9.093300 13.056300
9.107300 12.114300
9.121400 14.434800
9.135400 12.323000
9.149500 10.879300
9.163500 14.124800
9.177600 12.564000
9.191600 12.884200
9.205700 14.689500
9.219800 16.749500
9.233800 16.995400
9.247900 16.157400
9.261900 16.004500
9.276000 17.336100
9.290000 18.667700
9.304100 18.155600
9.318100 17.599700
9.332200 16.652300
9.346200 15.215900
9.360300 14.337000
9.374400 24.437100
9.388400 22.530500
9.402500 22.871200
9.416500 23.616900
9.430600 20.630600
9.444600 16.139700
9.458700 15.257100
9.472700 14.374500
9.486800 13.491900
9.500900 13.065500
9.514900 12.459300
9.529000 16.536800
9.543000 15.846400
9.557100 15.260200
9.571100 14.915000
9.585200 15.457700
9.599200 16.000400
9.613300 16.760900
9.627400 18.539400
9.641400 20.056100
9.655500 21.572700
9.669500 22.413100
9.683600 17.939500
9.697600 15.865100
9.711700 15.840900
9.725700 15.538000
9.739800 13.570800
9.753900 13.303300
9.767900 10.646600
9.782000 10.979400
9.796000 15.050300
9.810100 20.142100
9.824100 21.533900
9.838200 16.746000
9.852200 15.843400
9.866300 16.592400
9.880300 16.071000
9.894400 16.816700
9.908500 16.046900
9.922500 17.995600
9.936600 19.944300
9.950600 20.242600
9.964700 22.712300
9.978700 16.716500
9.992800 18.865600
10.006800 15.127900
10.020900 16.377900
10.035000 12.430000
10.049000 20.252500
10.063100 16.892300
10.077100 13.440400
10.091200 12.544900
10.105200 19.461500
10.119300 20.832300
10.133300 11.807900
10.147400 11.665000
10.161500 11.696300
10.175500 11.727700
10.189600 11.595800
10.203600 11.510100
10.217700 11.424500
10.231700 11.338900
10.245800 11.253300
10.259800 11.167700
10.273900 11.092700
10.287900 12.615900
10.302000 12.744000
10.316100 11.302200
10.330100 11.385900
10.344200 11.469600
10.358200 11.553300
10.372300 12.126200
10.386300 9.792400
10.400400 9.882600
10.414400 9.972800
10.428500 10.063100
10.442600 10.153300
10.456600 10.243600
10.470700 11.410000
10.484700 11.820800
10.498800 12.231700
10.512800 12.660900
10.526900 13.099800
10.540900 11.695400
10.555000 9.169600
10.569100 9.142900
10.583100 9.116200
10.597200 9.958400
10.611200 9.945500
10.625300 9.945000
10.639300 9.946300
10.653400 9.947600
10.667400 9.948900
10.681500 9.950200
10.695600 13.894900
10.709600 11.014900
10.723700 9.469300
10.737700 9.964000
10.751800 9.864600
10.765800 9.771400
10.779900 9.678100
10.793900 9.584900
10.808000 9.496200
10.822000 9.371300
10.836100 9.226800
10.850200 9.071400
10.864200 8.916000
10.878300 8.760600
10.892300 8.605100
10.906400 8.449700
10.920400 8.786600
10.934500 11.981600
10.948500 12.491700
10.962600 11.775600
10.976700 11.059400
10.990700 11.058600
11.004800 11.240500
11.018800 11.233400
11.032900 11.703800
11.046900 11.596000
11.061000 11.488100
11.075000 13.577700
11.089100 15.295800
11.103200 15.426600
11.117200 15.557500
11.131300 15.468100
11.145300 15.003400
11.159400 14.538600
11.173400 15.990800
11.187500 15.463300
11.201500 14.937900
11.215600 15.880400
11.229700 18.758400
11.243700 17.412100
11.257800 16.600000
11.271800 15.247000
11.285900 14.506100
11.299900 16.178300
11.314000 15.417100
11.328000 14.655900
11.342100 13.941100
11.356100 13.229500
11.370200 13.125500
11.384300 12.874000
11.398300 12.702100
11.412400 12.163800
11.426400 11.605000
11.440500 11.443600
11.454500 11.280800
11.468600 11.115600
11.482600 10.936000
11.496700 10.814400
11.510800 11.125100
11.524800 11.435900
11.538900 11.746600
11.552900 12.057400
11.567000 12.023500
11.581000 12.467700
11.595100 11.832500
11.609100 13.565400
11.623200 15.514000
11.637300 17.472000
11.651300 13.890300
11.665400 14.319800
11.679400 14.770500
11.693500 15.221200
11.707500 15.798800
11.721600 14.455400
11.735600 18.003400
11.749700 16.245800
11.763800 15.581000
11.777800 15.357100
11.791900 18.731900
11.805900 18.590300
11.820000 13.834900
11.834000 13.375400
11.848100 13.400100
11.862100 14.097100
11.876200 14.325800
11.890200 14.554600
11.904300 14.790100
11.918400 15.029400
11.932400 15.115200
11.946500 15.401100
11.960500 15.795100
11.974600 16.218300
11.988600 17.212700
12.002700 17.732400
12.016700 16.319400
12.030800 15.763300
12.044900 16.074700
12.058900 15.457600
12.073000 15.851700
12.087000 16.379400
12.101100 16.907200
12.115100 15.734500
12.129200 13.438400
12.143200 16.949200
12.157300 17.136200
12.171400 15.858300
12.185400 14.456800
12.199500 13.083400
12.213500 12.716500
12.227600 13.046200
12.241600 12.858200
12.255700 12.539900
12.269700 12.315200
12.283800 12.694500
12.297900 12.584100
12.311900 12.478100
12.326000 12.640200
12.340000 12.857300
12.354100 13.074400
12.368100 13.291600
12.382200 15.384500
12.396200 15.083400
12.410300 15.928700
12.424300 15.273300
12.438400 14.789200
12.452500 14.305000
12.466500 13.820900
12.480600 13.413400
12.494600 13.493900
12.508700 15.530100
12.522700 16.008100
12.536800 16.200500
12.550800 14.677500
12.564900 14.330500
12.579000 14.036600
12.593000 13.742600
12.607100 13.570900
12.621100 13.340000
12.635200 13.109100
12.649200 12.878100
12.663300 12.746100
12.677300 12.602700
12.691400 12.455100
12.705500 12.279500
12.719500 12.238500
12.733600 19.515300
12.747600 21.543900
12.761700 21.512900
12.775700 20.876500
12.789800 19.968900
12.803800 18.730400
12.817900 17.504800
12.831900 15.917500
12.846000 20.800800
12.860100 19.004400
12.874100 17.207900
12.888200 15.986100
12.902200 15.068500
12.916300 14.150800
12.930300 12.987700
12.944400 12.734900
12.958400 14.971500
12.972500 14.722300
12.986600 14.473100
13.000600 14.223900
13.014700 13.971200
13.028700 13.724900
13.042800 12.993500
13.056800 19.593700
13.070900 16.392300
13.084900 20.949100
13.099000 18.597400
13.113100 16.245800
13.127100 14.366900
13.141200 16.640600
13.155200 16.868400
13.169300 17.096200
13.183300 17.324100
13.197400 17.551900
13.211400 14.747000
13.225500 14.638200
13.239600 14.534400
13.253600 14.430600
13.267700 14.326800
13.281700 18.940300
13.295800 25.120700
13.309800 16.186900
13.323900 16.169200
13.337900 16.152400
13.352000 15.091700
13.366000 15.273400
13.380100 12.348200
13.394200 12.788900
13.408200 13.229600
13.422300 13.670300
13.436300 9.590000
13.450400 9.792100
13.464400 10.187800
13.478500 9.308400
13.492500 12.744900
13.506600 12.766800
13.520700 12.788800
13.534700 12.810700
13.548800 12.854100
13.562800 9.302500
13.576900 9.961800
13.590900 10.638400
13.605000 11.357500
13.619000 14.853900
13.633100 15.737500
13.647200 16.621100
13.661200 20.534000
13.675300 10.003800
13.689300 24.493000
13.703400 28.130900
13.717400 16.103900
13.731500 5.555000
13.745500 5.607100
13.759600 5.659100
13.773700 5.711100
13.787700 22.875600
13.801800 20.037100
13.815800 8.643800
13.829900 8.399300
13.843900 8.154800
13.858000 22.215000
13.872000 19.904400
13.886100 17.593700
13.900100 15.283000
13.914200 12.972400
13.928300 8.091900
13.942300 7.581000
13.956400 5.685000
13.970400 5.460900
13.984500 5.236800
13.998500 5.012700
14.012600 4.435500
14.026600 5.214400
14.040700 5.241900
14.054800 5.365800
14.068800 5.489700
14.082900 5.613600
14.096900 5.737500
14.111000 7.259900
14.125000 6.869600
14.139100 6.479300
14.153100 6.089100
14.167200 5.698800
14.181300 5.308500
14.195300 4.918200
14.209400 4.527900
14.223400 4.137600
14.237500 3.747300
14.251500 3.833300
14.265600 4.903900
14.279600 6.052400
14.293700 0.890900
14.307800 0.879300
14.321800 0.867600
14.335900 0.856000
14.349900 0.844400
14.364000 0.832800
14.378000 0.821200
14.392100 0.809600
14.406100 0.798000
14.420200 0.786300
14.434200 0.774700
14.448300 0.763100
14.462400 0.751500
14.476400 0.739900
14.490500 0.728300
14.504500 0.716600
14.518600 0.705000
14.532600 0.693400
14.546700 0.681800
14.560700 0.670200
14.574800 0.658600
14.588900 0.647000
14.602900 0.635300
14.617000 0.623700
14.631000 0.612100
14.645100 0.600500
14.659100 0.588900
14.673200 0.577300
14.687200 0.565700
14.701300 0.554000
14.715400 0.542400
14.729400 0.530800
14.743500 0.519200
14.757500 0.507600
14.771600 0.000000
14.785600 0.000000
14.799700 0.000000
14.813700 0.000000
14.827800 0.000000
14.841900 0.000000
14.855900 0.000000
14.870000 0.000000
14.884000 0.000000
14.898100 0.000000
14.912100 0.000000
14.926200 0.000000
14.940200 0.000000
14.954300 0.000000
14.968300 0.000000
14.982400 0.000000
14.996500 0.000000
15.010500 0.000000
15.024600 0.000000
15.038600 0.000000
15.052700 0.000000
15.066700 0.000000
15.080800 0.000000
15.094800 0.000000
15.108900 0.000000
15.123000 0.000000
15.137000 0.000000
15.151100 0.000000
15.165100 0.000000
15.179200 0.000000
15.193200 0.000000
15.207300 0.000000
15.221300 0.000000
15.235400 0.000000
15.249500 0.000000
15.263500 0.000000
15.277600 0.000000
15.291600 0.000000
15.305700 0.000000
15.319700 0.000000
15.333800 0.000000
15.347800 0.000000
15.361900 0.000000
15.375900 0.000000
15.390000 0.000000
15.404100 0.000000
15.418100 0.000000
15.432200 0.000000
15.446200 0.000000
15.460300 0.000000
15.474300 0.000000
15.488400 0.000000
15.502400 0.000000
15.516500 0.000000
15.530600 0.000000
15.544600 0.000000
15.558700 0.000000
15.572700 0.000000
15.586800 0.000000
15.600800 0.000000
15.614900 0.000000
15.628900 0.000000
15.643000 0.000000
15.657100 0.000000
15.671100 0.000000
15.685200 0.000000
15.699200 0.000000
15.713300 0.000000
15.727300 0.000000
15.741400 0.000000
15.755400 0.000000
15.769500 0.000000
15.783600 0.000000
15.797600 0.000000
15.811700 0.000000
15.825700 0.000000
15.839800 0.000000
15.853800 0.000000
15.867900 0.000000
15.881900 0.000000
15.896000 0.000000
15.910000 0.000000
15.924100 0.000000
15.938200 0.000000
15.952200 0.000000
15.966300 0.000000
15.980300 0.000000
15.994400 0.000000
16.008400 0.000000
16.022500 0.000000
16.036500 0.000000
e
