set title 'mp-1009653 - Density of States'
set xlabel 'Energy (eV)'
set ylabel 'DOS (states/eV)'
set grid
set xrange [-10:10]
set yrange [0:6.991]
set xzeroaxis lt -1
set terminal png size 800,600
set output 'mp-1009653_dos_gnuplot.png'
plot '-' using 1:2 with lines title 'DOS'
-41.482800 0.000000
-41.434700 0.000000
-41.386600 0.000000
-41.338500 0.000000
-41.290400 0.000000
-41.242200 0.000000
-41.194100 0.000000
-41.146000 0.000000
-41.097900 0.000000
-41.049800 0.000000
-41.001700 0.000000
-40.953500 0.000000
-40.905400 0.000000
-40.857300 0.000000
-40.809200 0.000000
-40.761100 0.000000
-40.713000 0.000000
-40.664800 0.000000
-40.616700 0.000000
-40.568600 0.000000
-40.520500 0.000000
-40.472400 0.000000
-40.424200 0.000000
-40.376100 0.000000
-40.328000 0.000000
-40.279900 0.000000
-40.231800 0.000000
-40.183700 0.000000
-40.135500 0.000000
-40.087400 0.000000
-40.039300 0.000000
-39.991200 0.000000
-39.943100 0.000000
-39.894900 0.000000
-39.846800 0.000000
-39.798700 0.000000
-39.750600 0.000000
-39.702500 0.000000
-39.654400 0.000000
-39.606200 0.000000
-39.558100 0.000000
-39.510000 0.000000
-39.461900 0.000000
-39.413800 0.000000
-39.365700 0.000000
-39.317500 0.000000
-39.269400 0.000000
-39.221300 0.000000
-39.173200 0.000000
-39.125100 0.000000
-39.076900 0.000000
-39.028800 0.000000
-38.980700 0.000000
-38.932600 0.000000
-38.884500 0.000000
-38.836400 0.000000
-38.788200 0.000000
-38.740100 0.000000
-38.692000 0.000000
-38.643900 0.000000
-38.595800 0.000000
-38.547600 0.000000
-38.499500 0.000000
-38.451400 0.000000
-38.403300 0.000000
-38.355200 0.000000
-38.307100 0.000000
-38.258900 0.000000
-38.210800 0.000000
-38.162700 0.000000
-38.114600 0.000000
-38.066500 0.000000
-38.018400 0.000000
-37.970200 0.000000
-37.922100 0.000000
-37.874000 0.000000
-37.825900 0.000000
-37.777800 0.000000
-37.729600 0.000000
-37.681500 0.000000
-37.633400 0.000000
-37.585300 0.000000
-37.537200 0.000000
-37.489100 0.000000
-37.440900 0.000000
-37.392800 0.000000
-37.344700 0.000000
-37.296600 0.000000
-37.248500 0.000000
-37.200400 0.000000
-37.152200 0.000000
-37.104100 15.980500
-37.056000 0.000000
-37.007900 0.000000
-36.959800 0.000000
-36.911600 0.000000
-36.863500 0.000000
-36.815400 0.000000
-36.767300 0.000000
-36.719200 0.000000
-36.671100 0.000000
-36.622900 0.000000
-36.574800 0.000000
-36.526700 0.000000
-36.478600 0.000000
-36.430500 0.000000
-36.382300 0.000000
-36.334200 0.000000
-36.286100 0.000000
-36.238000 0.000000
-36.189900 0.000000
-36.141800 0.000000
-36.093600 0.000000
-36.045500 0.000000
-35.997400 0.000000
-35.949300 0.000000
-35.901200 0.000000
-35.853100 0.000000
-35.804900 0.000000
-35.756800 0.000000
-35.708700 0.000000
-35.660600 0.000000
-35.612500 0.000000
-35.564300 0.000000
-35.516200 0.000000
-35.468100 0.000000
-35.420000 0.000000
-35.371900 0.000000
-35.323800 0.000000
-35.275600 0.000000
-35.227500 0.000000
-35.179400 0.000000
-35.131300 0.000000
-35.083200 0.000000
-35.035000 0.000000
-34.986900 0.000000
-34.938800 0.000000
-34.890700 0.000000
-34.842600 0.000000
-34.794500 0.000000
-34.746300 0.000000
-34.698200 0.000000
-34.650100 0.000000
-34.602000 0.000000
-34.553900 0.000000
-34.505800 0.000000
-34.457600 0.000000
-34.409500 0.000000
-34.361400 0.000000
-34.313300 0.000000
-34.265200 0.000000
-34.217000 0.000000
-34.168900 0.000000
-34.120800 0.000000
-34.072700 0.000000
-34.024600 0.000000
-33.976500 0.000000
-33.928300 0.000000
-33.880200 0.000000
-33.832100 0.000000
-33.784000 0.000000
-33.735900 0.000000
-33.687700 0.000000
-33.639600 0.000000
-33.591500 0.000000
-33.543400 0.000000
-33.495300 0.000000
-33.447200 0.000000
-33.399000 0.000000
-33.350900 0.000000
-33.302800 0.000000
-33.254700 0.000000
-33.206600 0.000000
-33.158500 0.000000
-33.110300 0.000000
-33.062200 0.000000
-33.014100 0.000000
-32.966000 0.000000
-32.917900 0.000000
-32.869700 0.000000
-32.821600 0.000000
-32.773500 0.000000
-32.725400 0.000000
-32.677300 0.000000
-32.629200 0.000000
-32.581000 0.000000
-32.532900 0.000000
-32.484800 0.000000
-32.436700 0.000000
-32.388600 0.000000
-32.340400 0.000000
-32.292300 0.000000
-32.244200 0.000000
-32.196100 0.000000
-32.148000 0.000000
-32.099900 0.000000
-32.051700 0.000000
-32.003600 0.000000
-31.955500 0.000000
-31.907400 0.000000
-31.859300 0.000000
-31.811200 0.000000
-31.763000 0.000000
-31.714900 0.000000
-31.666800 0.000000
-31.618700 0.000000
-31.570600 0.000000
-31.522400 0.000000
-31.474300 0.000000
-31.426200 0.000000
-31.378100 0.000000
-31.330000 0.000000
-31.281900 0.000000
-31.233700 0.000000
-31.185600 0.000000
-31.137500 0.000000
-31.089400 0.000000
-31.041300 0.000000
-30.993100 0.000000
-30.945000 0.000000
-30.896900 0.000000
-30.848800 0.000000
-30.800700 0.000000
-30.752600 0.000000
-30.704400 0.000000
-30.656300 0.000000
-30.608200 0.000000
-30.560100 0.000000
-30.512000 0.000000
-30.463900 0.000000
-30.415700 0.000000
-30.367600 0.000000
-30.319500 0.000000
-30.271400 0.000000
-30.223300 0.000000
-30.175100 0.000000
-30.127000 0.000000
-30.078900 0.000000
-30.030800 0.000000
-29.982700 0.000000
-29.934600 0.000000
-29.886400 0.000000
-29.838300 0.000000
-29.790200 0.000000
-29.742100 0.000000
-29.694000 0.000000
-29.645900 0.000000
-29.597700 0.000000
-29.549600 0.000000
-29.501500 0.000000
-29.453400 0.000000
-29.405300 0.000000
-29.357100 0.000000
-29.309000 0.000000
-29.260900 0.000000
-29.212800 0.000000
-29.164700 0.000000
-29.116600 0.000000
-29.068400 0.000000
-29.020300 0.000000
-28.972200 0.000000
-28.924100 0.000000
-28.876000 0.000000
-28.827800 0.000000
-28.779700 0.000000
-28.731600 0.000000
-28.683500 0.000000
-28.635400 0.000000
-28.587300 0.000000
-28.539100 0.000000
-28.491000 0.000000
-28.442900 0.000000
-28.394800 0.000000
-28.346700 0.000000
-28.298600 0.000000
-28.250400 0.000000
-28.202300 0.000000
-28.154200 0.000000
-28.106100 0.000000
-28.058000 0.000000
-28.009800 0.000000
-27.961700 0.000000
-27.913600 0.000000
-27.865500 0.000000
-27.817400 0.000000
-27.769300 0.000000
-27.721100 0.000000
-27.673000 0.000000
-27.624900 0.000000
-27.576800 0.000000
-27.528700 0.000000
-27.480500 0.000000
-27.432400 0.000000
-27.384300 0.000000
-27.336200 0.000000
-27.288100 0.000000
-27.240000 0.000000
-27.191800 0.000000
-27.143700 0.000000
-27.095600 0.000000
-27.047500 0.000000
-26.999400 0.000000
-26.951300 0.000000
-26.903100 0.000000
-26.855000 0.000000
-26.806900 0.000000
-26.758800 0.000000
-26.710700 0.000000
-26.662500 0.000000
-26.614400 0.000000
-26.566300 0.000000
-26.518200 0.000000
-26.470100 0.000000
-26.422000 0.000000
-26.373800 0.000000
-26.325700 0.000000
-26.277600 0.000000
-26.229500 0.000000
-26.181400 0.000000
-26.133200 0.000000
-26.085100 0.000000
-26.037000 0.000000
-25.988900 0.000000
-25.940800 0.000000
-25.892700 0.000000
-25.844500 0.000000
-25.796400 0.000000
-25.748300 0.000000
-25.700200 0.000000
-25.652100 0.000000
-25.604000 0.000000
-25.555800 0.000000
-25.507700 0.000000
-25.459600 0.000000
-25.411500 0.000000
-25.363400 0.000000
-25.315200 0.000000
-25.267100 0.000000
-25.219000 0.000000
-25.170900 0.000000
-25.122800 0.000000
-25.074700 0.000000
-25.026500 0.000000
-24.978400 0.000000
-24.930300 0.000000
-24.882200 0.000000
-24.834100 0.000000
-24.785900 0.000000
-24.737800 0.000000
-24.689700 0.000000
-24.641600 0.000000
-24.593500 0.000000
-24.545400 0.000000
-24.497200 0.000000
-24.449100 0.000000
-24.401000 0.000000
-24.352900 0.000000
-24.304800 0.000000
-24.256700 0.000000
-24.208500 0.000000
-24.160400 0.000000
-24.112300 0.000000
-24.064200 0.000000
-24.016100 0.000000
-23.967900 0.000000
-23.919800 0.000000
-23.871700 0.000000
-23.823600 0.000000
-23.775500 0.000000
-23.727400 0.000000
-23.679200 0.000000
-23.631100 0.000000
-23.583000 0.000000
-23.534900 0.000000
-23.486800 0.000000
-23.438600 0.000000
-23.390500 0.000000
-23.342400 0.000000
-23.294300 0.000000
-23.246200 0.000000
-23.198100 0.000000
-23.149900 0.000000
-23.101800 0.000000
-23.053700 0.000000
-23.005600 0.000000
-22.957500 0.000000
-22.909400 0.000000
-22.861200 0.000000
-22.813100 0.000000
-22.765000 0.000000
-22.716900 0.000000
-22.668800 0.000000
-22.620600 0.000000
-22.572500 0.000000
-22.524400 0.000000
-22.476300 0.000000
-22.428200 0.000000
-22.380100 0.000000
-22.331900 0.000000
-22.283800 0.000000
-22.235700 0.000000
-22.187600 0.000000
-22.139500 0.000000
-22.091400 0.000000
-22.043200 0.000000
-21.995100 0.000000
-21.947000 0.000000
-21.898900 0.000000
-21.850800 0.000000
-21.802600 0.000000
-21.754500 0.000000
-21.706400 0.000000
-21.658300 0.000000
-21.610200 0.000000
-21.562100 0.000000
-21.513900 0.000000
-21.465800 0.000000
-21.417700 0.000000
-21.369600 0.000000
-21.321500 0.000000
-21.273300 0.000000
-21.225200 0.000000
-21.177100 0.000000
-21.129000 0.000000
-21.080900 0.000000
-21.032800 0.000000
-20.984600 0.000000
-20.936500 0.000000
-20.888400 0.000000
-20.840300 0.000000
-20.792200 0.000000
-20.744100 0.000000
-20.695900 0.000000
-20.647800 0.000000
-20.599700 0.000000
-20.551600 0.000000
-20.503500 0.000000
-20.455300 0.000000
-20.407200 0.000000
-20.359100 0.000000
-20.311000 0.000000
-20.262900 0.000000
-20.214800 0.000000
-20.166600 0.000000
-20.118500 0.000000
-20.070400 0.000000
-20.022300 0.000000
-19.974200 0.000000
-19.926000 0.000000
-19.877900 0.000000
-19.829800 0.000000
-19.781700 0.000000
-19.733600 0.000000
-19.685500 0.000000
-19.637300 0.000000
-19.589200 0.000000
-19.541100 0.000000
-19.493000 0.000000
-19.444900 0.000000
-19.396800 0.000000
-19.348600 0.000000
-19.300500 0.000000
-19.252400 0.000000
-19.204300 0.000000
-19.156200 0.000000
-19.108000 0.000000
-19.059900 0.000000
-19.011800 0.000000
-18.963700 0.000000
-18.915600 0.000000
-18.867500 0.000000
-18.819300 0.000000
-18.771200 0.000000
-18.723100 0.000000
-18.675000 0.000000
-18.626900 0.000000
-18.578700 0.000000
-18.530600 0.000000
-18.482500 0.000000
-18.434400 0.000000
-18.386300 0.000000
-18.338200 0.000000
-18.290000 15.903400
-18.241900 24.686400
-18.193800 15.468500
-18.145700 24.822200
-18.097600 6.852200
-18.049500 17.614400
-18.001300 0.000000
-17.953200 0.000000
-17.905100 0.000000
-17.857000 0.000000
-17.808900 0.000000
-17.760700 0.000000
-17.712600 0.000000
-17.664500 0.000000
-17.616400 0.000000
-17.568300 0.000000
-17.520200 0.000000
-17.472000 0.000000
-17.423900 0.000000
-17.375800 0.000000
-17.327700 0.000000
-17.279600 0.000000
-17.231400 0.000000
-17.183300 0.000000
-17.135200 0.000000
-17.087100 0.000000
-17.039000 0.000000
-16.990900 0.000000
-16.942700 0.000000
-16.894600 0.000000
-16.846500 0.000000
-16.798400 0.000000
-16.750300 0.000000
-16.702200 0.000000
-16.654000 0.000000
-16.605900 0.000000
-16.557800 0.000000
-16.509700 0.000000
-16.461600 0.000000
-16.413400 0.000000
-16.365300 0.000000
-16.317200 0.000000
-16.269100 0.000000
-16.221000 0.000000
-16.172900 0.000000
-16.124700 0.000000
-16.076600 0.000000
-16.028500 0.000000
-15.980400 0.000000
-15.932300 0.000000
-15.884100 0.000000
-15.836000 0.000000
-15.787900 0.000000
-15.739800 0.000000
-15.691700 0.000000
-15.643600 0.000000
-15.595400 0.000000
-15.547300 0.000000
-15.499200 0.000000
-15.451100 0.000000
-15.403000 0.000000
-15.354900 0.000000
-15.306700 0.000000
-15.258600 0.000000
-15.210500 0.000000
-15.162400 0.000000
-15.114300 0.000000
-15.066100 0.000000
-15.018000 0.000000
-14.969900 0.000000
-14.921800 0.000000
-14.873700 0.000000
-14.825600 0.000000
-14.777400 0.000000
-14.729300 0.000000
-14.681200 0.000000
-14.633100 0.000000
-14.585000 0.000000
-14.536900 0.000000
-14.488700 0.000000
-14.440600 0.000000
-14.392500 0.000000
-14.344400 0.000000
-14.296300 0.000000
-14.248100 0.000000
-14.200000 0.000000
-14.151900 0.000000
-14.103800 0.000000
-14.055700 0.000000
-14.007600 0.000000
-13.959400 0.000000
-13.911300 0.000000
-13.863200 0.000000
-13.815100 0.000000
-13.767000 0.000000
-13.718800 0.000000
-13.670700 0.000000
-13.622600 0.000000
-13.574500 0.000000
-13.526400 0.000000
-13.478300 0.000000
-13.430100 0.000000
-13.382000 0.000000
-13.333900 0.000000
-13.285800 0.000000
-13.237700 0.000000
-13.189600 0.000000
-13.141400 0.000000
-13.093300 0.000000
-13.045200 0.000000
-12.997100 0.000000
-12.949000 0.000000
-12.900800 0.000000
-12.852700 0.000000
-12.804600 0.000000
-12.756500 0.000000
-12.708400 0.000000
-12.660300 0.000000
-12.612100 0.000000
-12.564000 0.000000
-12.515900 0.000000
-12.467800 0.000000
-12.419700 0.000000
-12.371500 0.000000
-12.323400 0.000000
-12.275300 0.000000
-12.227200 0.000000
-12.179100 0.000000
-12.131000 0.000000
-12.082800 0.000000
-12.034700 0.000000
-11.986600 0.000000
-11.938500 0.000000
-11.890400 0.000000
-11.842300 0.000000
-11.794100 0.000000
-11.746000 0.000000
-11.697900 0.000000
-11.649800 0.000000
-11.601700 0.000000
-11.553500 0.000000
-11.505400 0.000000
-11.457300 0.000000
-11.409200 0.000000
-11.361100 0.000000
-11.313000 0.000000
-11.264800 0.000000
-11.216700 0.000000
-11.168600 0.000000
-11.120500 0.000000
-11.072400 0.000000
-11.024200 0.000000
-10.976100 0.000000
-10.928000 0.000000
-10.879900 0.000000
-10.831800 0.000000
-10.783700 0.000000
-10.735500 0.000000
-10.687400 0.000000
-10.639300 0.000000
-10.591200 0.000000
-10.543100 0.278200
-10.495000 0.482600
-10.446800 0.717200
-10.398700 0.916300
-10.350600 1.125700
-10.302500 1.407100
-10.254400 1.857400
-10.206200 2.435300
-10.158100 3.310600
-10.110000 5.258700
-10.061900 5.582200
-10.013800 5.866800
-9.965700 4.230100
-9.917500 2.833200
-9.869400 1.877600
-9.821300 1.376200
-9.773200 0.946900
-9.725100 0.501400
-9.676900 0.000000
-9.628800 0.000000
-9.580700 0.000000
-9.532600 0.000000
-9.484500 0.000000
-9.436400 0.000000
-9.388200 0.000000
-9.340100 0.000000
-9.292000 0.000000
-9.243900 0.000000
-9.195800 0.000000
-9.147700 0.000000
-9.099500 0.000000
-9.051400 0.000000
-9.003300 0.000000
-8.955200 0.000000
-8.907100 0.000000
-8.858900 0.000000
-8.810800 0.000000
-8.762700 0.000000
-8.714600 0.000000
-8.666500 0.000000
-8.618400 0.000000
-8.570200 0.000000
-8.522100 0.000000
-8.474000 0.000000
-8.425900 0.000000
-8.377800 0.000000
-8.329600 0.000000
-8.281500 0.000000
-8.233400 0.000000
-8.185300 0.000000
-8.137200 0.000000
-8.089100 0.000000
-8.040900 0.000000
-7.992800 0.000000
-7.944700 0.000000
-7.896600 0.000000
-7.848500 0.000000
-7.800400 0.000000
-7.752200 0.000000
-7.704100 0.000000
-7.656000 0.000000
-7.607900 0.000000
-7.559800 0.000000
-7.511600 0.000000
-7.463500 0.000000
-7.415400 0.000000
-7.367300 0.000000
-7.319200 0.000000
-7.271100 0.000000
-7.222900 0.000000
-7.174800 0.000000
-7.126700 0.000000
-7.078600 0.000000
-7.030500 0.000000
-6.982400 0.000000
-6.934200 0.000000
-6.886100 0.000000
-6.838000 0.000000
-6.789900 0.000000
-6.741800 0.000000
-6.693600 0.000000
-6.645500 0.000000
-6.597400 0.000000
-6.549300 0.000000
-6.501200 0.000000
-6.453100 0.000000
-6.404900 0.000000
-6.356800 0.000000
-6.308700 0.000000
-6.260600 0.000000
-6.212500 0.000000
-6.164300 0.000000
-6.116200 0.000000
-6.068100 0.000000
-6.020000 0.000000
-5.971900 0.000000
-5.923800 0.000000
-5.875600 0.000000
-5.827500 0.000000
-5.779400 0.000000
-5.731300 0.000000
-5.683200 0.000000
-5.635100 0.000000
-5.586900 0.000000
-5.538800 0.000000
-5.490700 0.000000
-5.442600 0.000000
-5.394500 0.000000
-5.346300 0.000000
-5.298200 0.000000
-5.250100 0.000000
-5.202000 0.000000
-5.153900 0.000000
-5.105800 0.000000
-5.057600 0.000000
-5.009500 0.000000
-4.961400 0.000000
-4.913300 0.000000
-4.865200 0.000000
-4.817000 0.000000
-4.768900 0.000000
-4.720800 0.000000
-4.672700 0.000000
-4.624600 0.000000
-4.576500 0.000000
-4.528300 0.000000
-4.480200 0.000000
-4.432100 0.000000
-4.384000 0.000000
-4.335900 0.000000
-4.287800 0.000000
-4.239600 0.000000
-4.191500 0.000000
-4.143400 0.000000
-4.095300 0.000000
-4.047200 0.000000
-3.999000 0.000000
-3.950900 0.000000
-3.902800 0.000000
-3.854700 0.000000
-3.806600 0.000000
-3.758500 0.000000
-3.710300 0.000000
-3.662200 0.000000
-3.614100 0.000000
-3.566000 0.000000
-3.517900 0.000000
-3.469700 0.000000
-3.421600 0.000000
-3.373500 0.000000
-3.325400 0.000000
-3.277300 0.000000
-3.229200 0.000000
-3.181000 0.000000
-3.132900 0.000000
-3.084800 0.000000
-3.036700 0.000000
-2.988600 0.000000
-2.940500 0.000000
-2.892300 0.000000
-2.844200 0.000000
-2.796100 0.000000
-2.748000 0.000000
-2.699900 0.000000
-2.651700 0.000000
-2.603600 0.000000
-2.555500 0.000000
-2.507400 0.193000
-2.459300 0.179500
-2.411200 0.307600
-2.363000 0.713500
-2.314900 1.008800
-2.266800 1.286400
-2.218700 1.603200
-2.170600 2.124800
-2.122400 2.719100
-2.074300 4.172500
-2.026200 5.537700
-1.978100 4.688000
-1.930000 3.038900
-1.881900 1.603800
-1.833700 1.399400
-1.785600 1.227500
-1.737500 1.104700
-1.689400 1.095900
-1.641300 1.173000
-1.593200 0.829800
-1.545000 0.545400
-1.496900 0.479000
-1.448800 0.429700
-1.400700 0.389100
-1.352600 0.357200
-1.304400 0.334400
-1.256300 0.320300
-1.208200 0.309100
-1.160100 0.332700
-1.112000 0.353900
-1.063900 0.335400
-1.015700 0.277000
-0.967600 0.179900
-0.919500 0.106500
-0.871400 0.126800
-0.823300 0.179400
-0.775100 0.261200
-0.727000 0.398200
-0.678900 0.649300
-0.630800 0.965100
-0.582700 4.427000
-0.534600 4.190200
-0.486400 3.378000
-0.438300 2.551500
-0.390200 2.201700
-0.342100 1.994500
-0.294000 2.149700
-0.245900 2.044700
-0.197700 1.911600
-0.149600 1.756000
-0.101500 1.578700
-0.053400 1.602100
-0.005300 1.616400
0.042900 1.653300
0.091000 1.668900
0.139100 1.663100
0.187200 1.652100
0.235300 1.715300
0.283400 1.899900
0.331600 1.963600
0.379700 1.797100
0.427800 1.629900
0.475900 1.626700
0.524000 1.613000
0.572100 1.495600
0.620300 1.344100
0.668400 1.478900
0.716500 1.447200
0.764600 1.386100
0.812700 1.908900
0.860900 1.926900
0.909000 1.955800
0.957100 1.963300
1.005200 1.978300
1.053300 1.943900
1.101400 2.015800
1.149600 2.102900
1.197700 2.215100
1.245800 1.802700
1.293900 1.027700
1.342000 0.544100
1.390200 0.375300
1.438300 1.897000
1.486400 2.517600
1.534500 1.923600
1.582600 1.886100
1.630700 2.043200
1.678900 2.115200
1.727000 2.231000
1.775100 2.400700
1.823200 2.711500
1.871300 2.814500
1.919400 2.661900
1.967600 2.728600
2.015700 2.330800
2.063800 2.014300
2.111900 2.219400
2.160000 1.800500
2.208200 1.602000
2.256300 1.550900
2.304400 1.618700
2.352500 1.049900
2.400600 0.000100
2.448700 0.000000
2.496900 0.000000
2.545000 0.000000
2.593100 0.000000
2.641200 0.000000
2.689300 0.000000
2.737500 0.000000
2.785600 0.000000
2.833700 0.000000
2.881800 0.000000
2.929900 0.000000
2.978000 0.000000
3.026200 0.000000
3.074300 0.000000
3.122400 0.000000
3.170500 0.000000
3.218600 0.000000
3.266700 0.000000
3.314900 0.000000
3.363000 0.000000
3.411100 0.000000
3.459200 0.000000
3.507300 0.000000
3.555500 0.000000
3.603600 0.000000
3.651700 0.000000
3.699800 0.000000
3.747900 0.000000
3.796000 0.000000
3.844200 0.000000
3.892300 0.000000
3.940400 0.000000
3.988500 0.000000
4.036600 0.000000
4.084800 0.000000
4.132900 0.000000
4.181000 0.000000
4.229100 0.000000
4.277200 0.000000
4.325300 0.000000
4.373500 0.000000
4.421600 0.023500
4.469700 0.139700
4.517800 0.149400
4.565900 0.193100
4.614000 0.236500
4.662200 0.253000
4.710300 0.242700
4.758400 0.834000
4.806500 0.411400
4.854600 0.457000
4.902800 0.507900
4.950900 0.561200
4.999000 0.617700
5.047100 0.715300
5.095200 0.806200
5.143300 0.888300
5.191500 1.090800
5.239600 1.085600
5.287700 1.498900
5.335800 1.227600
5.383900 1.287300
5.432100 1.345400
5.480200 1.418500
5.528300 1.473200
5.576400 1.527000
5.624500 1.609300
5.672600 1.802100
5.720800 2.027500
5.768900 2.197900
5.817000 2.259700
5.865100 2.191900
5.913200 2.081600
5.961300 1.941000
6.009500 1.709100
6.057600 1.402300
6.105700 1.165800
6.153800 1.016900
6.201900 0.964900
6.250100 0.976000
6.298200 0.936700
6.346300 0.813200
6.394400 0.748100
6.442500 0.693200
6.490600 0.665600
6.538800 0.668600
6.586900 0.790300
6.635000 1.229600
6.683100 1.788700
6.731200 2.344600
6.779400 2.579400
6.827500 2.743400
6.875600 3.112400
6.923700 4.523500
6.971800 4.770600
7.019900 3.731000
7.068100 2.629800
7.116200 2.310100
7.164300 1.864700
7.212400 1.686800
7.260500 1.498100
7.308600 1.477500
7.356800 1.450300
7.404900 1.409600
7.453000 1.518600
7.501100 1.822300
7.549200 2.054500
7.597400 2.159300
7.645500 2.158600
7.693600 2.243900
7.741700 2.335600
7.789800 2.391900
7.837900 2.449300
7.886100 2.385500
7.934200 2.625100
7.982300 2.355000
8.030400 1.903500
8.078500 1.724700
8.126600 1.629100
8.174800 1.661700
8.222900 1.757000
8.271000 2.013100
8.319100 2.171400
8.367200 2.286100
8.415400 2.425400
8.463500 2.604100
8.511600 2.757100
8.559700 2.848700
8.607800 3.113900
8.655900 3.271200
8.704100 3.322600
8.752200 3.424300
8.800300 4.157400
8.848400 4.540000
8.896500 5.097300
8.944700 6.355700
8.992800 5.625600
9.040900 4.177900
9.089000 3.779100
9.137100 3.372700
9.185200 3.142200
9.233400 3.167700
9.281500 3.198300
9.329600 3.226500
9.377700 3.037100
9.425800 2.572300
9.473900 3.196100
9.522100 4.187400
9.570200 2.919500
9.618300 3.060700
9.666400 3.168100
9.714500 3.254000
9.762700 3.093100
9.810800 3.483300
9.858900 4.075100
9.907000 3.820700
9.955100 3.359200
10.003200 2.953300
10.051400 2.770300
10.099500 2.852500
10.147600 2.955100
10.195700 3.342800
10.243800 3.239500
10.292000 3.203500
10.340100 3.249900
10.388200 3.070900
10.436300 1.881600
10.484400 1.802700
10.532500 1.696700
10.580700 1.555900
10.628800 1.379100
10.676900 1.250200
10.725000 1.230600
10.773100 1.167100
10.821200 1.143000
10.869400 1.151100
10.917500 1.014300
10.965600 0.823000
11.013700 0.693000
11.061800 0.655200
11.110000 0.650000
11.158100 0.647900
11.206200 0.673700
11.254300 0.834800
11.302400 0.700400
11.350500 0.710000
11.398700 0.797900
11.446800 0.836400
11.494900 0.772300
11.543000 0.780800
11.591100 0.885500
11.639300 1.038600
11.687400 1.257000
11.735500 1.829400
11.783600 3.312900
11.831700 2.509900
11.879800 2.217000
11.928000 2.242400
11.976100 2.207200
12.024200 1.925900
12.072300 1.688100
12.120400 1.526400
12.168500 1.282600
12.216700 1.052400
12.264800 0.991700
12.312900 0.931200
12.361000 0.873800
12.409100 0.828400
12.457300 0.799900
12.505400 0.805200
12.553500 0.721500
12.601600 0.562500
12.649700 0.493000
12.697800 0.413700
12.746000 0.284900
12.794100 0.267700
12.842200 0.289100
12.890300 0.323300
12.938400 0.370700
12.986600 0.450900
13.034700 0.524900
13.082800 0.605200
13.130900 0.707800
13.179000 0.795400
13.227100 0.877900
13.275300 1.034300
13.323400 1.091900
13.371500 1.025300
13.419600 1.005900
13.467700 0.998900
13.515800 1.005300
13.564000 1.025200
13.612100 1.056200
13.660200 1.090600
13.708300 1.160600
13.756400 1.248600
13.804600 1.431400
13.852700 1.493000
13.900800 1.558600
13.948900 1.699800
13.997000 1.740500
14.045100 1.723200
14.093300 1.752600
14.141400 1.793000
14.189500 1.825700
14.237600 1.972500
14.285700 1.923500
14.333900 1.875700
14.382000 1.793400
14.430100 1.777500
14.478200 1.808700
14.526300 1.842900
14.574400 1.875000
14.622600 1.868400
14.670700 1.831100
14.718800 1.775500
14.766900 1.856300
14.815000 1.633400
14.863100 1.531300
14.911300 1.443100
14.959400 1.383300
15.007500 1.328600
15.055600 1.279000
15.103700 1.228200
15.151900 1.160400
15.200000 1.076300
15.248100 1.012800
15.296200 0.980600
15.344300 0.956200
15.392400 0.934200
15.440600 0.914900
15.488700 0.996200
15.536800 0.905100
15.584900 0.861300
15.633000 0.818200
15.681100 0.775800
15.729300 0.734800
15.777400 0.700700
15.825500 0.664200
15.873600 0.615700
15.921700 0.605600
15.969900 0.595200
16.018000 0.579200
16.066100 0.561900
16.114200 0.546500
16.162300 0.533200
16.210400 0.522400
16.258600 0.527200
16.306700 0.581100
16.354800 0.668800
16.402900 0.782100
16.451000 0.878200
16.499200 0.962400
16.547300 1.055800
16.595400 1.182700
16.643500 1.377800
16.691600 1.588500
16.739700 1.824900
16.787900 2.226700
16.836000 1.763100
16.884100 1.806500
16.932200 1.763900
16.980300 1.530300
17.028400 1.390300
17.076600 1.235000
17.124700 1.210100
17.172800 1.229300
17.220900 1.265400
17.269000 1.318500
17.317200 1.387800
17.365300 1.149500
17.413400 0.998600
17.461500 0.946400
17.509600 0.899900
17.557700 0.864900
17.605900 0.818700
17.654000 0.757900
17.702100 0.687200
17.750200 0.633600
17.798300 0.559500
17.846500 0.497300
17.894600 0.455400
17.942700 0.415800
17.990800 0.378400
18.038900 0.345200
18.087000 0.314700
18.135200 0.286100
18.183300 0.259500
18.231400 0.234500
18.279500 0.210400
18.327600 0.187200
18.375700 0.165000
18.423900 0.152900
18.472000 0.149100
18.520100 0.155300
18.568200 0.232200
18.616300 0.437300
18.664500 0.707000
18.712600 0.920000
18.760700 1.420800
18.808800 2.024600
18.856900 2.027300
18.905000 1.948600
18.953200 1.953900
19.001300 1.940000
19.049400 1.911600
19.097500 1.756500
19.145600 1.564000
19.193800 1.492900
19.241900 1.477000
19.290000 1.579400
19.338100 1.924100
19.386200 2.278400
19.434300 2.743600
19.482500 2.642100
19.530600 2.139400
19.578700 2.049800
19.626800 1.987300
19.674900 1.984900
19.723000 1.981300
19.771200 1.920300
19.819300 1.892500
19.867400 1.992600
19.915500 1.971900
19.963600 1.972100
20.011800 2.016400
20.059900 2.108000
20.108000 2.338100
20.156100 2.714500
20.204200 3.117000
20.252300 2.907000
20.300500 2.252800
20.348600 2.043600
20.396700 1.903800
20.444800 1.849200
20.492900 1.832100
20.541100 1.864100
20.589200 1.920800
20.637300 2.098500
20.685400 2.242000
20.733500 2.144100
20.781600 2.179600
20.829800 2.312500
20.877900 2.208500
20.926000 2.254300
20.974100 2.098700
21.022200 1.843700
21.070300 1.486700
21.118500 1.377600
21.166600 1.268400
21.214700 1.200000
21.262800 1.167000
21.310900 1.133100
21.359100 1.102500
21.407200 1.068800
21.455300 1.037800
21.503400 1.009500
21.551500 0.994400
21.599600 1.058100
21.647800 1.034400
21.695900 1.020000
21.744000 1.019000
21.792100 1.029800
21.840200 1.037700
21.888400 1.038800
21.936500 1.077100
21.984600 1.135500
22.032700 1.185700
22.080800 1.246400
22.128900 1.452200
22.177100 1.589400
22.225200 1.564400
22.273300 1.507600
22.321400 1.507400
22.369500 1.506500
22.417600 1.520100
22.465800 1.557900
22.513900 1.599100
22.562000 1.638400
22.610100 1.683800
22.658200 1.762600
22.706400 1.878100
22.754500 2.084800
22.802600 2.361000
22.850700 2.449000
22.898800 2.443300
22.946900 2.432600
22.995100 2.458500
23.043200 2.578900
23.091300 2.394600
23.139400 2.205000
23.187500 1.983800
23.235600 1.719300
23.283800 1.287700
23.331900 1.266600
23.380000 1.245300
23.428100 1.150300
23.476200 1.158000
23.524400 1.253800
23.572500 1.314700
23.620600 1.410800
23.668700 1.440300
23.716800 1.343700
23.764900 1.352000
23.813100 1.366000
23.861200 1.440100
23.909300 1.526100
23.957400 1.592800
24.005500 1.586200
24.053700 1.573500
24.101800 1.551800
24.149900 1.535400
24.198000 1.583400
24.246100 1.668400
24.294200 1.744200
24.342400 1.816400
24.390500 1.898100
24.438600 2.072500
24.486700 2.317300
24.534800 2.319100
24.582900 2.387700
24.631100 2.823700
24.679200 2.832100
24.727300 2.723800
24.775400 2.543800
24.823500 2.390900
24.871700 2.313500
24.919800 2.177900
24.967900 2.052100
25.016000 1.939600
25.064100 1.818000
25.112200 1.727800
25.160400 1.736400
25.208500 1.735200
25.256600 1.815200
25.304700 1.838300
25.352800 1.944000
25.401000 1.863000
25.449100 2.118600
25.497200 1.735900
25.545300 1.815700
25.593400 1.884000
25.641500 1.863900
25.689700 1.799300
25.737800 1.830800
25.785900 1.929900
25.834000 2.042100
25.882100 2.294200
25.930200 2.396800
25.978400 2.420200
26.026500 2.411500
26.074600 2.173800
26.122700 2.119100
26.170800 2.075700
26.219000 1.984300
26.267100 1.884300
26.315200 1.820700
26.363300 1.757900
26.411400 1.689100
26.459500 1.648800
26.507700 1.621300
26.555800 1.688800
26.603900 1.798600
26.652000 1.726700
26.700100 1.627000
26.748300 1.671200
26.796400 1.701700
26.844500 1.729200
26.892600 1.751800
26.940700 2.202300
26.988800 2.556100
27.037000 2.371600
27.085100 2.024000
27.133200 1.907500
27.181300 1.872300
27.229400 1.904400
27.277500 1.634500
27.325700 1.398000
27.373800 1.268600
27.421900 1.191700
27.470000 1.116400
27.518100 1.048700
27.566300 1.070800
27.614400 1.273700
27.662500 1.261000
27.710600 1.372800
27.758700 1.554000
27.806800 1.634000
27.855000 1.889300
27.903100 1.778300
27.951200 1.708500
27.999300 1.676900
28.047400 1.842400
28.095600 1.894500
28.143700 1.939900
28.191800 2.071600
28.239900 1.994700
28.288000 2.003800
28.336100 1.941700
28.384300 1.929000
28.432400 2.255600
28.480500 1.973300
28.528600 1.985800
28.576700 2.028200
28.624800 1.775300
28.673000 1.715600
28.721100 1.691300
28.769200 1.698600
28.817300 1.697700
28.865400 1.724600
28.913600 1.769500
28.961700 1.817700
29.009800 1.869500
29.057900 1.920200
29.106000 1.988600
29.154100 2.073200
29.202300 2.050700
29.250400 2.146800
29.298500 2.099300
29.346600 1.943000
29.394700 1.964100
29.442800 1.888500
29.491000 1.958200
29.539100 2.039600
29.587200 2.133800
29.635300 2.267200
29.683400 2.345000
29.731600 2.268900
29.779700 2.006400
29.827800 1.689700
29.875900 1.591900
29.924000 1.508000
29.972100 1.415100
30.020300 1.372700
30.068400 1.388600
30.116500 1.417300
30.164600 1.484500
30.212700 1.725900
30.260900 2.002900
30.309000 2.225700
30.357100 2.368700
30.405200 2.435900
30.453300 2.642600
30.501400 2.360800
30.549600 2.466100
30.597700 2.088000
30.645800 1.853000
30.693900 1.672600
30.742000 1.692200
30.790100 1.673800
30.838300 1.576800
30.886400 1.561600
30.934500 1.553600
30.982600 1.547800
31.030700 1.598600
31.078900 1.677800
31.127000 1.734000
31.175100 1.767100
31.223200 1.752100
31.271300 1.643100
31.319400 1.667200
31.367600 1.641400
31.415700 1.607700
31.463800 1.567500
31.511900 1.536200
31.560000 1.535100
31.608200 1.508300
31.656300 1.436900
31.704400 1.328900
31.752500 1.193300
31.800600 1.152000
31.848700 1.257300
31.896900 1.119700
31.945000 1.138700
31.993100 1.142700
32.041200 1.152000
32.089300 1.152500
32.137400 1.160600
32.185600 1.175200
32.233700 1.207000
32.281800 1.305300
32.329900 1.459500
32.378000 1.643700
32.426200 1.785600
32.474300 1.886400
32.522400 1.955300
32.570500 2.017200
32.618600 2.045400
32.666700 2.031000
32.714900 2.051100
32.763000 1.980500
32.811100 1.978500
32.859200 1.968700
32.907300 1.914200
32.955500 1.880800
33.003600 1.860300
33.051700 1.893900
33.099800 2.259100
33.147900 2.052500
33.196000 1.757000
33.244200 1.759300
33.292300 1.886400
33.340400 2.128900
33.388500 2.418800
33.436600 2.626000
33.484700 2.640000
33.532900 3.007000
33.581000 3.316300
33.629100 3.773800
33.677200 3.583200
33.725300 3.332200
33.773500 3.021000
33.821600 2.599900
33.869700 2.117500
33.917800 1.881000
33.965900 1.436500
34.014000 1.283500
34.062200 1.278400
34.110300 1.376000
34.158400 1.467200
34.206500 1.554300
34.254600 1.644700
34.302800 1.795000
34.350900 1.893700
34.399000 1.897600
34.447100 1.918100
34.495200 2.004900
34.543300 2.088500
34.591500 2.115700
34.639600 2.078300
34.687700 2.051200
34.735800 2.041400
34.783900 2.159700
34.832000 2.018800
34.880200 1.855000
34.928300 1.700200
34.976400 1.595900
35.024500 1.535700
35.072600 1.482800
35.120800 1.462300
35.168900 1.470600
35.217000 1.529600
35.265100 1.657300
35.313200 1.902800
35.361300 1.928200
35.409500 1.837500
35.457600 1.756700
35.505700 1.741500
35.553800 1.737600
35.601900 1.744200
35.650100 1.764300
35.698200 1.785300
35.746300 1.851000
35.794400 1.796100
35.842500 1.846800
35.890600 2.046000
35.938800 2.016000
35.986900 2.013900
36.035000 1.972600
36.083100 1.861700
36.131200 1.807800
36.179300 1.818100
36.227500 1.821200
36.275600 1.860800
36.323700 1.898700
36.371800 1.922600
36.419900 1.921400
36.468100 1.944300
36.516200 2.039700
36.564300 2.100900
36.612400 2.141000
36.660500 2.198700
36.708600 2.336100
36.756800 2.541100
36.804900 2.829900
36.853000 2.783600
36.901100 2.604200
36.949200 2.527300
36.997300 2.348300
37.045500 2.308700
37.093600 2.205000
37.141700 2.061800
37.189800 1.958600
37.237900 1.884400
37.286100 1.851500
37.334200 1.865300
37.382300 1.923900
37.430400 2.016000
37.478500 2.106100
37.526600 2.251300
37.574800 2.476200
37.622900 2.882100
37.671000 2.805500
37.719100 2.894500
37.767200 2.908600
37.815400 3.076100
37.863500 2.684600
37.911600 2.365300
37.959700 1.912900
38.007800 1.669900
38.055900 1.555600
38.104100 1.514700
38.152200 1.504500
38.200300 1.528300
38.248400 1.578600
38.296500 1.695800
38.344600 1.916900
38.392800 2.129500
38.440900 2.275900
38.489000 2.375600
38.537100 2.449500
38.585200 2.543800
38.633400 2.356600
38.681500 1.976500
38.729600 1.762900
38.777700 1.581200
38.825800 1.427600
38.873900 1.317700
38.922100 1.263300
38.970200 1.253300
39.018300 1.257500
39.066400 1.275600
39.114500 1.318700
39.162700 1.484200
39.210800 1.551200
39.258900 1.614200
39.307000 1.690200
39.355100 1.770600
39.403200 1.847900
39.451400 1.921500
39.499500 2.133600
39.547600 2.009000
39.595700 1.886700
39.643800 1.780200
39.691900 1.702300
39.740100 1.688300
39.788200 1.713900
39.836300 1.800800
39.884400 1.867300
39.932500 1.922300
39.980700 1.989100
40.028800 2.161200
40.076900 2.112400
40.125000 2.066800
40.173100 2.017300
40.221200 1.967300
40.269400 2.027600
40.317500 2.116500
40.365600 2.171200
40.413700 2.142400
40.461800 2.047500
40.510000 1.942600
40.558100 1.852800
40.606200 1.938300
40.654300 2.215400
40.702400 2.267600
40.750500 2.295000
40.798700 2.331600
40.846800 2.414700
40.894900 2.447700
40.943000 2.197700
40.991100 2.248500
41.039200 2.260200
41.087400 2.268600
41.135500 2.325000
41.183600 2.380100
41.231700 2.429500
41.279800 2.438100
41.328000 2.368500
41.376100 2.262500
41.424200 2.229700
41.472300 2.210100
41.520400 2.199600
41.568500 2.260200
41.616700 2.381200
41.664800 2.537400
41.712900 2.667200
41.761000 2.784000
41.809100 3.077400
41.857300 3.489900
41.905400 3.333900
41.953500 3.014900
42.001600 2.834300
42.049700 2.775200
42.097800 2.788500
42.146000 2.703100
42.194100 2.530900
42.242200 2.457100
42.290300 2.470800
42.338400 2.475800
42.386500 2.505600
42.434700 2.578700
42.482800 2.598400
42.530900 2.537700
42.579000 2.429100
42.627100 2.401000
42.675300 2.390000
42.723400 2.387800
42.771500 2.550700
42.819600 2.371200
42.867700 2.181200
42.915800 2.167800
42.964000 2.051500
43.012100 1.950000
43.060200 1.981400
43.108300 2.033600
43.156400 2.112600
43.204600 2.273100
43.252700 2.550600
43.300800 2.470000
43.348900 2.234900
43.397000 2.021400
43.445100 1.950200
43.493300 1.951900
43.541400 1.963500
43.589500 2.001800
43.637600 2.213900
43.685700 2.199800
43.733800 2.250800
43.782000 2.269300
43.830100 2.283300
43.878200 2.297400
43.926300 2.328800
43.974400 2.373300
44.022600 2.435000
44.070700 2.598700
44.118800 2.630000
44.166900 2.522700
44.215000 2.380700
44.263100 2.429600
44.311300 2.512100
44.359400 2.294600
44.407500 1.891700
44.455600 1.694800
44.503700 1.687000
44.551800 1.688900
44.600000 1.683600
44.648100 1.658800
44.696200 1.629400
44.744300 1.805700
44.792400 1.681600
44.840600 1.434800
44.888700 1.449800
44.936800 1.477300
44.984900 1.561100
45.033000 1.684600
45.081100 1.815300
45.129300 1.930200
45.177400 1.988300
45.225500 2.057500
45.273600 2.155700
45.321700 2.296600
45.369900 2.236600
45.418000 2.273000
45.466100 2.304500
45.514200 2.319600
45.562300 2.496800
45.610400 2.273200
45.658600 2.208300
45.706700 2.169500
45.754800 2.130100
45.802900 2.012200
45.851000 1.966600
45.899100 1.944300
45.947300 1.973600
45.995400 1.994300
46.043500 1.994600
46.091600 1.992700
46.139700 1.989400
46.187900 1.979400
46.236000 1.946300
46.284100 1.896900
46.332200 1.862900
46.380300 1.827400
46.428400 1.948300
46.476600 1.737700
46.524700 1.673500
46.572800 1.621000
46.620900 1.602900
46.669000 1.588500
46.717200 1.571200
46.765300 1.554900
46.813400 1.538700
46.861500 1.522100
46.909600 1.507300
46.957700 1.488500
47.005900 1.468600
47.054000 1.442600
47.102100 1.309000
47.150200 1.270700
47.198300 1.264200
47.246400 1.281400
47.294600 1.324600
47.342700 1.325600
47.390800 1.311400
47.438900 1.250700
47.487000 1.186200
47.535200 1.112200
47.583300 1.013500
47.631400 0.893100
47.679500 0.804300
47.727600 0.738400
47.775700 0.670100
47.823900 0.602100
47.872000 0.542400
47.920100 0.494800
47.968200 0.453300
48.016300 0.415200
48.064500 0.380300
48.112600 0.348300
48.160700 0.318300
48.208800 0.316100
48.256900 0.290300
48.305000 0.206600
48.353200 0.195300
48.401300 0.184300
48.449400 0.173700
48.497500 0.163300
48.545600 0.152600
48.593700 0.123100
48.641900 0.104600
48.690000 0.099400
48.738100 0.094800
48.786200 0.094700
48.834300 0.106000
48.882500 0.109800
48.930600 0.106400
48.978700 0.095500
49.026800 0.077300
49.074900 0.066800
49.123000 0.060400
49.171200 0.053100
49.219300 0.044600
49.267400 0.038100
49.315500 0.036500
49.363600 0.034900
49.411800 0.033300
49.459900 0.031800
49.508000 0.030300
49.556100 0.028800
49.604200 0.027400
49.652300 0.026000
49.700500 0.024700
49.748600 0.023400
49.796700 0.022100
49.844800 0.023700
49.892900 0.026400
49.941000 0.027800
49.989200 0.027800
50.037300 0.026400
50.085400 0.023600
50.133500 0.019500
50.181600 0.014000
50.229800 0.007100
50.277900 0.003100
50.326000 0.000900
50.374100 0.000000
50.422200 0.000000
50.470300 0.000000
50.518500 0.000000
50.566600 0.000000
50.614700 0.000000
50.662800 0.000000
50.710900 0.000000
50.759100 0.000000
50.807200 0.000000
50.855300 0.000000
50.903400 0.000000
50.951500 0.000000
50.999600 0.000000
51.047800 0.000000
51.095900 0.000000
51.144000 0.000000
51.192100 0.000000
51.240200 0.000000
51.288300 0.000000
51.336500 0.000000
51.384600 0.000000
51.432700 0.000000
51.480800 0.000000
51.528900 0.000000
51.577100 0.000000
51.625200 0.000000
51.673300 0.000000
51.721400 0.000000
51.769500 0.000000
51.817600 0.000000
51.865800 0.000000
51.913900 0.000000
51.962000 0.000000
52.010100 0.000000
52.058200 0.000000
52.106300 0.000000
52.154500 0.000000
52.202600 0.000000
52.250700 0.000000
52.298800 0.000000
52.346900 0.000000
52.395100 0.000000
52.443200 0.000000
52.491300 0.000000
52.539400 0.000000
52.587500 0.000000
52.635600 0.000000
52.683800 0.000000
52.731900 0.000000
52.780000 0.000000
52.828100 0.000000
52.876200 0.000000
52.924400 0.000000
52.972500 0.000000
53.020600 0.000000
53.068700 0.000000
53.116800 0.000000
53.164900 0.000000
53.213100 0.000000
53.261200 0.000000
53.309300 0.000000
53.357400 0.000000
53.405500 0.000000
53.453600 0.000000
53.501800 0.000000
53.549900 0.000000
53.598000 0.000000
53.646100 0.000000
53.694200 0.000000
53.742400 0.000000
53.790500 0.000000
53.838600 0.000000
53.886700 0.000000
53.934800 0.000000
53.982900 0.000000
54.031100 0.000000
54.079200 0.000000
54.127300 0.000000
54.175400 0.000000
54.223500 0.000000
54.271700 0.000000
54.319800 0.000000
54.367900 0.000000
54.416000 0.000000
54.464100 0.000000
54.512200 0.000000
54.560400 0.000000
54.608500 0.000000
54.656600 0.000000
54.704700 0.000000
54.752800 0.000000
e
