set title 'mp-19889 - Density of States'
set xlabel 'Energy (eV)'
set ylabel 'DOS (states/eV)'
set grid
set xrange [-10:10]
set yrange [0:61.954]
set xzeroaxis lt -1
set terminal png size 800,600
set output 'mp-19889_dos_gnuplot.png'
plot '-' using 1:2 with lines title 'DOS'
-35.287600 0.000000
-35.249300 0.000000
-35.210900 0.000000
-35.172600 0.000000
-35.134300 0.000000
-35.096000 0.000000
-35.057700 0.000000
-35.019400 0.000000
-34.981100 0.000000
-34.942800 0.000000
-34.904400 0.000000
-34.866100 0.000000
-34.827800 0.000000
-34.789500 0.000000
-34.751200 0.000000
-34.712900 0.000000
-34.674600 0.000000
-34.636300 0.000000
-34.597900 0.000000
-34.559600 0.000000
-34.521300 0.000000
-34.483000 0.000000
-34.444700 0.000000
-34.406400 0.000000
-34.368100 0.000000
-34.329800 0.000000
-34.291400 0.000000
-34.253100 0.000000
-34.214800 0.000000
-34.176500 0.000000
-34.138200 0.000000
-34.099900 0.000000
-34.061600 0.000000
-34.023300 0.000000
-33.984900 0.000000
-33.946600 0.000000
-33.908300 0.000000
-33.870000 0.000000
-33.831700 0.000000
-33.793400 0.000000
-33.755100 0.000000
-33.716800 0.000000
-33.678400 0.000000
-33.640100 0.000000
-33.601800 0.000000
-33.563500 0.000000
-33.525200 0.000000
-33.486900 0.000000
-33.448600 0.000000
-33.410300 0.000000
-33.371900 0.000000
-33.333600 0.000000
-33.295300 0.000000
-33.257000 0.000000
-33.218700 0.000000
-33.180400 0.000000
-33.142100 0.000000
-33.103800 0.000000
-33.065500 0.000000
-33.027100 0.000000
-32.988800 0.000000
-32.950500 0.000000
-32.912200 0.000000
-32.873900 0.000000
-32.835600 0.000000
-32.797300 0.000000
-32.759000 0.000000
-32.720600 0.000000
-32.682300 0.000000
-32.644000 0.000000
-32.605700 0.000000
-32.567400 0.000000
-32.529100 0.000000
-32.490800 0.000000
-32.452500 0.000000
-32.414100 0.000000
-32.375800 0.000000
-32.337500 0.000000
-32.299200 0.000000
-32.260900 0.000000
-32.222600 0.000000
-32.184300 0.000000
-32.146000 0.000000
-32.107600 0.000000
-32.069300 0.000000
-32.031000 0.000000
-31.992700 0.000000
-31.954400 0.000000
-31.916100 0.000000
-31.877800 0.000000
-31.839500 0.000000
-31.801100 6.471300
-31.762800 16.718500
-31.724500 18.161000
-31.686200 9.266200
-31.647900 0.000000
-31.609600 0.000000
-31.571300 0.000000
-31.533000 0.000000
-31.494600 0.000000
-31.456300 0.000000
-31.418000 0.000000
-31.379700 0.000000
-31.341400 0.000000
-31.303100 0.000000
-31.264800 0.000000
-31.226500 0.000000
-31.188100 0.000000
-31.149800 0.000000
-31.111500 0.000000
-31.073200 0.000000
-31.034900 0.000000
-30.996600 0.000000
-30.958300 0.000000
-30.920000 0.000000
-30.881600 0.000000
-30.843300 0.000000
-30.805000 0.000000
-30.766700 0.000000
-30.728400 0.000000
-30.690100 0.000000
-30.651800 0.000000
-30.613500 0.000000
-30.575200 0.000000
-30.536800 0.000000
-30.498500 0.000000
-30.460200 0.000000
-30.421900 0.000000
-30.383600 0.000000
-30.345300 0.000000
-30.307000 0.000000
-30.268700 0.000000
-30.230300 0.000000
-30.192000 0.000000
-30.153700 0.000000
-30.115400 0.000000
-30.077100 0.000000
-30.038800 0.000000
-30.000500 0.000000
-29.962200 0.000000
-29.923800 0.000000
-29.885500 0.000000
-29.847200 0.000000
-29.808900 0.000000
-29.770600 0.000000
-29.732300 0.000000
-29.694000 0.000000
-29.655700 0.000000
-29.617300 0.000000
-29.579000 0.000000
-29.540700 0.000000
-29.502400 0.000000
-29.464100 0.000000
-29.425800 0.000000
-29.387500 0.000000
-29.349200 0.000000
-29.310800 0.000000
-29.272500 0.000000
-29.234200 0.000000
-29.195900 0.000000
-29.157600 0.000000
-29.119300 0.000000
-29.081000 0.000000
-29.042700 0.000000
-29.004300 0.000000
-28.966000 0.000000
-28.927700 0.000000
-28.889400 0.000000
-28.851100 0.000000
-28.812800 0.000000
-28.774500 0.000000
-28.736200 0.000000
-28.697800 0.000000
-28.659500 0.000000
-28.621200 0.000000
-28.582900 0.000000
-28.544600 0.000000
-28.506300 0.000000
-28.468000 0.000000
-28.429700 0.000000
-28.391300 0.000000
-28.353000 0.000000
-28.314700 0.000000
-28.276400 0.000000
-28.238100 0.000000
-28.199800 0.000000
-28.161500 0.000000
-28.123200 0.000000
-28.084900 0.000000
-28.046500 0.000000
-28.008200 0.000000
-27.969900 0.000000
-27.931600 0.000000
-27.893300 0.000000
-27.855000 0.000000
-27.816700 0.000000
-27.778400 0.000000
-27.740000 0.000000
-27.701700 0.000000
-27.663400 0.000000
-27.625100 0.000000
-27.586800 0.000000
-27.548500 0.000000
-27.510200 0.000000
-27.471900 0.000000
-27.433500 0.000000
-27.395200 0.000000
-27.356900 0.000000
-27.318600 0.000000
-27.280300 0.000000
-27.242000 0.000000
-27.203700 0.000000
-27.165400 0.000000
-27.127000 0.000000
-27.088700 0.000000
-27.050400 0.000000
-27.012100 0.000000
-26.973800 0.000000
-26.935500 0.000000
-26.897200 0.000000
-26.858900 0.000000
-26.820500 0.000000
-26.782200 0.000000
-26.743900 0.000000
-26.705600 0.000000
-26.667300 0.000000
-26.629000 0.000000
-26.590700 0.000000
-26.552400 0.000000
-26.514000 0.000000
-26.475700 0.000000
-26.437400 0.000000
-26.399100 0.000000
-26.360800 0.000000
-26.322500 0.000000
-26.284200 0.000000
-26.245900 0.000000
-26.207500 0.000000
-26.169200 0.000000
-26.130900 0.000000
-26.092600 0.000000
-26.054300 0.000000
-26.016000 0.000000
-25.977700 0.000000
-25.939400 0.000000
-25.901000 0.000000
-25.862700 0.000000
-25.824400 0.000000
-25.786100 0.000000
-25.747800 0.000000
-25.709500 0.000000
-25.671200 0.000000
-25.632900 0.000000
-25.594600 0.000000
-25.556200 0.000000
-25.517900 0.000000
-25.479600 0.000000
-25.441300 0.000000
-25.403000 0.000000
-25.364700 0.000000
-25.326400 0.000000
-25.288100 0.000000
-25.249700 0.000000
-25.211400 0.000000
-25.173100 0.000000
-25.134800 0.000000
-25.096500 0.000000
-25.058200 0.000000
-25.019900 0.000000
-24.981600 0.000000
-24.943200 0.000000
-24.904900 0.000000
-24.866600 0.000000
-24.828300 0.000000
-24.790000 0.000000
-24.751700 0.000000
-24.713400 0.000000
-24.675100 0.000000
-24.636700 0.000000
-24.598400 0.000000
-24.560100 0.000000
-24.521800 0.000000
-24.483500 0.000000
-24.445200 0.000000
-24.406900 0.000000
-24.368600 0.000000
-24.330200 0.000000
-24.291900 0.000000
-24.253600 0.000000
-24.215300 0.000000
-24.177000 0.000000
-24.138700 0.000000
-24.100400 0.000000
-24.062100 0.000000
-24.023700 0.000000
-23.985400 0.000000
-23.947100 0.000000
-23.908800 0.000000
-23.870500 0.000000
-23.832200 0.000000
-23.793900 0.000000
-23.755600 0.000000
-23.717200 0.000000
-23.678900 0.000000
-23.640600 0.000000
-23.602300 0.000000
-23.564000 0.000000
-23.525700 0.000000
-23.487400 0.000000
-23.449100 0.000000
-23.410800 0.000000
-23.372400 0.000000
-23.334100 0.000000
-23.295800 0.000000
-23.257500 0.000000
-23.219200 0.000000
-23.180900 0.000000
-23.142600 0.000000
-23.104300 0.000000
-23.065900 0.000000
-23.027600 0.000000
-22.989300 0.000000
-22.951000 0.000000
-22.912700 0.000000
-22.874400 0.000000
-22.836100 0.000000
-22.797800 0.000000
-22.759400 0.000000
-22.721100 0.000000
-22.682800 0.000000
-22.644500 0.000000
-22.606200 0.000000
-22.567900 0.000000
-22.529600 0.000000
-22.491300 0.000000
-22.452900 0.000000
-22.414600 0.000000
-22.376300 0.000000
-22.338000 0.000000
-22.299700 0.000000
-22.261400 0.000000
-22.223100 0.000000
-22.184800 0.000000
-22.146400 0.000000
-22.108100 0.000000
-22.069800 0.000000
-22.031500 0.000000
-21.993200 0.000000
-21.954900 0.000000
-21.916600 0.000000
-21.878300 0.000000
-21.839900 0.000000
-21.801600 0.000000
-21.763300 0.000000
-21.725000 0.000000
-21.686700 0.000000
-21.648400 0.000000
-21.610100 0.000000
-21.571800 0.000000
-21.533400 0.000000
-21.495100 0.000000
-21.456800 0.000000
-21.418500 0.000000
-21.380200 0.000000
-21.341900 0.000000
-21.303600 0.000000
-21.265300 0.000000
-21.226900 0.000000
-21.188600 0.000000
-21.150300 0.000000
-21.112000 0.000000
-21.073700 0.000000
-21.035400 0.000000
-20.997100 0.000000
-20.958800 0.000000
-20.920500 0.000000
-20.882100 0.000000
-20.843800 0.000000
-20.805500 0.000000
-20.767200 0.000000
-20.728900 0.000000
-20.690600 0.000000
-20.652300 0.000000
-20.614000 0.000000
-20.575600 0.000000
-20.537300 0.000000
-20.499000 0.000000
-20.460700 0.000000
-20.422400 0.000000
-20.384100 0.000000
-20.345800 0.000000
-20.307500 0.000000
-20.269100 0.000000
-20.230800 0.000000
-20.192500 0.000000
-20.154200 0.000000
-20.115900 0.000000
-20.077600 0.000000
-20.039300 0.000000
-20.001000 0.000000
-19.962600 0.000000
-19.924300 0.000000
-19.886000 0.000000
-19.847700 0.000000
-19.809400 0.000000
-19.771100 0.000000
-19.732800 0.000000
-19.694500 0.000000
-19.656100 0.000000
-19.617800 0.000000
-19.579500 0.000000
-19.541200 0.000000
-19.502900 0.000000
-19.464600 0.000000
-19.426300 0.000000
-19.388000 0.000000
-19.349600 0.000000
-19.311300 0.000000
-19.273000 0.000000
-19.234700 0.000000
-19.196400 0.000000
-19.158100 0.000000
-19.119800 0.000000
-19.081500 0.000000
-19.043100 0.000000
-19.004800 0.000000
-18.966500 0.000000
-18.928200 0.000000
-18.889900 0.000000
-18.851600 0.000000
-18.813300 0.000000
-18.775000 0.000000
-18.736600 0.000000
-18.698300 0.000000
-18.660000 0.000000
-18.621700 0.000000
-18.583400 0.000000
-18.545100 0.000000
-18.506800 0.000000
-18.468500 0.000000
-18.430200 0.000000
-18.391800 0.000000
-18.353500 0.000000
-18.315200 0.000000
-18.276900 0.000000
-18.238600 0.000000
-18.200300 0.000000
-18.162000 0.000000
-18.123700 0.000000
-18.085300 0.000000
-18.047000 0.000000
-18.008700 0.000000
-17.970400 0.000000
-17.932100 0.000000
-17.893800 0.000000
-17.855500 0.000000
-17.817200 0.000000
-17.778800 0.000000
-17.740500 0.000000
-17.702200 0.000000
-17.663900 0.000000
-17.625600 0.000000
-17.587300 0.000000
-17.549000 0.000000
-17.510700 0.000000
-17.472300 0.000000
-17.434000 0.000000
-17.395700 0.000000
-17.357400 0.000000
-17.319100 0.000000
-17.280800 0.000000
-17.242500 0.000000
-17.204200 0.000000
-17.165800 0.000000
-17.127500 0.000000
-17.089200 0.000000
-17.050900 0.000000
-17.012600 0.000000
-16.974300 0.000000
-16.936000 0.000000
-16.897700 0.000000
-16.859300 0.000000
-16.821000 0.000000
-16.782700 0.000000
-16.744400 0.000000
-16.706100 0.000000
-16.667800 0.000000
-16.629500 0.000000
-16.591200 0.000000
-16.552800 0.000000
-16.514500 0.000000
-16.476200 0.000000
-16.437900 0.000000
-16.399600 0.000000
-16.361300 0.000000
-16.323000 0.000000
-16.284700 0.000000
-16.246300 0.000000
-16.208000 0.000000
-16.169700 0.000000
-16.131400 0.000000
-16.093100 0.000000
-16.054800 0.000000
-16.016500 0.000000
-15.978200 0.000000
-15.939900 0.000000
-15.901500 0.000000
-15.863200 0.000000
-15.824900 0.000000
-15.786600 0.000000
-15.748300 0.000000
-15.710000 0.000000
-15.671700 0.000000
-15.633400 0.000000
-15.595000 0.000000
-15.556700 0.000000
-15.518400 0.000000
-15.480100 0.000000
-15.441800 0.000000
-15.403500 0.000000
-15.365200 0.000000
-15.326900 0.000000
-15.288500 0.000000
-15.250200 0.000000
-15.211900 0.000000
-15.173600 0.000000
-15.135300 0.000000
-15.097000 0.000000
-15.058700 0.000000
-15.020400 0.000000
-14.982000 0.000000
-14.943700 0.000000
-14.905400 0.000000
-14.867100 0.000000
-14.828800 0.000000
-14.790500 0.000000
-14.752200 0.000000
-14.713900 0.000000
-14.675500 0.000000
-14.637200 0.000000
-14.598900 0.000000
-14.560600 0.000000
-14.522300 0.000000
-14.484000 0.000000
-14.445700 0.000000
-14.407400 0.000000
-14.369000 0.000000
-14.330700 0.000000
-14.292400 0.000000
-14.254100 0.000000
-14.215800 0.000000
-14.177500 0.000000
-14.139200 0.000000
-14.100900 0.000000
-14.062500 0.000000
-14.024200 0.000000
-13.985900 0.000000
-13.947600 0.000000
-13.909300 0.000000
-13.871000 0.000000
-13.832700 0.000000
-13.794400 0.000000
-13.756000 0.000000
-13.717700 0.000000
-13.679400 0.000000
-13.641100 0.000000
-13.602800 0.000000
-13.564500 0.000000
-13.526200 0.000000
-13.487900 0.000000
-13.449600 0.000000
-13.411200 0.000000
-13.372900 0.000000
-13.334600 0.000000
-13.296300 0.000000
-13.258000 0.000000
-13.219700 0.000000
-13.181400 0.000000
-13.143100 0.000000
-13.104700 0.000000
-13.066400 0.000000
-13.028100 0.000000
-12.989800 0.000000
-12.951500 0.000000
-12.913200 0.000000
-12.874900 0.000000
-12.836600 0.000000
-12.798200 0.000000
-12.759900 0.000000
-12.721600 0.000000
-12.683300 0.000000
-12.645000 0.000000
-12.606700 0.000000
-12.568400 0.000000
-12.530100 0.000000
-12.491700 0.000000
-12.453400 0.000000
-12.415100 0.000000
-12.376800 0.000000
-12.338500 0.000000
-12.300200 0.000000
-12.261900 0.000000
-12.223600 0.000000
-12.185200 0.000000
-12.146900 0.000000
-12.108600 0.000000
-12.070300 0.000000
-12.032000 0.000000
-11.993700 0.000000
-11.955400 0.000000
-11.917100 0.000000
-11.878700 0.000000
-11.840400 0.000000
-11.802100 0.000000
-11.763800 0.000000
-11.725500 0.000000
-11.687200 0.000000
-11.648900 0.000000
-11.610600 0.000000
-11.572200 0.000000
-11.533900 0.000000
-11.495600 0.000000
-11.457300 0.000000
-11.419000 0.000000
-11.380700 0.000000
-11.342400 0.000000
-11.304100 0.000000
-11.265800 0.000000
-11.227400 0.000000
-11.189100 0.000000
-11.150800 0.000000
-11.112500 0.000000
-11.074200 0.000000
-11.035900 0.000000
-10.997600 0.000000
-10.959300 0.000000
-10.920900 0.000000
-10.882600 0.000000
-10.844300 0.000000
-10.806000 0.000000
-10.767700 0.000000
-10.729400 0.000000
-10.691100 0.000000
-10.652800 0.000000
-10.614400 0.000000
-10.576100 0.000000
-10.537800 0.000000
-10.499500 0.318500
-10.461200 1.351800
-10.422900 2.571700
-10.384600 5.146300
-10.346300 5.486000
-10.307900 5.283300
-10.269600 5.059400
-10.231300 4.072200
-10.193000 4.172900
-10.154700 4.799000
-10.116400 7.806900
-10.078100 6.176400
-10.039800 8.865900
-10.001400 27.450200
-9.963100 8.222700
-9.924800 5.561500
-9.886500 3.965500
-9.848200 3.810600
-9.809900 4.998700
-9.771600 3.639800
-9.733300 2.818800
-9.694900 2.442700
-9.656600 2.715100
-9.618300 2.851500
-9.580000 2.900900
-9.541700 3.062900
-9.503400 3.587300
-9.465100 4.334300
-9.426800 4.686200
-9.388400 5.004300
-9.350100 5.691700
-9.311800 2.199000
-9.273500 1.042400
-9.235200 0.394300
-9.196900 0.011200
-9.158600 0.000000
-9.120300 0.000000
-9.081900 0.000000
-9.043600 0.000000
-9.005300 0.000000
-8.967000 0.000000
-8.928700 0.000000
-8.890400 0.000000
-8.852100 4.944200
-8.813800 11.022700
-8.775500 24.844900
-8.737100 34.290700
-8.698800 56.321800
-8.660500 38.819300
-8.622200 37.674800
-8.583900 39.796400
-8.545600 5.008800
-8.507300 0.000000
-8.469000 0.000000
-8.430600 0.000000
-8.392300 0.000000
-8.354000 0.000000
-8.315700 0.000000
-8.277400 0.000000
-8.239100 0.000000
-8.200800 0.000000
-8.162500 0.000000
-8.124100 0.000000
-8.085800 0.000000
-8.047500 0.000000
-8.009200 0.000000
-7.970900 0.000000
-7.932600 0.000000
-7.894300 0.000000
-7.856000 0.000000
-7.817600 0.000000
-7.779300 0.000000
-7.741000 0.000000
-7.702700 0.000000
-7.664400 0.000000
-7.626100 0.000000
-7.587800 0.000000
-7.549500 0.000000
-7.511100 0.000000
-7.472800 0.000000
-7.434500 0.000000
-7.396200 0.000000
-7.357900 0.000000
-7.319600 0.000000
-7.281300 0.000000
-7.243000 0.000000
-7.204600 0.000000
-7.166300 0.000000
-7.128000 0.000000
-7.089700 0.000000
-7.051400 0.000000
-7.013100 0.000000
-6.974800 0.000000
-6.936500 0.000000
-6.898100 0.000000
-6.859800 0.000000
-6.821500 0.000000
-6.783200 0.000000
-6.744900 0.000000
-6.706600 0.000000
-6.668300 0.000000
-6.630000 0.000000
-6.591600 0.000000
-6.553300 0.000000
-6.515000 0.000000
-6.476700 0.000000
-6.438400 0.000000
-6.400100 0.000000
-6.361800 0.000000
-6.323500 0.000000
-6.285200 0.000000
-6.246800 0.000000
-6.208500 0.000000
-6.170200 0.000000
-6.131900 0.000000
-6.093600 0.000000
-6.055300 0.000000
-6.017000 0.000000
-5.978700 0.000000
-5.940300 0.000000
-5.902000 0.000000
-5.863700 0.000000
-5.825400 0.000000
-5.787100 0.000000
-5.748800 0.000000
-5.710500 0.000000
-5.672200 0.000000
-5.633800 0.000000
-5.595500 0.000000
-5.557200 0.000000
-5.518900 0.000000
-5.480600 0.000000
-5.442300 0.000000
-5.404000 0.000000
-5.365700 0.000000
-5.327300 0.000000
-5.289000 0.000000
-5.250700 0.000000
-5.212400 0.000000
-5.174100 0.000000
-5.135800 0.000000
-5.097500 0.000000
-5.059200 0.000000
-5.020800 0.000000
-4.982500 0.000000
-4.944200 0.000000
-4.905900 0.000000
-4.867600 0.000000
-4.829300 0.000000
-4.791000 0.000000
-4.752700 0.000000
-4.714300 0.000000
-4.676000 0.000000
-4.637700 0.000000
-4.599400 0.000000
-4.561100 0.000000
-4.522800 0.000000
-4.484500 0.000000
-4.446200 0.000000
-4.407800 0.000000
-4.369500 0.000000
-4.331200 0.000000
-4.292900 0.000000
-4.254600 0.000000
-4.216300 0.000000
-4.178000 0.000000
-4.139700 0.000000
-4.101300 0.000000
-4.063000 0.000000
-4.024700 0.000000
-3.986400 0.000000
-3.948100 0.000000
-3.909800 0.000000
-3.871500 0.000000
-3.833200 0.000000
-3.794900 0.000000
-3.756500 0.000000
-3.718200 0.000000
-3.679900 0.000000
-3.641600 0.000000
-3.603300 0.000000
-3.565000 0.000000
-3.526700 0.000000
-3.488400 0.000000
-3.450000 0.000000
-3.411700 0.000000
-3.373400 0.000000
-3.335100 0.000000
-3.296800 0.000000
-3.258500 0.000000
-3.220200 0.000000
-3.181900 0.000000
-3.143500 0.000000
-3.105200 0.000000
-3.066900 0.000000
-3.028600 0.000000
-2.990300 0.000000
-2.952000 0.000000
-2.913700 0.000000
-2.875400 0.000000
-2.837000 0.000000
-2.798700 0.000000
-2.760400 0.000000
-2.722100 0.000000
-2.683800 0.000000
-2.645500 0.000000
-2.607200 0.000000
-2.568900 0.000000
-2.530500 0.000000
-2.492200 0.000000
-2.453900 0.000000
-2.415600 0.000000
-2.377300 0.000000
-2.339000 0.000000
-2.300700 0.000000
-2.262400 0.000000
-2.224000 0.000000
-2.185700 0.000200
-2.147400 0.010600
-2.109100 0.036800
-2.070800 0.073500
-2.032500 0.097900
-1.994200 0.106600
-1.955900 0.112800
-1.917500 0.126100
-1.879200 0.144000
-1.840900 0.163200
-1.802600 0.180900
-1.764300 0.193600
-1.726000 0.202300
-1.687700 0.214700
-1.649400 0.230100
-1.611000 0.244700
-1.572700 0.259400
-1.534400 0.274200
-1.496100 0.289400
-1.457800 0.308700
-1.419500 0.331000
-1.381200 0.352200
-1.342900 0.373100
-1.304600 0.395400
-1.266200 0.417800
-1.227900 0.440600
-1.189600 0.466600
-1.151300 0.506200
-1.113000 0.543500
-1.074700 0.581700
-1.036400 0.622500
-0.998100 0.665600
-0.959700 0.732100
-0.921400 0.862900
-0.883100 1.013300
-0.844800 1.184400
-0.806500 1.420400
-0.768200 1.515800
-0.729900 1.600900
-0.691600 1.769700
-0.653200 1.852900
-0.614900 1.659200
-0.576600 1.535600
-0.538300 1.504000
-0.500000 1.469800
-0.461700 1.401100
-0.423400 1.363500
-0.385100 1.321100
-0.346700 1.294600
-0.308400 1.268900
-0.270100 1.255300
-0.231800 1.222000
-0.193500 1.192800
-0.155200 1.169400
-0.116900 1.240200
-0.078600 1.193500
-0.040200 1.041200
-0.001900 0.946900
0.036400 0.931700
0.074700 0.877700
0.113000 0.834900
0.151300 0.791700
0.189600 0.815900
0.227900 0.756300
0.266300 0.760000
0.304600 0.698600
0.342900 0.470300
0.381200 0.390900
0.419500 0.338000
0.457800 0.287200
0.496100 0.236100
0.534400 0.210000
0.572800 0.181900
0.611100 0.150600
0.649400 0.124500
0.687700 0.104300
0.726000 0.085800
0.764300 0.068900
0.802600 0.053600
0.840900 0.051300
0.879200 0.000000
0.917600 0.000000
0.955900 0.000000
0.994200 0.000000
1.032500 0.000000
1.070800 0.000000
1.109100 0.000000
1.147400 0.000000
1.185700 0.000000
1.224100 0.000000
1.262400 0.000000
1.300700 0.000000
1.339000 0.000000
1.377300 0.000000
1.415600 0.000000
1.453900 0.000000
1.492200 0.000000
1.530600 0.000000
1.568900 0.000000
1.607200 0.000000
1.645500 0.000000
1.683800 0.000000
1.722100 0.000000
1.760400 0.000000
1.798700 0.000000
1.837100 0.000000
1.875400 0.000000
1.913700 0.000000
1.952000 0.000000
1.990300 0.000000
2.028600 0.000000
2.066900 0.000000
2.105200 0.000000
2.143600 0.000000
2.181900 0.000000
2.220200 0.000000
2.258500 0.000000
2.296800 0.000000
2.335100 0.000000
2.373400 0.000000
2.411700 0.000000
2.450100 0.000000
2.488400 0.000000
2.526700 0.000000
2.565000 0.000000
2.603300 0.000000
2.641600 0.000000
2.679900 0.000000
2.718200 0.000000
2.756600 0.000000
2.794900 0.000000
2.833200 0.000000
2.871500 0.000000
2.909800 0.000000
2.948100 0.000000
2.986400 0.000000
3.024700 0.000000
3.063100 0.000000
3.101400 0.000000
3.139700 0.000000
3.178000 0.000000
3.216300 0.000000
3.254600 0.000000
3.292900 0.000000
3.331200 0.000300
3.369500 0.002700
3.407900 0.007400
3.446200 0.014600
3.484500 0.023700
3.522800 0.032700
3.561100 0.058800
3.599400 0.094900
3.637700 0.132400
3.676000 0.157500
3.714400 0.162400
3.752700 0.166300
3.791000 0.175000
3.829300 0.192600
3.867600 0.212000
3.905900 0.231900
3.944200 0.251600
3.982500 0.270500
4.020900 0.286300
4.059200 0.301000
4.097500 0.315700
4.135800 0.335800
4.174100 0.357300
4.212400 0.376800
4.250700 0.395100
4.289000 0.413500
4.327400 0.431800
4.365700 0.449400
4.404000 0.467500
4.442300 0.489900
4.480600 0.514400
4.518900 0.585900
4.557200 0.709100
4.595500 0.783900
4.633900 0.866300
4.672200 0.968400
4.710500 1.060900
4.748800 1.108600
4.787100 1.209600
4.825400 1.328900
4.863700 1.468500
4.902000 1.619500
4.940400 1.814900
4.978700 1.945600
5.017000 1.956600
5.055300 1.982900
5.093600 2.008800
5.131900 2.028200
5.170200 2.050400
5.208500 2.050700
5.246900 2.123300
5.285200 2.124000
5.323500 2.110800
5.361800 2.169400
5.400100 2.088400
5.438400 1.941000
5.476700 1.765000
5.515000 1.564000
5.553400 1.447600
5.591700 1.343300
5.630000 1.273100
5.668300 1.202200
5.706600 1.145600
5.744900 1.106500
5.783200 1.080500
5.821500 1.093600
5.859800 1.166200
5.898200 1.272900
5.936500 1.418500
5.974800 1.555900
6.013100 1.797700
6.051400 1.941700
6.089700 1.902200
6.128000 1.912400
6.166300 1.897700
6.204700 1.896800
6.243000 1.890100
6.281300 1.890400
6.319600 1.891500
6.357900 1.885900
6.396200 1.882400
6.434500 1.844300
6.472800 1.777600
6.511200 1.656600
6.549500 1.444500
6.587800 1.421700
6.626100 1.291100
6.664400 1.155700
6.702700 1.015000
6.741000 0.956600
6.779300 0.966100
6.817700 1.073000
6.856000 1.308200
6.894300 1.562600
6.932600 1.769700
6.970900 1.948200
7.009200 1.881500
7.047500 1.733700
7.085800 1.676400
7.124200 1.685400
7.162500 1.658800
7.200800 1.682400
7.239100 1.922100
7.277400 2.026700
7.315700 1.945300
7.354000 1.993000
7.392300 2.147100
7.430700 2.224700
7.469000 2.252200
7.507300 2.216700
7.545600 2.227800
7.583900 2.214800
7.622200 2.132300
7.660500 2.054900
7.698800 1.998100
7.737200 1.892500
7.775500 1.769500
7.813800 1.606200
7.852100 1.392400
7.890400 1.199700
7.928700 1.029000
7.967000 0.872200
8.005300 0.743600
8.043700 0.688400
8.082000 0.854600
8.120300 1.064800
8.158600 1.206400
8.196900 1.396000
8.235200 1.555000
8.273500 1.733200
8.311800 1.906400
8.350100 2.180000
8.388500 2.586900
8.426800 2.732700
8.465100 2.795200
8.503400 2.773600
8.541700 3.147400
8.580000 3.521200
8.618300 3.007600
8.656600 3.022300
8.695000 3.053400
8.733300 3.046300
8.771600 3.093600
8.809900 3.017600
8.848200 3.281200
8.886500 3.664600
8.924800 4.311900
8.963100 4.961100
9.001500 5.682200
9.039800 6.843500
9.078100 6.581400
9.116400 6.583600
9.154700 7.509300
9.193000 8.259900
9.231300 8.258600
9.269600 8.266800
9.308000 9.972900
9.346300 7.910800
9.384600 7.917400
9.422900 9.823700
9.461200 13.814900
9.499500 11.235800
9.537800 7.759900
9.576100 6.473100
9.614500 6.773800
9.652800 6.468300
9.691100 5.317300
9.729400 5.416000
9.767700 6.094400
9.806000 8.493400
9.844300 7.832300
9.882600 8.015600
9.921000 11.214100
9.959300 10.776200
9.997600 8.996700
10.035900 4.734900
10.074200 4.977400
10.112500 5.024900
10.150800 5.932500
10.189100 8.247800
10.227500 14.692200
10.265800 17.458500
10.304100 13.117700
10.342400 5.747900
10.380700 5.346700
10.419000 4.249700
10.457300 3.570500
10.495600 3.595500
10.533900 4.035400
10.572300 6.904000
10.610600 7.572800
10.648900 7.440600
10.687200 5.390600
10.725500 4.546400
10.763800 4.437900
10.802100 3.843600
10.840400 3.486400
10.878800 3.567200
10.917100 3.842200
10.955400 4.115400
10.993700 4.311000
11.032000 4.026100
11.070300 3.894100
11.108600 3.722800
11.146900 3.549900
11.185300 3.607100
11.223600 3.659400
11.261900 3.682600
11.300200 3.734000
11.338500 4.013100
11.376800 3.667300
11.415100 3.110800
11.453400 2.716600
11.491800 2.478300
11.530100 2.361500
11.568400 2.330600
11.606700 2.280400
11.645000 2.317900
11.683300 2.333800
11.721600 2.392200
11.759900 2.788400
11.798300 2.191900
11.836600 1.940500
11.874900 1.817400
11.913200 1.721200
11.951500 1.597500
11.989800 1.438700
12.028100 1.271000
12.066400 1.217000
12.104800 1.191700
12.143100 1.203600
12.181400 1.198500
12.219700 1.200600
12.258000 1.195300
12.296300 1.200000
12.334600 1.220300
12.372900 1.226900
12.411300 1.226700
12.449600 1.234900
12.487900 1.258600
12.526200 1.301900
12.564500 1.317000
12.602800 1.332000
12.641100 1.337800
12.679400 1.334800
12.717800 1.321700
12.756100 1.305300
12.794400 1.268000
12.832700 1.237100
12.871000 1.211400
12.909300 1.186100
12.947600 1.139200
12.985900 1.109200
13.024200 1.088400
13.062600 1.071700
13.100900 1.057700
13.139200 1.050600
13.177500 1.058500
13.215800 1.071200
13.254100 1.084900
13.292400 1.096200
13.330700 1.113000
13.369100 1.147600
13.407400 1.201900
13.445700 1.255100
13.484000 1.241100
13.522300 1.213200
13.560600 1.192500
13.598900 1.178200
13.637200 1.164000
13.675600 1.173800
13.713900 1.181100
13.752200 1.173300
13.790500 1.150600
13.828800 1.215900
13.867100 1.068100
13.905400 1.039400
13.943700 1.060800
13.982100 1.086900
14.020400 1.122900
14.058700 1.198300
14.097000 1.270200
14.135300 1.348700
14.173600 1.437000
14.211900 1.530100
14.250200 1.623500
14.288600 1.743500
14.326900 1.917800
14.365200 2.124800
14.403500 2.196200
14.441800 2.169000
14.480100 2.017800
14.518400 2.004600
14.556700 2.028500
14.595100 1.981900
14.633400 1.914100
14.671700 1.843800
14.710000 1.799300
14.748300 1.820800
14.786600 1.878500
14.824900 1.904100
14.863200 1.817000
14.901600 1.702400
14.939900 1.613000
14.978200 1.544200
15.016500 1.482200
15.054800 1.393900
15.093100 1.257600
15.131400 1.169900
15.169700 1.093300
15.208100 1.030700
15.246400 1.069700
15.284700 1.151000
15.323000 1.463900
15.361300 1.491000
15.399600 1.544300
15.437900 1.575600
15.476200 1.618200
15.514500 1.686900
15.552900 1.784800
15.591200 1.888600
15.629500 2.058600
15.667800 2.087300
15.706100 2.193500
15.744400 2.361200
15.782700 2.958500
15.821000 3.627500
15.859400 2.437800
15.897700 2.216800
15.936000 2.018700
15.974300 1.963000
16.012600 1.722100
16.050900 1.345400
16.089200 1.232100
16.127500 1.195200
16.165900 1.554300
16.204200 1.179800
16.242500 1.146900
16.280800 1.065800
16.319100 1.082000
16.357400 0.994100
16.395700 0.975300
16.434000 0.977200
16.472400 0.999600
16.510700 1.018100
16.549000 1.024000
16.587300 1.023800
16.625600 1.038000
16.663900 1.062700
16.702200 1.138600
16.740500 1.123500
16.778900 1.165300
16.817200 1.208600
16.855500 1.281700
16.893800 1.396000
16.932100 1.428600
16.970400 1.439800
17.008700 1.466000
17.047000 1.522800
17.085400 1.630800
17.123700 1.762700
17.162000 1.790100
17.200300 1.839900
17.238600 1.899100
17.276900 1.950900
17.315200 1.990400
17.353500 1.996000
17.391900 2.004700
17.430200 2.049600
17.468500 2.106000
17.506800 2.021800
17.545100 1.882400
17.583400 1.684600
17.621700 1.598000
17.660000 1.548900
17.698400 1.580100
17.736700 1.570900
17.775000 1.604200
17.813300 1.608000
17.851600 1.646100
17.889900 1.684200
17.928200 1.774900
17.966500 1.759800
18.004800 1.705200
18.043200 1.631700
18.081500 1.540800
18.119800 1.476700
18.158100 1.417300
18.196400 1.336500
18.234700 1.264400
18.273000 1.210700
18.311300 1.197700
18.349700 1.190200
18.388000 1.182800
18.426300 1.186600
18.464600 1.207100
18.502900 1.223900
18.541200 1.240100
18.579500 1.261300
18.617800 1.289700
18.656200 1.349800
18.694500 1.417700
18.732800 1.558800
18.771100 1.697600
18.809400 1.794200
18.847700 1.831400
18.886000 1.843500
18.924300 1.708700
18.962700 1.584300
19.001000 1.492800
19.039300 1.426000
19.077600 1.336000
19.115900 1.281200
19.154200 1.237200
19.192500 1.201400
19.230800 1.187600
19.269200 1.208100
19.307500 1.276400
19.345800 1.369700
19.384100 1.650800
19.422400 1.523600
19.460700 1.561100
19.499000 1.583300
19.537300 1.603300
19.575700 1.606400
19.614000 1.599400
19.652300 1.631500
19.690600 1.673200
19.728900 1.710500
19.767200 1.846800
19.805500 1.734400
19.843800 1.712200
19.882200 1.685800
19.920500 1.647200
19.958800 1.647000
19.997100 1.638300
20.035400 1.575800
20.073700 1.541800
20.112000 1.525400
20.150300 1.463400
20.188700 1.450700
20.227000 1.452400
20.265300 1.494100
20.303600 1.603400
20.341900 1.732800
20.380200 1.855000
20.418500 2.068900
20.456800 2.340700
20.495100 2.505400
20.533500 2.614300
20.571800 2.657500
20.610100 2.650200
20.648400 2.558000
20.686700 2.263700
20.725000 1.921200
20.763300 1.532000
20.801600 1.338600
20.840000 1.280000
20.878300 1.400400
20.916600 1.610500
20.954900 1.629800
20.993200 1.725100
21.031500 1.868700
21.069800 1.968800
21.108100 2.018300
21.146500 2.018400
21.184800 2.024200
21.223100 2.072300
21.261400 2.171600
21.299700 2.261300
21.338000 2.398000
21.376300 2.613500
21.414600 2.807500
21.453000 2.699200
21.491300 2.612200
21.529600 2.372700
21.567900 2.110200
21.606200 1.919600
21.644500 1.798100
21.682800 1.765900
21.721100 1.754500
21.759500 1.812200
21.797800 1.834800
21.836100 1.902900
21.874400 2.041400
21.912700 2.153700
21.951000 2.108900
21.989300 2.207300
22.027600 2.182200
22.066000 2.214400
22.104300 2.324000
22.142600 2.370400
22.180900 2.084200
22.219200 2.049000
22.257500 2.030200
22.295800 2.017600
22.334100 1.998500
22.372500 1.998000
22.410800 2.047700
22.449100 2.036800
22.487400 2.028400
22.525700 2.095000
22.564000 2.106600
22.602300 2.123100
22.640600 2.151100
22.678900 2.182900
22.717300 2.220800
22.755600 2.288400
22.793900 2.360100
22.832200 2.346800
22.870500 2.400200
22.908800 2.382800
22.947100 2.341400
22.985400 2.351500
23.023800 2.406800
23.062100 2.340900
23.100400 2.236400
23.138700 2.142700
23.177000 2.076400
23.215300 2.027800
23.253600 1.943700
23.291900 1.874000
23.330300 1.842500
23.368600 1.830500
23.406900 1.831100
23.445200 1.813000
23.483500 1.799300
23.521800 1.840100
23.560100 1.890200
23.598400 1.939300
23.636800 2.015900
23.675100 2.062800
23.713400 2.100400
23.751700 2.135800
23.790000 2.143600
23.828300 2.130800
23.866600 2.122000
23.904900 2.159900
23.943300 2.206100
23.981600 2.262100
24.019900 2.215500
24.058200 2.273400
24.096500 2.573800
24.134800 2.209700
24.173100 2.228800
24.211400 2.262200
24.249800 2.345100
24.288100 2.309000
24.326400 2.351800
24.364700 2.289300
24.403000 2.214400
24.441300 2.180700
24.479600 2.167500
24.517900 2.150600
24.556300 2.198800
24.594600 2.315900
24.632900 2.337900
24.671200 2.347700
24.709500 2.374000
24.747800 2.405200
24.786100 3.074300
24.824400 2.411200
24.862800 2.358500
24.901100 2.226500
24.939400 2.218600
24.977700 2.155200
25.016000 2.039900
25.054300 1.951300
25.092600 1.861700
25.130900 1.760500
25.169200 1.667800
25.207600 1.656400
25.245900 1.632500
25.284200 1.630200
25.322500 1.577000
25.360800 1.575900
25.399100 1.564100
25.437400 1.553100
25.475700 1.607500
25.514100 1.665100
25.552400 1.711900
25.590700 1.772500
25.629000 1.903100
25.667300 2.076600
25.705600 2.119300
25.743900 2.116800
25.782200 2.100300
25.820600 1.885800
25.858900 1.928700
25.897200 2.050700
25.935500 2.197700
25.973800 2.341900
26.012100 2.443400
26.050400 2.453300
26.088700 2.464600
26.127100 2.462700
26.165400 2.373100
26.203700 2.551900
26.242000 2.671400
26.280300 2.754700
26.318600 2.808500
26.356900 3.012700
26.395200 3.026400
26.433600 2.914200
26.471900 2.873000
26.510200 2.676100
26.548500 2.480500
26.586800 2.434000
26.625100 2.432600
26.663400 2.320600
26.701700 2.141700
26.740100 2.041800
26.778400 2.038000
26.816700 2.062800
26.855000 2.129500
26.893300 2.260400
26.931600 2.417600
26.969900 2.455500
27.008200 2.527400
27.046600 2.488300
27.084900 2.461400
27.123200 2.479500
27.161500 2.548800
27.199800 2.494600
27.238100 2.473700
27.276400 2.529500
27.314700 2.512300
27.353100 2.506600
27.391400 2.541600
27.429700 2.570100
27.468000 2.632100
27.506300 2.764600
27.544600 2.635500
27.582900 2.392500
27.621200 2.003100
27.659500 1.568900
27.697900 1.368600
27.736200 1.455300
27.774500 1.511900
27.812800 1.695700
27.851100 2.080200
27.889400 2.585800
27.927700 2.826100
27.966000 2.924900
28.004400 2.956000
28.042700 3.040100
28.081000 3.064300
28.119300 3.000900
28.157600 2.802300
28.195900 2.654300
28.234200 2.552800
28.272500 2.366300
28.310900 2.218100
28.349200 2.151900
28.387500 2.148100
28.425800 2.151500
28.464100 2.222900
28.502400 2.281600
28.540700 2.351600
28.579000 2.415800
28.617400 2.462100
28.655700 2.351900
28.694000 2.327800
28.732300 2.254000
28.770600 2.214100
28.808900 2.156800
28.847200 2.101900
28.885500 2.050700
28.923900 1.996400
28.962200 2.012600
29.000500 2.012500
29.038800 2.051000
29.077100 2.004700
29.115400 2.007400
29.153700 1.994000
29.192000 1.979800
29.230400 2.058800
29.268700 2.325400
29.307000 2.240100
29.345300 2.174900
29.383600 2.138600
29.421900 2.139000
29.460200 2.167400
29.498500 2.193400
29.536900 2.253300
29.575200 2.392500
29.613500 2.504800
29.651800 2.481000
29.690100 2.429800
29.728400 2.361300
29.766700 2.345500
29.805000 2.379400
29.843400 2.539200
29.881700 2.657500
29.920000 2.576900
29.958300 2.436300
29.996600 2.317800
30.034900 2.398100
30.073200 2.335000
30.111500 2.233000
30.149800 2.140700
30.188200 2.062000
30.226500 2.005100
30.264800 2.006600
30.303100 2.139800
30.341400 2.240000
30.379700 2.302000
30.418000 2.307000
30.456300 2.318500
30.494700 2.291800
30.533000 2.219100
30.571300 2.256600
30.609600 2.347000
30.647900 2.306500
30.686200 2.300700
30.724500 2.361300
30.762800 2.512300
30.801200 2.413700
30.839500 2.376300
30.877800 2.403300
30.916100 2.413700
30.954400 2.437500
30.992700 2.419900
31.031000 2.438100
31.069300 2.505400
31.107700 2.553300
31.146000 2.572000
31.184300 2.550200
31.222600 2.506500
31.260900 2.483400
31.299200 2.454600
31.337500 2.408500
31.375800 2.386100
31.414200 2.418100
31.452500 2.460300
31.490800 2.537400
31.529100 2.650000
31.567400 2.679200
31.605700 2.789400
31.644000 2.953100
31.682300 3.176400
31.720700 2.968400
31.759000 2.738800
31.797300 2.576100
31.835600 2.499100
31.873900 2.481000
31.912200 2.482700
31.950500 2.489500
31.988800 2.505700
32.027200 2.489700
32.065500 2.562800
32.103800 2.569800
32.142100 2.533700
32.180400 2.446100
32.218700 2.387600
32.257000 2.373400
32.295300 2.435800
32.333700 2.502800
32.372000 2.588200
32.410300 2.671300
32.448600 2.754300
32.486900 2.707200
32.525200 2.608200
32.563500 2.528300
32.601800 2.482400
32.640100 2.495400
32.678500 2.488700
32.716800 2.566600
32.755100 2.607100
32.793400 2.677000
32.831700 2.677300
32.870000 2.746900
32.908300 2.918900
32.946600 3.099700
32.985000 3.243100
33.023300 3.344800
33.061600 3.579100
33.099900 3.404600
33.138200 3.165100
33.176500 3.011200
33.214800 2.878200
33.253100 2.740400
33.291500 2.694000
33.329800 2.650900
33.368100 2.652600
33.406400 2.677400
33.444700 2.758000
33.483000 2.812300
33.521300 2.880700
33.559600 2.766400
33.598000 2.784100
33.636300 2.919300
33.674600 3.312100
33.712900 3.409500
33.751200 3.259600
33.789500 3.260700
33.827800 3.386400
33.866100 3.135700
33.904500 2.935500
33.942800 2.860300
33.981100 2.765400
34.019400 2.674500
34.057700 2.589000
34.096000 2.629400
34.134300 2.784200
34.172600 2.641000
34.211000 2.640900
34.249300 2.616700
34.287600 2.669000
34.325900 2.717900
34.364200 2.824000
34.402500 2.860400
34.440800 3.024600
34.479100 2.783100
34.517500 2.476400
34.555800 2.299100
34.594100 2.162400
34.632400 2.089000
34.670700 2.042300
34.709000 2.016300
34.747300 2.003200
34.785600 2.011300
34.823900 2.038300
34.862300 2.078400
34.900600 2.097700
34.938900 2.125500
34.977200 2.212700
35.015500 2.282700
35.053800 2.328000
35.092100 2.394000
35.130400 2.431800
35.168800 2.473900
35.207100 2.548600
35.245400 2.626300
35.283700 2.676900
35.322000 2.830600
35.360300 2.976100
35.398600 2.959200
35.436900 2.961000
35.475300 3.013200
35.513600 2.734700
35.551900 2.510800
35.590200 2.285800
35.628500 1.977100
35.666800 1.843100
35.705100 1.680400
35.743400 1.827200
35.781800 1.829200
35.820100 1.928800
35.858400 1.897300
35.896700 1.863600
35.935000 1.909300
35.973300 1.957600
36.011600 2.029300
36.049900 2.048100
36.088300 2.092400
36.126600 2.151100
36.164900 2.143100
36.203200 2.151200
36.241500 2.100100
36.279800 1.999400
36.318100 1.861500
36.356400 1.662100
36.394800 1.323000
36.433100 1.006300
36.471400 0.824100
36.509700 0.734000
36.548000 0.683500
36.586300 0.598300
36.624600 0.568400
36.662900 0.562300
36.701300 0.543300
36.739600 0.526700
36.777900 0.520000
36.816200 0.517100
36.854500 0.524900
36.892800 0.575900
36.931100 0.498900
36.969400 0.455500
37.007800 0.431800
37.046100 0.423700
37.084400 0.435700
37.122700 0.431600
37.161000 0.382900
37.199300 0.304500
37.237600 0.235200
37.275900 0.206100
37.314200 0.185800
37.352600 0.166500
37.390900 0.146600
37.429200 0.126100
37.467500 0.105600
37.505800 0.087700
37.544100 0.069900
37.582400 0.052700
37.620700 0.039700
37.659100 0.028400
37.697400 0.018800
37.735700 0.010900
37.774000 0.005000
37.812300 0.001400
37.850600 0.000000
37.888900 0.000000
37.927200 0.000000
37.965600 0.000000
38.003900 0.000000
38.042200 0.000000
38.080500 0.000000
38.118800 0.000000
38.157100 0.000000
38.195400 0.000000
38.233700 0.000000
38.272100 0.000000
38.310400 0.000000
38.348700 0.000000
38.387000 0.000000
38.425300 0.000000
38.463600 0.000000
38.501900 0.000000
38.540200 0.000000
38.578600 0.000000
38.616900 0.000000
38.655200 0.000000
38.693500 0.000000
38.731800 0.000000
38.770100 0.000000
38.808400 0.000000
38.846700 0.000000
38.885100 0.000000
38.923400 0.000000
38.961700 0.000000
39.000000 0.000000
39.038300 0.000000
39.076600 0.000000
39.114900 0.000000
39.153200 0.000000
39.191600 0.000000
39.229900 0.000000
39.268200 0.000000
39.306500 0.000000
39.344800 0.000000
39.383100 0.000000
39.421400 0.000000
39.459700 0.000000
39.498100 0.000000
39.536400 0.000000
39.574700 0.000000
39.613000 0.000000
39.651300 0.000000
39.689600 0.000000
39.727900 0.000000
39.766200 0.000000
39.804500 0.000000
39.842900 0.000000
39.881200 0.000000
39.919500 0.000000
39.957800 0.000000
39.996100 0.000000
40.034400 0.000000
40.072700 0.000000
40.111000 0.000000
40.149400 0.000000
40.187700 0.000000
40.226000 0.000000
40.264300 0.000000
40.302600 0.000000
40.340900 0.000000
40.379200 0.000000
40.417500 0.000000
40.455900 0.000000
40.494200 0.000000
40.532500 0.000000
40.570800 0.000000
40.609100 0.000000
40.647400 0.000000
40.685700 0.000000
40.724000 0.000000
40.762400 0.000000
40.800700 0.000000
40.839000 0.000000
40.877300 0.000000
40.915600 0.000000
40.953900 0.000000
40.992200 0.000000
41.030500 0.000000
41.068900 0.000000
41.107200 0.000000
41.145500 0.000000
41.183800 0.000000
41.222100 0.000000
41.260400 0.000000
41.298700 0.000000
41.337000 0.000000
e
