set title 'mp-1018727 - Density of States'
set xlabel 'Energy (eV)'
set ylabel 'DOS (states/eV)'
set grid
set xrange [-10:10]
set yrange [0:17.765]
set xzeroaxis lt -1
set terminal png size 800,600
set output 'mp-1018727_dos_gnuplot.png'
plot '-' using 1:2 with lines title 'DOS'
-20.170700 0.000000
-20.152400 0.000000
-20.134100 0.000000
-20.115800 0.000000
-20.097500 0.000000
-20.079200 0.000000
-20.061000 0.000000
-20.042700 0.000000
-20.024400 0.000000
-20.006100 0.000000
-19.987800 0.000000
-19.969500 0.000000
-19.951200 0.000000
-19.932900 0.000000
-19.914600 0.000000
-19.896300 0.000000
-19.878000 0.000000
-19.859700 0.000000
-19.841400 0.000000
-19.823200 0.000000
-19.804900 0.000000
-19.786600 0.000000
-19.768300 0.000000
-19.750000 0.000000
-19.731700 0.000000
-19.713400 0.000000
-19.695100 0.000000
-19.676800 0.000000
-19.658500 0.000000
-19.640200 0.000000
-19.621900 0.000000
-19.603600 0.000000
-19.585400 0.000000
-19.567100 0.000000
-19.548800 0.000000
-19.530500 0.000000
-19.512200 0.000000
-19.493900 0.000000
-19.475600 0.000000
-19.457300 0.000000
-19.439000 0.000000
-19.420700 0.000000
-19.402400 0.000000
-19.384100 0.000000
-19.365800 0.000000
-19.347600 0.000000
-19.329300 0.000000
-19.311000 0.000000
-19.292700 0.000000
-19.274400 0.000000
-19.256100 0.000000
-19.237800 0.000000
-19.219500 0.000000
-19.201200 0.000000
-19.182900 0.000000
-19.164600 0.000000
-19.146300 0.000000
-19.128100 0.000000
-19.109800 0.000000
-19.091500 0.000000
-19.073200 0.000000
-19.054900 0.000000
-19.036600 0.000000
-19.018300 0.000000
-19.000000 0.000000
-18.981700 0.000000
-18.963400 0.000000
-18.945100 0.000000
-18.926800 0.000000
-18.908500 0.000000
-18.890300 0.000000
-18.872000 0.000000
-18.853700 0.000000
-18.835400 0.000000
-18.817100 0.000000
-18.798800 0.000000
-18.780500 0.000000
-18.762200 0.000000
-18.743900 0.000000
-18.725600 0.000000
-18.707300 0.000000
-18.689000 0.000000
-18.670700 0.000000
-18.652500 0.000000
-18.634200 0.000000
-18.615900 0.000000
-18.597600 0.000000
-18.579300 0.000000
-18.561000 0.000000
-18.542700 0.000000
-18.524400 0.000000
-18.506100 4.405700
-18.487800 30.357700
-18.469500 40.411600
-18.451200 34.907500
-18.432900 45.697600
-18.414700 44.973000
-18.396400 33.263000
-18.378100 59.705500
-18.359800 133.087600
-18.341500 55.640200
-18.323200 41.707500
-18.304900 62.769500
-18.286600 36.299700
-18.268300 0.000000
-18.250000 0.000000
-18.231700 0.000000
-18.213400 0.000000
-18.195200 0.000000
-18.176900 0.000000
-18.158600 0.000000
-18.140300 0.000000
-18.122000 0.000000
-18.103700 0.000000
-18.085400 0.000000
-18.067100 0.000000
-18.048800 0.000000
-18.030500 0.000000
-18.012200 0.000000
-17.993900 0.000000
-17.975600 0.000000
-17.957400 0.000000
-17.939100 0.000000
-17.920800 0.000000
-17.902500 0.000000
-17.884200 0.000000
-17.865900 0.000000
-17.847600 0.000000
-17.829300 0.000000
-17.811000 0.000000
-17.792700 0.000000
-17.774400 0.000000
-17.756100 0.000000
-17.737800 0.000000
-17.719600 0.000000
-17.701300 0.000000
-17.683000 0.000000
-17.664700 0.000000
-17.646400 0.000000
-17.628100 0.000000
-17.609800 0.000000
-17.591500 0.000000
-17.573200 0.000000
-17.554900 0.000000
-17.536600 0.000000
-17.518300 0.000000
-17.500000 0.000000
-17.481800 0.000000
-17.463500 0.000000
-17.445200 0.000000
-17.426900 0.000000
-17.408600 0.000000
-17.390300 0.000000
-17.372000 0.000000
-17.353700 0.000000
-17.335400 0.000000
-17.317100 0.000000
-17.298800 0.000000
-17.280500 0.000000
-17.262200 0.000000
-17.244000 0.000000
-17.225700 0.000000
-17.207400 0.000000
-17.189100 0.000000
-17.170800 0.000000
-17.152500 0.000000
-17.134200 0.000000
-17.115900 0.000000
-17.097600 0.000000
-17.079300 0.000000
-17.061000 0.000000
-17.042700 0.000000
-17.024500 0.000000
-17.006200 0.000000
-16.987900 0.000000
-16.969600 0.000000
-16.951300 0.000000
-16.933000 0.000000
-16.914700 0.000000
-16.896400 0.000000
-16.878100 0.000000
-16.859800 0.000000
-16.841500 0.000000
-16.823200 0.000000
-16.804900 0.000000
-16.786700 0.000000
-16.768400 0.000000
-16.750100 0.000000
-16.731800 0.000000
-16.713500 0.000000
-16.695200 0.000000
-16.676900 0.000000
-16.658600 0.000000
-16.640300 0.000000
-16.622000 0.000000
-16.603700 0.000000
-16.585400 0.000000
-16.567100 0.000000
-16.548900 0.000000
-16.530600 0.000000
-16.512300 0.000000
-16.494000 0.000000
-16.475700 0.000000
-16.457400 0.000000
-16.439100 0.000000
-16.420800 0.000000
-16.402500 0.000000
-16.384200 0.000000
-16.365900 0.000000
-16.347600 0.000000
-16.329300 0.000000
-16.311100 0.000000
-16.292800 0.000000
-16.274500 0.000000
-16.256200 0.000000
-16.237900 0.000000
-16.219600 0.000000
-16.201300 0.000000
-16.183000 0.000000
-16.164700 0.000000
-16.146400 0.000000
-16.128100 0.000000
-16.109800 0.000000
-16.091500 0.000000
-16.073300 0.000000
-16.055000 0.000000
-16.036700 0.000000
-16.018400 0.000000
-16.000100 0.000000
-15.981800 0.000000
-15.963500 0.000000
-15.945200 0.000000
-15.926900 0.000000
-15.908600 0.000000
-15.890300 0.000000
-15.872000 0.000000
-15.853800 0.000000
-15.835500 0.000000
-15.817200 0.000000
-15.798900 0.000000
-15.780600 0.000000
-15.762300 0.000000
-15.744000 0.000000
-15.725700 0.000000
-15.707400 0.000000
-15.689100 0.000000
-15.670800 0.000000
-15.652500 0.000000
-15.634200 0.000000
-15.616000 0.000000
-15.597700 0.000000
-15.579400 0.000000
-15.561100 0.000000
-15.542800 0.000000
-15.524500 0.000000
-15.506200 0.000000
-15.487900 0.000000
-15.469600 0.000000
-15.451300 0.000000
-15.433000 0.000000
-15.414700 0.000000
-15.396400 0.000000
-15.378200 0.000000
-15.359900 0.000000
-15.341600 0.000000
-15.323300 0.000000
-15.305000 0.000000
-15.286700 0.000000
-15.268400 0.000000
-15.250100 0.000000
-15.231800 0.000000
-15.213500 0.000000
-15.195200 0.000000
-15.176900 0.000000
-15.158600 0.000000
-15.140400 0.000000
-15.122100 0.000000
-15.103800 0.000000
-15.085500 0.000000
-15.067200 0.000000
-15.048900 0.000000
-15.030600 0.000000
-15.012300 0.000000
-14.994000 0.000000
-14.975700 0.000000
-14.957400 0.000000
-14.939100 0.000000
-14.920800 0.000000
-14.902600 0.000000
-14.884300 0.000000
-14.866000 0.000000
-14.847700 0.000000
-14.829400 0.000000
-14.811100 0.000000
-14.792800 0.000000
-14.774500 0.000000
-14.756200 0.000000
-14.737900 0.000000
-14.719600 0.000000
-14.701300 0.000000
-14.683100 0.000000
-14.664800 0.000000
-14.646500 0.000000
-14.628200 0.000000
-14.609900 0.000000
-14.591600 0.000000
-14.573300 0.000000
-14.555000 0.000000
-14.536700 0.000000
-14.518400 0.000000
-14.500100 0.000000
-14.481800 0.000000
-14.463500 0.000000
-14.445300 0.000000
-14.427000 0.000000
-14.408700 0.000000
-14.390400 0.000000
-14.372100 0.000000
-14.353800 0.000000
-14.335500 0.000000
-14.317200 0.000000
-14.298900 0.000000
-14.280600 0.000000
-14.262300 0.000000
-14.244000 0.000000
-14.225700 0.000000
-14.207500 0.000000
-14.189200 0.000000
-14.170900 0.000000
-14.152600 0.000000
-14.134300 0.000000
-14.116000 0.000000
-14.097700 0.000000
-14.079400 0.000000
-14.061100 0.000000
-14.042800 0.000000
-14.024500 0.000000
-14.006200 0.000000
-13.987900 0.000000
-13.969700 0.000000
-13.951400 0.000000
-13.933100 0.000000
-13.914800 0.000000
-13.896500 0.000000
-13.878200 0.000000
-13.859900 0.000000
-13.841600 0.000000
-13.823300 0.000000
-13.805000 0.000000
-13.786700 0.000000
-13.768400 0.000000
-13.750100 0.000000
-13.731900 0.000000
-13.713600 0.000000
-13.695300 0.000000
-13.677000 0.000000
-13.658700 0.000000
-13.640400 0.000000
-13.622100 0.000000
-13.603800 0.000000
-13.585500 0.000000
-13.567200 0.000000
-13.548900 0.000000
-13.530600 0.000000
-13.512400 0.000000
-13.494100 0.000000
-13.475800 0.000000
-13.457500 0.000000
-13.439200 0.000000
-13.420900 0.000000
-13.402600 0.000000
-13.384300 0.000000
-13.366000 0.000000
-13.347700 0.000000
-13.329400 0.000000
-13.311100 0.000000
-13.292800 0.000000
-13.274600 0.000000
-13.256300 0.000000
-13.238000 0.000000
-13.219700 0.000000
-13.201400 0.000000
-13.183100 0.000000
-13.164800 0.000000
-13.146500 0.000000
-13.128200 0.000000
-13.109900 0.000000
-13.091600 0.000000
-13.073300 0.000000
-13.055000 0.000000
-13.036800 0.000000
-13.018500 0.000000
-13.000200 0.000000
-12.981900 0.000000
-12.963600 0.000000
-12.945300 0.000000
-12.927000 0.000000
-12.908700 0.000000
-12.890400 0.000000
-12.872100 0.000000
-12.853800 0.000000
-12.835500 0.000000
-12.817200 0.000000
-12.799000 0.000000
-12.780700 0.000000
-12.762400 0.000000
-12.744100 0.000000
-12.725800 0.000000
-12.707500 0.000000
-12.689200 0.000000
-12.670900 0.000000
-12.652600 0.000000
-12.634300 0.000000
-12.616000 0.000000
-12.597700 0.000000
-12.579400 0.000000
-12.561200 0.000000
-12.542900 0.000000
-12.524600 0.000000
-12.506300 0.000000
-12.488000 0.000000
-12.469700 0.000000
-12.451400 0.000000
-12.433100 0.000000
-12.414800 0.000000
-12.396500 0.000000
-12.378200 0.000000
-12.359900 0.000000
-12.341700 0.000000
-12.323400 0.000000
-12.305100 0.000000
-12.286800 0.000000
-12.268500 0.000000
-12.250200 0.000000
-12.231900 0.000000
-12.213600 0.000000
-12.195300 0.000000
-12.177000 0.000000
-12.158700 0.000000
-12.140400 0.000000
-12.122100 0.000000
-12.103900 0.000000
-12.085600 0.000000
-12.067300 0.000000
-12.049000 0.000000
-12.030700 0.000000
-12.012400 0.000000
-11.994100 0.000000
-11.975800 0.000000
-11.957500 0.000000
-11.939200 0.000000
-11.920900 0.000000
-11.902600 0.000000
-11.884300 0.000000
-11.866100 0.000000
-11.847800 0.000000
-11.829500 0.000000
-11.811200 0.000000
-11.792900 0.000000
-11.774600 0.000000
-11.756300 0.000000
-11.738000 0.000000
-11.719700 0.000000
-11.701400 0.000000
-11.683100 0.000000
-11.664800 0.000000
-11.646500 0.000000
-11.628300 0.000000
-11.610000 0.000000
-11.591700 0.000000
-11.573400 0.000000
-11.555100 0.000000
-11.536800 0.000000
-11.518500 0.000000
-11.500200 0.000000
-11.481900 0.000000
-11.463600 0.000000
-11.445300 0.000000
-11.427000 0.000000
-11.408800 0.000000
-11.390500 0.000000
-11.372200 0.000000
-11.353900 0.000000
-11.335600 0.000000
-11.317300 0.000000
-11.299000 0.000000
-11.280700 0.000000
-11.262400 0.000000
-11.244100 0.000000
-11.225800 0.000000
-11.207500 0.000000
-11.189200 0.000000
-11.171000 0.000000
-11.152700 0.000000
-11.134400 0.000000
-11.116100 0.000000
-11.097800 0.000000
-11.079500 0.000000
-11.061200 0.000000
-11.042900 0.000000
-11.024600 0.000000
-11.006300 0.000000
-10.988000 0.000000
-10.969700 0.000000
-10.951400 0.000000
-10.933200 0.000000
-10.914900 0.000000
-10.896600 0.000000
-10.878300 0.000000
-10.860000 0.000000
-10.841700 0.000000
-10.823400 0.000000
-10.805100 0.000000
-10.786800 0.000000
-10.768500 0.000000
-10.750200 0.000000
-10.731900 0.000000
-10.713600 0.000000
-10.695400 0.000000
-10.677100 0.000000
-10.658800 0.000000
-10.640500 0.000000
-10.622200 0.000000
-10.603900 0.000000
-10.585600 0.000000
-10.567300 0.000000
-10.549000 0.000000
-10.530700 0.000000
-10.512400 0.000000
-10.494100 0.000000
-10.475800 0.000000
-10.457600 0.000000
-10.439300 0.000000
-10.421000 0.000000
-10.402700 0.000000
-10.384400 0.000000
-10.366100 0.000000
-10.347800 0.000000
-10.329500 0.000000
-10.311200 0.000000
-10.292900 0.000000
-10.274600 0.000000
-10.256300 0.000000
-10.238100 0.000000
-10.219800 0.000000
-10.201500 0.000000
-10.183200 0.000000
-10.164900 0.000000
-10.146600 0.000000
-10.128300 0.000000
-10.110000 0.000000
-10.091700 0.000000
-10.073400 0.000000
-10.055100 0.000000
-10.036800 0.000000
-10.018500 0.000000
-10.000300 0.000000
-9.982000 0.000000
-9.963700 0.000000
-9.945400 0.000000
-9.927100 0.000000
-9.908800 0.000000
-9.890500 0.000000
-9.872200 0.000000
-9.853900 0.000000
-9.835600 0.000000
-9.817300 0.000000
-9.799000 0.000000
-9.780700 0.000000
-9.762500 0.000000
-9.744200 0.000000
-9.725900 0.000000
-9.707600 0.000000
-9.689300 0.000000
-9.671000 0.000000
-9.652700 0.000000
-9.634400 0.000000
-9.616100 0.000000
-9.597800 0.000000
-9.579500 0.000000
-9.561200 0.000000
-9.542900 0.000000
-9.524700 0.000000
-9.506400 0.000000
-9.488100 0.000000
-9.469800 0.000000
-9.451500 0.012600
-9.433200 0.180400
-9.414900 0.399200
-9.396600 0.510100
-9.378300 0.678200
-9.360000 0.830700
-9.341700 0.815500
-9.323400 0.822000
-9.305100 0.836800
-9.286900 0.840100
-9.268600 0.834800
-9.250300 0.806600
-9.232000 0.807700
-9.213700 0.823100
-9.195400 0.841300
-9.177100 0.861700
-9.158800 0.865100
-9.140500 0.860900
-9.122200 0.853300
-9.103900 0.836600
-9.085600 0.833900
-9.067400 0.836100
-9.049100 0.842000
-9.030800 0.850200
-9.012500 0.861300
-8.994200 0.875000
-8.975900 0.888300
-8.957600 0.893500
-8.939300 0.887600
-8.921000 0.878200
-8.902700 0.867400
-8.884400 0.866700
-8.866100 0.869200
-8.847800 0.873000
-8.829600 0.877900
-8.811300 0.884000
-8.793000 0.890800
-8.774700 0.897500
-8.756400 0.904200
-8.738100 0.910900
-8.719800 0.919900
-8.701500 0.925600
-8.683200 0.923900
-8.664900 0.917100
-8.646600 0.913000
-8.628300 0.913700
-8.610000 0.914500
-8.591800 0.916200
-8.573500 0.919000
-8.555200 0.922700
-8.536900 0.927000
-8.518600 0.933000
-8.500300 0.940700
-8.482000 0.948600
-8.463700 0.956200
-8.445400 0.963400
-8.427100 0.970600
-8.408800 0.977700
-8.390500 0.978400
-8.372200 0.972500
-8.354000 0.967600
-8.335700 0.967400
-8.317400 0.969800
-8.299100 0.974900
-8.280800 0.981600
-8.262500 0.986900
-8.244200 0.992200
-8.225900 0.997500
-8.207600 1.002800
-8.189300 1.008100
-8.171000 1.013400
-8.152700 1.018700
-8.134400 1.024100
-8.116200 1.029700
-8.097900 1.038200
-8.079600 1.049600
-8.061300 1.061200
-8.043000 1.064900
-8.024700 1.062100
-8.006400 1.063900
-7.988100 1.066600
-7.969800 1.069800
-7.951500 1.074100
-7.933200 1.078600
-7.914900 1.083100
-7.896700 1.087600
-7.878400 1.098400
-7.860100 1.114100
-7.841800 1.123600
-7.823500 1.133200
-7.805200 1.142800
-7.786900 1.152300
-7.768600 1.161800
-7.750300 1.170500
-7.732000 1.178800
-7.713700 1.187000
-7.695400 1.195300
-7.677100 1.207700
-7.658900 1.221100
-7.640600 1.235800
-7.622300 1.250800
-7.604000 1.261300
-7.585700 1.272200
-7.567400 1.283200
-7.549100 1.294200
-7.530800 1.305500
-7.512500 1.316900
-7.494200 1.328300
-7.475900 1.489300
-7.457600 1.651400
-7.439300 1.703900
-7.421100 1.804800
-7.402800 1.912200
-7.384500 2.005900
-7.366200 2.071100
-7.347900 2.154000
-7.329600 2.286400
-7.311300 2.433500
-7.293000 2.598800
-7.274700 2.811800
-7.256400 3.009600
-7.238100 3.179900
-7.219800 4.145100
-7.201500 3.382000
-7.183300 3.234200
-7.165000 3.071300
-7.146700 3.001400
-7.128400 3.112300
-7.110100 2.891800
-7.091800 2.866000
-7.073500 2.837700
-7.055200 2.813700
-7.036900 2.797800
-7.018600 2.786500
-7.000300 2.774000
-6.982000 2.776000
-6.963700 2.806100
-6.945500 2.838700
-6.927200 2.947800
-6.908900 3.106700
-6.890600 3.279600
-6.872300 3.810500
-6.854000 4.632300
-6.835700 7.552000
-6.817400 3.760900
-6.799100 2.385900
-6.780800 1.698700
-6.762500 1.222800
-6.744200 0.966900
-6.726000 1.046300
-6.707700 1.282800
-6.689400 2.347800
-6.671100 3.639600
-6.652800 5.209400
-6.634500 6.261500
-6.616200 7.098900
-6.597900 16.150000
-6.579600 9.854000
-6.561300 8.421200
-6.543000 8.146700
-6.524700 7.794800
-6.506400 7.822300
-6.488200 8.046900
-6.469900 8.647000
-6.451600 9.566800
-6.433300 11.306000
-6.415000 12.166300
-6.396700 11.863200
-6.378400 11.160100
-6.360100 11.195500
-6.341800 9.199900
-6.323500 6.214800
-6.305200 1.151900
-6.286900 1.106300
-6.268600 1.060800
-6.250400 1.015200
-6.232100 0.969600
-6.213800 0.924000
-6.195500 0.878400
-6.177200 0.826100
-6.158900 0.806900
-6.140600 0.787800
-6.122300 0.768700
-6.104000 0.749600
-6.085700 0.730400
-6.067400 0.710000
-6.049100 0.688900
-6.030800 0.667700
-6.012600 0.645100
-5.994300 0.610800
-5.976000 0.596700
-5.957700 0.583400
-5.939400 0.573500
-5.921100 0.567500
-5.902800 0.561500
-5.884500 0.555500
-5.866200 0.549500
-5.847900 0.543500
-5.829600 0.537400
-5.811300 0.531400
-5.793100 0.525400
-5.774800 0.519400
-5.756500 0.494800
-5.738200 0.494200
-5.719900 0.493700
-5.701600 0.493100
-5.683300 0.492600
-5.665000 0.492000
-5.646700 0.497600
-5.628400 0.506500
-5.610100 0.501000
-5.591800 0.488600
-5.573500 0.476200
-5.555300 0.463800
-5.537000 0.451400
-5.518700 0.442000
-5.500400 0.437600
-5.482100 0.433100
-5.463800 0.428600
-5.445500 0.424200
-5.427200 0.419700
-5.408900 0.415300
-5.390600 0.410800
-5.372300 0.388600
-5.354000 0.411600
-5.335700 0.434600
-5.317500 0.450500
-5.299200 0.432500
-5.280900 0.414500
-5.262600 0.396600
-5.244300 0.378600
-5.226000 0.360700
-5.207700 0.342700
-5.189400 0.324800
-5.171100 0.357500
-5.152800 0.400000
-5.134500 0.442500
-5.116200 0.420900
-5.097900 0.301700
-5.079700 0.182400
-5.061400 0.063100
-5.043100 0.000000
-5.024800 0.000000
-5.006500 0.000000
-4.988200 0.000000
-4.969900 0.000000
-4.951600 0.000000
-4.933300 0.000000
-4.915000 0.000000
-4.896700 0.000000
-4.878400 0.000000
-4.860100 0.000000
-4.841900 0.000000
-4.823600 0.000000
-4.805300 0.000000
-4.787000 0.000000
-4.768700 0.000000
-4.750400 0.000000
-4.732100 0.000000
-4.713800 0.000000
-4.695500 0.000000
-4.677200 0.000000
-4.658900 0.000000
-4.640600 0.000000
-4.622400 0.000000
-4.604100 0.000000
-4.585800 0.000000
-4.567500 0.000000
-4.549200 0.000000
-4.530900 0.000000
-4.512600 0.000000
-4.494300 0.000000
-4.476000 0.000000
-4.457700 0.000000
-4.439400 0.000000
-4.421100 0.000000
-4.402800 0.000000
-4.384600 0.000000
-4.366300 0.000000
-4.348000 0.000000
-4.329700 0.000000
-4.311400 0.000000
-4.293100 0.000000
-4.274800 0.000000
-4.256500 0.000000
-4.238200 0.000000
-4.219900 0.000000
-4.201600 0.000000
-4.183300 0.000000
-4.165000 0.000000
-4.146800 0.000000
-4.128500 0.000000
-4.110200 0.000000
-4.091900 0.000000
-4.073600 0.000000
-4.055300 0.000000
-4.037000 0.000000
-4.018700 0.000000
-4.000400 0.000000
-3.982100 0.000000
-3.963800 0.000000
-3.945500 0.000000
-3.927200 0.000000
-3.909000 0.000000
-3.890700 0.000000
-3.872400 0.000000
-3.854100 0.000000
-3.835800 0.000000
-3.817500 0.000000
-3.799200 0.000000
-3.780900 0.000000
-3.762600 0.000000
-3.744300 0.000000
-3.726000 0.000000
-3.707700 0.000000
-3.689400 0.000000
-3.671200 0.000000
-3.652900 0.000000
-3.634600 0.000000
-3.616300 0.000000
-3.598000 0.000000
-3.579700 0.000000
-3.561400 0.000000
-3.543100 0.000000
-3.524800 0.000000
-3.506500 0.000000
-3.488200 0.000000
-3.469900 0.000000
-3.451700 0.000000
-3.433400 0.000000
-3.415100 0.000000
-3.396800 0.000000
-3.378500 0.000000
-3.360200 0.000000
-3.341900 0.000000
-3.323600 0.000000
-3.305300 0.000000
-3.287000 0.000000
-3.268700 0.000000
-3.250400 0.000000
-3.232100 0.000000
-3.213900 0.000000
-3.195600 0.000000
-3.177300 0.000000
-3.159000 0.000000
-3.140700 0.000000
-3.122400 0.000000
-3.104100 0.000000
-3.085800 0.000000
-3.067500 0.000000
-3.049200 0.000000
-3.030900 0.000000
-3.012600 0.000000
-2.994300 0.000000
-2.976100 0.000000
-2.957800 0.000000
-2.939500 0.000000
-2.921200 0.000000
-2.902900 0.000000
-2.884600 0.000000
-2.866300 0.000000
-2.848000 0.000000
-2.829700 0.000000
-2.811400 0.000000
-2.793100 0.000000
-2.774800 0.000000
-2.756500 0.000000
-2.738300 0.000000
-2.720000 0.000000
-2.701700 0.000000
-2.683400 0.000000
-2.665100 0.000000
-2.646800 0.000000
-2.628500 0.000000
-2.610200 0.000000
-2.591900 0.000000
-2.573600 0.000000
-2.555300 0.000000
-2.537000 0.000000
-2.518700 0.000000
-2.500500 0.000000
-2.482200 0.000000
-2.463900 0.000000
-2.445600 0.000000
-2.427300 0.000000
-2.409000 0.000000
-2.390700 0.000000
-2.372400 0.000000
-2.354100 0.000000
-2.335800 0.000000
-2.317500 0.000000
-2.299200 0.000000
-2.281000 0.000000
-2.262700 0.000000
-2.244400 0.000000
-2.226100 0.000000
-2.207800 0.000000
-2.189500 0.000000
-2.171200 0.000000
-2.152900 0.000000
-2.134600 0.000000
-2.116300 0.000000
-2.098000 0.000000
-2.079700 0.000000
-2.061400 0.000000
-2.043200 0.000000
-2.024900 0.000000
-2.006600 0.000000
-1.988300 0.000000
-1.970000 0.000000
-1.951700 0.000000
-1.933400 0.000000
-1.915100 0.000000
-1.896800 0.000000
-1.878500 0.000000
-1.860200 0.000000
-1.841900 0.000000
-1.823600 0.000000
-1.805400 0.000000
-1.787100 0.000000
-1.768800 0.000000
-1.750500 0.000000
-1.732200 0.000000
-1.713900 0.000000
-1.695600 0.000000
-1.677300 0.000000
-1.659000 0.000000
-1.640700 0.000000
-1.622400 0.000000
-1.604100 0.000000
-1.585800 0.000000
-1.567600 0.000000
-1.549300 0.000000
-1.531000 0.000000
-1.512700 0.000000
-1.494400 0.000000
-1.476100 0.000000
-1.457800 0.000000
-1.439500 0.000000
-1.421200 0.000000
-1.402900 0.000000
-1.384600 0.000000
-1.366300 0.000000
-1.348000 0.000000
-1.329800 0.000000
-1.311500 0.000000
-1.293200 0.000000
-1.274900 0.000000
-1.256600 0.000000
-1.238300 0.000000
-1.220000 0.000000
-1.201700 0.000000
-1.183400 0.000000
-1.165100 0.000000
-1.146800 0.000000
-1.128500 0.000000
-1.110300 0.058200
-1.092000 0.176300
-1.073700 0.330000
-1.055400 0.519100
-1.037100 0.515700
-1.018800 0.594200
-1.000500 0.834900
-0.982200 0.780600
-0.963900 0.900500
-0.945600 1.005400
-0.927300 1.065800
-0.909000 1.034200
-0.890700 1.002300
-0.872500 1.026700
-0.854200 1.102900
-0.835900 1.094400
-0.817600 1.029000
-0.799300 1.017800
-0.781000 1.013100
-0.762700 1.009000
-0.744400 1.008900
-0.726100 1.009100
-0.707800 1.010500
-0.689500 1.025700
-0.671200 1.036000
-0.652900 1.025600
-0.634700 1.013100
-0.616400 1.026800
-0.598100 1.031600
-0.579800 1.033600
-0.561500 1.033400
-0.543200 1.032000
-0.524900 1.028000
-0.506600 1.027400
-0.488300 1.028300
-0.470000 1.029800
-0.451700 1.035000
-0.433400 1.036900
-0.415100 1.030700
-0.396900 1.021100
-0.378600 1.016800
-0.360300 1.018900
-0.342000 1.026500
-0.323700 1.037400
-0.305400 1.048500
-0.287100 1.068800
-0.268800 1.070500
-0.250500 1.078100
-0.232200 1.084300
-0.213900 1.089500
-0.195600 1.095100
-0.177300 1.099700
-0.159100 1.105000
-0.140800 1.115800
-0.122500 1.135800
-0.104200 1.155800
-0.085900 1.172200
-0.067600 1.191000
-0.049300 1.286200
-0.031000 1.471500
-0.012700 1.692800
0.005600 1.907900
0.023900 2.124100
0.042200 2.288100
0.060400 2.492500
0.078700 2.731100
0.097000 3.055700
0.115300 3.515700
0.133600 3.926600
0.151900 4.472200
0.170200 4.479300
0.188500 6.945400
0.206800 4.744600
0.225100 3.218900
0.243400 3.273400
0.261700 2.814300
0.280000 2.703300
0.298200 2.693500
0.316500 2.728400
0.334800 2.757300
0.353100 2.782300
0.371400 2.819800
0.389700 2.931200
0.408000 3.118100
0.426300 3.334300
0.444600 3.521500
0.462900 3.579600
0.481200 3.548800
0.499500 3.595100
0.517800 3.785600
0.536000 3.795000
0.554300 3.937900
0.572600 3.965300
0.590900 3.986800
0.609200 3.440500
0.627500 3.304100
0.645800 3.270000
0.664100 3.206500
0.682400 3.196300
0.700700 3.524700
0.719000 4.058100
0.737300 3.177400
0.755600 2.819900
0.773800 2.696700
0.792100 2.570000
0.810400 2.404800
0.828700 2.284500
0.847000 2.256100
0.865300 2.261800
0.883600 2.362700
0.901900 2.585800
0.920200 2.608300
0.938500 2.539700
0.956800 2.547800
0.975100 2.771300
0.993300 3.128500
1.011600 3.498700
1.029900 3.717800
1.048200 3.898600
1.066500 4.062100
1.084800 4.228000
1.103100 4.379200
1.121400 4.481000
1.139700 4.543900
1.158000 4.595300
1.176300 4.664700
1.194600 4.787500
1.212900 5.036800
1.231100 5.405100
1.249400 5.805500
1.267700 7.482800
1.286000 4.906300
1.304300 3.858200
1.322600 3.271700
1.340900 3.116200
1.359200 3.030800
1.377500 2.935700
1.395800 2.827000
1.414100 2.674700
1.432400 2.636400
1.450700 2.600500
1.468900 2.637600
1.487200 2.691900
1.505500 2.763800
1.523800 2.839700
1.542100 3.900000
1.560400 3.396600
1.578700 3.406100
1.597000 3.493600
1.615300 3.608500
1.633600 3.759800
1.651900 3.942200
1.670200 4.018500
1.688500 4.186300
1.706700 4.287400
1.725000 4.390600
1.743300 4.521200
1.761600 4.761300
1.779900 5.115500
1.798200 5.641600
1.816500 6.115900
1.834800 6.387800
1.853100 6.398500
1.871400 6.540900
1.889700 6.432400
1.908000 6.325900
1.926300 6.258200
1.944500 6.111900
1.962800 6.263500
1.981100 5.897800
1.999400 5.814400
2.017700 5.700400
2.036000 5.309800
2.054300 4.738900
2.072600 4.589600
2.090900 4.384500
2.109200 4.263500
2.127500 4.194100
2.145800 4.163900
2.164000 4.205900
2.182300 4.323200
2.200600 4.874900
2.218900 4.909900
2.237200 5.145100
2.255500 5.159300
2.273800 5.140800
2.292100 5.148400
2.310400 5.215300
2.328700 5.385600
2.347000 5.052300
2.365300 4.653400
2.383600 4.358800
2.401800 4.248700
2.420100 4.176800
2.438400 4.035000
2.456700 4.339300
2.475000 4.548000
2.493300 4.598800
2.511600 4.898800
2.529900 5.427400
2.548200 6.015500
2.566500 6.392100
2.584800 6.536000
2.603100 6.498500
2.621400 5.621400
2.639600 4.387400
2.657900 4.156400
2.676200 4.303200
2.694500 4.752400
2.712800 5.246700
2.731100 5.758900
2.749400 6.462500
2.767700 7.114100
2.786000 7.602600
2.804300 7.533000
2.822600 7.449700
2.840900 7.378700
2.859200 7.304100
2.877400 7.008200
2.895700 7.044400
2.914000 7.200800
2.932300 7.503100
2.950600 8.087700
2.968900 8.216000
2.987200 7.971500
3.005500 7.664600
3.023800 7.423500
3.042100 7.471800
3.060400 7.178000
3.078700 5.936800
3.097000 5.023300
3.115200 4.657300
3.133500 4.267000
3.151800 4.079600
3.170100 3.816100
3.188400 3.654300
3.206700 3.697500
3.225000 4.129100
3.243300 4.701300
3.261600 5.235300
3.279900 5.689800
3.298200 5.678000
3.316500 5.819000
3.334700 5.936600
3.353000 6.178700
3.371300 6.308600
3.389600 6.737900
3.407900 7.406300
3.426200 7.821700
3.444500 7.364900
3.462800 7.456500
3.481100 7.055400
3.499400 6.979600
3.517700 6.609700
3.536000 5.888500
3.554300 5.658300
3.572500 5.204700
3.590800 4.712900
3.609100 4.461500
3.627400 4.440500
3.645700 4.575600
3.664000 4.573100
3.682300 4.570000
3.700600 4.562700
3.718900 4.558100
3.737200 4.547800
3.755500 4.621800
3.773800 4.753100
3.792100 4.818900
3.810300 4.778300
3.828600 4.632300
3.846900 4.454500
3.865200 4.313200
3.883500 4.079000
3.901800 3.971100
3.920100 3.484700
3.938400 3.065300
3.956700 2.467900
3.975000 2.092100
3.993300 2.017500
4.011600 2.098000
4.029900 2.191000
4.048100 2.297800
4.066400 2.454800
4.084700 2.633200
4.103000 2.746000
4.121300 2.886000
4.139600 3.083700
4.157900 3.273300
4.176200 3.269200
4.194500 3.302900
4.212800 3.317700
4.231100 3.303700
4.249400 3.424000
4.267700 3.372500
4.285900 3.287100
4.304200 3.059100
4.322500 2.582200
4.340800 2.318600
4.359100 2.172000
4.377400 2.104000
4.395700 2.044300
4.414000 1.995100
4.432300 1.946600
4.450600 1.887900
4.468900 1.831200
4.487200 1.777000
4.505400 1.748400
4.523700 1.720500
4.542000 1.687500
4.560300 1.654200
4.578600 1.622700
4.596900 1.594900
4.615200 1.569700
4.633500 1.550700
4.651800 1.543700
4.670100 1.563100
4.688400 1.510800
4.706700 1.470600
4.725000 1.443500
4.743200 1.417500
4.761500 1.386100
4.779800 1.331600
4.798100 1.263900
4.816400 1.192700
4.834700 0.986900
4.853000 0.981100
4.871300 0.976000
4.889600 0.971600
4.907900 0.967400
4.926200 0.963400
4.944500 0.959600
4.962800 0.955800
4.981000 0.951400
4.999300 0.945800
5.017600 0.939100
5.035900 0.931200
5.054200 0.920900
5.072500 0.908200
5.090800 0.894900
5.109100 0.875500
5.127400 0.870000
5.145700 0.868500
5.164000 0.867700
5.182300 0.867100
5.200600 0.866500
5.218800 0.866000
5.237100 0.865800
5.255400 0.865900
5.273700 0.866100
5.292000 0.866400
5.310300 0.866700
5.328600 0.867100
5.346900 0.867500
5.365200 0.867600
5.383500 0.867600
5.401800 0.867400
5.420100 0.866900
5.438400 0.863900
5.456600 0.861000
5.474900 0.858600
5.493200 0.857800
5.511500 0.858200
5.529800 0.858700
5.548100 0.859100
5.566400 0.859500
5.584700 0.859900
5.603000 0.865500
5.621300 0.870300
5.639600 0.876400
5.657900 0.879700
5.676100 0.883000
5.694400 0.886400
5.712700 0.890000
5.731000 0.893600
5.749300 0.897100
5.767600 0.901700
5.785900 0.908200
5.804200 0.918500
5.822500 0.931800
5.840800 0.947400
5.859100 0.964100
5.877400 0.981700
5.895700 0.999200
5.913900 1.013400
5.932200 1.024700
5.950500 1.032600
5.968800 1.037100
5.987100 1.040800
6.005400 1.044600
6.023700 1.046200
6.042000 1.044800
6.060300 1.042000
6.078600 1.043300
6.096900 1.022000
6.115200 1.081200
6.133500 1.071700
6.151700 1.048000
6.170000 1.051800
6.188300 1.074500
6.206600 1.099700
6.224900 1.126200
6.243200 1.150600
6.261500 1.174600
6.279800 1.197900
6.298100 1.212200
6.316400 1.228900
6.334700 1.251200
6.353000 1.275900
6.371300 1.300700
6.389500 1.325600
6.407800 1.325600
6.426100 1.351000
6.444400 1.394200
6.462700 1.518600
6.481000 1.717500
6.499300 1.821000
6.517600 1.824600
6.535900 1.879900
6.554200 1.874700
6.572500 1.715800
6.590800 1.608100
6.609000 1.526800
6.627300 1.436800
6.645600 1.380200
6.663900 1.376900
6.682200 1.376200
6.700500 1.406700
6.718800 1.396600
6.737100 1.494600
6.755400 1.356700
6.773700 1.276500
6.792000 1.263300
6.810300 1.249800
6.828600 1.236400
6.846800 1.222200
6.865100 1.214000
6.883400 1.206400
6.901700 1.199300
6.920000 1.192400
6.938300 1.185600
6.956600 1.502800
6.974900 1.158300
6.993200 1.149600
7.011500 1.143100
7.029800 1.136600
7.048100 1.130100
7.066400 1.123800
7.084600 1.117900
7.102900 1.112300
7.121200 1.107000
7.139500 1.101800
7.157800 1.096800
7.176100 1.091900
7.194400 1.087100
7.212700 1.079600
7.231000 1.074700
7.249300 1.070300
7.267600 1.066000
7.285900 1.061700
7.304200 1.057500
7.322400 1.053400
7.340700 1.049300
7.359000 1.045200
7.377300 1.041200
7.395600 1.043000
7.413900 1.046600
7.432200 1.050400
7.450500 1.903200
7.468800 1.208300
7.487100 1.532500
7.505400 1.480700
7.523700 1.464200
7.542000 1.473900
7.560200 1.410300
7.578500 1.401200
7.596800 1.421000
7.615100 1.444100
7.633400 1.474000
7.651700 1.844800
7.670000 1.608200
7.688300 1.609600
7.706600 1.639800
7.724900 1.670300
7.743200 1.731100
7.761500 2.203400
7.779700 2.131400
7.798000 1.916500
7.816300 1.760900
7.834600 1.661100
7.852900 1.609100
7.871200 1.515700
7.889500 1.509000
7.907800 1.499700
7.926100 1.479600
7.944400 1.500400
7.962700 1.709700
7.981000 2.023000
7.999300 2.356000
8.017500 2.570100
8.035800 2.811700
8.054100 2.985500
8.072400 3.125800
8.090700 3.226400
8.109000 3.331500
8.127300 3.485900
8.145600 3.502400
8.163900 3.359800
8.182200 3.208800
8.200500 3.127600
8.218800 3.201900
8.237100 3.311000
8.255300 3.449000
8.273600 3.622800
8.291900 3.991700
8.310200 4.503600
8.328500 5.535000
8.346800 6.543700
8.365100 7.141900
8.383400 7.784600
8.401700 7.717400
8.420000 7.685400
8.438300 7.702200
8.456600 7.867400
8.474900 7.268300
8.493100 6.920700
8.511400 6.904300
8.529700 7.037000
8.548000 7.240900
8.566300 7.565900
8.584600 8.126900
8.602900 8.603500
8.621200 7.938200
8.639500 6.759300
8.657800 5.491200
8.676100 4.863400
8.694400 4.609700
8.712700 4.512600
8.730900 4.819000
8.749200 4.515100
8.767500 4.967400
8.785800 4.381600
8.804100 3.898000
8.822400 3.880100
8.840700 3.889500
8.859000 3.920500
8.877300 4.111000
8.895600 4.142300
8.913900 4.319600
8.932200 4.024400
8.950400 3.936200
8.968700 3.913400
8.987000 3.919500
9.005300 4.003400
9.023600 4.128000
9.041900 4.372300
9.060200 4.504900
9.078500 4.664600
9.096800 4.922500
9.115100 5.132300
9.133400 5.192700
9.151700 5.141800
9.170000 5.197400
9.188200 5.352900
9.206500 5.547000
9.224800 5.816100
9.243100 5.818100
9.261400 5.881500
9.279700 5.948900
9.298000 6.047400
9.316300 6.239100
9.334600 6.466600
9.352900 7.070400
9.371200 7.157900
9.389500 7.222200
9.407800 6.726800
9.426000 6.660700
9.444300 6.581100
9.462600 6.344700
9.480900 6.307700
9.499200 6.409000
9.517500 6.509400
9.535800 5.943500
9.554100 5.816400
9.572400 6.185900
9.590700 6.499000
9.609000 6.649200
9.627300 6.793000
9.645600 6.868400
9.663800 6.405800
9.682100 5.918700
9.700400 5.663200
9.718700 5.556100
9.737000 5.393600
9.755300 5.233400
9.773600 5.149800
9.791900 5.102300
9.810200 5.092800
9.828500 4.867500
9.846800 4.656600
9.865100 4.589500
9.883400 4.431900
9.901600 4.212300
9.919900 4.152500
9.938200 4.134100
9.956500 4.134200
9.974800 4.223000
9.993100 4.213400
10.011400 4.245800
10.029700 4.365400
10.048000 4.484800
10.066300 4.562800
10.084600 4.869600
10.102900 5.287600
10.121100 5.591800
10.139400 5.632600
10.157700 5.623900
10.176000 5.982900
10.194300 6.207000
10.212600 6.475100
10.230900 6.584900
10.249200 6.854500
10.267500 7.079900
10.285800 6.662700
10.304100 6.732800
10.322400 6.708400
10.340700 6.576100
10.358900 6.346500
10.377200 5.981600
10.395500 5.807600
10.413800 5.810400
10.432100 5.979100
10.450400 6.398000
10.468700 6.846400
10.487000 7.695100
10.505300 8.565600
10.523600 8.765900
10.541900 8.627600
10.560200 8.110600
10.578500 7.521100
10.596700 7.304500
10.615000 7.754700
10.633300 8.367200
10.651600 8.286500
10.669900 7.099700
10.688200 6.477900
10.706500 6.013000
10.724800 5.730700
10.743100 5.505500
10.761400 5.272000
10.779700 5.012700
10.798000 4.805000
10.816300 4.726900
10.834500 4.751500
10.852800 4.816800
10.871100 4.824100
10.889400 4.809600
10.907700 4.771300
10.926000 4.683100
10.944300 4.574300
10.962600 4.512400
10.980900 4.471800
10.999200 4.673900
11.017500 4.785700
11.035800 4.990600
11.054100 5.323100
11.072300 5.605500
11.090600 5.796200
11.108900 5.169700
11.127200 5.169700
11.145500 5.058400
11.163800 5.813700
11.182100 5.586300
11.200400 5.700300
11.218700 5.822800
11.237000 5.830800
11.255300 5.898400
11.273600 5.695900
11.291800 5.362700
11.310100 4.871900
11.328400 4.737900
11.346700 4.796600
11.365000 4.860100
11.383300 4.859700
11.401600 4.865000
11.419900 4.974100
11.438200 4.989700
11.456500 4.998900
11.474800 5.044900
11.493100 4.993600
11.511400 4.903900
11.529600 4.835700
11.547900 4.827100
11.566200 4.662600
11.584500 4.557700
11.602800 4.457100
11.621100 4.325100
11.639400 4.251200
11.657700 4.142800
11.676000 4.050200
11.694300 3.971000
11.712600 3.894500
11.730900 3.702000
11.749200 3.637700
11.767400 3.572600
11.785700 3.533100
11.804000 3.524900
11.822300 3.516700
11.840600 3.402400
11.858900 3.315400
11.877200 3.259400
11.895500 3.200100
11.913800 3.155300
11.932100 3.071000
11.950400 2.935000
11.968700 2.769400
11.987000 2.619900
12.005200 2.541500
12.023500 2.500300
12.041800 2.488000
12.060100 2.539000
12.078400 2.683000
12.096700 2.894200
12.115000 3.025800
12.133300 3.068100
12.151600 2.966400
12.169900 2.948700
12.188200 2.906500
12.206500 2.996100
12.224800 2.789600
12.243000 2.771800
12.261300 2.082200
12.279600 1.917600
12.297900 1.742000
12.316200 1.668000
12.334500 1.606600
12.352800 1.549400
12.371100 1.498000
12.389400 1.449100
12.407700 1.403300
12.426000 1.357500
12.444300 1.318800
12.462500 1.286000
12.480800 1.258000
12.499100 1.234400
12.517400 1.226000
12.535700 1.230200
12.554000 1.238400
12.572300 1.249000
12.590600 1.268800
12.608900 1.298400
12.627200 1.327300
12.645500 1.351700
12.663800 1.381500
12.682100 1.417900
12.700300 1.461000
12.718600 1.543900
12.736900 1.621300
12.755200 1.697800
12.773500 1.783200
12.791800 1.866600
12.810100 1.934000
12.828400 1.994500
12.846700 2.061000
12.865000 2.183900
12.883300 2.304800
12.901600 2.414200
12.919900 2.496000
12.938100 2.513400
12.956400 2.461500
12.974700 2.216700
12.993000 2.132100
13.011300 2.033300
13.029600 1.895000
13.047900 1.793200
13.066200 1.754200
13.084500 1.727600
13.102800 1.703500
13.121100 1.737000
13.139400 1.805700
13.157700 1.881700
13.175900 1.921000
13.194200 1.899400
13.212500 1.870300
13.230800 2.139100
13.249100 2.621100
13.267400 2.374700
13.285700 2.333300
13.304000 2.477500
13.322300 2.614300
13.340600 2.735500
13.358900 2.851200
13.377200 2.976800
13.395400 3.215900
13.413700 3.464100
13.432000 3.601800
13.450300 3.614000
13.468600 3.400900
13.486900 3.446700
13.505200 3.280700
13.523500 3.234400
13.541800 3.187100
13.560100 3.138500
13.578400 3.086800
13.596700 3.055100
13.615000 3.032100
13.633200 2.982200
13.651500 2.911800
13.669800 2.783400
13.688100 2.505200
13.706400 2.450800
13.724700 2.417800
13.743000 2.384200
13.761300 2.373200
13.779600 2.400500
13.797900 2.421600
13.816200 2.509800
13.834500 2.621500
13.852800 2.647400
13.871000 2.515100
13.889300 2.591500
13.907600 2.707400
13.925900 2.849300
13.944200 2.956200
13.962500 2.984100
13.980800 3.089700
13.999100 3.217400
14.017400 3.345900
14.035700 3.349600
14.054000 3.140800
14.072300 3.107500
14.090600 3.098300
14.108800 3.092600
14.127100 3.069500
14.145400 3.065500
14.163700 3.098500
14.182000 3.125200
14.200300 3.137600
14.218600 3.083100
14.236900 3.153600
14.255200 3.038000
14.273500 2.906700
14.291800 2.644500
14.310100 2.441600
14.328400 2.236400
14.346600 2.022000
14.364900 1.762300
14.383200 1.471500
14.401500 1.209100
14.419800 1.004400
14.438100 0.849000
14.456400 0.731500
14.474700 0.633900
14.493000 0.543100
14.511300 0.456700
14.529600 0.371600
14.547900 0.330700
14.566100 0.299400
14.584400 0.269500
14.602700 0.241100
14.621000 0.213100
14.639300 0.185000
14.657600 0.162600
14.675900 0.142200
14.694200 0.125500
14.712500 0.111000
14.730800 0.097100
14.749100 0.083500
14.767400 0.000000
14.785700 0.000000
14.803900 0.000000
14.822200 0.000000
14.840500 0.000000
14.858800 0.000000
14.877100 0.000000
14.895400 0.000000
14.913700 0.000000
14.932000 0.000000
14.950300 0.000000
14.968600 0.000000
14.986900 0.000000
15.005200 0.000000
15.023500 0.000000
15.041700 0.000000
15.060000 0.000000
15.078300 0.000000
15.096600 0.000000
15.114900 0.000000
15.133200 0.000000
15.151500 0.000000
15.169800 0.000000
15.188100 0.000000
15.206400 0.000000
15.224700 0.000000
15.243000 0.000000
15.261300 0.000000
15.279500 0.000000
15.297800 0.000000
15.316100 0.000000
15.334400 0.000000
15.352700 0.000000
15.371000 0.000000
15.389300 0.000000
15.407600 0.000000
15.425900 0.000000
15.444200 0.000000
15.462500 0.000000
15.480800 0.000000
15.499100 0.000000
15.517300 0.000000
15.535600 0.000000
15.553900 0.000000
15.572200 0.000000
15.590500 0.000000
15.608800 0.000000
15.627100 0.000000
15.645400 0.000000
15.663700 0.000000
15.682000 0.000000
15.700300 0.000000
15.718600 0.000000
15.736800 0.000000
15.755100 0.000000
15.773400 0.000000
15.791700 0.000000
15.810000 0.000000
15.828300 0.000000
15.846600 0.000000
15.864900 0.000000
15.883200 0.000000
15.901500 0.000000
15.919800 0.000000
15.938100 0.000000
15.956400 0.000000
15.974600 0.000000
15.992900 0.000000
16.011200 0.000000
16.029500 0.000000
16.047800 0.000000
16.066100 0.000000
16.084400 0.000000
16.102700 0.000000
16.121000 0.000000
16.139300 0.000000
16.157600 0.000000
16.175900 0.000000
16.194200 0.000000
16.212400 0.000000
16.230700 0.000000
16.249000 0.000000
16.267300 0.000000
16.285600 0.000000
16.303900 0.000000
16.322200 0.000000
16.340500 0.000000
16.358800 0.000000
16.377100 0.000000
16.395400 0.000000
16.413700 0.000000
e
