set title 'mp-865194 - Density of States'
set xlabel 'Energy (eV)'
set ylabel 'DOS (states/eV)'
set grid
set xrange [-10:10]
set yrange [0:14.013]
set xzeroaxis lt -1
set terminal png size 800,600
set output 'mp-865194_dos_gnuplot.png'
plot '-' using 1:2 with lines title 'DOS'
-25.959600 0.000000
-25.921100 0.000000
-25.882600 0.000000
-25.844100 0.000000
-25.805600 0.000000
-25.767100 0.000000
-25.728700 0.000000
-25.690200 0.000000
-25.651700 0.000000
-25.613200 0.000000
-25.574700 0.000000
-25.536200 0.000000
-25.497700 0.000000
-25.459200 0.000000
-25.420700 0.000000
-25.382200 0.000000
-25.343800 0.000000
-25.305300 0.000000
-25.266800 0.000000
-25.228300 0.000000
-25.189800 0.000000
-25.151300 0.000000
-25.112800 0.000000
-25.074300 0.000000
-25.035800 0.000000
-24.997300 0.000000
-24.958900 0.000000
-24.920400 0.000000
-24.881900 0.000000
-24.843400 0.000000
-24.804900 0.000000
-24.766400 0.000000
-24.727900 0.000000
-24.689400 0.000000
-24.650900 0.000000
-24.612400 0.000000
-24.574000 0.000000
-24.535500 0.000000
-24.497000 0.000000
-24.458500 0.000000
-24.420000 0.000000
-24.381500 0.000000
-24.343000 0.000000
-24.304500 0.000000
-24.266000 0.000000
-24.227500 0.000000
-24.189100 0.000000
-24.150600 0.000000
-24.112100 0.000000
-24.073600 0.000000
-24.035100 0.000000
-23.996600 0.000000
-23.958100 0.000000
-23.919600 0.000000
-23.881100 0.000000
-23.842700 0.000000
-23.804200 0.000000
-23.765700 0.000000
-23.727200 0.000000
-23.688700 0.000000
-23.650200 0.000000
-23.611700 0.000000
-23.573200 0.000000
-23.534700 0.000000
-23.496200 0.000000
-23.457800 0.000000
-23.419300 0.000000
-23.380800 0.000000
-23.342300 0.000000
-23.303800 0.000000
-23.265300 0.000000
-23.226800 0.000000
-23.188300 0.000000
-23.149800 0.000000
-23.111300 0.000000
-23.072900 0.000000
-23.034400 0.000000
-22.995900 0.000000
-22.957400 0.000000
-22.918900 0.000000
-22.880400 0.000000
-22.841900 0.000000
-22.803400 0.000000
-22.764900 0.000000
-22.726400 0.000000
-22.688000 0.000000
-22.649500 0.000000
-22.611000 0.000000
-22.572500 0.000200
-22.534000 0.004100
-22.495500 0.038300
-22.457000 0.145100
-22.418500 0.269900
-22.380000 0.459400
-22.341500 0.951200
-22.303100 1.544300
-22.264600 2.837500
-22.226100 5.669500
-22.187600 8.033600
-22.149100 8.233000
-22.110600 7.183500
-22.072100 5.618400
-22.033600 3.888100
-21.995100 2.595900
-21.956600 2.080100
-21.918200 2.010900
-21.879700 2.196100
-21.841200 2.731800
-21.802700 3.538400
-21.764200 4.391400
-21.725700 4.626400
-21.687200 4.021200
-21.648700 4.762800
-21.610200 6.232000
-21.571800 7.794100
-21.533300 11.582700
-21.494800 16.552600
-21.456300 16.972800
-21.417800 11.626600
-21.379300 5.571100
-21.340800 1.533300
-21.302300 0.181100
-21.263800 0.007800
-21.225300 0.000100
-21.186900 0.000000
-21.148400 0.000000
-21.109900 0.000000
-21.071400 0.000000
-21.032900 0.000000
-20.994400 0.000000
-20.955900 0.000000
-20.917400 0.000000
-20.878900 0.000000
-20.840400 0.000000
-20.802000 0.000000
-20.763500 0.000000
-20.725000 0.000000
-20.686500 0.000000
-20.648000 0.000000
-20.609500 0.000000
-20.571000 0.000000
-20.532500 0.000800
-20.494000 0.011000
-20.455500 0.052100
-20.417100 0.084000
-20.378600 0.051300
-20.340100 0.055500
-20.301600 0.144100
-20.263100 0.150000
-20.224600 0.053400
-20.186100 0.006600
-20.147600 0.006100
-20.109100 0.080800
-20.070600 0.388100
-20.032200 0.659000
-19.993700 0.399500
-19.955200 0.099800
-19.916700 0.080100
-19.878200 0.202300
-19.839700 0.352700
-19.801200 0.322600
-19.762700 0.323300
-19.724200 0.631300
-19.685700 1.073700
-19.647300 1.517400
-19.608800 1.724000
-19.570300 1.945500
-19.531800 2.193700
-19.493300 2.175000
-19.454800 3.170900
-19.416300 4.826100
-19.377800 5.508400
-19.339300 4.856100
-19.300900 3.562100
-19.262400 3.625100
-19.223900 4.662800
-19.185400 5.873100
-19.146900 6.431300
-19.108400 6.350700
-19.069900 6.012300
-19.031400 5.582300
-18.992900 6.119600
-18.954400 7.082500
-18.916000 6.248800
-18.877500 4.560000
-18.839000 2.686000
-18.800500 1.328800
-18.762000 0.523200
-18.723500 0.118000
-18.685000 0.011500
-18.646500 0.003400
-18.608000 0.049000
-18.569500 0.309600
-18.531100 0.979100
-18.492600 2.010600
-18.454100 2.682500
-18.415600 2.926600
-18.377100 4.273200
-18.338600 5.481600
-18.300100 5.183500
-18.261600 5.269500
-18.223100 5.648300
-18.184600 5.228200
-18.146200 4.223700
-18.107700 3.151100
-18.069200 2.198800
-18.030700 1.454500
-17.992200 0.687400
-17.953700 0.179000
-17.915200 0.021600
-17.876700 0.001000
-17.838200 0.000000
-17.799700 0.000000
-17.761300 0.000000
-17.722800 0.000000
-17.684300 0.000000
-17.645800 0.000000
-17.607300 0.000000
-17.568800 0.000000
-17.530300 0.000000
-17.491800 0.000000
-17.453300 0.000000
-17.414800 0.000000
-17.376400 0.000000
-17.337900 0.000000
-17.299400 0.000000
-17.260900 0.000000
-17.222400 0.000000
-17.183900 0.000000
-17.145400 0.000000
-17.106900 0.000000
-17.068400 0.000000
-17.030000 0.000000
-16.991500 0.000000
-16.953000 0.000000
-16.914500 0.000000
-16.876000 0.000000
-16.837500 0.000000
-16.799000 0.000000
-16.760500 0.000000
-16.722000 0.000000
-16.683500 0.000000
-16.645100 0.000000
-16.606600 0.000000
-16.568100 0.000000
-16.529600 0.000000
-16.491100 0.000000
-16.452600 0.000000
-16.414100 0.000000
-16.375600 0.000000
-16.337100 0.000000
-16.298600 0.000000
-16.260200 0.000000
-16.221700 0.000000
-16.183200 0.000000
-16.144700 0.000000
-16.106200 0.000000
-16.067700 0.000000
-16.029200 0.000000
-15.990700 0.000000
-15.952200 0.000000
-15.913700 0.000000
-15.875300 0.000000
-15.836800 0.000000
-15.798300 0.000000
-15.759800 0.000000
-15.721300 0.000000
-15.682800 0.000000
-15.644300 0.000000
-15.605800 0.000000
-15.567300 0.000000
-15.528800 0.000000
-15.490400 0.000000
-15.451900 0.000000
-15.413400 0.000000
-15.374900 0.000000
-15.336400 0.000000
-15.297900 0.000000
-15.259400 0.000000
-15.220900 0.000000
-15.182400 0.000000
-15.143900 0.000000
-15.105500 0.000000
-15.067000 0.000000
-15.028500 0.000000
-14.990000 0.000000
-14.951500 0.000000
-14.913000 0.000000
-14.874500 0.000000
-14.836000 0.000000
-14.797500 0.000000
-14.759100 0.000000
-14.720600 0.000000
-14.682100 0.000000
-14.643600 0.000000
-14.605100 0.000000
-14.566600 0.000000
-14.528100 0.000000
-14.489600 0.000000
-14.451100 0.000000
-14.412600 0.000000
-14.374200 0.000000
-14.335700 0.000000
-14.297200 0.000000
-14.258700 0.000000
-14.220200 0.000000
-14.181700 0.000000
-14.143200 0.000000
-14.104700 0.000000
-14.066200 0.000000
-14.027700 0.000000
-13.989300 0.000000
-13.950800 0.000000
-13.912300 0.000000
-13.873800 0.000000
-13.835300 0.000000
-13.796800 0.000000
-13.758300 0.000000
-13.719800 0.000000
-13.681300 0.000000
-13.642800 0.000000
-13.604400 0.000000
-13.565900 0.000000
-13.527400 0.000000
-13.488900 0.000000
-13.450400 0.000000
-13.411900 0.000000
-13.373400 0.000000
-13.334900 0.000000
-13.296400 0.000000
-13.257900 0.000000
-13.219500 0.000000
-13.181000 0.000000
-13.142500 0.000000
-13.104000 0.000000
-13.065500 0.000000
-13.027000 0.000000
-12.988500 0.000000
-12.950000 0.000000
-12.911500 0.000000
-12.873000 0.000000
-12.834600 0.000000
-12.796100 0.000000
-12.757600 0.000000
-12.719100 0.000000
-12.680600 0.000000
-12.642100 0.000000
-12.603600 0.000000
-12.565100 0.000000
-12.526600 0.000000
-12.488200 0.000000
-12.449700 0.000000
-12.411200 0.000000
-12.372700 0.000000
-12.334200 0.000000
-12.295700 0.000000
-12.257200 0.000000
-12.218700 0.000000
-12.180200 0.000000
-12.141700 0.000000
-12.103300 0.000000
-12.064800 0.000000
-12.026300 0.000000
-11.987800 0.000000
-11.949300 0.000000
-11.910800 0.000000
-11.872300 0.000000
-11.833800 0.000000
-11.795300 0.000000
-11.756800 0.000000
-11.718400 0.000000
-11.679900 0.000000
-11.641400 0.000000
-11.602900 0.000000
-11.564400 0.000000
-11.525900 0.000000
-11.487400 0.000000
-11.448900 0.000000
-11.410400 0.000000
-11.371900 0.000000
-11.333500 0.000000
-11.295000 0.000000
-11.256500 0.000000
-11.218000 0.000000
-11.179500 0.000000
-11.141000 0.000000
-11.102500 0.000000
-11.064000 0.000000
-11.025500 0.000000
-10.987000 0.000000
-10.948600 0.000000
-10.910100 0.000000
-10.871600 0.000000
-10.833100 0.000000
-10.794600 0.000000
-10.756100 0.000000
-10.717600 0.000000
-10.679100 0.000000
-10.640600 0.000000
-10.602100 0.000000
-10.563700 0.000000
-10.525200 0.000000
-10.486700 0.000000
-10.448200 0.000000
-10.409700 0.000000
-10.371200 0.000000
-10.332700 0.000000
-10.294200 0.000000
-10.255700 0.000000
-10.217300 0.000000
-10.178800 0.000000
-10.140300 0.000000
-10.101800 0.000000
-10.063300 0.000000
-10.024800 0.000000
-9.986300 0.000000
-9.947800 0.000000
-9.909300 0.000000
-9.870800 0.000000
-9.832400 0.000000
-9.793900 0.000000
-9.755400 0.000000
-9.716900 0.000000
-9.678400 0.000000
-9.639900 0.000000
-9.601400 0.000000
-9.562900 0.000000
-9.524400 0.000000
-9.485900 0.000000
-9.447500 0.000000
-9.409000 0.000000
-9.370500 0.000000
-9.332000 0.000000
-9.293500 0.000000
-9.255000 0.000000
-9.216500 0.000000
-9.178000 0.000000
-9.139500 0.000000
-9.101000 0.000000
-9.062600 0.000000
-9.024100 0.000000
-8.985600 0.000000
-8.947100 0.000000
-8.908600 0.000000
-8.870100 0.000000
-8.831600 0.000000
-8.793100 0.000000
-8.754600 0.000000
-8.716100 0.000000
-8.677700 0.000000
-8.639200 0.000000
-8.600700 0.000000
-8.562200 0.000000
-8.523700 0.000000
-8.485200 0.000000
-8.446700 0.000000
-8.408200 0.000000
-8.369700 0.000000
-8.331200 0.000000
-8.292800 0.000000
-8.254300 0.000000
-8.215800 0.000000
-8.177300 0.000000
-8.138800 0.000000
-8.100300 0.000000
-8.061800 0.000000
-8.023300 0.000000
-7.984800 0.000000
-7.946400 0.000000
-7.907900 0.000000
-7.869400 0.000000
-7.830900 0.000000
-7.792400 0.000000
-7.753900 0.000000
-7.715400 0.000000
-7.676900 0.000000
-7.638400 0.000000
-7.599900 0.000000
-7.561500 0.000000
-7.523000 0.000000
-7.484500 0.000000
-7.446000 0.000000
-7.407500 0.000000
-7.369000 0.000000
-7.330500 0.000000
-7.292000 0.000000
-7.253500 0.000000
-7.215000 0.000000
-7.176600 0.000000
-7.138100 0.000000
-7.099600 0.000000
-7.061100 0.000000
-7.022600 0.000000
-6.984100 0.000000
-6.945600 0.000000
-6.907100 0.000000
-6.868600 0.000000
-6.830100 0.000000
-6.791700 0.000000
-6.753200 0.000000
-6.714700 0.000000
-6.676200 0.000000
-6.637700 0.000000
-6.599200 0.000000
-6.560700 0.000000
-6.522200 0.000000
-6.483700 0.000000
-6.445200 0.000000
-6.406800 0.000000
-6.368300 0.000000
-6.329800 0.000000
-6.291300 0.000000
-6.252800 0.000000
-6.214300 0.000000
-6.175800 0.000000
-6.137300 0.000000
-6.098800 0.000000
-6.060300 0.000000
-6.021900 0.000000
-5.983400 0.000000
-5.944900 0.000000
-5.906400 0.000000
-5.867900 0.000000
-5.829400 0.000000
-5.790900 0.000000
-5.752400 0.000000
-5.713900 0.000000
-5.675500 0.000000
-5.637000 0.000000
-5.598500 0.000000
-5.560000 0.000000
-5.521500 0.000000
-5.483000 0.000000
-5.444500 0.000000
-5.406000 0.000000
-5.367500 0.000000
-5.329000 0.000000
-5.290600 0.000000
-5.252100 0.000000
-5.213600 0.000000
-5.175100 0.000000
-5.136600 0.000000
-5.098100 0.000000
-5.059600 0.000000
-5.021100 0.000000
-4.982600 0.000000
-4.944100 0.000000
-4.905700 0.000000
-4.867200 0.000000
-4.828700 0.000000
-4.790200 0.000000
-4.751700 0.000000
-4.713200 0.000000
-4.674700 0.000000
-4.636200 0.000000
-4.597700 0.000000
-4.559200 0.000000
-4.520800 0.000000
-4.482300 0.000000
-4.443800 0.000000
-4.405300 0.000000
-4.366800 0.000000
-4.328300 0.000000
-4.289800 0.000000
-4.251300 0.000000
-4.212800 0.000000
-4.174300 0.000000
-4.135900 0.000000
-4.097400 0.000000
-4.058900 0.000000
-4.020400 0.000000
-3.981900 0.000000
-3.943400 0.000000
-3.904900 0.000000
-3.866400 0.000000
-3.827900 0.000000
-3.789400 0.000000
-3.751000 0.000000
-3.712500 0.000000
-3.674000 0.000000
-3.635500 0.000000
-3.597000 0.000000
-3.558500 0.001300
-3.520000 0.019700
-3.481500 0.100100
-3.443000 0.198700
-3.404600 0.336700
-3.366100 0.670000
-3.327600 0.754800
-3.289100 0.756500
-3.250600 1.251200
-3.212100 2.101300
-3.173600 2.454800
-3.135100 2.030100
-3.096600 1.842500
-3.058100 2.365200
-3.019700 3.210500
-2.981200 4.952900
-2.942700 6.246300
-2.904200 4.960200
-2.865700 3.428200
-2.827200 2.936200
-2.788700 2.059200
-2.750200 1.751600
-2.711700 2.602300
-2.673200 3.342100
-2.634800 2.945900
-2.596300 2.704800
-2.557800 3.671100
-2.519300 5.330200
-2.480800 6.693200
-2.442300 6.051300
-2.403800 4.455000
-2.365300 3.673000
-2.326800 3.239800
-2.288300 3.139800
-2.249900 4.155100
-2.211400 4.927000
-2.172900 5.613000
-2.134400 7.414300
-2.095900 8.261500
-2.057400 6.971000
-2.018900 4.865000
-1.980400 3.966000
-1.941900 4.268300
-1.903400 4.239000
-1.865000 4.063500
-1.826500 3.431100
-1.788000 2.588200
-1.749500 2.490100
-1.711000 2.887700
-1.672500 3.435900
-1.634000 3.840600
-1.595500 3.399000
-1.557000 2.907100
-1.518500 2.518500
-1.480100 1.897700
-1.441600 2.129900
-1.403100 3.095400
-1.364600 3.726500
-1.326100 4.369300
-1.287600 4.511700
-1.249100 4.465500
-1.210600 4.538800
-1.172100 3.607300
-1.133700 3.314700
-1.095200 4.254600
-1.056700 4.140400
-1.018200 3.012000
-0.979700 2.028700
-0.941200 2.116200
-0.902700 3.294700
-0.864200 3.255200
-0.825700 2.170500
-0.787200 2.742300
-0.748800 4.794600
-0.710300 5.702400
-0.671800 4.372000
-0.633300 2.125300
-0.594800 1.081200
-0.556300 1.202000
-0.517800 1.310800
-0.479300 1.689700
-0.440800 2.882300
-0.402300 3.708000
-0.363900 3.683300
-0.325400 3.460300
-0.286900 2.722900
-0.248400 1.928000
-0.209900 2.217600
-0.171400 3.175100
-0.132900 3.386100
-0.094400 2.672700
-0.055900 1.948000
-0.017400 1.507200
0.021000 1.855100
0.059500 2.433200
0.098000 2.744800
0.136500 2.940200
0.175000 2.949800
0.213500 4.026400
0.252000 6.067100
0.290500 6.162500
0.329000 5.625200
0.367500 5.721700
0.405900 6.059500
0.444400 6.799300
0.482900 7.186700
0.521400 7.187400
0.559900 6.961000
0.598400 6.252100
0.636900 5.414100
0.675400 4.724500
0.713900 4.677500
0.752400 4.693300
0.790800 4.192600
0.829300 3.410000
0.867800 2.989000
0.906300 3.198300
0.944800 2.917700
0.983300 1.838400
1.021800 1.160500
1.060300 1.495200
1.098800 1.749100
1.137200 1.622500
1.175700 1.359600
1.214200 1.029200
1.252700 1.302200
1.291200 2.879100
1.329700 7.239700
1.368200 12.739400
1.406700 11.935600
1.445200 5.624500
1.483700 1.481100
1.522100 0.233200
1.560600 0.018000
1.599100 0.000500
1.637600 0.000000
1.676100 0.000000
1.714600 0.000000
1.753100 0.000000
1.791600 0.000000
1.830100 0.000000
1.868600 0.000000
1.907000 0.000000
1.945500 0.000000
1.984000 0.000000
2.022500 0.000000
2.061000 0.000000
2.099500 0.000000
2.138000 0.000000
2.176500 0.000000
2.215000 0.000000
2.253500 0.000000
2.291900 0.000000
2.330400 0.000000
2.368900 0.000000
2.407400 0.000000
2.445900 0.000000
2.484400 0.000000
2.522900 0.000000
2.561400 0.000000
2.599900 0.000000
2.638400 0.000000
2.676800 0.000000
2.715300 0.000000
2.753800 0.000000
2.792300 0.000000
2.830800 0.000000
2.869300 0.000000
2.907800 0.000000
2.946300 0.000000
2.984800 0.000000
3.023300 0.000000
3.061700 0.000000
3.100200 0.000000
3.138700 0.000000
3.177200 0.000000
3.215700 0.000000
3.254200 0.000000
3.292700 0.000000
3.331200 0.000000
3.369700 0.000000
3.408100 0.000000
3.446600 0.000000
3.485100 0.000000
3.523600 0.000000
3.562100 0.000000
3.600600 0.000000
3.639100 0.000000
3.677600 0.000000
3.716100 0.000000
3.754600 0.000000
3.793000 0.000000
3.831500 0.000000
3.870000 0.000000
3.908500 0.000000
3.947000 0.000000
3.985500 0.000000
4.024000 0.000000
4.062500 0.000000
4.101000 0.000000
4.139500 0.000000
4.177900 0.000000
4.216400 0.000000
4.254900 0.000000
4.293400 0.000000
4.331900 0.000000
4.370400 0.000000
4.408900 0.000000
4.447400 0.000000
4.485900 0.000000
4.524400 0.000000
4.562800 0.000000
4.601300 0.000000
4.639800 0.000000
4.678300 0.000000
4.716800 0.000000
4.755300 0.000000
4.793800 0.000000
4.832300 0.000000
4.870800 0.000000
4.909300 0.000000
4.947700 0.000000
4.986200 0.000000
5.024700 0.000000
5.063200 0.000000
5.101700 0.000000
5.140200 0.000000
5.178700 0.000000
5.217200 0.000000
5.255700 0.000000
5.294200 0.000000
5.332600 0.000000
5.371100 0.000000
5.409600 0.000000
5.448100 0.000000
5.486600 0.000000
5.525100 0.000000
5.563600 0.000000
5.602100 0.000000
5.640600 0.000000
5.679000 0.000000
5.717500 0.000000
5.756000 0.000000
5.794500 0.000000
5.833000 0.000000
5.871500 0.000000
5.910000 0.000000
5.948500 0.000000
5.987000 0.000000
6.025500 0.000000
6.063900 0.000000
6.102400 0.000000
6.140900 0.000000
6.179400 0.000000
6.217900 0.000000
6.256400 0.000000
6.294900 0.000000
6.333400 0.000000
6.371900 0.000000
6.410400 0.000000
6.448800 0.000000
6.487300 0.000000
6.525800 0.000000
6.564300 0.000000
6.602800 0.000000
6.641300 0.000000
6.679800 0.000000
6.718300 0.000000
6.756800 0.000000
6.795300 0.000000
6.833700 0.000100
6.872200 0.002500
6.910700 0.023300
6.949200 0.071600
6.987700 0.075400
7.026200 0.032800
7.064700 0.054200
7.103200 0.147900
7.141700 0.149500
7.180200 0.076700
7.218600 0.081200
7.257100 0.071300
7.295600 0.022800
7.334100 0.003500
7.372600 0.024900
7.411100 0.204000
7.449600 0.629000
7.488100 0.754700
7.526600 0.366600
7.565100 0.133400
7.603500 0.195700
7.642000 0.421000
7.680500 0.597700
7.719000 0.474000
7.757500 0.207800
7.796000 0.082000
7.834500 0.198100
7.873000 0.388200
7.911500 0.406700
7.949900 0.587800
7.988400 0.921600
8.026900 0.990000
8.065400 0.699100
8.103900 0.362100
8.142400 0.623400
8.180900 1.356000
8.219400 1.965100
8.257900 1.805600
8.296400 1.473500
8.334800 1.227100
8.373300 0.993200
8.411800 0.923500
8.450300 0.884600
8.488800 0.808700
8.527300 0.524300
8.565800 0.406200
8.604300 0.404600
8.642800 1.008500
8.681300 2.361500
8.719700 2.754700
8.758200 1.927800
8.796700 1.779200
8.835200 3.220400
8.873700 4.981300
8.912200 5.514700
8.950700 4.689800
8.989200 3.284000
9.027700 2.293700
9.066200 2.263900
9.104600 2.389500
9.143100 1.703900
9.181600 1.207100
9.220100 1.792400
9.258600 2.257000
9.297100 2.537900
9.335600 3.310600
9.374100 4.596400
9.412600 5.138700
9.451100 4.504100
9.489500 3.737500
9.528000 2.736800
9.566500 2.159600
9.605000 2.699100
9.643500 2.754900
9.682000 2.791700
9.720500 4.354900
9.759000 6.324900
9.797500 7.351700
9.836000 7.870600
9.874400 7.417300
9.912900 6.188700
9.951400 4.590300
9.989900 3.763200
10.028400 3.740800
10.066900 4.155100
10.105400 4.042000
10.143900 3.394700
10.182400 2.911100
10.220800 2.913000
10.259300 3.403400
10.297800 3.970500
10.336300 3.795300
10.374800 4.079500
10.413300 5.442600
10.451800 5.484000
10.490300 4.019400
10.528800 3.043000
10.567300 2.339000
10.605700 2.785900
10.644200 5.215200
10.682700 6.343900
10.721200 6.333100
10.759700 6.890100
10.798200 6.162500
10.836700 4.109900
10.875200 3.388200
10.913700 3.017300
10.952200 2.420500
10.990600 2.342700
11.029100 2.158900
11.067600 1.576100
11.106100 1.096900
11.144600 0.867800
11.183100 0.628600
11.221600 0.289100
11.260100 0.312700
11.298600 0.870100
11.337100 1.000900
11.375500 0.412200
11.414000 0.060200
11.452500 0.003100
11.491000 0.000100
11.529500 0.001000
11.568000 0.020100
11.606500 0.138400
11.645000 0.321700
11.683500 0.255300
11.722000 0.069100
11.760400 0.011100
11.798900 0.059300
11.837400 0.253500
11.875900 0.418800
11.914400 0.323500
11.952900 0.135800
11.991400 0.090200
12.029900 0.374900
12.068400 0.809600
12.106900 0.975800
12.145300 1.124000
12.183800 1.018500
12.222300 0.569800
12.260800 0.473600
12.299300 0.564200
12.337800 0.439500
12.376300 0.208300
12.414800 0.062100
12.453300 0.015400
12.491700 0.067200
12.530200 0.251700
12.568700 0.328100
12.607200 0.218500
12.645700 0.452400
12.684200 0.892400
12.722700 0.821400
12.761200 0.528100
12.799700 0.564800
12.838200 0.933700
12.876600 0.813500
12.915100 0.549700
12.953600 0.693800
12.992100 0.564200
13.030600 0.421300
13.069100 0.471800
13.107600 0.443800
13.146100 0.254200
13.184600 0.097600
13.223100 0.200900
13.261500 0.338400
13.300000 0.235300
13.338500 0.296200
13.377000 0.837200
13.415500 1.438700
13.454000 1.120100
13.492500 0.372100
13.531000 0.286800
13.569500 0.622000
13.608000 0.722900
13.646400 0.777200
13.684900 1.034900
13.723400 1.396200
13.761900 1.491000
13.800400 1.050400
13.838900 1.119700
13.877400 2.112400
13.915900 3.008000
13.954400 2.843200
13.992900 1.448300
14.031300 0.410000
14.069800 0.369300
14.108300 0.677900
14.146800 0.726800
14.185300 0.447200
14.223800 0.137700
14.262300 0.017000
14.300800 0.000700
14.339300 0.000000
14.377800 0.000000
14.416200 0.000000
14.454700 0.000000
14.493200 0.000000
14.531700 0.000000
14.570200 0.000000
14.608700 0.000000
14.647200 0.000000
14.685700 0.000000
14.724200 0.000000
14.762600 0.000000
14.801100 0.000000
14.839600 0.000000
14.878100 0.000000
14.916600 0.000000
14.955100 0.000000
14.993600 0.000000
15.032100 0.000000
15.070600 0.000000
15.109100 0.000000
15.147500 0.000700
15.186000 0.015800
15.224500 0.120800
15.263000 0.311800
15.301500 0.284700
15.340000 0.134900
15.378500 0.092000
15.417000 0.047100
15.455500 0.038000
15.494000 0.173100
15.532400 0.354900
15.570900 0.325100
15.609400 0.218000
15.647900 0.097700
15.686400 0.034400
15.724900 0.130700
15.763400 0.351700
15.801900 0.356400
15.840400 0.202600
15.878900 0.451300
15.917300 1.130000
15.955800 1.139700
15.994300 0.425200
16.032800 0.056100
16.071300 0.002500
16.109800 0.000100
16.148300 0.003900
16.186800 0.057200
16.225300 0.301500
16.263800 0.611300
16.302200 0.533100
16.340700 0.390200
16.379200 0.475200
16.417700 0.517200
16.456200 0.916200
16.494700 1.619700
16.533200 1.513500
16.571700 1.084900
16.610200 1.873800
16.648700 2.585700
16.687100 1.415700
16.725600 0.287400
16.764100 0.021200
16.802600 0.002300
16.841100 0.046100
16.879600 0.406000
16.918100 1.238700
16.956600 1.477400
16.995100 1.171800
17.033500 1.135200
17.072000 0.972900
17.110500 0.808800
17.149000 0.912200
17.187500 1.064600
17.226000 1.444600
17.264500 1.470800
17.303000 1.441400
17.341500 1.845000
17.380000 1.734000
17.418400 1.569200
17.456900 1.539400
17.495400 1.245000
17.533900 0.961500
17.572400 0.801200
17.610900 0.383300
17.649400 0.133600
17.687900 0.242800
17.726400 0.345300
17.764900 0.376200
17.803300 1.060800
17.841800 1.684000
17.880300 1.053600
17.918800 0.654900
17.957300 0.672400
17.995800 0.477900
18.034300 0.869400
18.072800 1.749000
18.111300 1.546500
18.149800 0.596200
18.188200 0.426500
18.226700 0.776900
18.265200 0.854100
18.303700 1.053500
18.342200 1.681500
18.380700 1.606800
18.419200 1.146700
18.457700 1.305700
18.496200 1.521100
18.534700 1.468000
18.573100 0.890200
18.611600 0.642500
18.650100 0.846900
18.688600 0.693300
18.727100 0.300800
18.765600 0.307900
18.804100 0.652200
18.842600 0.948600
18.881100 1.168400
18.919600 1.165100
18.958000 1.585400
18.996500 1.946800
19.035000 1.569700
19.073500 1.142700
19.112000 0.747900
19.150500 0.685900
19.189000 0.709200
19.227500 0.526000
19.266000 0.306500
19.304400 0.692100
19.342900 1.519000
19.381400 1.528200
19.419900 1.116200
19.458400 0.762000
19.496900 0.455100
19.535400 0.658800
19.573900 1.210000
19.612400 1.187700
19.650900 0.962300
19.689300 1.176300
19.727800 1.589300
19.766300 2.051500
19.804800 2.107600
19.843300 1.832400
19.881800 1.357000
19.920300 1.201100
19.958800 1.965200
19.997300 2.397500
20.035800 1.679100
20.074200 1.099500
20.112700 1.067200
20.151200 0.830000
20.189700 0.294500
20.228200 0.097500
20.266700 0.238900
20.305200 0.329300
20.343700 0.156300
20.382200 0.025100
20.420700 0.001300
20.459100 0.000000
20.497600 0.000000
20.536100 0.000000
20.574600 0.000500
20.613100 0.014900
20.651600 0.155100
20.690100 0.579700
20.728600 0.836400
20.767100 0.683000
20.805600 0.804300
20.844000 1.025200
20.882500 0.965100
20.921000 1.037400
20.959500 1.460300
20.998000 1.474100
21.036500 1.536400
21.075000 1.453200
21.113500 1.303700
21.152000 1.466500
21.190500 2.069600
21.228900 2.751400
21.267400 3.223500
21.305900 3.815100
21.344400 3.493300
21.382900 2.890700
21.421400 2.943000
21.459900 2.300300
21.498400 1.038300
21.536900 0.814000
21.575300 1.592400
21.613800 2.330500
21.652300 2.386800
21.690800 2.287600
21.729300 2.359400
21.767800 2.383500
21.806300 2.387500
21.844800 2.429000
21.883300 2.618500
21.921800 2.550900
21.960200 2.440200
21.998700 2.085200
22.037200 1.482100
22.075700 1.602600
22.114200 2.220600
22.152700 2.153100
22.191200 1.642700
22.229700 1.421300
22.268200 1.339100
22.306700 1.699600
22.345100 2.229700
22.383600 2.205500
22.422100 2.490600
22.460600 2.589300
22.499100 2.869500
22.537600 3.455300
22.576100 3.092200
22.614600 2.377900
22.653100 1.794400
22.691600 1.384900
22.730000 1.089700
22.768500 0.875300
22.807000 0.924000
22.845500 1.397100
22.884000 2.011400
22.922500 1.902800
22.961000 1.868300
22.999500 2.340000
23.038000 2.406900
23.076500 2.315400
23.114900 2.626700
23.153400 2.866400
23.191900 2.369000
23.230400 2.353200
23.268900 3.511500
23.307400 3.620200
23.345900 2.347100
23.384400 1.942800
23.422900 2.469700
23.461400 2.581200
23.499800 1.759900
23.538300 1.961100
23.576800 3.023900
23.615300 3.205300
23.653800 3.994300
23.692300 3.695500
23.730800 1.709500
23.769300 0.664500
23.807800 0.875800
23.846200 1.211700
23.884700 1.273000
23.923200 1.094000
23.961700 0.646600
24.000200 0.475300
24.038700 0.576600
24.077200 0.722900
24.115700 1.254900
24.154200 1.605200
24.192700 1.574000
24.231100 1.905900
24.269600 1.912900
24.308100 1.933300
24.346600 1.932700
24.385100 1.447300
24.423600 1.352100
24.462100 1.963600
24.500600 1.880100
24.539100 0.976600
24.577600 0.991800
24.616000 1.224300
24.654500 1.074300
24.693000 0.915200
24.731500 0.727200
24.770000 1.085900
24.808500 1.693200
24.847000 1.766300
24.885500 2.013200
24.924000 2.452500
24.962500 1.764900
25.000900 0.796400
25.039400 0.275000
25.077900 0.093100
25.116400 0.372500
25.154900 1.401100
25.193400 2.214800
25.231900 2.107100
25.270400 1.594900
25.308900 0.899100
25.347400 0.793500
25.385800 1.198900
25.424300 1.240500
25.462800 1.355900
25.501300 1.818800
25.539800 1.986100
25.578300 1.924900
25.616800 1.786500
25.655300 1.529500
25.693800 1.361000
25.732300 1.371900
25.770700 1.014900
25.809200 0.609800
25.847700 0.486100
25.886200 0.696400
25.924700 1.077100
25.963200 1.730500
26.001700 2.214400
26.040200 2.032700
26.078700 1.593800
26.117100 0.970300
26.155600 0.947100
26.194100 1.218900
26.232600 1.260200
26.271100 1.471300
26.309600 1.703000
26.348100 1.735000
26.386600 1.299700
26.425100 1.359300
26.463600 2.062500
26.502000 1.938000
26.540500 1.712600
26.579000 1.883100
26.617500 1.835500
26.656000 1.433100
26.694500 0.967900
26.733000 0.817300
26.771500 0.802800
26.810000 1.685500
26.848500 3.291600
26.886900 3.693000
26.925400 2.823400
26.963900 1.521400
27.002400 0.870000
27.040900 1.283700
27.079400 2.328800
27.117900 3.027400
27.156400 2.390500
27.194900 2.147200
27.233400 2.736800
27.271800 2.837000
27.310300 2.589600
27.348800 2.038600
27.387300 1.681400
27.425800 1.625800
27.464300 1.175200
27.502800 0.804400
27.541300 1.112000
27.579800 1.839000
27.618300 2.177900
27.656700 1.980600
27.695200 1.508600
27.733700 1.087400
27.772200 1.462900
27.810700 1.700200
27.849200 1.457600
27.887700 1.748600
27.926200 1.914700
27.964700 1.338500
28.003200 1.160200
28.041600 1.665000
28.080100 1.838300
28.118600 1.727300
28.157100 2.268200
28.195600 2.428400
28.234100 1.462000
28.272600 0.918900
28.311100 0.674800
28.349600 0.352200
28.388000 0.385100
28.426500 0.559800
28.465000 0.704000
28.503500 1.320700
28.542000 1.717100
28.580500 1.477700
28.619000 1.549900
28.657500 1.644800
28.696000 1.439400
28.734500 1.516500
28.772900 1.745900
28.811400 1.573800
28.849900 1.664500
28.888400 1.616500
28.926900 1.026100
28.965400 0.591000
29.003900 0.524700
29.042400 0.565700
29.080900 0.538300
29.119400 0.435500
29.157800 0.476100
29.196300 0.851000
29.234800 1.572700
29.273300 1.401400
29.311800 0.757700
29.350300 1.374000
29.388800 2.391500
29.427300 2.035500
29.465800 1.390700
29.504300 1.205600
29.542700 1.268600
29.581200 1.653800
29.619700 1.985400
29.658200 2.025500
29.696700 1.678200
29.735200 1.423200
29.773700 1.623100
29.812200 2.522700
29.850700 3.858800
29.889200 3.569800
29.927600 2.090700
29.966100 1.741000
30.004600 1.914100
30.043100 1.918500
30.081600 2.114400
30.120100 2.493400
30.158600 2.342700
30.197100 1.677800
30.235600 1.227400
30.274100 0.883300
30.312500 0.707900
30.351000 1.350100
30.389500 3.046500
30.428000 4.984300
30.466500 5.036700
30.505000 2.980700
30.543500 1.875700
30.582000 1.884900
30.620500 1.723300
30.658900 1.862600
30.697400 2.219800
30.735900 2.427000
30.774400 2.071300
30.812900 1.608200
30.851400 1.695200
30.889900 2.133000
30.928400 2.257000
30.966900 1.751200
31.005400 1.265000
31.043800 1.464800
31.082300 2.076200
31.120800 2.539700
31.159300 2.005600
31.197800 1.016200
31.236300 0.605800
31.274800 1.009600
31.313300 1.749200
31.351800 1.651900
31.390300 0.887000
31.428700 0.715100
31.467200 0.735600
31.505700 0.439000
31.544200 0.452300
31.582700 0.688200
31.621200 0.970800
31.659700 1.132100
31.698200 1.535800
31.736700 3.057600
31.775200 3.921900
31.813600 3.074700
31.852100 2.052100
31.890600 1.673900
31.929100 2.485400
31.967600 3.304700
32.006100 2.523300
32.044600 1.686700
32.083100 2.550200
32.121600 4.085300
32.160100 3.248200
32.198500 1.884400
32.237000 1.768300
32.275500 1.448400
32.314000 1.210800
32.352500 1.196500
32.391000 1.668800
32.429500 2.770500
32.468000 2.620100
32.506500 2.199400
32.545000 2.646700
32.583400 2.782000
32.621900 2.319500
32.660400 2.194600
32.698900 1.977200
32.737400 1.178900
32.775900 0.588000
32.814400 0.332800
32.852900 0.193100
32.891400 0.300000
32.929800 0.310900
32.968300 0.288200
33.006800 1.046700
33.045300 2.273300
33.083800 2.103500
33.122300 1.173400
33.160800 1.207200
33.199300 2.548000
33.237800 3.113500
33.276300 2.300200
33.314700 2.153400
33.353200 2.319300
33.391700 2.235000
33.430200 2.153400
33.468700 2.219000
33.507200 2.211700
33.545700 2.051900
33.584200 1.524800
33.622700 1.382800
33.661200 1.723500
33.699600 1.795000
33.738100 1.304200
33.776600 1.029100
33.815100 1.486500
33.853600 2.112400
33.892100 2.465000
33.930600 2.191000
33.969100 1.342900
34.007600 1.074200
34.046100 1.337700
34.084500 1.559900
34.123000 1.805500
34.161500 2.030400
34.200000 2.150100
34.238500 1.996300
34.277000 1.310400
34.315500 0.994300
34.354000 1.089500
34.392500 1.250100
34.431000 1.393200
34.469400 1.185600
34.507900 1.141400
34.546400 1.728400
34.584900 1.857000
34.623400 1.209500
34.661900 0.966400
34.700400 1.210100
34.738900 1.452600
34.777400 1.178100
34.815900 1.334100
34.854300 1.361500
34.892800 0.888100
34.931300 0.858700
34.969800 1.526300
35.008300 2.285100
35.046800 2.076300
35.085300 1.494100
35.123800 1.646100
35.162300 1.719100
35.200700 1.658600
35.239200 1.832900
35.277700 1.605200
35.316200 1.633300
35.354700 2.046100
35.393200 2.938000
35.431700 3.590400
35.470200 2.620100
35.508700 1.884400
35.547200 2.115700
35.585600 2.042900
35.624100 1.840600
35.662600 1.639400
35.701100 1.371200
35.739600 1.501600
35.778100 1.692000
35.816600 1.229700
35.855100 0.546400
35.893600 0.580800
35.932100 1.077500
35.970500 1.436700
36.009000 1.765700
36.047500 1.799800
36.086000 1.338700
36.124500 0.815400
36.163000 0.626900
36.201500 0.667600
36.240000 0.701900
36.278500 0.737900
36.317000 1.286300
36.355400 2.254000
36.393900 2.549000
36.432400 2.405900
36.470900 1.903900
36.509400 1.497800
36.547900 1.209300
36.586400 1.264600
36.624900 1.342700
36.663400 0.998400
36.701900 1.082800
36.740300 1.587500
36.778800 2.765400
36.817300 3.823800
36.855800 2.611700
36.894300 1.371300
36.932800 1.125900
36.971300 1.045000
37.009800 0.932600
37.048300 0.875000
37.086800 1.139400
37.125200 1.553700
37.163700 1.549100
37.202200 2.144400
37.240700 2.787000
37.279200 2.441500
37.317700 1.803800
37.356200 1.277400
37.394700 0.756900
37.433200 0.574300
37.471600 1.125400
37.510100 2.159100
37.548600 2.784100
37.587100 2.333700
37.625600 1.630300
37.664100 0.979600
37.702600 0.790400
37.741100 1.238100
37.779600 1.719700
37.818100 1.402100
37.856500 1.232600
37.895000 1.851000
37.933500 1.843600
37.972000 1.361000
38.010500 1.353400
38.049000 1.845400
38.087500 1.685700
38.126000 1.050700
38.164500 1.169600
38.203000 1.823700
38.241400 2.580100
38.279900 2.432900
38.318400 1.665100
38.356900 1.173600
38.395400 0.781800
38.433900 0.644900
38.472400 0.865400
38.510900 1.051600
38.549400 1.520700
38.587900 2.432800
38.626300 3.611700
38.664800 3.258200
38.703300 1.815000
38.741800 1.391200
38.780300 1.876400
38.818800 2.078500
38.857300 1.359000
38.895800 1.148000
38.934300 1.808300
38.972800 1.793400
39.011200 1.437900
39.049700 1.594500
39.088200 2.038600
39.126700 2.446300
39.165200 2.661800
39.203700 2.712600
39.242200 2.135500
39.280700 1.347600
39.319200 1.431500
39.357700 2.623200
39.396100 3.077500
39.434600 2.704900
39.473100 2.270200
39.511600 2.343200
39.550100 2.443700
39.588600 2.312000
39.627100 2.358100
39.665600 1.854000
39.704100 1.254300
39.742500 1.617100
39.781000 2.614400
39.819500 3.069100
39.858000 2.905900
39.896500 2.590300
39.935000 2.454500
39.973500 2.068100
40.012000 1.427600
40.050500 0.951200
40.089000 0.791900
40.127400 1.350200
40.165900 2.055400
40.204400 2.075400
40.242900 1.896300
40.281400 2.038700
40.319900 1.706100
40.358400 1.158900
40.396900 0.990500
40.435400 0.579600
40.473900 0.163900
40.512300 0.209300
40.550800 0.759200
40.589300 1.391100
40.627800 1.745700
40.666300 1.937900
40.704800 2.198100
40.743300 2.680900
40.781800 2.839600
40.820300 2.554200
40.858800 2.201200
40.897200 2.327600
40.935700 2.546900
40.974200 3.241200
41.012700 3.980800
41.051200 4.166200
41.089700 2.763100
41.128200 1.251500
41.166700 1.514500
41.205200 2.187500
41.243700 1.945000
41.282100 1.784700
41.320600 1.900400
41.359100 1.485600
41.397600 1.243900
41.436100 2.056400
41.474600 3.198400
41.513100 3.634900
41.551600 2.364900
41.590100 1.389600
41.628600 2.091200
41.667000 3.031700
41.705500 3.296100
41.744000 4.256900
41.782500 4.467400
41.821000 2.957700
41.859500 2.296900
41.898000 2.905600
41.936500 3.198600
41.975000 3.276100
42.013400 3.039400
42.051900 2.265500
42.090400 2.136800
42.128900 3.346200
42.167400 3.535700
42.205900 1.943100
42.244400 1.064400
42.282900 1.109000
42.321400 2.023100
42.359900 2.853800
42.398300 3.093600
42.436800 3.140900
42.475300 2.210200
42.513800 1.547600
42.552300 2.472900
42.590800 3.651700
42.629300 4.129800
42.667800 4.602200
42.706300 4.996900
42.744800 4.675700
42.783200 3.169000
42.821700 1.894500
42.860200 2.147000
42.898700 2.596800
42.937200 2.203100
42.975700 2.294300
43.014200 2.765500
43.052700 3.014900
43.091200 3.790200
43.129700 4.894100
43.168100 5.417300
43.206600 5.519000
43.245100 6.227000
43.283600 6.380700
43.322100 5.242700
43.360600 4.500400
43.399100 3.686100
43.437600 2.990700
43.476100 3.280700
43.514600 3.225300
43.553000 2.472000
43.591500 1.838700
43.630000 1.285800
43.668500 0.717000
43.707000 0.565100
43.745500 0.598800
43.784000 1.064100
43.822500 2.156300
43.861000 2.879100
43.899500 3.847200
43.937900 4.198700
43.976400 3.677300
44.014900 3.031400
44.053400 2.274000
44.091900 2.194300
44.130400 2.696600
44.168900 3.135900
44.207400 2.839600
44.245900 1.916300
44.284300 1.404400
44.322800 1.757000
44.361300 1.873600
44.399800 1.237400
44.438300 0.727800
44.476800 0.790500
44.515300 0.965800
44.553800 1.039600
44.592300 1.147300
44.630800 1.057600
44.669200 0.746600
44.707700 0.878200
44.746200 1.681000
44.784700 1.943300
44.823200 1.659200
44.861700 1.896100
44.900200 2.420100
44.938700 2.470800
44.977200 2.018200
45.015700 2.282800
45.054100 3.094200
45.092600 3.107400
45.131100 1.973800
45.169600 1.323000
45.208100 1.829000
45.246600 2.102100
45.285100 1.715500
45.323600 1.363700
45.362100 1.476800
45.400600 1.612300
45.439000 1.403200
45.477500 1.520200
45.516000 1.820800
45.554500 2.399800
45.593000 2.757200
45.631500 1.853600
45.670000 0.786600
45.708500 0.704700
45.747000 1.100100
45.785500 1.219600
45.823900 1.924200
45.862400 3.014000
45.900900 3.122000
45.939400 3.028800
45.977900 2.487100
46.016400 1.621500
46.054900 2.077900
46.093400 2.632700
46.131900 2.659300
46.170400 2.360700
46.208800 1.583100
46.247300 1.387600
46.285800 1.750400
46.324300 1.946500
46.362800 1.654200
46.401300 1.809200
46.439800 2.297000
46.478300 2.045000
46.516800 1.846000
46.555200 1.507500
46.593700 1.681900
46.632200 2.175800
46.670700 1.718500
46.709200 0.714400
46.747700 0.286700
46.786200 0.552900
46.824700 0.890800
46.863200 0.832000
46.901700 0.639600
46.940100 0.454000
46.978600 0.267000
47.017100 0.175700
47.055600 0.125200
47.094100 0.319700
47.132600 0.790600
47.171100 1.356200
47.209600 1.407900
47.248100 0.747900
47.286600 0.222100
47.325000 0.318400
47.363500 0.788800
47.402000 0.860100
47.440500 0.390000
47.479000 0.231500
47.517500 0.560400
47.556000 0.614300
47.594500 0.231100
47.633000 0.029300
47.671500 0.001200
47.709900 0.000000
47.748400 0.000000
47.786900 0.000000
47.825400 0.000000
47.863900 0.000000
47.902400 0.000000
47.940900 0.000000
47.979400 0.000000
48.017900 0.000000
48.056400 0.000000
48.094800 0.000000
48.133300 0.000000
48.171800 0.000000
48.210300 0.000000
48.248800 0.000000
48.287300 0.000000
48.325800 0.000000
48.364300 0.000000
48.402800 0.000000
48.441300 0.000000
48.479700 0.000000
48.518200 0.000000
48.556700 0.000000
48.595200 0.000000
48.633700 0.000000
48.672200 0.000000
48.710700 0.000000
48.749200 0.000000
48.787700 0.000000
48.826100 0.000000
48.864600 0.000000
48.903100 0.000000
48.941600 0.000000
48.980100 0.000000
49.018600 0.000000
49.057100 0.000000
49.095600 0.000000
49.134100 0.000000
49.172600 0.000000
49.211000 0.000000
49.249500 0.000000
49.288000 0.000000
49.326500 0.000000
49.365000 0.000000
49.403500 0.000000
49.442000 0.000000
49.480500 0.000000
49.519000 0.000000
49.557500 0.000000
49.595900 0.000000
49.634400 0.000000
49.672900 0.000000
49.711400 0.000000
49.749900 0.000000
49.788400 0.000000
49.826900 0.000000
49.865400 0.000000
49.903900 0.000000
49.942400 0.000000
49.980800 0.000000
50.019300 0.000000
50.057800 0.000000
50.096300 0.000000
50.134800 0.000000
50.173300 0.000000
50.211800 0.000000
50.250300 0.000000
50.288800 0.000000
50.327300 0.000000
50.365700 0.000000
50.404200 0.000000
50.442700 0.000000
50.481200 0.000000
50.519700 0.000000
50.558200 0.000000
50.596700 0.000000
50.635200 0.000000
50.673700 0.000000
50.712200 0.000000
50.750600 0.000000
50.789100 0.000000
50.827600 0.000000
50.866100 0.000000
50.904600 0.000000
50.943100 0.000000
50.981600 0.000000
51.020100 0.000000
e
