set title 'mp-12770 - Density of States'
set xlabel 'Energy (eV)'
set ylabel 'DOS (states/eV)'
set grid
set xrange [-10:10]
set yrange [0:6.039]
set xzeroaxis lt -1
set terminal png size 800,600
set output 'mp-12770_dos_gnuplot.png'
plot '-' using 1:2 with lines title 'DOS'
-18.190000 0.000000
-18.172700 0.000000
-18.155300 0.000000
-18.137900 0.000000
-18.120500 0.000000
-18.103100 0.000000
-18.085700 0.000000
-18.068400 0.000000
-18.051000 0.000000
-18.033600 0.000000
-18.016200 0.000000
-17.998800 0.000000
-17.981400 0.000000
-17.964000 0.000000
-17.946700 0.000000
-17.929300 0.000000
-17.911900 0.000000
-17.894500 0.000000
-17.877100 0.000000
-17.859700 0.000000
-17.842400 0.000000
-17.825000 0.000000
-17.807600 0.000000
-17.790200 0.000000
-17.772800 0.000000
-17.755400 0.000000
-17.738100 0.000000
-17.720700 0.000000
-17.703300 0.000000
-17.685900 0.000000
-17.668500 0.000000
-17.651100 0.000000
-17.633800 0.000000
-17.616400 0.000000
-17.599000 0.000000
-17.581600 0.000000
-17.564200 0.000000
-17.546800 0.000000
-17.529400 0.000000
-17.512100 0.000000
-17.494700 0.000000
-17.477300 0.000000
-17.459900 0.000000
-17.442500 0.000000
-17.425100 0.000000
-17.407800 0.000000
-17.390400 0.000000
-17.373000 0.000000
-17.355600 0.000000
-17.338200 0.000000
-17.320800 0.000000
-17.303500 0.000000
-17.286100 0.000000
-17.268700 0.000000
-17.251300 0.000000
-17.233900 0.000000
-17.216500 0.000000
-17.199200 0.000000
-17.181800 0.000000
-17.164400 0.000000
-17.147000 0.000000
-17.129600 0.000000
-17.112200 0.000000
-17.094800 0.000000
-17.077500 0.000000
-17.060100 0.000000
-17.042700 0.000000
-17.025300 0.000000
-17.007900 0.000000
-16.990500 0.000000
-16.973200 0.000000
-16.955800 0.000000
-16.938400 0.000000
-16.921000 0.000000
-16.903600 0.000000
-16.886200 0.000000
-16.868900 0.000000
-16.851500 0.000000
-16.834100 0.000000
-16.816700 0.000000
-16.799300 0.000000
-16.781900 0.000000
-16.764600 0.000000
-16.747200 0.000000
-16.729800 0.000000
-16.712400 0.000000
-16.695000 0.000000
-16.677600 0.000000
-16.660200 0.000000
-16.642900 0.000000
-16.625500 0.000000
-16.608100 2.131200
-16.590700 27.742600
-16.573300 59.731600
-16.555900 116.569000
-16.538600 48.857100
-16.521200 79.042200
-16.503800 38.957300
-16.486400 87.020400
-16.469000 87.759000
-16.451600 56.356100
-16.434300 61.118100
-16.416900 64.971600
-16.399500 0.000000
-16.382100 0.000000
-16.364700 0.000000
-16.347300 0.000000
-16.330000 0.000000
-16.312600 0.000000
-16.295200 0.000000
-16.277800 0.000000
-16.260400 0.000000
-16.243000 0.000000
-16.225600 0.000000
-16.208300 0.000000
-16.190900 0.000000
-16.173500 0.000000
-16.156100 0.000000
-16.138700 0.000000
-16.121300 0.000000
-16.104000 0.000000
-16.086600 0.000000
-16.069200 0.000000
-16.051800 0.000000
-16.034400 0.000000
-16.017000 0.000000
-15.999700 0.000000
-15.982300 0.000000
-15.964900 0.000000
-15.947500 0.000000
-15.930100 0.000000
-15.912700 0.000000
-15.895400 0.000000
-15.878000 0.000000
-15.860600 0.000000
-15.843200 0.000000
-15.825800 0.000000
-15.808400 0.000000
-15.791000 0.000000
-15.773700 0.000000
-15.756300 0.000000
-15.738900 0.000000
-15.721500 0.000000
-15.704100 0.000000
-15.686700 0.000000
-15.669400 0.000000
-15.652000 0.000000
-15.634600 0.000000
-15.617200 0.000000
-15.599800 0.000000
-15.582400 0.000000
-15.565100 0.000000
-15.547700 0.000000
-15.530300 0.000000
-15.512900 0.000000
-15.495500 0.000000
-15.478100 0.000000
-15.460800 0.000000
-15.443400 0.000000
-15.426000 0.000000
-15.408600 0.000000
-15.391200 0.000000
-15.373800 0.000000
-15.356400 0.000000
-15.339100 0.000000
-15.321700 0.000000
-15.304300 0.000000
-15.286900 0.000000
-15.269500 0.000000
-15.252100 0.000000
-15.234800 0.000000
-15.217400 0.000000
-15.200000 0.000000
-15.182600 0.000000
-15.165200 0.000000
-15.147800 0.000000
-15.130500 0.000000
-15.113100 0.000000
-15.095700 0.000000
-15.078300 0.000000
-15.060900 0.000000
-15.043500 0.000000
-15.026200 0.000000
-15.008800 0.000000
-14.991400 0.000000
-14.974000 0.000000
-14.956600 0.000000
-14.939200 0.000000
-14.921800 0.000000
-14.904500 0.000000
-14.887100 0.000000
-14.869700 0.000000
-14.852300 0.000000
-14.834900 0.000000
-14.817500 0.000000
-14.800200 0.000000
-14.782800 0.000000
-14.765400 0.000000
-14.748000 0.000000
-14.730600 0.000000
-14.713200 0.000000
-14.695900 0.000000
-14.678500 0.000000
-14.661100 0.000000
-14.643700 0.000000
-14.626300 0.000000
-14.608900 0.000000
-14.591600 0.000000
-14.574200 0.000000
-14.556800 0.000000
-14.539400 0.000000
-14.522000 0.000000
-14.504600 0.000000
-14.487200 0.000000
-14.469900 0.000000
-14.452500 0.000000
-14.435100 0.000000
-14.417700 0.000000
-14.400300 0.000000
-14.382900 0.000000
-14.365600 0.000000
-14.348200 0.000000
-14.330800 0.000000
-14.313400 0.000000
-14.296000 0.000000
-14.278600 0.000000
-14.261300 0.000000
-14.243900 0.000000
-14.226500 0.000000
-14.209100 0.000000
-14.191700 0.000000
-14.174300 0.000000
-14.157000 0.000000
-14.139600 0.000000
-14.122200 0.000000
-14.104800 0.000000
-14.087400 0.000000
-14.070000 0.000000
-14.052600 0.000000
-14.035300 0.000000
-14.017900 0.000000
-14.000500 0.000000
-13.983100 0.000000
-13.965700 0.000000
-13.948300 0.000000
-13.931000 0.000000
-13.913600 0.000000
-13.896200 0.000000
-13.878800 0.000000
-13.861400 0.000000
-13.844000 0.000000
-13.826700 0.000000
-13.809300 0.000000
-13.791900 0.000000
-13.774500 0.000000
-13.757100 0.000000
-13.739700 0.000000
-13.722400 0.000000
-13.705000 0.000000
-13.687600 0.000000
-13.670200 0.000000
-13.652800 0.000000
-13.635400 0.000000
-13.618000 0.000000
-13.600700 0.000000
-13.583300 0.000000
-13.565900 0.000000
-13.548500 0.000000
-13.531100 0.000000
-13.513700 0.000000
-13.496400 0.000000
-13.479000 0.000000
-13.461600 0.000000
-13.444200 0.000000
-13.426800 0.000000
-13.409400 0.000000
-13.392100 0.000000
-13.374700 0.000000
-13.357300 0.000000
-13.339900 0.000000
-13.322500 0.000000
-13.305100 0.000000
-13.287800 0.000000
-13.270400 0.000000
-13.253000 0.000000
-13.235600 0.000000
-13.218200 0.000000
-13.200800 0.000000
-13.183400 0.000000
-13.166100 0.000000
-13.148700 0.000000
-13.131300 0.000000
-13.113900 0.000000
-13.096500 0.000000
-13.079100 0.000000
-13.061800 0.000000
-13.044400 0.000000
-13.027000 0.000000
-13.009600 0.000000
-12.992200 0.000000
-12.974800 0.000000
-12.957500 0.000000
-12.940100 0.000000
-12.922700 0.000000
-12.905300 0.000000
-12.887900 0.000000
-12.870500 0.000000
-12.853200 0.000000
-12.835800 0.000000
-12.818400 0.000000
-12.801000 0.000000
-12.783600 0.000000
-12.766200 0.000000
-12.748800 0.000000
-12.731500 0.000000
-12.714100 0.000000
-12.696700 0.000000
-12.679300 0.000000
-12.661900 0.000000
-12.644500 0.000000
-12.627200 0.000000
-12.609800 0.000000
-12.592400 0.000000
-12.575000 0.000000
-12.557600 0.000000
-12.540200 0.000000
-12.522900 0.000000
-12.505500 0.000000
-12.488100 0.000000
-12.470700 0.000000
-12.453300 0.000000
-12.435900 0.000000
-12.418600 0.000000
-12.401200 0.000000
-12.383800 0.000000
-12.366400 0.000000
-12.349000 0.000000
-12.331600 0.000000
-12.314200 0.000000
-12.296900 0.000000
-12.279500 0.000000
-12.262100 0.000000
-12.244700 0.000000
-12.227300 0.000000
-12.209900 0.000000
-12.192600 0.000000
-12.175200 0.000000
-12.157800 0.000000
-12.140400 0.000000
-12.123000 0.000000
-12.105600 0.000000
-12.088300 0.000000
-12.070900 0.000000
-12.053500 0.000000
-12.036100 0.000000
-12.018700 0.000000
-12.001300 0.000000
-11.984000 0.000000
-11.966600 0.000000
-11.949200 0.000000
-11.931800 0.000000
-11.914400 0.000000
-11.897000 0.000000
-11.879600 0.000000
-11.862300 0.000000
-11.844900 0.000000
-11.827500 0.000000
-11.810100 0.000000
-11.792700 0.000000
-11.775300 0.000000
-11.758000 0.000000
-11.740600 0.000000
-11.723200 0.000000
-11.705800 0.000000
-11.688400 0.000000
-11.671000 0.000000
-11.653700 0.000000
-11.636300 0.000000
-11.618900 0.000000
-11.601500 0.000000
-11.584100 0.000000
-11.566700 0.000000
-11.549400 0.000000
-11.532000 0.000000
-11.514600 0.000000
-11.497200 0.000000
-11.479800 0.000000
-11.462400 0.000000
-11.445000 0.000000
-11.427700 0.000000
-11.410300 0.000000
-11.392900 0.000000
-11.375500 0.000000
-11.358100 0.000000
-11.340700 0.000000
-11.323400 0.000000
-11.306000 0.000000
-11.288600 0.000000
-11.271200 0.000000
-11.253800 0.000000
-11.236400 0.000000
-11.219100 0.000000
-11.201700 0.000000
-11.184300 0.000000
-11.166900 0.000000
-11.149500 0.000000
-11.132100 0.000000
-11.114800 0.000000
-11.097400 0.000000
-11.080000 0.000000
-11.062600 0.000000
-11.045200 0.000000
-11.027800 0.000000
-11.010400 0.000000
-10.993100 0.000000
-10.975700 0.000000
-10.958300 0.000000
-10.940900 0.000000
-10.923500 0.000000
-10.906100 0.000000
-10.888800 0.000000
-10.871400 0.000000
-10.854000 0.000000
-10.836600 0.000000
-10.819200 0.000000
-10.801800 0.000000
-10.784500 0.000000
-10.767100 0.000000
-10.749700 0.000000
-10.732300 0.000000
-10.714900 0.000000
-10.697500 0.000000
-10.680200 0.000000
-10.662800 0.000000
-10.645400 0.000000
-10.628000 0.000000
-10.610600 0.000000
-10.593200 0.000000
-10.575800 0.000000
-10.558500 0.000000
-10.541100 0.000000
-10.523700 0.000000
-10.506300 0.000000
-10.488900 0.000000
-10.471500 0.000000
-10.454200 0.000000
-10.436800 0.000000
-10.419400 0.000000
-10.402000 0.000000
-10.384600 0.000000
-10.367200 0.000000
-10.349900 0.000000
-10.332500 0.000000
-10.315100 0.000000
-10.297700 0.000000
-10.280300 0.000000
-10.262900 0.000000
-10.245600 0.000000
-10.228200 0.000000
-10.210800 0.000000
-10.193400 0.000000
-10.176000 0.000000
-10.158600 0.000000
-10.141200 0.000000
-10.123900 0.000000
-10.106500 0.000000
-10.089100 0.000000
-10.071700 0.000000
-10.054300 0.000000
-10.036900 0.000000
-10.019600 0.000000
-10.002200 0.000000
-9.984800 0.000000
-9.967400 0.000000
-9.950000 0.000000
-9.932600 0.000000
-9.915300 0.000000
-9.897900 0.000000
-9.880500 0.000000
-9.863100 0.000000
-9.845700 0.000000
-9.828300 0.000000
-9.811000 0.000000
-9.793600 0.000000
-9.776200 0.000000
-9.758800 0.000000
-9.741400 0.000000
-9.724000 0.000000
-9.706600 0.000000
-9.689300 0.000000
-9.671900 0.000000
-9.654500 0.000000
-9.637100 0.000000
-9.619700 0.000000
-9.602300 0.000000
-9.585000 0.000000
-9.567600 0.000000
-9.550200 0.000000
-9.532800 0.000000
-9.515400 0.000000
-9.498000 0.000000
-9.480700 0.000000
-9.463300 0.000000
-9.445900 0.000000
-9.428500 0.000000
-9.411100 0.000000
-9.393700 0.000000
-9.376400 0.000000
-9.359000 0.000000
-9.341600 0.000000
-9.324200 0.000000
-9.306800 0.000000
-9.289400 0.000000
-9.272000 0.000000
-9.254700 0.000000
-9.237300 0.000000
-9.219900 0.000000
-9.202500 0.000000
-9.185100 0.000000
-9.167700 0.000000
-9.150400 0.000000
-9.133000 0.000000
-9.115600 0.000000
-9.098200 0.000000
-9.080800 0.000000
-9.063400 0.000000
-9.046100 0.000000
-9.028700 0.000000
-9.011300 0.000000
-8.993900 0.000000
-8.976500 0.000000
-8.959100 0.000000
-8.941800 0.000000
-8.924400 0.000000
-8.907000 0.000000
-8.889600 0.000000
-8.872200 0.000000
-8.854800 0.000000
-8.837400 0.000000
-8.820100 0.000000
-8.802700 0.000000
-8.785300 0.000000
-8.767900 0.000000
-8.750500 0.000000
-8.733100 0.000000
-8.715800 0.000000
-8.698400 0.000000
-8.681000 0.000000
-8.663600 0.000000
-8.646200 0.000000
-8.628800 0.000000
-8.611500 0.000000
-8.594100 0.000000
-8.576700 0.000000
-8.559300 0.000000
-8.541900 0.000000
-8.524500 0.000000
-8.507200 0.000000
-8.489800 0.000000
-8.472400 0.000000
-8.455000 0.000000
-8.437600 0.000000
-8.420200 0.000000
-8.402800 0.000000
-8.385500 0.000000
-8.368100 0.000000
-8.350700 0.000000
-8.333300 0.000000
-8.315900 0.000000
-8.298500 0.000000
-8.281200 0.000000
-8.263800 0.000000
-8.246400 0.000000
-8.229000 0.000000
-8.211600 0.000000
-8.194200 0.000000
-8.176900 0.000000
-8.159500 0.000000
-8.142100 0.000000
-8.124700 0.000000
-8.107300 0.000000
-8.089900 0.000000
-8.072600 0.000000
-8.055200 0.000000
-8.037800 0.000000
-8.020400 0.000000
-8.003000 0.000000
-7.985600 0.000000
-7.968200 0.000000
-7.950900 0.000000
-7.933500 0.000000
-7.916100 0.000000
-7.898700 0.000000
-7.881300 0.000000
-7.863900 0.000000
-7.846600 0.000000
-7.829200 0.000000
-7.811800 0.000000
-7.794400 0.000000
-7.777000 0.000000
-7.759600 0.000000
-7.742300 0.000000
-7.724900 0.000000
-7.707500 0.000000
-7.690100 0.000000
-7.672700 0.000000
-7.655300 0.000000
-7.638000 0.000000
-7.620600 0.000000
-7.603200 0.000000
-7.585800 0.000000
-7.568400 0.000000
-7.551000 0.000000
-7.533600 0.000000
-7.516300 0.000000
-7.498900 0.000000
-7.481500 0.000000
-7.464100 0.000000
-7.446700 0.000000
-7.429300 0.000000
-7.412000 0.000000
-7.394600 0.000000
-7.377200 0.000000
-7.359800 0.000000
-7.342400 0.000000
-7.325000 0.000000
-7.307700 0.000000
-7.290300 0.000000
-7.272900 0.000000
-7.255500 0.000000
-7.238100 0.000000
-7.220700 0.000000
-7.203400 0.000000
-7.186000 0.000000
-7.168600 0.000000
-7.151200 0.000000
-7.133800 0.000000
-7.116400 0.000000
-7.099000 0.000000
-7.081700 0.000000
-7.064300 0.000000
-7.046900 0.000000
-7.029500 0.000000
-7.012100 0.000000
-6.994700 0.000000
-6.977400 0.000000
-6.960000 0.000000
-6.942600 0.000000
-6.925200 0.000000
-6.907800 0.000000
-6.890400 0.000000
-6.873100 0.000000
-6.855700 0.000000
-6.838300 0.000000
-6.820900 0.000000
-6.803500 0.000000
-6.786100 0.000000
-6.768800 0.000000
-6.751400 0.000000
-6.734000 0.000000
-6.716600 0.000000
-6.699200 0.000000
-6.681800 0.000000
-6.664400 0.000000
-6.647100 0.000000
-6.629700 0.000000
-6.612300 0.000000
-6.594900 0.000000
-6.577500 0.000000
-6.560100 0.000000
-6.542800 0.000000
-6.525400 0.000000
-6.508000 0.000000
-6.490600 0.000000
-6.473200 0.000000
-6.455800 0.000000
-6.438500 0.000000
-6.421100 0.000000
-6.403700 0.000000
-6.386300 0.000000
-6.368900 0.000000
-6.351500 0.000000
-6.334200 0.000000
-6.316800 0.000000
-6.299400 0.000000
-6.282000 0.000000
-6.264600 0.000000
-6.247200 0.000000
-6.229800 0.000000
-6.212500 0.000000
-6.195100 0.000000
-6.177700 0.000000
-6.160300 0.000000
-6.142900 0.000000
-6.125500 0.000000
-6.108200 0.000000
-6.090800 0.000000
-6.073400 0.000000
-6.056000 0.000000
-6.038600 0.000000
-6.021200 0.000000
-6.003900 0.000000
-5.986500 0.000000
-5.969100 0.000000
-5.951700 0.000000
-5.934300 0.000000
-5.916900 0.000000
-5.899600 0.000000
-5.882200 0.000000
-5.864800 0.000000
-5.847400 0.000000
-5.830000 0.000000
-5.812600 0.000000
-5.795200 0.000000
-5.777900 0.000000
-5.760500 0.000000
-5.743100 0.000000
-5.725700 0.000000
-5.708300 0.000000
-5.690900 0.000000
-5.673600 0.000000
-5.656200 0.000000
-5.638800 0.000000
-5.621400 0.000000
-5.604000 0.000000
-5.586600 0.000000
-5.569300 0.000000
-5.551900 0.000000
-5.534500 0.000000
-5.517100 0.000000
-5.499700 0.000000
-5.482300 0.000000
-5.465000 0.000000
-5.447600 0.000000
-5.430200 0.000000
-5.412800 0.000000
-5.395400 0.000000
-5.378000 0.000000
-5.360600 0.000000
-5.343300 0.000000
-5.325900 0.000000
-5.308500 0.000000
-5.291100 0.000000
-5.273700 0.000000
-5.256300 0.000000
-5.239000 0.000000
-5.221600 0.000000
-5.204200 0.000000
-5.186800 0.000000
-5.169400 0.123000
-5.152000 0.121500
-5.134700 0.159600
-5.117300 0.200600
-5.099900 0.237700
-5.082500 0.261900
-5.065100 0.275000
-5.047700 0.289100
-5.030400 0.306900
-5.013000 0.329100
-4.995600 0.352900
-4.978200 0.377400
-4.960800 0.400100
-4.943400 0.416100
-4.926000 0.429000
-4.908700 0.440600
-4.891300 0.454100
-4.873900 0.470500
-4.856500 0.487200
-4.839100 0.504100
-4.821700 0.521100
-4.804400 0.538800
-4.787000 0.556900
-4.769600 0.574200
-4.752200 0.588400
-4.734800 0.603800
-4.717400 0.619400
-4.700100 0.634300
-4.682700 0.649400
-4.665300 0.665700
-4.647900 0.682700
-4.630500 0.700600
-4.613100 0.728700
-4.595800 0.755900
-4.578400 0.776600
-4.561000 0.791300
-4.543600 0.800200
-4.526200 0.816300
-4.508800 0.830200
-4.491400 0.880900
-4.474100 0.855600
-4.456700 0.868500
-4.439300 0.879600
-4.421900 0.888500
-4.404500 0.914500
-4.387100 0.935300
-4.369800 0.914400
-4.352400 0.951200
-4.335000 0.988200
-4.317600 1.034600
-4.300200 1.091600
-4.282800 1.098100
-4.265500 1.089100
-4.248100 1.103800
-4.230700 1.127400
-4.213300 1.154700
-4.195900 1.183400
-4.178500 1.212600
-4.161200 1.246800
-4.143800 1.276700
-4.126400 1.298300
-4.109000 1.336600
-4.091600 1.373100
-4.074200 1.407200
-4.056800 1.442700
-4.039500 1.482200
-4.022100 1.519800
-4.004700 1.576700
-3.987300 1.636400
-3.969900 1.696100
-3.952500 1.760600
-3.935200 1.828400
-3.917800 1.901800
-3.900400 1.980700
-3.883000 2.064700
-3.865600 2.155500
-3.848200 2.334500
-3.830900 2.799700
-3.813500 3.278100
-3.796100 3.096600
-3.778700 2.585700
-3.761300 2.315300
-3.743900 2.169800
-3.726600 2.120700
-3.709200 2.050500
-3.691800 1.947400
-3.674400 1.858800
-3.657000 1.825200
-3.639600 1.804100
-3.622200 1.784000
-3.604900 1.757000
-3.587500 1.719600
-3.570100 1.675900
-3.552700 1.641400
-3.535300 1.621600
-3.517900 1.613600
-3.500600 1.604400
-3.483200 1.594200
-3.465800 1.583800
-3.448400 1.570700
-3.431000 1.551400
-3.413600 1.535800
-3.396300 1.523000
-3.378900 1.514200
-3.361500 1.511200
-3.344100 1.510100
-3.326700 1.509100
-3.309300 1.506900
-3.292000 1.502400
-3.274600 1.499600
-3.257200 1.497600
-3.239800 1.494400
-3.222400 1.487800
-3.205000 1.479800
-3.187600 1.474700
-3.170300 1.477600
-3.152900 1.481900
-3.135500 1.486400
-3.118100 1.494800
-3.100700 1.508700
-3.083300 1.519800
-3.066000 1.530600
-3.048600 1.573600
-3.031200 1.533700
-3.013800 1.571500
-2.996400 1.606200
-2.979000 1.649600
-2.961700 1.705200
-2.944300 1.706000
-2.926900 1.555400
-2.909500 1.614300
-2.892100 1.510900
-2.874700 1.524500
-2.857400 1.553100
-2.840000 1.525300
-2.822600 1.546900
-2.805200 1.596400
-2.787800 1.654400
-2.770400 1.731200
-2.753000 1.832900
-2.735700 1.967600
-2.718300 1.990200
-2.700900 1.990400
-2.683500 1.991300
-2.666100 1.985100
-2.648700 1.980600
-2.631400 1.966800
-2.614000 1.968800
-2.596600 1.976000
-2.579200 1.988500
-2.561800 1.998200
-2.544400 2.041100
-2.527100 2.115300
-2.509700 2.210500
-2.492300 2.273100
-2.474900 2.289500
-2.457500 2.197400
-2.440100 2.002600
-2.422800 1.733700
-2.405400 1.561800
-2.388000 1.438500
-2.370600 1.344900
-2.353200 1.265000
-2.335800 1.177200
-2.318400 1.092800
-2.301100 0.998300
-2.283700 0.900100
-2.266300 0.815800
-2.248900 0.719900
-2.231500 0.576300
-2.214100 0.431500
-2.196800 0.337000
-2.179400 0.250600
-2.162000 0.181300
-2.144600 0.128100
-2.127200 0.085000
-2.109800 0.052300
-2.092500 0.029800
-2.075100 0.019900
-2.057700 0.027800
-2.040300 0.062700
-2.022900 0.090300
-2.005500 0.123200
-1.988200 0.159700
-1.970800 0.201100
-1.953400 0.251500
-1.936000 0.312200
-1.918600 0.384200
-1.901200 0.476300
-1.883800 0.585700
-1.866500 0.715600
-1.849100 0.852300
-1.831700 0.980900
-1.814300 1.088800
-1.796900 1.214900
-1.779500 1.288300
-1.762200 1.314600
-1.744800 1.360500
-1.727400 1.335700
-1.710000 1.367900
-1.692600 1.408700
-1.675200 1.437200
-1.657900 1.452100
-1.640500 1.481300
-1.623100 1.515000
-1.605700 1.530500
-1.588300 1.562600
-1.570900 1.607100
-1.553600 1.653600
-1.536200 1.728300
-1.518800 1.799600
-1.501400 1.864100
-1.484000 2.039900
-1.466600 2.279700
-1.449200 2.240700
-1.431900 2.183100
-1.414500 2.063600
-1.397100 1.926700
-1.379700 1.831800
-1.362300 1.771400
-1.344900 1.723200
-1.327600 1.683200
-1.310200 1.647300
-1.292800 1.612000
-1.275400 1.578300
-1.258000 1.545200
-1.240600 1.514000
-1.223300 1.484400
-1.205900 1.456800
-1.188500 1.438100
-1.171100 1.416900
-1.153700 1.387100
-1.136300 1.356900
-1.119000 1.323400
-1.101600 1.290900
-1.084200 1.283900
-1.066800 1.276600
-1.049400 1.268500
-1.032000 1.246700
-1.014600 1.208400
-0.997300 1.141600
-0.979900 1.073800
-0.962500 1.029900
-0.945100 0.990000
-0.927700 0.952900
-0.910300 0.916200
-0.893000 0.886800
-0.875600 0.859500
-0.858200 0.823200
-0.840800 0.777700
-0.823400 0.757600
-0.806000 0.738900
-0.788700 0.723800
-0.771300 0.714200
-0.753900 0.706200
-0.736500 0.701100
-0.719100 0.698800
-0.701700 0.700100
-0.684400 0.705200
-0.667000 0.715300
-0.649600 0.753700
-0.632200 0.780500
-0.614800 0.770200
-0.597400 0.753200
-0.580000 0.733200
-0.562700 0.711900
-0.545300 0.717700
-0.527900 0.730100
-0.510500 0.743800
-0.493100 0.737800
-0.475700 0.724100
-0.458400 0.718000
-0.441000 0.715400
-0.423600 0.715300
-0.406200 0.714700
-0.388800 0.713300
-0.371400 0.710400
-0.354100 0.706000
-0.336700 0.701600
-0.319300 0.699300
-0.301900 0.716500
-0.284500 0.728000
-0.267100 0.723800
-0.249800 0.720200
-0.232400 0.719200
-0.215000 0.717000
-0.197600 0.713900
-0.180200 0.710800
-0.162800 0.707800
-0.145400 0.707300
-0.128100 0.707400
-0.110700 0.707200
-0.093300 0.707600
-0.075900 0.708600
-0.058500 0.710500
-0.041100 0.712400
-0.023800 0.714000
-0.006400 0.715400
0.011000 0.719300
0.028400 0.725100
0.045800 0.731000
0.063200 0.737300
0.080500 0.743800
0.097900 0.750900
0.115300 0.757800
0.132700 0.764700
0.150100 0.773300
0.167500 0.783100
0.184800 0.794200
0.202200 0.814800
0.219600 0.841000
0.237000 0.843900
0.254400 0.852100
0.271800 0.860900
0.289200 0.868000
0.306500 0.872100
0.323900 0.874200
0.341300 0.874500
0.358700 0.873200
0.376100 0.870000
0.393500 0.868200
0.410800 0.869300
0.428200 0.935200
0.445600 1.042600
0.463000 1.120800
0.480400 1.185700
0.497800 1.257900
0.515100 1.327800
0.532500 2.199600
0.549900 3.736700
0.567300 4.051200
0.584700 3.904300
0.602100 3.413900
0.619400 2.753500
0.636800 2.453300
0.654200 2.212500
0.671600 2.006900
0.689000 1.872900
0.706400 1.805700
0.723800 1.761000
0.741100 1.714200
0.758500 1.671300
0.775900 1.639500
0.793300 1.627100
0.810700 1.653800
0.828100 1.648900
0.845400 1.636900
0.862800 1.604000
0.880200 1.539900
0.897600 1.520200
0.915000 1.452800
0.932400 1.326100
0.949700 1.119100
0.967100 0.990300
0.984500 0.881600
1.001900 0.764000
1.019300 0.699000
1.036700 0.665400
1.054000 0.641700
1.071400 0.624000
1.088800 0.606500
1.106200 0.588800
1.123600 0.569500
1.141000 0.544800
1.158400 0.523300
1.175700 0.511000
1.193100 0.500000
1.210500 0.489700
1.227900 0.479400
1.245300 0.469000
1.262700 0.458900
1.280000 0.449000
1.297400 0.439300
1.314800 0.429800
1.332200 0.420400
1.349600 0.410700
1.367000 0.400900
1.384300 0.391200
1.401700 0.380000
1.419100 0.370100
1.436500 0.368700
1.453900 0.384400
1.471300 0.416700
1.488600 0.448000
1.506000 0.486900
1.523400 0.544800
1.540800 0.597600
1.558200 0.622100
1.575600 0.646800
1.593000 0.695300
1.610300 0.740200
1.627700 0.787500
1.645100 0.846100
1.662500 0.910500
1.679900 0.983400
1.697300 1.068200
1.714600 1.159700
1.732000 1.262800
1.749400 1.375300
1.766800 1.567800
1.784200 1.671400
1.801600 1.839500
1.818900 1.872600
1.836300 1.997700
1.853700 2.143700
1.871100 2.330000
1.888500 2.547100
1.905900 2.763000
1.923200 2.982800
1.940600 3.187600
1.958000 3.360900
1.975400 3.515000
1.992800 3.705400
2.010200 3.717600
2.027600 3.837500
2.044900 3.948500
2.062300 4.266500
2.079700 4.883600
2.097100 4.101300
2.114500 3.673600
2.131900 3.457300
2.149200 3.511800
2.166600 3.857600
2.184000 3.309000
2.201400 2.899600
2.218800 2.848100
2.236200 3.648100
2.253500 4.313300
2.270900 3.758500
2.288300 3.546200
2.305700 3.378500
2.323100 3.270100
2.340500 3.276400
2.357800 3.051300
2.375200 2.884800
2.392600 2.781400
2.410000 2.721400
2.427400 2.701400
2.444800 2.658700
2.462200 2.584000
2.479500 2.519800
2.496900 2.508100
2.514300 2.452700
2.531700 2.406800
2.549100 2.418100
2.566500 2.429200
2.583800 2.448700
2.601200 2.455000
2.618600 2.453400
2.636000 2.438200
2.653400 2.385200
2.670800 2.375700
2.688100 2.360200
2.705500 2.423600
2.722900 2.651900
2.740300 2.858900
2.757700 2.940300
2.775100 3.008900
2.792400 3.129500
2.809800 3.199000
2.827200 3.284500
2.844600 3.408900
2.862000 3.687800
2.879400 3.902100
2.896800 4.011200
2.914100 4.406300
2.931500 4.570400
2.948900 4.747900
2.966300 4.873900
2.983700 4.987400
3.001100 4.550200
3.018400 4.453100
3.035800 4.358400
3.053200 4.291800
3.070600 4.271100
3.088000 4.268800
3.105400 4.245800
3.122700 4.352200
3.140100 4.707500
3.157500 4.493700
3.174900 4.211900
3.192300 4.002900
3.209700 3.794600
3.227000 3.591100
3.244400 3.456500
3.261800 3.233900
3.279200 3.106400
3.296600 2.978000
3.314000 3.006300
3.331400 2.853000
3.348700 2.750700
3.366100 3.560900
3.383500 4.422400
3.400900 2.085300
3.418300 1.894500
3.435700 1.417300
3.453000 1.265100
3.470400 1.279600
3.487800 1.319400
3.505200 1.364800
3.522600 1.424000
3.540000 1.447100
3.557300 1.460100
3.574700 1.472900
3.592100 1.475200
3.609500 1.523200
3.626900 1.493400
3.644300 1.440500
3.661600 1.307200
3.679000 1.257700
3.696400 1.284000
3.713800 1.311200
3.731200 1.334300
3.748600 1.350900
3.766000 1.356700
3.783300 1.401100
3.800700 1.524500
3.818100 1.741000
3.835500 1.902500
3.852900 1.829200
3.870300 1.986300
3.887600 1.714200
3.905000 1.699700
3.922400 1.698200
3.939800 1.824000
3.957200 1.805100
3.974600 1.885200
3.991900 2.146400
4.009300 2.062100
4.026700 2.296000
4.044100 2.299400
4.061500 2.322000
4.078900 2.189400
4.096200 2.252500
4.113600 2.419100
4.131000 2.627600
4.148400 2.960100
4.165800 2.947400
4.183200 2.808900
4.200600 2.847400
4.217900 2.929100
4.235300 2.896700
4.252700 3.016000
4.270100 3.220400
4.287500 3.275500
4.304900 3.349700
4.322200 3.451900
4.339600 3.544900
4.357000 3.685300
4.374400 3.941300
4.391800 3.697700
4.409200 3.673500
4.426500 3.688500
4.443900 3.800200
4.461300 4.026300
4.478700 4.078000
4.496100 4.348400
4.513500 4.564100
4.530800 4.754300
4.548200 4.712800
4.565600 5.294300
4.583000 4.443500
4.600400 4.378000
4.617800 4.164800
4.635200 4.089800
4.652500 4.015200
4.669900 3.915700
4.687300 3.832500
4.704700 3.738900
4.722100 3.721500
4.739500 3.560100
4.756800 3.391200
4.774200 3.257400
4.791600 3.119000
4.809000 3.075100
4.826400 3.064800
4.843800 3.166300
4.861100 3.131700
4.878500 3.025400
4.895900 3.059300
4.913300 3.162700
4.930700 3.352500
4.948100 3.407800
4.965400 3.443900
4.982800 3.530100
5.000200 3.848500
5.017600 3.908600
5.035000 3.638300
5.052400 3.251100
5.069800 2.888500
5.087100 2.604900
5.104500 2.445400
5.121900 2.334400
5.139300 2.253900
5.156700 2.190900
5.174100 2.141800
5.191400 2.105500
5.208800 2.079900
5.226200 2.032100
5.243600 1.984400
5.261000 1.941500
5.278400 1.906000
5.295700 1.894200
5.313100 1.891300
5.330500 1.878400
5.347900 1.869000
5.365300 1.854400
5.382700 1.836800
5.400000 1.814800
5.417400 1.792000
5.434800 1.776000
5.452200 1.750300
5.469600 1.659400
5.487000 1.621500
5.504400 1.596300
5.521700 1.580700
5.539100 1.571000
5.556500 1.630600
5.573900 1.700100
5.591300 1.726200
5.608700 1.708000
5.626000 1.713400
5.643400 1.721400
5.660800 1.702600
5.678200 1.684500
5.695600 1.665100
5.713000 1.646600
5.730300 1.615200
5.747700 1.589400
5.765100 1.568500
5.782500 1.558200
5.799900 1.559500
5.817300 1.545200
5.834600 1.529100
5.852000 1.528400
5.869400 1.612900
5.886800 1.587400
5.904200 1.550600
5.921600 1.539100
5.939000 1.538800
5.956300 1.538500
5.973700 1.544500
5.991100 1.536100
6.008500 1.515600
6.025900 1.461400
6.043300 1.404100
6.060600 1.420800
6.078000 1.427800
6.095400 1.517300
6.112800 1.647400
6.130200 1.785200
6.147600 1.864400
6.164900 1.955300
6.182300 2.127400
6.199700 2.253300
6.217100 2.382200
6.234500 2.595200
6.251900 2.827600
6.269200 3.179300
6.286600 3.228500
6.304000 3.065800
6.321400 2.851200
6.338800 2.818200
6.356200 2.844800
6.373600 2.870600
6.390900 2.937800
6.408300 3.018200
6.425700 3.052200
6.443100 3.129400
6.460500 3.101800
6.477900 3.091800
6.495200 3.082700
6.512600 3.053300
6.530000 2.676000
6.547400 2.513400
6.564800 2.383600
6.582200 2.303400
6.599500 2.168200
6.616900 1.977600
6.634300 1.860200
6.651700 1.771000
6.669100 1.751300
6.686500 1.751400
6.703800 1.755300
6.721200 1.800300
6.738600 1.853700
6.756000 1.963500
6.773400 2.556600
6.790800 3.216500
6.808200 2.607100
6.825500 2.582600
6.842900 2.604700
6.860300 2.629600
6.877700 2.602400
6.895100 2.615300
6.912500 2.610000
6.929800 2.608400
6.947200 2.587100
6.964600 2.545300
6.982000 2.485400
6.999400 2.427000
7.016800 2.524700
7.034100 2.631400
7.051500 2.732500
7.068900 2.810200
7.086300 2.836900
7.103700 2.867500
7.121100 2.884300
7.138400 2.906600
7.155800 2.946800
7.173200 2.964700
7.190600 2.988000
7.208000 3.058000
7.225400 3.082000
7.242800 3.086200
7.260100 3.076400
7.277500 3.064000
7.294900 3.019800
7.312300 3.031900
7.329700 3.059700
7.347100 3.089400
7.364400 3.132700
7.381800 3.160400
7.399200 3.199100
7.416600 3.243000
7.434000 3.272700
7.451400 3.329900
7.468700 3.367200
7.486100 3.385900
7.503500 3.328100
7.520900 3.303600
7.538300 3.226000
7.555700 3.133500
7.573000 3.061500
7.590400 3.007500
7.607800 2.965500
7.625200 2.940700
7.642600 2.930700
7.660000 2.903700
7.677400 2.877500
7.694700 2.857800
7.712100 2.910400
7.729500 3.076500
7.746900 3.232800
7.764300 3.299800
7.781700 3.256600
7.799000 3.290800
7.816400 3.283400
7.833800 3.488400
7.851200 3.615600
7.868600 3.718700
7.886000 3.849900
7.903300 3.857400
7.920700 3.913500
7.938100 3.995000
7.955500 3.992300
7.972900 3.778300
7.990300 3.733900
8.007600 3.677400
8.025000 3.651500
8.042400 3.618700
8.059800 3.480500
8.077200 3.412600
8.094600 3.301400
8.112000 3.132900
8.129300 3.062300
8.146700 2.988500
8.164100 2.931300
8.181500 2.883200
8.198900 2.844000
8.216300 2.808300
8.233600 2.751500
8.251000 2.728300
8.268400 2.721700
8.285800 2.713500
8.303200 2.740500
8.320600 2.805800
8.337900 2.943400
8.355300 3.118500
8.372700 3.205200
8.390100 3.159100
8.407500 3.148500
8.424900 3.120200
8.442200 3.195700
8.459600 3.172400
8.477000 3.198700
8.494400 3.225600
8.511800 3.268700
8.529200 3.402300
8.546600 3.529800
8.563900 3.638500
8.581300 3.606800
8.598700 3.596800
8.616100 3.486900
8.633500 3.364400
8.650900 3.375000
8.668200 3.426100
8.685600 3.571300
8.703000 3.629000
8.720400 3.714700
8.737800 3.814500
8.755200 4.047900
8.772500 4.383200
8.789900 4.739800
8.807300 4.854800
8.824700 4.929200
8.842100 5.081800
8.859500 5.277100
8.876800 5.405900
8.894200 5.386900
8.911600 5.490200
8.929000 5.297500
8.946400 5.381200
8.963800 5.108700
8.981200 4.929900
8.998500 4.646100
9.015900 4.428500
9.033300 4.381600
9.050700 4.371400
9.068100 4.500300
9.085500 4.592200
9.102800 4.601700
9.120200 4.641100
9.137600 4.586300
9.155000 4.563200
9.172400 4.552900
9.189800 4.303300
9.207100 4.255200
9.224500 4.348900
9.241900 4.490100
9.259300 4.571800
9.276700 4.786500
9.294100 5.026400
9.311400 4.584400
9.328800 4.576900
9.346200 4.482700
9.363600 4.422000
9.381000 4.315000
9.398400 4.128100
9.415800 4.011300
9.433100 3.967200
9.450500 3.939800
9.467900 3.943500
9.485300 4.002800
9.502700 4.047500
9.520100 4.116900
9.537400 4.225900
9.554800 4.362400
9.572200 4.478200
9.589600 4.553200
9.607000 4.630900
9.624400 4.746000
9.641700 4.763800
9.659100 4.677600
9.676500 4.659300
9.693900 4.592700
9.711300 4.402100
9.728700 4.307200
9.746000 4.319900
9.763400 4.406800
9.780800 4.334400
9.798200 4.316700
9.815600 4.352300
9.833000 4.454200
9.850400 4.712100
9.867700 4.885900
9.885100 4.569500
9.902500 4.627800
9.919900 4.782600
9.937300 4.883500
9.954700 5.033700
9.972000 5.030300
9.989400 5.104000
10.006800 5.135800
10.024200 5.194900
10.041600 5.224000
10.059000 5.318600
10.076300 5.330000
10.093700 5.271600
10.111100 5.252100
10.128500 5.344600
10.145900 5.320100
10.163300 5.348800
10.180600 5.406100
10.198000 5.417200
10.215400 5.497400
10.232800 5.580900
10.250200 5.520700
10.267600 5.530400
10.285000 5.397000
10.302300 5.263200
10.319700 5.276900
10.337100 5.362600
10.354500 5.433100
10.371900 5.484600
10.389300 5.495700
10.406600 5.549300
10.424000 5.593600
10.441400 5.628400
10.458800 5.599200
10.476200 5.577300
10.493600 5.586200
10.510900 5.676200
10.528300 5.886400
10.545700 6.319300
10.563100 6.768200
10.580500 6.575500
10.597900 6.222900
10.615200 6.287300
10.632600 6.212000
10.650000 6.137900
10.667400 6.258000
10.684800 6.569100
10.702200 6.753200
10.719600 7.106400
10.736900 7.252200
10.754300 7.453500
10.771700 7.526000
10.789100 7.720100
10.806500 7.917400
10.823900 8.143300
10.841200 7.614600
10.858600 7.043300
10.876000 6.710600
10.893400 6.459300
10.910800 6.253900
10.928200 6.338900
10.945500 6.762600
10.962900 7.127900
10.980300 7.191500
10.997700 7.226000
11.015100 7.296300
11.032500 7.275500
11.049800 6.947400
11.067200 8.247100
11.084600 8.561700
11.102000 8.395000
11.119400 5.405400
11.136800 4.697200
11.154200 4.492000
11.171500 4.473700
11.188900 4.504600
11.206300 4.646900
11.223700 4.849500
11.241100 4.926100
11.258500 4.935300
11.275800 5.114200
11.293200 5.258500
11.310600 5.162800
11.328000 5.241400
11.345400 5.237100
11.362800 5.173500
11.380100 5.250900
11.397500 5.236000
11.414900 5.104000
11.432300 4.953800
11.449700 4.814000
11.467100 4.888300
11.484400 4.783600
11.501800 4.597200
11.519200 4.403600
11.536600 4.401700
11.554000 4.374800
11.571400 4.420600
11.588800 4.438000
11.606100 4.620800
11.623500 4.685100
11.640900 3.990000
11.658300 3.773200
11.675700 3.622500
11.693100 3.609400
11.710400 3.708000
11.727800 3.852400
11.745200 4.082400
11.762600 4.348300
11.780000 4.497800
11.797400 4.622100
11.814700 4.647400
11.832100 4.329800
11.849500 4.369800
11.866900 4.382200
11.884300 4.416000
11.901700 4.635600
11.919000 4.838200
11.936400 4.908500
11.953800 4.971700
11.971200 5.081800
11.988600 4.956100
12.006000 5.066700
12.023400 5.558600
12.040700 5.708400
12.058100 5.821700
12.075500 5.623300
12.092900 5.477000
12.110300 4.933600
12.127700 4.971900
12.145000 4.918700
12.162400 4.778200
12.179800 4.730700
12.197200 4.671500
12.214600 4.697400
12.232000 4.818300
12.249300 4.915800
12.266700 4.866000
12.284100 4.707400
12.301500 4.651600
12.318900 4.610900
12.336300 4.556300
12.353600 4.384600
12.371000 4.397300
12.388400 4.459200
12.405800 4.494000
12.423200 4.460700
12.440600 4.532100
12.458000 4.626900
12.475300 4.855500
12.492700 4.741400
12.510100 4.747500
12.527500 4.768200
12.544900 4.755800
12.562300 4.777200
12.579600 4.640900
12.597000 4.350700
12.614400 4.209100
12.631800 4.158600
12.649200 4.129700
12.666600 4.107500
12.683900 3.901700
12.701300 3.670400
12.718700 3.634300
12.736100 3.495000
12.753500 3.373100
12.770900 3.372600
12.788200 3.388800
12.805600 3.439000
12.823000 3.512800
12.840400 3.597800
12.857800 3.666800
12.875200 3.689400
12.892600 3.719000
12.909900 3.838400
12.927300 3.964700
12.944700 4.251300
12.962100 4.199400
12.979500 4.165300
12.996900 4.140900
13.014200 4.073000
13.031600 4.009000
13.049000 3.967900
13.066400 3.946400
13.083800 3.890400
13.101200 3.779400
13.118500 3.587800
13.135900 3.572000
13.153300 3.533500
13.170700 3.592300
13.188100 3.695900
13.205500 3.690100
13.222800 3.769500
13.240200 3.858000
13.257600 4.151700
13.275000 4.271900
13.292400 4.178500
13.309800 4.184000
13.327200 4.163800
13.344500 4.101400
13.361900 4.052900
13.379300 4.197100
13.396700 4.200500
13.414100 4.174100
13.431500 3.881900
13.448800 3.639200
13.466200 3.461400
13.483600 3.377500
13.501000 3.307300
13.518400 3.244900
13.535800 3.052400
13.553100 2.810500
13.570500 2.571000
13.587900 2.327200
13.605300 2.214500
13.622700 2.097200
13.640100 1.954300
13.657400 1.834700
13.674800 1.775400
13.692200 1.810400
13.709600 1.887900
13.727000 2.003200
13.744400 2.072200
13.761800 2.160700
13.779100 2.315900
13.796500 2.689500
13.813900 1.779200
13.831300 1.514500
13.848700 1.375300
13.866100 1.282300
13.883400 1.193500
13.900800 1.102500
13.918200 1.000900
13.935600 0.953900
13.953000 0.926300
13.970400 0.894000
13.987700 0.837900
14.005100 0.783400
14.022500 0.732100
14.039900 0.702700
14.057300 0.672400
14.074700 0.614000
14.092000 0.536200
14.109400 0.460400
14.126800 0.383500
14.144200 0.325500
14.161600 0.275700
14.179000 0.238100
14.196400 0.210800
14.213700 0.191800
14.231100 0.177900
14.248500 0.166000
14.265900 0.155400
14.283300 0.145700
14.300700 0.136800
14.318000 0.128800
14.335400 0.121500
14.352800 0.114700
14.370200 0.108500
14.387600 0.102900
14.405000 0.097900
14.422300 0.093500
14.439700 0.089600
14.457100 0.085900
14.474500 0.082200
14.491900 0.078700
14.509300 0.075200
14.526600 0.071900
14.544000 0.068600
14.561400 0.065500
14.578800 0.062400
14.596200 0.059500
14.613600 0.056700
14.631000 0.053900
14.648300 0.051300
14.665700 0.048800
14.683100 0.046300
14.700500 0.043900
14.717900 0.041500
14.735300 0.039100
14.752600 0.036700
14.770000 0.034300
14.787400 0.031900
14.804800 0.029500
14.822200 0.027100
14.839600 0.024700
14.856900 0.022300
14.874300 0.019800
14.891700 0.017100
14.909100 0.014200
14.926500 0.010800
14.943900 0.006200
14.961200 0.002800
14.978600 0.000800
14.996000 0.000000
15.013400 0.000000
15.030800 0.000000
15.048200 0.000000
15.065600 0.000000
15.082900 0.000000
15.100300 0.000000
15.117700 0.000000
15.135100 0.000000
15.152500 0.000000
15.169900 0.000000
15.187200 0.000000
15.204600 0.000000
15.222000 0.000000
15.239400 0.000000
15.256800 0.000000
15.274200 0.000000
15.291500 0.000000
15.308900 0.000000
15.326300 0.000000
15.343700 0.000000
15.361100 0.000000
15.378500 0.000000
15.395800 0.000000
15.413200 0.000000
15.430600 0.000000
15.448000 0.000000
15.465400 0.000000
15.482800 0.000000
15.500200 0.000000
15.517500 0.000000
15.534900 0.000000
15.552300 0.000000
15.569700 0.000000
15.587100 0.000000
15.604500 0.000000
15.621800 0.000000
15.639200 0.000000
15.656600 0.000000
15.674000 0.000000
15.691400 0.000000
15.708800 0.000000
15.726100 0.000000
15.743500 0.000000
15.760900 0.000000
15.778300 0.000000
15.795700 0.000000
15.813100 0.000000
15.830400 0.000000
15.847800 0.000000
15.865200 0.000000
15.882600 0.000000
15.900000 0.000000
15.917400 0.000000
15.934800 0.000000
15.952100 0.000000
15.969500 0.000000
15.986900 0.000000
16.004300 0.000000
16.021700 0.000000
16.039100 0.000000
16.056400 0.000000
16.073800 0.000000
16.091200 0.000000
16.108600 0.000000
16.126000 0.000000
16.143400 0.000000
16.160700 0.000000
16.178100 0.000000
16.195500 0.000000
16.212900 0.000000
16.230300 0.000000
16.247700 0.000000
16.265000 0.000000
16.282400 0.000000
16.299800 0.000000
16.317200 0.000000
16.334600 0.000000
16.352000 0.000000
16.369400 0.000000
16.386700 0.000000
16.404100 0.000000
16.421500 0.000000
16.438900 0.000000
16.456300 0.000000
16.473700 0.000000
16.491000 0.000000
16.508400 0.000000
16.525800 0.000000
16.543200 0.000000
16.560600 0.000000
16.578000 0.000000
e
