set title 'mp-1181909 - Density of States'
set xlabel 'Energy (eV)'
set ylabel 'DOS (states/eV)'
set grid
set xrange [-10:10]
set yrange [0:5.993]
set xzeroaxis lt -1
set terminal png size 800,600
set output 'mp-1181909_dos_gnuplot.png'
plot '-' using 1:2 with lines title 'DOS'
-40.968900 0.000000
-40.921200 0.000000
-40.873400 0.000000
-40.825700 0.000000
-40.778000 0.000000
-40.730300 0.000000
-40.682600 0.000000
-40.634800 0.000000
-40.587100 0.000000
-40.539400 0.000000
-40.491700 0.000000
-40.444000 0.000000
-40.396200 0.000000
-40.348500 0.000000
-40.300800 0.000000
-40.253100 0.000000
-40.205300 0.000000
-40.157600 0.000000
-40.109900 0.000000
-40.062200 0.000000
-40.014500 0.000000
-39.966700 0.000000
-39.919000 0.000000
-39.871300 0.000000
-39.823600 0.000000
-39.775900 0.000000
-39.728100 0.000000
-39.680400 0.000000
-39.632700 0.000000
-39.585000 0.000000
-39.537200 0.000000
-39.489500 0.000000
-39.441800 0.000000
-39.394100 0.000000
-39.346400 0.000000
-39.298600 0.000000
-39.250900 0.000000
-39.203200 0.000000
-39.155500 0.000000
-39.107800 0.000000
-39.060000 0.000000
-39.012300 0.000000
-38.964600 0.000000
-38.916900 0.000000
-38.869100 0.000000
-38.821400 0.000000
-38.773700 0.000000
-38.726000 0.000000
-38.678300 0.000000
-38.630500 0.000000
-38.582800 0.000000
-38.535100 0.000000
-38.487400 0.000000
-38.439700 0.000000
-38.391900 0.000000
-38.344200 0.000000
-38.296500 0.000000
-38.248800 0.000000
-38.201100 0.000000
-38.153300 0.000000
-38.105600 0.000000
-38.057900 0.000000
-38.010200 0.000000
-37.962400 0.000000
-37.914700 0.000000
-37.867000 0.000000
-37.819300 0.000000
-37.771600 0.000000
-37.723800 0.000000
-37.676100 0.000000
-37.628400 0.000000
-37.580700 0.000000
-37.533000 0.000000
-37.485200 0.000000
-37.437500 0.000000
-37.389800 0.000000
-37.342100 0.000000
-37.294300 0.000000
-37.246600 0.000000
-37.198900 0.000000
-37.151200 0.000000
-37.103500 0.000000
-37.055700 0.000000
-37.008000 0.000000
-36.960300 0.000000
-36.912600 0.000000
-36.864900 0.000000
-36.817100 0.000000
-36.769400 0.000000
-36.721700 0.000000
-36.674000 0.000000
-36.626200 9.612100
-36.578500 0.000000
-36.530800 0.000000
-36.483100 0.000000
-36.435400 0.000000
-36.387600 0.000000
-36.339900 0.000000
-36.292200 0.000000
-36.244500 0.000000
-36.196800 0.000000
-36.149000 0.000000
-36.101300 0.000000
-36.053600 0.000000
-36.005900 0.000000
-35.958200 0.000000
-35.910400 0.000000
-35.862700 0.000000
-35.815000 0.000000
-35.767300 0.000000
-35.719500 0.000000
-35.671800 0.000000
-35.624100 0.000000
-35.576400 0.000000
-35.528700 0.000000
-35.480900 0.000000
-35.433200 0.000000
-35.385500 0.000000
-35.337800 0.000000
-35.290100 0.000000
-35.242300 0.000000
-35.194600 0.000000
-35.146900 0.000000
-35.099200 0.000000
-35.051400 0.000000
-35.003700 0.000000
-34.956000 0.000000
-34.908300 0.000000
-34.860600 0.000000
-34.812800 0.000000
-34.765100 0.000000
-34.717400 0.000000
-34.669700 0.000000
-34.622000 0.000000
-34.574200 0.000000
-34.526500 0.000000
-34.478800 0.000000
-34.431100 0.000000
-34.383300 0.000000
-34.335600 0.000000
-34.287900 0.000000
-34.240200 0.000000
-34.192500 0.000000
-34.144700 0.000000
-34.097000 0.000000
-34.049300 0.000000
-34.001600 0.000000
-33.953900 0.000000
-33.906100 0.000000
-33.858400 0.000000
-33.810700 0.000000
-33.763000 0.000000
-33.715200 0.000000
-33.667500 0.000000
-33.619800 0.000000
-33.572100 0.000000
-33.524400 0.000000
-33.476600 0.000000
-33.428900 0.000000
-33.381200 0.000000
-33.333500 0.000000
-33.285800 0.000000
-33.238000 0.000000
-33.190300 0.000000
-33.142600 0.000000
-33.094900 0.000000
-33.047200 0.000000
-32.999400 0.000000
-32.951700 0.000000
-32.904000 0.000000
-32.856300 0.000000
-32.808500 0.000000
-32.760800 0.000000
-32.713100 0.000000
-32.665400 0.000000
-32.617700 0.000000
-32.569900 0.000000
-32.522200 0.000000
-32.474500 0.000000
-32.426800 0.000000
-32.379100 0.000000
-32.331300 0.000000
-32.283600 0.000000
-32.235900 0.000000
-32.188200 0.000000
-32.140400 0.000000
-32.092700 0.000000
-32.045000 0.000000
-31.997300 0.000000
-31.949600 0.000000
-31.901800 0.000000
-31.854100 0.000000
-31.806400 0.000000
-31.758700 0.000000
-31.711000 0.000000
-31.663200 0.000000
-31.615500 0.000000
-31.567800 0.000000
-31.520100 0.000000
-31.472300 0.000000
-31.424600 0.000000
-31.376900 0.000000
-31.329200 0.000000
-31.281500 0.000000
-31.233700 0.000000
-31.186000 0.000000
-31.138300 0.000000
-31.090600 0.000000
-31.042900 0.000000
-30.995100 0.000000
-30.947400 0.000000
-30.899700 0.000000
-30.852000 0.000000
-30.804300 0.000000
-30.756500 0.000000
-30.708800 0.000000
-30.661100 0.000000
-30.613400 0.000000
-30.565600 0.000000
-30.517900 0.000000
-30.470200 0.000000
-30.422500 0.000000
-30.374800 0.000000
-30.327000 0.000000
-30.279300 0.000000
-30.231600 0.000000
-30.183900 0.000000
-30.136200 0.000000
-30.088400 0.000000
-30.040700 0.000000
-29.993000 0.000000
-29.945300 0.000000
-29.897500 0.000000
-29.849800 0.000000
-29.802100 0.000000
-29.754400 0.000000
-29.706700 0.000000
-29.658900 0.000000
-29.611200 0.000000
-29.563500 0.000000
-29.515800 0.000000
-29.468100 0.000000
-29.420300 0.000000
-29.372600 0.000000
-29.324900 0.000000
-29.277200 0.000000
-29.229400 0.000000
-29.181700 0.000000
-29.134000 0.000000
-29.086300 0.000000
-29.038600 0.000000
-28.990800 0.000000
-28.943100 0.000000
-28.895400 0.000000
-28.847700 0.000000
-28.800000 0.000000
-28.752200 0.000000
-28.704500 0.000000
-28.656800 0.000000
-28.609100 0.000000
-28.561300 0.000000
-28.513600 0.000000
-28.465900 0.000000
-28.418200 0.000000
-28.370500 0.000000
-28.322700 0.000000
-28.275000 0.000000
-28.227300 0.000000
-28.179600 0.000000
-28.131900 0.000000
-28.084100 0.000000
-28.036400 0.000000
-27.988700 0.000000
-27.941000 0.000000
-27.893300 0.000000
-27.845500 0.000000
-27.797800 0.000000
-27.750100 0.000000
-27.702400 0.000000
-27.654600 0.000000
-27.606900 0.000000
-27.559200 0.000000
-27.511500 0.000000
-27.463800 0.000000
-27.416000 0.000000
-27.368300 0.000000
-27.320600 0.000000
-27.272900 0.000000
-27.225200 0.000000
-27.177400 0.000000
-27.129700 0.000000
-27.082000 0.000000
-27.034300 0.000000
-26.986500 0.000000
-26.938800 0.000000
-26.891100 0.000000
-26.843400 0.000000
-26.795700 0.000000
-26.747900 0.000000
-26.700200 0.000000
-26.652500 0.000000
-26.604800 0.000000
-26.557100 0.000000
-26.509300 0.000000
-26.461600 0.000000
-26.413900 0.000000
-26.366200 0.000000
-26.318400 0.000000
-26.270700 0.000000
-26.223000 0.000000
-26.175300 0.000000
-26.127600 0.000000
-26.079800 0.000000
-26.032100 0.000000
-25.984400 0.000000
-25.936700 0.000000
-25.889000 0.000000
-25.841200 0.000000
-25.793500 0.000000
-25.745800 0.000000
-25.698100 0.000000
-25.650400 0.000000
-25.602600 0.000000
-25.554900 0.000000
-25.507200 0.000000
-25.459500 0.000000
-25.411700 0.000000
-25.364000 0.000000
-25.316300 0.000000
-25.268600 0.000000
-25.220900 0.000000
-25.173100 0.000000
-25.125400 0.000000
-25.077700 0.000000
-25.030000 0.000000
-24.982300 0.000000
-24.934500 0.000000
-24.886800 0.000000
-24.839100 0.000000
-24.791400 0.000000
-24.743600 0.000000
-24.695900 0.000000
-24.648200 0.000000
-24.600500 0.000000
-24.552800 0.000000
-24.505000 0.000000
-24.457300 0.000000
-24.409600 0.000000
-24.361900 0.000000
-24.314200 0.000000
-24.266400 0.000000
-24.218700 0.000000
-24.171000 0.000000
-24.123300 0.000000
-24.075500 0.000000
-24.027800 0.000000
-23.980100 0.000000
-23.932400 0.000000
-23.884700 0.000000
-23.836900 0.000000
-23.789200 0.000000
-23.741500 0.000000
-23.693800 0.000000
-23.646100 0.000000
-23.598300 0.000000
-23.550600 0.000000
-23.502900 0.000000
-23.455200 0.000000
-23.407400 0.000000
-23.359700 0.000000
-23.312000 0.000000
-23.264300 0.000000
-23.216600 0.000000
-23.168800 0.000000
-23.121100 0.000000
-23.073400 0.000000
-23.025700 0.000000
-22.978000 0.000000
-22.930200 0.000000
-22.882500 0.000000
-22.834800 0.000000
-22.787100 0.000000
-22.739400 0.000000
-22.691600 0.000000
-22.643900 0.000000
-22.596200 0.000000
-22.548500 0.000000
-22.500700 0.000000
-22.453000 0.000000
-22.405300 0.000000
-22.357600 0.000000
-22.309900 0.000000
-22.262100 0.000000
-22.214400 0.000000
-22.166700 0.000000
-22.119000 0.000000
-22.071300 0.000000
-22.023500 0.000000
-21.975800 0.000000
-21.928100 0.000000
-21.880400 0.000000
-21.832600 0.000000
-21.784900 0.000000
-21.737200 0.000000
-21.689500 0.000000
-21.641800 0.000000
-21.594000 0.000000
-21.546300 0.000000
-21.498600 0.000000
-21.450900 0.000000
-21.403200 0.000000
-21.355400 0.000000
-21.307700 0.000000
-21.260000 0.000000
-21.212300 0.000000
-21.164500 0.000000
-21.116800 0.000000
-21.069100 0.000000
-21.021400 0.000000
-20.973700 0.000000
-20.925900 0.000000
-20.878200 0.000000
-20.830500 0.000000
-20.782800 0.000000
-20.735100 0.000000
-20.687300 0.000000
-20.639600 0.000000
-20.591900 0.000000
-20.544200 0.000000
-20.496500 0.000000
-20.448700 0.000000
-20.401000 0.000000
-20.353300 0.000000
-20.305600 0.000000
-20.257800 0.000000
-20.210100 0.000000
-20.162400 0.000000
-20.114700 0.000000
-20.067000 0.000000
-20.019200 0.000000
-19.971500 0.000000
-19.923800 0.000000
-19.876100 0.000000
-19.828400 0.000000
-19.780600 0.000000
-19.732900 0.000000
-19.685200 0.000000
-19.637500 0.000000
-19.589700 0.000000
-19.542000 0.000000
-19.494300 0.000000
-19.446600 0.000000
-19.398900 0.000000
-19.351100 0.000000
-19.303400 0.000000
-19.255700 0.000000
-19.208000 0.000000
-19.160300 0.000000
-19.112500 0.000000
-19.064800 0.000000
-19.017100 0.000000
-18.969400 0.000000
-18.921600 0.000000
-18.873900 0.000000
-18.826200 0.000000
-18.778500 0.000000
-18.730800 0.000000
-18.683000 0.000000
-18.635300 0.000000
-18.587600 0.263800
-18.539900 0.436200
-18.492200 0.590300
-18.444400 0.769000
-18.396700 1.543200
-18.349000 2.036400
-18.301300 4.490500
-18.253500 7.555100
-18.205800 8.632700
-18.158100 6.891400
-18.110400 3.655300
-18.062700 2.371300
-18.014900 4.142600
-17.967200 4.722600
-17.919500 5.196800
-17.871800 5.894300
-17.824100 6.888500
-17.776300 8.792100
-17.728600 24.022300
-17.680900 24.872100
-17.633200 0.000000
-17.585500 0.000000
-17.537700 0.000000
-17.490000 0.000000
-17.442300 0.000000
-17.394600 0.000000
-17.346800 0.000000
-17.299100 0.000000
-17.251400 0.000000
-17.203700 0.000000
-17.156000 0.000000
-17.108200 0.000000
-17.060500 0.000000
-17.012800 0.000000
-16.965100 0.000000
-16.917400 0.000000
-16.869600 0.000000
-16.821900 0.000000
-16.774200 0.000000
-16.726500 0.000000
-16.678700 0.000000
-16.631000 0.000000
-16.583300 0.000000
-16.535600 0.000000
-16.487900 0.000000
-16.440100 0.000000
-16.392400 0.000000
-16.344700 0.000000
-16.297000 0.000000
-16.249300 0.000000
-16.201500 0.000000
-16.153800 0.048300
-16.106100 0.089700
-16.058400 0.122800
-16.010600 0.158200
-15.962900 0.194900
-15.915200 0.235400
-15.867500 0.282200
-15.819800 0.332100
-15.772000 0.507300
-15.724300 0.795200
-15.676600 0.830200
-15.628900 0.915000
-15.581200 0.971400
-15.533400 1.057200
-15.485700 1.160800
-15.438000 1.283800
-15.390300 1.464700
-15.342600 1.806900
-15.294800 2.337300
-15.247100 2.591100
-15.199400 3.863500
-15.151700 4.307200
-15.103900 5.479000
-15.056200 4.427900
-15.008500 3.558200
-14.960800 2.156500
-14.913100 0.861800
-14.865300 0.821500
-14.817600 1.270000
-14.769900 2.058400
-14.722200 3.811400
-14.674500 4.608900
-14.626700 4.851600
-14.579000 4.937000
-14.531300 4.557700
-14.483600 5.654200
-14.435800 5.614300
-14.388100 2.453700
-14.340400 1.351000
-14.292700 0.552300
-14.245000 0.000000
-14.197200 0.000000
-14.149500 0.000000
-14.101800 0.000000
-14.054100 0.000000
-14.006400 0.000000
-13.958600 0.000000
-13.910900 0.000000
-13.863200 0.000000
-13.815500 0.000000
-13.767700 0.000000
-13.720000 0.000000
-13.672300 0.000000
-13.624600 0.000000
-13.576900 0.000000
-13.529100 0.000000
-13.481400 0.000000
-13.433700 0.000000
-13.386000 0.000000
-13.338300 0.000000
-13.290500 0.000000
-13.242800 0.000000
-13.195100 0.000000
-13.147400 0.000000
-13.099600 0.000000
-13.051900 0.000000
-13.004200 0.000000
-12.956500 0.000000
-12.908800 0.000000
-12.861000 0.000000
-12.813300 0.000000
-12.765600 0.000000
-12.717900 0.000000
-12.670200 0.000000
-12.622400 0.000000
-12.574700 0.000000
-12.527000 0.000000
-12.479300 0.000000
-12.431600 0.000000
-12.383800 0.000000
-12.336100 0.000000
-12.288400 0.000000
-12.240700 0.000000
-12.192900 0.000000
-12.145200 0.000000
-12.097500 0.000000
-12.049800 0.000000
-12.002100 0.000000
-11.954300 0.000000
-11.906600 0.000000
-11.858900 0.000000
-11.811200 0.000000
-11.763500 0.000000
-11.715700 0.000000
-11.668000 0.000000
-11.620300 0.000000
-11.572600 0.000000
-11.524800 0.000000
-11.477100 0.000000
-11.429400 0.000000
-11.381700 0.000000
-11.334000 0.000000
-11.286200 0.000000
-11.238500 0.000000
-11.190800 0.000000
-11.143100 0.000000
-11.095400 0.000000
-11.047600 0.000000
-10.999900 0.000000
-10.952200 0.000000
-10.904500 0.000000
-10.856700 0.000000
-10.809000 0.000000
-10.761300 0.000000
-10.713600 0.000000
-10.665900 0.000000
-10.618100 0.000000
-10.570400 0.000000
-10.522700 0.000000
-10.475000 0.000000
-10.427300 0.000000
-10.379500 0.000000
-10.331800 0.000000
-10.284100 0.000000
-10.236400 0.000000
-10.188700 0.000000
-10.140900 0.000000
-10.093200 0.000000
-10.045500 0.000000
-9.997800 0.000000
-9.950000 0.000000
-9.902300 0.000000
-9.854600 0.000000
-9.806900 0.000000
-9.759200 0.000000
-9.711400 0.000000
-9.663700 0.000000
-9.616000 0.000000
-9.568300 0.000000
-9.520600 0.000000
-9.472800 0.000000
-9.425100 0.000000
-9.377400 0.000000
-9.329700 0.000000
-9.281900 0.000000
-9.234200 0.000000
-9.186500 0.000000
-9.138800 0.000000
-9.091100 0.000000
-9.043300 0.000000
-8.995600 0.000000
-8.947900 0.000000
-8.900200 0.000000
-8.852500 0.000000
-8.804700 0.000000
-8.757000 0.000000
-8.709300 0.000000
-8.661600 0.000000
-8.613800 0.000000
-8.566100 0.000000
-8.518400 0.000000
-8.470700 0.000000
-8.423000 0.000000
-8.375200 0.000000
-8.327500 0.000000
-8.279800 0.000000
-8.232100 0.000000
-8.184400 0.000000
-8.136600 0.000000
-8.088900 0.000000
-8.041200 0.000000
-7.993500 0.000000
-7.945700 0.000000
-7.898000 0.000000
-7.850300 0.000000
-7.802600 0.000000
-7.754900 0.000000
-7.707100 0.000000
-7.659400 0.000000
-7.611700 0.000000
-7.564000 0.000000
-7.516300 0.000000
-7.468500 0.000000
-7.420800 0.000000
-7.373100 0.000000
-7.325400 0.000000
-7.277700 0.000000
-7.229900 0.000000
-7.182200 0.000000
-7.134500 0.000000
-7.086800 0.000000
-7.039000 0.000000
-6.991300 0.000000
-6.943600 0.000000
-6.895900 0.000000
-6.848200 0.000000
-6.800400 0.000000
-6.752700 0.000000
-6.705000 0.000000
-6.657300 0.000000
-6.609600 0.000000
-6.561800 0.000000
-6.514100 0.000000
-6.466400 0.000000
-6.418700 0.000000
-6.370900 0.000000
-6.323200 0.000000
-6.275500 0.000000
-6.227800 0.000000
-6.180100 0.000000
-6.132300 0.000000
-6.084600 0.000000
-6.036900 0.000000
-5.989200 0.000000
-5.941500 0.000000
-5.893700 0.000000
-5.846000 0.000000
-5.798300 0.000000
-5.750600 0.000000
-5.702800 0.000000
-5.655100 0.000000
-5.607400 0.000000
-5.559700 0.000000
-5.512000 0.000000
-5.464200 0.000000
-5.416500 0.000000
-5.368800 0.000000
-5.321100 0.000000
-5.273400 0.000000
-5.225600 0.000000
-5.177900 0.000000
-5.130200 0.000000
-5.082500 0.000000
-5.034800 0.000000
-4.987000 0.000000
-4.939300 0.000000
-4.891600 0.000000
-4.843900 0.000000
-4.796100 0.000000
-4.748400 0.000000
-4.700700 0.000000
-4.653000 0.000000
-4.605300 0.000000
-4.557500 0.000000
-4.509800 0.000000
-4.462100 0.000000
-4.414400 0.000000
-4.366700 0.000000
-4.318900 0.000000
-4.271200 0.000000
-4.223500 0.000000
-4.175800 0.000000
-4.128000 0.000000
-4.080300 0.000000
-4.032600 0.000000
-3.984900 0.000000
-3.937200 0.000000
-3.889400 0.000000
-3.841700 0.000000
-3.794000 0.000000
-3.746300 0.000000
-3.698600 0.000000
-3.650800 0.000000
-3.603100 0.000000
-3.555400 0.000000
-3.507700 0.000000
-3.459900 0.000000
-3.412200 0.000000
-3.364500 0.000000
-3.316800 0.000000
-3.269100 0.000000
-3.221300 0.000000
-3.173600 0.000000
-3.125900 0.000000
-3.078200 0.000000
-3.030500 0.000000
-2.982700 0.000000
-2.935000 0.000000
-2.887300 0.189800
-2.839600 0.328300
-2.791900 0.467700
-2.744100 0.557800
-2.696400 0.742900
-2.648700 0.809900
-2.601000 0.860000
-2.553200 0.899400
-2.505500 0.957000
-2.457800 1.119400
-2.410100 1.143000
-2.362400 1.306700
-2.314600 1.579400
-2.266900 1.880500
-2.219200 2.214200
-2.171500 3.029100
-2.123800 3.894800
-2.076000 3.934200
-2.028300 4.292000
-1.980600 3.775300
-1.932900 3.494000
-1.885100 3.340800
-1.837400 3.593000
-1.789700 3.634800
-1.742000 3.541000
-1.694300 3.249200
-1.646500 3.183000
-1.598800 3.226400
-1.551100 2.843900
-1.503400 3.428800
-1.455700 3.927400
-1.407900 3.922300
-1.360200 3.651200
-1.312500 3.746600
-1.264800 2.919400
-1.217000 2.575200
-1.169300 2.492100
-1.121600 2.914100
-1.073900 3.110300
-1.026200 2.935300
-0.978400 3.427400
-0.930700 3.990300
-0.883000 5.200700
-0.835300 3.980300
-0.787600 3.350500
-0.739800 2.744400
-0.692100 1.845100
-0.644400 1.289800
-0.596700 0.605600
-0.548900 0.553800
-0.501200 0.892100
-0.453500 2.362900
-0.405800 3.593500
-0.358100 5.153400
-0.310300 5.448400
-0.262600 4.778700
-0.214900 4.487800
-0.167200 2.904500
-0.119500 2.490700
-0.071700 2.606100
-0.024000 2.965700
0.023700 3.334000
0.071400 3.580400
0.119100 3.325400
0.166900 3.325200
0.214600 3.346800
0.262300 3.265000
0.310000 3.038000
0.357800 2.819300
0.405500 2.758100
0.453200 2.691200
0.500900 2.947700
0.548600 2.770500
0.596400 2.727700
0.644100 2.683500
0.691800 2.505200
0.739500 2.472400
0.787200 2.496300
0.835000 2.558000
0.882700 2.719900
0.930400 3.005800
0.978100 3.466100
1.025900 3.461500
1.073600 3.577900
1.121300 3.679100
1.169000 3.136900
1.216700 2.752400
1.264500 2.747700
1.312200 2.196300
1.359900 1.425100
1.407600 1.138200
1.455300 0.941700
1.503100 0.281800
1.550800 0.000000
1.598500 0.000000
1.646200 0.000000
1.694000 0.000000
1.741700 0.000000
1.789400 0.000000
1.837100 0.000000
1.884800 0.000000
1.932600 0.000000
1.980300 0.000000
2.028000 0.000000
2.075700 0.000000
2.123400 0.000000
2.171200 0.000000
2.218900 0.000000
2.266600 0.000000
2.314300 0.000000
2.362000 0.000000
2.409800 0.000000
2.457500 0.000000
2.505200 0.000000
2.552900 0.000000
2.600700 0.000000
2.648400 0.000000
2.696100 0.000000
2.743800 0.000000
2.791500 0.000000
2.839300 0.000000
2.887000 0.000000
2.934700 0.000000
2.982400 0.000000
3.030100 0.000000
3.077900 0.000000
3.125600 0.000000
3.173300 0.000000
3.221000 0.000000
3.268800 0.000000
3.316500 0.000000
3.364200 0.000000
3.411900 0.000000
3.459600 0.000000
3.507400 0.000000
3.555100 0.000000
3.602800 0.000000
3.650500 0.000000
3.698200 0.000000
3.746000 0.000000
3.793700 0.000000
3.841400 0.000000
3.889100 0.000000
3.936900 0.000000
3.984600 0.000000
4.032300 0.000000
4.080000 0.000000
4.127700 0.000000
4.175500 0.000000
4.223200 0.000000
4.270900 0.000000
4.318600 0.000000
4.366300 0.000000
4.414100 0.000000
4.461800 0.000000
4.509500 0.000000
4.557200 0.000000
4.605000 0.000000
4.652700 0.000000
4.700400 0.000000
4.748100 0.000000
4.795800 0.000000
4.843600 0.000000
4.891300 0.000000
4.939000 0.000000
4.986700 0.000000
5.034400 0.000000
5.082200 0.000000
5.129900 0.000000
5.177600 0.000000
5.225300 0.000000
5.273000 0.000000
5.320800 0.000000
5.368500 0.000000
5.416200 0.000000
5.463900 0.000000
5.511700 0.000000
5.559400 0.000000
5.607100 0.000000
5.654800 0.000000
5.702500 0.000000
5.750300 0.000000
5.798000 0.000000
5.845700 0.000000
5.893400 0.000000
5.941100 0.000000
5.988900 0.000000
6.036600 0.000000
6.084300 0.000000
6.132000 0.000000
6.179800 0.000000
6.227500 0.000000
6.275200 0.000000
6.322900 0.000000
6.370600 0.000000
6.418400 0.028100
6.466100 0.047600
6.513800 0.064400
6.561500 0.082000
6.609200 0.095100
6.657000 0.109700
6.704700 0.124400
6.752400 0.139900
6.800100 0.155700
6.847900 0.172800
6.895600 0.195000
6.943300 0.217800
6.991000 0.240800
7.038700 0.264100
7.086500 0.299400
7.134200 1.058800
7.181900 1.306400
7.229600 1.307900
7.277300 1.561500
7.325100 1.884100
7.372800 2.103100
7.420500 2.073400
7.468200 2.007400
7.515900 1.962400
7.563700 1.935500
7.611400 1.882300
7.659100 1.856300
7.706800 1.824900
7.754600 1.786800
7.802300 1.821900
7.850000 1.805400
7.897700 1.836000
7.945400 1.815700
7.993200 1.726600
8.040900 1.489900
8.088600 1.427400
8.136300 1.162700
8.184000 1.021900
8.231800 1.017600
8.279500 1.587600
8.327200 1.733200
8.374900 2.018100
8.422700 2.707600
8.470400 3.318800
8.518100 3.749600
8.565800 3.688800
8.613500 3.349100
8.661300 3.319800
8.709000 3.188700
8.756700 2.764800
8.804400 2.934800
8.852100 3.067100
8.899900 2.943700
8.947600 2.768100
8.995300 2.690000
9.043000 2.707900
9.090800 2.796900
9.138500 2.936600
9.186200 3.105300
9.233900 3.644300
9.281600 3.262500
9.329400 3.050200
9.377100 3.016000
9.424800 3.020700
9.472500 3.122200
9.520200 3.264300
9.568000 3.381900
9.615700 3.652500
9.663400 4.519000
9.711100 3.938100
9.758900 3.738300
9.806600 4.000700
9.854300 4.026200
9.902000 3.893400
9.949700 4.138200
9.997500 4.794500
10.045200 4.517600
10.092900 4.494200
10.140600 4.492200
10.188300 3.801200
10.236100 6.682000
10.283800 5.058000
10.331500 5.998600
10.379200 7.301800
10.426900 5.154200
10.474700 2.604600
10.522400 3.177100
10.570100 2.515800
10.617800 1.674200
10.665600 1.117700
10.713300 1.009200
10.761000 0.966500
10.808700 0.885600
10.856400 0.852300
10.904200 0.842400
10.951900 0.825900
10.999600 0.811100
11.047300 0.791000
11.095000 0.761400
11.142800 0.742600
11.190500 0.732400
11.238200 0.724400
11.285900 0.716600
11.333700 0.708100
11.381400 0.698500
11.429100 0.686400
11.476800 0.676400
11.524500 0.668500
11.572300 0.661500
11.620000 0.655100
11.667700 0.648900
11.715400 0.642400
11.763100 0.636000
11.810900 0.628800
11.858600 0.619700
11.906300 0.612200
11.954000 0.605100
12.001800 0.598200
12.049500 0.592100
12.097200 0.586100
12.144900 0.580700
12.192600 0.576100
12.240400 0.572100
12.288100 0.566400
12.335800 0.562700
12.383500 0.560000
12.431200 0.558100
12.479000 0.556900
12.526700 0.556100
12.574400 0.555300
12.622100 0.536600
12.669800 0.510300
12.717600 0.436000
12.765300 0.396100
12.813000 0.351200
12.860700 0.514100
12.908500 0.501400
12.956200 0.503200
13.003900 0.500500
13.051600 0.492200
13.099300 0.515600
13.147100 0.505300
13.194800 0.499000
13.242500 0.487600
13.290200 0.479600
13.337900 0.479800
13.385700 0.810100
13.433400 0.885200
13.481100 0.954700
13.528800 1.002500
13.576600 1.087600
13.624300 1.132300
13.672000 1.184300
13.719700 1.407700
13.767400 1.374000
13.815200 1.371500
13.862900 1.398100
13.910600 1.405900
13.958300 1.436400
14.006000 1.463500
14.053800 1.473400
14.101500 1.412800
14.149200 1.357400
14.196900 1.310700
14.244700 1.267500
14.292400 1.228300
14.340100 1.206800
14.387800 1.208500
14.435500 1.227500
14.483300 1.256300
14.531000 1.278700
14.578700 1.339800
14.626400 1.324400
14.674100 1.249200
14.721900 1.053300
14.769600 0.918400
14.817300 0.825200
14.865000 0.679200
14.912800 0.532400
14.960500 0.457200
15.008200 0.461900
15.055900 0.569700
15.103600 0.668600
15.151400 0.766700
15.199100 0.819400
15.246800 0.770400
15.294500 0.786300
15.342200 0.788900
15.390000 0.808700
15.437700 0.903700
15.485400 0.999200
15.533100 1.077500
15.580800 1.195700
15.628600 1.292300
15.676300 1.349900
15.724000 1.361000
15.771700 1.398100
15.819500 1.377900
15.867200 1.354800
15.914900 1.338500
15.962600 1.319900
16.010300 1.293200
16.058100 1.259800
16.105800 1.214800
16.153500 1.223000
16.201200 1.215700
16.248900 1.198900
16.296700 1.171900
16.344400 1.177600
16.392100 1.159000
16.439800 1.118300
16.487600 1.105600
16.535300 1.063800
16.583000 1.033300
16.630700 1.045100
16.678400 1.067000
16.726200 1.079000
16.773900 1.119800
16.821600 1.184800
16.869300 1.230000
16.917000 1.328300
16.964800 1.445300
17.012500 1.396600
17.060200 1.422900
17.107900 1.581000
17.155700 1.473800
17.203400 1.365500
17.251100 1.333700
17.298800 1.356400
17.346500 1.376000
17.394300 1.374100
17.442000 1.356700
17.489700 1.473100
17.537400 1.744800
17.585100 1.674700
17.632900 1.650400
17.680600 1.570000
17.728300 1.516700
17.776000 1.469300
17.823700 1.425900
17.871500 1.411600
17.919200 1.359800
17.966900 1.318500
18.014600 1.288600
18.062400 1.232200
18.110100 1.194100
18.157800 1.187400
18.205500 1.186800
18.253200 1.192100
18.301000 1.216700
18.348700 1.222500
18.396400 1.206400
18.444100 1.202700
18.491800 1.193700
18.539600 1.177400
18.587300 1.050100
18.635000 1.008200
18.682700 1.018400
18.730500 0.985000
18.778200 0.951900
18.825900 1.024200
18.873600 1.009100
18.921300 1.024200
18.969100 1.044000
19.016800 1.047300
19.064500 1.040000
19.112200 1.047000
19.159900 1.060600
19.207700 1.076700
19.255400 1.090800
19.303100 1.138600
19.350800 1.114600
19.398600 1.127800
19.446300 1.145400
19.494000 1.156500
19.541700 1.186800
19.589400 1.238700
19.637200 1.349900
19.684900 1.351300
19.732600 1.347200
19.780300 1.319700
19.828000 1.293600
19.875800 1.255700
19.923500 1.231200
19.971200 1.198700
20.018900 1.172900
20.066700 1.152500
20.114400 1.144300
20.162100 1.140200
20.209800 1.131200
20.257500 1.118300
20.305300 1.123800
20.353000 1.152500
20.400700 1.132500
20.448400 1.144300
20.496100 1.127700
20.543900 1.119200
20.591600 1.061100
20.639300 0.976800
20.687000 0.946600
20.734700 0.990700
20.782500 1.070100
20.830200 1.333000
20.877900 1.307100
20.925600 1.280100
20.973400 1.293600
21.021100 1.436600
21.068800 1.333600
21.116500 1.264400
21.164200 1.234900
21.212000 1.202200
21.259700 1.140500
21.307400 1.136200
21.355100 1.093300
21.402800 1.016100
21.450600 0.875200
21.498300 1.038200
21.546000 1.086500
21.593700 1.314700
21.641500 1.258500
21.689200 1.370200
21.736900 1.521400
21.784600 1.681100
21.832300 1.822300
21.880100 2.538200
21.927800 2.794600
21.975500 2.730400
22.023200 2.379000
22.070900 2.201600
22.118700 2.267700
22.166400 2.492800
22.214100 2.754800
22.261800 2.462000
22.309600 2.375000
22.357300 2.273400
22.405000 1.961500
22.452700 1.787200
22.500400 1.716900
22.548200 1.684500
22.595900 1.596800
22.643600 1.632000
22.691300 1.741100
22.739000 1.828500
22.786800 1.881600
22.834500 1.838600
22.882200 1.659000
22.929900 1.319200
22.977600 1.344000
23.025400 1.458900
23.073100 1.608500
23.120800 1.583400
23.168500 1.637700
23.216300 1.713600
23.264000 1.758800
23.311700 1.800000
23.359400 1.718700
23.407100 1.661800
23.454900 1.627000
23.502600 1.564800
23.550300 1.496000
23.598000 1.426800
23.645700 1.400700
23.693500 1.336800
23.741200 1.334200
23.788900 1.377700
23.836600 1.446700
23.884400 1.470900
23.932100 1.331300
23.979800 1.214100
24.027500 1.171900
24.075200 1.173100
24.123000 1.173100
24.170700 1.221400
24.218400 1.285500
24.266100 1.337900
24.313800 1.336200
24.361600 1.355500
24.409300 1.439100
24.457000 1.482100
24.504700 1.533300
24.552500 1.548000
24.600200 1.522900
24.647900 1.570300
24.695600 1.552300
24.743300 1.504900
24.791100 1.480100
24.838800 1.497900
24.886500 1.528200
24.934200 1.438500
24.981900 1.384600
25.029700 1.404600
25.077400 1.378200
25.125100 1.357400
25.172800 1.260500
25.220600 1.218500
25.268300 1.218500
25.316000 1.305600
25.363700 1.287500
25.411400 1.291500
25.459200 1.292300
25.506900 1.299800
25.554600 1.355900
25.602300 1.406200
25.650000 1.503400
25.697800 1.673800
25.745500 1.748700
25.793200 1.719700
25.840900 1.793700
25.888600 1.873400
25.936400 1.890900
25.984100 1.822000
26.031800 1.810000
26.079500 1.820700
26.127300 1.920000
26.175000 1.929500
26.222700 1.856500
26.270400 1.705800
26.318100 1.690400
26.365900 1.648600
26.413600 1.681000
26.461300 1.653200
26.509000 1.611000
26.556700 1.601200
26.604500 1.599800
26.652200 1.600300
26.699900 1.695900
26.747600 1.761900
26.795400 1.770200
26.843100 1.764000
26.890800 1.920600
26.938500 2.062100
26.986200 2.042400
27.034000 2.042700
27.081700 2.057400
27.129400 1.947700
27.177100 1.777400
27.224800 1.622100
27.272600 1.464100
27.320300 1.395400
27.368000 1.356900
27.415700 1.460600
27.463500 1.569300
27.511200 1.633400
27.558900 1.679600
27.606600 1.759300
27.654300 1.737400
27.702100 1.748400
27.749800 1.785200
27.797500 1.824100
27.845200 1.816100
27.892900 1.842800
27.940700 1.891600
27.988400 1.907800
28.036100 1.894600
28.083800 1.812600
28.131500 1.774200
28.179300 1.739500
28.227000 1.802100
28.274700 1.973700
28.322400 1.771300
28.370200 1.737000
28.417900 1.745100
28.465600 1.752100
28.513300 1.749900
28.561000 1.859800
28.608800 1.929400
28.656500 2.019900
28.704200 2.013400
28.751900 2.059200
28.799600 2.077000
28.847400 2.073300
28.895100 2.059400
28.942800 2.029700
28.990500 1.947200
29.038300 1.855100
29.086000 1.795400
29.133700 1.688000
29.181400 1.561500
29.229100 1.461200
29.276900 1.378800
29.324600 1.309600
29.372300 1.214200
29.420000 1.106200
29.467700 1.043400
29.515500 1.026200
29.563200 1.026600
29.610900 1.059000
29.658600 1.148400
29.706400 1.293900
29.754100 1.381500
29.801800 1.553000
29.849500 1.570000
29.897200 1.605100
29.945000 1.600600
29.992700 1.557300
30.040400 1.513600
30.088100 1.515500
30.135800 1.347200
30.183600 1.281700
30.231300 1.292300
30.279000 1.296700
30.326700 1.310500
30.374500 1.385800
30.422200 1.449000
30.469900 1.530700
30.517600 1.528000
30.565300 1.553900
30.613100 1.539100
30.660800 1.513700
30.708500 1.517300
30.756200 1.496900
30.803900 1.539300
30.851700 1.550800
30.899400 1.629100
30.947100 1.810500
30.994800 1.963500
31.042500 2.151500
31.090300 2.321300
31.138000 2.477400
31.185700 2.625200
31.233400 2.664200
31.281200 2.677300
31.328900 2.640200
31.376600 2.518900
31.424300 2.419100
31.472000 2.366100
31.519800 2.259800
31.567500 2.158800
31.615200 2.117000
31.662900 2.057500
31.710600 1.971900
31.758400 1.928200
31.806100 1.901200
31.853800 1.858600
31.901500 1.770000
31.949300 1.812300
31.997000 1.912800
32.044700 1.976500
32.092400 1.866600
32.140100 1.767100
32.187900 1.706400
32.235600 1.693800
32.283300 1.806800
32.331000 1.792500
32.378700 1.860900
32.426500 2.003900
32.474200 2.122700
32.521900 2.222000
32.569600 2.250300
32.617400 2.306800
32.665100 2.405900
32.712800 2.454700
32.760500 2.499500
32.808200 2.489600
32.856000 2.442000
32.903700 2.238400
32.951400 2.168700
32.999100 2.024200
33.046800 1.873800
33.094600 1.610100
33.142300 1.445900
33.190000 1.373900
33.237700 1.297400
33.285400 1.320600
33.333200 1.395800
33.380900 1.465600
33.428600 1.565500
33.476300 1.636700
33.524100 1.556400
33.571800 1.485900
33.619500 1.522300
33.667200 1.672700
33.714900 1.793600
33.762700 1.910500
33.810400 1.983700
33.858100 2.008000
33.905800 2.075000
33.953500 2.081000
34.001300 2.059200
34.049000 2.030700
34.096700 2.018500
34.144400 2.109700
34.192200 2.296400
34.239900 2.361600
34.287600 2.463400
34.335300 2.624300
34.383000 2.417800
34.430800 2.341600
34.478500 2.287600
34.526200 2.303300
34.573900 2.318400
34.621600 2.405200
34.669400 2.434900
34.717100 2.575100
34.764800 2.530400
34.812500 2.493600
34.860300 2.591400
34.908000 2.716600
34.955700 2.571000
35.003400 2.505900
35.051100 2.498800
35.098900 2.463900
35.146600 2.559000
35.194300 2.474600
35.242000 2.487100
35.289700 2.572300
35.337500 2.435800
35.385200 2.273700
35.432900 2.202400
35.480600 2.193000
35.528300 2.142000
35.576100 2.125800
35.623800 2.096500
35.671500 2.023100
35.719200 1.876100
35.767000 1.818700
35.814700 1.694700
35.862400 1.585900
35.910100 1.604600
35.957800 1.665400
36.005600 1.783700
36.053300 1.952600
36.101000 2.022500
36.148700 2.112800
36.196400 2.119500
36.244200 2.006800
36.291900 1.816800
36.339600 1.684900
36.387300 1.671700
36.435100 1.636800
36.482800 1.561200
36.530500 1.511300
36.578200 1.537700
36.625900 1.594900
36.673700 1.661300
36.721400 1.725300
36.769100 1.760200
36.816800 1.775500
36.864500 1.741700
36.912300 1.723200
36.960000 1.742900
37.007700 1.679400
37.055400 1.655600
37.103200 1.629800
37.150900 1.639700
37.198600 1.597300
37.246300 1.671200
37.294000 1.742800
37.341800 1.754000
37.389500 1.696700
37.437200 1.694900
37.484900 1.671100
37.532600 1.659800
37.580400 1.679200
37.628100 1.675500
37.675800 1.686400
37.723500 1.705100
37.771300 1.776000
37.819000 1.844200
37.866700 1.866600
37.914400 1.857800
37.962100 1.925500
38.009900 1.886900
38.057600 1.909500
38.105300 1.850900
38.153000 1.790500
38.200700 1.860600
38.248500 1.922000
38.296200 1.849400
38.343900 1.802000
38.391600 1.767700
38.439300 1.760200
38.487100 1.745900
38.534800 1.697000
38.582500 1.690200
38.630200 1.699700
38.678000 1.722900
38.725700 1.718900
38.773400 1.704900
38.821100 1.681900
38.868800 1.691300
38.916600 1.710400
38.964300 1.696700
39.012000 1.686300
39.059700 1.672200
39.107400 1.680500
39.155200 1.703000
39.202900 1.709700
39.250600 1.725600
39.298300 1.760100
39.346100 1.799500
39.393800 1.854100
39.441500 1.838000
39.489200 1.764400
39.536900 1.821000
39.584700 1.747000
39.632400 1.726300
39.680100 1.721100
39.727800 1.701700
39.775500 1.654200
39.823300 1.635300
39.871000 1.621000
39.918700 1.607200
39.966400 1.612200
40.014200 1.620600
40.061900 1.619200
40.109600 1.647200
40.157300 1.723100
40.205000 1.801600
40.252800 1.897700
40.300500 1.943500
40.348200 1.966000
40.395900 2.086600
40.443600 2.141800
40.491400 2.185900
40.539100 2.173300
40.586800 2.142600
40.634500 2.060700
40.682200 2.031600
40.730000 1.990300
40.777700 1.962600
40.825400 2.004700
40.873100 1.934100
40.920900 1.847500
40.968600 1.868900
41.016300 1.959000
41.064000 2.088000
41.111700 2.042400
41.159500 2.052000
41.207200 2.067400
41.254900 2.060500
41.302600 1.973900
41.350300 1.909700
41.398100 1.913600
41.445800 1.930400
41.493500 1.907200
41.541200 1.883000
41.589000 1.878600
41.636700 1.868000
41.684400 1.841500
41.732100 1.751000
41.779800 1.686200
41.827600 1.700600
41.875300 1.740100
41.923000 1.798900
41.970700 1.930400
42.018400 2.108600
42.066200 2.193100
42.113900 2.297600
42.161600 2.352100
42.209300 2.321000
42.257100 2.308400
42.304800 2.240900
42.352500 2.151200
42.400200 2.063500
42.447900 2.015700
42.495700 1.967400
42.543400 1.944600
42.591100 1.857000
42.638800 1.859300
42.686500 1.866800
42.734300 1.929900
42.782000 2.010300
42.829700 2.003100
42.877400 2.163200
42.925200 2.211900
42.972900 2.242200
43.020600 2.222800
43.068300 2.157500
43.116000 2.085900
43.163800 2.065200
43.211500 2.065900
43.259200 2.083700
43.306900 2.080200
43.354600 2.059600
43.402400 2.051400
43.450100 2.076000
43.497800 2.122900
43.545500 2.157200
43.593200 2.165000
43.641000 2.168100
43.688700 2.182900
43.736400 2.058800
43.784100 1.958500
43.831900 1.969300
43.879600 2.026100
43.927300 2.062100
43.975000 2.049000
44.022700 2.098700
44.070500 2.131600
44.118200 2.123400
44.165900 2.144100
44.213600 2.111200
44.261300 2.095500
44.309100 2.005000
44.356800 2.006500
44.404500 2.008200
44.452200 2.038900
44.500000 2.010000
44.547700 1.892300
44.595400 1.831800
44.643100 1.769700
44.690800 1.723800
44.738600 1.754400
44.786300 1.794600
44.834000 1.849000
44.881700 1.919600
44.929400 2.111300
44.977200 2.186000
45.024900 2.238900
45.072600 2.220800
45.120300 2.141800
45.168100 2.174100
45.215800 2.251900
45.263500 2.236200
45.311200 2.191000
45.358900 2.209800
45.406700 2.284300
45.454400 2.285300
45.502100 2.295000
45.549800 2.285500
45.597500 2.326600
45.645300 2.358800
45.693000 2.304600
45.740700 2.272200
45.788400 2.233800
45.836100 2.146300
45.883900 2.129900
45.931600 2.113200
45.979300 2.133800
46.027000 2.143100
46.074800 2.137700
46.122500 2.131800
46.170200 2.085900
46.217900 2.046200
46.265600 2.043600
46.313400 2.052900
46.361100 2.042400
46.408800 2.013800
46.456500 1.978100
46.504200 2.003200
46.552000 2.040300
46.599700 2.090400
46.647400 2.139400
46.695100 2.194400
46.742900 2.329600
46.790600 2.453500
46.838300 2.546300
46.886000 2.605200
46.933700 2.579400
46.981500 2.456900
47.029200 2.391500
47.076900 2.231400
47.124600 2.127200
47.172300 2.063700
47.220100 1.998700
47.267800 1.936600
47.315500 1.852400
47.363200 1.795400
47.411000 1.774500
47.458700 1.767700
47.506400 1.744500
47.554100 1.716100
47.601800 1.682000
47.649600 1.674500
47.697300 1.667900
47.745000 1.658200
47.792700 1.643500
47.840400 1.633900
47.888200 1.588500
47.935900 1.560700
47.983600 1.531600
48.031300 1.460700
48.079100 1.381000
48.126800 1.301500
48.174500 1.244200
48.222200 1.260300
48.269900 1.098800
48.317700 1.060100
48.365400 1.054300
48.413100 1.051900
48.460800 1.011000
48.508500 0.970500
48.556300 0.861400
48.604000 0.764700
48.651700 0.671700
48.699400 0.604900
48.747100 0.542400
48.794900 0.482200
48.842600 0.456200
48.890300 0.427800
48.938000 0.401000
48.985800 0.386900
49.033500 0.332400
49.081200 0.275300
49.128900 0.236200
49.176600 0.206600
49.224400 0.188600
49.272100 0.176400
49.319800 0.164900
49.367500 0.153500
49.415200 0.138900
49.463000 0.096700
49.510700 0.070800
49.558400 0.053200
49.606100 0.040300
49.653900 0.029100
49.701600 0.019300
49.749300 0.012300
49.797000 0.008900
49.844700 0.006600
49.892500 0.004600
49.940200 0.003000
49.987900 0.001700
50.035600 0.000800
50.083300 0.000200
50.131100 0.000000
50.178800 0.000000
50.226500 0.000000
50.274200 0.000000
50.322000 0.000000
50.369700 0.000000
50.417400 0.000000
50.465100 0.000000
50.512800 0.000000
50.560600 0.000000
50.608300 0.000000
50.656000 0.000000
50.703700 0.000000
50.751400 0.000000
50.799200 0.000000
50.846900 0.000000
50.894600 0.000000
50.942300 0.000000
50.990000 0.000000
51.037800 0.000000
51.085500 0.000000
51.133200 0.000000
51.180900 0.000000
51.228700 0.000000
51.276400 0.000000
51.324100 0.000000
51.371800 0.000000
51.419500 0.000000
51.467300 0.000000
51.515000 0.000000
51.562700 0.000000
51.610400 0.000000
51.658100 0.000000
51.705900 0.000000
51.753600 0.000000
51.801300 0.000000
51.849000 0.000000
51.896800 0.000000
51.944500 0.000000
51.992200 0.000000
52.039900 0.000000
52.087600 0.000000
52.135400 0.000000
52.183100 0.000000
52.230800 0.000000
52.278500 0.000000
52.326200 0.000000
52.374000 0.000000
52.421700 0.000000
52.469400 0.000000
52.517100 0.000000
52.564900 0.000000
52.612600 0.000000
52.660300 0.000000
52.708000 0.000000
52.755700 0.000000
52.803500 0.000000
52.851200 0.000000
52.898900 0.000000
52.946600 0.000000
52.994300 0.000000
53.042100 0.000000
53.089800 0.000000
53.137500 0.000000
53.185200 0.000000
53.233000 0.000000
53.280700 0.000000
53.328400 0.000000
53.376100 0.000000
53.423800 0.000000
53.471600 0.000000
53.519300 0.000000
53.567000 0.000000
53.614700 0.000000
53.662400 0.000000
53.710200 0.000000
53.757900 0.000000
53.805600 0.000000
53.853300 0.000000
53.901000 0.000000
53.948800 0.000000
53.996500 0.000000
54.044200 0.000000
54.091900 0.000000
54.139700 0.000000
54.187400 0.000000
54.235100 0.000000
54.282800 0.000000
54.330500 0.000000
54.378300 0.000000
54.426000 0.000000
54.473700 0.000000
e
