set title 'mp-1219535 - Density of States'
set xlabel 'Energy (eV)'
set ylabel 'DOS (states/eV)'
set grid
set xrange [-10:10]
set yrange [0:9.815]
set xzeroaxis lt -1
set terminal png size 800,600
set output 'mp-1219535_dos_gnuplot.png'
plot '-' using 1:2 with lines title 'DOS'
-36.865800 0.000000
-36.826200 0.000000
-36.786600 0.000000
-36.747000 0.000000
-36.707400 0.000000
-36.667800 0.000000
-36.628300 0.000000
-36.588700 0.000000
-36.549100 0.000000
-36.509500 0.000000
-36.469900 0.000000
-36.430300 0.000000
-36.390700 0.000000
-36.351200 0.000000
-36.311600 0.000000
-36.272000 0.000000
-36.232400 0.000000
-36.192800 0.000000
-36.153200 0.000000
-36.113600 0.000000
-36.074100 0.000000
-36.034500 0.000000
-35.994900 0.000000
-35.955300 0.000000
-35.915700 0.000000
-35.876100 0.000000
-35.836500 0.000000
-35.797000 0.000000
-35.757400 0.000000
-35.717800 0.000000
-35.678200 0.000000
-35.638600 0.000000
-35.599000 0.000000
-35.559400 0.000000
-35.519900 0.000000
-35.480300 0.000000
-35.440700 0.000000
-35.401100 0.000000
-35.361500 0.000000
-35.321900 0.000000
-35.282300 0.000000
-35.242800 0.000000
-35.203200 0.000000
-35.163600 0.000000
-35.124000 0.000000
-35.084400 0.000000
-35.044800 0.000000
-35.005200 0.000000
-34.965700 0.000000
-34.926100 0.000000
-34.886500 0.000000
-34.846900 0.000000
-34.807300 0.000000
-34.767700 0.000000
-34.728100 0.000000
-34.688600 0.000000
-34.649000 0.000000
-34.609400 0.000000
-34.569800 0.000000
-34.530200 0.000000
-34.490600 0.000000
-34.451000 0.000000
-34.411500 0.000000
-34.371900 0.000000
-34.332300 0.000000
-34.292700 0.000000
-34.253100 0.000000
-34.213500 0.000000
-34.173900 0.000000
-34.134400 0.000000
-34.094800 0.000000
-34.055200 0.000000
-34.015600 0.000000
-33.976000 0.000000
-33.936400 0.000000
-33.896800 0.000000
-33.857300 0.000000
-33.817700 0.000000
-33.778100 0.000000
-33.738500 0.000000
-33.698900 0.000000
-33.659300 0.000000
-33.619700 0.000000
-33.580200 0.000000
-33.540600 0.000000
-33.501000 0.000000
-33.461400 0.000000
-33.421800 0.000000
-33.382200 0.000000
-33.342600 0.000000
-33.303100 0.000000
-33.263500 0.550500
-33.223900 4.439500
-33.184300 4.323900
-33.144700 5.251900
-33.105100 7.239600
-33.065500 4.489400
-33.026000 2.833400
-32.986400 2.423100
-32.946800 9.355000
-32.907200 6.239800
-32.867600 18.564300
-32.828000 2.204400
-32.788400 3.393000
-32.748900 3.408900
-32.709300 3.560700
-32.669700 4.275300
-32.630100 4.677100
-32.590500 5.382100
-32.550900 9.929000
-32.511300 6.211700
-32.471800 5.442700
-32.432200 4.445400
-32.392600 4.210700
-32.353000 4.000000
-32.313400 0.000000
-32.273800 0.000000
-32.234200 0.000000
-32.194700 0.000000
-32.155100 0.000000
-32.115500 0.000000
-32.075900 0.000000
-32.036300 0.000000
-31.996700 0.000000
-31.957100 0.000000
-31.917600 0.000000
-31.878000 0.000000
-31.838400 0.000000
-31.798800 0.000000
-31.759200 0.000000
-31.719600 0.000000
-31.680000 0.000000
-31.640500 0.000000
-31.600900 0.000000
-31.561300 0.000000
-31.521700 0.000000
-31.482100 0.000000
-31.442500 0.000000
-31.402900 0.000000
-31.363400 0.000000
-31.323800 0.000000
-31.284200 0.000000
-31.244600 0.000000
-31.205000 0.000000
-31.165400 0.000000
-31.125800 0.000000
-31.086300 0.000000
-31.046700 0.000000
-31.007100 0.000000
-30.967500 0.000000
-30.927900 0.000000
-30.888300 0.000000
-30.848700 0.000000
-30.809200 0.000000
-30.769600 0.000000
-30.730000 0.000000
-30.690400 0.000000
-30.650800 0.000000
-30.611200 0.000000
-30.571600 0.000000
-30.532100 0.000000
-30.492500 0.000000
-30.452900 0.000000
-30.413300 0.000000
-30.373700 0.000000
-30.334100 0.000000
-30.294500 0.000000
-30.255000 0.000000
-30.215400 0.000000
-30.175800 0.000000
-30.136200 0.000000
-30.096600 0.000000
-30.057000 0.000000
-30.017400 0.000000
-29.977900 0.000000
-29.938300 0.000000
-29.898700 0.000000
-29.859100 0.000000
-29.819500 0.000000
-29.779900 0.000000
-29.740300 0.000000
-29.700800 0.000000
-29.661200 0.000000
-29.621600 0.000000
-29.582000 0.000000
-29.542400 0.000000
-29.502800 0.000000
-29.463200 0.000000
-29.423700 0.000000
-29.384100 0.000000
-29.344500 0.000000
-29.304900 0.000000
-29.265300 0.000000
-29.225700 0.000000
-29.186100 0.000000
-29.146600 0.000000
-29.107000 0.000000
-29.067400 0.000000
-29.027800 0.000000
-28.988200 0.000000
-28.948600 0.000000
-28.909000 0.000000
-28.869500 0.000000
-28.829900 0.000000
-28.790300 0.000000
-28.750700 0.000000
-28.711100 0.000000
-28.671500 0.000000
-28.631900 0.000000
-28.592400 0.000000
-28.552800 0.000000
-28.513200 0.000000
-28.473600 0.000000
-28.434000 0.000000
-28.394400 0.000000
-28.354800 0.000000
-28.315300 0.000000
-28.275700 0.000000
-28.236100 0.000000
-28.196500 0.000000
-28.156900 0.000000
-28.117300 0.000000
-28.077700 0.000000
-28.038200 0.000000
-27.998600 0.000000
-27.959000 0.000000
-27.919400 0.000000
-27.879800 0.000000
-27.840200 0.000000
-27.800600 0.000000
-27.761100 0.000000
-27.721500 0.000000
-27.681900 0.000000
-27.642300 0.000000
-27.602700 0.000000
-27.563100 0.000000
-27.523500 0.000000
-27.484000 0.000000
-27.444400 0.000000
-27.404800 0.000000
-27.365200 0.000000
-27.325600 0.000000
-27.286000 0.000000
-27.246400 0.000000
-27.206900 0.000000
-27.167300 0.000000
-27.127700 0.000000
-27.088100 0.000000
-27.048500 0.000000
-27.008900 0.000000
-26.969300 0.000000
-26.929800 0.000000
-26.890200 0.000000
-26.850600 0.000000
-26.811000 0.000000
-26.771400 0.000000
-26.731800 0.000000
-26.692200 0.000000
-26.652700 0.000000
-26.613100 0.000000
-26.573500 0.000000
-26.533900 0.000000
-26.494300 0.000000
-26.454700 0.000000
-26.415100 0.000000
-26.375600 0.000000
-26.336000 0.000000
-26.296400 0.000000
-26.256800 0.000000
-26.217200 0.000000
-26.177600 0.000000
-26.138000 0.000000
-26.098500 0.000000
-26.058900 0.000000
-26.019300 0.000000
-25.979700 0.000000
-25.940100 0.000000
-25.900500 0.000000
-25.860900 0.000000
-25.821400 0.000000
-25.781800 0.000000
-25.742200 0.000000
-25.702600 0.000000
-25.663000 0.000000
-25.623400 0.000000
-25.583800 0.000000
-25.544300 0.000000
-25.504700 0.000000
-25.465100 0.000000
-25.425500 0.000000
-25.385900 0.000000
-25.346300 0.000000
-25.306700 0.000000
-25.267200 0.000000
-25.227600 0.000000
-25.188000 0.000000
-25.148400 0.000000
-25.108800 0.000000
-25.069200 0.000000
-25.029600 0.000000
-24.990100 0.000000
-24.950500 0.000000
-24.910900 0.000000
-24.871300 0.000000
-24.831700 0.000000
-24.792100 0.000000
-24.752500 0.000000
-24.713000 0.000000
-24.673400 0.000000
-24.633800 0.000000
-24.594200 0.000000
-24.554600 0.000000
-24.515000 0.000000
-24.475400 0.000000
-24.435900 0.000000
-24.396300 0.000000
-24.356700 0.000000
-24.317100 0.000000
-24.277500 0.000000
-24.237900 0.000000
-24.198300 0.000000
-24.158800 0.000000
-24.119200 0.000000
-24.079600 0.000000
-24.040000 0.000000
-24.000400 0.000000
-23.960800 0.000000
-23.921200 0.000000
-23.881700 0.000000
-23.842100 0.000000
-23.802500 0.000000
-23.762900 0.000000
-23.723300 0.000000
-23.683700 0.000000
-23.644100 0.000000
-23.604600 0.000000
-23.565000 0.000000
-23.525400 0.000000
-23.485800 0.000000
-23.446200 0.000000
-23.406600 0.000000
-23.367000 0.000000
-23.327500 0.000000
-23.287900 0.000000
-23.248300 0.000000
-23.208700 0.000000
-23.169100 0.000000
-23.129500 0.000000
-23.089900 0.000000
-23.050400 0.000000
-23.010800 0.000000
-22.971200 0.000000
-22.931600 0.000000
-22.892000 0.000000
-22.852400 0.000000
-22.812800 0.000000
-22.773300 0.000000
-22.733700 0.000000
-22.694100 0.000000
-22.654500 0.000000
-22.614900 0.000000
-22.575300 0.000000
-22.535700 0.000000
-22.496200 0.000000
-22.456600 0.000000
-22.417000 0.000000
-22.377400 0.000000
-22.337800 0.000000
-22.298200 0.000000
-22.258600 0.000000
-22.219100 0.000000
-22.179500 0.000000
-22.139900 0.000000
-22.100300 0.000000
-22.060700 0.000000
-22.021100 0.000000
-21.981500 0.000000
-21.942000 0.000000
-21.902400 0.000000
-21.862800 0.000000
-21.823200 0.000000
-21.783600 0.000000
-21.744000 0.000000
-21.704400 0.000000
-21.664900 0.000000
-21.625300 0.000000
-21.585700 0.000000
-21.546100 0.000000
-21.506500 0.000000
-21.466900 0.000000
-21.427300 0.000000
-21.387800 0.000000
-21.348200 0.000000
-21.308600 0.000000
-21.269000 0.000000
-21.229400 0.000000
-21.189800 0.000000
-21.150200 0.000000
-21.110700 0.000000
-21.071100 0.000000
-21.031500 0.000000
-20.991900 0.000000
-20.952300 0.000000
-20.912700 0.000000
-20.873100 0.000000
-20.833600 0.000000
-20.794000 0.000000
-20.754400 0.000000
-20.714800 0.000000
-20.675200 0.000000
-20.635600 0.000000
-20.596000 0.000000
-20.556500 0.000000
-20.516900 0.000000
-20.477300 0.000000
-20.437700 0.000000
-20.398100 0.000000
-20.358500 0.000000
-20.318900 0.000000
-20.279400 0.000000
-20.239800 0.000000
-20.200200 0.000000
-20.160600 0.000000
-20.121000 0.000000
-20.081400 0.000000
-20.041800 0.000000
-20.002300 0.000000
-19.962700 0.000000
-19.923100 0.000000
-19.883500 0.000000
-19.843900 0.000000
-19.804300 0.000000
-19.764700 0.000000
-19.725200 0.000000
-19.685600 0.000000
-19.646000 0.000000
-19.606400 0.000000
-19.566800 0.000000
-19.527200 0.000000
-19.487600 0.000000
-19.448100 0.000000
-19.408500 0.000000
-19.368900 0.000000
-19.329300 0.000000
-19.289700 0.000000
-19.250100 0.000000
-19.210500 0.000000
-19.171000 0.000000
-19.131400 0.000000
-19.091800 0.000000
-19.052200 0.000000
-19.012600 0.000000
-18.973000 0.000000
-18.933400 0.000000
-18.893900 0.000000
-18.854300 0.000000
-18.814700 0.000000
-18.775100 0.000000
-18.735500 0.000000
-18.695900 0.000000
-18.656300 0.000000
-18.616800 0.000000
-18.577200 0.000000
-18.537600 0.000000
-18.498000 0.000000
-18.458400 0.000000
-18.418800 0.000000
-18.379200 0.000000
-18.339700 0.000000
-18.300100 0.000000
-18.260500 0.000000
-18.220900 0.000000
-18.181300 0.000000
-18.141700 0.000000
-18.102100 0.000000
-18.062600 0.000000
-18.023000 0.000000
-17.983400 0.000000
-17.943800 0.000000
-17.904200 0.000000
-17.864600 0.000000
-17.825000 0.000000
-17.785500 0.000000
-17.745900 0.000000
-17.706300 0.000000
-17.666700 0.000000
-17.627100 0.000000
-17.587500 0.000000
-17.547900 0.000000
-17.508400 0.000000
-17.468800 0.000000
-17.429200 0.000000
-17.389600 0.000000
-17.350000 0.000000
-17.310400 0.000000
-17.270800 0.000000
-17.231300 0.000000
-17.191700 0.000000
-17.152100 0.000000
-17.112500 0.000000
-17.072900 0.000000
-17.033300 0.000000
-16.993700 0.000000
-16.954200 0.000000
-16.914600 0.000000
-16.875000 0.000000
-16.835400 0.000000
-16.795800 0.000000
-16.756200 0.000000
-16.716600 0.000000
-16.677100 0.000000
-16.637500 0.000000
-16.597900 0.000000
-16.558300 0.000000
-16.518700 0.000000
-16.479100 0.000000
-16.439500 0.000000
-16.400000 0.000000
-16.360400 0.000000
-16.320800 0.000000
-16.281200 0.000000
-16.241600 0.000000
-16.202000 0.000000
-16.162400 0.000000
-16.122900 0.000000
-16.083300 0.000000
-16.043700 0.000000
-16.004100 0.000000
-15.964500 0.000000
-15.924900 0.000000
-15.885300 0.000000
-15.845800 0.000000
-15.806200 0.000000
-15.766600 0.000000
-15.727000 0.000000
-15.687400 0.000000
-15.647800 0.000000
-15.608200 0.000000
-15.568700 0.000000
-15.529100 0.000000
-15.489500 0.000000
-15.449900 0.000000
-15.410300 0.000000
-15.370700 0.000000
-15.331100 0.000000
-15.291600 0.000000
-15.252000 0.000000
-15.212400 0.000000
-15.172800 0.000000
-15.133200 0.000000
-15.093600 0.000000
-15.054000 0.000000
-15.014500 0.000000
-14.974900 0.000000
-14.935300 0.000000
-14.895700 0.000000
-14.856100 0.000000
-14.816500 0.000000
-14.776900 0.000000
-14.737400 0.000000
-14.697800 0.000000
-14.658200 0.000000
-14.618600 0.000000
-14.579000 0.000000
-14.539400 0.000000
-14.499800 0.000000
-14.460300 0.000000
-14.420700 0.000000
-14.381100 0.000000
-14.341500 0.000000
-14.301900 0.000000
-14.262300 0.000000
-14.222700 0.000000
-14.183200 0.000000
-14.143600 0.000000
-14.104000 0.000000
-14.064400 0.000000
-14.024800 0.000000
-13.985200 0.000000
-13.945600 0.000000
-13.906100 0.000000
-13.866500 0.000000
-13.826900 0.000000
-13.787300 0.000000
-13.747700 0.000000
-13.708100 0.000000
-13.668500 0.000000
-13.629000 0.000000
-13.589400 0.000000
-13.549800 0.000000
-13.510200 0.000000
-13.470600 0.000000
-13.431000 0.000000
-13.391400 0.000000
-13.351900 0.000000
-13.312300 0.000000
-13.272700 0.000000
-13.233100 0.000000
-13.193500 0.000000
-13.153900 0.000000
-13.114300 0.000000
-13.074800 0.000000
-13.035200 0.000000
-12.995600 0.000000
-12.956000 0.000000
-12.916400 0.000000
-12.876800 0.000000
-12.837200 0.000000
-12.797700 0.000000
-12.758100 0.000000
-12.718500 0.000000
-12.678900 0.000000
-12.639300 0.000000
-12.599700 0.000000
-12.560100 0.000000
-12.520600 0.000000
-12.481000 0.000000
-12.441400 0.000000
-12.401800 0.000000
-12.362200 0.000000
-12.322600 0.000000
-12.283000 0.000000
-12.243500 0.000000
-12.203900 0.000000
-12.164300 0.000000
-12.124700 0.000000
-12.085100 0.000000
-12.045500 0.000000
-12.005900 0.000000
-11.966400 0.000000
-11.926800 0.000000
-11.887200 0.000000
-11.847600 0.000000
-11.808000 0.000000
-11.768400 0.000000
-11.728800 0.000000
-11.689300 0.000000
-11.649700 0.000000
-11.610100 0.000000
-11.570500 0.000000
-11.530900 0.000000
-11.491300 0.000000
-11.451700 0.000000
-11.412200 0.000000
-11.372600 0.000000
-11.333000 0.000000
-11.293400 0.000000
-11.253800 0.000000
-11.214200 0.000000
-11.174600 0.000000
-11.135100 0.000000
-11.095500 0.000000
-11.055900 0.000000
-11.016300 0.000000
-10.976700 0.000000
-10.937100 0.000000
-10.897500 0.000000
-10.858000 0.000000
-10.818400 0.000000
-10.778800 0.000000
-10.739200 0.000000
-10.699600 0.000000
-10.660000 0.000000
-10.620400 0.000000
-10.580900 0.000000
-10.541300 0.000000
-10.501700 0.000000
-10.462100 0.000000
-10.422500 0.000000
-10.382900 0.000000
-10.343300 0.000000
-10.303800 0.000000
-10.264200 0.000000
-10.224600 0.000000
-10.185000 0.000000
-10.145400 0.000000
-10.105800 0.000000
-10.066200 0.000000
-10.026700 0.000000
-9.987100 0.000000
-9.947500 0.000000
-9.907900 0.000000
-9.868300 0.000000
-9.828700 0.000000
-9.789100 0.000000
-9.749600 0.000000
-9.710000 0.000000
-9.670400 0.000000
-9.630800 0.000000
-9.591200 0.000000
-9.551600 0.000000
-9.512000 0.000000
-9.472500 0.000000
-9.432900 0.000000
-9.393300 0.000000
-9.353700 0.000000
-9.314100 0.000000
-9.274500 0.000000
-9.234900 0.000000
-9.195400 0.000000
-9.155800 0.000000
-9.116200 0.000000
-9.076600 0.000000
-9.037000 0.000000
-8.997400 0.000000
-8.957800 0.000000
-8.918300 0.000000
-8.878700 0.000000
-8.839100 0.000000
-8.799500 0.000000
-8.759900 0.000000
-8.720300 0.000000
-8.680700 0.000000
-8.641200 0.000000
-8.601600 0.000000
-8.562000 0.000000
-8.522400 0.000000
-8.482800 0.000000
-8.443200 0.000000
-8.403600 0.000000
-8.364100 0.000000
-8.324500 0.000000
-8.284900 0.000000
-8.245300 0.000000
-8.205700 0.000000
-8.166100 0.000000
-8.126500 0.000000
-8.087000 0.000000
-8.047400 0.000000
-8.007800 0.000000
-7.968200 0.000000
-7.928600 0.000000
-7.889000 0.000000
-7.849400 0.000000
-7.809900 0.000000
-7.770300 0.000000
-7.730700 0.000000
-7.691100 0.000000
-7.651500 0.000000
-7.611900 0.000000
-7.572300 0.000000
-7.532800 0.000000
-7.493200 0.000000
-7.453600 0.000000
-7.414000 0.000000
-7.374400 0.000000
-7.334800 0.000000
-7.295200 0.000000
-7.255700 0.000000
-7.216100 0.000000
-7.176500 0.000000
-7.136900 0.000000
-7.097300 0.000000
-7.057700 0.000000
-7.018100 0.000000
-6.978600 0.000000
-6.939000 0.000000
-6.899400 0.000000
-6.859800 0.000000
-6.820200 0.000000
-6.780600 0.000000
-6.741000 0.000000
-6.701500 0.000000
-6.661900 0.000000
-6.622300 0.000000
-6.582700 0.000000
-6.543100 0.000000
-6.503500 0.000000
-6.463900 0.000000
-6.424400 0.000000
-6.384800 0.000000
-6.345200 0.000000
-6.305600 0.000000
-6.266000 0.000000
-6.226400 0.000000
-6.186800 0.000000
-6.147300 0.000000
-6.107700 0.000000
-6.068100 0.000000
-6.028500 0.000000
-5.988900 0.000000
-5.949300 0.000000
-5.909700 0.000000
-5.870200 0.000000
-5.830600 0.000000
-5.791000 0.000000
-5.751400 0.000000
-5.711800 0.000000
-5.672200 0.000000
-5.632600 0.000000
-5.593100 0.000000
-5.553500 0.000000
-5.513900 0.000000
-5.474300 0.000000
-5.434700 0.000000
-5.395100 0.000000
-5.355500 0.000000
-5.316000 0.000000
-5.276400 0.000000
-5.236800 0.000000
-5.197200 0.000000
-5.157600 0.000000
-5.118000 0.000000
-5.078400 0.000000
-5.038900 0.000000
-4.999300 0.000000
-4.959700 0.000000
-4.920100 0.000000
-4.880500 0.000000
-4.840900 0.000000
-4.801300 0.000000
-4.761800 0.000000
-4.722200 0.000000
-4.682600 0.000000
-4.643000 0.000000
-4.603400 0.000000
-4.563800 0.000000
-4.524200 0.000000
-4.484700 0.000000
-4.445100 0.000000
-4.405500 0.000000
-4.365900 0.000000
-4.326300 0.000000
-4.286700 0.000000
-4.247100 0.000000
-4.207600 0.000000
-4.168000 0.000000
-4.128400 0.000000
-4.088800 0.000000
-4.049200 0.000000
-4.009600 0.000000
-3.970000 0.000000
-3.930500 0.000000
-3.890900 0.000000
-3.851300 0.000000
-3.811700 0.000000
-3.772100 0.000000
-3.732500 0.000000
-3.692900 0.000000
-3.653400 0.000000
-3.613800 0.000000
-3.574200 0.000000
-3.534600 0.000000
-3.495000 0.000000
-3.455400 0.000000
-3.415800 0.000000
-3.376300 0.000000
-3.336700 0.000000
-3.297100 0.000000
-3.257500 0.000000
-3.217900 0.000000
-3.178300 0.000000
-3.138700 0.000000
-3.099200 0.000000
-3.059600 0.000000
-3.020000 0.000000
-2.980400 0.000000
-2.940800 0.000000
-2.901200 0.000000
-2.861600 0.000000
-2.822100 0.000000
-2.782500 0.000000
-2.742900 0.000000
-2.703300 0.000000
-2.663700 0.000000
-2.624100 0.000000
-2.584500 0.000000
-2.545000 0.000000
-2.505400 0.000000
-2.465800 0.000000
-2.426200 0.000000
-2.386600 0.000000
-2.347000 0.000000
-2.307400 0.000000
-2.267900 0.000000
-2.228300 0.000000
-2.188700 0.000000
-2.149100 0.000000
-2.109500 0.000000
-2.069900 0.000000
-2.030300 0.000000
-1.990800 0.000000
-1.951200 0.000000
-1.911600 0.000000
-1.872000 0.000000
-1.832400 0.000000
-1.792800 0.000000
-1.753200 0.000000
-1.713700 0.000000
-1.674100 0.000000
-1.634500 0.000000
-1.594900 0.000000
-1.555300 0.000000
-1.515700 0.000000
-1.476100 0.000000
-1.436600 0.000000
-1.397000 0.000000
-1.357400 0.000000
-1.317800 0.000000
-1.278200 0.000000
-1.238600 0.000000
-1.199000 0.005000
-1.159500 0.017500
-1.119900 0.034100
-1.080300 0.054100
-1.040700 0.076600
-1.001100 0.101800
-0.961500 0.129000
-0.921900 0.118500
-0.882400 0.123100
-0.842800 0.130500
-0.803200 0.137900
-0.763600 0.146000
-0.724000 0.154300
-0.684400 0.162600
-0.644800 0.173000
-0.605300 0.182800
-0.565700 0.191300
-0.526100 0.198500
-0.486500 0.204700
-0.446900 0.213900
-0.407300 0.223000
-0.367700 0.228400
-0.328200 0.236200
-0.288600 0.246000
-0.249000 0.251600
-0.209400 0.256400
-0.169800 0.261800
-0.130200 0.268300
-0.090600 0.275200
-0.051100 0.282400
-0.011500 0.289900
0.028100 0.297600
0.067700 0.305300
0.107300 0.312900
0.146900 0.320800
0.186500 0.329100
0.226000 0.337800
0.265600 0.346800
0.305200 0.355500
0.344800 0.364300
0.384400 0.373500
0.424000 0.382800
0.463600 0.392300
0.503100 0.400700
0.542700 0.409100
0.582300 0.418200
0.621900 0.428000
0.661500 0.438100
0.701100 0.448600
0.740700 0.459500
0.780200 0.471800
0.819800 0.485900
0.859400 0.500000
0.899000 0.513700
0.938600 0.525900
0.978200 0.536100
1.017800 0.543400
1.057300 0.547700
1.096900 0.557900
1.136500 0.576000
1.176100 0.595500
1.215700 0.616500
1.255300 0.639400
1.294900 0.663600
1.334400 0.683700
1.374000 0.704100
1.413600 0.726200
1.453200 0.749600
1.492800 0.774100
1.532400 0.802200
1.572000 0.841500
1.611500 0.891800
1.651100 0.954100
1.690700 1.033100
1.730300 1.122300
1.769900 1.238000
1.809500 1.575100
1.849100 1.798900
1.888600 1.971800
1.928200 2.079900
1.967800 2.213400
2.007400 2.289700
2.047000 2.467900
2.086600 2.620700
2.126200 2.761200
2.165700 2.856900
2.205300 2.965900
2.244900 3.092000
2.284500 3.218800
2.324100 3.389200
2.363700 3.406700
2.403300 3.439700
2.442800 3.642300
2.482400 3.556900
2.522000 3.663700
2.561600 3.851900
2.601200 4.264600
2.640800 4.644100
2.680400 4.907300
2.719900 5.041900
2.759500 4.896700
2.799100 4.672600
2.838700 4.649500
2.878300 4.706900
2.917900 4.806600
2.957500 4.884700
2.997000 4.874600
3.036600 4.794000
3.076200 4.604300
3.115800 4.549500
3.155400 4.539300
3.195000 4.805800
3.234600 5.082900
3.274100 5.390400
3.313700 5.157800
3.353300 4.780900
3.392900 4.604600
3.432500 4.500000
3.472100 4.572600
3.511700 4.744000
3.551200 5.055400
3.590800 4.591000
3.630400 4.224000
3.670000 4.062100
3.709600 4.012800
3.749200 3.573000
3.788800 3.273400
3.828300 3.234400
3.867900 3.440000
3.907500 3.468700
3.947100 3.404200
3.986700 3.509900
4.026300 3.540700
4.065900 3.638100
4.105400 3.773000
4.145000 3.396000
4.184600 3.186400
4.224200 3.110600
4.263800 3.254300
4.303400 3.329900
4.343000 3.433400
4.382500 3.526500
4.422100 3.305800
4.461700 4.939400
4.501300 5.134800
4.540900 5.839900
4.580500 5.224200
4.620100 4.922800
4.659600 4.671900
4.699200 4.411600
4.738800 4.225500
4.778400 4.172400
4.818000 4.254900
4.857600 4.460300
4.897200 4.672200
4.936700 5.181300
4.976300 4.983400
5.015900 4.745400
5.055500 4.642900
5.095100 4.767300
5.134700 5.120800
5.174300 5.098200
5.213800 4.913800
5.253400 4.333700
5.293000 4.303200
5.332600 4.696900
5.372200 4.797400
5.411800 4.981800
5.451400 5.407200
5.490900 5.674100
5.530500 5.879400
5.570100 5.644800
5.609700 5.680700
5.649300 5.560300
5.688900 5.427500
5.728500 5.560000
5.768000 5.681400
5.807600 5.311700
5.847200 5.492900
5.886800 5.286000
5.926400 5.643000
5.966000 5.156500
6.005600 5.664000
6.045100 6.237600
6.084700 5.539200
6.124300 5.205600
6.163900 5.501400
6.203500 6.151900
6.243100 5.734400
6.282700 5.929200
6.322200 6.253300
6.361800 6.952700
6.401400 8.922400
6.441000 8.901200
6.480600 7.827600
6.520200 8.167300
6.559800 6.771700
6.599300 4.981000
6.638900 3.633200
6.678500 3.097800
6.718100 3.244900
6.757700 4.385500
6.797300 4.698600
6.836900 4.398400
6.876400 4.120700
6.916000 3.802000
6.955600 3.959700
6.995200 4.430900
7.034800 4.490700
7.074400 4.361700
7.114000 4.313200
7.153500 4.162800
7.193100 4.051700
7.232700 3.827200
7.272300 5.325400
7.311900 4.605200
7.351500 4.502200
7.391100 4.354500
7.430600 4.237900
7.470200 4.232500
7.509800 4.275800
7.549400 4.218600
7.589000 4.045300
7.628600 3.875100
7.668200 4.185900
7.707700 4.031200
7.747300 4.804500
7.786900 5.478600
7.826500 5.144400
7.866100 4.796800
7.905700 4.544100
7.945300 4.439900
7.984800 4.085000
8.024400 4.163100
8.064000 4.083700
8.103600 4.317200
8.143200 5.036300
8.182800 5.046100
8.222400 4.763100
8.261900 4.842200
8.301500 4.408700
8.341100 3.687100
8.380700 3.206100
8.420300 3.007500
8.459900 2.927100
8.499500 2.918700
8.539000 2.993000
8.578600 3.056300
8.618200 3.350800
8.657800 3.207000
8.697400 3.037700
8.737000 3.359100
8.776600 3.817200
8.816100 3.900600
8.855700 3.682800
8.895300 3.739000
8.934900 4.041400
8.974500 4.252700
9.014100 3.879400
9.053700 3.828500
9.093200 3.808600
9.132800 3.804900
9.172400 3.983500
9.212000 4.060400
9.251600 3.996700
9.291200 3.486400
9.330800 3.245900
9.370300 3.086600
9.409900 3.680800
9.449500 3.893100
9.489100 3.586400
9.528700 3.465000
9.568300 3.482800
9.607900 3.729600
9.647400 3.794200
9.687000 3.535000
9.726600 3.479500
9.766200 3.463200
9.805800 3.387200
9.845400 3.376500
9.885000 3.413400
9.924500 3.432100
9.964100 3.391700
10.003700 3.370700
10.043300 3.359700
10.082900 3.380200
10.122500 3.632700
10.162100 4.295900
10.201600 4.500900
10.241200 4.632500
10.280800 4.839900
10.320400 4.959300
10.360000 4.833600
10.399600 4.612700
10.439200 4.407500
10.478700 4.387000
10.518300 4.385300
10.557900 4.207800
10.597500 3.741000
10.637100 3.108900
10.676700 3.115400
10.716300 2.885600
10.755800 2.825400
10.795400 2.770900
10.835000 2.703700
10.874600 2.735500
10.914200 2.765600
10.953800 2.794000
10.993400 2.664300
11.032900 2.359200
11.072500 2.337700
11.112100 2.549500
11.151700 2.449700
11.191300 2.414700
11.230900 2.654100
11.270500 3.217400
11.310000 5.117800
11.349600 5.542400
11.389200 6.125300
11.428800 4.931600
11.468400 3.494500
11.508000 2.766400
11.547600 2.109500
11.587100 1.588700
11.626700 1.466300
11.666300 1.420200
11.705900 1.387900
11.745500 1.366700
11.785100 1.350500
11.824700 1.340400
11.864200 1.334700
11.903800 1.330900
11.943400 1.333300
11.983000 1.351000
12.022600 1.346800
12.062200 1.359400
12.101800 1.392700
12.141300 1.402400
12.180900 1.382900
12.220500 1.333300
12.260100 1.300000
12.299700 1.271400
12.339300 1.249400
12.378900 1.231200
12.418400 1.217800
12.458000 1.212600
12.497600 1.217600
12.537200 1.231700
12.576800 1.256200
12.616400 1.289300
12.656000 1.301200
12.695500 1.312000
12.735100 1.322600
12.774700 1.333200
12.814300 1.344600
12.853900 1.356900
12.893500 1.373200
12.933100 1.391300
12.972600 1.408300
13.012200 1.418400
13.051800 1.425700
13.091400 1.430000
13.131000 1.428300
13.170600 1.420500
13.210200 1.384200
13.249700 1.384700
13.289300 1.382400
13.328900 1.376200
13.368500 1.368600
13.408100 1.362500
13.447700 1.360700
13.487300 1.364900
13.526800 1.369900
13.566400 1.377800
13.606000 1.391100
13.645600 1.412100
13.685200 1.465700
13.724800 1.513700
13.764400 1.418400
13.803900 1.285900
13.843500 1.220500
13.883100 1.183900
13.922700 1.156600
13.962300 1.134900
14.001900 1.116900
14.041500 1.102600
14.081000 1.059300
14.120600 1.014600
14.160200 0.983600
14.199800 0.966200
14.239400 0.958100
14.279000 0.953900
14.318600 0.952200
14.358100 0.953400
14.397700 0.955300
14.437300 0.957700
14.476900 0.960800
14.516500 0.963700
14.556100 0.966600
14.595700 0.970900
14.635200 1.009800
14.674800 1.052900
14.714400 1.086300
14.754000 1.110200
14.793600 1.125200
14.833200 1.134100
14.872800 1.145900
14.912300 1.177800
14.951900 1.301500
14.991500 1.371200
15.031100 1.011100
15.070700 1.009300
15.110300 1.028900
15.149900 1.048100
15.189400 1.107200
15.229000 1.222700
15.268600 1.340600
15.308200 1.325000
15.347800 1.283500
15.387400 1.228900
15.427000 1.103900
15.466500 0.996900
15.506100 0.911400
15.545700 0.844600
15.585300 0.786600
15.624900 0.738600
15.664500 0.701400
15.704100 0.669800
15.743600 0.643100
15.783200 0.630800
15.822800 0.627200
15.862400 0.629000
15.902000 0.631300
15.941600 0.636300
15.981200 0.645500
16.020700 0.655600
16.060300 0.662900
16.099900 0.683600
16.139500 0.784900
16.179100 0.858700
16.218700 0.842300
16.258300 0.827500
16.297800 0.811300
16.337400 0.856600
16.377000 1.025400
16.416600 1.191000
16.456200 1.445700
16.495800 1.510300
16.535400 1.579700
16.574900 1.878800
16.614500 1.940900
16.654100 1.921500
16.693700 1.584600
16.733300 1.484500
16.772900 1.513800
16.812500 1.551000
16.852000 1.566500
16.891600 1.576400
16.931200 1.600200
16.970800 1.542200
17.010400 1.479800
17.050000 1.365100
17.089600 1.289500
17.129100 1.254400
17.168700 1.233300
17.208300 1.157900
17.247900 1.066700
17.287500 0.968100
17.327100 0.915200
17.366700 0.935300
17.406200 0.952900
17.445800 0.948800
17.485400 1.236500
17.525000 1.353400
17.564600 1.421900
17.604200 1.480300
17.643800 1.486800
17.683300 1.491200
17.722900 1.486900
17.762500 1.470000
17.802100 1.448000
17.841700 1.465900
17.881300 1.536100
17.920900 1.532000
17.960400 1.506600
18.000000 1.471200
18.039600 1.401000
18.079200 1.246100
18.118800 1.062000
18.158400 0.948400
18.198000 0.905500
18.237500 0.897400
18.277100 0.919900
18.316700 0.950300
18.356300 0.974900
18.395900 0.992800
18.435500 1.006900
18.475100 1.036100
18.514600 1.098300
18.554200 1.140800
18.593800 1.258800
18.633400 1.355100
18.673000 1.575700
18.712600 1.538400
18.752200 1.598600
18.791700 1.673800
18.831300 1.736500
18.870900 1.611200
18.910500 1.568000
18.950100 1.520600
18.989700 1.462400
19.029300 1.408400
19.068800 1.371700
19.108400 1.329900
19.148000 1.288200
19.187600 1.216900
19.227200 1.193200
19.266800 1.179800
19.306400 1.134700
19.345900 1.115100
19.385500 1.108200
19.425100 1.103600
19.464700 1.101900
19.504300 1.102600
19.543900 1.104700
19.583500 1.099900
19.623000 1.100300
19.662600 1.101000
19.702200 1.095600
19.741800 1.084900
19.781400 1.069800
19.821000 1.059700
19.860600 1.054200
19.900100 1.047800
19.939700 1.057200
19.979300 1.074600
20.018900 1.089100
20.058500 1.084500
20.098100 1.082900
20.137700 1.228900
20.177200 1.267300
20.216800 1.412500
20.256400 1.428400
20.296000 1.385300
20.335600 1.323200
20.375200 1.234000
20.414800 1.254200
20.454300 1.306100
20.493900 1.393000
20.533500 1.506200
20.573100 1.684800
20.612700 1.691700
20.652300 1.717100
20.691900 1.735200
20.731400 1.748100
20.771000 1.740100
20.810600 1.613900
20.850200 1.581700
20.889800 1.526800
20.929400 1.481800
20.969000 1.447900
21.008500 1.424200
21.048100 1.408700
21.087700 1.400400
21.127300 1.416400
21.166900 1.429600
21.206500 1.447600
21.246100 1.477000
21.285600 1.502400
21.325200 1.524200
21.364800 1.562100
21.404400 1.582700
21.444000 1.600400
21.483600 1.582700
21.523200 1.568700
21.562700 1.571300
21.602300 1.582900
21.641900 1.592200
21.681500 1.601600
21.721100 1.617000
21.760700 1.637900
21.800300 1.655100
21.839800 1.663900
21.879400 1.700900
21.919000 1.680500
21.958600 1.705400
21.998200 1.728100
22.037800 1.760400
22.077400 1.778200
22.116900 1.768300
22.156500 1.739800
22.196100 1.692600
22.235700 1.652800
22.275300 1.628900
22.314900 1.620200
22.354500 1.620000
22.394000 1.628600
22.433600 1.642800
22.473200 1.659800
22.512800 1.679000
22.552400 1.654900
22.592000 1.676200
22.631600 1.732900
22.671100 1.799800
22.710700 1.811800
22.750300 1.809000
22.789900 1.800400
22.829500 1.856000
22.869100 1.827500
22.908700 1.841800
22.948200 1.879200
22.987800 1.944800
23.027400 1.959200
23.067000 1.982300
23.106600 1.988800
23.146200 1.986900
23.185800 1.990000
23.225300 2.007400
23.264900 2.030300
23.304500 2.059300
23.344100 2.101800
23.383700 2.149200
23.423300 2.132200
23.462900 2.128900
23.502400 2.140200
23.542000 2.137800
23.581600 2.128900
23.621200 2.134700
23.660800 2.250900
23.700400 2.315500
23.740000 2.537400
23.779500 2.874000
23.819100 2.712200
23.858700 2.630300
23.898300 2.584300
23.937900 2.549900
23.977500 2.557400
24.017100 2.683100
24.056600 2.609700
24.096200 2.605400
24.135800 2.616700
24.175400 2.664500
24.215000 2.709200
24.254600 2.741200
24.294200 2.778100
24.333700 2.810300
24.373300 2.878900
24.412900 3.026700
24.452500 3.186500
24.492100 3.235300
24.531700 3.359300
24.571300 3.344200
24.610800 3.311200
24.650400 3.184600
24.690000 3.092900
24.729600 3.036300
24.769200 3.093300
24.808800 3.173900
24.848400 3.322100
24.887900 3.349600
24.927500 3.446700
24.967100 3.450700
25.006700 3.406000
25.046300 3.341700
25.085900 3.261500
25.125500 3.196700
25.165000 3.145400
25.204600 3.089000
25.244200 3.054500
25.283800 3.037400
25.323400 3.094800
25.363000 2.871300
25.402600 2.783800
25.442100 2.553700
25.481700 2.395900
25.521300 2.314500
25.560900 2.280900
25.600500 2.250400
25.640100 2.468100
25.679700 2.493100
25.719200 2.621600
25.758800 2.739000
25.798400 2.857300
25.838000 2.887600
25.877600 2.853300
25.917200 2.843100
25.956800 2.816800
25.996300 2.756300
26.035900 2.699700
26.075500 2.714200
26.115100 2.739500
26.154700 2.767700
26.194300 2.838300
26.233900 2.891900
26.273400 2.939700
26.313000 2.965900
26.352600 2.938200
26.392200 2.974700
26.431800 3.022900
26.471400 3.000400
26.511000 2.867800
26.550500 2.723100
26.590100 2.736600
26.629700 2.826300
26.669300 2.914700
26.708900 2.706900
26.748500 3.036600
26.788100 2.952800
26.827600 2.740800
26.867200 2.628800
26.906800 2.568800
26.946400 2.533500
26.986000 2.500100
27.025600 2.544700
27.065200 2.619500
27.104700 2.742500
27.144300 2.611100
27.183900 2.475500
27.223500 2.309300
27.263100 2.178000
27.302700 2.076000
27.342300 1.976000
27.381800 1.897400
27.421400 1.831400
27.461000 1.749800
27.500600 1.681900
27.540200 1.686300
27.579800 1.612200
27.619400 1.518400
27.658900 1.416400
27.698500 1.322600
27.738100 1.243100
27.777700 1.187700
27.817300 1.146600
27.856900 1.118100
27.896500 1.100700
27.936000 1.094400
27.975600 1.095400
28.015200 1.106000
28.054800 1.130900
28.094400 1.165500
28.134000 1.209900
28.173600 1.215100
28.213100 1.156300
28.252700 1.156800
28.292300 1.177300
28.331900 1.209800
28.371500 1.249500
28.411100 1.286700
28.450700 1.323300
28.490200 1.366300
28.529800 1.417000
28.569400 1.481800
28.609000 1.566300
28.648600 1.631700
28.688200 1.681300
28.727800 1.712000
28.767300 1.846500
28.806900 2.053700
28.846500 2.190500
28.886100 2.462400
28.925700 2.281700
28.965300 2.231200
29.004900 2.247100
29.044400 2.283000
29.084000 2.322000
29.123600 2.419500
29.163200 2.310800
29.202800 2.375200
29.242400 2.446500
29.282000 2.538200
29.321500 2.497300
29.361100 2.463700
29.400700 2.535000
29.440300 2.624400
29.479900 2.464600
29.519500 2.372900
29.559100 2.435200
29.598600 2.571900
29.638200 2.554900
29.677800 2.596700
29.717400 2.910800
29.757000 2.915200
29.796600 2.962100
29.836200 2.981700
29.875700 2.887600
29.915300 3.168300
29.954900 2.943100
29.994500 2.926400
30.034100 2.974200
30.073700 2.948700
30.113300 2.818800
30.152800 2.732300
30.192400 2.819900
30.232000 2.914100
30.271600 3.045400
30.311200 3.185700
30.350800 3.258000
30.390400 3.288100
30.429900 3.272000
30.469500 3.152500
30.509100 3.077900
30.548700 2.909700
30.588300 2.714600
30.627900 2.608000
30.667500 2.507300
30.707000 2.465100
30.746600 2.409600
30.786200 2.476500
30.825800 2.471800
30.865400 2.461800
30.905000 2.475800
30.944600 2.495700
30.984100 2.521600
31.023700 2.573900
31.063300 2.563200
31.102900 2.496500
31.142500 2.329200
31.182100 2.329600
31.221700 2.384700
31.261200 2.459100
31.300800 2.573900
31.340400 2.703700
31.380000 2.866600
31.419600 3.065000
31.459200 3.297100
31.498800 3.311000
31.538300 3.287100
31.577900 2.805900
31.617500 2.384900
31.657100 2.142800
31.696700 1.950400
31.736300 1.789900
31.775900 1.658000
31.815400 1.558000
31.855000 1.487200
31.894600 1.458700
31.934200 1.449100
31.973800 1.447400
32.013400 1.433800
32.053000 1.401100
32.092500 1.339600
32.132100 1.265400
32.171700 1.202600
32.211300 1.167400
32.250900 1.183200
32.290500 1.183200
32.330100 1.175400
32.369600 1.165100
32.409200 1.168200
32.448800 1.172800
32.488400 1.178800
32.528000 1.186300
32.567600 1.193900
32.607200 1.149200
32.646700 1.130400
32.686300 1.088600
32.725900 1.058500
32.765500 1.043100
32.805100 1.030900
32.844700 1.023900
32.884300 1.063300
32.923800 1.083100
32.963400 1.080000
33.003000 1.083200
33.042600 1.126100
33.082200 1.148500
33.121800 1.180200
33.161400 1.228000
33.200900 1.279800
33.240500 1.326300
33.280100 1.352300
33.319700 1.392500
33.359300 1.440500
33.398900 1.492100
33.438500 1.536200
33.478000 1.577600
33.517600 1.626800
33.557200 1.671000
33.596800 1.694800
33.636400 1.669100
33.676000 1.650200
33.715600 1.632000
33.755100 1.615600
33.794700 1.671400
33.834300 1.692300
33.873900 1.773300
33.913500 1.816800
33.953100 1.769900
33.992700 1.788400
34.032200 1.806800
34.071800 1.803000
34.111400 1.838300
34.151000 1.772800
34.190600 1.704400
34.230200 1.752600
34.269800 1.813300
34.309300 1.934200
34.348900 2.075000
34.388500 2.195800
34.428100 2.319500
34.467700 2.445400
34.507300 2.565400
34.546900 2.679300
34.586400 2.605800
34.626000 2.754900
34.665600 3.028800
34.705200 3.169800
34.744800 2.910800
34.784400 2.686000
34.824000 2.657900
34.863500 2.628300
34.903100 2.579300
34.942700 2.542400
34.982300 2.524800
35.021900 2.574400
35.061500 2.370400
35.101100 2.321800
35.140600 2.230600
35.180200 2.155000
35.219800 2.082000
35.259400 2.016600
35.299000 2.013000
35.338600 1.983700
35.378200 2.000400
35.417700 2.030600
35.457300 2.123500
35.496900 2.265300
35.536500 2.264400
35.576100 2.223000
35.615700 2.179400
35.655300 2.172900
35.694800 2.179800
35.734400 2.191300
35.774000 2.206500
35.813600 2.241100
35.853200 2.298900
35.892800 2.380900
35.932400 2.368100
35.971900 2.390500
36.011500 2.258800
36.051100 2.229500
36.090700 2.187800
36.130300 2.121300
36.169900 2.050000
36.209500 2.024500
36.249000 2.059700
36.288600 2.119800
36.328200 2.150800
36.367800 2.118900
36.407400 1.967700
36.447000 1.909400
36.486600 1.868400
36.526100 1.820400
36.565700 1.801500
36.605300 1.807600
36.644900 1.826000
36.684500 1.916400
36.724100 1.843500
36.763600 1.721400
36.803200 1.671000
36.842800 1.628100
36.882400 1.586700
36.922000 1.551300
36.961600 1.520900
37.001200 1.499900
37.040700 1.503100
37.080300 1.521300
37.119900 1.539800
37.159500 1.591400
37.199100 1.647400
37.238700 1.507900
37.278300 1.511900
37.317800 1.474500
37.357400 1.420300
37.397000 1.388400
37.436600 1.368100
37.476200 1.347400
37.515800 1.320200
37.555400 1.302600
37.594900 1.348700
37.634500 1.388700
37.674100 1.431600
37.713700 1.448900
37.753300 1.432900
37.792900 1.418400
37.832500 1.385600
37.872000 1.310500
37.911600 1.216800
37.951200 1.168700
37.990800 1.100200
38.030400 1.022900
38.070000 0.937200
38.109600 0.863700
38.149100 0.807200
38.188700 0.845700
38.228300 0.817000
38.267900 0.646600
38.307500 0.484100
38.347100 0.341300
38.386700 0.255000
38.426200 0.202600
38.465800 0.149300
38.505400 0.097400
38.545000 0.055800
38.584600 0.031400
38.624200 0.014400
38.663800 0.003900
38.703300 0.000000
38.742900 0.000000
38.782500 0.000000
38.822100 0.000000
38.861700 0.000000
38.901300 0.000000
38.940900 0.000000
38.980400 0.000000
39.020000 0.000000
39.059600 0.000000
39.099200 0.000000
39.138800 0.000000
39.178400 0.000000
39.218000 0.000000
39.257500 0.000000
39.297100 0.000000
39.336700 0.000000
39.376300 0.000000
39.415900 0.000000
39.455500 0.000000
39.495100 0.000000
39.534600 0.000000
39.574200 0.000000
39.613800 0.000000
39.653400 0.000000
39.693000 0.000000
39.732600 0.000000
39.772200 0.000000
39.811700 0.000000
39.851300 0.000000
39.890900 0.000000
39.930500 0.000000
39.970100 0.000000
40.009700 0.000000
40.049300 0.000000
40.088800 0.000000
40.128400 0.000000
40.168000 0.000000
40.207600 0.000000
40.247200 0.000000
40.286800 0.000000
40.326400 0.000000
40.365900 0.000000
40.405500 0.000000
40.445100 0.000000
40.484700 0.000000
40.524300 0.000000
40.563900 0.000000
40.603500 0.000000
40.643000 0.000000
40.682600 0.000000
40.722200 0.000000
40.761800 0.000000
40.801400 0.000000
40.841000 0.000000
40.880600 0.000000
40.920100 0.000000
40.959700 0.000000
40.999300 0.000000
41.038900 0.000000
41.078500 0.000000
41.118100 0.000000
41.157700 0.000000
41.197200 0.000000
41.236800 0.000000
41.276400 0.000000
41.316000 0.000000
41.355600 0.000000
41.395200 0.000000
41.434800 0.000000
41.474300 0.000000
41.513900 0.000000
41.553500 0.000000
41.593100 0.000000
41.632700 0.000000
41.672300 0.000000
41.711900 0.000000
41.751400 0.000000
41.791000 0.000000
41.830600 0.000000
41.870200 0.000000
41.909800 0.000000
41.949400 0.000000
41.989000 0.000000
42.028500 0.000000
42.068100 0.000000
42.107700 0.000000
42.147300 0.000000
42.186900 0.000000
42.226500 0.000000
42.266100 0.000000
42.305600 0.000000
e
