set title 'mp-27484 - Density of States'
set xlabel 'Energy (eV)'
set ylabel 'DOS (states/eV)'
set grid
set xrange [-10:10]
set yrange [0:141.107]
set xzeroaxis lt -1
set terminal png size 800,600
set output 'mp-27484_dos_gnuplot.png'
plot '-' using 1:2 with lines title 'DOS'
-14.835300 0.000000
-14.812100 0.000000
-14.789000 0.000000
-14.765800 0.000000
-14.742600 0.000000
-14.719500 0.000000
-14.696300 0.000000
-14.673100 0.000000
-14.650000 0.000000
-14.626800 0.000000
-14.603600 0.000000
-14.580500 0.000000
-14.557300 0.000000
-14.534100 0.000000
-14.511000 0.000000
-14.487800 0.000000
-14.464600 0.000000
-14.441500 0.000000
-14.418300 0.000000
-14.395100 0.000000
-14.372000 0.000000
-14.348800 0.000000
-14.325600 0.000000
-14.302500 0.000000
-14.279300 0.000000
-14.256100 0.000000
-14.233000 0.000000
-14.209800 0.000000
-14.186700 0.000000
-14.163500 0.000000
-14.140300 0.000000
-14.117200 0.000000
-14.094000 0.000000
-14.070800 0.000000
-14.047700 0.000000
-14.024500 0.000000
-14.001300 0.000000
-13.978200 0.000000
-13.955000 0.000000
-13.931800 0.000000
-13.908700 0.000000
-13.885500 0.000000
-13.862300 0.000000
-13.839200 0.000000
-13.816000 0.000000
-13.792800 0.000000
-13.769700 0.000000
-13.746500 0.000000
-13.723300 0.000000
-13.700200 0.000000
-13.677000 0.000000
-13.653800 0.000000
-13.630700 0.000000
-13.607500 0.000000
-13.584300 0.000000
-13.561200 0.000000
-13.538000 0.000000
-13.514800 0.000000
-13.491700 0.000000
-13.468500 0.000000
-13.445300 0.000000
-13.422200 0.000000
-13.399000 0.000000
-13.375800 0.000000
-13.352700 0.000000
-13.329500 0.000000
-13.306300 0.000000
-13.283200 0.000000
-13.260000 0.000000
-13.236800 0.000000
-13.213700 0.000000
-13.190500 0.000000
-13.167300 0.000000
-13.144200 0.000000
-13.121000 0.000000
-13.097900 0.000000
-13.074700 0.000000
-13.051500 0.000000
-13.028400 0.000000
-13.005200 0.000000
-12.982000 0.000000
-12.958900 0.000000
-12.935700 0.000000
-12.912500 0.000000
-12.889400 0.000000
-12.866200 0.000000
-12.843000 0.000000
-12.819900 0.000000
-12.796700 0.000000
-12.773500 0.000000
-12.750400 0.000000
-12.727200 0.163100
-12.704000 4.101700
-12.680900 8.044900
-12.657700 11.988000
-12.634500 11.054400
-12.611400 12.513500
-12.588200 13.972600
-12.565000 15.431700
-12.541900 30.034100
-12.518700 45.864100
-12.495500 0.000000
-12.472400 0.000000
-12.449200 0.000000
-12.426000 0.000000
-12.402900 0.000000
-12.379700 0.000000
-12.356500 0.000000
-12.333400 0.000000
-12.310200 0.000000
-12.287000 0.000000
-12.263900 0.000000
-12.240700 0.000000
-12.217500 0.000000
-12.194400 0.000000
-12.171200 0.000000
-12.148000 0.000000
-12.124900 0.000000
-12.101700 0.000000
-12.078600 0.000000
-12.055400 0.000000
-12.032200 0.000000
-12.009100 0.000000
-11.985900 0.000000
-11.962700 0.000000
-11.939600 0.000000
-11.916400 0.000000
-11.893200 0.000000
-11.870100 0.000000
-11.846900 0.000000
-11.823700 0.000000
-11.800600 0.000000
-11.777400 0.000000
-11.754200 0.000000
-11.731100 0.000000
-11.707900 0.000000
-11.684700 0.000000
-11.661600 0.000000
-11.638400 0.000000
-11.615200 0.000000
-11.592100 0.000000
-11.568900 0.000000
-11.545700 0.000000
-11.522600 0.000000
-11.499400 0.000000
-11.476200 0.000000
-11.453100 0.000000
-11.429900 0.000000
-11.406700 0.000000
-11.383600 0.000000
-11.360400 0.000000
-11.337200 0.000000
-11.314100 0.000000
-11.290900 0.000000
-11.267700 0.000000
-11.244600 0.000000
-11.221400 0.000000
-11.198200 0.000000
-11.175100 0.000000
-11.151900 0.000000
-11.128700 0.000000
-11.105600 0.000000
-11.082400 0.000000
-11.059200 0.000000
-11.036100 0.000000
-11.012900 0.000000
-10.989800 0.000000
-10.966600 0.000000
-10.943400 0.000000
-10.920300 0.000000
-10.897100 0.000000
-10.873900 0.000000
-10.850800 0.000000
-10.827600 0.000000
-10.804400 0.000000
-10.781300 0.000000
-10.758100 0.000000
-10.734900 0.000000
-10.711800 0.000000
-10.688600 0.000000
-10.665400 0.000000
-10.642300 0.000000
-10.619100 0.000000
-10.595900 0.000000
-10.572800 0.000000
-10.549600 0.000000
-10.526400 0.000000
-10.503300 0.000000
-10.480100 0.000000
-10.456900 0.000000
-10.433800 0.000000
-10.410600 0.000000
-10.387400 0.000000
-10.364300 0.000000
-10.341100 0.000000
-10.317900 0.000000
-10.294800 0.000000
-10.271600 0.000000
-10.248400 0.000000
-10.225300 0.000000
-10.202100 0.000000
-10.178900 0.000000
-10.155800 0.000000
-10.132600 0.000000
-10.109400 0.000000
-10.086300 0.000000
-10.063100 0.000000
-10.039900 0.000000
-10.016800 0.000000
-9.993600 0.000000
-9.970400 0.000000
-9.947300 0.000000
-9.924100 0.000000
-9.901000 0.000000
-9.877800 0.000000
-9.854600 0.000000
-9.831500 0.000000
-9.808300 0.000000
-9.785100 0.000000
-9.762000 0.000000
-9.738800 0.000000
-9.715600 0.000000
-9.692500 0.000000
-9.669300 0.000000
-9.646100 0.000000
-9.623000 0.000000
-9.599800 0.000000
-9.576600 0.000000
-9.553500 0.000000
-9.530300 0.000000
-9.507100 0.000000
-9.484000 0.000000
-9.460800 0.000000
-9.437600 0.000000
-9.414500 0.000000
-9.391300 0.000000
-9.368100 0.000000
-9.345000 0.000000
-9.321800 0.000000
-9.298600 0.000000
-9.275500 0.000000
-9.252300 0.000000
-9.229100 0.000000
-9.206000 0.000000
-9.182800 0.000000
-9.159600 0.000000
-9.136500 0.000000
-9.113300 0.000000
-9.090100 0.000000
-9.067000 0.000000
-9.043800 0.000000
-9.020600 0.000000
-8.997500 0.000000
-8.974300 0.000000
-8.951100 0.000000
-8.928000 0.000000
-8.904800 0.000000
-8.881700 0.000000
-8.858500 0.000000
-8.835300 0.000000
-8.812200 0.000000
-8.789000 0.000000
-8.765800 0.000000
-8.742700 0.000000
-8.719500 0.000000
-8.696300 0.000000
-8.673200 0.000000
-8.650000 0.000000
-8.626800 0.000000
-8.603700 0.000000
-8.580500 0.000000
-8.557300 0.000000
-8.534200 0.000000
-8.511000 0.000000
-8.487800 0.000000
-8.464700 0.000000
-8.441500 0.000000
-8.418300 0.000000
-8.395200 0.000000
-8.372000 0.000000
-8.348800 0.000000
-8.325700 0.000000
-8.302500 0.000000
-8.279300 0.000000
-8.256200 0.000000
-8.233000 0.000000
-8.209800 0.000000
-8.186700 0.000000
-8.163500 0.000000
-8.140300 0.000000
-8.117200 0.000000
-8.094000 0.000000
-8.070800 0.000000
-8.047700 0.000000
-8.024500 0.000000
-8.001300 0.000000
-7.978200 0.000000
-7.955000 0.000000
-7.931800 0.000000
-7.908700 0.000000
-7.885500 0.000000
-7.862300 0.000000
-7.839200 0.000000
-7.816000 0.000000
-7.792900 0.000000
-7.769700 0.000000
-7.746500 0.000000
-7.723400 0.000000
-7.700200 0.000000
-7.677000 0.000000
-7.653900 0.000000
-7.630700 0.000000
-7.607500 0.000000
-7.584400 0.000000
-7.561200 0.000000
-7.538000 0.000000
-7.514900 0.000000
-7.491700 0.000000
-7.468500 0.000000
-7.445400 0.000000
-7.422200 0.000000
-7.399000 0.000000
-7.375900 0.000000
-7.352700 0.000000
-7.329500 0.000000
-7.306400 0.000000
-7.283200 0.000000
-7.260000 0.000000
-7.236900 0.000000
-7.213700 0.000000
-7.190500 0.000000
-7.167400 0.000000
-7.144200 0.000000
-7.121000 0.000000
-7.097900 0.000000
-7.074700 0.000000
-7.051500 0.000000
-7.028400 0.000000
-7.005200 0.000000
-6.982000 0.000000
-6.958900 0.000000
-6.935700 0.000000
-6.912500 0.000000
-6.889400 0.000000
-6.866200 0.000000
-6.843000 0.000000
-6.819900 0.000000
-6.796700 0.000000
-6.773600 0.000000
-6.750400 0.000000
-6.727200 0.000000
-6.704100 0.000000
-6.680900 0.000000
-6.657700 0.000000
-6.634600 8.104200
-6.611400 27.650000
-6.588200 48.833400
-6.565100 117.508800
-6.541900 82.989500
-6.518700 115.970700
-6.495600 45.616200
-6.472400 62.779900
-6.449200 101.120700
-6.426100 102.854100
-6.402900 29.633500
-6.379700 50.429800
-6.356600 40.898400
-6.333400 62.969400
-6.310200 128.278800
-6.287100 75.254900
-6.263900 75.846400
-6.240700 75.288700
-6.217600 110.133000
-6.194400 104.872800
-6.171200 36.059000
-6.148100 26.477300
-6.124900 21.417300
-6.101700 17.789100
-6.078600 14.163700
-6.055400 12.120800
-6.032200 0.000000
-6.009100 0.000000
-5.985900 0.000000
-5.962700 0.000000
-5.939600 0.000000
-5.916400 0.000000
-5.893200 0.000000
-5.870100 0.000000
-5.846900 0.000000
-5.823700 0.000000
-5.800600 0.000000
-5.777400 0.000000
-5.754200 0.000000
-5.731100 0.000000
-5.707900 0.000000
-5.684800 0.000000
-5.661600 0.000000
-5.638400 0.000000
-5.615300 0.000000
-5.592100 0.000000
-5.568900 0.000000
-5.545800 0.000000
-5.522600 0.000000
-5.499400 0.000000
-5.476300 0.000000
-5.453100 0.000000
-5.429900 0.000000
-5.406800 0.000000
-5.383600 0.000000
-5.360400 0.000000
-5.337300 0.000000
-5.314100 0.000000
-5.290900 0.000000
-5.267800 0.000000
-5.244600 0.000000
-5.221400 0.000000
-5.198300 0.000000
-5.175100 0.000000
-5.151900 0.000000
-5.128800 0.000000
-5.105600 0.000000
-5.082400 0.000000
-5.059300 0.000000
-5.036100 0.000000
-5.012900 0.000000
-4.989800 0.000000
-4.966600 0.000000
-4.943400 0.000000
-4.920300 0.000000
-4.897100 0.000000
-4.873900 0.000000
-4.850800 0.000000
-4.827600 0.000000
-4.804400 0.000000
-4.781300 0.000000
-4.758100 0.000000
-4.734900 0.000000
-4.711800 0.000000
-4.688600 0.000000
-4.665400 0.000000
-4.642300 0.000000
-4.619100 0.000000
-4.596000 0.000000
-4.572800 0.000000
-4.549600 0.000000
-4.526500 0.000000
-4.503300 0.000000
-4.480100 0.000000
-4.457000 0.000000
-4.433800 0.000000
-4.410600 0.000000
-4.387500 0.000000
-4.364300 0.000000
-4.341100 0.000000
-4.318000 0.000000
-4.294800 0.000000
-4.271600 0.000000
-4.248500 0.000000
-4.225300 0.000000
-4.202100 0.000000
-4.179000 0.000000
-4.155800 0.000000
-4.132600 0.000000
-4.109500 0.000000
-4.086300 0.000000
-4.063100 0.000000
-4.040000 0.000000
-4.016800 0.000000
-3.993600 0.000000
-3.970500 0.000000
-3.947300 0.000000
-3.924100 0.000000
-3.901000 0.000000
-3.877800 0.000000
-3.854600 0.000000
-3.831500 0.000000
-3.808300 0.000000
-3.785100 0.000000
-3.762000 0.000000
-3.738800 0.000000
-3.715600 0.000000
-3.692500 0.000000
-3.669300 0.000000
-3.646100 0.000000
-3.623000 0.000000
-3.599800 0.000000
-3.576700 0.000000
-3.553500 0.000000
-3.530300 0.000000
-3.507200 0.000000
-3.484000 0.000000
-3.460800 0.000000
-3.437700 0.000000
-3.414500 0.000000
-3.391300 0.000000
-3.368200 0.000000
-3.345000 0.000000
-3.321800 0.000000
-3.298700 0.000000
-3.275500 0.000000
-3.252300 0.000000
-3.229200 0.000000
-3.206000 0.000000
-3.182800 0.000000
-3.159700 0.000000
-3.136500 0.000000
-3.113300 0.000000
-3.090200 0.000000
-3.067000 0.000000
-3.043800 0.000000
-3.020700 0.000000
-2.997500 0.000000
-2.974300 0.000000
-2.951200 0.000000
-2.928000 0.000000
-2.904800 0.000000
-2.881700 0.000000
-2.858500 0.000000
-2.835300 0.000000
-2.812200 0.004600
-2.789000 0.018500
-2.765800 0.036800
-2.742700 0.059000
-2.719500 0.084900
-2.696300 0.118200
-2.673200 0.155300
-2.650000 0.192300
-2.626800 0.229400
-2.603700 0.266500
-2.580500 0.303700
-2.557300 0.343100
-2.534200 0.393500
-2.511000 0.446900
-2.487900 0.503400
-2.464700 0.562900
-2.441500 0.625400
-2.418400 0.691000
-2.395200 0.759600
-2.372000 0.832100
-2.348900 0.911600
-2.325700 0.998400
-2.302500 1.092600
-2.279400 1.194200
-2.256200 1.265100
-2.233000 1.338600
-2.209900 1.418900
-2.186700 1.494900
-2.163500 1.562000
-2.140400 1.665200
-2.117200 1.769300
-2.094000 1.823000
-2.070900 1.887800
-2.047700 1.944500
-2.024500 1.979900
-2.001400 1.985700
-1.978200 1.862900
-1.955000 1.860700
-1.931900 1.923600
-1.908700 1.990300
-1.885500 2.061000
-1.862400 2.135600
-1.839200 2.214100
-1.816000 2.296600
-1.792900 2.383800
-1.769700 2.475700
-1.746500 2.572300
-1.723400 2.673600
-1.700200 2.779500
-1.677000 2.890200
-1.653900 3.005500
-1.630700 3.125500
-1.607500 3.282700
-1.584400 4.209100
-1.561200 5.272300
-1.538000 5.748900
-1.514900 5.865200
-1.491700 5.997500
-1.468500 6.526600
-1.445400 7.278300
-1.422200 7.689000
-1.399100 7.743400
-1.375900 7.837900
-1.352700 8.190900
-1.329600 8.515400
-1.306400 8.503300
-1.283200 10.524700
-1.260100 6.490200
-1.236900 6.169700
-1.213700 5.856500
-1.190600 4.246200
-1.167400 4.100600
-1.144200 3.963400
-1.121100 31.529900
-1.097900 1.665200
-1.074700 1.663000
-1.051600 1.662700
-1.028400 1.664200
-1.005200 1.667100
-0.982100 1.670700
-0.958900 1.675000
-0.935700 1.680100
-0.912600 1.685800
-0.889400 1.692200
-0.866200 1.699400
-0.843100 1.708300
-0.819900 1.718400
-0.796700 1.728500
-0.773600 1.738500
-0.750400 1.748500
-0.727200 1.758500
-0.704100 1.768400
-0.680900 1.781100
-0.657700 1.799100
-0.634600 1.819700
-0.611400 1.842700
-0.588200 1.868200
-0.565100 1.896300
-0.541900 1.930700
-0.518700 1.973900
-0.495600 2.102900
-0.472400 2.261500
-0.449200 2.392900
-0.426100 2.497200
-0.402900 2.575700
-0.379800 2.663300
-0.356600 2.786800
-0.333400 2.880000
-0.310300 2.942800
-0.287100 2.975300
-0.263900 2.977400
-0.240800 2.949300
-0.217600 2.908100
-0.194400 2.867600
-0.171300 2.843900
-0.148100 2.842600
-0.124900 2.863600
-0.101800 2.906900
-0.078600 2.972500
-0.055400 3.047900
-0.032300 3.037200
-0.009100 3.011700
0.014100 3.037500
0.037200 3.131800
0.060400 3.294600
0.083600 3.481800
0.106700 2.532100
0.129900 1.744700
0.153100 0.983900
0.176200 0.000000
0.199400 0.000000
0.222600 0.000000
0.245700 0.000000
0.268900 0.000000
0.292100 0.000000
0.315200 0.000000
0.338400 0.000000
0.361600 0.000000
0.384700 0.000000
0.407900 0.000000
0.431100 0.000000
0.454200 0.000000
0.477400 0.000000
0.500600 0.000000
0.523700 0.000000
0.546900 0.000000
0.570100 0.000000
0.593200 0.000000
0.616400 0.000000
0.639600 0.000000
0.662700 0.000000
0.685900 0.000000
0.709000 0.000000
0.732200 0.000000
0.755400 0.000000
0.778500 0.000000
0.801700 0.000000
0.824900 0.000000
0.848000 0.000000
0.871200 0.000000
0.894400 0.000000
0.917500 0.000000
0.940700 0.000000
0.963900 0.000000
0.987000 0.000000
1.010200 0.000000
1.033400 0.000000
1.056500 0.000000
1.079700 0.000000
1.102900 0.000000
1.126000 0.000000
1.149200 0.000000
1.172400 0.000000
1.195500 0.000000
1.218700 0.000000
1.241900 0.000000
1.265000 0.000000
1.288200 0.000000
1.311400 0.000000
1.334500 0.000000
1.357700 1.767700
1.380900 2.832000
1.404000 1.393900
1.427200 1.390200
1.450400 1.744500
1.473500 5.251600
1.496700 3.170300
1.519900 3.289100
1.543000 3.408200
1.566200 3.527500
1.589400 3.647000
1.612500 3.766800
1.635700 3.886700
1.658900 4.006900
1.682000 4.127300
1.705200 4.247900
1.728400 4.368700
1.751500 4.489700
1.774700 4.611000
1.797800 5.364700
1.821000 6.314700
1.844200 6.576300
1.867300 6.358000
1.890500 5.977800
1.913700 5.668000
1.936800 5.398900
1.960000 5.138400
1.983200 4.785100
2.006300 4.311100
2.029500 4.081000
2.052700 3.896900
2.075800 3.770600
2.099000 3.695000
2.122200 2.841000
2.145300 2.597000
2.168500 2.394800
2.191700 2.236700
2.214800 2.905800
2.238000 19.974100
2.261200 18.844100
2.284300 9.782000
2.307500 9.103500
2.330700 8.518200
2.353800 8.025900
2.377000 7.636200
2.400200 7.365400
2.423300 7.204600
2.446500 7.363300
2.469700 7.797100
2.492800 8.366500
2.516000 10.543300
2.539200 12.368000
2.562300 12.465100
2.585500 11.474100
2.608700 8.522000
2.631800 5.725200
2.655000 3.456300
2.678200 2.333300
2.701300 1.939000
2.724500 1.599200
2.747700 1.403700
2.770800 1.358400
2.794000 1.273600
2.817100 1.240100
2.840300 1.257800
2.863500 1.325200
2.886600 1.441300
2.909800 1.607000
2.933000 1.826000
2.956100 2.357000
2.979300 2.853000
3.002500 3.154400
3.025600 3.406600
3.048800 3.646900
3.072000 3.875300
3.095100 4.091800
3.118300 4.296400
3.141500 4.487600
3.164600 4.382000
3.187800 4.135600
3.211000 3.994800
3.234100 4.006100
3.257300 3.947400
3.280500 3.776400
3.303600 3.896400
3.326800 4.665400
3.350000 4.956500
3.373100 4.526600
3.396300 4.243800
3.419500 4.966400
3.442600 6.391700
3.465800 7.331100
3.489000 7.940200
3.512100 9.354700
3.535300 9.895200
3.558500 8.742100
3.581600 4.804800
3.604800 4.332400
3.628000 3.858400
3.651100 3.378000
3.674300 2.862600
3.697500 2.259900
3.720600 1.398800
3.743800 1.287900
3.767000 1.059200
3.790100 0.812500
3.813300 0.722400
3.836500 0.722700
3.859600 0.391900
3.882800 0.161500
3.905900 0.031600
3.929100 0.000000
3.952300 0.000000
3.975400 0.000000
3.998600 0.000000
4.021800 0.000000
4.044900 0.000000
4.068100 0.000000
4.091300 0.000000
4.114400 0.000000
4.137600 0.000000
4.160800 0.000000
4.183900 0.000000
4.207100 0.000000
4.230300 0.000000
4.253400 0.000000
4.276600 0.000000
4.299800 0.000000
4.322900 0.000000
4.346100 0.000000
4.369300 0.000000
4.392400 0.000000
4.415600 0.000000
4.438800 0.000000
4.461900 0.000000
4.485100 0.000000
4.508300 0.000000
4.531400 0.000200
4.554600 0.000500
4.577800 0.001000
4.600900 0.001700
4.624100 0.002600
4.647300 0.003600
4.670400 0.004700
4.693600 0.006100
4.716800 0.007600
4.739900 0.009300
4.763100 0.011100
4.786300 0.013100
4.809400 0.015300
4.832600 0.017600
4.855800 0.020100
4.878900 0.022800
4.902100 0.025600
4.925300 0.028600
4.948400 0.031800
4.971600 0.035000
4.994700 0.038500
5.017900 0.042100
5.041100 0.045900
5.064200 0.049800
5.087400 0.053800
5.110600 0.058100
5.133700 0.062500
5.156900 0.067000
5.180100 0.071700
5.203200 0.088200
5.226400 0.341500
5.249600 0.624900
5.272700 0.931800
5.295900 1.120100
5.319100 1.160500
5.342200 1.161000
5.365400 1.132300
5.388600 1.074400
5.411700 2.644200
5.434900 2.764800
5.458100 2.210300
5.481200 2.779400
5.504400 1.718100
5.527600 1.189600
5.550700 1.133200
5.573900 1.149700
5.597100 1.166400
5.620200 1.183100
5.643400 1.325200
5.666600 1.574900
5.689700 1.822500
5.712900 2.067900
5.736100 2.311200
5.759200 2.552300
5.782400 2.791300
5.805600 2.989400
5.828700 2.823800
5.851900 2.519200
5.875100 2.479900
5.898200 2.473200
5.921400 2.495400
5.944600 2.543300
5.967700 2.597900
5.990900 2.645600
6.014000 2.686400
6.037200 2.719800
6.060400 2.747800
6.083500 2.771600
6.106700 2.791200
6.129900 2.795300
6.153000 2.753900
6.176200 2.683600
6.199400 2.593900
6.222500 2.488600
6.245700 2.363500
6.268900 2.285100
6.292000 2.268200
6.315200 2.250100
6.338400 2.235600
6.361500 2.228300
6.384700 2.196500
6.407900 2.258400
6.431000 4.103800
6.454200 4.375500
6.477400 4.193000
6.500500 4.303200
6.523700 4.109000
6.546900 3.639000
6.570000 3.767100
6.593200 3.842800
6.616400 3.866100
6.639500 3.837000
6.662700 3.775400
6.685900 3.716600
6.709000 3.647000
6.732200 3.546400
6.755400 3.414400
6.778500 3.251200
6.801700 3.056700
6.824900 2.886500
6.848000 2.946000
6.871200 2.837800
6.894400 2.727600
6.917500 2.615600
6.940700 2.501700
6.963900 15.542200
6.987000 4.098600
7.010200 4.811600
7.033400 5.495500
7.056500 5.884900
7.079700 5.865600
7.102800 5.410300
7.126000 4.955900
7.149200 4.320800
7.172300 3.916500
7.195500 3.595700
7.218700 3.310200
7.241800 3.053500
7.265000 2.825700
7.288200 2.621300
7.311300 2.426300
7.334500 2.239800
7.357700 2.064300
7.380800 1.900200
7.404000 1.784500
7.427200 1.681400
7.450300 1.594500
7.473500 1.529400
7.496700 1.474900
7.519800 1.422700
7.543000 1.372600
7.566200 1.324700
7.589300 1.279000
7.612500 1.235500
7.635700 1.194100
7.658800 1.155000
7.682000 1.115700
7.705200 1.074200
7.728300 1.030400
7.751500 0.984200
7.774700 0.938500
7.797800 0.906200
7.821000 0.899100
7.844200 0.947900
7.867300 1.014000
7.890500 1.097600
7.913700 1.198600
7.936800 1.317000
7.960000 1.452800
7.983200 1.606000
8.006300 1.776700
8.029500 2.091800
8.052700 2.945300
8.075800 5.118400
8.099000 6.307600
8.122200 4.066500
8.145300 3.502000
8.168500 3.394700
8.191600 3.247000
8.214800 3.058900
8.238000 2.876400
8.261100 2.734500
8.284300 2.599000
8.307500 2.470800
8.330600 2.366900
8.353800 6.497600
8.377000 3.225500
8.400100 3.192700
8.423300 3.153700
8.446500 3.108700
8.469600 3.057500
8.492800 2.995000
8.516000 2.911500
8.539100 3.423900
8.562300 3.370200
8.585500 3.325100
8.608600 3.288300
8.631800 3.259600
8.655000 3.238500
8.678100 3.222100
8.701300 3.210000
8.724500 3.202400
8.747600 3.199200
8.770800 3.188600
8.794000 3.173900
8.817100 3.159100
8.840300 3.144200
8.863500 3.128300
8.886600 3.108900
8.909800 3.085900
8.933000 3.059400
8.956100 3.029300
8.979300 2.995700
9.002500 2.962500
9.025600 2.943400
9.048800 2.902600
9.072000 2.818800
9.095100 2.709700
9.118300 2.667800
9.141500 2.591700
9.164600 2.545900
9.187800 3.441400
9.210900 3.986300
9.234100 3.949900
9.257300 3.652000
9.280400 3.260500
9.303600 3.230700
9.326800 3.202500
9.349900 3.174000
9.373100 3.149200
9.396300 3.126500
9.419400 3.102700
9.442600 3.077800
9.465800 3.051800
9.488900 3.024700
9.512100 2.996500
9.535300 2.890800
9.558400 2.874900
9.581600 2.857400
9.604800 2.836500
9.627900 2.813800
9.651100 2.789700
9.674300 2.764000
9.697400 2.737000
9.720600 2.709500
9.743800 2.692000
9.766900 2.680000
9.790100 2.669400
9.813300 2.659600
9.836400 3.849200
9.859600 5.002200
9.882800 5.556500
9.905900 5.879600
9.929100 5.959100
9.952300 5.599200
9.975400 5.050900
9.998600 4.717600
10.021800 4.863400
10.044900 4.986800
10.068100 5.087500
10.091300 5.256000
10.114400 5.392700
10.137600 5.431400
10.160800 5.371600
10.183900 5.223900
10.207100 5.085300
10.230300 4.979000
10.253400 4.918900
10.276600 4.893500
10.299700 4.863900
10.322900 4.843400
10.346100 4.824000
10.369200 4.801400
10.392400 4.764000
10.415600 4.710900
10.438700 4.655000
10.461900 4.620600
10.485100 4.582400
10.508200 4.464300
10.531400 4.399800
10.554600 4.443100
10.577700 4.618500
10.600900 4.964300
10.624100 5.274400
10.647200 5.575800
10.670400 5.773900
10.693600 5.743300
10.716700 5.611400
10.739900 5.484700
10.763100 5.274300
10.786200 5.078100
10.809400 4.875600
10.832600 4.682300
10.855700 4.583000
10.878900 4.498300
10.902100 4.426600
10.925200 4.365500
10.948400 4.197900
10.971600 4.028100
10.994700 3.979300
11.017900 3.964400
11.041100 3.953300
11.064200 3.943900
11.087400 3.933800
11.110600 3.923200
11.133700 3.912200
11.156900 3.901000
11.180100 3.901600
11.203200 3.898000
11.226400 3.878400
11.249600 3.856200
11.272700 3.834300
11.295900 3.812500
11.319100 3.791000
11.342200 3.769700
11.365400 3.748600
11.388500 3.727600
11.411700 3.706900
11.434900 3.686400
11.458000 3.666100
11.481200 3.646000
11.504400 3.626100
11.527500 3.619200
11.550700 3.630200
11.573900 3.582300
11.597000 3.507400
11.620200 3.473200
11.643400 3.467900
11.666500 3.449300
11.689700 3.374500
11.712900 3.295500
11.736000 3.212800
11.759200 3.126700
11.782400 3.045900
11.805500 2.974200
11.828700 2.913100
11.851900 2.867300
11.875000 2.824500
11.898200 2.782500
11.921400 2.727300
11.944500 2.635100
11.967700 2.535400
11.990900 2.439400
12.014000 2.347000
12.037200 2.258900
12.060400 2.125600
12.083500 2.072200
12.106700 2.024900
12.129900 1.978300
12.153000 1.932300
12.176200 1.887100
12.199400 1.842100
12.222500 1.794800
12.245700 1.748000
12.268900 1.701900
12.292000 1.657400
12.315200 1.615200
12.338400 1.575600
12.361500 1.538600
12.384700 1.498500
12.407800 1.455500
12.431000 1.412500
12.454200 1.373700
12.477300 1.334700
12.500500 1.295600
12.523700 1.260300
12.546800 1.228900
12.570000 1.200600
12.593200 1.175200
12.616300 1.151200
12.639500 1.128300
12.662700 1.106400
12.685800 1.085500
12.709000 1.065700
12.732200 1.046700
12.755300 1.028300
12.778500 1.010400
12.801700 0.994600
12.824800 1.002100
12.848000 1.039300
12.871200 1.104000
12.894300 1.261000
12.917500 1.454900
12.940700 1.636800
12.963800 1.806800
12.987000 1.979700
13.010200 2.145700
13.033300 2.294800
13.056500 2.421700
13.079700 2.526200
13.102800 2.608800
13.126000 2.536500
13.149200 2.462300
13.172300 2.441700
13.195500 2.468600
13.218700 2.483000
13.241800 2.483700
13.265000 2.499300
13.288200 2.512200
13.311300 2.520400
13.334500 2.520500
13.357700 2.512600
13.380800 2.496600
13.404000 2.472500
13.427200 2.445100
13.450300 2.420600
13.473500 2.391700
13.496600 2.358500
13.519800 2.339400
13.543000 2.345100
13.566100 2.336100
13.589300 2.314500
13.612500 2.285800
13.635600 2.250300
13.658800 2.208000
13.682000 2.159000
13.705100 2.102700
13.728300 2.039000
13.751500 1.969900
13.774600 1.900500
13.797800 1.852900
13.821000 1.889800
13.844100 1.980100
13.867300 2.069100
13.890500 2.171900
13.913600 2.262000
13.936800 2.340900
13.960000 2.412000
13.983100 2.474800
14.006300 2.529400
14.029500 2.577500
14.052600 2.617200
14.075800 2.632000
14.099000 2.621600
14.122100 2.586300
14.145300 2.525400
14.168500 2.438700
14.191600 2.249600
14.214800 2.077100
14.238000 2.066600
14.261100 2.073000
14.284300 2.080600
14.307500 2.090600
14.330600 2.101600
14.353800 2.113500
14.377000 2.126500
14.400100 2.140400
14.423300 2.155600
14.446500 2.173900
14.469600 2.254400
14.492800 2.370400
14.516000 2.587600
14.539100 3.154800
14.562300 3.639300
14.585400 3.777200
14.608600 3.849200
14.631800 3.867700
14.654900 3.832600
14.678100 3.744000
14.701300 3.887200
14.724400 4.246000
14.747600 4.305700
14.770800 4.203400
14.793900 4.078900
14.817100 3.955500
14.840300 3.833300
14.863400 3.712300
14.886600 3.593700
14.909800 3.518200
14.932900 3.518400
14.956100 3.804800
14.979300 3.719900
15.002400 3.650700
15.025600 3.612300
15.048800 3.594900
15.071900 3.599700
15.095100 3.626200
15.118300 3.673700
15.141400 3.742200
15.164600 3.831000
15.187800 3.935000
15.210900 4.226200
15.234100 4.776600
15.257300 4.927500
15.280400 4.910200
15.303600 4.725100
15.326800 4.372300
15.349900 4.194000
15.373100 4.051500
15.396300 3.904100
15.419400 3.755100
15.442600 3.597300
15.465800 3.625600
15.488900 3.773000
15.512100 3.893900
15.535300 3.991100
15.558400 4.143000
15.581600 4.310500
15.604700 4.498600
15.627900 4.159100
15.651100 3.973700
15.674200 3.936400
15.697400 3.918500
15.720600 4.168600
15.743700 4.023900
15.766900 3.059500
15.790100 2.829800
15.813200 2.626200
15.836400 2.449000
15.859600 2.298300
15.882700 2.173900
15.905900 2.075900
15.929100 2.269600
15.952200 2.292000
15.975400 2.244700
15.998600 2.209200
16.021700 2.180000
16.044900 2.157200
16.068100 2.140900
16.091200 2.132400
16.114400 2.130200
16.137600 2.134100
16.160700 2.139300
16.183900 2.144100
16.207100 2.148600
16.230200 2.152800
16.253400 2.156800
16.276600 2.160700
16.299700 2.248800
16.322900 2.572500
16.346100 2.792200
16.369200 2.911800
16.392400 2.992300
16.415600 3.045700
16.438700 3.071900
16.461900 3.072400
16.485100 3.052000
16.508200 3.020200
16.531400 2.987400
16.554600 2.953300
16.577700 2.915100
16.600900 2.871900
16.624100 2.807500
16.647200 2.700500
16.670400 2.579800
16.693500 2.504400
16.716700 2.469300
16.739900 2.431200
16.763000 2.379500
16.786200 2.313300
16.809400 2.260000
16.832500 2.473100
16.855700 3.929100
16.878900 3.859200
16.902000 3.523800
16.925200 3.057900
16.948400 2.950700
16.971500 3.069700
16.994700 3.183700
17.017900 3.291500
17.041000 3.391700
17.064200 3.482200
17.087400 3.606800
17.110500 3.675500
17.133700 3.797900
17.156900 3.722800
17.180000 3.589600
17.203200 3.400500
17.226400 3.155500
17.249500 2.888500
17.272700 2.649500
17.295900 2.362900
17.319000 2.288800
17.342200 2.262500
17.365400 2.258900
17.388500 2.312200
17.411700 2.384400
17.434900 2.448600
17.458000 2.516800
17.481200 2.589400
17.504400 2.675500
17.527500 2.776600
17.550700 2.890700
17.573900 3.319000
17.597000 3.545800
17.620200 3.786600
17.643400 4.046500
17.666500 4.325600
17.689700 4.586100
17.712900 4.535500
17.736000 4.472200
17.759200 4.490000
17.782300 4.510200
17.805500 4.533000
17.828700 4.516900
17.851800 4.748400
17.875000 4.730600
17.898200 3.764300
17.921300 3.406100
17.944500 3.414900
17.967700 3.438700
17.990800 3.462200
18.014000 3.484500
18.037200 3.505700
18.060300 3.525600
18.083500 3.544300
18.106700 3.561800
18.129800 3.578600
18.153000 3.623000
18.176200 3.769300
18.199300 4.032300
18.222500 4.408700
18.245700 5.517800
18.268800 5.667000
18.292000 5.102400
18.315200 4.236500
18.338300 3.857200
18.361500 3.923900
18.384700 3.990200
18.407800 4.064800
18.431000 4.273100
18.454200 4.535100
18.477300 4.852800
18.500500 5.152000
18.523700 5.367100
18.546800 5.877300
18.570000 8.867300
18.593200 10.738900
18.616300 9.678100
18.639500 6.980900
18.662700 3.942300
18.685800 3.258700
18.709000 4.197000
18.732200 5.020900
18.755300 6.453500
18.778500 8.778700
18.801600 10.885600
18.824800 9.145800
18.848000 8.079900
18.871100 7.137100
18.894300 6.305100
18.917500 6.230800
18.940600 6.406500
18.963800 6.560800
18.987000 6.718000
19.010100 6.867600
19.033300 7.074300
19.056500 11.283500
19.079600 12.194600
19.102800 9.250200
19.126000 7.462200
19.149100 6.389800
19.172300 5.449600
19.195500 4.615900
19.218600 3.888500
19.241800 3.267600
19.265000 2.921000
19.288100 2.732000
19.311300 2.563200
19.334500 2.417500
19.357600 2.306400
19.380800 2.228000
19.404000 2.118100
19.427100 1.975900
19.450300 1.947200
19.473500 2.026700
19.496600 2.156000
19.519800 2.587100
19.543000 3.768700
19.566100 4.195100
19.589300 3.867600
19.612500 3.413500
19.635600 3.299400
19.658800 3.340800
19.682000 3.391300
19.705100 3.449100
19.728300 3.530800
19.751500 3.743300
19.774600 4.006400
19.797800 4.315300
19.821000 4.644700
19.844100 4.994300
19.867300 5.373700
19.890400 5.865900
19.913600 6.301900
19.936800 6.547100
19.959900 6.591900
19.983100 9.192100
20.006300 5.851100
20.029400 5.803500
20.052600 6.045800
20.075800 6.331300
20.098900 6.505100
20.122100 6.448500
20.145300 6.018600
20.168400 5.819000
20.191600 5.721100
20.214800 5.787400
20.237900 5.818600
20.261100 4.983500
20.284300 5.063100
20.307400 5.135100
20.330600 5.205600
20.353800 5.276300
20.376900 5.277000
20.400100 5.207800
20.423300 5.327000
20.446400 5.284700
20.469600 4.943500
20.492800 5.006800
20.515900 5.346100
20.539100 5.619900
20.562300 5.826000
20.585400 5.955800
20.608600 6.010400
20.631800 5.998800
20.654900 5.688700
20.678100 5.111900
20.701300 4.326400
20.724400 3.961400
20.747600 3.856300
20.770800 3.870800
20.793900 3.886300
20.817100 3.903600
20.840300 3.924100
20.863400 3.951600
20.886600 3.985500
20.909800 4.023200
20.932900 4.066400
20.956100 4.112100
20.979200 4.160400
21.002400 4.231500
21.025600 4.313900
21.048700 4.400100
21.071900 4.490000
21.095100 4.583600
21.118200 4.681000
21.141400 4.777200
21.164600 4.703200
21.187700 4.444600
21.210900 4.228600
21.234100 4.291600
21.257200 4.352700
21.280400 4.403700
21.303600 4.458300
21.326700 4.518300
21.349900 4.586000
21.373100 4.659300
21.396200 4.732300
21.419400 4.798700
21.442600 4.891800
21.465700 4.985300
21.488900 5.101800
21.512100 5.023000
21.535200 5.170800
21.558400 5.364000
21.581600 5.135500
21.604700 4.931500
21.627900 4.775600
21.651100 4.674400
21.674200 4.627700
21.697400 4.635800
21.720600 4.654800
21.743700 4.579800
21.766900 4.103800
21.790100 4.117600
21.813200 4.150000
21.836400 4.204500
21.859600 4.272800
21.882700 4.354900
21.905900 4.460400
21.929100 4.608500
21.952200 4.799900
21.975400 5.034600
21.998500 5.312600
22.021700 5.644600
22.044900 5.858600
22.068000 6.003300
22.091200 5.955200
22.114400 5.939100
22.137500 6.335200
22.160700 6.887100
22.183900 7.241300
22.207000 7.584800
22.230200 8.131100
22.253400 11.455100
22.276500 8.397100
22.299700 7.952000
22.322900 7.660000
22.346000 6.850800
22.369200 4.022500
22.392400 4.200700
22.415500 4.335700
22.438700 4.447400
22.461900 4.537100
22.485000 4.604700
22.508200 4.650300
22.531400 4.673800
22.554500 4.697800
22.577700 4.748300
22.600900 4.829100
22.624000 4.690200
22.647200 4.485400
22.670400 4.286600
22.693500 4.123800
22.716700 4.294200
22.739900 6.076300
22.763000 3.129600
22.786200 3.417800
22.809400 3.756500
22.832500 4.151300
22.855700 4.547800
22.878900 4.931500
22.902000 5.269200
22.925200 5.563700
22.948400 5.830900
22.971500 6.071800
22.994700 6.286800
23.017900 6.476200
23.041000 6.642700
23.064200 4.966300
23.087300 4.930200
23.110500 4.898500
23.133700 4.930700
23.156800 5.029600
23.180000 5.235300
23.203200 5.490100
23.226300 5.738100
23.249500 5.884300
23.272700 6.495500
23.295800 7.251200
23.319000 7.373400
23.342200 7.327300
23.365300 7.315900
23.388500 7.467600
23.411700 7.662100
23.434800 8.054600
23.458000 9.965500
23.481200 8.937400
23.504300 8.204100
23.527500 8.128800
23.550700 8.089100
23.573800 8.003000
23.597000 7.912300
23.620200 7.739900
23.643300 7.025300
23.666500 6.060900
23.689700 5.424900
23.712800 5.373800
23.736000 6.293900
23.759200 7.139200
23.782300 7.733100
23.805500 8.158800
23.828700 8.313600
23.851800 8.190800
23.875000 8.207800
23.898200 5.445000
23.921300 5.199100
23.944500 5.066100
23.967700 5.024200
23.990800 5.036300
24.014000 5.289300
24.037200 6.072500
24.060300 6.203500
24.083500 6.418600
24.106700 6.562900
24.129800 6.602300
24.153000 6.598800
24.176100 6.608600
24.199300 6.384000
24.222500 6.415300
24.245600 6.961800
24.268800 7.311000
24.292000 6.660000
24.315100 6.248100
24.338300 6.390500
24.361500 6.451400
24.384600 6.429900
24.407800 6.326100
24.431000 6.140000
24.454100 5.936600
24.477300 5.779500
24.500500 5.668000
24.523600 5.587600
24.546800 5.567100
24.570000 5.539600
24.593100 5.304600
24.616300 4.954000
24.639500 4.668400
24.662600 4.434700
24.685800 4.276400
24.709000 4.179000
24.732100 4.102500
24.755300 4.070000
24.778500 4.119500
24.801600 4.181900
24.824800 4.195100
24.848000 4.210800
24.871100 4.224500
24.894300 4.254300
24.917500 4.372500
24.940600 4.493300
24.963800 4.591100
24.987000 4.586900
25.010100 4.631700
25.033300 4.693600
25.056500 4.876400
25.079600 5.303800
25.102800 5.614200
25.126000 5.809900
25.149100 5.891800
25.172300 5.905200
25.195400 5.939200
25.218600 6.182600
25.241800 6.062600
25.264900 5.938400
25.288100 5.959000
25.311300 6.111000
25.334400 6.419800
25.357600 15.325500
25.380800 7.285200
25.403900 6.480600
25.427100 5.746100
25.450300 5.093200
25.473400 4.555100
25.496600 4.139600
25.519800 3.847900
25.542900 3.679100
25.566100 3.424300
25.589300 3.328500
25.612400 3.379900
25.635600 3.575100
25.658800 3.795400
25.681900 3.921800
25.705100 4.213900
25.728300 4.717900
25.751400 5.337100
25.774600 5.958200
25.797800 6.592500
25.820900 7.014200
25.844100 7.337500
25.867300 7.742800
25.890400 9.522100
25.913600 4.102200
25.936800 3.983700
25.959900 3.988100
25.983100 4.110700
26.006300 4.403600
26.029400 4.820200
26.052600 5.503500
26.075800 6.193700
26.098900 6.504500
26.122100 6.399600
26.145300 6.357900
26.168400 6.322900
26.191600 6.394700
26.214800 6.617900
26.237900 6.927300
26.261100 7.376400
26.284200 7.703100
26.307400 7.780000
26.330600 7.670100
26.353700 7.613800
26.376900 7.107400
26.400100 6.689000
26.423200 5.515900
26.446400 5.497100
26.469600 5.577400
26.492700 5.565000
26.515900 5.519300
26.539100 5.507400
26.562200 5.566500
26.585400 5.658700
26.608600 5.760500
26.631700 5.842900
26.654900 5.895900
26.678100 5.944100
26.701200 5.736400
26.724400 5.269700
26.747600 5.189000
26.770700 5.173400
26.793900 5.209200
26.817100 5.291300
26.840200 5.371200
26.863400 5.446100
26.886600 5.564800
26.909700 5.650900
26.932900 5.650200
26.956100 5.562500
26.979200 5.372200
27.002400 5.178700
27.025600 5.003200
27.048700 4.845000
27.071900 4.703900
27.095100 4.580100
27.118200 4.482300
27.141400 4.419700
27.164600 4.447200
27.187700 4.535400
27.210900 4.616800
27.234100 4.691500
27.257200 4.759400
27.280400 4.830200
27.303600 4.945900
27.326700 5.085500
27.349900 5.138900
27.373000 5.182800
27.396200 5.235600
27.419400 5.299200
27.442500 5.378200
27.465700 5.472600
27.488900 4.600900
27.512000 4.797800
27.535200 4.908200
27.558400 4.932200
27.581500 4.869700
27.604700 4.932700
27.627900 4.585100
27.651000 4.552200
27.674200 4.508700
27.697400 4.464500
27.720500 4.420600
27.743700 4.377600
27.766900 4.335400
27.790000 4.295700
27.813200 4.256800
27.836400 4.217100
27.859500 4.200100
27.882700 4.244100
27.905900 4.260600
27.929000 4.243400
27.952200 4.198700
27.975400 4.147500
27.998500 4.110800
28.021700 4.094200
28.044900 4.108700
28.068000 4.300500
28.091200 4.264200
28.114400 4.052200
28.137500 3.826900
28.160700 3.689400
28.183900 3.821900
28.207000 3.887100
28.230200 3.901500
28.253400 3.869900
28.276500 3.801600
28.299700 3.703600
28.322900 3.587400
28.346000 3.456700
28.369200 3.311700
28.392300 3.152300
28.415500 2.978400
28.438700 2.790200
28.461800 2.682600
28.485000 2.633400
28.508200 2.582800
28.531300 2.537800
28.554500 2.622300
28.577700 3.081000
28.600800 3.007800
28.624000 2.747800
28.647200 2.619600
28.670300 2.541900
28.693500 2.492200
28.716700 2.451600
28.739800 2.418600
28.763000 2.393400
28.786200 2.375700
28.809300 2.424000
28.832500 2.452200
28.855700 2.374800
28.878800 2.270500
28.902000 2.180100
28.925200 2.199700
28.948300 2.189600
28.971500 2.155000
28.994700 2.095900
29.017800 2.012400
29.041000 1.904400
29.064200 1.771900
29.087300 1.528500
29.110500 1.110100
29.133700 0.877100
29.156800 0.794800
29.180000 0.724600
29.203200 0.654300
29.226300 0.583900
29.249500 1.100700
29.272700 1.588500
29.295800 0.954100
29.319000 0.520700
29.342200 0.217900
29.365300 0.045900
29.388500 0.000200
29.411700 0.000000
29.434800 0.000000
29.458000 0.000000
29.481100 0.000000
29.504300 0.000000
29.527500 0.000000
29.550600 0.000000
29.573800 0.000000
29.597000 0.000000
29.620100 0.000000
29.643300 0.000000
29.666500 0.000000
29.689600 0.000000
29.712800 0.000000
29.736000 0.000000
29.759100 0.000000
29.782300 0.000000
29.805500 0.000000
29.828600 0.000000
29.851800 0.000000
29.875000 0.000000
29.898100 0.000000
29.921300 0.000000
29.944500 0.000000
29.967600 0.000000
29.990800 0.000000
30.014000 0.000000
30.037100 0.000000
30.060300 0.000000
30.083500 0.000000
30.106600 0.000000
30.129800 0.000000
30.153000 0.000000
30.176100 0.000000
30.199300 0.000000
30.222500 0.000000
30.245600 0.000000
30.268800 0.000000
30.292000 0.000000
30.315100 0.000000
30.338300 0.000000
30.361500 0.000000
30.384600 0.000000
30.407800 0.000000
30.431000 0.000000
30.454100 0.000000
30.477300 0.000000
30.500500 0.000000
30.523600 0.000000
30.546800 0.000000
30.569900 0.000000
30.593100 0.000000
30.616300 0.000000
30.639400 0.000000
30.662600 0.000000
30.685800 0.000000
30.708900 0.000000
30.732100 0.000000
30.755300 0.000000
30.778400 0.000000
30.801600 0.000000
30.824800 0.000000
30.847900 0.000000
30.871100 0.000000
30.894300 0.000000
30.917400 0.000000
30.940600 0.000000
30.963800 0.000000
30.986900 0.000000
31.010100 0.000000
31.033300 0.000000
31.056400 0.000000
31.079600 0.000000
31.102800 0.000000
31.125900 0.000000
31.149100 0.000000
31.172300 0.000000
31.195400 0.000000
31.218600 0.000000
31.241800 0.000000
31.264900 0.000000
31.288100 0.000000
31.311300 0.000000
31.334400 0.000000
31.357600 0.000000
31.380800 0.000000
31.403900 0.000000
31.427100 0.000000
31.450300 0.000000
31.473400 0.000000
31.496600 0.000000
e
