set title 'mp-27410 - Density of States'
set xlabel 'Energy (eV)'
set ylabel 'DOS (states/eV)'
set grid
set xrange [-10:10]
set yrange [0:6.349]
set xzeroaxis lt -1
set terminal png size 800,600
set output 'mp-27410_dos_gnuplot.png'
plot '-' using 1:2 with lines title 'DOS'
-15.943200 0.000000
-15.925300 0.000000
-15.907300 0.000000
-15.889400 0.000000
-15.871500 0.000000
-15.853500 0.000000
-15.835600 0.000000
-15.817600 0.000000
-15.799700 0.000000
-15.781800 0.000000
-15.763800 0.000000
-15.745900 0.000000
-15.728000 0.000000
-15.710000 0.000000
-15.692100 0.000000
-15.674200 0.000000
-15.656200 0.000000
-15.638300 0.000000
-15.620400 0.000000
-15.602400 0.000000
-15.584500 0.000000
-15.566600 0.000000
-15.548600 0.000000
-15.530700 0.000000
-15.512800 0.000000
-15.494800 0.000000
-15.476900 0.000000
-15.459000 0.000000
-15.441000 0.000000
-15.423100 0.000000
-15.405200 0.000000
-15.387200 0.000000
-15.369300 0.000000
-15.351300 0.000000
-15.333400 0.000000
-15.315500 0.000000
-15.297500 0.000000
-15.279600 0.000000
-15.261700 0.000000
-15.243700 0.000000
-15.225800 0.000000
-15.207900 0.000000
-15.189900 0.000000
-15.172000 0.000000
-15.154100 0.000000
-15.136100 0.000000
-15.118200 0.000000
-15.100300 0.000000
-15.082300 0.000000
-15.064400 0.000000
-15.046500 0.000000
-15.028500 0.000000
-15.010600 0.000000
-14.992700 0.000000
-14.974700 0.000000
-14.956800 0.000000
-14.938900 0.000000
-14.920900 0.000000
-14.903000 0.000000
-14.885000 0.000000
-14.867100 0.000000
-14.849200 0.000000
-14.831200 0.000000
-14.813300 0.000000
-14.795400 0.000000
-14.777400 0.000000
-14.759500 0.000000
-14.741600 0.000000
-14.723600 0.000000
-14.705700 0.000000
-14.687800 0.000000
-14.669800 0.000000
-14.651900 0.000000
-14.634000 0.000000
-14.616000 0.000000
-14.598100 0.000000
-14.580200 0.000000
-14.562200 0.000000
-14.544300 0.000000
-14.526400 0.000000
-14.508400 0.000000
-14.490500 0.000000
-14.472600 0.000000
-14.454600 0.000000
-14.436700 0.000000
-14.418700 0.000000
-14.400800 0.000000
-14.382900 0.000000
-14.364900 0.000000
-14.347000 0.000000
-14.329100 0.000000
-14.311100 61.030200
-14.293200 145.789600
-14.275300 79.111600
-14.257300 665.753800
-14.239400 427.603900
-14.221500 469.138800
-14.203500 72.897100
-14.185600 459.073100
-14.167700 0.000000
-14.149700 0.000000
-14.131800 0.000000
-14.113900 0.000000
-14.095900 0.000000
-14.078000 0.000000
-14.060100 0.000000
-14.042100 0.000000
-14.024200 0.000000
-14.006300 0.000000
-13.988300 0.000000
-13.970400 0.000000
-13.952400 0.000000
-13.934500 0.000000
-13.916600 0.000000
-13.898600 0.000000
-13.880700 0.000000
-13.862800 0.000000
-13.844800 0.000000
-13.826900 0.000000
-13.809000 0.000000
-13.791000 0.000000
-13.773100 0.000000
-13.755200 0.000000
-13.737200 0.000000
-13.719300 0.000000
-13.701400 0.000000
-13.683400 0.000000
-13.665500 0.000000
-13.647600 0.000000
-13.629600 0.000000
-13.611700 0.000000
-13.593800 0.000000
-13.575800 0.000000
-13.557900 0.000000
-13.540000 0.000000
-13.522000 0.000000
-13.504100 0.000000
-13.486100 0.000000
-13.468200 0.000000
-13.450300 0.000000
-13.432300 0.000000
-13.414400 0.000000
-13.396500 0.000000
-13.378500 0.000000
-13.360600 0.000000
-13.342700 0.000000
-13.324700 0.000000
-13.306800 0.000000
-13.288900 0.000000
-13.270900 0.000000
-13.253000 0.000000
-13.235100 0.000000
-13.217100 0.000000
-13.199200 0.000000
-13.181300 0.000000
-13.163300 0.000000
-13.145400 0.000000
-13.127500 0.000000
-13.109500 0.000000
-13.091600 0.000000
-13.073700 0.000000
-13.055700 0.000000
-13.037800 0.000000
-13.019800 0.000000
-13.001900 0.000000
-12.984000 0.000000
-12.966000 0.000000
-12.948100 0.000000
-12.930200 0.000000
-12.912200 0.000000
-12.894300 0.000000
-12.876400 0.000000
-12.858400 0.000000
-12.840500 0.000000
-12.822600 0.000000
-12.804600 0.000000
-12.786700 0.000000
-12.768800 0.000000
-12.750800 0.000000
-12.732900 0.000000
-12.715000 0.000000
-12.697000 0.000000
-12.679100 0.000000
-12.661200 0.000000
-12.643200 0.000000
-12.625300 0.000000
-12.607400 0.000000
-12.589400 0.000000
-12.571500 0.000000
-12.553500 0.000000
-12.535600 0.000000
-12.517700 0.000000
-12.499700 0.000000
-12.481800 0.000000
-12.463900 0.000000
-12.445900 0.000000
-12.428000 0.000000
-12.410100 0.000000
-12.392100 0.000000
-12.374200 0.000000
-12.356300 0.000000
-12.338300 0.000000
-12.320400 0.000000
-12.302500 0.000000
-12.284500 0.000000
-12.266600 0.000000
-12.248700 0.000000
-12.230700 0.000000
-12.212800 0.000000
-12.194900 0.000000
-12.176900 0.000000
-12.159000 0.000000
-12.141100 0.000000
-12.123100 0.000000
-12.105200 0.000000
-12.087200 0.000000
-12.069300 0.000000
-12.051400 0.000000
-12.033400 0.000000
-12.015500 0.000000
-11.997600 0.000000
-11.979600 0.000000
-11.961700 0.000000
-11.943800 0.000000
-11.925800 0.000000
-11.907900 0.000000
-11.890000 0.000000
-11.872000 0.000000
-11.854100 0.000000
-11.836200 0.000000
-11.818200 0.000000
-11.800300 0.000000
-11.782400 0.000000
-11.764400 0.000000
-11.746500 0.000000
-11.728600 0.000000
-11.710600 0.000000
-11.692700 0.000000
-11.674800 0.000000
-11.656800 0.000000
-11.638900 0.000000
-11.620900 0.000000
-11.603000 0.000000
-11.585100 0.000000
-11.567100 0.000000
-11.549200 0.000000
-11.531300 0.000000
-11.513300 0.000000
-11.495400 0.000000
-11.477500 0.000000
-11.459500 0.000000
-11.441600 0.000000
-11.423700 0.000000
-11.405700 0.000000
-11.387800 0.000000
-11.369900 0.000000
-11.351900 0.000000
-11.334000 0.000000
-11.316100 0.000000
-11.298100 0.000000
-11.280200 0.000000
-11.262300 0.000000
-11.244300 0.000000
-11.226400 0.000000
-11.208500 0.000000
-11.190500 0.000000
-11.172600 0.000000
-11.154600 0.000000
-11.136700 0.000000
-11.118800 0.000000
-11.100800 0.000000
-11.082900 0.000000
-11.065000 0.000000
-11.047000 0.000000
-11.029100 0.000000
-11.011200 0.000000
-10.993200 0.000000
-10.975300 0.000000
-10.957400 0.000000
-10.939400 0.000000
-10.921500 0.000000
-10.903600 0.000000
-10.885600 0.000000
-10.867700 0.000000
-10.849800 0.000000
-10.831800 0.000000
-10.813900 0.000000
-10.796000 0.000000
-10.778000 0.000000
-10.760100 0.000000
-10.742200 0.000000
-10.724200 0.000000
-10.706300 0.000000
-10.688300 0.000000
-10.670400 0.000000
-10.652500 0.000000
-10.634500 0.000000
-10.616600 0.000000
-10.598700 0.000000
-10.580700 0.000000
-10.562800 0.000000
-10.544900 0.000000
-10.526900 0.000000
-10.509000 0.000000
-10.491100 0.000000
-10.473100 0.000000
-10.455200 0.000000
-10.437300 0.000000
-10.419300 0.000000
-10.401400 0.000000
-10.383500 0.000000
-10.365500 0.000000
-10.347600 0.000000
-10.329700 0.000000
-10.311700 0.000000
-10.293800 0.000000
-10.275900 0.000000
-10.257900 0.000000
-10.240000 0.000000
-10.222000 0.000000
-10.204100 0.000000
-10.186200 0.000000
-10.168200 0.000000
-10.150300 0.000000
-10.132400 0.000000
-10.114400 0.000000
-10.096500 0.000000
-10.078600 0.000000
-10.060600 0.000000
-10.042700 0.000000
-10.024800 0.000000
-10.006800 0.000000
-9.988900 0.000000
-9.971000 0.000000
-9.953000 0.000000
-9.935100 0.000000
-9.917200 0.000000
-9.899200 0.000000
-9.881300 0.000000
-9.863400 0.000000
-9.845400 0.000000
-9.827500 0.000000
-9.809600 0.000000
-9.791600 0.000000
-9.773700 0.000000
-9.755700 0.000000
-9.737800 0.000000
-9.719900 0.000000
-9.701900 0.000000
-9.684000 0.000000
-9.666100 0.000000
-9.648100 0.000000
-9.630200 0.000000
-9.612300 0.000000
-9.594300 0.000000
-9.576400 0.000000
-9.558500 0.000000
-9.540500 0.000000
-9.522600 0.000000
-9.504700 0.000000
-9.486700 0.000000
-9.468800 0.000000
-9.450900 0.000000
-9.432900 0.000000
-9.415000 0.000000
-9.397100 0.000000
-9.379100 0.000000
-9.361200 0.000000
-9.343300 0.000000
-9.325300 0.000000
-9.307400 0.000000
-9.289400 0.000000
-9.271500 0.000000
-9.253600 0.000000
-9.235600 0.000000
-9.217700 0.000000
-9.199800 0.000000
-9.181800 0.000000
-9.163900 0.000000
-9.146000 0.000000
-9.128000 0.000000
-9.110100 0.000000
-9.092200 0.000000
-9.074200 0.000000
-9.056300 0.000000
-9.038400 0.000000
-9.020400 0.000000
-9.002500 0.000000
-8.984600 0.000000
-8.966600 0.000000
-8.948700 0.000000
-8.930800 0.000000
-8.912800 0.000000
-8.894900 0.000000
-8.877000 0.000000
-8.859000 0.000000
-8.841100 0.000000
-8.823100 0.000000
-8.805200 0.000000
-8.787300 0.000000
-8.769300 0.000000
-8.751400 0.000000
-8.733500 0.000000
-8.715500 0.000000
-8.697600 0.000000
-8.679700 0.000000
-8.661700 0.000000
-8.643800 0.000000
-8.625900 0.000000
-8.607900 0.000000
-8.590000 0.000000
-8.572100 0.000000
-8.554100 0.000000
-8.536200 0.000000
-8.518300 0.000000
-8.500300 0.000000
-8.482400 0.000000
-8.464500 0.000000
-8.446500 0.000000
-8.428600 0.000000
-8.410700 0.000000
-8.392700 0.000000
-8.374800 0.000000
-8.356800 0.000000
-8.338900 0.000000
-8.321000 0.000000
-8.303000 0.000000
-8.285100 0.000000
-8.267200 0.000000
-8.249200 0.000000
-8.231300 0.000000
-8.213400 0.000000
-8.195400 0.000000
-8.177500 0.000000
-8.159600 0.000000
-8.141600 0.000000
-8.123700 0.000000
-8.105800 0.000000
-8.087800 0.000000
-8.069900 0.000000
-8.052000 0.000000
-8.034000 0.000000
-8.016100 0.000000
-7.998200 0.000000
-7.980200 0.000000
-7.962300 0.000000
-7.944400 0.000000
-7.926400 0.000000
-7.908500 0.000000
-7.890500 0.000000
-7.872600 0.000000
-7.854700 0.000000
-7.836700 0.000000
-7.818800 0.000000
-7.800900 0.000000
-7.782900 0.000000
-7.765000 0.000000
-7.747100 0.000000
-7.729100 0.000000
-7.711200 0.000000
-7.693300 0.000000
-7.675300 0.000000
-7.657400 0.000000
-7.639500 0.000000
-7.621500 0.000000
-7.603600 0.000000
-7.585700 0.000000
-7.567700 0.000000
-7.549800 0.000000
-7.531900 0.000000
-7.513900 0.000000
-7.496000 0.000000
-7.478100 0.000000
-7.460100 0.000000
-7.442200 0.000000
-7.424200 0.000000
-7.406300 0.000000
-7.388400 0.000000
-7.370400 0.000000
-7.352500 0.000000
-7.334600 0.000000
-7.316600 0.000000
-7.298700 0.000000
-7.280800 0.000000
-7.262800 0.000000
-7.244900 0.000000
-7.227000 0.000000
-7.209000 0.000000
-7.191100 0.000000
-7.173200 0.000000
-7.155200 0.000000
-7.137300 0.000000
-7.119400 0.000000
-7.101400 0.000000
-7.083500 0.000000
-7.065600 0.000000
-7.047600 0.000000
-7.029700 0.000000
-7.011800 0.000000
-6.993800 0.000000
-6.975900 0.000000
-6.957900 0.000000
-6.940000 0.000000
-6.922100 0.000000
-6.904100 0.000000
-6.886200 0.000000
-6.868300 0.000000
-6.850300 0.000000
-6.832400 0.000000
-6.814500 0.000000
-6.796500 0.000000
-6.778600 0.000000
-6.760700 0.000000
-6.742700 0.000000
-6.724800 0.000000
-6.706900 0.000000
-6.688900 0.000000
-6.671000 0.000000
-6.653100 0.000000
-6.635100 0.000000
-6.617200 0.000000
-6.599300 0.000000
-6.581300 0.000000
-6.563400 0.000000
-6.545500 0.000000
-6.527500 0.000000
-6.509600 0.000000
-6.491600 0.000000
-6.473700 0.000000
-6.455800 0.000000
-6.437800 0.000000
-6.419900 0.000000
-6.402000 0.000000
-6.384000 0.000000
-6.366100 0.000000
-6.348200 0.000000
-6.330200 0.000000
-6.312300 0.000000
-6.294400 0.000000
-6.276400 0.000000
-6.258500 0.000000
-6.240600 0.000000
-6.222600 0.000000
-6.204700 0.000000
-6.186800 0.000000
-6.168800 0.000000
-6.150900 0.000000
-6.133000 0.000000
-6.115000 0.000000
-6.097100 0.000000
-6.079200 0.000000
-6.061200 0.000000
-6.043300 0.000000
-6.025300 0.000000
-6.007400 0.000000
-5.989500 0.000000
-5.971500 0.000000
-5.953600 0.000000
-5.935700 0.000000
-5.917700 0.000000
-5.899800 0.000000
-5.881900 0.000000
-5.863900 0.000000
-5.846000 0.000000
-5.828100 0.000000
-5.810100 0.000000
-5.792200 0.000000
-5.774300 0.000000
-5.756300 0.000000
-5.738400 0.000000
-5.720500 0.000000
-5.702500 0.000000
-5.684600 0.000000
-5.666700 0.000000
-5.648700 0.000000
-5.630800 0.000000
-5.612900 0.000000
-5.594900 0.000000
-5.577000 0.000000
-5.559000 0.000000
-5.541100 0.000000
-5.523200 0.000000
-5.505200 0.000000
-5.487300 0.000000
-5.469400 0.000000
-5.451400 0.000000
-5.433500 0.000000
-5.415600 0.000000
-5.397600 0.000000
-5.379700 0.000000
-5.361800 0.000000
-5.343800 0.000000
-5.325900 0.051700
-5.308000 0.232300
-5.290000 0.372600
-5.272100 0.420900
-5.254200 0.542200
-5.236200 0.668900
-5.218300 0.676000
-5.200400 0.663300
-5.182400 0.673800
-5.164500 0.672500
-5.146600 0.672700
-5.128600 0.666500
-5.110700 0.655300
-5.092700 0.653300
-5.074800 0.665300
-5.056900 0.679400
-5.038900 0.692000
-5.021000 0.686300
-5.003100 0.685600
-4.985100 0.682200
-4.967200 0.674000
-4.949300 0.665300
-4.931300 0.742700
-4.913400 0.845900
-4.895500 0.872400
-4.877500 0.907600
-4.859600 0.951500
-4.841700 0.997800
-4.823700 1.044300
-4.805800 1.078900
-4.787900 1.106200
-4.769900 1.138900
-4.752000 1.172500
-4.734100 1.207000
-4.716100 1.250100
-4.698200 1.302700
-4.680300 1.359900
-4.662300 1.390000
-4.644400 1.371900
-4.626400 1.392600
-4.608500 1.405800
-4.590600 1.411800
-4.572600 1.412400
-4.554700 1.405600
-4.536800 1.408100
-4.518800 1.414900
-4.500900 1.421800
-4.483000 1.427100
-4.465000 1.428500
-4.447100 1.433300
-4.429200 1.424900
-4.411200 1.424400
-4.393300 1.427100
-4.375400 1.431100
-4.357400 1.439200
-4.339500 1.475400
-4.321600 1.543100
-4.303600 1.591400
-4.285700 1.639700
-4.267800 1.690200
-4.249800 1.743000
-4.231900 1.789600
-4.214000 1.833600
-4.196000 1.871500
-4.178100 1.911900
-4.160100 1.955400
-4.142200 2.000800
-4.124300 2.048800
-4.106300 2.162400
-4.088400 2.282400
-4.070500 2.237900
-4.052500 2.263800
-4.034600 2.285200
-4.016700 2.301200
-3.998700 2.307100
-3.980800 2.303000
-3.962900 2.305300
-3.944900 2.320200
-3.927000 2.338500
-3.909100 2.356200
-3.891100 2.371600
-3.873200 2.385500
-3.855300 2.396500
-3.837300 2.404200
-3.819400 2.418800
-3.801500 2.434100
-3.783500 2.450800
-3.765600 2.469900
-3.747600 2.490100
-3.729700 2.510100
-3.711800 2.529600
-3.693800 2.548400
-3.675900 2.565700
-3.658000 2.581000
-3.640000 2.598900
-3.622100 2.621800
-3.604200 2.646900
-3.586200 2.673000
-3.568300 2.699500
-3.550400 2.726600
-3.532400 2.756400
-3.514500 2.788800
-3.496600 2.820900
-3.478600 2.856200
-3.460700 2.901900
-3.442800 2.952800
-3.424800 3.011200
-3.406900 3.074700
-3.389000 3.138700
-3.371000 3.212700
-3.353100 3.297300
-3.335200 3.394900
-3.317200 3.500100
-3.299300 3.726700
-3.281300 4.241600
-3.263400 4.378300
-3.245500 3.834700
-3.227500 3.615400
-3.209600 3.552800
-3.191700 3.568900
-3.173700 3.600400
-3.155800 3.684600
-3.137900 4.022800
-3.119900 4.659200
-3.102000 4.582300
-3.084100 4.346700
-3.066100 4.466400
-3.048200 4.336000
-3.030300 3.957900
-3.012300 3.713900
-2.994400 3.627400
-2.976500 3.688200
-2.958500 3.820600
-2.940600 4.085900
-2.922700 4.707500
-2.904700 4.993600
-2.886800 5.407300
-2.868900 5.772000
-2.850900 4.976800
-2.833000 4.068600
-2.815000 3.438600
-2.797100 3.179900
-2.779200 3.298800
-2.761200 3.062900
-2.743300 2.530700
-2.725400 2.283600
-2.707400 2.542900
-2.689500 2.815700
-2.671600 2.485800
-2.653600 0.000000
-2.635700 0.000000
-2.617800 0.000000
-2.599800 0.000000
-2.581900 0.000000
-2.564000 0.000000
-2.546000 0.000000
-2.528100 0.000000
-2.510200 0.000000
-2.492200 0.000000
-2.474300 0.000000
-2.456400 0.000000
-2.438400 0.000000
-2.420500 0.000000
-2.402600 0.000000
-2.384600 0.000000
-2.366700 0.000000
-2.348700 0.000000
-2.330800 0.000000
-2.312900 0.000000
-2.294900 0.000000
-2.277000 0.000000
-2.259100 0.000000
-2.241100 0.000000
-2.223200 0.000000
-2.205300 0.000000
-2.187300 0.000000
-2.169400 0.000000
-2.151500 0.000000
-2.133500 0.000000
-2.115600 0.000000
-2.097700 0.000000
-2.079700 0.000000
-2.061800 0.000000
-2.043900 0.000000
-2.025900 0.000000
-2.008000 0.000000
-1.990100 0.000000
-1.972100 0.000000
-1.954200 0.000000
-1.936300 0.000000
-1.918300 0.000000
-1.900400 0.000000
-1.882400 0.000000
-1.864500 0.000000
-1.846600 0.000000
-1.828600 0.000000
-1.810700 0.000000
-1.792800 0.000000
-1.774800 0.000000
-1.756900 0.000000
-1.739000 0.000000
-1.721000 0.000000
-1.703100 0.000000
-1.685200 0.000000
-1.667200 0.000000
-1.649300 0.000000
-1.631400 0.000000
-1.613400 0.000000
-1.595500 0.000000
-1.577600 0.000000
-1.559600 0.000000
-1.541700 0.000000
-1.523800 0.000000
-1.505800 0.000000
-1.487900 0.000000
-1.470000 0.000000
-1.452000 0.000000
-1.434100 0.000000
-1.416100 0.000000
-1.398200 0.000000
-1.380300 0.000000
-1.362300 0.000000
-1.344400 0.000000
-1.326500 0.000000
-1.308500 0.000000
-1.290600 0.039800
-1.272700 0.140900
-1.254700 0.153200
-1.236800 0.170100
-1.218900 0.191500
-1.200900 0.209400
-1.183000 0.229500
-1.165100 0.250100
-1.147100 0.262500
-1.129200 0.280600
-1.111300 0.299600
-1.093300 0.318900
-1.075400 0.337900
-1.057500 0.357000
-1.039500 0.386100
-1.021600 0.462700
-1.003700 0.563300
-0.985700 0.679100
-0.967800 0.817300
-0.949800 1.051700
-0.931900 1.163800
-0.914000 1.205200
-0.896000 1.292000
-0.878100 1.375000
-0.860200 1.470900
-0.842200 1.527600
-0.824300 1.546200
-0.806400 1.568000
-0.788400 1.637700
-0.770500 1.649700
-0.752600 1.707500
-0.734600 1.747000
-0.716700 1.743700
-0.698800 1.778500
-0.680800 1.814500
-0.662900 1.849900
-0.645000 1.993000
-0.627000 2.003000
-0.609100 2.100600
-0.591200 2.204000
-0.573200 2.292200
-0.555300 2.395500
-0.537400 2.487900
-0.519400 2.546500
-0.501500 2.609600
-0.483500 2.681200
-0.465600 2.777100
-0.447700 2.892700
-0.429700 3.025300
-0.411800 3.187600
-0.393900 3.443600
-0.375900 3.667700
-0.358000 3.910200
-0.340100 4.144600
-0.322100 4.341100
-0.304200 4.472000
-0.286300 4.614700
-0.268300 4.861300
-0.250400 4.379300
-0.232500 4.442700
-0.214500 4.329400
-0.196600 4.214300
-0.178700 4.185100
-0.160700 4.272800
-0.142800 4.769500
-0.124900 4.650600
-0.106900 4.390900
-0.089000 4.476000
-0.071100 3.475300
-0.053100 2.846600
-0.035200 2.708300
-0.017200 2.512300
0.000700 2.472000
0.018600 2.421900
0.036600 2.443800
0.054500 2.646600
0.072400 2.887800
0.090400 3.112000
0.108300 3.330100
0.126200 3.485700
0.144200 3.584600
0.162100 3.768700
0.180000 3.966400
0.198000 4.150300
0.215900 4.108300
0.233800 3.937300
0.251800 3.732500
0.269700 3.641900
0.287600 3.634100
0.305600 3.633800
0.323500 3.492800
0.341400 3.289300
0.359400 3.128800
0.377300 3.008600
0.395200 3.031900
0.413200 3.016700
0.431100 2.981400
0.449100 2.982400
0.467000 2.983000
0.484900 2.963900
0.502900 2.955000
0.520800 2.952100
0.538700 2.957100
0.556700 2.985200
0.574600 2.912300
0.592500 2.821900
0.610500 2.800100
0.628400 2.798300
0.646300 2.793800
0.664300 2.778700
0.682200 2.681200
0.700100 2.595900
0.718100 2.555400
0.736000 2.529100
0.753900 2.505500
0.771900 2.500000
0.789800 2.543300
0.807700 2.487600
0.825700 2.403700
0.843600 2.351100
0.861500 2.308700
0.879500 2.271800
0.897400 2.269300
0.915400 2.270000
0.933300 2.281000
0.951200 2.222900
0.969200 2.080000
0.987100 1.939400
1.005000 1.876800
1.023000 1.820400
1.040900 1.784700
1.058800 1.808800
1.076800 1.803400
1.094700 1.766300
1.112600 1.752100
1.130600 1.750400
1.148500 1.766100
1.166400 1.792500
1.184400 1.839000
1.202300 1.896300
1.220200 1.943700
1.238200 1.999200
1.256100 2.049200
1.274000 2.090500
1.292000 2.125800
1.309900 2.160000
1.327800 2.203400
1.345800 2.226000
1.363700 2.257600
1.381700 2.356100
1.399600 2.202900
1.417500 2.011200
1.435500 1.905300
1.453400 1.817500
1.471300 1.771900
1.489300 1.728000
1.507200 1.682800
1.525100 1.644400
1.543100 1.607500
1.561000 1.570000
1.578900 1.510600
1.596900 1.512700
1.614800 1.513700
1.632700 1.497200
1.650700 1.505000
1.668600 1.446300
1.686500 1.352400
1.704500 1.240900
1.722400 1.191800
1.740300 1.144000
1.758300 1.096400
1.776200 1.050900
1.794100 1.011700
1.812100 0.976100
1.830000 0.941900
1.848000 0.909300
1.865900 0.878700
1.883800 0.850400
1.901800 0.823700
1.919700 0.798900
1.937600 0.776000
1.955600 0.759200
1.973500 0.749300
1.991400 0.740800
2.009400 0.729900
2.027300 0.713700
2.045200 0.697400
2.063200 0.683200
2.081100 0.671100
2.099000 0.660100
2.117000 0.649700
2.134900 0.640000
2.152800 0.630900
2.170800 0.622400
2.188700 0.614300
2.206600 0.606600
2.224600 0.600400
2.242500 0.712000
2.260400 0.955500
2.278400 1.280600
2.296300 1.656400
2.314300 2.127600
2.332200 2.093500
2.350100 2.088700
2.368100 2.148400
2.386000 2.258200
2.403900 2.425100
2.421900 2.726900
2.439800 3.240300
2.457700 3.475100
2.475700 3.814300
2.493600 3.507300
2.511500 3.231300
2.529500 3.036700
2.547400 2.942800
2.565300 2.871100
2.583300 2.784300
2.601200 2.740900
2.619100 2.690500
2.637100 2.580900
2.655000 2.434000
2.672900 2.365900
2.690900 2.397800
2.708800 2.328700
2.726700 2.480500
2.744700 2.497400
2.762600 2.332000
2.780600 2.256200
2.798500 2.196400
2.816400 2.152400
2.834400 2.117600
2.852300 2.081300
2.870200 2.061100
2.888200 2.035300
2.906100 2.001500
2.924000 2.035900
2.942000 2.078300
2.959900 2.112100
2.977800 2.155300
2.995800 2.212400
3.013700 2.396600
3.031600 2.384100
3.049600 2.550700
3.067500 2.812700
3.085400 3.177700
3.103400 3.489300
3.121300 3.511100
3.139200 3.269800
3.157200 3.178100
3.175100 3.073100
3.193000 2.974500
3.211000 2.929000
3.228900 2.949500
3.246900 2.958100
3.264800 2.929600
3.282700 2.935100
3.300700 2.954800
3.318600 2.964700
3.336500 2.960600
3.354500 2.935500
3.372400 2.918400
3.390300 2.912100
3.408300 2.913900
3.426200 2.923100
3.444100 2.922000
3.462100 2.918200
3.480000 2.920800
3.497900 2.934100
3.515900 2.970300
3.533800 3.063700
3.551700 3.153100
3.569700 3.266700
3.587600 3.370500
3.605500 3.436500
3.623500 3.423300
3.641400 3.539700
3.659300 3.742500
3.677300 3.951600
3.695200 3.895200
3.713200 3.781700
3.731100 3.855900
3.749000 3.660000
3.767000 3.569900
3.784900 3.559800
3.802800 3.465500
3.820800 3.406100
3.838700 3.398700
3.856600 3.438700
3.874600 3.434700
3.892500 3.371300
3.910400 3.343600
3.928400 3.375700
3.946300 3.485800
3.964200 3.616700
3.982200 3.732300
4.000100 3.896700
4.018000 3.996000
4.036000 4.121500
4.053900 4.224500
4.071800 4.331700
4.089800 4.571400
4.107700 4.753400
4.125600 4.741600
4.143600 4.728600
4.161500 4.657700
4.179500 4.465300
4.197400 4.461300
4.215300 4.286800
4.233300 4.266200
4.251200 4.281400
4.269100 4.313300
4.287100 4.283200
4.305000 4.371100
4.322900 4.385100
4.340900 4.411600
4.358800 4.514500
4.376700 4.716500
4.394700 4.714400
4.412600 4.742600
4.430500 4.895000
4.448500 5.095900
4.466400 5.148700
4.484300 5.201500
4.502300 5.120500
4.520200 5.063700
4.538100 4.990200
4.556100 4.849200
4.574000 4.636600
4.591900 4.475900
4.609900 4.376500
4.627800 4.311100
4.645800 4.268000
4.663700 4.245500
4.681600 4.260700
4.699600 4.333900
4.717500 4.462200
4.735400 4.510500
4.753400 4.543900
4.771300 4.562000
4.789200 4.590800
4.807200 4.626800
4.825100 4.540900
4.843000 4.489400
4.861000 4.468200
4.878900 4.492600
4.896800 4.549700
4.914800 4.630200
4.932700 4.761800
4.950600 4.939200
4.968600 4.978700
4.986500 4.962400
5.004400 4.791800
5.022400 4.721700
5.040300 4.662400
5.058200 4.639400
5.076200 4.625300
5.094100 4.586200
5.112100 4.564500
5.130000 4.485600
5.147900 4.463700
5.165900 4.470400
5.183800 4.488100
5.201700 4.488900
5.219700 4.560700
5.237600 4.698900
5.255500 4.743800
5.273500 4.865600
5.291400 4.868700
5.309300 4.882400
5.327300 4.951800
5.345200 4.889200
5.363100 4.711800
5.381100 4.544600
5.399000 4.472000
5.416900 4.375700
5.434900 4.321000
5.452800 4.313400
5.470700 4.289100
5.488700 4.236500
5.506600 4.140300
5.524500 4.058600
5.542500 3.998200
5.560400 3.981200
5.578400 3.901300
5.596300 3.853800
5.614200 3.811500
5.632200 3.788400
5.650100 3.785700
5.668000 3.792500
5.686000 3.815000
5.703900 3.931500
5.721800 3.964100
5.739800 4.149500
5.757700 4.353400
5.775600 4.177600
5.793600 4.184600
5.811500 4.213200
5.829400 4.261000
5.847400 4.273100
5.865300 4.250000
5.883200 4.155800
5.901200 4.179900
5.919100 4.186500
5.937000 4.136900
5.955000 4.068500
5.972900 3.994300
5.990800 3.865400
6.008800 3.758700
6.026700 3.680500
6.044700 3.643500
6.062600 3.674900
6.080500 3.685300
6.098500 4.186600
6.116400 3.941700
6.134300 3.398900
6.152300 3.219000
6.170200 3.125000
6.188100 3.031900
6.206100 2.926200
6.224000 2.802400
6.241900 2.697300
6.259900 2.616600
6.277800 2.573900
6.295700 2.455400
6.313700 2.499400
6.331600 2.528700
6.349500 2.576600
6.367500 2.665700
6.385400 2.730600
6.403300 2.782300
6.421300 2.817900
6.439200 2.856100
6.457100 2.906900
6.475100 2.956300
6.493000 3.008800
6.511000 3.061300
6.528900 3.085900
6.546800 3.062400
6.564800 3.007300
6.582700 3.010400
6.600600 3.044500
6.618600 3.071700
6.636500 3.065000
6.654400 3.048100
6.672400 3.010200
6.690300 2.966900
6.708200 2.930100
6.726200 2.911600
6.744100 2.961000
6.762000 3.038500
6.780000 3.076500
6.797900 3.054600
6.815800 3.005500
6.833800 2.989200
6.851700 3.017900
6.869600 3.054300
6.887600 3.091900
6.905500 3.143900
6.923400 3.266000
6.941400 3.259700
6.959300 3.255500
6.977300 3.133200
6.995200 2.976500
7.013100 2.775100
7.031100 2.614100
7.049000 2.523000
7.066900 2.459800
7.084900 2.398200
7.102800 2.349200
7.120700 2.300600
7.138700 2.274900
7.156600 2.272100
7.174500 2.264600
7.192500 2.224800
7.210400 2.156500
7.228300 2.073900
7.246300 1.966300
7.264200 1.840200
7.282100 1.705800
7.300100 1.593300
7.318000 1.534600
7.335900 1.487700
7.353900 1.437900
7.371800 1.390100
7.389700 1.345100
7.407700 1.301400
7.425600 1.263200
7.443600 1.232200
7.461500 1.242000
7.479400 1.274400
7.497400 1.289600
7.515300 1.322100
7.533200 1.324600
7.551200 1.363000
7.569100 1.435400
7.587000 1.474300
7.605000 1.501300
7.622900 1.541200
7.640800 1.591600
7.658800 1.639700
7.676700 1.657400
7.694600 1.632700
7.712600 1.591200
7.730500 1.582700
7.748400 1.591900
7.766400 1.638900
7.784300 1.713000
7.802200 1.765100
7.820200 1.805400
7.838100 1.838600
7.856000 1.841200
7.874000 1.791800
7.891900 1.737900
7.909900 1.669900
7.927800 1.636900
7.945700 1.671300
7.963700 1.757500
7.981600 1.868100
7.999500 1.894000
8.017500 1.935600
8.035400 1.915700
8.053300 1.889000
8.071300 1.868500
8.089200 1.858400
8.107100 1.857200
8.125100 1.881900
8.143000 1.932600
8.160900 2.024700
8.178900 2.083600
8.196800 2.121300
8.214700 2.177600
8.232700 2.264500
8.250600 2.351400
8.268500 2.461700
8.286500 2.587900
8.304400 2.699800
8.322400 2.813100
8.340300 2.939200
8.358200 3.066300
8.376200 3.346100
8.394100 3.378000
8.412000 3.318300
8.430000 3.317900
8.447900 3.811800
8.465800 3.815200
8.483800 3.821300
8.501700 3.863300
8.519600 3.852100
8.537600 3.837500
8.555500 3.806700
8.573400 3.783300
8.591400 3.818100
8.609300 3.906900
8.627200 4.093400
8.645200 4.322300
8.663100 4.594600
8.681000 4.847200
8.699000 4.805600
8.716900 4.806400
8.734800 4.909600
8.752800 4.890800
8.770700 4.857600
8.788700 4.911800
8.806600 4.897400
8.824500 4.799300
8.842500 4.801200
8.860400 4.806400
8.878300 4.800000
8.896300 4.761600
8.914200 4.752900
8.932100 4.692300
8.950100 4.601300
8.968000 4.560800
8.985900 4.586500
9.003900 4.697800
9.021800 4.717400
9.039700 4.704600
9.057700 4.703300
9.075600 4.582700
9.093500 4.603900
9.111500 4.717300
9.129400 4.826200
9.147300 4.964900
9.165300 5.162700
9.183200 5.109700
9.201100 5.040500
9.219100 4.964700
9.237000 4.832500
9.255000 4.685800
9.272900 4.537400
9.290800 4.359200
9.308800 4.181900
9.326700 4.012300
9.344600 3.843800
9.362600 3.667800
9.380500 3.540600
9.398400 3.422700
9.416400 3.441900
9.434300 3.342900
9.452200 3.116000
9.470200 2.866500
9.488100 2.448000
9.506000 2.138600
9.524000 1.935800
9.541900 1.811300
9.559800 1.796000
9.577800 1.786500
9.595700 1.790700
9.613600 1.900800
9.631600 2.107700
9.649500 2.518200
9.667400 2.810500
9.685400 2.930200
9.703300 3.017700
9.721300 3.113400
9.739200 3.074500
9.757100 3.134800
9.775100 3.300500
9.793000 3.556800
9.810900 3.985700
9.828900 4.453300
9.846800 4.979200
9.864700 5.336200
9.882700 5.550100
9.900600 5.603900
9.918500 5.551100
9.936500 5.662000
9.954400 5.633900
9.972300 5.543800
9.990300 5.521900
10.008200 5.470200
10.026100 5.355700
10.044100 5.179300
10.062000 4.814300
10.079900 4.570100
10.097900 4.463500
10.115800 4.362700
10.133700 4.234600
10.151700 4.234800
10.169600 4.125500
10.187600 4.021000
10.205500 3.966900
10.223400 3.940100
10.241400 4.005900
10.259300 4.244700
10.277200 4.246600
10.295200 4.289900
10.313100 4.496800
10.331000 4.511500
10.349000 4.492800
10.366900 4.455000
10.384800 4.369700
10.402800 4.308400
10.420700 4.300100
10.438600 4.293100
10.456600 4.423900
10.474500 4.521100
10.492400 4.551000
10.510400 4.569100
10.528300 4.600400
10.546200 4.561400
10.564200 4.578200
10.582100 4.621000
10.600000 4.689000
10.618000 4.739600
10.635900 4.701800
10.653900 4.727900
10.671800 4.830400
10.689700 4.944400
10.707700 5.054700
10.725600 5.365000
10.743500 5.148000
10.761500 5.135300
10.779400 5.204700
10.797300 5.378300
10.815300 5.378000
10.833200 5.298600
10.851100 5.218500
10.869100 5.147400
10.887000 5.085100
10.904900 5.005600
10.922900 4.900700
10.940800 4.928700
10.958700 4.734100
10.976700 4.703200
10.994600 4.706800
11.012500 4.667300
11.030500 4.664900
11.048400 4.783100
11.066300 4.844900
11.084300 5.004000
11.102200 5.225400
11.120200 5.479300
11.138100 5.936100
11.156000 5.898800
11.174000 5.656400
11.191900 5.469800
11.209800 5.361200
11.227800 5.359000
11.245700 5.158900
11.263600 5.081800
11.281600 4.877300
11.299500 4.660600
11.317400 4.497100
11.335400 4.328600
11.353300 4.295200
11.371200 4.388900
11.389200 4.670900
11.407100 4.708200
11.425000 4.695700
11.443000 4.927400
11.460900 4.952400
11.478800 5.028500
11.496800 4.905200
11.514700 4.656400
11.532600 4.513800
11.550600 4.282200
11.568500 4.180400
11.586500 3.854800
11.604400 3.733600
11.622300 3.820800
11.640300 4.020700
11.658200 4.126500
11.676100 4.244800
11.694100 4.376700
11.712000 4.540300
11.729900 4.775000
11.747900 4.895000
11.765800 4.866800
11.783700 4.432200
11.801700 4.233700
11.819600 4.134600
11.837500 3.994800
11.855500 3.854900
11.873400 3.629600
11.891300 3.483400
11.909300 3.356200
11.927200 3.252100
11.945100 3.200500
11.963100 3.197500
11.981000 3.226300
11.998900 3.293600
12.016900 3.391500
12.034800 3.550600
12.052800 3.767900
12.070700 4.000200
12.088600 4.134100
12.106600 4.275700
12.124500 4.437900
12.142400 4.573500
12.160400 4.704500
12.178300 4.828100
12.196200 4.919300
12.214200 5.013600
12.232100 5.138000
12.250000 5.193200
12.268000 5.186400
12.285900 5.153600
12.303800 5.063700
12.321800 4.951000
12.339700 4.843400
12.357600 4.765500
12.375600 4.879600
12.393500 4.847900
12.411400 4.644900
12.429400 4.496100
12.447300 4.404600
12.465200 4.328000
12.483200 4.276400
12.501100 4.300000
12.519100 4.338700
12.537000 4.416200
12.554900 4.505600
12.572900 4.542300
12.590800 4.566800
12.608700 4.680800
12.626700 4.867800
12.644600 4.995100
12.662500 4.919800
12.680500 4.727500
12.698400 4.598400
12.716300 4.393100
12.734300 4.236800
12.752200 4.085700
12.770100 3.963000
12.788100 3.786200
12.806000 3.789400
12.823900 3.818600
12.841900 3.888400
12.859800 4.053700
12.877700 4.156900
12.895700 4.241300
12.913600 4.025900
12.931500 3.923200
12.949500 3.915300
12.967400 3.866400
12.985400 3.830300
13.003300 3.803900
13.021200 3.784700
13.039200 3.788700
13.057100 3.805700
13.075000 3.846300
13.093000 3.933300
13.110900 4.006800
13.128800 4.130800
13.146800 4.353600
13.164700 4.599300
13.182600 4.739200
13.200600 4.982900
13.218500 5.129400
13.236400 5.158000
13.254400 5.125700
13.272300 5.057200
13.290200 4.993900
13.308200 4.897300
13.326100 4.746500
13.344000 4.729700
13.362000 4.637400
13.379900 4.591700
13.397800 4.510200
13.415800 4.389400
13.433700 4.310800
13.451700 4.190000
13.469600 4.112100
13.487500 4.087900
13.505500 4.075200
13.523400 4.136000
13.541300 4.175300
13.559300 4.188700
13.577200 4.186800
13.595100 4.199800
13.613100 4.302100
13.631000 4.438000
13.648900 4.623200
13.666900 4.918400
13.684800 5.091900
13.702700 5.164000
13.720700 5.068700
13.738600 5.196800
13.756500 5.368900
13.774500 5.563900
13.792400 5.551000
13.810300 5.580700
13.828300 5.620700
13.846200 5.712700
13.864100 5.544100
13.882100 5.384200
13.900000 5.271500
13.918000 5.210300
13.935900 5.185000
13.953800 5.200300
13.971800 5.248000
13.989700 5.159000
14.007600 5.043600
14.025600 5.040100
14.043500 4.991600
14.061400 4.908500
14.079400 4.726900
14.097300 4.579700
14.115200 4.500500
14.133200 4.379400
14.151100 4.297800
14.169000 4.286500
14.187000 4.270800
14.204900 4.380600
14.222800 4.489300
14.240800 4.556000
14.258700 4.639300
14.276600 4.609300
14.294600 4.600000
14.312500 4.639800
14.330400 4.743100
14.348400 4.693200
14.366300 4.600900
14.384300 4.509800
14.402200 4.453700
14.420100 4.465600
14.438100 4.472600
14.456000 4.511800
14.473900 4.484900
14.491900 4.449600
14.509800 4.406000
14.527700 4.386900
14.545700 4.597000
14.563600 4.622000
14.581500 4.742200
14.599500 4.763800
14.617400 4.657600
14.635300 4.487400
14.653300 4.254500
14.671200 4.163800
14.689100 4.145500
14.707100 4.341600
14.725000 4.446400
14.742900 4.582100
14.760900 4.593500
14.778800 4.330600
14.796700 4.235700
14.814700 4.240900
14.832600 4.285300
14.850600 4.339900
14.868500 4.389000
14.886400 4.453000
14.904400 4.537800
14.922300 4.582000
14.940200 4.342100
14.958200 4.280700
14.976100 4.269300
14.994000 4.264100
15.012000 4.236700
15.029900 4.280600
15.047800 4.294000
15.065800 4.247700
15.083700 4.189300
15.101600 4.106000
15.119600 4.063700
15.137500 4.021900
15.155400 4.007600
15.173400 3.933300
15.191300 3.886300
15.209200 3.878400
15.227200 3.861400
15.245100 3.913200
15.263000 4.028500
15.281000 4.113100
15.298900 4.169800
15.316900 4.236300
15.334800 4.309300
15.352700 4.181200
15.370700 3.884800
15.388600 3.692600
15.406500 3.560800
15.424500 3.469000
15.442400 3.402000
15.460300 3.343500
15.478300 3.291000
15.496200 3.259300
15.514100 3.239200
15.532100 3.221600
15.550000 3.213000
15.567900 3.168300
15.585900 3.139300
15.603800 3.123200
15.621700 3.126900
15.639700 3.160500
15.657600 3.191000
15.675500 3.213800
15.693500 3.252000
15.711400 3.300200
15.729300 3.355800
15.747300 3.414700
15.765200 3.476600
15.783200 3.567700
15.801100 3.692600
15.819000 3.712900
15.837000 3.587700
15.854900 3.654400
15.872800 3.687600
15.890800 3.630900
15.908700 3.561400
15.926600 3.517800
15.944600 3.506400
15.962500 3.512300
15.980400 3.524800
15.998400 3.551000
16.016300 3.588600
16.034200 3.618100
16.052200 3.620600
16.070100 3.607200
16.088000 3.599300
16.106000 3.570400
16.123900 3.505100
16.141800 3.434400
16.159800 3.335100
16.177700 3.275700
16.195600 3.234900
16.213600 3.212000
16.231500 3.213600
16.249500 3.252400
16.267400 3.348400
16.285300 3.309700
16.303300 3.376900
16.321200 3.324400
16.339100 3.314500
16.357100 3.287700
16.375000 3.241800
16.392900 3.185300
16.410900 3.148200
16.428800 3.133200
16.446700 3.126400
16.464700 3.124800
16.482600 3.129000
16.500500 3.144900
16.518500 3.247900
16.536400 3.394200
16.554300 3.444600
16.572300 3.466700
16.590200 3.573100
16.608100 3.466400
16.626100 3.564100
16.644000 3.664400
16.661900 3.631800
16.679900 3.454800
16.697800 3.250400
16.715800 3.163200
16.733700 3.124000
16.751600 3.083400
16.769600 2.988700
16.787500 2.898100
16.805400 2.819900
16.823400 2.767100
16.841300 2.720700
16.859200 2.677200
16.877200 2.636000
16.895100 2.593800
16.913000 2.562200
16.931000 2.531900
16.948900 2.497800
16.966800 2.468100
16.984800 2.444700
17.002700 2.426000
17.020600 2.413300
17.038600 2.441200
17.056500 2.491100
17.074400 2.544600
17.092400 2.593400
17.110300 2.627300
17.128200 2.646400
17.146200 2.677900
17.164100 2.736100
17.182100 2.829800
17.200000 2.926600
17.217900 3.006500
17.235900 3.091600
17.253800 3.152300
17.271700 3.208000
17.289700 3.227100
17.307600 3.282500
17.325500 3.242900
17.343500 3.034900
17.361400 2.817700
17.379300 2.761600
17.397300 2.732800
17.415200 2.734600
17.433100 2.797300
17.451100 2.850200
17.469000 2.881300
17.486900 2.845300
17.504900 2.773600
17.522800 2.707200
17.540700 2.649000
17.558700 2.601900
17.576600 2.566900
17.594500 2.527300
17.612500 2.489600
17.630400 2.447300
17.648400 2.403300
17.666300 2.376500
17.684200 2.354500
17.702200 2.337400
17.720100 2.327900
17.738000 2.323500
17.756000 2.321500
17.773900 2.330800
17.791800 2.302500
17.809800 2.243100
17.827700 2.166900
17.845600 2.077400
17.863600 2.017100
17.881500 2.007000
17.899400 2.022900
17.917400 1.857800
17.935300 1.677500
17.953200 1.550200
17.971200 1.419900
17.989100 1.294900
18.007000 1.184100
18.025000 1.084500
18.042900 0.999400
18.060800 0.938300
18.078800 0.876600
18.096700 0.815500
18.114700 0.687200
18.132600 0.655600
18.150500 0.473400
18.168500 0.264300
18.186400 0.138000
18.204300 0.076300
18.222300 0.032400
18.240200 0.017500
18.258100 0.008000
18.276100 0.002200
18.294000 0.000000
18.311900 0.000000
18.329900 0.000000
18.347800 0.000000
18.365700 0.000000
18.383700 0.000000
18.401600 0.000000
18.419500 0.000000
18.437500 0.000000
18.455400 0.000000
18.473300 0.000000
18.491300 0.000000
18.509200 0.000000
18.527100 0.000000
18.545100 0.000000
18.563000 0.000000
18.581000 0.000000
18.598900 0.000000
18.616800 0.000000
18.634800 0.000000
18.652700 0.000000
18.670600 0.000000
18.688600 0.000000
18.706500 0.000000
18.724400 0.000000
18.742400 0.000000
18.760300 0.000000
18.778200 0.000000
18.796200 0.000000
18.814100 0.000000
18.832000 0.000000
18.850000 0.000000
18.867900 0.000000
18.885800 0.000000
18.903800 0.000000
18.921700 0.000000
18.939600 0.000000
18.957600 0.000000
18.975500 0.000000
18.993400 0.000000
19.011400 0.000000
19.029300 0.000000
19.047300 0.000000
19.065200 0.000000
19.083100 0.000000
19.101100 0.000000
19.119000 0.000000
19.136900 0.000000
19.154900 0.000000
19.172800 0.000000
19.190700 0.000000
19.208700 0.000000
19.226600 0.000000
19.244500 0.000000
19.262500 0.000000
19.280400 0.000000
19.298300 0.000000
19.316300 0.000000
19.334200 0.000000
19.352100 0.000000
19.370100 0.000000
19.388000 0.000000
19.405900 0.000000
19.423900 0.000000
19.441800 0.000000
19.459700 0.000000
19.477700 0.000000
19.495600 0.000000
19.513600 0.000000
19.531500 0.000000
19.549400 0.000000
19.567400 0.000000
19.585300 0.000000
19.603200 0.000000
19.621200 0.000000
19.639100 0.000000
19.657000 0.000000
19.675000 0.000000
19.692900 0.000000
19.710800 0.000000
19.728800 0.000000
19.746700 0.000000
19.764600 0.000000
19.782600 0.000000
19.800500 0.000000
19.818400 0.000000
19.836400 0.000000
19.854300 0.000000
19.872200 0.000000
19.890200 0.000000
19.908100 0.000000
19.926000 0.000000
e
