set title 'mp-604 - Density of States'
set xlabel 'Energy (eV)'
set ylabel 'DOS (states/eV)'
set grid
set xrange [-10:10]
set yrange [0:30.594]
set xzeroaxis lt -1
set terminal png size 800,600
set output 'mp-604_dos_gnuplot.png'
plot '-' using 1:2 with lines title 'DOS'
-33.141400 0.000000
-33.107600 0.000000
-33.073900 0.000000
-33.040100 0.000000
-33.006300 0.000000
-32.972600 0.000000
-32.938800 0.000000
-32.905100 0.000000
-32.871300 0.000000
-32.837500 0.000000
-32.803800 0.000000
-32.770000 0.000000
-32.736200 0.000000
-32.702500 0.000000
-32.668700 0.000000
-32.635000 0.000000
-32.601200 0.000000
-32.567400 0.000000
-32.533700 0.000000
-32.499900 0.000000
-32.466100 0.000000
-32.432400 0.000000
-32.398600 0.000000
-32.364900 0.000000
-32.331100 0.000000
-32.297300 0.000000
-32.263600 0.000000
-32.229800 0.000000
-32.196000 0.000000
-32.162300 0.000000
-32.128500 0.000000
-32.094700 0.000000
-32.061000 0.000000
-32.027200 0.000000
-31.993500 0.000000
-31.959700 0.000000
-31.925900 0.000000
-31.892200 0.000000
-31.858400 0.000000
-31.824600 0.000000
-31.790900 0.000000
-31.757100 0.000000
-31.723400 0.000000
-31.689600 0.000000
-31.655800 0.000000
-31.622100 0.000000
-31.588300 0.000000
-31.554500 0.000000
-31.520800 0.000000
-31.487000 0.000000
-31.453300 0.000000
-31.419500 0.000000
-31.385700 0.000000
-31.352000 0.000000
-31.318200 0.000000
-31.284400 0.000000
-31.250700 0.000000
-31.216900 0.000000
-31.183200 0.000000
-31.149400 0.000000
-31.115600 0.000000
-31.081900 0.000000
-31.048100 0.000000
-31.014300 0.000000
-30.980600 0.000000
-30.946800 0.000000
-30.913100 0.000000
-30.879300 0.000000
-30.845500 0.000000
-30.811800 0.000000
-30.778000 0.000000
-30.744200 0.000000
-30.710500 0.000000
-30.676700 0.000000
-30.643000 0.000000
-30.609200 0.000000
-30.575400 0.000000
-30.541700 0.000000
-30.507900 0.000000
-30.474100 0.000000
-30.440400 0.000000
-30.406600 0.000000
-30.372900 0.000000
-30.339100 0.000000
-30.305300 0.000000
-30.271600 0.000000
-30.237800 0.000000
-30.204000 0.000000
-30.170300 0.000000
-30.136500 0.000000
-30.102800 0.000000
-30.069000 2.411500
-30.035200 139.265500
-30.001500 90.492100
-29.967700 0.000000
-29.933900 55.608400
-29.900200 1.229100
-29.866400 86.896800
-29.832700 65.425900
-29.798900 41.828600
-29.765100 85.197000
-29.731400 0.000000
-29.697600 0.000000
-29.663800 0.000000
-29.630100 0.000000
-29.596300 0.000000
-29.562600 0.000000
-29.528800 0.000000
-29.495000 0.000000
-29.461300 0.000000
-29.427500 0.000000
-29.393700 0.000000
-29.360000 0.000000
-29.326200 0.000000
-29.292400 0.000000
-29.258700 0.000000
-29.224900 0.000000
-29.191200 0.000000
-29.157400 0.000000
-29.123600 0.000000
-29.089900 0.000000
-29.056100 0.000000
-29.022300 0.000000
-28.988600 0.000000
-28.954800 0.000000
-28.921100 0.000000
-28.887300 0.000000
-28.853500 0.000000
-28.819800 0.000000
-28.786000 0.000000
-28.752200 0.000000
-28.718500 0.000000
-28.684700 0.000000
-28.651000 0.000000
-28.617200 0.000000
-28.583400 0.000000
-28.549700 0.000000
-28.515900 0.000000
-28.482100 0.000000
-28.448400 0.000000
-28.414600 0.000000
-28.380900 0.000000
-28.347100 0.000000
-28.313300 0.000000
-28.279600 0.000000
-28.245800 0.000000
-28.212000 0.000000
-28.178300 0.000000
-28.144500 0.000000
-28.110800 0.000000
-28.077000 0.000000
-28.043200 0.000000
-28.009500 0.000000
-27.975700 0.000000
-27.941900 0.000000
-27.908200 0.000000
-27.874400 0.000000
-27.840700 0.000000
-27.806900 0.000000
-27.773100 0.000000
-27.739400 0.000000
-27.705600 0.000000
-27.671800 0.000000
-27.638100 0.000000
-27.604300 0.000000
-27.570600 0.000000
-27.536800 0.000000
-27.503000 0.000000
-27.469300 0.000000
-27.435500 0.000000
-27.401700 0.000000
-27.368000 0.000000
-27.334200 0.000000
-27.300500 0.000000
-27.266700 0.000000
-27.232900 0.000000
-27.199200 0.000000
-27.165400 0.000000
-27.131600 0.000000
-27.097900 0.000000
-27.064100 0.000000
-27.030400 0.000000
-26.996600 0.000000
-26.962800 0.000000
-26.929100 0.000000
-26.895300 0.000000
-26.861500 0.000000
-26.827800 0.000000
-26.794000 0.000000
-26.760300 0.000000
-26.726500 0.000000
-26.692700 0.000000
-26.659000 0.000000
-26.625200 0.000000
-26.591400 0.000000
-26.557700 0.000000
-26.523900 0.000000
-26.490200 0.000000
-26.456400 0.000000
-26.422600 0.000000
-26.388900 0.000000
-26.355100 0.000000
-26.321300 0.000000
-26.287600 0.000000
-26.253800 0.000000
-26.220000 0.000000
-26.186300 0.000000
-26.152500 0.000000
-26.118800 0.000000
-26.085000 0.000000
-26.051200 0.000000
-26.017500 0.000000
-25.983700 0.000000
-25.949900 0.000000
-25.916200 0.000000
-25.882400 0.000000
-25.848700 0.000000
-25.814900 0.000000
-25.781100 0.000000
-25.747400 0.000000
-25.713600 0.000000
-25.679800 0.000000
-25.646100 0.000000
-25.612300 0.000000
-25.578600 0.000000
-25.544800 0.000000
-25.511000 0.000000
-25.477300 0.000000
-25.443500 0.000000
-25.409700 0.000000
-25.376000 0.000000
-25.342200 0.000000
-25.308500 0.000000
-25.274700 0.000000
-25.240900 0.000000
-25.207200 0.000000
-25.173400 0.000000
-25.139600 0.000000
-25.105900 0.000000
-25.072100 0.000000
-25.038400 0.000000
-25.004600 0.000000
-24.970800 0.000000
-24.937100 0.000000
-24.903300 0.000000
-24.869500 0.000000
-24.835800 0.000000
-24.802000 0.000000
-24.768300 0.000000
-24.734500 0.000000
-24.700700 0.000000
-24.667000 0.000000
-24.633200 0.000000
-24.599400 0.000000
-24.565700 0.000000
-24.531900 0.000000
-24.498200 0.000000
-24.464400 0.000000
-24.430600 0.000000
-24.396900 0.000000
-24.363100 0.000000
-24.329300 0.000000
-24.295600 0.000000
-24.261800 0.000000
-24.228100 0.000000
-24.194300 0.000000
-24.160500 0.000000
-24.126800 0.000000
-24.093000 0.000000
-24.059200 0.000000
-24.025500 0.000000
-23.991700 0.000000
-23.958000 0.000000
-23.924200 0.000000
-23.890400 0.000000
-23.856700 0.000000
-23.822900 0.000000
-23.789100 0.000000
-23.755400 0.000000
-23.721600 0.000000
-23.687900 0.000000
-23.654100 0.000000
-23.620300 0.000000
-23.586600 0.000000
-23.552800 0.000000
-23.519000 0.000000
-23.485300 0.000000
-23.451500 0.000000
-23.417700 0.000000
-23.384000 0.000000
-23.350200 0.000000
-23.316500 0.000000
-23.282700 0.000000
-23.248900 0.000000
-23.215200 0.000000
-23.181400 0.000000
-23.147600 0.000000
-23.113900 0.000000
-23.080100 0.000000
-23.046400 0.000000
-23.012600 0.000000
-22.978800 0.000000
-22.945100 0.000000
-22.911300 0.000000
-22.877500 0.000000
-22.843800 0.000000
-22.810000 0.000000
-22.776300 0.000000
-22.742500 0.000000
-22.708700 0.000000
-22.675000 0.000000
-22.641200 0.000000
-22.607400 0.000000
-22.573700 0.000000
-22.539900 0.000000
-22.506200 0.000000
-22.472400 0.000000
-22.438600 0.000000
-22.404900 0.000000
-22.371100 0.000000
-22.337300 0.000000
-22.303600 0.000000
-22.269800 0.000000
-22.236100 0.000000
-22.202300 0.000000
-22.168500 0.000000
-22.134800 0.000000
-22.101000 0.000000
-22.067200 0.000000
-22.033500 0.000000
-21.999700 0.000000
-21.966000 0.000000
-21.932200 0.000000
-21.898400 0.000000
-21.864700 0.000000
-21.830900 0.000000
-21.797100 0.000000
-21.763400 0.000000
-21.729600 0.000000
-21.695900 0.000000
-21.662100 0.000000
-21.628300 0.000000
-21.594600 0.000000
-21.560800 0.000000
-21.527000 0.000000
-21.493300 0.000000
-21.459500 0.000000
-21.425800 0.000000
-21.392000 0.000000
-21.358200 0.000000
-21.324500 0.000000
-21.290700 0.000000
-21.256900 0.000000
-21.223200 0.000000
-21.189400 0.000000
-21.155700 0.000000
-21.121900 0.000000
-21.088100 0.000000
-21.054400 0.000000
-21.020600 0.000000
-20.986800 0.000000
-20.953100 0.000000
-20.919300 0.000000
-20.885600 0.000000
-20.851800 0.000000
-20.818000 0.000000
-20.784300 0.000000
-20.750500 0.000000
-20.716700 0.000000
-20.683000 0.000000
-20.649200 0.000000
-20.615500 0.000000
-20.581700 0.000000
-20.547900 0.000000
-20.514200 0.000000
-20.480400 0.000000
-20.446600 0.000000
-20.412900 0.000000
-20.379100 0.000000
-20.345300 0.000000
-20.311600 0.000000
-20.277800 0.000000
-20.244100 0.000000
-20.210300 0.000000
-20.176500 0.000000
-20.142800 0.000000
-20.109000 0.000000
-20.075200 0.000000
-20.041500 0.000000
-20.007700 0.000000
-19.974000 0.000000
-19.940200 0.000000
-19.906400 0.000000
-19.872700 0.000000
-19.838900 0.000000
-19.805100 0.000000
-19.771400 0.000000
-19.737600 0.000000
-19.703900 0.000000
-19.670100 0.000000
-19.636300 0.000000
-19.602600 0.000000
-19.568800 0.000000
-19.535000 0.000000
-19.501300 0.000000
-19.467500 0.000000
-19.433800 0.000000
-19.400000 0.000000
-19.366200 0.000000
-19.332500 0.000000
-19.298700 0.000000
-19.264900 0.000000
-19.231200 0.000000
-19.197400 0.000000
-19.163700 0.000000
-19.129900 0.000000
-19.096100 0.000000
-19.062400 0.000000
-19.028600 0.000000
-18.994800 0.000000
-18.961100 0.000000
-18.927300 0.000000
-18.893600 0.000000
-18.859800 0.000000
-18.826000 0.000000
-18.792300 0.000000
-18.758500 0.000000
-18.724700 0.000000
-18.691000 0.000000
-18.657200 0.000000
-18.623500 0.000000
-18.589700 0.000000
-18.555900 0.000000
-18.522200 0.000000
-18.488400 0.000000
-18.454600 0.000000
-18.420900 0.000000
-18.387100 0.000000
-18.353400 0.000000
-18.319600 0.000000
-18.285800 0.000000
-18.252100 0.000000
-18.218300 0.000000
-18.184500 0.000000
-18.150800 0.000000
-18.117000 0.000000
-18.083300 0.000000
-18.049500 0.000000
-18.015700 0.000000
-17.982000 0.000000
-17.948200 0.000000
-17.914400 0.000000
-17.880700 0.000000
-17.846900 0.000000
-17.813200 0.000000
-17.779400 0.000000
-17.745600 0.000000
-17.711900 0.000000
-17.678100 0.000000
-17.644300 0.000000
-17.610600 0.000000
-17.576800 0.000000
-17.543000 0.000000
-17.509300 0.000000
-17.475500 0.000000
-17.441800 0.000000
-17.408000 0.000000
-17.374200 0.000000
-17.340500 0.000000
-17.306700 0.000000
-17.272900 0.000000
-17.239200 0.000000
-17.205400 0.000000
-17.171700 0.000000
-17.137900 0.000000
-17.104100 0.000000
-17.070400 0.000000
-17.036600 0.000000
-17.002800 0.000000
-16.969100 0.000000
-16.935300 0.000000
-16.901600 0.000000
-16.867800 0.000000
-16.834000 0.000000
-16.800300 0.000000
-16.766500 0.000000
-16.732700 0.000000
-16.699000 0.000000
-16.665200 0.000000
-16.631500 0.000000
-16.597700 0.000000
-16.563900 0.000000
-16.530200 0.000000
-16.496400 0.000000
-16.462600 0.000000
-16.428900 0.000000
-16.395100 0.000000
-16.361400 0.000000
-16.327600 0.000000
-16.293800 0.033700
-16.260100 0.237900
-16.226300 0.627100
-16.192500 1.142900
-16.158800 1.642000
-16.125000 2.145900
-16.091300 2.520200
-16.057500 2.975700
-16.023700 3.451600
-15.990000 3.932600
-15.956200 4.596700
-15.922400 5.784700
-15.888700 6.886400
-15.854900 10.212000
-15.821200 8.369900
-15.787400 3.845500
-15.753600 2.223900
-15.719900 4.147700
-15.686100 8.677800
-15.652300 11.916900
-15.618600 20.077700
-15.584800 15.888700
-15.551100 10.511000
-15.517300 18.355600
-15.483500 19.238100
-15.449800 18.886300
-15.416000 15.261600
-15.382200 16.192400
-15.348500 15.570500
-15.314700 7.240200
-15.281000 5.475000
-15.247200 5.562800
-15.213400 16.345100
-15.179700 22.570100
-15.145900 12.083200
-15.112100 19.516100
-15.078400 41.934500
-15.044600 0.006400
-15.010900 4.797400
-14.977100 24.676100
-14.943300 22.433000
-14.909600 25.354000
-14.875800 20.800500
-14.842000 17.972600
-14.808300 17.537900
-14.774500 21.691000
-14.740800 27.637000
-14.707000 27.503700
-14.673200 11.065400
-14.639500 7.943700
-14.605700 4.150000
-14.571900 1.705000
-14.538200 0.281100
-14.504400 0.000000
-14.470600 0.000000
-14.436900 0.000000
-14.403100 0.000000
-14.369400 0.000000
-14.335600 0.000000
-14.301800 0.000000
-14.268100 0.000000
-14.234300 0.000000
-14.200500 0.000000
-14.166800 0.000000
-14.133000 0.000000
-14.099300 0.000000
-14.065500 0.000000
-14.031700 0.000000
-13.998000 0.000000
-13.964200 0.000000
-13.930400 0.000000
-13.896700 0.000000
-13.862900 0.000000
-13.829200 0.000000
-13.795400 0.000000
-13.761600 0.000000
-13.727900 0.000000
-13.694100 0.000000
-13.660300 0.000000
-13.626600 0.000000
-13.592800 0.000000
-13.559100 0.000000
-13.525300 0.000000
-13.491500 0.000000
-13.457800 0.000000
-13.424000 0.000000
-13.390200 0.000000
-13.356500 0.000000
-13.322700 0.000000
-13.289000 0.000000
-13.255200 0.000000
-13.221400 0.000000
-13.187700 0.000000
-13.153900 0.000000
-13.120100 0.000000
-13.086400 0.000000
-13.052600 0.000000
-13.018900 0.000000
-12.985100 0.000000
-12.951300 0.000000
-12.917600 0.000000
-12.883800 0.000000
-12.850000 0.000000
-12.816300 0.000000
-12.782500 0.000000
-12.748800 0.000000
-12.715000 0.000000
-12.681200 0.000000
-12.647500 0.000000
-12.613700 0.000000
-12.579900 0.000000
-12.546200 0.000000
-12.512400 0.000000
-12.478700 0.000000
-12.444900 0.000000
-12.411100 0.000000
-12.377400 0.000000
-12.343600 0.000000
-12.309800 0.000000
-12.276100 0.000000
-12.242300 0.000000
-12.208600 0.000000
-12.174800 0.000000
-12.141000 0.000000
-12.107300 0.000000
-12.073500 0.000000
-12.039700 0.000000
-12.006000 0.000000
-11.972200 0.000000
-11.938500 0.000000
-11.904700 0.000000
-11.870900 0.000000
-11.837200 0.000000
-11.803400 0.000000
-11.769600 0.000000
-11.735900 0.000000
-11.702100 0.000000
-11.668300 0.000000
-11.634600 0.000000
-11.600800 0.000000
-11.567100 0.000000
-11.533300 0.000000
-11.499500 0.000000
-11.465800 0.000000
-11.432000 0.000000
-11.398200 0.000000
-11.364500 0.000000
-11.330700 0.000000
-11.297000 0.000000
-11.263200 0.000000
-11.229400 0.000000
-11.195700 0.000000
-11.161900 0.000000
-11.128100 0.000000
-11.094400 0.000000
-11.060600 0.000000
-11.026900 0.000000
-10.993100 0.000000
-10.959300 0.000000
-10.925600 0.000000
-10.891800 0.000000
-10.858000 0.000000
-10.824300 0.000000
-10.790500 0.000000
-10.756800 0.000000
-10.723000 0.000000
-10.689200 0.000000
-10.655500 0.000000
-10.621700 0.000000
-10.587900 0.000000
-10.554200 0.000000
-10.520400 0.000000
-10.486700 0.000000
-10.452900 0.000000
-10.419100 0.000000
-10.385400 0.000000
-10.351600 0.000000
-10.317800 0.000000
-10.284100 0.000000
-10.250300 0.000000
-10.216600 0.000000
-10.182800 0.000000
-10.149000 0.000000
-10.115300 0.000000
-10.081500 0.000000
-10.047700 0.000000
-10.014000 0.000000
-9.980200 0.000000
-9.946500 0.000000
-9.912700 0.000000
-9.878900 0.000000
-9.845200 0.000000
-9.811400 0.000000
-9.777600 0.000000
-9.743900 0.000000
-9.710100 0.000000
-9.676400 0.000000
-9.642600 0.000000
-9.608800 0.000000
-9.575100 0.000000
-9.541300 0.000000
-9.507500 0.000000
-9.473800 0.000000
-9.440000 0.000000
-9.406300 0.000000
-9.372500 0.000000
-9.338700 0.000000
-9.305000 0.000000
-9.271200 0.000000
-9.237400 0.000000
-9.203700 0.000000
-9.169900 0.000000
-9.136200 0.000000
-9.102400 0.000000
-9.068600 0.000000
-9.034900 0.000000
-9.001100 0.000000
-8.967300 0.000000
-8.933600 0.000000
-8.899800 0.000000
-8.866100 0.000000
-8.832300 0.000000
-8.798500 0.000000
-8.764800 0.000000
-8.731000 0.000000
-8.697200 0.000000
-8.663500 0.000000
-8.629700 0.000000
-8.595900 0.000000
-8.562200 0.000000
-8.528400 0.000000
-8.494700 0.000000
-8.460900 0.000000
-8.427100 0.000000
-8.393400 0.000000
-8.359600 0.000000
-8.325800 0.000000
-8.292100 0.000000
-8.258300 0.000000
-8.224600 0.000000
-8.190800 0.000000
-8.157000 0.000000
-8.123300 0.000000
-8.089500 0.000000
-8.055700 0.000000
-8.022000 0.000000
-7.988200 0.000000
-7.954500 0.000000
-7.920700 0.000000
-7.886900 0.000000
-7.853200 0.000000
-7.819400 0.000000
-7.785600 0.000000
-7.751900 0.000000
-7.718100 0.000000
-7.684400 0.000000
-7.650600 0.000000
-7.616800 0.000000
-7.583100 0.000000
-7.549300 0.000000
-7.515500 0.000000
-7.481800 0.000000
-7.448000 0.000000
-7.414300 0.000000
-7.380500 0.000000
-7.346700 0.000000
-7.313000 0.000000
-7.279200 0.000000
-7.245400 0.000000
-7.211700 0.000000
-7.177900 0.000000
-7.144200 0.000000
-7.110400 0.000000
-7.076600 0.000000
-7.042900 0.000000
-7.009100 0.000000
-6.975300 0.000000
-6.941600 0.000000
-6.907800 0.000000
-6.874100 0.000000
-6.840300 0.000000
-6.806500 0.000000
-6.772800 0.000000
-6.739000 0.000000
-6.705200 0.000000
-6.671500 0.000000
-6.637700 0.000000
-6.604000 0.000000
-6.570200 0.000000
-6.536400 0.000000
-6.502700 0.000000
-6.468900 0.000000
-6.435100 0.000000
-6.401400 0.000000
-6.367600 0.000000
-6.333900 0.000000
-6.300100 0.000000
-6.266300 0.000000
-6.232600 0.000000
-6.198800 0.000000
-6.165000 0.000000
-6.131300 0.000000
-6.097500 0.000000
-6.063800 0.000000
-6.030000 0.000000
-5.996200 0.000000
-5.962500 0.000000
-5.928700 0.000000
-5.894900 0.000000
-5.861200 0.000000
-5.827400 0.000000
-5.793600 0.000000
-5.759900 0.000000
-5.726100 0.000000
-5.692400 0.000000
-5.658600 0.000000
-5.624800 0.000000
-5.591100 0.000000
-5.557300 0.000000
-5.523500 0.000000
-5.489800 0.000000
-5.456000 0.000000
-5.422300 0.000000
-5.388500 0.000000
-5.354700 0.000000
-5.321000 0.000000
-5.287200 0.000000
-5.253400 0.000000
-5.219700 0.000000
-5.185900 0.000000
-5.152200 0.000000
-5.118400 0.000000
-5.084600 0.000000
-5.050900 0.000000
-5.017100 0.000000
-4.983300 0.000000
-4.949600 0.000000
-4.915800 0.000000
-4.882100 0.000000
-4.848300 0.000000
-4.814500 0.000000
-4.780800 0.000000
-4.747000 0.000000
-4.713200 0.000000
-4.679500 0.000000
-4.645700 0.000000
-4.612000 0.000000
-4.578200 0.000000
-4.544400 0.000000
-4.510700 0.000000
-4.476900 0.000000
-4.443100 0.000000
-4.409400 0.000000
-4.375600 0.000000
-4.341900 0.000000
-4.308100 0.000000
-4.274300 0.000000
-4.240600 0.000000
-4.206800 0.000000
-4.173000 0.000000
-4.139300 0.000000
-4.105500 0.000000
-4.071800 0.000000
-4.038000 0.000000
-4.004200 0.000000
-3.970500 0.000000
-3.936700 0.000000
-3.902900 0.182900
-3.869200 10.710500
-3.835400 24.298300
-3.801700 20.139000
-3.767900 19.416700
-3.734100 18.901700
-3.700400 14.830800
-3.666600 9.092900
-3.632800 12.623400
-3.599100 15.538800
-3.565300 12.537500
-3.531600 10.274400
-3.497800 9.083600
-3.464000 16.123100
-3.430300 17.326100
-3.396500 16.743700
-3.362700 7.283800
-3.329000 2.054300
-3.295200 2.346200
-3.261500 4.430000
-3.227700 7.716800
-3.193900 12.301300
-3.160200 13.607400
-3.126400 12.527000
-3.092600 10.660200
-3.058900 9.538200
-3.025100 9.677700
-2.991400 11.845300
-2.957600 10.717200
-2.923800 9.907100
-2.890100 9.592800
-2.856300 9.595400
-2.822500 12.809800
-2.788800 16.246100
-2.755000 13.306000
-2.721200 9.787900
-2.687500 8.694700
-2.653700 9.390200
-2.620000 10.615400
-2.586200 11.834600
-2.552400 7.162100
-2.518700 5.238700
-2.484900 6.700600
-2.451100 11.445400
-2.417400 12.711400
-2.383600 9.756200
-2.349900 7.783900
-2.316100 15.755100
-2.282300 27.812400
-2.248600 13.275300
-2.214800 6.008900
-2.181000 10.433700
-2.147300 11.800500
-2.113500 11.504100
-2.079800 8.387200
-2.046000 6.769600
-2.012200 6.160800
-1.978500 8.066400
-1.944700 13.481300
-1.910900 13.713700
-1.877200 10.713800
-1.843400 9.115400
-1.809700 9.239100
-1.775900 9.980700
-1.742100 13.165100
-1.708400 12.823600
-1.674600 9.774900
-1.640800 11.815000
-1.607100 11.349000
-1.573300 11.609000
-1.539600 12.903000
-1.505800 11.312100
-1.472000 10.153800
-1.438300 9.271600
-1.404500 11.442000
-1.370700 10.367800
-1.337000 10.517500
-1.303200 10.557400
-1.269500 11.801300
-1.235700 7.894800
-1.201900 11.781800
-1.168200 14.152500
-1.134400 14.537000
-1.100600 14.243000
-1.066900 13.581800
-1.033100 11.005000
-0.999400 11.064900
-0.965600 13.016500
-0.931800 9.316800
-0.898100 7.898200
-0.864300 9.344700
-0.830500 15.869400
-0.796800 24.281200
-0.763000 11.129700
-0.729300 11.456400
-0.695500 18.453400
-0.661700 15.061000
-0.628000 8.845200
-0.594200 23.190800
-0.560400 14.218100
-0.526700 15.494100
-0.492900 15.591800
-0.459200 16.942600
-0.425400 11.977200
-0.391600 10.252500
-0.357900 12.197700
-0.324100 13.268900
-0.290300 12.899000
-0.256600 10.168400
-0.222800 10.735400
-0.189100 18.250300
-0.155300 14.381600
-0.121500 10.229600
-0.087800 13.298800
-0.054000 13.618400
-0.020200 13.853200
0.013500 12.047200
0.047300 14.878900
0.081100 14.780700
0.114800 14.297100
0.148600 12.372900
0.182300 14.642800
0.216100 12.113700
0.249900 13.731800
0.283600 12.386400
0.317400 13.846900
0.351200 14.951300
0.384900 13.093800
0.418700 11.342700
0.452400 20.893600
0.486200 17.028300
0.520000 15.552200
0.553700 15.478300
0.587500 12.123000
0.621300 12.556900
0.655000 13.085400
0.688800 15.087300
0.722500 22.164700
0.756300 16.708600
0.790100 11.717200
0.823800 8.239900
0.857600 6.898700
0.891400 6.068000
0.925100 4.508200
0.958900 3.553600
0.992600 2.857600
1.026400 1.673600
1.060200 0.512700
1.093900 0.000000
1.127700 0.000000
1.161500 0.000000
1.195200 0.000000
1.229000 0.000000
1.262700 0.000000
1.296500 0.000000
1.330300 0.000000
1.364000 0.000000
1.397800 0.000000
1.431600 0.000000
1.465300 0.000000
1.499100 0.000000
1.532800 0.000000
1.566600 0.000000
1.600400 0.000000
1.634100 0.000000
1.667900 0.000000
1.701700 0.000000
1.735400 0.000000
1.769200 0.000000
1.802900 0.000000
1.836700 0.000000
1.870500 0.000000
1.904200 0.000000
1.938000 0.000000
1.971800 0.000000
2.005500 0.000000
2.039300 0.000000
2.073000 0.000000
2.106800 0.000000
2.140600 0.000000
2.174300 0.000000
2.208100 0.000000
2.241900 0.000000
2.275600 0.000000
2.309400 0.000000
2.343100 0.000000
2.376900 0.000000
2.410700 0.000000
2.444400 0.000000
2.478200 0.000000
2.512000 0.000000
2.545700 0.000000
2.579500 0.000000
2.613200 0.000000
2.647000 0.000000
2.680800 0.000000
2.714500 0.000000
2.748300 0.000000
2.782100 0.000000
2.815800 0.000000
2.849600 0.000000
2.883300 0.000000
2.917100 0.000000
2.950900 0.000000
2.984600 0.000000
3.018400 0.000000
3.052200 0.000000
3.085900 0.000000
3.119700 0.000000
3.153500 0.000000
3.187200 0.000000
3.221000 0.000000
3.254700 0.000000
3.288500 0.000000
3.322300 0.000000
3.356000 0.000000
3.389800 0.000000
3.423600 0.000000
3.457300 0.000000
3.491100 0.000000
3.524800 0.000000
3.558600 0.000000
3.592400 1.242000
3.626100 2.530600
3.659900 3.233100
3.693700 3.943800
3.727400 6.729700
3.761200 8.089900
3.794900 7.099300
3.828700 6.316600
3.862500 6.502800
3.896200 7.699800
3.930000 8.710400
3.963800 8.018900
3.997500 7.200500
4.031300 8.715100
4.065000 10.435900
4.098800 8.380900
4.132600 6.196900
4.166300 3.895300
4.200100 3.808700
4.233900 4.390700
4.267600 3.984900
4.301400 3.808600
4.335100 4.912100
4.368900 6.970000
4.402700 7.645700
4.436400 8.603100
4.470200 10.355600
4.504000 10.517100
4.537700 9.457300
4.571500 7.837600
4.605200 7.087900
4.639000 6.193100
4.672800 5.833800
4.706500 9.354400
4.740300 16.773700
4.774100 13.009900
4.807800 8.652800
4.841600 7.084000
4.875300 6.995100
4.909100 8.755000
4.942900 10.811800
4.976600 12.664200
5.010400 7.837800
5.044200 8.838300
5.077900 9.177500
5.111700 7.352400
5.145400 5.994100
5.179200 5.188600
5.213000 4.970500
5.246700 4.498000
5.280500 6.177700
5.314300 8.977800
5.348000 10.285100
5.381800 11.046800
5.415500 9.874600
5.449300 15.766600
5.483100 11.742800
5.516800 11.513500
5.550600 13.202900
5.584400 11.861300
5.618100 9.901100
5.651900 8.691200
5.685600 7.690500
5.719400 6.767400
5.753200 6.722900
5.786900 6.956800
5.820700 9.413900
5.854500 11.790000
5.888200 10.909000
5.922000 11.839000
5.955700 15.311400
5.989500 16.209700
6.023300 10.711100
6.057000 8.880700
6.090800 11.149600
6.124600 13.930200
6.158300 16.855100
6.192100 15.645100
6.225900 14.154800
6.259600 8.360300
6.293400 4.974600
6.327100 3.107500
6.360900 2.237500
6.394700 1.331700
6.428400 0.464900
6.462200 0.140300
6.496000 0.017300
6.529700 0.000000
6.563500 0.000000
6.597200 0.000000
6.631000 0.000000
6.664800 0.014400
6.698500 0.257300
6.732300 0.557400
6.766100 0.911300
6.799800 1.315000
6.833600 1.757700
6.867300 2.272600
6.901100 3.089100
6.934900 3.957100
6.968600 4.608400
7.002400 5.552500
7.036200 4.929300
7.069900 5.134300
7.103700 5.334000
7.137400 5.560100
7.171200 5.303100
7.205000 5.338700
7.238700 6.253900
7.272500 6.878000
7.306300 5.579100
7.340000 4.848900
7.373800 4.430900
7.407500 4.289800
7.441300 4.280300
7.475100 4.634100
7.508800 5.140400
7.542600 5.888400
7.576400 5.236400
7.610100 4.197000
7.643900 3.485000
7.677600 2.969400
7.711400 2.678800
7.745200 2.782000
7.778900 2.907100
7.812700 3.069800
7.846500 2.920100
7.880200 3.577100
7.914000 4.412100
7.947700 4.979200
7.981500 5.111600
8.015300 4.790500
8.049000 4.365600
8.082800 3.301900
8.116600 2.118100
8.150300 1.836500
8.184100 2.175100
8.217800 3.644800
8.251600 7.930000
8.285400 7.280200
8.319100 6.850600
8.352900 6.421200
8.386700 5.830300
8.420400 5.625200
8.454200 4.660500
8.487900 4.189500
8.521700 4.159600
8.555500 4.153600
8.589200 3.644700
8.623000 3.440300
8.656800 3.594400
8.690500 3.709700
8.724300 3.862400
8.758000 4.514600
8.791800 5.170700
8.825600 5.947000
8.859300 7.983600
8.893100 6.763100
8.926900 3.295000
8.960600 2.803300
8.994400 2.587200
9.028200 2.448000
9.061900 2.697300
9.095700 2.625300
9.129400 1.865300
9.163200 1.408400
9.197000 1.658300
9.230700 2.896400
9.264500 5.040300
9.298300 7.033000
9.332000 9.160000
9.365800 8.376000
9.399500 6.045300
9.433300 3.357000
9.467100 2.502100
9.500800 1.998700
9.534600 2.723700
9.568400 2.932800
9.602100 3.181700
9.635900 3.461400
9.669600 3.648000
9.703400 3.708900
9.737200 3.828200
9.770900 4.010200
9.804700 4.341900
9.838500 5.099300
9.872200 6.103500
9.906000 8.055900
9.939700 7.784900
9.973500 6.026000
10.007300 5.251000
10.041000 5.475600
10.074800 5.810300
10.108600 6.156600
10.142300 6.294900
10.176100 6.425900
10.209800 6.893500
10.243600 7.771800
10.277400 8.264800
10.311100 8.020100
10.344900 6.057300
10.378700 4.753000
10.412400 4.802700
10.446200 3.619400
10.479900 2.702000
10.513700 2.190800
10.547500 2.074200
10.581200 1.975100
10.615000 1.906000
10.648800 1.829800
10.682500 1.738500
10.716300 1.633600
10.750000 1.538100
10.783800 1.460200
10.817600 1.399900
10.851300 1.357100
10.885100 1.349600
10.918900 1.430500
10.952600 1.507400
10.986400 1.583800
11.020100 1.724200
11.053900 1.863600
11.087700 1.983400
11.121400 2.094200
11.155200 2.218300
11.189000 2.300000
11.222700 2.339300
11.256500 2.349000
11.290200 2.342800
11.324000 2.329000
11.357800 2.305800
11.391500 2.279200
11.425300 2.267600
11.459100 2.312600
11.492800 2.387200
11.526600 2.479700
11.560300 2.537200
11.594100 2.426400
11.627900 2.397200
11.661600 2.419600
11.695400 2.423600
11.729200 2.419700
11.762900 2.401800
11.796700 2.369500
11.830400 2.324300
11.864200 2.266300
11.898000 1.862700
11.931700 1.615400
11.965500 1.629000
11.999300 1.665500
12.033000 1.805800
12.066800 1.885500
12.100600 1.920500
12.134300 2.081100
12.168100 2.241600
12.201800 2.459400
12.235600 2.736300
12.269400 3.118400
12.303100 3.659500
12.336900 5.130900
12.370700 4.440000
12.404400 4.147900
12.438200 3.771100
12.471900 3.483300
12.505700 3.315800
12.539500 3.062600
12.573200 3.056100
12.607000 2.886300
12.640800 2.925100
12.674500 2.789500
12.708300 2.828000
12.742000 2.995500
12.775800 3.167300
12.809600 3.340600
12.843300 3.510200
12.877100 3.704700
12.910900 3.833300
12.944600 3.998700
12.978400 4.111800
13.012100 4.224100
13.045900 4.406800
13.079700 4.711500
13.113400 5.038100
13.147200 6.109000
13.181000 4.957300
13.214700 4.291900
13.248500 3.756100
13.282200 3.452400
13.316000 3.320700
13.349800 3.371500
13.383500 3.366300
13.417300 3.337600
13.451100 3.355000
13.484800 3.427700
13.518600 3.534100
13.552300 3.639400
13.586100 3.739100
13.619900 3.835000
13.653600 3.957300
13.687400 4.161000
13.721200 5.014400
13.754900 4.838400
13.788700 4.900700
13.822400 4.738500
13.856200 4.595900
13.890000 4.736100
13.923700 5.124400
13.957500 5.270700
13.991300 5.956700
14.025000 6.825200
14.058800 6.896800
14.092500 5.642400
14.126300 4.855800
14.160100 4.304800
14.193800 4.063900
14.227600 3.734800
14.261400 3.330800
14.295100 3.013000
14.328900 2.797400
14.362600 2.735400
14.396400 2.743100
14.430200 3.052700
14.463900 3.061000
14.497700 3.106800
14.531500 3.147200
14.565200 3.144600
14.599000 3.146300
14.632700 3.110300
14.666500 3.012400
14.700300 2.921900
14.734000 2.948700
14.767800 3.170200
14.801600 4.563700
14.835300 4.819300
14.869100 4.547300
14.902900 4.432500
14.936600 4.256900
14.970400 4.013000
15.004100 3.500800
15.037900 3.403800
15.071700 3.572800
15.105400 3.720500
15.139200 4.023100
15.173000 4.699100
15.206700 5.727000
15.240500 7.054100
15.274200 6.787500
15.308000 6.771600
15.341800 6.470200
15.375500 6.079500
15.409300 6.038400
15.443100 6.410600
15.476800 6.685900
15.510600 6.837400
15.544300 6.393100
15.578100 6.390500
15.611900 6.041100
15.645600 5.479300
15.679400 5.345800
15.713200 5.125700
15.746900 4.957900
15.780700 4.945300
15.814400 5.195100
15.848200 5.373400
15.882000 5.310300
15.915700 5.445600
15.949500 8.057100
15.983300 7.539600
16.017000 8.065500
16.050800 11.970900
16.084500 11.217900
16.118300 9.742500
16.152100 6.794400
16.185800 7.376000
16.219600 6.498700
16.253400 5.803200
16.287100 6.907400
16.320900 7.734100
16.354600 6.673300
16.388400 4.600700
16.422200 4.690400
16.455900 5.848600
16.489700 7.770200
16.523500 7.565000
16.557200 7.522000
16.591000 6.671600
16.624700 5.648200
16.658500 5.296300
16.692300 4.985100
16.726000 12.816800
16.759800 10.549100
16.793600 9.800100
16.827300 9.940300
16.861100 9.766200
16.894800 7.709600
16.928600 6.176000
16.962400 5.163300
16.996100 5.877300
17.029900 6.021500
17.063700 5.916400
17.097400 5.598800
17.131200 6.346300
17.164900 4.884600
17.198700 4.499100
17.232500 4.557800
17.266200 4.851400
17.300000 4.258800
17.333800 3.908200
17.367500 5.510100
17.401300 4.819800
17.435000 4.690100
17.468800 5.387100
17.502600 7.758000
17.536300 8.633300
17.570100 6.552900
17.603900 5.707500
17.637600 5.284600
17.671400 5.377200
17.705100 5.803300
17.738900 5.996300
17.772700 5.898000
17.806400 6.269300
17.840200 4.948900
17.874000 3.661500
17.907700 2.924700
17.941500 2.591300
17.975300 3.057400
18.009000 4.718400
18.042800 5.016000
18.076500 5.226600
18.110300 5.225300
18.144100 5.296800
18.177800 6.706200
18.211600 6.405800
18.245400 6.084400
18.279100 5.483300
18.312900 4.830200
18.346600 5.197500
18.380400 5.519500
18.414200 5.803300
18.447900 5.217800
18.481700 5.014400
18.515500 5.287000
18.549200 5.864300
18.583000 6.145500
18.616700 7.300000
18.650500 7.613400
18.684300 8.154900
18.718000 7.873000
18.751800 7.780600
18.785600 7.259100
18.819300 6.387400
18.853100 5.870600
18.886800 5.885000
18.920600 6.035800
18.954400 7.036300
18.988100 7.852000
19.021900 6.661400
19.055700 6.337400
19.089400 4.381400
19.123200 4.309900
19.156900 4.367200
19.190700 4.527000
19.224500 4.776000
19.258200 5.117600
19.292000 5.497500
19.325800 5.925600
19.359500 6.849800
19.393300 7.498600
19.427000 7.005300
19.460800 5.379600
19.494600 4.511400
19.528300 4.350700
19.562100 4.593100
19.595900 4.995000
19.629600 5.699600
19.663400 9.556400
19.697100 8.798800
19.730900 6.596000
19.764700 6.425300
19.798400 6.191900
19.832200 6.357800
19.866000 6.827500
19.899700 7.387500
19.933500 6.542700
19.967200 5.885100
20.001000 5.483000
20.034800 5.227500
20.068500 5.063500
20.102300 5.009100
20.136100 5.713300
20.169800 5.961900
20.203600 5.985500
20.237300 5.153300
20.271100 4.486900
20.304900 4.149100
20.338600 4.035100
20.372400 4.108900
20.406200 4.337900
20.439900 5.027700
20.473700 6.152600
20.507400 6.298000
20.541200 5.250200
20.575000 5.766700
20.608700 6.424400
20.642500 6.566400
20.676300 5.859000
20.710000 5.617200
20.743800 6.055800
20.777600 5.465200
20.811300 4.685900
20.845100 4.009700
20.878800 3.937800
20.912600 4.248800
20.946400 5.667600
20.980100 5.575200
21.013900 5.378200
21.047700 5.036200
21.081400 4.242400
21.115200 3.956900
21.148900 4.109400
21.182700 4.701900
21.216500 6.130300
21.250200 6.133500
21.284000 5.342500
21.317800 5.357500
21.351500 5.883800
21.385300 5.742600
21.419000 5.556600
21.452800 4.521800
21.486600 4.337800
21.520300 4.616000
21.554100 3.943000
21.587900 3.930800
21.621600 4.349400
21.655400 5.544300
21.689100 6.272000
21.722900 5.792400
21.756700 5.169200
21.790400 4.866400
21.824200 4.176100
21.858000 3.825100
21.891700 3.743900
21.925500 4.054200
21.959200 4.429800
21.993000 5.709300
22.026800 4.631100
22.060500 4.141100
22.094300 4.263900
22.128100 4.727200
22.161800 5.379000
22.195600 5.806000
22.229300 5.996500
22.263100 6.324600
22.296900 4.313500
22.330600 3.658200
22.364400 5.001600
22.398200 8.701100
22.431900 9.177500
22.465700 7.874000
22.499400 6.507100
22.533200 5.833100
22.567000 6.007200
22.600700 4.061900
22.634500 2.923200
22.668300 3.099500
22.702000 3.880800
22.735800 4.884300
22.769500 7.569200
22.803300 7.247000
22.837100 9.391100
22.870800 5.551200
22.904600 5.018500
22.938400 4.973300
22.972100 5.369800
23.005900 6.138300
23.039600 6.910300
23.073400 7.181800
23.107200 4.882300
23.140900 4.128700
23.174700 4.668900
23.208500 5.813600
23.242200 7.452800
23.276000 8.275300
23.309700 7.611400
23.343500 6.820900
23.377300 5.833700
23.411000 5.701500
23.444800 5.575400
23.478600 5.455300
23.512300 5.039200
23.546100 4.598000
23.579800 4.258000
23.613600 4.735500
23.647400 4.365100
23.681100 4.071600
23.714900 3.954400
23.748700 3.883100
23.782400 4.036700
23.816200 4.148400
23.850000 4.218200
23.883700 4.284800
23.917500 4.340400
23.951200 4.373900
23.985000 4.390000
24.018800 4.387700
24.052500 4.203500
24.086300 4.480700
24.120100 4.615600
24.153800 4.766800
24.187600 4.928200
24.221300 4.615200
24.255100 4.726000
24.288900 5.513900
24.322600 6.284800
24.356400 6.718600
24.390200 6.843700
24.423900 6.123200
24.457700 5.508300
24.491400 5.710600
24.525200 7.131700
24.559000 7.061600
24.592700 7.051500
24.626500 7.091300
24.660300 7.041000
24.694000 6.028100
24.727800 5.043600
24.761500 4.579100
24.795300 4.828000
24.829100 5.163700
24.862800 5.530800
24.896600 7.397600
24.930400 8.925200
24.964100 9.514100
24.997900 6.976700
25.031600 4.960000
25.065400 4.103000
25.099200 6.274800
25.132900 6.995400
25.166700 7.565200
25.200500 7.734900
25.234200 7.128900
25.268000 6.998400
25.301700 6.885900
25.335500 6.718800
25.369300 6.377600
25.403000 5.489900
25.436800 4.624000
25.470600 2.953600
25.504300 1.245500
25.538100 0.471100
25.571800 2.171900
25.605600 6.709500
25.639400 8.756600
25.673100 8.345800
25.706900 7.879400
25.740700 7.408000
25.774400 8.670100
25.808200 9.852200
25.841900 8.650000
25.875700 7.039500
25.909500 6.223400
25.943200 5.503500
25.977000 5.059800
26.010800 5.009100
26.044500 9.317500
26.078300 6.788000
26.112000 7.011000
26.145800 7.100100
26.179600 6.400400
26.213300 5.703000
26.247100 5.186600
26.280900 5.098500
26.314600 6.035300
26.348400 7.291700
26.382100 7.589700
26.415900 10.096300
26.449700 7.987200
26.483400 8.109200
26.517200 9.112300
26.551000 9.338400
26.584700 7.758400
26.618500 5.821600
26.652300 4.499900
26.686000 3.801500
26.719800 3.518500
26.753500 3.829400
26.787300 4.828500
26.821100 6.436400
26.854800 8.245400
26.888600 10.103500
26.922400 9.782300
26.956100 7.532700
26.989900 7.577300
27.023600 7.722300
27.057400 8.348800
27.091200 9.417400
27.124900 9.519600
27.158700 8.251600
27.192500 6.961900
27.226200 5.377500
27.260000 3.851200
27.293700 2.080600
27.327500 2.492800
27.361300 5.537000
27.395000 7.549700
27.428800 9.943600
27.462600 7.327500
27.496300 6.491100
27.530100 5.951300
27.563800 5.020700
27.597600 3.665600
27.631400 2.465800
27.665100 3.964600
27.698900 3.505000
27.732700 4.007200
27.766400 5.028400
27.800200 6.757600
27.833900 8.906200
27.867700 7.732100
27.901500 5.653300
27.935200 4.506200
27.969000 4.177100
28.002800 4.393300
28.036500 5.123400
28.070300 5.757200
28.104000 6.939200
28.137800 8.332600
28.171600 8.593500
28.205300 6.251000
28.239100 6.104600
28.272900 6.110000
28.306600 5.985800
28.340400 5.635400
28.374100 5.538500
28.407900 5.650300
28.441700 6.280700
28.475400 6.365200
28.509200 6.340300
28.543000 6.360800
28.576700 6.516100
28.610500 6.927700
28.644200 7.747800
28.678000 8.207900
28.711800 8.438900
28.745500 7.489100
28.779300 5.251900
28.813100 4.510900
28.846800 4.983900
28.880600 5.800500
28.914300 7.023400
28.948100 7.030900
28.981900 7.768900
29.015600 8.247000
29.049400 6.645700
29.083200 5.931700
29.116900 5.456900
29.150700 5.033300
29.184400 5.849400
29.218200 6.611200
29.252000 7.737100
29.285700 8.332400
29.319500 8.455100
29.353300 7.654600
29.387000 6.495300
29.420800 5.735800
29.454500 5.562600
29.488300 5.854700
29.522100 6.284900
29.555800 6.517100
29.589600 6.873200
29.623400 7.179400
29.657100 7.121700
29.690900 6.851000
29.724700 6.272400
29.758400 6.013100
29.792200 6.940400
29.825900 7.200800
29.859700 7.465400
29.893500 7.460600
29.927200 7.066600
29.961000 6.939200
29.994800 6.855800
30.028500 7.146700
30.062300 7.702200
30.096000 8.123700
30.129800 7.975800
30.163600 7.587300
30.197300 7.453000
30.231100 8.012000
30.264900 8.223800
30.298600 8.394100
30.332400 9.123300
30.366100 7.251800
30.399900 6.196400
30.433700 5.644400
30.467400 5.649900
30.501200 6.482700
30.535000 7.938400
30.568700 7.328800
30.602500 6.122900
30.636200 5.080500
30.670000 4.577400
30.703800 4.854300
30.737500 5.215200
30.771300 4.689100
30.805100 4.065000
30.838800 3.654300
30.872600 3.656500
30.906300 3.819900
30.940100 4.054900
30.973900 4.413600
31.007600 5.510500
31.041400 6.714500
31.075200 4.193800
31.108900 2.891200
31.142700 1.940400
31.176400 1.199700
31.210200 0.687800
31.244000 0.293900
31.277700 0.063000
31.311500 0.000000
31.345300 0.000000
31.379000 0.000000
31.412800 0.000000
31.446500 0.000000
31.480300 0.000000
31.514100 0.000000
31.547800 0.000000
31.581600 0.000000
31.615400 0.000000
31.649100 0.000000
31.682900 0.000000
31.716600 0.000000
31.750400 0.000000
31.784200 0.000000
31.817900 0.000000
31.851700 0.000000
31.885500 0.000000
31.919200 0.000000
31.953000 0.000000
31.986700 0.000000
32.020500 0.000000
32.054300 0.000000
32.088000 0.000000
32.121800 0.000000
32.155600 0.000000
32.189300 0.000000
32.223100 0.000000
32.256800 0.000000
32.290600 0.000000
32.324400 0.000000
32.358100 0.000000
32.391900 0.000000
32.425700 0.000000
32.459400 0.000000
32.493200 0.000000
32.527000 0.000000
32.560700 0.000000
32.594500 0.000000
32.628200 0.000000
32.662000 0.000000
32.695800 0.000000
32.729500 0.000000
32.763300 0.000000
32.797100 0.000000
32.830800 0.000000
32.864600 0.000000
32.898300 0.000000
32.932100 0.000000
32.965900 0.000000
32.999600 0.000000
33.033400 0.000000
33.067200 0.000000
33.100900 0.000000
33.134700 0.000000
33.168400 0.000000
33.202200 0.000000
33.236000 0.000000
33.269700 0.000000
33.303500 0.000000
33.337300 0.000000
33.371000 0.000000
33.404800 0.000000
33.438500 0.000000
33.472300 0.000000
33.506100 0.000000
33.539800 0.000000
33.573600 0.000000
33.607400 0.000000
33.641100 0.000000
33.674900 0.000000
33.708600 0.000000
33.742400 0.000000
33.776200 0.000000
33.809900 0.000000
33.843700 0.000000
33.877500 0.000000
33.911200 0.000000
33.945000 0.000000
33.978700 0.000000
34.012500 0.000000
34.046300 0.000000
34.080000 0.000000
34.113800 0.000000
34.147600 0.000000
34.181300 0.000000
34.215100 0.000000
34.248800 0.000000
34.282600 0.000000
34.316400 0.000000
34.350100 0.000000
34.383900 0.000000
e
