set title 'mp-1095275 - Density of States'
set xlabel 'Energy (eV)'
set ylabel 'DOS (states/eV)'
set grid
set xrange [-10:10]
set yrange [0:11.976]
set xzeroaxis lt -1
set terminal png size 800,600
set output 'mp-1095275_dos_gnuplot.png'
plot '-' using 1:2 with lines title 'DOS'
-22.795000 0.000000
-22.776100 0.000000
-22.757200 0.000000
-22.738300 0.000000
-22.719400 0.000000
-22.700500 0.000000
-22.681600 0.000000
-22.662700 0.000000
-22.643800 0.000000
-22.624900 0.000000
-22.606000 0.000000
-22.587100 0.000000
-22.568200 0.000000
-22.549300 0.000000
-22.530500 0.000000
-22.511600 0.000000
-22.492700 0.000000
-22.473800 0.000000
-22.454900 0.000000
-22.436000 0.000000
-22.417100 0.000000
-22.398200 0.000000
-22.379300 0.000000
-22.360400 0.000000
-22.341500 0.000000
-22.322600 0.000000
-22.303700 0.000000
-22.284800 0.000000
-22.265900 0.000000
-22.247000 0.000000
-22.228100 0.000000
-22.209200 0.000000
-22.190300 0.000000
-22.171400 0.000000
-22.152500 0.000000
-22.133600 0.000000
-22.114700 0.000000
-22.095800 0.000000
-22.076900 0.000000
-22.058000 0.000000
-22.039100 0.000000
-22.020300 0.000000
-22.001400 0.000000
-21.982500 0.000000
-21.963600 0.000000
-21.944700 0.000000
-21.925800 0.000000
-21.906900 0.000000
-21.888000 0.000000
-21.869100 0.000000
-21.850200 0.000000
-21.831300 0.000000
-21.812400 0.000000
-21.793500 0.000000
-21.774600 0.000000
-21.755700 0.000000
-21.736800 0.000000
-21.717900 0.000000
-21.699000 0.000000
-21.680100 0.000000
-21.661200 0.000000
-21.642300 0.000000
-21.623400 0.000000
-21.604500 0.000000
-21.585600 0.000000
-21.566700 0.000000
-21.547800 0.000000
-21.528900 0.000000
-21.510100 0.000000
-21.491200 0.000000
-21.472300 0.000000
-21.453400 0.000000
-21.434500 0.000000
-21.415600 0.000000
-21.396700 0.000000
-21.377800 0.000000
-21.358900 0.000000
-21.340000 0.000000
-21.321100 0.000000
-21.302200 0.000000
-21.283300 0.000000
-21.264400 0.000000
-21.245500 0.000000
-21.226600 0.000000
-21.207700 0.000000
-21.188800 0.000000
-21.169900 0.000000
-21.151000 0.000000
-21.132100 0.000000
-21.113200 0.000000
-21.094300 0.000000
-21.075400 315.905200
-21.056500 0.000000
-21.037600 0.000000
-21.018700 0.000000
-20.999900 0.000000
-20.981000 123.019800
-20.962100 0.000000
-20.943200 0.000000
-20.924300 1176.726100
-20.905400 307.649400
-20.886500 885.879000
-20.867600 505.547600
-20.848700 0.000000
-20.829800 0.000000
-20.810900 0.000000
-20.792000 0.000000
-20.773100 0.000000
-20.754200 0.000000
-20.735300 0.000000
-20.716400 0.000000
-20.697500 0.000000
-20.678600 0.000000
-20.659700 0.000000
-20.640800 0.000000
-20.621900 0.000000
-20.603000 0.000000
-20.584100 0.000000
-20.565200 0.000000
-20.546300 0.000000
-20.527400 0.000000
-20.508600 0.000000
-20.489700 0.000000
-20.470800 0.000000
-20.451900 0.000000
-20.433000 0.000000
-20.414100 0.000000
-20.395200 0.000000
-20.376300 0.000000
-20.357400 0.000000
-20.338500 0.000000
-20.319600 0.000000
-20.300700 0.000000
-20.281800 0.000000
-20.262900 0.000000
-20.244000 0.000000
-20.225100 0.000000
-20.206200 0.000000
-20.187300 0.000000
-20.168400 0.000000
-20.149500 0.000000
-20.130600 0.000000
-20.111700 0.000000
-20.092800 0.000000
-20.073900 0.000000
-20.055000 0.000000
-20.036100 0.000000
-20.017200 0.000000
-19.998400 0.000000
-19.979500 0.000000
-19.960600 0.000000
-19.941700 0.000000
-19.922800 0.000000
-19.903900 0.000000
-19.885000 0.000000
-19.866100 0.000000
-19.847200 0.000000
-19.828300 0.000000
-19.809400 0.000000
-19.790500 0.000000
-19.771600 0.000000
-19.752700 0.000000
-19.733800 0.000000
-19.714900 0.000000
-19.696000 0.000000
-19.677100 0.000000
-19.658200 0.000000
-19.639300 0.000000
-19.620400 0.000000
-19.601500 0.000000
-19.582600 0.000000
-19.563700 0.000000
-19.544800 0.000000
-19.525900 0.000000
-19.507000 0.000000
-19.488200 0.000000
-19.469300 0.000000
-19.450400 0.000000
-19.431500 0.000000
-19.412600 0.000000
-19.393700 0.000000
-19.374800 0.000000
-19.355900 0.000000
-19.337000 0.000000
-19.318100 0.000000
-19.299200 0.000000
-19.280300 0.000000
-19.261400 0.000000
-19.242500 0.000000
-19.223600 0.000000
-19.204700 0.000000
-19.185800 0.000000
-19.166900 0.000000
-19.148000 0.000000
-19.129100 0.000000
-19.110200 0.000000
-19.091300 0.000000
-19.072400 0.000000
-19.053500 0.000000
-19.034600 0.000000
-19.015700 0.000000
-18.996900 0.000000
-18.978000 0.000000
-18.959100 0.000000
-18.940200 0.000000
-18.921300 0.000000
-18.902400 0.000000
-18.883500 0.000000
-18.864600 0.000000
-18.845700 0.000000
-18.826800 0.000000
-18.807900 0.000000
-18.789000 0.000000
-18.770100 0.000000
-18.751200 0.000000
-18.732300 0.000000
-18.713400 0.000000
-18.694500 0.000000
-18.675600 0.000000
-18.656700 0.000000
-18.637800 0.000000
-18.618900 0.000000
-18.600000 0.000000
-18.581100 0.000000
-18.562200 0.000000
-18.543300 0.000000
-18.524400 0.000000
-18.505500 0.000000
-18.486700 0.000000
-18.467800 0.000000
-18.448900 0.000000
-18.430000 0.000000
-18.411100 0.000000
-18.392200 0.000000
-18.373300 0.000000
-18.354400 0.000000
-18.335500 0.000000
-18.316600 0.000000
-18.297700 0.000000
-18.278800 0.000000
-18.259900 0.000000
-18.241000 0.000000
-18.222100 0.000000
-18.203200 0.000000
-18.184300 0.000000
-18.165400 0.000000
-18.146500 0.000000
-18.127600 0.000000
-18.108700 0.000000
-18.089800 0.000000
-18.070900 0.000000
-18.052000 0.000000
-18.033100 0.000000
-18.014200 0.000000
-17.995300 0.000000
-17.976500 0.000000
-17.957600 0.000000
-17.938700 0.000000
-17.919800 0.000000
-17.900900 0.000000
-17.882000 0.000000
-17.863100 0.000000
-17.844200 0.000000
-17.825300 0.000000
-17.806400 0.000000
-17.787500 0.000000
-17.768600 0.000000
-17.749700 0.000000
-17.730800 0.000000
-17.711900 0.000000
-17.693000 0.000000
-17.674100 0.000000
-17.655200 0.000000
-17.636300 0.000000
-17.617400 0.000000
-17.598500 0.000000
-17.579600 0.000000
-17.560700 0.000000
-17.541800 0.000000
-17.522900 0.000000
-17.504000 0.000000
-17.485200 0.000000
-17.466300 0.000000
-17.447400 0.000000
-17.428500 0.000000
-17.409600 0.000000
-17.390700 0.000000
-17.371800 0.000000
-17.352900 0.000000
-17.334000 0.000000
-17.315100 0.000000
-17.296200 0.000000
-17.277300 0.000000
-17.258400 0.000000
-17.239500 0.000000
-17.220600 0.000000
-17.201700 0.000000
-17.182800 0.000000
-17.163900 0.000000
-17.145000 0.000000
-17.126100 0.000000
-17.107200 0.000000
-17.088300 0.000000
-17.069400 0.000000
-17.050500 0.000000
-17.031600 0.000000
-17.012700 0.000000
-16.993800 0.000000
-16.975000 0.000000
-16.956100 0.000000
-16.937200 0.000000
-16.918300 0.000000
-16.899400 0.000000
-16.880500 0.000000
-16.861600 0.000000
-16.842700 0.000000
-16.823800 0.000000
-16.804900 0.000000
-16.786000 0.000000
-16.767100 0.000000
-16.748200 0.000000
-16.729300 0.000000
-16.710400 0.000000
-16.691500 0.000000
-16.672600 0.000000
-16.653700 0.000000
-16.634800 0.000000
-16.615900 0.000000
-16.597000 0.000000
-16.578100 0.000000
-16.559200 0.000000
-16.540300 0.000000
-16.521400 0.000000
-16.502500 0.000000
-16.483600 0.000000
-16.464800 0.000000
-16.445900 0.000000
-16.427000 0.000000
-16.408100 0.000000
-16.389200 0.000000
-16.370300 0.000000
-16.351400 0.000000
-16.332500 0.000000
-16.313600 0.000000
-16.294700 0.000000
-16.275800 0.000000
-16.256900 0.000000
-16.238000 0.000000
-16.219100 0.000000
-16.200200 0.000000
-16.181300 0.000000
-16.162400 0.000000
-16.143500 0.000000
-16.124600 0.000000
-16.105700 0.000000
-16.086800 0.000000
-16.067900 0.000000
-16.049000 0.000000
-16.030100 0.000000
-16.011200 0.000000
-15.992300 0.000000
-15.973400 0.000000
-15.954600 0.000000
-15.935700 0.000000
-15.916800 0.000000
-15.897900 0.000000
-15.879000 0.000000
-15.860100 0.000000
-15.841200 0.000000
-15.822300 0.000000
-15.803400 0.000000
-15.784500 0.000000
-15.765600 0.000000
-15.746700 0.000000
-15.727800 0.000000
-15.708900 0.000000
-15.690000 0.000000
-15.671100 0.000000
-15.652200 0.000000
-15.633300 0.000000
-15.614400 0.000000
-15.595500 0.000000
-15.576600 0.000000
-15.557700 0.000000
-15.538800 0.000000
-15.519900 0.000000
-15.501000 0.000000
-15.482100 0.000000
-15.463300 0.000000
-15.444400 0.000000
-15.425500 0.000000
-15.406600 0.000000
-15.387700 0.000000
-15.368800 0.000000
-15.349900 0.000000
-15.331000 0.000000
-15.312100 0.000000
-15.293200 0.000000
-15.274300 0.000000
-15.255400 0.000000
-15.236500 0.000000
-15.217600 0.000000
-15.198700 0.000000
-15.179800 0.000000
-15.160900 0.000000
-15.142000 0.000000
-15.123100 0.000000
-15.104200 0.000000
-15.085300 0.000000
-15.066400 0.000000
-15.047500 0.000000
-15.028600 0.000000
-15.009700 0.000000
-14.990800 0.000000
-14.971900 0.000000
-14.953100 0.000000
-14.934200 0.000000
-14.915300 0.000000
-14.896400 0.000000
-14.877500 0.000000
-14.858600 0.000000
-14.839700 0.000000
-14.820800 0.000000
-14.801900 0.000000
-14.783000 0.000000
-14.764100 0.000000
-14.745200 0.000000
-14.726300 0.000000
-14.707400 0.000000
-14.688500 0.000000
-14.669600 0.000000
-14.650700 0.000000
-14.631800 0.000000
-14.612900 0.000000
-14.594000 0.000000
-14.575100 0.000000
-14.556200 0.000000
-14.537300 0.000000
-14.518400 0.000000
-14.499500 0.000000
-14.480600 0.000000
-14.461700 0.000000
-14.442900 0.000000
-14.424000 0.000000
-14.405100 0.000000
-14.386200 0.000000
-14.367300 0.000000
-14.348400 0.000000
-14.329500 0.000000
-14.310600 0.000000
-14.291700 0.000000
-14.272800 0.000000
-14.253900 0.000000
-14.235000 0.000000
-14.216100 0.000000
-14.197200 0.000000
-14.178300 0.000000
-14.159400 0.000000
-14.140500 0.000000
-14.121600 0.000000
-14.102700 0.000000
-14.083800 0.000000
-14.064900 0.000000
-14.046000 0.000000
-14.027100 0.000000
-14.008200 0.000000
-13.989300 0.000000
-13.970400 0.000000
-13.951600 0.000000
-13.932700 0.000000
-13.913800 0.000000
-13.894900 0.000000
-13.876000 0.000000
-13.857100 0.000000
-13.838200 0.000000
-13.819300 0.000000
-13.800400 0.000000
-13.781500 0.000000
-13.762600 0.000000
-13.743700 0.000000
-13.724800 0.000000
-13.705900 0.000000
-13.687000 0.000000
-13.668100 0.000000
-13.649200 0.000000
-13.630300 0.000000
-13.611400 0.000000
-13.592500 0.000000
-13.573600 0.000000
-13.554700 0.000000
-13.535800 0.000000
-13.516900 0.000000
-13.498000 0.000000
-13.479100 0.000000
-13.460200 0.000000
-13.441400 0.000000
-13.422500 0.000000
-13.403600 0.000000
-13.384700 0.000000
-13.365800 0.000000
-13.346900 0.000000
-13.328000 0.000000
-13.309100 0.000000
-13.290200 0.000000
-13.271300 0.000000
-13.252400 0.000000
-13.233500 0.000000
-13.214600 0.000000
-13.195700 0.000000
-13.176800 0.000000
-13.157900 0.000000
-13.139000 0.000000
-13.120100 0.000000
-13.101200 0.000000
-13.082300 0.000000
-13.063400 0.000000
-13.044500 0.000000
-13.025600 0.000000
-13.006700 0.000000
-12.987800 0.000000
-12.968900 0.000000
-12.950000 0.000000
-12.931200 0.000000
-12.912300 0.000000
-12.893400 0.000000
-12.874500 0.000000
-12.855600 0.000000
-12.836700 0.000000
-12.817800 0.000000
-12.798900 0.000000
-12.780000 0.000000
-12.761100 0.000000
-12.742200 0.000000
-12.723300 0.000000
-12.704400 0.000000
-12.685500 0.000000
-12.666600 0.000000
-12.647700 0.000000
-12.628800 0.000000
-12.609900 0.000000
-12.591000 0.000000
-12.572100 0.000000
-12.553200 0.000000
-12.534300 0.000000
-12.515400 0.000000
-12.496500 0.000000
-12.477600 0.000000
-12.458700 0.000000
-12.439900 0.000000
-12.421000 0.000000
-12.402100 0.000000
-12.383200 0.000000
-12.364300 0.000000
-12.345400 0.000000
-12.326500 0.000000
-12.307600 0.000000
-12.288700 0.000000
-12.269800 0.000000
-12.250900 0.000000
-12.232000 0.000000
-12.213100 0.000000
-12.194200 0.000000
-12.175300 0.000000
-12.156400 0.000000
-12.137500 0.000000
-12.118600 0.000000
-12.099700 0.000000
-12.080800 0.000000
-12.061900 0.000000
-12.043000 0.000000
-12.024100 0.000000
-12.005200 0.000000
-11.986300 0.000000
-11.967400 0.000000
-11.948500 0.000000
-11.929700 0.000000
-11.910800 0.000000
-11.891900 0.000000
-11.873000 0.000000
-11.854100 0.000000
-11.835200 0.000000
-11.816300 0.000000
-11.797400 0.000000
-11.778500 0.000000
-11.759600 0.000000
-11.740700 0.000000
-11.721800 0.000000
-11.702900 0.000000
-11.684000 0.000000
-11.665100 0.000000
-11.646200 0.000000
-11.627300 0.000000
-11.608400 0.000000
-11.589500 0.000000
-11.570600 0.000000
-11.551700 0.000000
-11.532800 0.000000
-11.513900 0.000000
-11.495000 0.000000
-11.476100 0.000000
-11.457200 0.000000
-11.438300 0.000000
-11.419500 0.000000
-11.400600 0.000000
-11.381700 0.000000
-11.362800 0.000000
-11.343900 0.000000
-11.325000 0.000000
-11.306100 0.000000
-11.287200 0.000000
-11.268300 0.000000
-11.249400 0.000000
-11.230500 0.000000
-11.211600 0.000000
-11.192700 0.000000
-11.173800 0.000000
-11.154900 0.000000
-11.136000 0.000000
-11.117100 0.000000
-11.098200 0.000000
-11.079300 0.000000
-11.060400 0.000000
-11.041500 0.000000
-11.022600 0.000000
-11.003700 0.000000
-10.984800 0.000000
-10.965900 0.000000
-10.947000 0.000000
-10.928100 0.000000
-10.909300 0.000000
-10.890400 0.000000
-10.871500 0.000000
-10.852600 0.000000
-10.833700 0.000000
-10.814800 0.000000
-10.795900 0.000000
-10.777000 0.000000
-10.758100 0.000000
-10.739200 0.000000
-10.720300 0.000000
-10.701400 0.000000
-10.682500 0.000000
-10.663600 0.000000
-10.644700 0.000000
-10.625800 0.000000
-10.606900 0.000000
-10.588000 0.000000
-10.569100 0.000000
-10.550200 0.000000
-10.531300 0.000000
-10.512400 0.000000
-10.493500 0.000000
-10.474600 0.000000
-10.455700 0.000000
-10.436800 0.000000
-10.418000 0.000000
-10.399100 0.000000
-10.380200 0.000000
-10.361300 0.000000
-10.342400 0.000000
-10.323500 0.000000
-10.304600 0.000000
-10.285700 0.000000
-10.266800 0.000000
-10.247900 0.000000
-10.229000 0.000000
-10.210100 0.000000
-10.191200 0.000000
-10.172300 0.000000
-10.153400 0.000000
-10.134500 0.000000
-10.115600 0.000000
-10.096700 0.000000
-10.077800 0.000000
-10.058900 0.000000
-10.040000 0.000000
-10.021100 0.000000
-10.002200 0.000000
-9.983300 0.000000
-9.964400 0.000000
-9.945500 0.000000
-9.926600 0.000000
-9.907800 0.000000
-9.888900 0.000000
-9.870000 0.000000
-9.851100 0.000000
-9.832200 0.000000
-9.813300 0.000000
-9.794400 0.000000
-9.775500 0.000000
-9.756600 0.000000
-9.737700 0.000000
-9.718800 0.000000
-9.699900 0.000000
-9.681000 0.088900
-9.662100 0.456400
-9.643200 0.656600
-9.624300 0.764900
-9.605400 0.905000
-9.586500 1.046200
-9.567600 1.196000
-9.548700 1.333900
-9.529800 1.466300
-9.510900 1.616400
-9.492000 1.871000
-9.473100 2.131800
-9.454200 2.314000
-9.435300 2.512600
-9.416400 2.782300
-9.397600 2.495100
-9.378700 1.976200
-9.359800 1.795700
-9.340900 1.701600
-9.322000 1.592300
-9.303100 1.467500
-9.284200 1.360100
-9.265300 1.317000
-9.246400 1.373500
-9.227500 1.464300
-9.208600 1.626500
-9.189700 1.752400
-9.170800 1.773400
-9.151900 1.969700
-9.133000 2.243600
-9.114100 2.291800
-9.095200 2.284400
-9.076300 2.311600
-9.057400 2.313900
-9.038500 2.354300
-9.019600 2.384900
-9.000700 2.426600
-8.981800 2.513900
-8.962900 2.614800
-8.944000 2.713600
-8.925100 2.771000
-8.906300 2.729500
-8.887400 2.685900
-8.868500 2.665400
-8.849600 2.642500
-8.830700 2.752500
-8.811800 2.520200
-8.792900 2.365800
-8.774000 2.235700
-8.755100 2.163200
-8.736200 2.100800
-8.717300 2.039800
-8.698400 2.147000
-8.679500 2.479900
-8.660600 2.569200
-8.641700 2.662800
-8.622800 2.862400
-8.603900 3.083300
-8.585000 3.123400
-8.566100 3.086700
-8.547200 3.097900
-8.528300 3.120400
-8.509400 3.139400
-8.490500 3.139400
-8.471600 3.156400
-8.452700 3.188400
-8.433800 3.229900
-8.414900 3.349100
-8.396100 3.482700
-8.377200 3.693800
-8.358300 3.871400
-8.339400 3.666000
-8.320500 3.260200
-8.301600 3.065400
-8.282700 2.993200
-8.263800 2.895900
-8.244900 2.781200
-8.226000 2.726900
-8.207100 2.826400
-8.188200 2.935400
-8.169300 3.047400
-8.150400 3.284000
-8.131500 3.568300
-8.112600 3.564500
-8.093700 3.467400
-8.074800 3.431200
-8.055900 3.451300
-8.037000 3.469400
-8.018100 3.475200
-7.999200 3.471200
-7.980300 3.480800
-7.961400 3.498000
-7.942500 3.515300
-7.923600 3.525000
-7.904700 3.532300
-7.885900 3.545200
-7.867000 3.565000
-7.848100 3.586700
-7.829200 3.638800
-7.810300 3.711600
-7.791400 3.836300
-7.772500 4.007600
-7.753600 4.416300
-7.734700 4.230200
-7.715800 3.858600
-7.696900 3.681800
-7.678000 3.624200
-7.659100 3.631200
-7.640200 3.665800
-7.621300 4.028700
-7.602400 4.377000
-7.583500 4.750500
-7.564600 4.978100
-7.545700 5.319000
-7.526800 5.760900
-7.507900 5.809600
-7.489000 5.216500
-7.470100 5.319100
-7.451200 6.172100
-7.432300 5.975900
-7.413400 5.259600
-7.394600 4.891400
-7.375700 4.767600
-7.356800 4.698300
-7.337900 4.703900
-7.319000 5.022400
-7.300100 5.466300
-7.281200 5.679500
-7.262300 4.813500
-7.243400 3.703800
-7.224500 3.366700
-7.205600 3.522700
-7.186700 4.266100
-7.167800 5.194300
-7.148900 5.478500
-7.130000 5.617400
-7.111100 6.184600
-7.092200 6.688000
-7.073300 6.963400
-7.054400 7.239300
-7.035500 6.674000
-7.016600 5.344300
-6.997700 4.633700
-6.978800 4.837600
-6.959900 6.212200
-6.941000 7.203200
-6.922100 6.860600
-6.903200 6.778100
-6.884400 6.611100
-6.865500 5.802300
-6.846600 5.535200
-6.827700 5.378200
-6.808800 5.185900
-6.789900 5.089600
-6.771000 5.320000
-6.752100 6.632400
-6.733200 6.991600
-6.714300 7.320500
-6.695400 7.593500
-6.676500 6.819800
-6.657600 6.567100
-6.638700 3.611800
-6.619800 3.252000
-6.600900 3.665100
-6.582000 3.971200
-6.563100 4.241500
-6.544200 2.740400
-6.525300 2.546500
-6.506400 2.548500
-6.487500 2.664200
-6.468600 2.826900
-6.449700 3.147500
-6.430800 3.556800
-6.411900 3.560200
-6.393000 3.181300
-6.374200 2.507800
-6.355300 2.067600
-6.336400 1.502700
-6.317500 1.178800
-6.298600 0.308600
-6.279700 0.000000
-6.260800 0.000000
-6.241900 0.000000
-6.223000 0.000000
-6.204100 0.000000
-6.185200 0.000000
-6.166300 0.000000
-6.147400 0.000000
-6.128500 0.000000
-6.109600 0.000000
-6.090700 0.000000
-6.071800 0.000000
-6.052900 0.000000
-6.034000 0.000000
-6.015100 0.000000
-5.996200 0.000000
-5.977300 0.000000
-5.958400 0.000000
-5.939500 0.000000
-5.920600 0.000000
-5.901700 0.000000
-5.882800 0.000000
-5.864000 0.000000
-5.845100 0.000000
-5.826200 0.000000
-5.807300 0.000000
-5.788400 0.001200
-5.769500 0.074300
-5.750600 0.175500
-5.731700 0.275300
-5.712800 0.419600
-5.693900 0.678800
-5.675000 0.850100
-5.656100 0.989100
-5.637200 1.059900
-5.618300 1.051300
-5.599400 1.082300
-5.580500 1.127100
-5.561600 1.179800
-5.542700 1.240200
-5.523800 1.305200
-5.504900 1.372000
-5.486000 1.431800
-5.467100 1.496400
-5.448200 1.579500
-5.429300 1.652400
-5.410400 1.727400
-5.391500 1.839800
-5.372700 1.990500
-5.353800 2.139000
-5.334900 2.334200
-5.316000 2.702600
-5.297100 3.268200
-5.278200 3.811400
-5.259300 3.449600
-5.240400 3.439800
-5.221500 3.316100
-5.202600 3.252900
-5.183700 3.192000
-5.164800 3.064600
-5.145900 2.947000
-5.127000 2.863700
-5.108100 2.853000
-5.089200 2.999300
-5.070300 3.159100
-5.051400 3.550500
-5.032500 3.189400
-5.013600 3.769100
-4.994700 4.186100
-4.975800 4.018400
-4.956900 3.572200
-4.938000 3.372200
-4.919100 3.300600
-4.900200 3.252900
-4.881300 3.232100
-4.862500 3.301400
-4.843600 3.552600
-4.824700 3.519500
-4.805800 3.254400
-4.786900 2.680000
-4.768000 2.669300
-4.749100 2.674200
-4.730200 2.724200
-4.711300 2.678000
-4.692400 2.631200
-4.673500 2.613000
-4.654600 2.660400
-4.635700 2.660400
-4.616800 2.548200
-4.597900 2.432100
-4.579000 2.344000
-4.560100 2.255100
-4.541200 2.061900
-4.522300 1.875100
-4.503400 1.736700
-4.484500 1.663000
-4.465600 1.620800
-4.446700 1.601600
-4.427800 1.615400
-4.408900 1.679700
-4.390000 1.818800
-4.371100 1.863800
-4.352300 1.935700
-4.333400 1.985800
-4.314500 1.986300
-4.295600 1.966400
-4.276700 1.993800
-4.257800 2.046400
-4.238900 2.056300
-4.220000 2.029400
-4.201100 2.003900
-4.182200 1.996300
-4.163300 1.986500
-4.144400 1.953200
-4.125500 1.911400
-4.106600 2.577300
-4.087700 5.780300
-4.068800 6.212300
-4.049900 5.516000
-4.031000 4.799600
-4.012100 4.022100
-3.993200 3.653800
-3.974300 3.369300
-3.955400 3.193000
-3.936500 3.065000
-3.917600 2.966300
-3.898700 3.008000
-3.879800 4.165400
-3.861000 4.456500
-3.842100 4.537100
-3.823200 4.503400
-3.804300 4.608100
-3.785400 5.297600
-3.766500 4.668700
-3.747600 4.340900
-3.728700 4.273400
-3.709800 4.489700
-3.690900 4.365800
-3.672000 4.108300
-3.653100 3.410900
-3.634200 3.353800
-3.615300 3.317200
-3.596400 3.286500
-3.577500 3.276400
-3.558600 3.254600
-3.539700 3.269500
-3.520800 3.252300
-3.501900 3.230700
-3.483000 3.242100
-3.464100 3.287400
-3.445200 3.372200
-3.426300 3.583500
-3.407400 3.833400
-3.388500 3.784100
-3.369600 3.741300
-3.350800 3.712500
-3.331900 3.758300
-3.313000 3.820800
-3.294100 3.872800
-3.275200 3.955900
-3.256300 4.072400
-3.237400 4.428500
-3.218500 7.647300
-3.199600 7.195000
-3.180700 6.137000
-3.161800 5.185800
-3.142900 5.094300
-3.124000 5.371900
-3.105100 5.411400
-3.086200 5.282500
-3.067300 5.410600
-3.048400 3.400600
-3.029500 2.986400
-3.010600 3.078100
-2.991700 3.260900
-2.972800 3.321500
-2.953900 3.434800
-2.935000 3.595200
-2.916100 4.019300
-2.897200 3.789000
-2.878300 3.286800
-2.859400 2.968600
-2.840600 2.685400
-2.821700 2.436500
-2.802800 2.234900
-2.783900 2.124500
-2.765000 2.082100
-2.746100 2.055700
-2.727200 2.052700
-2.708300 2.073700
-2.689400 2.075700
-2.670500 2.075500
-2.651600 2.075000
-2.632700 2.093500
-2.613800 2.115300
-2.594900 2.119900
-2.576000 2.101500
-2.557100 2.035600
-2.538200 2.057300
-2.519300 2.020300
-2.500400 1.777400
-2.481500 1.554600
-2.462600 1.508800
-2.443700 1.577600
-2.424800 1.907700
-2.405900 2.620600
-2.387000 2.843500
-2.368100 2.631900
-2.349300 2.570500
-2.330400 2.496900
-2.311500 2.459800
-2.292600 2.466300
-2.273700 2.551500
-2.254800 2.491200
-2.235900 2.404300
-2.217000 2.309900
-2.198100 2.148100
-2.179200 2.039800
-2.160300 1.972300
-2.141400 1.906600
-2.122500 1.849600
-2.103600 1.805900
-2.084700 1.774700
-2.065800 1.747100
-2.046900 1.717200
-2.028000 1.684200
-2.009100 1.648700
-1.990200 1.616800
-1.971300 1.570000
-1.952400 1.523100
-1.933500 1.487300
-1.914600 1.438900
-1.895700 1.402600
-1.876800 1.387300
-1.857900 1.371300
-1.839100 1.354000
-1.820200 1.337100
-1.801300 1.326500
-1.782400 1.324400
-1.763500 1.330900
-1.744600 1.335000
-1.725700 1.464700
-1.706800 1.135300
-1.687900 0.872200
-1.669000 0.788700
-1.650100 0.817700
-1.631200 0.932600
-1.612300 1.001800
-1.593400 1.061000
-1.574500 1.110400
-1.555600 1.157000
-1.536700 1.158500
-1.517800 1.168900
-1.498900 1.180900
-1.480000 1.205600
-1.461100 1.235200
-1.442200 1.270400
-1.423300 1.306000
-1.404400 1.355200
-1.385500 1.395600
-1.366600 1.425100
-1.347700 1.588300
-1.328900 1.887500
-1.310000 2.188100
-1.291100 2.533800
-1.272200 2.460800
-1.253300 2.322700
-1.234400 2.322700
-1.215500 2.250000
-1.196600 2.168800
-1.177700 2.131400
-1.158800 2.125800
-1.139900 2.182200
-1.121000 2.253600
-1.102100 2.358700
-1.083200 2.488700
-1.064300 2.674600
-1.045400 2.870900
-1.026500 3.221000
-1.007600 3.455500
-0.988700 3.319700
-0.969800 3.379800
-0.950900 3.207800
-0.932000 3.056100
-0.913100 2.949100
-0.894200 2.912200
-0.875300 3.106600
-0.856400 3.357600
-0.837500 3.646900
-0.818700 3.973600
-0.799800 4.140300
-0.780900 4.572900
-0.762000 4.678300
-0.743100 4.735700
-0.724200 4.690700
-0.705300 4.684300
-0.686400 4.724800
-0.667500 4.908300
-0.648600 5.621400
-0.629700 6.357500
-0.610800 6.910900
-0.591900 6.751700
-0.573000 6.712600
-0.554100 6.887700
-0.535200 7.223600
-0.516300 7.358900
-0.497400 7.407900
-0.478500 7.627200
-0.459600 7.550000
-0.440700 6.915700
-0.421800 6.299200
-0.402900 6.460700
-0.384000 7.401400
-0.365100 7.532900
-0.346200 7.256900
-0.327400 7.125100
-0.308500 7.136600
-0.289600 6.964300
-0.270700 6.810400
-0.251800 6.788700
-0.232900 6.712200
-0.214000 6.637800
-0.195100 6.685600
-0.176200 7.049200
-0.157300 6.792800
-0.138400 6.992300
-0.119500 6.936800
-0.100600 7.053700
-0.081700 6.994300
-0.062800 7.027100
-0.043900 7.021700
-0.025000 6.832200
-0.006100 6.447600
0.012800 5.614400
0.031700 5.622800
0.050600 5.777000
0.069500 5.771600
0.088400 5.766500
0.107300 5.775500
0.126200 6.440700
0.145100 6.932800
0.164000 7.194600
0.182800 7.228300
0.201700 6.985200
0.220600 6.515800
0.239500 6.000500
0.258400 5.758500
0.277300 5.708600
0.296200 5.417700
0.315100 5.424900
0.334000 5.195700
0.352900 5.092300
0.371800 4.987800
0.390700 5.042100
0.409600 5.295200
0.428500 5.761300
0.447400 6.336000
0.466300 6.921700
0.485200 7.450100
0.504100 8.206100
0.523000 8.582000
0.541900 8.263800
0.560800 8.167100
0.579700 8.378200
0.598600 8.398700
0.617500 8.969300
0.636400 8.613600
0.655300 8.710300
0.674200 9.197500
0.693000 9.341400
0.711900 8.830000
0.730800 8.295600
0.749700 7.993900
0.768600 7.711700
0.787500 7.409200
0.806400 7.259300
0.825300 7.180500
0.844200 7.368500
0.863100 6.988700
0.882000 6.996300
0.900900 7.228400
0.919800 7.460900
0.938700 7.618200
0.957600 8.204200
0.976500 9.439500
0.995400 10.037900
1.014300 9.396300
1.033200 9.038400
1.052100 8.230000
1.071000 7.727500
1.089900 7.445800
1.108800 7.354000
1.127700 7.585400
1.146600 7.987200
1.165500 8.179300
1.184300 8.269500
1.203200 8.498000
1.222100 8.454300
1.241000 8.160100
1.259900 8.044700
1.278800 8.169900
1.297700 8.504000
1.316600 8.138500
1.335500 8.045800
1.354400 7.913300
1.373300 8.008200
1.392200 8.247600
1.411100 8.765900
1.430000 9.334600
1.448900 9.434800
1.467800 9.543700
1.486700 9.854000
1.505600 9.779600
1.524500 10.017800
1.543400 9.978100
1.562300 9.675900
1.581200 9.319100
1.600100 9.314100
1.619000 9.446500
1.637900 10.391100
1.656800 9.681400
1.675700 9.088000
1.694500 8.776600
1.713400 8.634800
1.732300 8.712600
1.751200 9.252600
1.770100 8.940200
1.789000 8.830600
1.807900 8.867000
1.826800 8.859500
1.845700 8.757400
1.864600 8.833800
1.883500 8.877200
1.902400 8.901800
1.921300 8.946600
1.940200 8.825400
1.959100 8.573800
1.978000 8.558900
1.996900 8.528500
2.015800 8.717300
2.034700 8.717800
2.053600 8.240600
2.072500 7.878400
2.091400 7.395400
2.110300 7.240400
2.129200 6.958900
2.148100 6.823300
2.167000 6.947800
2.185900 7.146800
2.204700 7.289300
2.223600 7.406100
2.242500 7.559400
2.261400 7.801300
2.280300 8.032500
2.299200 8.066800
2.318100 7.892600
2.337000 8.645800
2.355900 7.867000
2.374800 7.312600
2.393700 6.930600
2.412600 6.809700
2.431500 7.212200
2.450400 6.971800
2.469300 6.873000
2.488200 6.892100
2.507100 6.895300
2.526000 6.843600
2.544900 6.609600
2.563800 6.390200
2.582700 6.219200
2.601600 5.974900
2.620500 5.680300
2.639400 5.440600
2.658300 5.236200
2.677200 5.082800
2.696000 4.896200
2.714900 4.900500
2.733800 4.807600
2.752700 4.989300
2.771600 4.898200
2.790500 4.782200
2.809400 4.808300
2.828300 5.032100
2.847200 4.851300
2.866100 4.535500
2.885000 4.304300
2.903900 4.283500
2.922800 4.258100
2.941700 3.850600
2.960600 3.252400
2.979500 2.804000
2.998400 2.733200
3.017300 2.652600
3.036200 2.707000
3.055100 2.879500
3.074000 3.059500
3.092900 3.002200
3.111800 3.010400
3.130700 2.986200
3.149600 2.944900
3.168500 2.892800
3.187400 2.834700
3.206200 2.742000
3.225100 2.585700
3.244000 2.271100
3.262900 1.977100
3.281800 1.847800
3.300700 1.759600
3.319600 1.657500
3.338500 1.592600
3.357400 1.536000
3.376300 1.490600
3.395200 1.461200
3.414100 1.446400
3.433000 1.439600
3.451900 1.405800
3.470800 1.372200
3.489700 1.338800
3.508600 1.298800
3.527500 1.258900
3.546400 1.228500
3.565300 1.212200
3.584200 1.192000
3.603100 1.163100
3.622000 1.128000
3.640900 1.067200
3.659800 0.967600
3.678700 0.868100
3.697600 0.799700
3.716400 0.744400
3.735300 0.698800
3.754200 0.670200
3.773100 0.656300
3.792000 0.655500
3.810900 0.664400
3.829800 0.672900
3.848700 0.676800
3.867600 0.678200
3.886500 0.699400
3.905400 0.771900
3.924300 0.849300
3.943200 0.873400
3.962100 0.821300
3.981000 0.759100
3.999900 0.633200
4.018800 0.449800
4.037700 0.320700
4.056600 0.251500
4.075500 0.189700
4.094400 0.133800
4.113300 0.068400
4.132200 0.006000
4.151100 0.000000
4.170000 0.000000
4.188900 0.000000
4.207800 0.000000
4.226600 0.000000
4.245500 0.000000
4.264400 0.000000
4.283300 0.000000
4.302200 0.000000
4.321100 0.000000
4.340000 0.000000
4.358900 0.000000
4.377800 0.000000
4.396700 0.000000
4.415600 0.000000
4.434500 0.000000
4.453400 0.000000
4.472300 0.000000
4.491200 0.000000
4.510100 0.000000
4.529000 0.000000
4.547900 0.000000
4.566800 0.000000
4.585700 0.000000
4.604600 0.000000
4.623500 0.005900
4.642400 0.042200
4.661300 0.111800
4.680200 0.242300
4.699100 0.443200
4.717900 0.661100
4.736800 0.901800
4.755700 1.187200
4.774600 1.534800
4.793500 1.485600
4.812400 1.562500
4.831300 1.642900
4.850200 1.786700
4.869100 2.048300
4.888000 2.447600
4.906900 2.927100
4.925800 3.399700
4.944700 3.945200
4.963600 3.979500
4.982500 4.067100
5.001400 3.963000
5.020300 4.154100
5.039200 4.402300
5.058100 4.727300
5.077000 5.001700
5.095900 5.063900
5.114800 5.219800
5.133700 5.484800
5.152600 5.823200
5.171500 6.032300
5.190400 5.975200
5.209300 6.014800
5.228100 6.067900
5.247000 6.214000
5.265900 6.437700
5.284800 6.618500
5.303700 6.874400
5.322600 7.212100
5.341500 7.489700
5.360400 7.774400
5.379300 8.144400
5.398200 8.522800
5.417100 8.152700
5.436000 7.675300
5.454900 7.394200
5.473800 7.323500
5.492700 7.467400
5.511600 7.808100
5.530500 8.161600
5.549400 8.426100
5.568300 8.538400
5.587200 8.595000
5.606100 8.814700
5.625000 9.097100
5.643900 8.783700
5.662800 8.685900
5.681700 8.621000
5.700600 8.712400
5.719500 9.106100
5.738300 8.880300
5.757200 8.910100
5.776100 9.048100
5.795000 8.776600
5.813900 8.564900
5.832800 8.319000
5.851700 8.093900
5.870600 8.017300
5.889500 7.841400
5.908400 7.769500
5.927300 7.727700
5.946200 7.877100
5.965100 8.026400
5.984000 7.878700
6.002900 7.640600
6.021800 7.495500
6.040700 7.256000
6.059600 7.219300
6.078500 7.021900
6.097400 7.040500
6.116300 7.078000
6.135200 7.120600
6.154100 7.402200
6.173000 7.676700
6.191900 7.514000
6.210800 7.026200
6.229600 6.631700
6.248500 6.280900
6.267400 6.149300
6.286300 6.368800
6.305200 6.722500
6.324100 6.975600
6.343000 7.172400
6.361900 7.415800
6.380800 7.811400
6.399700 8.150900
6.418600 7.991000
6.437500 7.682900
6.456400 7.193300
6.475300 6.936400
6.494200 6.626300
6.513100 6.470600
6.532000 6.492900
6.550900 6.543300
6.569800 6.769800
6.588700 6.966700
6.607600 7.286200
6.626500 7.932200
6.645400 8.182400
6.664300 8.365100
6.683200 8.779200
6.702100 8.745900
6.721000 8.666800
6.739800 9.356600
6.758700 9.657400
6.777600 9.534100
6.796500 9.028100
6.815400 8.912500
6.834300 9.060300
6.853200 9.285900
6.872100 9.198200
6.891000 9.407400
6.909900 8.958700
6.928800 8.800100
6.947700 8.957100
6.966600 9.195700
6.985500 10.118100
7.004400 10.887500
7.023300 10.457900
7.042200 9.236400
7.061100 8.738600
7.080000 8.213500
7.098900 8.118500
7.117800 7.539200
7.136700 7.273800
7.155600 7.057300
7.174500 6.881300
7.193400 6.892700
7.212300 6.710500
7.231200 6.599200
7.250000 7.005500
7.268900 7.508100
7.287800 7.621400
7.306700 7.620000
7.325600 7.645800
7.344500 7.685100
7.363400 7.679600
7.382300 7.446700
7.401200 7.347000
7.420100 7.125700
7.439000 7.195600
7.457900 7.799500
7.476800 8.030700
7.495700 8.613600
7.514600 8.630600
7.533500 8.572000
7.552400 8.681700
7.571300 8.810400
7.590200 8.095500
7.609100 7.758700
7.628000 7.657100
7.646900 7.562200
7.665800 7.465800
7.684700 7.679500
7.703600 8.238600
7.722500 8.984000
7.741300 10.054000
7.760200 10.564800
7.779100 10.619100
7.798000 10.500800
7.816900 9.641500
7.835800 9.025600
7.854700 8.795800
7.873600 8.946000
7.892500 8.804100
7.911400 8.293800
7.930300 7.734600
7.949200 7.335600
7.968100 6.934400
7.987000 6.708800
8.005900 6.471700
8.024800 6.424600
8.043700 6.871400
8.062600 7.045600
8.081500 7.282300
8.100400 7.682800
8.119300 8.254600
8.138200 8.717800
8.157100 9.607000
8.176000 9.648600
8.194900 9.175800
8.213800 8.053300
8.232700 6.538600
8.251500 5.296000
8.270400 4.846500
8.289300 4.875700
8.308200 5.456700
8.327100 5.905400
8.346000 6.311600
8.364900 6.461900
8.383800 6.330900
8.402700 6.637800
8.421600 7.175600
8.440500 7.208100
8.459400 7.349300
8.478300 7.421500
8.497200 7.483900
8.516100 7.638000
8.535000 7.960300
8.553900 8.198400
8.572800 7.585400
8.591700 7.634700
8.610600 7.974100
8.629500 8.341900
8.648400 8.663000
8.667300 8.736400
8.686200 8.791800
8.705100 8.490400
8.724000 8.089300
8.742900 7.697800
8.761700 7.379600
8.780600 7.493800
8.799500 7.702000
8.818400 8.530400
8.837300 8.437700
8.856200 8.592000
8.875100 8.903500
8.894000 9.139700
8.912900 8.562200
8.931800 7.845400
8.950700 7.689700
8.969600 7.646900
8.988500 7.393100
9.007400 7.013000
9.026300 6.719100
9.045200 6.771100
9.064100 6.805400
9.083000 6.780500
9.101900 7.001900
9.120800 7.250200
9.139700 7.038700
9.158600 6.680800
9.177500 6.383300
9.196400 6.283500
9.215300 6.065100
9.234200 5.869500
9.253000 5.683800
9.271900 5.645800
9.290800 5.689900
9.309700 5.957800
9.328600 6.208600
9.347500 7.060900
9.366400 6.946300
9.385300 7.663600
9.404200 7.734700
9.423100 7.859100
9.442000 7.779600
9.460900 7.823200
9.479800 7.853500
9.498700 7.286000
9.517600 7.330500
9.536500 7.338600
9.555400 7.092800
9.574300 6.958900
9.593200 6.922300
9.612100 6.908400
9.631000 6.799300
9.649900 6.686900
9.668800 6.640300
9.687700 6.791300
9.706600 6.442600
9.725500 6.352100
9.744400 6.330100
9.763200 6.314100
9.782100 6.419100
9.801000 6.378400
9.819900 6.403000
9.838800 6.552500
9.857700 6.212600
9.876600 5.863000
9.895500 5.482500
9.914400 5.254300
9.933300 5.340100
9.952200 5.421900
9.971100 5.501800
9.990000 5.458400
10.008900 5.430700
10.027800 5.421000
10.046700 5.578800
10.065600 5.977300
10.084500 6.446200
10.103400 6.793200
10.122300 7.290800
10.141200 7.655700
10.160100 7.489200
10.179000 7.301600
10.197900 7.034200
10.216800 6.555500
10.235700 6.231200
10.254600 6.066000
10.273400 6.000000
10.292300 6.033700
10.311200 6.619300
10.330100 6.925600
10.349000 7.320200
10.367900 7.526300
10.386800 7.685800
10.405700 7.368300
10.424600 6.625600
10.443500 6.556400
10.462400 6.394600
10.481300 6.270700
10.500200 6.049700
10.519100 5.956300
10.538000 5.975100
10.556900 5.984500
10.575800 5.825500
10.594700 5.944600
10.613600 5.998400
10.632500 5.842400
10.651400 5.559400
10.670300 5.474200
10.689200 5.406300
10.708100 5.265600
10.727000 5.217300
10.745900 5.239500
10.764800 5.292800
10.783600 5.379300
10.802500 5.450200
10.821400 5.590100
10.840300 5.753800
10.859200 6.092600
10.878100 5.983500
10.897000 5.664500
10.915900 5.514700
10.934800 5.382600
10.953700 5.233500
10.972600 5.121900
10.991500 4.943900
11.010400 4.830600
11.029300 4.670700
11.048200 4.538200
11.067100 4.421100
11.086000 4.431700
11.104900 4.473000
11.123800 4.539400
11.142700 4.592200
11.161600 4.645200
11.180500 4.674500
11.199400 4.720200
11.218300 4.920800
11.237200 5.043900
11.256100 5.146800
11.274900 5.361400
11.293800 5.485500
11.312700 5.522500
11.331600 5.621600
11.350500 5.688000
11.369400 5.777500
11.388300 5.901400
11.407200 6.014500
11.426100 6.141400
11.445000 6.322000
11.463900 6.462000
11.482800 6.512300
11.501700 6.661100
11.520600 7.017800
11.539500 7.045600
11.558400 6.997600
11.577300 6.878700
11.596200 6.693400
11.615100 6.794500
11.634000 7.050600
11.652900 6.858100
11.671800 7.226800
11.690700 6.394700
11.709600 6.170100
11.728500 6.329500
11.747400 6.650700
11.766300 7.109100
11.785100 7.447000
11.804000 7.470700
11.822900 7.515500
11.841800 7.491400
11.860700 7.517300
11.879600 7.567800
11.898500 7.401700
11.917400 7.176500
11.936300 7.190900
11.955200 7.264300
11.974100 7.347600
11.993000 7.004600
12.011900 6.554800
12.030800 6.240800
12.049700 5.946000
12.068600 5.903000
12.087500 5.986000
12.106400 6.081900
12.125300 6.086000
12.144200 6.130900
12.163100 6.122500
12.182000 6.179300
12.200900 6.491600
12.219800 6.275000
12.238700 5.917000
12.257600 5.744900
12.276500 5.620000
12.295300 5.427100
12.314200 5.049200
12.333100 4.423900
12.352000 4.011500
12.370900 3.655100
12.389800 3.468800
12.408700 3.355900
12.427600 3.205000
12.446500 3.056800
12.465400 2.893500
12.484300 2.779700
12.503200 2.723800
12.522100 2.723200
12.541000 2.740200
12.559900 2.720400
12.578800 2.537700
12.597700 2.388700
12.616600 2.231000
12.635500 1.996700
12.654400 1.878400
12.673300 1.788900
12.692200 1.723800
12.711100 1.682000
12.730000 1.811700
12.748900 1.831700
12.767800 1.882900
12.786600 1.966200
12.805500 1.995900
12.824400 1.899400
12.843300 1.848600
12.862200 1.737800
12.881100 1.544600
12.900000 1.450000
12.918900 1.119200
12.937800 0.969200
12.956700 0.843900
12.975600 0.735900
12.994500 0.672600
13.013400 0.593400
13.032300 0.496600
13.051200 0.388400
13.070100 0.292700
13.089000 0.209600
13.107900 0.153600
13.126800 0.123400
13.145700 0.100900
13.164600 0.075600
13.183500 0.045900
13.202400 0.023900
13.221300 0.017100
13.240200 0.010900
13.259100 0.005300
13.278000 0.000400
13.296800 0.000000
13.315700 0.000000
13.334600 0.000000
13.353500 0.000000
13.372400 0.000000
13.391300 0.000000
13.410200 0.000000
13.429100 0.000000
13.448000 0.000000
13.466900 0.000000
13.485800 0.000000
13.504700 0.000000
13.523600 0.000000
13.542500 0.000000
13.561400 0.000000
13.580300 0.000000
13.599200 0.000000
13.618100 0.000000
13.637000 0.000000
13.655900 0.000000
13.674800 0.000000
13.693700 0.000000
13.712600 0.000000
13.731500 0.000000
13.750400 0.000000
13.769300 0.000000
13.788200 0.000000
13.807000 0.000000
13.825900 0.000000
13.844800 0.000000
13.863700 0.000000
13.882600 0.000000
13.901500 0.000000
13.920400 0.000000
13.939300 0.000000
13.958200 0.000000
13.977100 0.000000
13.996000 0.000000
14.014900 0.000000
14.033800 0.000000
14.052700 0.000000
14.071600 0.000000
14.090500 0.000000
14.109400 0.000000
14.128300 0.000000
14.147200 0.000000
14.166100 0.000000
14.185000 0.000000
14.203900 0.000000
14.222800 0.000000
14.241700 0.000000
14.260600 0.000000
14.279500 0.000000
14.298300 0.000000
14.317200 0.000000
14.336100 0.000000
14.355000 0.000000
14.373900 0.000000
14.392800 0.000000
14.411700 0.000000
14.430600 0.000000
14.449500 0.000000
14.468400 0.000000
14.487300 0.000000
14.506200 0.000000
14.525100 0.000000
14.544000 0.000000
14.562900 0.000000
14.581800 0.000000
14.600700 0.000000
14.619600 0.000000
14.638500 0.000000
14.657400 0.000000
14.676300 0.000000
14.695200 0.000000
14.714100 0.000000
14.733000 0.000000
14.751900 0.000000
14.770800 0.000000
14.789700 0.000000
14.808500 0.000000
14.827400 0.000000
14.846300 0.000000
14.865200 0.000000
14.884100 0.000000
14.903000 0.000000
14.921900 0.000000
14.940800 0.000000
14.959700 0.000000
14.978600 0.000000
14.997500 0.000000
e
