set title 'mp-1217322 - Density of States'
set xlabel 'Energy (eV)'
set ylabel 'DOS (states/eV)'
set grid
set xrange [-10:10]
set yrange [0:14.863]
set xzeroaxis lt -1
set terminal png size 800,600
set output 'mp-1217322_dos_gnuplot.png'
plot '-' using 1:2 with lines title 'DOS'
-11.938400 0.000000
-11.922600 0.000000
-11.906800 0.000000
-11.891000 0.000000
-11.875200 0.000000
-11.859400 0.000000
-11.843600 0.000000
-11.827800 0.000000
-11.812000 0.000000
-11.796200 0.000000
-11.780400 0.000000
-11.764600 0.000000
-11.748800 0.000000
-11.733000 0.000000
-11.717200 0.000000
-11.701400 0.000000
-11.685600 0.000000
-11.669800 0.000000
-11.654000 0.000000
-11.638200 0.000000
-11.622400 0.000000
-11.606600 0.000000
-11.590800 0.000000
-11.575000 0.000000
-11.559200 0.000000
-11.543400 0.000000
-11.527600 0.000000
-11.511800 0.000000
-11.496000 0.000000
-11.480200 0.000000
-11.464400 0.000000
-11.448600 0.000000
-11.432800 0.000000
-11.417000 0.000000
-11.401200 0.000000
-11.385400 0.000000
-11.369600 0.000000
-11.353800 0.000000
-11.338000 0.000000
-11.322200 0.000000
-11.306400 0.000000
-11.290600 0.000000
-11.274800 0.000000
-11.259000 0.000000
-11.243200 0.000000
-11.227400 0.000000
-11.211600 0.000000
-11.195800 0.000000
-11.180000 0.000000
-11.164200 0.000000
-11.148400 0.000000
-11.132600 0.000000
-11.116800 0.000000
-11.101000 0.000000
-11.085200 0.000000
-11.069400 0.000000
-11.053600 0.000000
-11.037800 0.000000
-11.022000 0.000000
-11.006200 0.000000
-10.990400 0.000000
-10.974600 0.000000
-10.958800 0.000000
-10.943000 0.000000
-10.927200 0.000000
-10.911400 0.000000
-10.895600 0.000000
-10.879800 0.000000
-10.864000 0.000000
-10.848200 0.000000
-10.832400 0.000000
-10.816600 0.000000
-10.800800 0.000000
-10.785000 0.000000
-10.769200 0.000000
-10.753400 0.000000
-10.737600 0.000000
-10.721800 0.000000
-10.706000 0.000000
-10.690200 0.000000
-10.674400 0.000000
-10.658600 0.000000
-10.642800 0.000000
-10.627000 0.000000
-10.611200 0.000000
-10.595400 0.000000
-10.579600 0.000000
-10.563800 0.000000
-10.548000 0.000000
-10.532200 0.000000
-10.516400 0.000000
-10.500600 1.471000
-10.484800 2.059000
-10.469000 1.962900
-10.453200 1.866800
-10.437400 1.907100
-10.421600 1.989500
-10.405800 2.071800
-10.390000 2.154100
-10.374200 2.236500
-10.358400 2.318900
-10.342600 2.394200
-10.326800 2.450100
-10.311000 2.506000
-10.295200 2.575700
-10.279400 2.666000
-10.263600 2.756300
-10.247800 2.846600
-10.232000 2.988300
-10.216200 3.177700
-10.200400 3.323900
-10.184600 3.470100
-10.168800 3.616200
-10.153000 3.762400
-10.137200 3.908600
-10.121400 4.640300
-10.105600 5.700100
-10.089800 6.822000
-10.074000 7.970000
-10.058200 8.338600
-10.042400 9.059900
-10.026600 9.245300
-10.010800 5.793300
-9.995000 6.600300
-9.979200 0.000000
-9.963400 0.000000
-9.947600 0.000000
-9.931800 0.000000
-9.916000 0.000000
-9.900200 0.000000
-9.884400 0.000000
-9.868600 0.000000
-9.852800 0.000000
-9.837000 0.000000
-9.821200 0.000000
-9.805400 0.000000
-9.789600 0.000000
-9.773800 0.000000
-9.758000 1.899600
-9.742200 1.869100
-9.726400 1.838100
-9.710600 1.807000
-9.694800 1.851100
-9.679000 1.919600
-9.663200 1.988500
-9.647400 2.057700
-9.631600 2.127300
-9.615800 2.197100
-9.600000 2.255900
-9.584200 2.288800
-9.568400 2.329300
-9.552600 2.394800
-9.536800 2.474700
-9.521000 2.554600
-9.505200 2.634700
-9.489400 2.714800
-9.473600 2.811300
-9.457800 2.993600
-9.442000 3.121300
-9.426200 3.249200
-9.410400 3.377300
-9.394700 3.505600
-9.378900 3.740200
-9.363100 4.390600
-9.347300 5.179900
-9.331500 6.616600
-9.315700 7.553200
-9.299900 7.612400
-9.284100 7.670200
-9.268300 7.631600
-9.252500 7.082100
-9.236700 6.345200
-9.220900 4.769700
-9.205100 0.000000
-9.189300 0.000000
-9.173500 0.000000
-9.157700 0.000000
-9.141900 0.000000
-9.126100 0.000000
-9.110300 0.000000
-9.094500 0.000000
-9.078700 0.000000
-9.062900 0.000000
-9.047100 0.000000
-9.031300 0.000000
-9.015500 0.000000
-8.999700 0.000000
-8.983900 0.000000
-8.968100 0.000000
-8.952300 0.000000
-8.936500 0.000000
-8.920700 0.000000
-8.904900 0.000000
-8.889100 0.000000
-8.873300 0.000000
-8.857500 0.000000
-8.841700 0.000000
-8.825900 0.000000
-8.810100 0.000000
-8.794300 0.000000
-8.778500 0.000000
-8.762700 0.000000
-8.746900 0.000000
-8.731100 0.000000
-8.715300 0.000000
-8.699500 0.000000
-8.683700 0.000000
-8.667900 0.872800
-8.652100 2.600400
-8.636300 2.393000
-8.620500 2.144000
-8.604700 2.224600
-8.588900 2.345300
-8.573100 2.488400
-8.557300 2.643700
-8.541500 2.810600
-8.525700 2.989400
-8.509900 3.182700
-8.494100 3.399200
-8.478300 3.678300
-8.462500 4.032700
-8.446700 4.475600
-8.430900 5.686400
-8.415100 6.333600
-8.399300 4.260700
-8.383500 4.256500
-8.367700 4.250800
-8.351900 4.238600
-8.336100 4.219000
-8.320300 4.173500
-8.304500 4.087900
-8.288700 4.049400
-8.272900 4.212300
-8.257100 5.658300
-8.241300 7.544400
-8.225500 8.097400
-8.209700 6.558800
-8.193900 5.424000
-8.178100 0.196800
-8.162300 0.000000
-8.146500 0.000000
-8.130700 0.000000
-8.114900 0.000000
-8.099100 0.000000
-8.083300 0.000000
-8.067500 0.000000
-8.051700 0.000000
-8.035900 0.000000
-8.020100 0.000000
-8.004300 0.000000
-7.988500 0.000000
-7.972700 0.000000
-7.956900 0.000000
-7.941100 0.000000
-7.925300 0.000000
-7.909500 0.000000
-7.893700 0.000000
-7.877900 0.000000
-7.862100 0.000000
-7.846300 0.000000
-7.830500 0.000000
-7.814700 0.000000
-7.798900 0.000000
-7.783100 0.000000
-7.767300 0.000000
-7.751500 0.000000
-7.735700 0.000000
-7.719900 0.000000
-7.704100 0.000000
-7.688300 0.000000
-7.672500 0.000000
-7.656700 0.000000
-7.640900 0.000000
-7.625100 0.000000
-7.609300 0.000000
-7.593500 0.000000
-7.577700 0.000000
-7.561900 0.000000
-7.546100 0.000000
-7.530300 0.000000
-7.514500 0.000000
-7.498700 0.000000
-7.482900 0.000000
-7.467100 0.000000
-7.451300 0.000000
-7.435500 3.304000
-7.419700 6.213400
-7.403900 6.679400
-7.388100 7.492100
-7.372300 8.613500
-7.356500 11.547500
-7.340700 9.535300
-7.324900 9.056400
-7.309100 6.752600
-7.293300 4.922500
-7.277500 4.656300
-7.261700 4.414700
-7.245900 4.188500
-7.230100 3.969700
-7.214300 3.753000
-7.198500 3.511300
-7.182700 3.212600
-7.166900 2.957900
-7.151100 2.771400
-7.135300 2.595200
-7.119500 2.572800
-7.103700 2.496500
-7.087900 2.342800
-7.072100 2.111500
-7.056300 1.802800
-7.040500 1.416500
-7.024700 1.046600
-7.008900 0.834400
-6.993100 0.079600
-6.977300 0.000000
-6.961500 0.000000
-6.945700 0.000000
-6.929900 0.000000
-6.914100 0.000000
-6.898300 0.000000
-6.882500 0.000000
-6.866700 0.000000
-6.850900 0.000000
-6.835100 0.000000
-6.819300 0.000000
-6.803500 0.000000
-6.787700 0.000000
-6.771900 0.000000
-6.756100 0.000000
-6.740300 0.000000
-6.724600 0.000000
-6.708800 0.000000
-6.693000 0.000000
-6.677200 0.000000
-6.661400 0.000000
-6.645600 0.000000
-6.629800 0.000000
-6.614000 0.000000
-6.598200 0.000000
-6.582400 0.000000
-6.566600 0.000000
-6.550800 0.000000
-6.535000 0.000000
-6.519200 0.000000
-6.503400 0.000000
-6.487600 0.142100
-6.471800 0.711400
-6.456000 0.928500
-6.440200 1.929400
-6.424400 2.662200
-6.408600 2.991000
-6.392800 3.196400
-6.377000 3.464100
-6.361200 3.694300
-6.345400 3.887100
-6.329600 4.157600
-6.313800 5.231800
-6.298000 5.408300
-6.282200 4.292200
-6.266400 3.590700
-6.250600 3.471500
-6.234800 3.447200
-6.219000 3.429000
-6.203200 3.415900
-6.187400 3.407200
-6.171600 3.403100
-6.155800 3.403700
-6.140000 3.409000
-6.124200 5.141500
-6.108400 5.316700
-6.092600 4.001700
-6.076800 3.705200
-6.061000 3.491200
-6.045200 3.330700
-6.029400 3.587500
-6.013600 4.035800
-5.997800 4.476800
-5.982000 4.862000
-5.966200 5.186800
-5.950400 5.011400
-5.934600 4.764800
-5.918800 5.254600
-5.903000 5.197400
-5.887200 4.565700
-5.871400 3.865600
-5.855600 2.837200
-5.839800 2.977100
-5.824000 3.117200
-5.808200 3.603400
-5.792400 4.022900
-5.776600 4.455200
-5.760800 3.897600
-5.745000 3.585800
-5.729200 3.256400
-5.713400 2.899100
-5.697600 2.519300
-5.681800 2.183300
-5.666000 1.949700
-5.650200 1.842100
-5.634400 1.810000
-5.618600 1.778400
-5.602800 1.746800
-5.587000 1.715300
-5.571200 1.683800
-5.555400 1.652400
-5.539600 1.621100
-5.523800 1.589900
-5.508000 1.558700
-5.492200 1.527600
-5.476400 1.496500
-5.460600 1.465500
-5.444800 1.434600
-5.429000 1.397900
-5.413200 1.348900
-5.397400 1.294200
-5.381600 1.267400
-5.365800 1.249600
-5.350000 1.232000
-5.334200 1.214900
-5.318400 1.198000
-5.302600 1.181600
-5.286800 1.165500
-5.271000 1.149800
-5.255200 1.134400
-5.239400 1.119900
-5.223600 1.106700
-5.207800 1.094800
-5.192000 1.083900
-5.176200 1.067800
-5.160400 1.049400
-5.144600 1.030400
-5.128800 1.011300
-5.113000 0.992200
-5.097200 0.973200
-5.081400 0.954200
-5.065600 0.935300
-5.049800 0.916400
-5.034000 0.897500
-5.018200 0.878800
-5.002400 0.860000
-4.986600 0.841300
-4.970800 0.822700
-4.955000 0.811100
-4.939200 0.819400
-4.923400 0.842900
-4.907600 0.867400
-4.891800 0.892000
-4.876000 0.916700
-4.860200 0.941500
-4.844400 0.664600
-4.828600 0.229700
-4.812800 0.000000
-4.797000 0.000000
-4.781200 0.000000
-4.765400 0.000000
-4.749600 0.000000
-4.733800 0.000000
-4.718000 0.000000
-4.702200 0.000000
-4.686400 0.000000
-4.670600 0.000000
-4.654800 0.000000
-4.639000 0.000000
-4.623200 0.000000
-4.607400 0.000000
-4.591600 0.000000
-4.575800 0.000000
-4.560000 0.000000
-4.544200 0.000000
-4.528400 0.000000
-4.512600 0.000000
-4.496800 0.000000
-4.481000 0.000000
-4.465200 0.000000
-4.449400 0.000000
-4.433600 0.000000
-4.417800 0.000000
-4.402000 0.000000
-4.386200 0.000000
-4.370400 0.000000
-4.354600 0.000000
-4.338800 0.000000
-4.323000 0.000000
-4.307200 0.000000
-4.291400 0.000000
-4.275600 0.000000
-4.259800 0.000000
-4.244000 0.000000
-4.228200 0.000000
-4.212400 0.000000
-4.196600 0.000000
-4.180800 0.000000
-4.165000 0.000000
-4.149200 0.000000
-4.133400 0.000000
-4.117600 0.000000
-4.101800 0.000000
-4.086000 0.000000
-4.070200 0.000000
-4.054500 0.000000
-4.038700 0.000000
-4.022900 0.000000
-4.007100 0.000000
-3.991300 0.000000
-3.975500 0.000000
-3.959700 0.000000
-3.943900 0.000000
-3.928100 0.000000
-3.912300 0.000000
-3.896500 0.000000
-3.880700 0.000000
-3.864900 0.000000
-3.849100 0.000000
-3.833300 0.000000
-3.817500 0.000000
-3.801700 0.000000
-3.785900 0.000000
-3.770100 0.000000
-3.754300 0.000000
-3.738500 0.000000
-3.722700 0.000000
-3.706900 0.000000
-3.691100 0.000000
-3.675300 0.000000
-3.659500 0.000000
-3.643700 0.000000
-3.627900 0.000000
-3.612100 0.000000
-3.596300 0.000000
-3.580500 0.000000
-3.564700 0.000000
-3.548900 0.000000
-3.533100 0.000000
-3.517300 0.000000
-3.501500 0.000000
-3.485700 0.000000
-3.469900 0.000000
-3.454100 0.000000
-3.438300 0.000000
-3.422500 0.000000
-3.406700 0.000000
-3.390900 0.000000
-3.375100 0.000000
-3.359300 0.000000
-3.343500 0.000000
-3.327700 0.000000
-3.311900 0.000000
-3.296100 0.000000
-3.280300 0.000000
-3.264500 0.000000
-3.248700 0.000000
-3.232900 0.000000
-3.217100 0.000000
-3.201300 0.000000
-3.185500 0.000000
-3.169700 0.000000
-3.153900 0.000000
-3.138100 0.000000
-3.122300 0.000000
-3.106500 0.000000
-3.090700 0.000000
-3.074900 0.000000
-3.059100 0.000000
-3.043300 0.000000
-3.027500 0.000000
-3.011700 0.000000
-2.995900 0.000000
-2.980100 0.000000
-2.964300 0.000000
-2.948500 0.000000
-2.932700 0.000000
-2.916900 0.000000
-2.901100 0.000000
-2.885300 0.000000
-2.869500 0.000000
-2.853700 0.000000
-2.837900 0.000000
-2.822100 0.000000
-2.806300 0.000000
-2.790500 0.000000
-2.774700 0.000000
-2.758900 0.000000
-2.743100 0.000000
-2.727300 0.000000
-2.711500 0.000000
-2.695700 0.000000
-2.679900 0.000000
-2.664100 0.000000
-2.648300 0.000000
-2.632500 0.000000
-2.616700 0.000000
-2.600900 0.000000
-2.585100 0.000000
-2.569300 0.000000
-2.553500 0.000000
-2.537700 0.000000
-2.521900 0.000000
-2.506100 0.000000
-2.490300 0.000000
-2.474500 0.000000
-2.458700 0.000000
-2.442900 0.000000
-2.427100 0.000000
-2.411300 0.000000
-2.395500 0.000000
-2.379700 0.000000
-2.363900 0.000000
-2.348100 0.000000
-2.332300 0.000000
-2.316500 0.000000
-2.300700 0.000000
-2.284900 0.000000
-2.269100 0.000000
-2.253300 0.000000
-2.237500 0.000000
-2.221700 0.000000
-2.205900 0.000000
-2.190100 0.000000
-2.174300 0.000000
-2.158500 0.000000
-2.142700 0.000000
-2.126900 0.000000
-2.111100 0.000000
-2.095300 0.000000
-2.079500 0.000000
-2.063700 0.000000
-2.047900 0.000000
-2.032100 0.000000
-2.016300 0.000000
-2.000500 0.000000
-1.984700 0.000000
-1.968900 0.000000
-1.953100 0.000000
-1.937300 0.000000
-1.921500 0.000000
-1.905700 0.000000
-1.889900 0.000000
-1.874100 0.000000
-1.858300 0.000000
-1.842500 0.000000
-1.826700 0.000000
-1.810900 0.000000
-1.795100 0.000000
-1.779300 0.000000
-1.763500 0.000000
-1.747700 0.000000
-1.731900 0.000000
-1.716100 0.000000
-1.700300 0.000000
-1.684500 0.000000
-1.668700 0.000000
-1.652900 0.000000
-1.637100 0.000000
-1.621300 0.000000
-1.605500 0.000000
-1.589700 0.000000
-1.573900 0.000000
-1.558100 0.000000
-1.542300 0.000000
-1.526500 0.000000
-1.510700 0.000000
-1.494900 0.000000
-1.479100 0.000000
-1.463300 0.000000
-1.447500 0.000000
-1.431700 0.000000
-1.415900 0.000000
-1.400100 0.000000
-1.384400 0.000000
-1.368600 0.000000
-1.352800 0.000000
-1.337000 0.000000
-1.321200 0.000000
-1.305400 0.000000
-1.289600 0.000000
-1.273800 0.000000
-1.258000 0.061300
-1.242200 0.192500
-1.226400 0.333500
-1.210600 0.553000
-1.194800 0.829300
-1.179000 1.125100
-1.163200 1.495800
-1.147400 1.905800
-1.131600 2.318000
-1.115800 2.710100
-1.100000 2.894200
-1.084200 3.683100
-1.068400 4.687200
-1.052600 5.294100
-1.036800 5.481900
-1.021000 5.409700
-1.005200 5.245700
-0.989400 4.578300
-0.973600 3.454300
-0.957800 2.958900
-0.942000 2.796900
-0.926200 2.618200
-0.910400 2.432200
-0.894600 2.238900
-0.878800 2.041900
-0.863000 1.883800
-0.847200 1.754100
-0.831400 1.648800
-0.815600 1.567900
-0.799800 1.511500
-0.784000 1.474400
-0.768200 1.446300
-0.752400 2.645700
-0.736600 4.647400
-0.720800 5.473300
-0.705000 7.328200
-0.689200 8.427200
-0.673400 8.512800
-0.657600 8.655400
-0.641800 8.393000
-0.626000 8.243100
-0.610200 7.908300
-0.594400 7.508900
-0.578600 6.818700
-0.562800 6.269700
-0.547000 6.005800
-0.531200 5.771000
-0.515400 5.655100
-0.499600 5.638400
-0.483800 5.609600
-0.468000 5.605700
-0.452200 5.536300
-0.436400 5.582100
-0.420600 5.668300
-0.404800 5.765000
-0.389000 5.800400
-0.373200 5.767100
-0.357400 6.186100
-0.341600 6.224200
-0.325800 5.916300
-0.310000 6.396700
-0.294200 6.982600
-0.278400 7.320600
-0.262600 7.609400
-0.246800 7.530300
-0.231000 7.191400
-0.215200 7.014200
-0.199400 6.952400
-0.183600 6.916600
-0.167800 6.870000
-0.152000 6.790700
-0.136200 6.771800
-0.120400 7.085700
-0.104600 7.121500
-0.088800 6.958800
-0.073000 6.784700
-0.057200 6.769600
-0.041400 6.902200
-0.025600 6.919500
-0.009800 6.593800
0.006000 6.218300
0.021800 5.874500
0.037600 5.515400
0.053400 5.220600
0.069200 4.988900
0.085000 4.820300
0.100800 4.696400
0.116600 4.602300
0.132400 4.524400
0.148200 4.447300
0.164000 4.372500
0.179800 4.304500
0.195600 4.243100
0.211400 4.183200
0.227200 4.123300
0.243000 4.074500
0.258800 4.054600
0.274600 4.042800
0.290400 4.031100
0.306200 4.011800
0.322000 3.989100
0.337800 3.967700
0.353600 3.947300
0.369400 3.927600
0.385200 3.907600
0.401000 3.887200
0.416800 3.865700
0.432600 3.737300
0.448400 3.593500
0.464200 3.450900
0.480000 4.696900
0.495800 4.062000
0.511600 3.658200
0.527400 3.519000
0.543200 3.407000
0.559000 3.439100
0.574800 3.726300
0.590600 3.969400
0.606400 3.833200
0.622200 3.627100
0.638000 3.464200
0.653800 3.346400
0.669600 3.416600
0.685400 3.269700
0.701200 3.130800
0.717000 3.261400
0.732800 4.409400
0.748600 4.968200
0.764400 5.302200
0.780200 5.835000
0.796000 6.478300
0.811800 7.243700
0.827600 8.134100
0.843400 9.183700
0.859200 10.802000
0.875000 13.511600
0.890800 9.184900
0.906600 8.089200
0.922400 7.349000
0.938200 6.658500
0.954000 6.055300
0.969800 5.413500
0.985600 4.814300
1.001400 4.358600
1.017200 3.833700
1.033000 3.513700
1.048800 3.190800
1.064600 2.911900
1.080400 2.690700
1.096200 2.525400
1.112000 2.414400
1.127800 2.353900
1.143600 2.312800
1.159400 2.273700
1.175200 2.231500
1.191000 2.928900
1.206800 0.968700
1.222600 0.952300
1.238400 0.952000
1.254200 0.953100
1.270000 0.955600
1.285700 1.113400
1.301500 1.747000
1.317300 2.155200
1.333100 2.432100
1.348900 2.590300
1.364700 2.710800
1.380500 2.831700
1.396300 3.306100
1.412100 3.603500
1.427900 3.675300
1.443700 3.545200
1.459500 3.618000
1.475300 3.085100
1.491100 2.554100
1.506900 2.470400
1.522700 2.372000
1.538500 2.275400
1.554300 2.217200
1.570100 2.204300
1.585900 2.192500
1.601700 2.180400
1.617500 2.167900
1.633300 2.155000
1.649100 2.141800
1.664900 2.128300
1.680700 2.114400
1.696500 2.100100
1.712300 2.085500
1.728100 2.070500
1.743900 2.055200
1.759700 2.039300
1.775500 2.022500
1.791300 2.004800
1.807100 1.985300
1.822900 1.956000
1.838700 1.926700
1.854500 1.888900
1.870300 1.854100
1.886100 1.826700
1.901900 1.807000
1.917700 1.794900
1.933500 1.790600
1.949300 1.793900
1.965100 1.805000
1.980900 2.154300
1.996700 3.082600
2.012500 4.852900
2.028300 5.729300
2.044100 6.546900
2.059900 7.251500
2.075700 7.692500
2.091500 8.014800
2.107300 8.128300
2.123100 8.365300
2.138900 8.116800
2.154700 7.491300
2.170500 6.451200
2.186300 5.701800
2.202100 5.351400
2.217900 5.028200
2.233700 4.462800
2.249500 4.489900
2.265300 4.576800
2.281100 4.696900
2.296900 4.877600
2.312700 5.242000
2.328500 5.800800
2.344300 6.537500
2.360100 7.320600
2.375900 8.117700
2.391700 8.929300
2.407500 10.062700
2.423300 8.826000
2.439100 9.379300
2.454900 8.454200
2.470700 8.648400
2.486500 8.248900
2.502300 7.038300
2.518100 6.502300
2.533900 5.266600
2.549700 4.748900
2.565500 4.236700
2.581300 3.618500
2.597100 3.110500
2.612900 2.858000
2.628700 2.698200
2.644500 2.655200
2.660300 2.794900
2.676100 5.193600
2.691900 7.588300
2.707700 7.161100
2.723500 5.545800
2.739300 2.984300
2.755100 2.013100
2.770900 1.931000
2.786700 2.191100
2.802500 2.784700
2.818300 3.555600
2.834100 4.406100
2.849900 5.255400
2.865700 7.000400
2.881500 9.241000
2.897300 10.393900
2.913100 11.039800
2.928900 11.208200
2.944700 10.366100
2.960500 8.637900
2.976300 7.189500
2.992100 6.124300
3.007900 5.275100
3.023700 4.406400
3.039500 3.634000
3.055300 2.990800
3.071100 2.545400
3.086900 2.300400
3.102700 2.636200
3.118500 3.675000
3.134300 4.914800
3.150100 6.066600
3.165900 7.310500
3.181700 8.513800
3.197500 9.316500
3.213300 10.083400
3.229100 9.444600
3.244900 7.255800
3.260700 6.711700
3.276500 6.162700
3.292300 5.606800
3.308100 5.051100
3.323900 4.570200
3.339700 4.212600
3.355500 4.222400
3.371300 4.377800
3.387100 4.519900
3.402900 4.659800
3.418700 4.811900
3.434500 5.328900
3.450300 5.708500
3.466100 5.960200
3.481900 6.162600
3.497700 6.282600
3.513500 6.283000
3.529300 6.269000
3.545100 6.291300
3.560900 5.902300
3.576700 5.218900
3.592500 4.523000
3.608300 3.815800
3.624100 3.379000
3.639900 3.246600
3.655700 3.165600
3.671500 3.099300
3.687300 3.047700
3.703100 3.029200
3.718900 3.064800
3.734700 3.152400
3.750500 3.317300
3.766300 3.436200
3.782100 3.299700
3.797900 3.156400
3.813700 3.006400
3.829500 2.837800
3.845300 2.653700
3.861100 2.519100
3.876900 2.432700
3.892700 2.413500
3.908500 2.255900
3.924300 1.731600
3.940100 1.319300
3.955800 0.975500
3.971600 0.484500
3.987400 0.138000
4.003200 0.008000
4.019000 0.000000
4.034800 0.000000
4.050600 0.000000
4.066400 0.000000
4.082200 0.000000
4.098000 0.000000
4.113800 0.000000
4.129600 0.000000
4.145400 0.000000
4.161200 0.000000
4.177000 0.000000
4.192800 0.000000
4.208600 0.000000
4.224400 0.000000
4.240200 0.000000
4.256000 0.000000
4.271800 0.000000
4.287600 0.000000
4.303400 0.000000
4.319200 0.000000
4.335000 0.000000
4.350800 0.000000
4.366600 0.000000
4.382400 0.000000
4.398200 0.000000
4.414000 0.000000
4.429800 0.000000
4.445600 0.000000
4.461400 0.000000
4.477200 0.000000
4.493000 0.000000
4.508800 0.000000
4.524600 0.000000
4.540400 0.000000
4.556200 0.000000
4.572000 0.000000
4.587800 0.000000
4.603600 0.000000
4.619400 0.000000
4.635200 0.000000
4.651000 0.000000
4.666800 0.000000
4.682600 0.000000
4.698400 0.000000
4.714200 0.000000
4.730000 0.000000
4.745800 0.000000
4.761600 0.000000
4.777400 0.000000
4.793200 0.000000
4.809000 0.000000
4.824800 0.000000
4.840600 0.000000
4.856400 0.000000
4.872200 0.000000
4.888000 0.000000
4.903800 0.000000
4.919600 0.000000
4.935400 0.000000
4.951200 0.000000
4.967000 0.102900
4.982800 0.307800
4.998600 0.551400
5.014400 0.833500
5.030200 1.154300
5.046000 1.513600
5.061800 1.924000
5.077600 2.480100
5.093400 3.019900
5.109200 3.517000
5.125000 3.953700
5.140800 4.335000
5.156600 4.622200
5.172400 6.010100
5.188200 6.570500
5.204000 6.823000
5.219800 7.055500
5.235600 7.267300
5.251400 7.458000
5.267200 7.823100
5.283000 8.007800
5.298800 8.155300
5.314600 8.094500
5.330400 8.060500
5.346200 7.869100
5.362000 7.417800
5.377800 6.954100
5.393600 6.486900
5.409400 6.669500
5.425200 5.361700
5.441000 4.696200
5.456800 4.605400
5.472600 4.513700
5.488400 4.568000
5.504200 4.626100
5.520000 4.555200
5.535800 4.590700
5.551600 4.781700
5.567400 5.026300
5.583200 5.410400
5.599000 5.921000
5.614800 6.146600
5.630600 6.318200
5.646400 6.419000
5.662200 6.429500
5.678000 6.115200
5.693800 5.810000
5.709600 5.571400
5.725400 5.432700
5.741200 5.387400
5.757000 5.410200
5.772800 5.465800
5.788600 5.555000
5.804400 5.630000
5.820200 5.531000
5.836000 5.579200
5.851800 5.412600
5.867600 5.344200
5.883400 5.378800
5.899200 5.876300
5.915000 6.415600
5.930800 6.877600
5.946600 7.056700
5.962400 6.991900
5.978200 6.925400
5.994000 7.009900
6.009800 7.355000
6.025600 9.512400
6.041400 8.570300
6.057200 8.178800
6.073000 7.415700
6.088800 6.906400
6.104600 6.960800
6.120400 7.002400
6.136200 7.188400
6.152000 7.480900
6.167800 7.439300
6.183600 7.160200
6.199400 6.877300
6.215200 6.600700
6.231000 6.483300
6.246800 6.480200
6.262600 6.465300
6.278400 6.692100
6.294200 7.062300
6.310000 6.942100
6.325800 6.679800
6.341600 6.443700
6.357400 5.910900
6.373200 5.425500
6.389000 4.989700
6.404800 4.856700
6.420600 4.944500
6.436400 5.028600
6.452200 5.111900
6.468000 5.192800
6.483800 5.268800
6.499600 5.306200
6.515400 5.345000
6.531200 5.745700
6.547000 5.900800
6.562800 5.980200
6.578600 6.535500
6.594400 5.087600
6.610200 3.659000
6.625900 3.762800
6.641700 3.555900
6.657500 3.606400
6.673300 3.946200
6.689100 4.506400
6.704900 4.794400
6.720700 5.387800
6.736500 6.336400
6.752300 5.477000
6.768100 5.397000
6.783900 5.133800
6.799700 4.736800
6.815500 4.260500
6.831300 3.851000
6.847100 3.535500
6.862900 3.430300
6.878700 2.994300
6.894500 2.503600
6.910300 1.913200
6.926100 1.136500
6.941900 1.186100
6.957700 1.255200
6.973500 1.328300
6.989300 1.406900
7.005100 1.482600
7.020900 1.552500
7.036700 1.621700
7.052500 1.685100
7.068300 1.742100
7.084100 1.792800
7.099900 1.837100
7.115700 1.875100
7.131500 1.907000
7.147300 1.989400
7.163100 2.180900
7.178900 2.444700
7.194700 2.612900
7.210500 2.730700
7.226300 2.828900
7.242100 2.907700
7.257900 2.966900
7.273700 3.006600
7.289500 3.026800
7.305300 3.027500
7.321100 2.988100
7.336900 2.817100
7.352700 2.665200
7.368500 2.395900
7.384300 2.068900
7.400100 1.853600
7.415900 1.650300
7.431700 1.489100
7.447500 1.354100
7.463300 1.210800
7.479100 1.067000
7.494900 0.924000
7.510700 0.781600
7.526500 0.646900
7.542300 0.569300
7.558100 0.497000
7.573900 0.429500
7.589700 0.365000
7.605500 0.303400
7.621300 0.244600
7.637100 0.210900
7.652900 0.182200
7.668700 0.154000
7.684500 0.126500
7.700300 0.099500
7.716100 0.073200
7.731900 0.047400
7.747700 0.022200
7.763500 0.000000
7.779300 0.000000
7.795100 0.000000
7.810900 0.000000
7.826700 0.000000
7.842500 0.000000
7.858300 0.000000
7.874100 0.000000
7.889900 0.000000
7.905700 0.000000
7.921500 0.000000
7.937300 0.000000
7.953100 0.000000
7.968900 0.000000
7.984700 0.000000
8.000500 0.000000
8.016300 0.000000
8.032100 0.000000
8.047900 0.000000
8.063700 0.000000
8.079500 0.000000
8.095300 0.000000
8.111100 0.000000
8.126900 0.000000
8.142700 0.000000
8.158500 0.000000
8.174300 0.000000
8.190100 0.000000
8.205900 0.000000
8.221700 0.000000
8.237500 0.000000
8.253300 0.000000
8.269100 0.000000
8.284900 0.000000
8.300700 0.000000
8.316500 0.008000
8.332300 0.022900
8.348100 0.038900
8.363900 0.055900
8.379700 0.073900
8.395500 0.093000
8.411300 0.113200
8.427100 0.134400
8.442900 0.177000
8.458700 0.476500
8.474500 0.857400
8.490300 1.117700
8.506100 1.293200
8.521900 1.437000
8.537700 1.555100
8.553500 1.647400
8.569300 1.704500
8.585100 1.721300
8.600900 1.732300
8.616700 1.737400
8.632500 1.736700
8.648300 1.733700
8.664100 1.751500
8.679900 1.780400
8.695700 1.818600
8.711500 1.866300
8.727300 1.925100
8.743100 1.990700
8.758900 2.060800
8.774700 2.133700
8.790500 2.207400
8.806300 2.282000
8.822100 2.357300
8.837900 2.433400
8.853700 2.510300
8.869500 2.588000
8.885300 2.666500
8.901100 2.745800
8.916900 2.826800
8.932700 2.923900
8.948500 3.022700
8.964300 3.115800
8.980100 3.226200
8.995900 3.422000
9.011700 3.505300
9.027500 3.456700
9.043300 3.362500
9.059100 3.243700
9.074900 3.100200
9.090700 2.932200
9.106500 2.739500
9.122300 2.522800
9.138100 2.359300
9.153900 2.229300
9.169700 2.139700
9.185500 2.104500
9.201300 2.130000
9.217100 2.183200
9.232900 2.300600
9.248700 2.472600
9.264500 3.523700
9.280300 3.239000
9.296000 2.963200
9.311800 1.769700
9.327600 1.866500
9.343400 1.782800
9.359200 1.529000
9.375000 1.353100
9.390800 1.257400
9.406600 1.246200
9.422400 1.398900
9.438200 2.327100
9.454000 3.939300
9.469800 5.915200
9.485600 6.540400
9.501400 7.068200
9.517200 7.002300
9.533000 6.864300
9.548800 6.650600
9.564600 6.354900
9.580400 5.289500
9.596200 4.865000
9.612000 4.493700
9.627800 4.175600
9.643600 3.910700
9.659400 3.560100
9.675200 3.161000
9.691000 2.753500
9.706800 2.423000
9.722600 2.379900
9.738400 2.398900
9.754200 2.419900
9.770000 2.260000
9.785800 2.092700
9.801600 1.950900
9.817400 1.861100
9.833200 1.834700
9.849000 1.863000
9.864800 1.928900
9.880600 2.031900
9.896400 2.172100
9.912200 2.372500
9.928000 2.533700
9.943800 2.753200
9.959600 3.129300
9.975400 3.394700
9.991200 3.744500
10.007000 4.018200
10.022800 4.213400
10.038600 4.330400
10.054400 4.373100
10.070200 4.061600
10.086000 3.287000
10.101800 2.545700
10.117600 2.401800
10.133400 2.301900
10.149200 2.207500
10.165000 2.117900
10.180800 2.033100
10.196600 2.077800
10.212400 2.756800
10.228200 3.761500
10.244000 4.086700
10.259800 3.822500
10.275600 3.538100
10.291400 3.317300
10.307200 3.180800
10.323000 3.124900
10.338800 3.100200
10.354600 3.088300
10.370400 3.082700
10.386200 3.079400
10.402000 3.075400
10.417800 3.069300
10.433600 3.053500
10.449400 3.026000
10.465200 2.990700
10.481000 2.945500
10.496800 2.894700
10.512600 2.852100
10.528400 2.823100
10.544200 2.797700
10.560000 2.771900
10.575800 2.749200
10.591600 2.730100
10.607400 2.713300
10.623200 2.698700
10.639000 3.472700
10.654800 3.481200
10.670600 3.493800
10.686400 3.510200
10.702200 3.532600
10.718000 3.647100
10.733800 3.803700
10.749600 3.967500
10.765400 4.149000
10.781200 4.473300
10.797000 4.993700
10.812800 5.330900
10.828600 5.537500
10.844400 5.684700
10.860200 5.771400
10.876000 5.811200
10.891800 5.809100
10.907600 5.855000
10.923400 5.762400
10.939200 5.482300
10.955000 5.405900
10.970800 5.301200
10.986600 5.203700
11.002400 5.140600
11.018200 5.072000
11.034000 5.002700
11.049800 4.993600
11.065600 4.604100
11.081400 4.635400
11.097200 4.630300
11.113000 4.509500
11.128800 4.383300
11.144600 4.251800
11.160400 4.198600
11.176200 4.145900
11.192000 4.038400
11.207800 3.858500
11.223600 3.539300
11.239400 3.307000
11.255200 3.298900
11.271000 3.307500
11.286800 3.293000
11.302600 3.220600
11.318400 3.258100
11.334200 3.372900
11.350000 3.467300
11.365800 3.554700
11.381600 3.666600
11.397400 3.806600
11.413200 3.979600
11.429000 4.188000
11.444800 4.331400
11.460600 3.961200
11.476400 4.160500
11.492200 4.576700
11.508000 4.847700
11.523800 4.809800
11.539600 4.793100
11.555400 4.891300
11.571200 4.887200
11.587000 4.815100
11.602800 4.724500
11.618600 4.679600
11.634400 4.680000
11.650200 4.635900
11.666000 4.594300
11.681800 4.556400
11.697600 4.520800
11.713400 4.450300
11.729200 4.368700
11.745000 4.288900
11.760800 4.211100
11.776600 4.142300
11.792400 4.111900
11.808200 4.123200
11.824000 4.176800
11.839800 4.270700
11.855600 4.472500
11.871400 4.754300
11.887200 5.048900
11.903000 5.347600
11.918800 5.633100
11.934600 5.855900
11.950400 5.946400
11.966100 6.008800
11.981900 6.037700
11.997700 6.034300
12.013500 6.005800
12.029300 5.954600
12.045100 5.895700
12.060900 5.916100
12.076700 6.023100
12.092500 6.140100
12.108300 6.269900
12.124100 6.414900
12.139900 6.553300
12.155700 6.673800
12.171500 6.697100
12.187300 6.387300
12.203100 6.435900
12.218900 6.482400
12.234700 6.524300
12.250500 6.564700
12.266300 6.588200
12.282100 6.587600
12.297900 6.563700
12.313700 6.521100
12.329500 6.459700
12.345300 6.379200
12.361100 6.252900
12.376900 6.094500
12.392700 5.951400
12.408500 5.823100
12.424300 5.695900
12.440100 5.561400
12.455900 5.117200
12.471700 4.821400
12.487500 4.751500
12.503300 4.683900
12.519100 4.618700
12.534900 4.555900
12.550700 4.497800
12.566500 4.448400
12.582300 4.442400
12.598100 4.456100
12.613900 4.445400
12.629700 4.440500
12.645500 4.418500
12.661300 4.394800
12.677100 4.347300
12.692900 4.295600
12.708700 4.296700
12.724500 4.271800
12.740300 4.315000
12.756100 4.438400
12.771900 4.541500
12.787700 4.648100
12.803500 4.790000
12.819300 4.937100
12.835100 5.089500
12.850900 5.345000
12.866700 5.608400
12.882500 5.950600
12.898300 6.515600
12.914100 7.361700
12.929900 7.805100
12.945700 7.246700
12.961500 6.029600
12.977300 4.985300
12.993100 4.859400
13.008900 4.765300
13.024700 4.688900
13.040500 4.628700
13.056300 4.589700
13.072100 5.307400
13.087900 5.289100
13.103700 5.283500
13.119500 5.323800
13.135300 5.399400
13.151100 5.510100
13.166900 5.561500
13.182700 5.625100
13.198500 5.807800
13.214300 5.889900
13.230100 5.952600
13.245900 6.004000
13.261700 6.043900
13.277500 6.075300
13.293300 6.103700
13.309100 6.118200
13.324900 6.124000
13.340700 6.116100
13.356500 6.080200
13.372300 6.130700
13.388100 6.095500
13.403900 5.601700
13.419700 5.734900
13.435500 5.930700
13.451300 6.167700
13.467100 6.442500
13.482900 6.819000
13.498700 6.483900
13.514500 6.173500
13.530300 6.201500
13.546100 6.356700
13.561900 6.447000
13.577700 6.614100
13.593500 6.913600
13.609300 7.287200
13.625100 7.722200
13.640900 8.214000
13.656700 8.996200
13.672500 8.791300
13.688300 7.880700
13.704100 7.004000
13.719900 6.201600
13.735700 5.472400
13.751500 4.959100
13.767300 4.947600
13.783100 4.997500
13.798900 5.106000
13.814700 5.225600
13.830500 5.206900
13.846300 5.483100
13.862100 5.891500
13.877900 6.444600
13.893700 6.999800
13.909500 7.421900
13.925300 7.630700
13.941100 7.673900
13.956900 7.669600
13.972700 7.876600
13.988500 8.483100
14.004300 8.459900
14.020100 7.619700
14.035900 6.512300
14.051700 5.952400
14.067500 5.649200
14.083300 5.390800
14.099100 5.225500
14.114900 5.107800
14.130700 5.072700
14.146500 5.213800
14.162300 5.108700
14.178100 5.014500
14.193900 4.942000
14.209700 4.913800
14.225500 4.915500
14.241300 4.806300
14.257100 4.472600
14.272900 4.166600
14.288700 4.250500
14.304500 4.363000
14.320300 4.468500
14.336100 4.566300
14.351900 4.667800
14.367700 4.809100
14.383500 5.027100
14.399300 5.165600
14.415100 5.185500
14.430900 5.207500
14.446700 5.392100
14.462500 5.584500
14.478300 5.784700
14.494100 5.966600
14.509900 6.103500
14.525700 6.109900
14.541500 6.109900
14.557300 6.062500
14.573100 6.072800
14.588900 6.320100
14.604700 6.723900
14.620500 7.010000
14.636200 6.815700
14.652000 6.001400
14.667800 5.174200
14.683600 4.503700
14.699400 4.072800
14.715200 3.948400
14.731000 3.999400
14.746800 4.085000
14.762600 4.205300
14.778400 5.440600
14.794200 4.290900
14.810000 4.221300
14.825800 4.308200
14.841600 4.388400
14.857400 4.462600
14.873200 4.538600
14.889000 4.661700
14.904800 4.669800
14.920600 4.728500
14.936400 5.168900
14.952200 5.336200
14.968000 5.271600
14.983800 5.376100
14.999600 5.497200
15.015400 6.378000
15.031200 6.867400
15.047000 6.936800
15.062800 6.847900
15.078600 6.417200
15.094400 6.047400
15.110200 5.737300
15.126000 5.553000
15.141800 5.455900
15.157600 5.386000
15.173400 5.339500
15.189200 5.319400
15.205000 5.312200
15.220800 5.299400
15.236600 5.402400
15.252400 5.559200
15.268200 5.775700
15.284000 6.166600
15.299800 6.784200
15.315600 6.775600
15.331400 6.806300
15.347200 6.693400
15.363000 6.438100
15.378800 6.172600
15.394600 5.434800
15.410400 5.227300
15.426200 5.128500
15.442000 5.053600
15.457800 4.984100
15.473600 4.929100
15.489400 4.924000
15.505200 4.978900
15.521000 5.031500
15.536800 8.197000
15.552600 6.315100
15.568400 6.560700
15.584200 7.151600
15.600000 8.007000
15.615800 8.565900
15.631600 8.022400
15.647400 7.474500
15.663200 7.191900
15.679000 6.956500
15.694800 6.759700
15.710600 6.570100
15.726400 6.384500
15.742200 6.282100
15.758000 6.776700
15.773800 7.317300
15.789600 7.030000
15.805400 6.667100
15.821200 6.421900
15.837000 6.417600
15.852800 6.590700
15.868600 6.780700
15.884400 6.880500
15.900200 6.884600
15.916000 6.837500
15.931800 6.728900
15.947600 6.631800
15.963400 6.499600
15.979200 6.329300
15.995000 6.113900
16.010800 5.843900
16.026600 5.217700
16.042400 5.143300
16.058200 5.200900
16.074000 5.405300
16.089800 5.750600
16.105600 5.974800
16.121400 6.216000
16.137200 6.465300
16.153000 6.721200
16.168800 6.957700
16.184600 7.089700
16.200400 6.994300
16.216200 6.868300
16.232000 6.711000
16.247800 6.523400
16.263600 6.343100
16.279400 6.158200
16.295200 5.946700
16.311000 5.745700
16.326800 5.558000
16.342600 5.469200
16.358400 5.424200
16.374200 5.524900
16.390000 5.803200
16.405800 6.272800
16.421600 6.508500
16.437400 6.591400
16.453200 6.712400
16.469000 6.878900
16.484800 7.170400
16.500600 7.420000
16.516400 7.694900
16.532200 7.647000
16.548000 7.499600
16.563800 7.269700
16.579600 7.158700
16.595400 8.122500
16.611200 7.435300
16.627000 6.977500
16.642800 6.546100
16.658600 6.323600
16.674400 6.098300
16.690200 5.978700
16.706000 5.962600
16.721800 5.984800
16.737600 6.061100
16.753400 6.188000
16.769200 5.874300
16.785000 5.893400
16.800800 5.921400
16.816600 5.975500
16.832400 6.070400
16.848200 6.089400
16.864000 6.035900
16.879800 5.900500
16.895600 5.702500
16.911400 5.447600
16.927200 5.240000
16.943000 5.235900
16.958800 5.206000
16.974600 5.063500
16.990400 4.956500
17.006200 4.689200
17.022000 4.629100
17.037800 4.730000
17.053600 4.928100
17.069400 4.971600
17.085200 5.121000
17.101000 5.305000
17.116800 5.496300
17.132600 5.677900
17.148400 5.861300
17.164200 6.215300
17.180000 6.582100
17.195800 6.329000
17.211600 6.376000
17.227400 6.566200
17.243200 6.886200
17.259000 7.239800
17.274800 7.606200
17.290600 7.998600
17.306300 8.121300
17.322100 7.741700
17.337900 7.297600
17.353700 7.073400
17.369500 6.931100
17.385300 7.142400
17.401100 8.160400
17.416900 7.593300
17.432700 6.890700
17.448500 6.073400
17.464300 5.604900
17.480100 5.725200
17.495900 6.366600
17.511700 7.444300
17.527500 8.664500
17.543300 8.674000
17.559100 8.554800
17.574900 8.437800
17.590700 8.126400
17.606500 7.963900
17.622300 7.359100
17.638100 6.882100
17.653900 6.779500
17.669700 7.371300
17.685500 8.129000
17.701300 7.077800
17.717100 6.833300
17.732900 6.592100
17.748700 5.425300
17.764500 4.698800
17.780300 4.160100
17.796100 3.760900
17.811900 3.321000
17.827700 3.041300
17.843500 2.880400
17.859300 2.750100
17.875100 2.679100
17.890900 2.725000
17.906700 2.817800
17.922500 2.896100
17.938300 2.959700
17.954100 2.888200
17.969900 2.775200
17.985700 2.677100
18.001500 2.527800
18.017300 2.307500
18.033100 2.026900
18.048900 1.686900
18.064700 1.280200
18.080500 0.967200
18.096300 0.808100
18.112100 0.656900
18.127900 0.508300
18.143700 0.362400
18.159500 0.234000
18.175300 0.133600
18.191100 0.061100
18.206900 0.016600
18.222700 0.000100
18.238500 0.000000
18.254300 0.000000
18.270100 0.000000
18.285900 0.000000
18.301700 0.000000
18.317500 0.000000
18.333300 0.000000
18.349100 0.000000
18.364900 0.000000
18.380700 0.000000
18.396500 0.000000
18.412300 0.000000
18.428100 0.000000
18.443900 0.000000
18.459700 0.000000
18.475500 0.000000
18.491300 0.000000
18.507100 0.000000
18.522900 0.000000
18.538700 0.000000
18.554500 0.000000
18.570300 0.000000
18.586100 0.000000
18.601900 0.000000
18.617700 0.000000
18.633500 0.000000
18.649300 0.000000
18.665100 0.000000
18.680900 0.000000
18.696700 0.000000
18.712500 0.000000
18.728300 0.000000
18.744100 0.000000
18.759900 0.000000
18.775700 0.000000
18.791500 0.000000
18.807300 0.000000
18.823100 0.000000
18.838900 0.000000
18.854700 0.000000
18.870500 0.000000
18.886300 0.000000
18.902100 0.000000
18.917900 0.000000
18.933700 0.000000
18.949500 0.000000
18.965300 0.000000
18.981100 0.000000
18.996900 0.000000
19.012700 0.000000
19.028500 0.000000
19.044300 0.000000
19.060100 0.000000
19.075900 0.000000
19.091700 0.000000
19.107500 0.000000
19.123300 0.000000
19.139100 0.000000
19.154900 0.000000
19.170700 0.000000
19.186500 0.000000
19.202300 0.000000
19.218100 0.000000
19.233900 0.000000
19.249700 0.000000
19.265500 0.000000
19.281300 0.000000
19.297100 0.000000
19.312900 0.000000
19.328700 0.000000
19.344500 0.000000
19.360300 0.000000
19.376100 0.000000
19.391900 0.000000
19.407700 0.000000
19.423500 0.000000
19.439300 0.000000
19.455100 0.000000
19.470900 0.000000
19.486700 0.000000
19.502500 0.000000
19.518300 0.000000
19.534100 0.000000
19.549900 0.000000
19.565700 0.000000
19.581500 0.000000
19.597300 0.000000
19.613100 0.000000
19.628900 0.000000
19.644700 0.000000
19.660500 0.000000
e
