set title 'mp-571535 - Density of States'
set xlabel 'Energy (eV)'
set ylabel 'DOS (states/eV)'
set grid
set xrange [-10:10]
set yrange [0:1238.691]
set xzeroaxis lt -1
set terminal png size 800,600
set output 'mp-571535_dos_gnuplot.png'
plot '-' using 1:2 with lines title 'DOS'
-11.959700 0.000000
-11.947000 0.000000
-11.934300 0.000000
-11.921700 0.000000
-11.909000 0.000000
-11.896300 0.000000
-11.883600 0.000000
-11.870900 0.000000
-11.858200 0.000000
-11.845500 0.000000
-11.832900 0.000000
-11.820200 0.000000
-11.807500 0.000000
-11.794800 0.000000
-11.782100 0.000000
-11.769400 0.000000
-11.756700 0.000000
-11.744100 0.000000
-11.731400 0.000000
-11.718700 0.000000
-11.706000 0.000000
-11.693300 0.000000
-11.680600 0.000000
-11.668000 0.000000
-11.655300 0.000000
-11.642600 0.000000
-11.629900 0.000000
-11.617200 0.000000
-11.604500 0.000000
-11.591800 0.000000
-11.579200 0.000000
-11.566500 0.000000
-11.553800 0.000000
-11.541100 0.000000
-11.528400 0.000000
-11.515700 0.000000
-11.503100 0.000000
-11.490400 0.000000
-11.477700 0.000000
-11.465000 0.000000
-11.452300 0.000000
-11.439600 0.000000
-11.426900 0.000000
-11.414300 0.000000
-11.401600 0.000000
-11.388900 0.000000
-11.376200 0.000000
-11.363500 0.000000
-11.350800 0.000000
-11.338200 0.000000
-11.325500 0.000000
-11.312800 0.000000
-11.300100 0.000000
-11.287400 0.000000
-11.274700 0.000000
-11.262000 0.000000
-11.249400 0.000000
-11.236700 0.000000
-11.224000 0.000000
-11.211300 0.000000
-11.198600 0.000000
-11.185900 0.000000
-11.173200 0.000000
-11.160600 0.000000
-11.147900 0.000000
-11.135200 0.000000
-11.122500 0.000000
-11.109800 0.000000
-11.097100 0.000000
-11.084500 0.000000
-11.071800 0.000000
-11.059100 0.000000
-11.046400 0.000000
-11.033700 0.000000
-11.021000 0.000000
-11.008300 0.000000
-10.995700 0.000000
-10.983000 0.000000
-10.970300 0.000000
-10.957600 0.000000
-10.944900 0.000000
-10.932200 0.000000
-10.919600 0.000000
-10.906900 0.000000
-10.894200 0.000000
-10.881500 0.000000
-10.868800 0.000000
-10.856100 0.000000
-10.843400 0.000000
-10.830800 0.000000
-10.818100 0.000000
-10.805400 0.040300
-10.792700 0.866400
-10.780000 2.207900
-10.767300 4.257800
-10.754700 6.526000
-10.742000 9.644700
-10.729300 13.355000
-10.716600 15.642500
-10.703900 15.820300
-10.691200 15.625300
-10.678500 17.384400
-10.665900 16.175000
-10.653200 15.558000
-10.640500 16.082100
-10.627800 16.606100
-10.615100 17.130200
-10.602400 17.654300
-10.589700 18.178400
-10.577100 18.704300
-10.564400 19.279300
-10.551700 19.891500
-10.539000 20.556700
-10.526300 21.279500
-10.513600 22.074800
-10.501000 22.874600
-10.488300 23.669900
-10.475600 24.459700
-10.462900 25.234000
-10.450200 26.004100
-10.437500 26.774100
-10.424800 27.544100
-10.412200 28.314200
-10.399500 29.084200
-10.386800 29.854300
-10.374100 31.489100
-10.361400 36.371600
-10.348700 48.118200
-10.336100 69.135500
-10.323400 83.381600
-10.310700 108.523600
-10.298000 126.657600
-10.285300 135.539600
-10.272600 150.653000
-10.259900 174.846700
-10.247300 296.765600
-10.234600 252.006500
-10.221900 354.462900
-10.209200 0.000000
-10.196500 0.000000
-10.183800 0.000000
-10.171200 0.000000
-10.158500 0.000000
-10.145800 0.000000
-10.133100 0.000000
-10.120400 0.000000
-10.107700 0.000000
-10.095000 0.000000
-10.082400 0.000000
-10.069700 0.000000
-10.057000 0.000000
-10.044300 0.000000
-10.031600 0.000000
-10.018900 0.000000
-10.006200 0.000000
-9.993600 0.000000
-9.980900 0.000000
-9.968200 0.000000
-9.955500 0.000000
-9.942800 0.000000
-9.930100 0.000000
-9.917500 0.000000
-9.904800 0.000000
-9.892100 0.000000
-9.879400 0.000000
-9.866700 0.000000
-9.854000 0.000000
-9.841300 0.000000
-9.828700 0.000000
-9.816000 0.000000
-9.803300 0.000000
-9.790600 0.000000
-9.777900 0.000000
-9.765200 0.000000
-9.752600 0.000000
-9.739900 0.000000
-9.727200 0.000000
-9.714500 0.000000
-9.701800 0.000000
-9.689100 0.000000
-9.676400 0.000000
-9.663800 0.000000
-9.651100 0.000000
-9.638400 0.000000
-9.625700 0.000000
-9.613000 0.000000
-9.600300 0.000000
-9.587700 0.000000
-9.575000 0.000000
-9.562300 0.000000
-9.549600 0.000000
-9.536900 0.000000
-9.524200 0.000000
-9.511500 0.000000
-9.498900 0.000000
-9.486200 0.000000
-9.473500 0.000000
-9.460800 0.000000
-9.448100 0.000000
-9.435400 0.000000
-9.422700 0.000000
-9.410100 0.000000
-9.397400 0.000000
-9.384700 0.000000
-9.372000 0.000000
-9.359300 0.000000
-9.346600 0.000000
-9.334000 0.000000
-9.321300 0.000000
-9.308600 0.000000
-9.295900 0.000000
-9.283200 0.000000
-9.270500 0.000000
-9.257800 0.000000
-9.245200 0.000000
-9.232500 0.000000
-9.219800 0.000000
-9.207100 0.000000
-9.194400 0.000000
-9.181700 0.000000
-9.169100 0.000000
-9.156400 0.000000
-9.143700 0.000000
-9.131000 0.000000
-9.118300 0.000000
-9.105600 0.000000
-9.092900 0.000000
-9.080300 0.000000
-9.067600 0.000000
-9.054900 0.000000
-9.042200 0.000000
-9.029500 0.000000
-9.016800 0.000000
-9.004200 0.000000
-8.991500 0.000000
-8.978800 0.000000
-8.966100 0.000000
-8.953400 0.000000
-8.940700 0.000000
-8.928000 0.000000
-8.915400 0.000000
-8.902700 0.000000
-8.890000 0.000000
-8.877300 0.000000
-8.864600 0.000000
-8.851900 0.000000
-8.839300 0.000000
-8.826600 0.000000
-8.813900 0.000000
-8.801200 0.000000
-8.788500 0.000000
-8.775800 0.000000
-8.763100 0.000000
-8.750500 0.000000
-8.737800 0.000000
-8.725100 0.000000
-8.712400 0.000000
-8.699700 0.000000
-8.687000 0.000000
-8.674300 0.000000
-8.661700 0.000000
-8.649000 0.000000
-8.636300 0.000000
-8.623600 0.000000
-8.610900 0.000000
-8.598200 0.000000
-8.585600 0.000000
-8.572900 0.000000
-8.560200 0.000000
-8.547500 0.000000
-8.534800 0.000000
-8.522100 0.000000
-8.509400 0.000000
-8.496800 0.000000
-8.484100 0.000000
-8.471400 0.000000
-8.458700 0.000000
-8.446000 0.000000
-8.433300 0.000000
-8.420700 0.000000
-8.408000 0.000000
-8.395300 0.000000
-8.382600 0.000000
-8.369900 0.000000
-8.357200 0.000000
-8.344500 0.000000
-8.331900 0.000000
-8.319200 0.000000
-8.306500 0.000000
-8.293800 0.000000
-8.281100 0.000000
-8.268400 0.000000
-8.255800 0.000000
-8.243100 0.000000
-8.230400 0.000000
-8.217700 0.000000
-8.205000 0.000000
-8.192300 0.000000
-8.179600 0.000000
-8.167000 0.000000
-8.154300 0.000000
-8.141600 0.000000
-8.128900 0.000000
-8.116200 0.000000
-8.103500 0.000000
-8.090800 0.000000
-8.078200 0.000000
-8.065500 0.000000
-8.052800 0.000000
-8.040100 0.000000
-8.027400 0.000000
-8.014700 0.000000
-8.002100 0.000000
-7.989400 0.000000
-7.976700 0.000000
-7.964000 0.000000
-7.951300 0.000000
-7.938600 0.000000
-7.925900 0.000000
-7.913300 0.000000
-7.900600 0.000000
-7.887900 0.000000
-7.875200 0.000000
-7.862500 0.000000
-7.849800 0.000000
-7.837200 0.000000
-7.824500 0.000000
-7.811800 0.000000
-7.799100 0.000000
-7.786400 0.000000
-7.773700 0.000000
-7.761000 0.000000
-7.748400 0.000000
-7.735700 0.000000
-7.723000 0.000000
-7.710300 0.000000
-7.697600 0.000000
-7.684900 0.000000
-7.672300 0.000000
-7.659600 0.000000
-7.646900 0.000000
-7.634200 0.000000
-7.621500 0.000000
-7.608800 0.000000
-7.596100 0.000000
-7.583500 0.000000
-7.570800 0.000000
-7.558100 0.000000
-7.545400 0.000000
-7.532700 0.000000
-7.520000 0.000000
-7.507300 0.000000
-7.494700 0.000000
-7.482000 0.000000
-7.469300 0.000000
-7.456600 0.000000
-7.443900 0.000000
-7.431200 0.000000
-7.418600 0.000000
-7.405900 0.000000
-7.393200 0.000000
-7.380500 0.000000
-7.367800 0.000000
-7.355100 0.000000
-7.342400 0.000000
-7.329800 0.000000
-7.317100 0.000000
-7.304400 0.000000
-7.291700 0.000000
-7.279000 0.000000
-7.266300 0.000000
-7.253700 0.000000
-7.241000 0.000000
-7.228300 0.000000
-7.215600 0.000000
-7.202900 0.000000
-7.190200 0.000000
-7.177500 0.000000
-7.164900 0.000000
-7.152200 0.000000
-7.139500 0.000000
-7.126800 0.000000
-7.114100 0.000000
-7.101400 0.000000
-7.088800 0.000000
-7.076100 0.000000
-7.063400 0.000000
-7.050700 0.000000
-7.038000 0.000000
-7.025300 0.000000
-7.012600 0.000000
-7.000000 0.000000
-6.987300 0.000000
-6.974600 0.000000
-6.961900 0.000000
-6.949200 0.000000
-6.936500 0.000000
-6.923800 0.000000
-6.911200 0.000000
-6.898500 0.000000
-6.885800 0.000000
-6.873100 0.000000
-6.860400 0.000000
-6.847700 0.000000
-6.835100 0.000000
-6.822400 0.000000
-6.809700 0.000000
-6.797000 0.000000
-6.784300 0.000000
-6.771600 0.000000
-6.758900 0.000000
-6.746300 0.000000
-6.733600 0.000000
-6.720900 0.000000
-6.708200 0.000000
-6.695500 0.000000
-6.682800 0.000000
-6.670200 0.000000
-6.657500 0.000000
-6.644800 0.000000
-6.632100 0.000000
-6.619400 0.000000
-6.606700 0.000000
-6.594000 0.000000
-6.581400 0.000000
-6.568700 0.000000
-6.556000 0.000000
-6.543300 0.000000
-6.530600 0.000000
-6.517900 0.000000
-6.505300 119.583600
-6.492600 198.491200
-6.479900 389.358900
-6.467200 311.450800
-6.454500 169.738000
-6.441800 127.599300
-6.429100 121.164100
-6.416500 114.909400
-6.403800 494.827200
-6.391100 339.387700
-6.378400 256.266300
-6.365700 116.585700
-6.353000 144.693300
-6.340300 717.272200
-6.327700 1126.082800
-6.315000 239.545900
-6.302300 665.449100
-6.289600 165.765100
-6.276900 259.813800
-6.264200 130.657200
-6.251600 113.221700
-6.238900 95.786200
-6.226200 85.364500
-6.213500 0.000000
-6.200800 0.000000
-6.188100 0.000000
-6.175400 0.000000
-6.162800 0.000000
-6.150100 0.000000
-6.137400 0.000000
-6.124700 0.000000
-6.112000 0.000000
-6.099300 0.000000
-6.086700 0.000000
-6.074000 0.000000
-6.061300 0.000000
-6.048600 0.000000
-6.035900 0.000000
-6.023200 0.000000
-6.010500 0.000000
-5.997900 0.000000
-5.985200 0.000000
-5.972500 0.000000
-5.959800 0.000000
-5.947100 0.000000
-5.934400 0.000000
-5.921800 0.000000
-5.909100 0.000000
-5.896400 0.000000
-5.883700 0.000000
-5.871000 0.000000
-5.858300 0.000000
-5.845600 0.000000
-5.833000 0.000000
-5.820300 0.000000
-5.807600 0.000000
-5.794900 0.000000
-5.782200 0.000000
-5.769500 0.000000
-5.756800 0.000000
-5.744200 0.000000
-5.731500 0.000000
-5.718800 0.000000
-5.706100 0.000000
-5.693400 0.000000
-5.680700 0.000000
-5.668100 0.000000
-5.655400 0.000000
-5.642700 0.000000
-5.630000 0.000000
-5.617300 0.000000
-5.604600 0.000000
-5.591900 0.000000
-5.579300 0.000000
-5.566600 0.000000
-5.553900 0.000000
-5.541200 0.000000
-5.528500 0.000000
-5.515800 0.000000
-5.503200 0.000000
-5.490500 0.000000
-5.477800 0.000000
-5.465100 0.000000
-5.452400 0.000000
-5.439700 0.000000
-5.427000 0.000000
-5.414400 0.000000
-5.401700 0.000000
-5.389000 0.000000
-5.376300 0.000000
-5.363600 0.000000
-5.350900 0.000000
-5.338300 0.000000
-5.325600 0.000000
-5.312900 0.000000
-5.300200 0.000000
-5.287500 0.000000
-5.274800 0.000000
-5.262100 0.000000
-5.249500 0.000000
-5.236800 0.000000
-5.224100 0.000000
-5.211400 0.000000
-5.198700 0.000000
-5.186000 0.000000
-5.173300 0.000000
-5.160700 0.000000
-5.148000 0.000000
-5.135300 0.000000
-5.122600 0.000000
-5.109900 0.000000
-5.097200 0.000000
-5.084600 0.000000
-5.071900 0.000000
-5.059200 0.000000
-5.046500 0.000000
-5.033800 0.000000
-5.021100 0.000000
-5.008400 0.000000
-4.995800 0.000000
-4.983100 0.000000
-4.970400 0.000000
-4.957700 0.000000
-4.945000 0.000000
-4.932300 0.000000
-4.919700 0.000000
-4.907000 0.000000
-4.894300 0.000000
-4.881600 0.000000
-4.868900 0.000000
-4.856200 0.000000
-4.843500 0.000000
-4.830900 0.000000
-4.818200 0.000000
-4.805500 0.000000
-4.792800 0.000000
-4.780100 0.000000
-4.767400 0.000000
-4.754800 0.000000
-4.742100 0.000000
-4.729400 0.000000
-4.716700 0.000000
-4.704000 0.000000
-4.691300 0.000000
-4.678600 0.000000
-4.666000 0.000000
-4.653300 0.000000
-4.640600 0.000000
-4.627900 0.000000
-4.615200 0.000000
-4.602500 0.000000
-4.589800 0.000000
-4.577200 0.000000
-4.564500 0.000000
-4.551800 0.000000
-4.539100 0.000000
-4.526400 0.000000
-4.513700 0.000000
-4.501100 0.000000
-4.488400 0.000000
-4.475700 0.000000
-4.463000 0.000000
-4.450300 0.000000
-4.437600 0.000000
-4.424900 0.000000
-4.412300 0.000000
-4.399600 0.000000
-4.386900 0.000000
-4.374200 0.000000
-4.361500 0.000000
-4.348800 0.000000
-4.336200 0.000000
-4.323500 0.000000
-4.310800 0.000000
-4.298100 0.000000
-4.285400 0.000000
-4.272700 0.000000
-4.260000 0.000000
-4.247400 0.000000
-4.234700 0.000000
-4.222000 0.000000
-4.209300 0.000000
-4.196600 0.000000
-4.183900 0.000000
-4.171300 0.000000
-4.158600 0.000000
-4.145900 0.000000
-4.133200 0.000000
-4.120500 0.000000
-4.107800 0.000000
-4.095100 0.000000
-4.082500 0.000000
-4.069800 0.000000
-4.057100 0.000000
-4.044400 0.000000
-4.031700 0.000000
-4.019000 0.000000
-4.006300 0.000000
-3.993700 0.000000
-3.981000 0.000000
-3.968300 0.000000
-3.955600 0.000000
-3.942900 0.000000
-3.930200 0.000000
-3.917600 0.000000
-3.904900 0.000000
-3.892200 0.000000
-3.879500 0.000000
-3.866800 0.000000
-3.854100 0.000000
-3.841400 0.000000
-3.828800 0.000000
-3.816100 0.000000
-3.803400 0.000000
-3.790700 0.000000
-3.778000 0.000000
-3.765300 0.000000
-3.752700 0.000000
-3.740000 0.000000
-3.727300 0.000000
-3.714600 0.000000
-3.701900 0.000000
-3.689200 0.000000
-3.676500 0.000000
-3.663900 0.000000
-3.651200 0.000000
-3.638500 0.000000
-3.625800 0.000000
-3.613100 0.000000
-3.600400 0.000000
-3.587800 0.000000
-3.575100 0.000000
-3.562400 0.000000
-3.549700 0.000000
-3.537000 0.000000
-3.524300 0.000000
-3.511600 0.000000
-3.499000 0.000000
-3.486300 0.000000
-3.473600 0.000000
-3.460900 0.000000
-3.448200 0.000000
-3.435500 0.000000
-3.422800 0.000000
-3.410200 0.000000
-3.397500 0.000000
-3.384800 0.000000
-3.372100 0.000000
-3.359400 0.000000
-3.346700 0.000000
-3.334100 0.000000
-3.321400 0.000000
-3.308700 0.000000
-3.296000 0.000000
-3.283300 0.000000
-3.270600 0.000000
-3.257900 0.000000
-3.245300 0.000000
-3.232600 0.000000
-3.219900 0.000000
-3.207200 0.000000
-3.194500 0.000000
-3.181800 0.000000
-3.169200 0.000000
-3.156500 0.000000
-3.143800 0.000000
-3.131100 0.000000
-3.118400 0.000000
-3.105700 0.000000
-3.093000 0.000000
-3.080400 0.000000
-3.067700 0.000000
-3.055000 0.000000
-3.042300 0.000000
-3.029600 0.000000
-3.016900 0.000000
-3.004300 0.000000
-2.991600 0.000000
-2.978900 0.000000
-2.966200 0.000000
-2.953500 0.000000
-2.940800 0.000000
-2.928100 0.000000
-2.915500 0.000000
-2.902800 0.000000
-2.890100 0.000000
-2.877400 0.000000
-2.864700 0.000000
-2.852000 0.000000
-2.839300 0.000000
-2.826700 0.000000
-2.814000 0.000000
-2.801300 0.000000
-2.788600 0.000000
-2.775900 0.000000
-2.763200 0.000000
-2.750600 0.000000
-2.737900 0.000000
-2.725200 0.000000
-2.712500 0.000000
-2.699800 0.000000
-2.687100 0.000000
-2.674400 0.000000
-2.661800 0.000000
-2.649100 0.000000
-2.636400 0.000000
-2.623700 0.000000
-2.611000 0.000000
-2.598300 0.000000
-2.585700 22.644500
-2.573000 9.983400
-2.560300 20.412200
-2.547600 37.609700
-2.534900 51.946800
-2.522200 46.560800
-2.509500 53.185900
-2.496900 56.638800
-2.484200 54.875300
-2.471500 44.885500
-2.458800 41.332100
-2.446100 40.469500
-2.433400 39.607000
-2.420800 33.896500
-2.408100 28.952500
-2.395400 28.437800
-2.382700 24.637300
-2.370000 21.456900
-2.357300 21.358200
-2.344600 21.259600
-2.332000 21.161000
-2.319300 21.062400
-2.306600 21.845600
-2.293900 22.739900
-2.281200 24.714000
-2.268500 30.789900
-2.255800 38.606200
-2.243200 40.904800
-2.230500 43.547100
-2.217800 37.339700
-2.205100 14.603200
-2.192400 15.189700
-2.179700 15.776100
-2.167100 16.518000
-2.154400 17.269000
-2.141700 37.076100
-2.129000 6.948900
-2.116300 6.829800
-2.103600 6.710700
-2.090900 6.591700
-2.078300 6.472600
-2.065600 6.353500
-2.052900 6.234500
-2.040200 6.115400
-2.027500 16.504200
-2.014800 8.201500
-2.002200 1.698100
-1.989500 1.655500
-1.976800 3.956400
-1.964100 2.778300
-1.951400 1.600300
-1.938700 0.422200
-1.926000 0.000000
-1.913400 0.000000
-1.900700 0.000000
-1.888000 0.000000
-1.875300 0.000000
-1.862600 0.000000
-1.849900 0.000000
-1.837300 0.000000
-1.824600 0.000000
-1.811900 0.000000
-1.799200 0.000000
-1.786500 0.000000
-1.773800 0.000000
-1.761100 0.000000
-1.748500 0.000000
-1.735800 0.000000
-1.723100 0.000000
-1.710400 0.000000
-1.697700 0.000000
-1.685000 0.000000
-1.672400 6.012000
-1.659700 4.642000
-1.647000 3.272000
-1.634300 7.227400
-1.621600 11.114400
-1.608900 8.914100
-1.596200 11.315700
-1.583600 14.970200
-1.570900 18.268100
-1.558200 15.160000
-1.545500 19.425300
-1.532800 16.034100
-1.520100 21.670200
-1.507400 20.572600
-1.494800 19.474900
-1.482100 19.145200
-1.469400 19.865200
-1.456700 20.585100
-1.444000 21.305000
-1.431300 22.024900
-1.418700 22.744900
-1.406000 23.464800
-1.393300 24.184700
-1.380600 50.722500
-1.367900 23.002200
-1.355200 20.837900
-1.342500 33.254100
-1.329900 18.753000
-1.317200 25.102200
-1.304500 18.169200
-1.291800 14.590200
-1.279100 14.722500
-1.266400 19.340500
-1.253800 17.265200
-1.241100 22.295400
-1.228400 10.849800
-1.215700 16.580800
-1.203000 13.169000
-1.190300 9.757200
-1.177600 8.503300
-1.165000 8.400100
-1.152300 8.854300
-1.139600 8.791400
-1.126900 8.728500
-1.114200 9.867300
-1.101500 9.895100
-1.088900 9.926900
-1.076200 11.834400
-1.063500 12.584400
-1.050800 12.736000
-1.038100 12.889200
-1.025400 13.710300
-1.012700 13.889800
-1.000100 14.069300
-0.987400 14.248600
-0.974700 14.422700
-0.962000 14.594700
-0.949300 14.766600
-0.936600 14.938000
-0.923900 15.100700
-0.911300 15.261200
-0.898600 15.411800
-0.885900 15.562400
-0.873200 15.713000
-0.860500 15.863600
-0.847800 16.014200
-0.835200 16.164800
-0.822500 16.315400
-0.809800 16.466000
-0.797100 16.616500
-0.784400 16.767100
-0.771700 16.917700
-0.759000 17.630600
-0.746400 18.218800
-0.733700 18.807000
-0.721000 20.412900
-0.708300 21.503900
-0.695600 24.523100
-0.682900 25.312800
-0.670300 27.137100
-0.657600 29.548700
-0.644900 31.267800
-0.632200 33.038500
-0.619500 34.201000
-0.606800 36.033800
-0.594100 38.254500
-0.581500 38.661700
-0.568800 38.882000
-0.556100 39.504300
-0.543400 39.702900
-0.530700 38.436900
-0.518000 38.470100
-0.505400 37.065400
-0.492700 36.984500
-0.480000 36.860800
-0.467300 36.737000
-0.454600 36.667600
-0.441900 36.801500
-0.429200 37.260700
-0.416600 36.803000
-0.403900 36.306000
-0.391200 36.637000
-0.378500 37.110600
-0.365800 37.810300
-0.353100 38.700400
-0.340400 39.645500
-0.327800 40.567700
-0.315100 40.649500
-0.302400 40.634500
-0.289700 41.257900
-0.277000 41.286200
-0.264300 39.362200
-0.251700 39.757700
-0.239000 35.881300
-0.226300 35.349200
-0.213600 32.365900
-0.200900 30.099800
-0.188200 36.584700
-0.175500 31.613500
-0.162900 28.068300
-0.150200 27.125300
-0.137500 28.100100
-0.124800 26.984800
-0.112100 26.102900
-0.099400 25.023500
-0.086800 23.944100
-0.074100 22.864700
-0.061400 22.138300
-0.048700 21.046100
-0.036000 19.994000
-0.023300 19.360500
-0.010600 18.761200
0.002000 18.237600
0.014700 17.734400
0.027400 17.260500
0.040100 16.849400
0.052800 16.457800
0.065500 16.152300
0.078100 15.922800
0.090800 15.725200
0.103500 15.503100
0.116200 15.280900
0.128900 16.063400
0.141600 16.092400
0.154300 16.217900
0.166900 17.276900
0.179600 18.576000
0.192300 19.092800
0.205000 19.795700
0.217700 20.321600
0.230400 20.847500
0.243100 21.373300
0.255700 23.870900
0.268400 26.723000
0.281100 26.810600
0.293800 30.967500
0.306500 33.023100
0.319200 34.961800
0.331800 40.046300
0.344500 44.052800
0.357200 44.321400
0.369900 45.762700
0.382600 47.297600
0.395300 48.832400
0.408000 62.687600
0.420600 75.570900
0.433300 63.603500
0.446000 62.064800
0.458700 60.703600
0.471400 58.417800
0.484100 50.436100
0.496700 63.524600
0.509400 90.742400
0.522100 49.051800
0.534800 51.346100
0.547500 55.089300
0.560200 56.088700
0.572900 61.993400
0.585500 46.953600
0.598200 48.455600
0.610900 58.250600
0.623600 55.341800
0.636300 55.334600
0.649000 62.348100
0.661600 62.207600
0.674300 69.693200
0.687000 63.532300
0.699700 62.125100
0.712400 58.838200
0.725100 65.363300
0.737800 70.873100
0.750400 57.371300
0.763100 59.479100
0.775800 56.490400
0.788500 51.782900
0.801200 48.825600
0.813900 46.249500
0.826600 40.499700
0.839200 35.873200
0.851900 32.240000
0.864600 28.932400
0.877300 25.894200
0.890000 22.855100
0.902700 32.833800
0.915300 29.758300
0.928000 26.577100
0.940700 10.517700
0.953400 10.569300
0.966100 11.834300
0.978800 0.000000
0.991500 0.000000
1.004100 0.000000
1.016800 0.000000
1.029500 0.000000
1.042200 0.000000
1.054900 0.000000
1.067600 0.000000
1.080200 0.000000
1.092900 0.000000
1.105600 0.000000
1.118300 0.000000
1.131000 0.000000
1.143700 0.000000
1.156400 0.000000
1.169000 0.000000
1.181700 0.000000
1.194400 0.000000
1.207100 0.000000
1.219800 0.000000
1.232500 0.000000
1.245100 0.000000
1.257800 0.000000
1.270500 0.000000
1.283200 0.000000
1.295900 0.000000
1.308600 0.000000
1.321300 0.000000
1.333900 0.000000
1.346600 0.000000
1.359300 0.000000
1.372000 0.000000
1.384700 0.000000
1.397400 0.000000
1.410100 0.000000
1.422700 0.000000
1.435400 0.000000
1.448100 0.000000
1.460800 0.000000
1.473500 0.000000
1.486200 0.000000
1.498800 0.000000
1.511500 0.000000
1.524200 0.000000
1.536900 0.000000
1.549600 0.000000
1.562300 0.000000
1.575000 0.000000
1.587600 0.000000
1.600300 0.000000
1.613000 0.000000
1.625700 0.000000
1.638400 0.000000
1.651100 0.000000
1.663700 0.000000
1.676400 0.000000
1.689100 0.000000
1.701800 0.000000
1.714500 0.000000
1.727200 0.000000
1.739900 0.000000
1.752500 0.000000
1.765200 0.000000
1.777900 0.000000
1.790600 0.000000
1.803300 0.000000
1.816000 0.000000
1.828600 0.000000
1.841300 0.000000
1.854000 0.000000
1.866700 0.000000
1.879400 0.000000
1.892100 0.000000
1.904800 0.000000
1.917400 0.000000
1.930100 0.000000
1.942800 0.000000
1.955500 0.000000
1.968200 0.000000
1.980900 0.000000
1.993600 0.000000
2.006200 0.000000
2.018900 0.000000
2.031600 0.000000
2.044300 0.000000
2.057000 0.000000
2.069700 0.000000
2.082300 0.000000
2.095000 0.000000
2.107700 0.000000
2.120400 0.000000
2.133100 0.000000
2.145800 0.000000
2.158500 0.000000
2.171100 0.000000
2.183800 0.000000
2.196500 0.000000
2.209200 0.000000
2.221900 0.000000
2.234600 0.000000
2.247200 0.000000
2.259900 0.000000
2.272600 0.000000
2.285300 0.000000
2.298000 0.000000
2.310700 0.000000
2.323400 0.000000
2.336000 0.000000
2.348700 0.000000
2.361400 0.000000
2.374100 0.000000
2.386800 0.000000
2.399500 0.000000
2.412100 0.000000
2.424800 0.000000
2.437500 0.000000
2.450200 0.000000
2.462900 0.000000
2.475600 0.000000
2.488300 0.000000
2.500900 0.000000
2.513600 0.000000
2.526300 0.000000
2.539000 0.000000
2.551700 0.000000
2.564400 0.000000
2.577100 0.000000
2.589700 0.000000
2.602400 0.000000
2.615100 0.000000
2.627800 0.000000
2.640500 0.000000
2.653200 0.000000
2.665800 0.000000
2.678500 0.000000
2.691200 0.000000
2.703900 0.000000
2.716600 0.000000
2.729300 0.000000
2.742000 0.000000
2.754600 0.000000
2.767300 0.000000
2.780000 0.000000
2.792700 0.000000
2.805400 0.000000
2.818100 0.000000
2.830700 0.000000
2.843400 0.000000
2.856100 0.000000
2.868800 0.000000
2.881500 0.000000
2.894200 0.000000
2.906900 0.000000
2.919500 0.000000
2.932200 0.000000
2.944900 0.000000
2.957600 0.000000
2.970300 0.000000
2.983000 0.000000
2.995600 0.000000
3.008300 0.000000
3.021000 0.000000
3.033700 0.000000
3.046400 0.000000
3.059100 0.000000
3.071800 0.000000
3.084400 0.000000
3.097100 0.000000
3.109800 0.000000
3.122500 0.000000
3.135200 0.000000
3.147900 0.000000
3.160600 0.000000
3.173200 0.000000
3.185900 0.000000
3.198600 0.000000
3.211300 0.000000
3.224000 0.000000
3.236700 0.000000
3.249300 0.000000
3.262000 0.000000
3.274700 0.000000
3.287400 0.000000
3.300100 0.000000
3.312800 0.000000
3.325500 0.000000
3.338100 0.000000
3.350800 0.000000
3.363500 0.000000
3.376200 0.000000
3.388900 0.000000
3.401600 0.009200
3.414200 0.911900
3.426900 1.846700
3.439600 1.925900
3.452300 2.005200
3.465000 3.023400
3.477700 3.135600
3.490400 3.247800
3.503000 4.346300
3.515700 4.495900
3.528400 5.746900
3.541100 5.946600
3.553800 6.146200
3.566500 6.345900
3.579100 7.774200
3.591800 9.190600
3.604500 9.441900
3.617200 10.924200
3.629900 11.199300
3.642600 11.474500
3.655300 11.749600
3.667900 12.024800
3.680600 12.299900
3.693300 12.634300
3.706000 13.059200
3.718700 13.525000
3.731400 14.041700
3.744100 14.583800
3.756700 15.209700
3.769400 15.915100
3.782100 16.682100
3.794800 17.487000
3.807500 18.368600
3.820200 19.349500
3.832800 20.333200
3.845500 21.316900
3.858200 22.300600
3.870900 23.474800
3.883600 24.782800
3.896300 33.697800
3.909000 30.705600
3.921600 27.526700
3.934300 32.125300
3.947000 35.238900
3.959700 34.275900
3.972400 33.508300
3.985100 32.106900
3.997700 42.192900
4.010400 36.449200
4.023100 31.278700
4.035800 39.144800
4.048500 32.516000
4.061200 27.093300
4.073900 26.175400
4.086500 25.217300
4.099200 24.298700
4.111900 23.160900
4.124600 22.023100
4.137300 20.396500
4.150000 21.243300
4.162600 20.048800
4.175300 20.753300
4.188000 18.607700
4.200700 16.614900
4.213400 14.630700
4.226100 12.646500
4.238800 10.862500
4.251400 9.511600
4.264100 9.655000
4.276800 10.252000
4.289500 4.101000
4.302200 4.939400
4.314900 5.777900
4.327600 0.000000
4.340200 0.000000
4.352900 0.000000
4.365600 0.000000
4.378300 0.000000
4.391000 0.000000
4.403700 0.000000
4.416300 0.000000
4.429000 0.000000
4.441700 0.000000
4.454400 0.000000
4.467100 0.000000
4.479800 0.000000
4.492500 0.000000
4.505100 0.000000
4.517800 0.000000
4.530500 0.000000
4.543200 0.000000
4.555900 0.000000
4.568600 0.000000
4.581200 0.000000
4.593900 0.000000
4.606600 0.000000
4.619300 0.000000
4.632000 0.000000
4.644700 0.000000
4.657400 0.000000
4.670000 0.000000
4.682700 0.000000
4.695400 0.000000
4.708100 0.000000
4.720800 0.000000
4.733500 0.000000
4.746100 0.000000
4.758800 0.000000
4.771500 0.000000
4.784200 0.000000
4.796900 0.000000
4.809600 0.000000
4.822300 0.000000
4.834900 0.000000
4.847600 0.000000
4.860300 0.000000
4.873000 0.000000
4.885700 0.000000
4.898400 0.000000
4.911100 0.000000
4.923700 0.000000
4.936400 0.000000
4.949100 0.000000
4.961800 0.000000
4.974500 0.000000
4.987200 0.000000
4.999800 0.000000
5.012500 0.000000
5.025200 0.000000
5.037900 0.000000
5.050600 0.000000
5.063300 0.000000
5.076000 0.000000
5.088600 0.000000
5.101300 0.000000
5.114000 0.000000
5.126700 0.000000
5.139400 0.000000
5.152100 0.000000
5.164700 0.000000
5.177400 0.000000
5.190100 0.000000
5.202800 0.000000
5.215500 0.000000
5.228200 0.000000
5.240900 0.000000
5.253500 0.000000
5.266200 0.000000
5.278900 0.000000
5.291600 0.000000
5.304300 0.000000
5.317000 0.000000
5.329600 0.000000
5.342300 0.000000
5.355000 0.000000
5.367700 0.000000
5.380400 0.000000
5.393100 0.000000
5.405800 0.000000
5.418400 0.000000
5.431100 0.000000
5.443800 0.000000
5.456500 0.000000
5.469200 0.000000
5.481900 0.005700
5.494500 0.053800
5.507200 0.126400
5.519900 0.198900
5.532600 0.271500
5.545300 0.344100
5.558000 0.416700
5.570700 0.489300
5.583300 0.561900
5.596000 0.634500
5.608700 0.707100
5.621400 0.779700
5.634100 0.852300
5.646800 0.924800
5.659500 0.997400
5.672100 1.070000
5.684800 1.142600
5.697500 1.215200
5.710200 1.287800
5.722900 1.360400
5.735600 1.433000
5.748200 1.505600
5.760900 1.578200
5.773600 1.650700
5.786300 1.723300
5.799000 1.795900
5.811700 1.868500
5.824400 1.941100
5.837000 2.013700
5.849700 2.086300
5.862400 2.158900
5.875100 2.231500
5.887800 2.304100
5.900500 2.376600
5.913100 2.449200
5.925800 2.521800
5.938500 2.594400
5.951200 2.667000
5.963900 4.411200
5.976600 4.694400
5.989300 6.599200
6.001900 7.152900
6.014600 7.706500
6.027300 8.237300
6.040000 9.008500
6.052700 9.462000
6.065400 11.006600
6.078000 12.075500
6.090700 12.425800
6.103400 12.776400
6.116100 13.152500
6.128800 14.112000
6.141500 14.479800
6.154200 14.597900
6.166800 15.202100
6.179500 15.394800
6.192200 15.587400
6.204900 15.780100
6.217600 15.972700
6.230300 16.726800
6.243000 16.974000
6.255600 17.221200
6.268300 18.006600
6.281000 18.139600
6.293700 18.272500
6.306400 18.405500
6.319100 18.538400
6.331700 18.671400
6.344400 18.804300
6.357100 18.822500
6.369800 18.835500
6.382500 18.848600
6.395200 22.904500
6.407900 22.654000
6.420500 22.403500
6.433200 22.152900
6.445900 21.744200
6.458600 25.281900
6.471300 23.801400
6.484000 22.348800
6.496600 21.286500
6.509300 28.915900
6.522000 21.407100
6.534700 20.834200
6.547400 25.297600
6.560100 23.086500
6.572800 20.875300
6.585400 18.664100
6.598100 16.628300
6.610800 16.649500
6.623500 16.670800
6.636200 16.692000
6.648900 16.713300
6.661500 16.734500
6.674200 12.578500
6.686900 13.866100
6.699600 15.277700
6.712300 13.530100
6.725000 13.235600
6.737700 12.981600
6.750300 15.226100
6.763000 17.167000
6.775700 16.696900
6.788400 16.226800
6.801100 15.756600
6.813800 15.286500
6.826500 14.816400
6.839100 14.346300
6.851800 13.376300
6.864500 15.740000
6.877200 18.427900
6.889900 16.058600
6.902600 15.276900
6.915200 14.655000
6.927900 14.033000
6.940600 13.411100
6.953300 12.789100
6.966000 12.297100
6.978700 12.148100
6.991400 11.260000
7.004000 11.193300
7.016700 15.199600
7.029400 14.783800
7.042100 19.015300
7.054800 18.061400
7.067500 20.185900
7.080100 22.953200
7.092800 23.684400
7.105500 21.349900
7.118200 20.149000
7.130900 27.825100
7.143600 34.714300
7.156300 34.586300
7.168900 46.548000
7.181600 45.580700
7.194300 34.145600
7.207000 22.811000
7.219700 23.284800
7.232400 24.708500
7.245000 27.808200
7.257700 30.639500
7.270400 35.452400
7.283100 31.600100
7.295800 24.953800
7.308500 34.539400
7.321200 34.099300
7.333800 30.460600
7.346500 25.031600
7.359200 25.741000
7.371900 25.289400
7.384600 34.912400
7.397300 22.554100
7.410000 28.894300
7.422600 35.234500
7.435300 35.041800
7.448000 32.300200
7.460700 28.866700
7.473400 26.939800
7.486100 27.431400
7.498700 25.390300
7.511400 28.460100
7.524100 34.032500
7.536800 37.809100
7.549500 30.811600
7.562200 29.875900
7.574900 31.205100
7.587500 33.019800
7.600200 34.834400
7.612900 29.067000
7.625600 29.454600
7.638300 32.208300
7.651000 34.323400
7.663600 38.806300
7.676300 38.807800
7.689000 39.870400
7.701700 39.455400
7.714400 48.846600
7.727100 46.854100
7.739800 41.404800
7.752400 41.092400
7.765100 42.029100
7.777800 40.109800
7.790500 45.279400
7.803200 35.162000
7.815900 37.943000
7.828500 41.007800
7.841200 29.858300
7.853900 31.943800
7.866600 32.612000
7.879300 32.048000
7.892000 31.484000
7.904700 30.920100
7.917300 31.512700
7.930000 27.695600
7.942700 24.663100
7.955400 25.776200
7.968100 23.630200
7.980800 24.494200
7.993500 24.648500
8.006100 31.067500
8.018800 36.315900
8.031500 32.074900
8.044200 30.756800
8.056900 29.773600
8.069600 29.509200
8.082200 31.868200
8.094900 31.536500
8.107600 31.204800
8.120300 30.873100
8.133000 30.541400
8.145700 30.209600
8.158400 29.825200
8.171000 29.368800
8.183700 35.416800
8.196400 33.759000
8.209100 31.379400
8.221800 32.881200
8.234500 30.314400
8.247100 27.063800
8.259800 26.313400
8.272500 27.017800
8.285200 32.466000
8.297900 36.618000
8.310600 28.295900
8.323300 25.345900
8.335900 22.985300
8.348600 16.436800
8.361300 14.916400
8.374000 13.395900
8.386700 12.498900
8.399400 12.224700
8.412000 11.950400
8.424700 11.676100
8.437400 11.401800
8.450100 11.127600
8.462800 10.853300
8.475500 10.579000
8.488200 10.304700
8.500800 9.628500
8.513500 9.377000
8.526200 9.125400
8.538900 8.873900
8.551600 8.622400
8.564300 8.370900
8.577000 7.706500
8.589600 9.202400
8.602300 8.827400
8.615000 10.738000
8.627700 9.919700
8.640400 8.719100
8.653100 7.948600
8.665700 6.843300
8.678400 6.514100
8.691100 6.835000
8.703800 8.564700
8.716500 10.375600
8.729200 12.572400
8.741900 14.769200
8.754500 10.686800
8.767200 11.584500
8.779900 7.643800
8.792600 7.984100
8.805300 8.324400
8.818000 8.662400
8.830600 8.892800
8.843300 9.123200
8.856000 7.099500
8.868700 11.294700
8.881400 11.753100
8.894100 11.620300
8.906800 12.747900
8.919400 13.875600
8.932100 14.654500
8.944800 14.388300
8.957500 14.911400
8.970200 14.267900
8.982900 14.383700
8.995500 14.448300
9.008200 14.512800
9.020900 14.577400
9.033600 16.367500
9.046300 16.821700
9.059000 21.195500
9.071700 18.685900
9.084300 17.821700
9.097000 18.393700
9.109700 19.515200
9.122400 22.355700
9.135100 27.457700
9.147800 39.110000
9.160500 26.014900
9.173100 26.241100
9.185800 27.067900
9.198500 29.434400
9.211200 33.647200
9.223900 36.385100
9.236600 29.582900
9.249200 27.767700
9.261900 25.337900
9.274600 21.869900
9.287300 20.751900
9.300000 19.633900
9.312700 18.267900
9.325400 17.785500
9.338000 17.725900
9.350700 29.569200
9.363400 22.063300
9.376100 25.969000
9.388800 30.929200
9.401500 29.831800
9.414100 32.861500
9.426800 27.277800
9.439500 29.785300
9.452200 29.134800
9.464900 28.893000
9.477600 28.651200
9.490300 26.191000
9.502900 26.377200
9.515600 26.259200
9.528300 29.109000
9.541000 28.562500
9.553700 28.527800
9.566400 27.059000
9.579000 26.267600
9.591700 32.897200
9.604400 30.209000
9.617100 26.309800
9.629800 26.150700
9.642500 25.709900
9.655200 25.939900
9.667800 26.557400
9.680500 25.692200
9.693200 26.473400
9.705900 27.360800
9.718600 26.333100
9.731300 27.196300
9.744000 27.590600
9.756600 22.754600
9.769300 23.034000
9.782000 23.392200
9.794700 23.799600
9.807400 24.327900
9.820100 25.160200
9.832700 27.973400
9.845400 30.943700
9.858100 32.603900
9.870800 26.048300
9.883500 22.967800
9.896200 23.491800
9.908900 24.816900
9.921500 26.235300
9.934200 27.653700
9.946900 25.521200
9.959600 27.001500
9.972300 24.942900
9.985000 25.382800
9.997600 28.139000
10.010300 33.865700
10.023000 21.575700
10.035700 23.409300
10.048400 25.243000
10.061100 17.608000
10.073800 17.779300
10.086400 17.950500
10.099100 18.808200
10.111800 19.855900
10.124500 35.398000
10.137200 25.821400
10.149900 20.174800
10.162500 20.132900
10.175200 20.187600
10.187900 20.242200
10.200600 20.296800
10.213300 20.519700
10.226000 20.839700
10.238700 21.390300
10.251300 19.711100
10.264000 20.773500
10.276700 18.743200
10.289400 19.249000
10.302100 19.456100
10.314800 19.663100
10.327500 20.011500
10.340100 20.407800
10.352800 21.631600
10.365500 22.032900
10.378200 22.434300
10.390900 22.835600
10.403600 19.651100
10.416200 20.216000
10.428900 18.059900
10.441600 18.163800
10.454300 18.267800
10.467000 18.371800
10.479700 18.819200
10.492400 18.980000
10.505000 17.283000
10.517700 17.292800
10.530400 17.302500
10.543100 17.312300
10.555800 17.328500
10.568500 17.373600
10.581100 15.929400
10.593800 15.949200
10.606500 15.980500
10.619200 16.037000
10.631900 17.166100
10.644600 17.259500
10.657300 17.352900
10.669900 17.446700
10.682600 17.564400
10.695300 17.715300
10.708000 17.866200
10.720700 19.205800
10.733400 17.839900
10.746000 16.948100
10.758700 17.088400
10.771400 17.042700
10.784100 15.773300
10.796800 14.822400
10.809500 14.850200
10.822200 14.773500
10.834800 14.703100
10.847500 14.639600
10.860200 16.298600
10.872900 16.194900
10.885600 16.042900
10.898300 15.865200
10.911000 15.607700
10.923600 15.265100
10.936300 14.916400
10.949000 16.124200
10.961700 16.351000
10.974400 16.275200
10.987100 16.199300
10.999700 16.126500
11.012400 17.698500
11.025100 18.140300
11.037800 19.588900
11.050500 19.775200
11.063200 19.961600
11.075900 20.412600
11.088500 20.564900
11.101200 20.589000
11.113900 20.431800
11.126600 20.088900
11.139300 19.748800
11.152000 19.408800
11.164600 19.068700
11.177300 18.595500
11.190000 18.078700
11.202700 18.378100
11.215400 17.849400
11.228100 17.363300
11.240800 16.911900
11.253400 16.630800
11.266100 17.005700
11.278800 16.684300
11.291500 17.413600
11.304200 17.001000
11.316900 16.592200
11.329500 16.194000
11.342200 15.811600
11.354900 15.807800
11.367600 15.468200
11.380300 15.713400
11.393000 15.392000
11.405700 15.073400
11.418300 15.348500
11.431000 18.899100
11.443700 16.968800
11.456400 15.038500
11.469100 14.590200
11.481800 15.952100
11.494500 15.114000
11.507100 14.664400
11.519800 14.214800
11.532500 13.765200
11.545200 13.315700
11.557900 12.866100
11.570600 12.555200
11.583200 13.106000
11.595900 13.071700
11.608600 12.700400
11.621300 12.738900
11.634000 12.231900
11.646700 12.277900
11.659400 13.361200
11.672000 12.256800
11.684700 13.488400
11.697400 14.720000
11.710100 9.819400
11.722800 9.678500
11.735500 9.564900
11.748100 9.451300
11.760800 9.337700
11.773500 9.224100
11.786200 9.110500
11.798900 9.038100
11.811600 19.696900
11.824300 10.880000
11.836900 10.854700
11.849600 9.808400
11.862300 9.809000
11.875000 9.871200
11.887700 9.933400
11.900400 9.995700
11.913000 8.771600
11.925700 6.882500
11.938400 7.012500
11.951100 7.142400
11.963800 7.272300
11.976500 7.402300
11.989200 7.634200
12.001800 7.917500
12.014500 6.570900
12.027200 4.325600
12.039900 4.348200
12.052600 4.370800
12.065300 4.393400
12.077900 4.416000
12.090600 4.438700
12.103300 4.653900
12.116000 2.947200
12.128700 3.225300
12.141400 3.543800
12.154100 3.975600
12.166700 4.407300
12.179400 1.506800
12.192100 1.598300
12.204800 1.689700
12.217500 1.781200
12.230200 1.872700
12.242900 1.964100
12.255500 2.055600
12.268200 0.000000
12.280900 0.000000
12.293600 0.000000
12.306300 0.000000
12.319000 0.000000
12.331600 0.000000
12.344300 0.000000
12.357000 0.000000
12.369700 0.000000
12.382400 0.000000
12.395100 0.000000
12.407800 0.000000
12.420400 0.000000
12.433100 0.000000
12.445800 0.000000
12.458500 0.000000
12.471200 0.000000
12.483900 0.000000
12.496500 0.000000
12.509200 0.000000
12.521900 0.000000
12.534600 0.000000
12.547300 0.000000
12.560000 0.000000
12.572700 0.000000
12.585300 0.000000
12.598000 0.000000
12.610700 0.000000
12.623400 0.000000
12.636100 0.000000
12.648800 0.000000
12.661400 0.000000
12.674100 0.000000
12.686800 0.000000
12.699500 0.000000
12.712200 0.000000
12.724900 0.000000
12.737600 0.000000
12.750200 0.000000
12.762900 0.000000
12.775600 0.000000
12.788300 0.000000
12.801000 0.000000
12.813700 0.000000
12.826400 0.000000
12.839000 0.000000
12.851700 0.000000
12.864400 0.000000
12.877100 0.000000
12.889800 0.000000
12.902500 0.000000
12.915100 0.000000
12.927800 0.000000
12.940500 0.000000
12.953200 0.000000
12.965900 0.000000
12.978600 0.000000
12.991300 0.000000
13.003900 0.000000
13.016600 0.000000
13.029300 0.000000
13.042000 0.000000
13.054700 0.000000
13.067400 0.000000
13.080000 0.000000
13.092700 0.000000
13.105400 0.000000
13.118100 0.000000
13.130800 0.000000
13.143500 0.000000
13.156200 0.000000
13.168800 0.000000
13.181500 0.000000
13.194200 0.000000
13.206900 0.000000
13.219600 0.000000
13.232300 0.000000
13.244900 0.000000
13.257600 0.000000
13.270300 0.000000
13.283000 0.000000
13.295700 0.000000
13.308400 0.000000
13.321100 0.000000
13.333700 0.000000
13.346400 0.000000
13.359100 0.000000
13.371800 0.000000
13.384500 0.000000
13.397200 0.000000
13.409900 0.000000
e
