set title 'mp-978992 - Density of States'
set xlabel 'Energy (eV)'
set ylabel 'DOS (states/eV)'
set grid
set xrange [-10:10]
set yrange [0:7.075]
set xzeroaxis lt -1
set terminal png size 800,600
set output 'mp-978992_dos_gnuplot.png'
plot '-' using 1:2 with lines title 'DOS'
-21.110600 0.000000
-21.087300 0.000000
-21.064100 0.000000
-21.040800 0.000000
-21.017500 0.000000
-20.994300 0.000000
-20.971000 0.000000
-20.947700 0.000000
-20.924500 0.000000
-20.901200 0.000000
-20.877900 0.000000
-20.854700 0.000000
-20.831400 0.000000
-20.808100 0.000000
-20.784900 0.000000
-20.761600 0.000000
-20.738300 0.000000
-20.715100 0.000000
-20.691800 0.000000
-20.668600 0.000000
-20.645300 0.000000
-20.622000 0.000000
-20.598800 0.000000
-20.575500 0.000000
-20.552200 0.000000
-20.529000 0.000000
-20.505700 0.000000
-20.482400 0.000000
-20.459200 0.000000
-20.435900 0.000000
-20.412600 0.000000
-20.389400 0.000000
-20.366100 0.000000
-20.342800 0.000000
-20.319600 0.000000
-20.296300 0.000000
-20.273000 0.000000
-20.249800 0.000000
-20.226500 0.000000
-20.203300 0.000000
-20.180000 0.000000
-20.156700 0.000000
-20.133500 0.000000
-20.110200 0.000000
-20.086900 0.000000
-20.063700 0.000000
-20.040400 0.000000
-20.017100 0.000000
-19.993900 0.000000
-19.970600 0.000000
-19.947300 0.000000
-19.924100 0.000000
-19.900800 0.000000
-19.877500 0.000000
-19.854300 0.000000
-19.831000 0.000000
-19.807700 0.000000
-19.784500 0.000000
-19.761200 0.000000
-19.738000 0.000000
-19.714700 0.000000
-19.691400 0.000000
-19.668200 0.000000
-19.644900 0.000000
-19.621600 0.000000
-19.598400 0.000000
-19.575100 0.000000
-19.551800 0.000000
-19.528600 0.000000
-19.505300 0.000000
-19.482000 0.000000
-19.458800 0.000000
-19.435500 0.000000
-19.412200 0.000000
-19.389000 0.000000
-19.365700 0.000000
-19.342400 0.000000
-19.319200 0.000000
-19.295900 0.000000
-19.272700 0.000000
-19.249400 0.000000
-19.226100 0.000000
-19.202900 0.000000
-19.179600 0.000000
-19.156300 0.000000
-19.133100 0.000000
-19.109800 0.000000
-19.086500 0.000000
-19.063300 0.000000
-19.040000 0.000000
-19.016700 0.000000
-18.993500 53.280100
-18.970200 97.376800
-18.946900 54.506100
-18.923700 64.069000
-18.900400 74.702100
-18.877200 64.674800
-18.853900 112.033700
-18.830600 21.881100
-18.807400 105.935100
-18.784100 22.220100
-18.760800 16.213700
-18.737600 14.055300
-18.714300 0.000000
-18.691000 0.000000
-18.667800 0.000000
-18.644500 0.000000
-18.621200 0.000000
-18.598000 0.000000
-18.574700 0.000000
-18.551400 0.000000
-18.528200 0.000000
-18.504900 0.000000
-18.481600 0.000000
-18.458400 0.000000
-18.435100 0.000000
-18.411900 0.000000
-18.388600 0.000000
-18.365300 0.000000
-18.342100 0.000000
-18.318800 0.000000
-18.295500 0.000000
-18.272300 0.000000
-18.249000 0.000000
-18.225700 0.000000
-18.202500 0.000000
-18.179200 0.000000
-18.155900 0.000000
-18.132700 0.000000
-18.109400 0.000000
-18.086100 0.000000
-18.062900 0.000000
-18.039600 0.000000
-18.016300 0.000000
-17.993100 0.000000
-17.969800 0.000000
-17.946600 0.000000
-17.923300 0.000000
-17.900000 0.000000
-17.876800 0.000000
-17.853500 0.000000
-17.830200 0.000000
-17.807000 0.000000
-17.783700 0.000000
-17.760400 0.000000
-17.737200 0.000000
-17.713900 0.000000
-17.690600 0.000000
-17.667400 0.000000
-17.644100 0.000000
-17.620800 0.000000
-17.597600 0.000000
-17.574300 0.000000
-17.551000 0.000000
-17.527800 0.000000
-17.504500 0.000000
-17.481300 0.000000
-17.458000 0.000000
-17.434700 0.000000
-17.411500 0.000000
-17.388200 0.000000
-17.364900 0.000000
-17.341700 0.000000
-17.318400 0.000000
-17.295100 0.000000
-17.271900 0.000000
-17.248600 0.000000
-17.225300 0.000000
-17.202100 0.000000
-17.178800 0.000000
-17.155500 0.000000
-17.132300 0.000000
-17.109000 0.000000
-17.085800 0.000000
-17.062500 0.000000
-17.039200 0.000000
-17.016000 0.000000
-16.992700 0.000000
-16.969400 0.000000
-16.946200 0.000000
-16.922900 0.000000
-16.899600 0.000000
-16.876400 0.000000
-16.853100 0.000000
-16.829800 0.000000
-16.806600 0.000000
-16.783300 0.000000
-16.760000 0.000000
-16.736800 0.000000
-16.713500 0.000000
-16.690200 0.000000
-16.667000 0.000000
-16.643700 0.000000
-16.620500 0.000000
-16.597200 0.000000
-16.573900 0.000000
-16.550700 0.000000
-16.527400 0.000000
-16.504100 0.000000
-16.480900 0.000000
-16.457600 0.000000
-16.434300 0.000000
-16.411100 0.000000
-16.387800 0.000000
-16.364500 0.000000
-16.341300 0.000000
-16.318000 0.000000
-16.294700 0.000000
-16.271500 0.000000
-16.248200 0.000000
-16.224900 0.000000
-16.201700 0.000000
-16.178400 0.000000
-16.155200 0.000000
-16.131900 0.000000
-16.108600 0.000000
-16.085400 0.000000
-16.062100 0.000000
-16.038800 0.000000
-16.015600 0.000000
-15.992300 0.000000
-15.969000 0.000000
-15.945800 0.000000
-15.922500 0.000000
-15.899200 0.000000
-15.876000 0.000000
-15.852700 0.000000
-15.829400 0.000000
-15.806200 0.000000
-15.782900 0.000000
-15.759600 0.000000
-15.736400 0.000000
-15.713100 0.000000
-15.689900 0.000000
-15.666600 0.000000
-15.643300 0.000000
-15.620100 0.000000
-15.596800 0.000000
-15.573500 0.000000
-15.550300 0.000000
-15.527000 0.000000
-15.503700 0.000000
-15.480500 0.000000
-15.457200 0.000000
-15.433900 0.000000
-15.410700 0.000000
-15.387400 0.000000
-15.364100 0.000000
-15.340900 0.000000
-15.317600 0.000000
-15.294400 0.000000
-15.271100 0.000000
-15.247800 0.000000
-15.224600 0.000000
-15.201300 0.000000
-15.178000 0.000000
-15.154800 0.000000
-15.131500 0.000000
-15.108200 0.000000
-15.085000 0.000000
-15.061700 0.000000
-15.038400 0.000000
-15.015200 0.000000
-14.991900 0.000000
-14.968600 0.000000
-14.945400 0.000000
-14.922100 0.000000
-14.898800 0.000000
-14.875600 0.000000
-14.852300 0.000000
-14.829100 0.000000
-14.805800 0.000000
-14.782500 0.000000
-14.759300 0.000000
-14.736000 0.000000
-14.712700 0.000000
-14.689500 0.000000
-14.666200 0.000000
-14.642900 0.000000
-14.619700 0.000000
-14.596400 0.000000
-14.573100 0.000000
-14.549900 0.000000
-14.526600 0.000000
-14.503300 0.000000
-14.480100 0.000000
-14.456800 0.000000
-14.433500 0.000000
-14.410300 0.000000
-14.387000 0.000000
-14.363800 0.000000
-14.340500 0.000000
-14.317200 0.000000
-14.294000 0.000000
-14.270700 0.000000
-14.247400 0.000000
-14.224200 0.000000
-14.200900 0.000000
-14.177600 0.000000
-14.154400 0.000000
-14.131100 0.000000
-14.107800 0.000000
-14.084600 0.000000
-14.061300 0.000000
-14.038000 0.000000
-14.014800 0.000000
-13.991500 0.000000
-13.968200 0.000000
-13.945000 0.000000
-13.921700 0.000000
-13.898500 0.000000
-13.875200 0.000000
-13.851900 0.000000
-13.828700 0.000000
-13.805400 0.000000
-13.782100 0.000000
-13.758900 0.000000
-13.735600 0.000000
-13.712300 0.000000
-13.689100 0.000000
-13.665800 0.000000
-13.642500 0.000000
-13.619300 0.000000
-13.596000 0.000000
-13.572700 0.000000
-13.549500 0.000000
-13.526200 0.000000
-13.503000 0.000000
-13.479700 0.000000
-13.456400 0.000000
-13.433200 0.000000
-13.409900 0.000000
-13.386600 0.000000
-13.363400 0.000000
-13.340100 0.000000
-13.316800 0.000000
-13.293600 0.000000
-13.270300 0.000000
-13.247000 0.000000
-13.223800 0.000000
-13.200500 0.000000
-13.177200 0.000000
-13.154000 0.000000
-13.130700 0.000000
-13.107400 0.000000
-13.084200 0.000000
-13.060900 0.000000
-13.037700 0.000000
-13.014400 0.000000
-12.991100 0.000000
-12.967900 0.000000
-12.944600 0.000000
-12.921300 0.000000
-12.898100 0.000000
-12.874800 0.000000
-12.851500 0.000000
-12.828300 0.000000
-12.805000 0.000000
-12.781700 0.000000
-12.758500 0.000000
-12.735200 0.000000
-12.711900 0.000000
-12.688700 0.000000
-12.665400 0.000000
-12.642100 0.000000
-12.618900 0.000000
-12.595600 0.000000
-12.572400 0.000000
-12.549100 0.000000
-12.525800 0.000000
-12.502600 0.000000
-12.479300 0.000000
-12.456000 0.000000
-12.432800 0.000000
-12.409500 0.000000
-12.386200 0.000000
-12.363000 0.000000
-12.339700 0.000000
-12.316400 0.000000
-12.293200 0.000000
-12.269900 0.000000
-12.246600 0.000000
-12.223400 0.000000
-12.200100 0.000000
-12.176800 0.000000
-12.153600 0.000000
-12.130300 0.000000
-12.107100 0.000000
-12.083800 0.000000
-12.060500 0.000000
-12.037300 0.000000
-12.014000 0.000000
-11.990700 0.000000
-11.967500 0.000000
-11.944200 0.000000
-11.920900 0.000000
-11.897700 0.000000
-11.874400 0.000000
-11.851100 0.000000
-11.827900 0.000000
-11.804600 0.000000
-11.781300 0.000000
-11.758100 0.000000
-11.734800 0.000000
-11.711600 0.000000
-11.688300 0.000000
-11.665000 0.000000
-11.641800 0.000000
-11.618500 0.000000
-11.595200 0.000000
-11.572000 0.000000
-11.548700 0.000000
-11.525400 0.000000
-11.502200 0.000000
-11.478900 0.000000
-11.455600 0.000000
-11.432400 0.000000
-11.409100 0.000000
-11.385800 0.000000
-11.362600 0.000000
-11.339300 0.000000
-11.316000 0.000000
-11.292800 0.000000
-11.269500 0.000000
-11.246300 0.000000
-11.223000 0.000000
-11.199700 0.000000
-11.176500 0.000000
-11.153200 0.000000
-11.129900 0.000000
-11.106700 0.000000
-11.083400 0.000000
-11.060100 0.000000
-11.036900 0.000000
-11.013600 0.000000
-10.990300 0.000000
-10.967100 0.000000
-10.943800 0.000000
-10.920500 0.000000
-10.897300 0.000000
-10.874000 0.000000
-10.850700 0.000000
-10.827500 0.000000
-10.804200 0.000000
-10.781000 0.000000
-10.757700 0.000000
-10.734400 0.000000
-10.711200 0.000000
-10.687900 0.000000
-10.664600 0.000000
-10.641400 0.000000
-10.618100 0.000000
-10.594800 0.000000
-10.571600 0.000000
-10.548300 0.000000
-10.525000 0.000000
-10.501800 0.000000
-10.478500 0.000000
-10.455200 0.000000
-10.432000 0.000000
-10.408700 0.000000
-10.385400 0.000000
-10.362200 0.000000
-10.338900 0.000000
-10.315700 0.000000
-10.292400 0.000000
-10.269100 0.000000
-10.245900 0.000000
-10.222600 0.000000
-10.199300 0.000000
-10.176100 0.000000
-10.152800 0.000000
-10.129500 0.000000
-10.106300 0.000000
-10.083000 0.000000
-10.059700 0.000000
-10.036500 0.000000
-10.013200 0.000000
-9.989900 0.000000
-9.966700 0.000000
-9.943400 0.000000
-9.920200 0.000000
-9.896900 0.000000
-9.873600 0.000000
-9.850400 0.000000
-9.827100 0.000000
-9.803800 0.000000
-9.780600 0.000000
-9.757300 0.000000
-9.734000 0.000000
-9.710800 0.000000
-9.687500 0.000000
-9.664200 0.000000
-9.641000 0.000000
-9.617700 0.000000
-9.594400 0.000000
-9.571200 0.000000
-9.547900 0.000000
-9.524600 0.000000
-9.501400 0.000000
-9.478100 0.000000
-9.454900 0.000000
-9.431600 0.000000
-9.408300 0.000000
-9.385100 0.000000
-9.361800 0.000000
-9.338500 0.000000
-9.315300 0.000000
-9.292000 0.000000
-9.268700 0.000000
-9.245500 0.000000
-9.222200 0.000000
-9.198900 0.000000
-9.175700 0.000000
-9.152400 0.000000
-9.129100 0.000000
-9.105900 0.000000
-9.082600 0.000000
-9.059300 0.000000
-9.036100 0.000000
-9.012800 0.000000
-8.989600 0.000000
-8.966300 0.000000
-8.943000 0.000000
-8.919800 0.000000
-8.896500 0.000000
-8.873200 0.000000
-8.850000 0.000000
-8.826700 0.000000
-8.803400 0.000000
-8.780200 0.000000
-8.756900 0.000000
-8.733600 0.000000
-8.710400 0.000000
-8.687100 0.000000
-8.663800 0.000000
-8.640600 0.000000
-8.617300 0.000000
-8.594000 0.000000
-8.570800 0.000000
-8.547500 0.000000
-8.524300 0.000000
-8.501000 0.000000
-8.477700 0.000000
-8.454500 0.000000
-8.431200 0.000000
-8.407900 0.000000
-8.384700 0.000000
-8.361400 0.000000
-8.338100 0.000000
-8.314900 0.000000
-8.291600 0.000000
-8.268300 0.000000
-8.245100 0.000000
-8.221800 0.000000
-8.198500 0.000000
-8.175300 0.000000
-8.152000 0.000000
-8.128800 0.000000
-8.105500 0.000000
-8.082200 0.000000
-8.059000 0.000000
-8.035700 0.000000
-8.012400 0.000000
-7.989200 0.000000
-7.965900 0.000000
-7.942600 0.000000
-7.919400 0.000000
-7.896100 0.000000
-7.872800 0.000000
-7.849600 0.000000
-7.826300 0.000000
-7.803000 0.000000
-7.779800 0.000000
-7.756500 0.000000
-7.733200 0.000000
-7.710000 0.000000
-7.686700 0.000000
-7.663500 0.000000
-7.640200 0.000000
-7.616900 0.000000
-7.593700 0.000000
-7.570400 0.000000
-7.547100 0.000000
-7.523900 0.000000
-7.500600 0.000000
-7.477300 0.000000
-7.454100 0.000000
-7.430800 0.000000
-7.407500 0.000000
-7.384300 0.000000
-7.361000 0.000000
-7.337700 0.000000
-7.314500 0.000000
-7.291200 0.000000
-7.267900 0.121400
-7.244700 0.171300
-7.221400 0.227100
-7.198200 0.288900
-7.174900 0.356700
-7.151600 0.375300
-7.128400 0.389900
-7.105100 0.415300
-7.081800 0.437800
-7.058600 0.457500
-7.035300 0.481100
-7.012000 0.509700
-6.988800 0.540100
-6.965500 0.567900
-6.942200 0.593800
-6.919000 0.612500
-6.895700 0.629300
-6.872400 0.644100
-6.849200 0.658400
-6.825900 0.672900
-6.802600 0.688900
-6.779400 0.706300
-6.756100 0.725400
-6.732900 0.745300
-6.709600 0.765800
-6.686300 0.786600
-6.663100 1.053200
-6.639800 0.884900
-6.616500 0.906600
-6.593300 0.923300
-6.570000 0.937300
-6.546700 0.921700
-6.523500 0.915000
-6.500200 0.915200
-6.476900 0.916200
-6.453700 0.917600
-6.430400 0.920700
-6.407100 0.925600
-6.383900 0.931000
-6.360600 0.936100
-6.337400 0.934900
-6.314100 0.934900
-6.290800 1.071300
-6.267600 1.052500
-6.244300 1.077300
-6.221000 1.103900
-6.197800 1.131500
-6.174500 1.135600
-6.151200 1.148300
-6.128000 1.163000
-6.104700 1.179100
-6.081400 1.195500
-6.058200 1.454300
-6.034900 1.313900
-6.011600 1.340000
-5.988400 1.358800
-5.965100 1.362800
-5.941800 1.342100
-5.918600 1.343400
-5.895300 1.346500
-5.872100 1.351600
-5.848800 1.359600
-5.825500 1.369000
-5.802300 1.378200
-5.779000 1.386900
-5.755700 1.392000
-5.732500 1.393900
-5.709200 1.400200
-5.685900 1.406800
-5.662700 1.414400
-5.639400 1.505500
-5.616100 1.518500
-5.592900 1.575700
-5.569600 1.584900
-5.546300 1.561900
-5.523100 1.524000
-5.499800 1.497100
-5.476500 1.480100
-5.453300 1.621000
-5.430000 1.626100
-5.406800 1.647200
-5.383500 1.684100
-5.360200 1.700900
-5.337000 1.724800
-5.313700 1.746500
-5.290400 1.775500
-5.267200 1.805900
-5.243900 1.796100
-5.220600 1.810500
-5.197400 1.826600
-5.174100 2.174900
-5.150800 1.910500
-5.127600 1.928400
-5.104300 1.955400
-5.081000 1.980000
-5.057800 2.037800
-5.034500 2.040900
-5.011200 2.010000
-4.988000 2.030300
-4.964700 2.031900
-4.941500 2.053100
-4.918200 2.103000
-4.894900 2.086100
-4.871700 2.109600
-4.848400 2.158600
-4.825100 2.249100
-4.801900 2.231500
-4.778600 2.209700
-4.755300 2.168500
-4.732100 2.109200
-4.708800 2.080200
-4.685500 2.090900
-4.662300 2.080000
-4.639000 2.079700
-4.615700 2.086200
-4.592500 2.105900
-4.569200 2.248900
-4.546000 2.206200
-4.522700 2.251300
-4.499400 2.296800
-4.476200 2.343400
-4.452900 2.383900
-4.429600 2.314000
-4.406400 2.595800
-4.383100 2.274300
-4.359800 2.224100
-4.336600 2.211800
-4.313300 2.253400
-4.290000 2.265800
-4.266800 2.289200
-4.243500 2.305000
-4.220200 2.146300
-4.197000 2.011400
-4.173700 1.955500
-4.150400 1.953900
-4.127200 1.950400
-4.103900 2.017400
-4.080700 2.039700
-4.057400 2.077400
-4.034100 2.117500
-4.010900 2.175400
-3.987600 2.223200
-3.964300 2.339500
-3.941100 2.537300
-3.917800 2.479100
-3.894500 2.562200
-3.871300 2.546700
-3.848000 2.544300
-3.824700 2.561400
-3.801500 2.398900
-3.778200 2.625600
-3.754900 2.468000
-3.731700 2.670900
-3.708400 2.753500
-3.685100 2.778200
-3.661900 2.852700
-3.638600 2.992500
-3.615400 2.906900
-3.592100 2.787300
-3.568800 2.750300
-3.545600 2.668300
-3.522300 2.590300
-3.499000 2.511300
-3.475800 2.457400
-3.452500 2.412800
-3.429200 2.415400
-3.406000 2.507000
-3.382700 2.542600
-3.359400 2.761700
-3.336200 2.657400
-3.312900 2.598000
-3.289600 2.487000
-3.266400 2.476400
-3.243100 2.576800
-3.219800 2.577900
-3.196600 2.516200
-3.173300 2.669700
-3.150100 2.467200
-3.126800 2.389800
-3.103500 2.291600
-3.080300 2.293000
-3.057000 2.333600
-3.033700 2.566500
-3.010500 2.807700
-2.987200 3.050800
-2.963900 2.860300
-2.940700 2.893900
-2.917400 2.990800
-2.894100 3.075700
-2.870900 3.256300
-2.847600 3.196500
-2.824300 3.029500
-2.801100 3.114300
-2.777800 3.192500
-2.754600 3.280700
-2.731300 3.212100
-2.708000 3.394200
-2.684800 3.750200
-2.661500 4.344200
-2.638200 5.379800
-2.615000 5.353700
-2.591700 4.430500
-2.568400 4.333100
-2.545200 4.327600
-2.521900 3.920600
-2.498600 3.725900
-2.475400 3.338100
-2.452100 3.843300
-2.428800 4.726400
-2.405600 4.295400
-2.382300 4.510600
-2.359000 4.926700
-2.335800 4.777700
-2.312500 4.726300
-2.289300 5.395400
-2.266000 5.031500
-2.242700 5.036600
-2.219500 6.431900
-2.196200 3.871500
-2.172900 3.616600
-2.149700 3.323400
-2.126400 3.081500
-2.103100 2.851800
-2.079900 2.611200
-2.056600 2.344200
-2.033300 1.848600
-2.010100 1.648200
-1.986800 1.519300
-1.963500 1.495300
-1.940300 1.514100
-1.917000 1.670100
-1.893700 1.869400
-1.870500 2.171000
-1.847200 2.273900
-1.824000 2.371800
-1.800700 2.443800
-1.777400 3.106300
-1.754200 3.125600
-1.730900 2.246300
-1.707600 1.907200
-1.684400 1.687800
-1.661100 1.067100
-1.637800 0.866200
-1.614600 0.751700
-1.591300 0.630700
-1.568000 0.528800
-1.544800 0.442400
-1.521500 0.386000
-1.498200 0.360600
-1.475000 0.336500
-1.451700 0.313300
-1.428400 0.291200
-1.405200 0.270800
-1.381900 0.251100
-1.358700 0.233300
-1.335400 0.217600
-1.312100 0.204200
-1.288900 0.192600
-1.265600 0.183300
-1.242300 0.180800
-1.219100 0.163500
-1.195800 0.145800
-1.172500 0.129800
-1.149300 0.113900
-1.126000 0.097900
-1.102700 0.101000
-1.079500 0.115300
-1.056200 0.000000
-1.032900 0.000000
-1.009700 0.000000
-0.986400 0.000000
-0.963200 0.000000
-0.939900 0.000000
-0.916600 0.000000
-0.893400 0.000000
-0.870100 0.000000
-0.846800 0.000000
-0.823600 0.000000
-0.800300 0.000000
-0.777000 0.000000
-0.753800 0.000000
-0.730500 0.000000
-0.707200 0.000000
-0.684000 0.000000
-0.660700 0.000000
-0.637400 0.000000
-0.614200 0.000000
-0.590900 0.000000
-0.567600 0.000000
-0.544400 0.000000
-0.521100 0.000000
-0.497900 0.000000
-0.474600 0.000000
-0.451300 0.326200
-0.428100 0.085200
-0.404800 0.102700
-0.381500 0.121700
-0.358300 0.142100
-0.335000 0.150700
-0.311700 0.170800
-0.288500 0.192000
-0.265200 0.214300
-0.241900 0.304100
-0.218700 0.334500
-0.195400 0.372400
-0.172100 0.454400
-0.148900 0.527200
-0.125600 0.499200
-0.102300 0.524300
-0.079100 0.539600
-0.055800 0.556500
-0.032600 0.575100
-0.009300 0.605200
0.014000 0.631300
0.037200 0.657600
0.060500 0.685900
0.083800 0.679300
0.107000 0.697100
0.130300 0.708600
0.153600 0.724400
0.176800 0.763000
0.200100 0.682500
0.223400 0.696400
0.246600 0.736100
0.269900 0.780700
0.293200 0.784500
0.316400 0.783400
0.339700 0.789200
0.363000 0.792400
0.386200 0.800300
0.409500 0.810400
0.432700 0.821300
0.456000 0.833800
0.479300 0.850600
0.502500 0.870200
0.525800 0.882700
0.549100 0.883600
0.572300 0.955600
0.595600 1.014700
0.618900 1.087800
0.642100 1.171400
0.665400 1.248700
0.688700 1.303400
0.711900 1.373500
0.735200 1.454100
0.758500 1.536100
0.781700 1.580400
0.805000 1.816600
0.828200 1.907600
0.851500 1.971400
0.874800 1.935200
0.898000 1.905000
0.921300 1.897000
0.944600 1.891500
0.967800 1.880300
0.991100 1.869600
1.014400 1.811500
1.037600 1.784700
1.060900 1.765500
1.084200 1.748000
1.107400 1.734700
1.130700 1.868000
1.154000 1.875700
1.177200 2.196000
1.200500 2.008300
1.223800 2.100800
1.247000 2.021600
1.270300 1.928600
1.293500 1.896100
1.316800 1.895500
1.340100 1.877300
1.363300 1.809900
1.386600 1.760500
1.409900 1.722400
1.433100 1.538500
1.456400 1.442500
1.479700 1.397700
1.502900 1.363400
1.526200 1.339100
1.549500 1.319400
1.572700 1.294600
1.596000 1.297800
1.619300 1.366000
1.642500 1.476600
1.665800 1.613900
1.689100 1.654600
1.712300 1.535100
1.735600 1.542100
1.758800 1.543500
1.782100 1.543400
1.805400 1.542400
1.828600 1.541300
1.851900 1.576800
1.875200 1.629800
1.898400 1.618900
1.921700 1.593400
1.945000 1.598900
1.968200 1.620800
1.991500 1.666200
2.014800 1.674800
2.038000 1.716700
2.061300 1.779600
2.084600 1.839000
2.107800 1.758400
2.131100 1.730000
2.154400 1.730000
2.177600 1.715400
2.200900 1.712100
2.224100 1.713100
2.247400 1.714600
2.270700 1.745100
2.293900 1.762600
2.317200 1.771700
2.340500 1.756400
2.363700 1.770300
2.387000 1.784400
2.410300 1.775900
2.433500 1.752400
2.456800 1.734800
2.480100 1.720900
2.503300 1.688900
2.526600 1.650500
2.549900 1.604900
2.573100 1.580800
2.596400 1.580900
2.619600 1.533300
2.642900 1.527700
2.666200 1.570700
2.689400 1.495800
2.712700 1.504300
2.736000 1.501100
2.759200 1.483400
2.782500 1.460100
2.805800 1.430900
2.829000 1.409900
2.852300 1.401300
2.875600 1.496700
2.898800 2.266400
2.922100 1.808800
2.945400 1.878900
2.968600 1.981500
2.991900 1.959400
3.015200 2.004200
3.038400 2.059400
3.061700 2.357000
3.084900 2.104900
3.108200 2.138200
3.131500 2.156500
3.154700 2.243700
3.178000 2.184100
3.201300 2.130900
3.224500 2.078100
3.247800 2.070000
3.271100 2.097600
3.294300 2.167900
3.317600 2.300500
3.340900 2.488800
3.364100 2.522000
3.387400 2.502800
3.410700 2.358800
3.433900 2.249300
3.457200 2.190900
3.480500 2.173000
3.503700 2.168700
3.527000 2.166900
3.550200 2.158400
3.573500 2.143000
3.596800 2.161400
3.620000 2.235700
3.643300 2.113100
3.666600 1.945100
3.689800 1.862300
3.713100 1.760100
3.736400 1.668800
3.759600 1.620000
3.782900 1.602900
3.806200 1.590300
3.829400 1.628000
3.852700 1.687900
3.876000 1.962900
3.899200 2.052000
3.922500 2.059200
3.945800 2.003700
3.969000 2.025900
3.992300 2.007600
4.015500 1.995400
4.038800 1.960800
4.062100 1.926500
4.085300 1.956500
4.108600 2.019100
4.131900 1.980300
4.155100 1.946200
4.178400 1.744500
4.201700 2.486300
4.224900 1.692200
4.248200 1.344200
4.271500 1.343400
4.294700 1.382300
4.318000 1.423200
4.341300 1.459600
4.364500 1.500800
4.387800 1.558100
4.411000 1.541600
4.434300 1.536900
4.457600 1.514000
4.480800 1.386100
4.504100 1.331200
4.527400 1.226100
4.550600 1.168900
4.573900 1.116000
4.597200 1.059300
4.620400 1.070300
4.643700 1.088300
4.667000 1.146400
4.690200 1.313100
4.713500 1.472700
4.736800 1.315000
4.760000 1.101800
4.783300 0.915300
4.806600 0.758200
4.829800 0.731700
4.853100 0.731600
4.876300 0.731300
4.899600 0.730600
4.922900 0.987800
4.946100 0.925500
4.969400 1.270200
4.992700 0.782600
5.015900 0.765000
5.039200 0.748200
5.062500 0.731800
5.085700 0.957400
5.109000 0.823800
5.132300 0.845100
5.155500 0.800700
5.178800 0.753900
5.202100 0.736400
5.225300 0.741600
5.248600 0.823400
5.271900 0.818600
5.295100 0.811300
5.318400 0.866300
5.341600 0.924300
5.364900 0.902400
5.388200 0.888000
5.411400 0.884900
5.434700 0.889700
5.458000 0.907900
5.481200 0.934200
5.504500 0.965600
5.527800 1.000100
5.551000 1.038500
5.574300 1.099900
5.597600 1.166000
5.620800 1.255800
5.644100 1.387900
5.667400 1.497600
5.690600 1.534800
5.713900 1.571200
5.737200 1.615800
5.760400 1.711900
5.783700 1.692800
5.806900 1.684900
5.830200 1.674100
5.853500 1.742600
5.876700 1.644000
5.900000 1.645300
5.923300 1.656900
5.946500 1.683100
5.969800 1.714500
5.993100 1.737800
6.016300 1.759400
6.039600 1.883400
6.062900 1.932100
6.086100 2.062100
6.109400 2.021400
6.132700 1.994900
6.155900 1.991500
6.179200 2.016400
6.202400 2.040400
6.225700 1.988000
6.249000 1.975900
6.272200 1.976700
6.295500 1.977000
6.318800 1.971400
6.342000 1.971400
6.365300 1.979100
6.388600 1.976400
6.411800 1.981600
6.435100 1.999500
6.458400 2.033800
6.481600 2.068500
6.504900 2.101000
6.528200 2.133800
6.551400 2.174100
6.574700 2.212400
6.598000 2.251300
6.621200 2.333400
6.644500 2.457100
6.667700 2.553100
6.691000 2.809000
6.714300 2.806600
6.737500 2.725700
6.760800 2.836400
6.784100 2.706000
6.807300 2.626500
6.830600 2.597200
6.853900 2.335900
6.877100 2.239400
6.900400 2.105800
6.923700 2.044300
6.946900 1.976600
6.970200 1.904800
6.993500 1.869700
7.016700 1.891800
7.040000 1.915200
7.063300 1.904300
7.086500 1.887000
7.109800 1.753600
7.133000 1.647200
7.156300 1.612800
7.179600 1.633900
7.202800 1.581400
7.226100 1.664100
7.249400 1.688400
7.272600 1.743700
7.295900 1.747200
7.319200 1.588100
7.342400 1.383300
7.365700 1.181300
7.389000 1.181700
7.412200 1.166800
7.435500 1.017800
7.458800 1.060800
7.482000 1.071100
7.505300 1.167200
7.528600 1.237700
7.551800 1.371500
7.575100 1.426600
7.598300 1.541600
7.621600 1.617800
7.644900 1.669400
7.668100 1.743400
7.691400 1.830200
7.714700 1.904700
7.737900 2.002400
7.761200 2.158200
7.784500 2.305700
7.807700 2.378200
7.831000 2.363700
7.854300 2.379000
7.877500 2.262900
7.900800 2.233600
7.924100 2.164300
7.947300 2.141000
7.970600 2.149800
7.993800 2.171600
8.017100 2.188200
8.040400 2.204900
8.063600 2.257200
8.086900 2.229500
8.110200 2.192300
8.133400 2.152900
8.156700 2.114200
8.180000 2.067600
8.203200 2.087600
8.226500 2.133100
8.249800 2.167300
8.273000 2.233200
8.296300 2.325200
8.319600 2.364700
8.342800 2.397400
8.366100 2.540800
8.389400 2.635800
8.412600 2.694700
8.435900 2.527300
8.459100 2.444400
8.482400 2.349000
8.505700 2.431800
8.528900 2.421200
8.552200 2.440900
8.575500 2.603300
8.598700 2.953400
8.622000 2.719400
8.645300 2.697900
8.668500 2.646600
8.691800 2.578900
8.715100 2.531300
8.738300 2.462400
8.761600 2.382400
8.784900 2.348900
8.808100 2.392700
8.831400 2.381800
8.854700 2.374000
8.877900 2.372400
8.901200 2.385500
8.924400 2.378000
8.947700 2.437300
8.971000 2.454000
8.994200 2.491700
9.017500 2.500700
9.040800 2.485000
9.064000 2.489700
9.087300 2.519400
9.110600 2.561600
9.133800 2.581100
9.157100 2.631900
9.180400 2.659900
9.203600 2.669800
9.226900 2.689900
9.250200 2.836900
9.273400 2.796900
9.296700 2.898100
9.319900 3.071900
9.343200 3.071500
9.366500 3.025700
9.389700 3.002800
9.413000 3.078000
9.436300 3.301900
9.459500 3.466100
9.482800 3.516000
9.506100 3.536700
9.529300 3.568800
9.552600 3.579800
9.575900 3.716500
9.599100 3.704000
9.622400 3.630100
9.645700 3.701200
9.668900 3.761400
9.692200 3.852100
9.715500 3.770400
9.738700 4.107400
9.762000 3.898000
9.785200 3.901200
9.808500 3.936200
9.831800 3.712800
9.855000 3.452300
9.878300 3.500000
9.901600 3.609500
9.924800 3.751900
9.948100 3.812300
9.971400 3.809400
9.994600 3.903700
10.017900 4.079700
10.041200 4.055200
10.064400 4.065100
10.087700 4.058200
10.111000 4.044400
10.134200 4.053900
10.157500 4.004900
10.180800 4.032600
10.204000 4.014000
10.227300 4.016600
10.250500 3.951000
10.273800 3.888200
10.297100 3.800300
10.320300 3.861500
10.343600 3.920100
10.366900 3.922900
10.390100 4.029600
10.413400 4.124600
10.436700 4.025900
10.459900 4.017600
10.483200 4.030700
10.506500 3.719600
10.529700 3.964700
10.553000 4.047800
10.576300 4.164900
10.599500 4.272400
10.622800 4.286300
10.646100 4.309200
10.669300 4.166000
10.692600 3.971300
10.715800 3.837500
10.739100 3.727900
10.762400 3.569800
10.785600 3.490500
10.808900 3.472800
10.832200 3.823400
10.855400 3.620000
10.878700 3.477400
10.902000 3.374000
10.925200 3.321000
10.948500 3.286600
10.971800 3.246100
10.995000 3.233700
11.018300 3.213900
11.041600 3.218700
11.064800 3.342200
11.088100 3.301400
11.111300 3.192200
11.134600 3.103200
11.157900 3.052900
11.181100 3.067600
11.204400 3.159800
11.227700 3.042600
11.250900 3.153600
11.274200 3.349900
11.297500 3.427600
11.320700 3.506400
11.344000 3.485300
11.367300 3.367300
11.390500 3.380200
11.413800 3.243000
11.437100 3.078100
11.460300 2.946400
11.483600 2.880300
11.506900 2.862600
11.530100 2.851900
11.553400 2.962100
11.576600 2.986800
11.599900 3.067900
11.623200 3.067500
11.646400 3.036500
11.669700 2.962900
11.693000 2.976400
11.716200 2.985700
11.739500 3.017900
11.762800 3.027700
11.786000 2.920100
11.809300 2.694500
11.832600 2.645600
11.855800 2.691500
11.879100 2.720300
11.902400 2.687800
11.925600 2.713300
11.948900 2.846800
11.972200 2.726100
11.995400 2.723700
12.018700 2.744500
12.041900 2.804500
12.065200 2.756800
12.088500 2.736700
12.111700 2.726000
12.135000 2.670800
12.158300 2.659700
12.181500 2.736500
12.204800 2.964900
12.228100 3.039100
12.251300 3.068700
12.274600 2.974400
12.297900 2.910900
12.321100 2.909900
12.344400 2.945300
12.367700 2.989300
12.390900 2.989400
12.414200 2.933800
12.437500 2.866600
12.460700 2.812000
12.484000 2.710800
12.507200 2.696400
12.530500 2.690200
12.553800 2.633100
12.577000 2.558700
12.600300 2.455600
12.623600 2.382900
12.646800 2.393600
12.670100 2.276000
12.693400 2.492900
12.716600 2.316000
12.739900 2.354700
12.763200 2.349800
12.786400 2.376800
12.809700 2.388700
12.833000 2.353000
12.856200 2.430200
12.879500 2.626900
12.902700 2.667900
12.926000 2.641200
12.949300 2.702200
12.972500 2.823800
12.995800 3.103100
13.019100 3.336200
13.042300 3.159700
13.065600 3.377800
13.088900 3.373500
13.112100 3.365600
13.135400 3.419400
13.158700 3.480600
13.181900 3.490900
13.205200 3.478800
13.228500 3.450600
13.251700 3.365100
13.275000 3.310400
13.298300 3.187400
13.321500 3.075500
13.344800 3.034900
13.368000 3.069100
13.391300 3.082600
13.414600 3.119800
13.437800 3.198500
13.461100 3.331100
13.484400 3.427800
13.507600 3.479100
13.530900 3.473500
13.554200 3.427100
13.577400 3.427300
13.600700 3.460900
13.624000 3.835700
13.647200 3.843200
13.670500 3.628100
13.693800 3.547300
13.717000 3.555900
13.740300 3.600000
13.763600 3.621100
13.786800 3.565500
13.810100 3.544100
13.833300 3.546000
13.856600 3.552400
13.879900 3.578400
13.903100 3.595200
13.926400 3.531600
13.949700 3.488100
13.972900 3.470700
13.996200 3.504500
14.019500 3.471600
14.042700 3.663700
14.066000 3.559200
14.089300 3.666400
14.112500 3.403600
14.135800 3.231700
14.159100 3.167300
14.182300 3.084800
14.205600 3.038800
14.228900 3.100800
14.252100 3.149700
14.275400 3.232100
14.298600 3.354100
14.321900 3.479900
14.345200 3.270900
14.368400 3.273100
14.391700 3.356500
14.415000 3.468500
14.438200 3.502000
14.461500 3.589600
14.484800 3.642700
14.508000 3.611300
14.531300 3.702000
14.554600 3.617500
14.577800 3.511600
14.601100 3.359800
14.624400 3.187400
14.647600 3.083200
14.670900 3.023700
14.694100 2.991700
14.717400 3.000500
14.740700 2.984500
14.763900 3.056100
14.787200 3.162200
14.810500 3.278100
14.833700 3.388300
14.857000 3.493500
14.880300 3.565100
14.903500 3.572300
14.926800 3.582500
14.950100 3.570400
14.973300 3.487000
14.996600 3.420400
15.019900 3.398700
15.043100 3.536100
15.066400 3.376000
15.089700 3.446100
15.112900 3.343800
15.136200 3.389800
15.159400 3.369600
15.182700 3.349900
15.206000 3.322400
15.229200 3.386600
15.252500 3.500100
15.275800 3.527400
15.299000 3.393000
15.322300 3.248100
15.345600 3.201000
15.368800 3.258300
15.392100 3.280600
15.415400 3.313500
15.438600 3.455100
15.461900 3.645300
15.485200 3.692400
15.508400 3.839900
15.531700 3.999900
15.555000 4.205700
15.578200 4.385100
15.601500 4.457800
15.624700 4.349900
15.648000 4.260100
15.671300 4.276900
15.694500 4.297900
15.717800 4.308900
15.741100 4.014900
15.764300 3.909200
15.787600 3.888500
15.810900 3.754300
15.834100 3.543100
15.857400 3.493300
15.880700 3.457400
15.903900 3.333500
15.927200 3.265000
15.950500 3.225700
15.973700 3.254400
15.997000 3.267600
16.020300 3.295400
16.043500 3.308400
16.066800 3.376000
16.090000 3.402300
16.113300 3.328600
16.136600 3.282300
16.159800 3.466000
16.183100 3.064900
16.206400 2.999700
16.229600 2.952100
16.252900 2.979700
16.276200 3.038100
16.299400 2.900100
16.322700 2.911500
16.346000 2.944700
16.369200 2.962100
16.392500 3.018200
16.415800 3.034600
16.439000 3.092000
16.462300 3.250400
16.485500 3.406800
16.508800 3.568700
16.532100 3.387700
16.555300 3.275600
16.578600 3.258700
16.601900 3.267600
16.625100 3.284300
16.648400 3.323100
16.671700 3.483000
16.694900 3.505700
16.718200 3.531800
16.741500 3.505600
16.764700 3.581600
16.788000 3.541800
16.811300 3.804200
16.834500 3.713200
16.857800 3.745500
16.881100 3.693100
16.904300 3.704100
16.927600 3.896900
16.950800 4.055800
16.974100 3.989400
16.997400 3.857700
17.020600 3.824800
17.043900 3.743800
17.067200 3.802900
17.090400 4.075300
17.113700 3.857900
17.137000 3.768000
17.160200 3.638600
17.183500 3.678800
17.206800 3.767900
17.230000 3.694100
17.253300 3.525000
17.276600 3.516400
17.299800 3.577100
17.323100 3.935900
17.346400 4.091600
17.369600 4.030600
17.392900 4.551500
17.416100 3.786400
17.439400 3.613200
17.462700 3.539400
17.485900 3.534900
17.509200 3.571800
17.532500 3.672000
17.555700 3.736900
17.579000 3.854900
17.602300 3.884100
17.625500 3.906100
17.648800 3.999700
17.672100 4.255100
17.695300 4.049200
17.718600 4.154100
17.741900 4.171900
17.765100 4.181200
17.788400 4.174600
17.811700 4.165300
17.834900 4.131700
17.858200 4.055700
17.881400 4.606600
17.904700 3.856600
17.928000 3.740900
17.951200 3.738700
17.974500 3.701800
17.997800 3.661500
18.021000 3.545400
18.044300 3.505400
18.067600 3.478000
18.090800 3.426200
18.114100 3.386000
18.137400 3.380600
18.160600 3.393100
18.183900 3.420500
18.207200 3.431800
18.230400 3.511200
18.253700 3.626600
18.276900 3.779600
18.300200 3.972300
18.323500 4.120700
18.346700 3.991600
18.370000 3.924000
18.393300 3.916000
18.416500 3.912900
18.439800 3.850100
18.463100 3.811800
18.486300 3.828700
18.509600 3.725700
18.532900 3.739300
18.556100 3.702400
18.579400 3.713700
18.602700 3.641500
18.625900 3.609500
18.649200 3.597400
18.672500 3.594100
18.695700 3.622800
18.719000 3.738200
18.742200 3.815300
18.765500 3.871600
18.788800 3.893800
18.812000 3.822500
18.835300 3.837600
18.858600 3.816600
18.881800 3.780300
18.905100 3.775700
18.928400 3.772500
18.951600 3.764900
18.974900 3.814100
18.998200 3.778600
19.021400 3.814400
19.044700 3.885200
19.068000 3.952000
19.091200 3.894600
19.114500 3.925200
19.137800 3.984600
19.161000 4.048900
19.184300 4.089000
19.207500 4.112600
19.230800 4.123200
19.254100 4.174300
19.277300 4.260000
19.300600 4.370800
19.323900 4.381400
19.347100 4.492700
19.370400 4.556500
19.393700 4.416600
19.416900 4.243600
19.440200 4.259800
19.463500 4.243600
19.486700 4.211500
19.510000 4.211100
19.533300 4.186500
19.556500 4.136100
19.579800 4.166200
19.603100 4.241700
19.626300 4.215100
19.649600 4.919100
19.672800 4.486200
19.696100 4.241100
19.719400 4.153500
19.742600 4.176500
19.765900 4.108700
19.789200 4.046300
19.812400 4.003500
19.835700 3.906400
19.859000 3.875300
19.882200 3.853100
19.905500 3.831300
19.928800 3.836000
19.952000 3.843700
19.975300 3.881000
19.998600 3.892000
20.021800 3.853100
20.045100 3.839000
20.068300 3.857100
20.091600 3.847500
20.114900 3.844100
20.138100 3.869000
20.161400 3.913000
20.184700 3.919500
20.207900 3.990800
20.231200 3.940400
20.254500 3.871100
20.277700 3.788000
20.301000 3.789900
20.324300 3.808600
20.347500 3.864800
20.370800 3.926100
20.394100 4.451000
20.417300 4.299300
20.440600 4.308000
20.463900 4.265600
20.487100 4.309400
20.510400 4.388600
20.533600 4.453400
20.556900 4.588300
20.580200 4.592300
20.603400 4.635800
20.626700 4.672000
20.650000 4.617400
20.673200 4.517400
20.696500 4.494700
20.719800 4.413800
20.743000 4.401900
20.766300 4.405100
20.789600 4.349600
20.812800 4.306000
20.836100 4.279900
20.859400 4.285100
20.882600 4.288700
20.905900 4.317900
20.929200 4.301300
20.952400 4.329100
20.975700 4.327200
20.998900 4.319100
21.022200 4.242600
21.045500 4.319100
21.068700 4.248600
21.092000 4.223500
21.115300 4.205000
21.138500 4.224500
21.161800 4.236400
21.185100 4.142500
21.208300 4.114600
21.231600 4.002100
21.254900 4.118400
21.278100 4.233000
21.301400 4.222100
21.324700 4.132200
21.347900 4.028400
21.371200 4.071700
21.394500 4.402800
21.417700 4.060700
21.441000 3.887400
21.464200 3.823400
21.487500 3.796300
21.510800 3.813600
21.534000 3.879700
21.557300 3.840000
21.580600 3.913700
21.603800 4.124600
21.627100 4.173100
21.650400 4.103700
21.673600 4.093800
21.696900 4.118300
21.720200 4.132800
21.743400 4.161800
21.766700 4.226700
21.790000 4.300900
21.813200 4.215000
21.836500 4.106600
21.859700 4.001300
21.883000 3.865400
21.906300 3.738800
21.929500 3.619200
21.952800 3.477700
21.976100 3.353200
21.999300 3.293500
22.022600 3.224000
22.045900 3.182300
22.069100 3.001300
22.092400 2.944800
22.115700 2.928700
22.138900 2.987800
22.162200 2.796500
22.185500 2.647000
22.208700 2.553000
22.232000 2.530700
22.255300 2.511400
22.278500 2.505300
22.301800 2.534000
22.325000 2.581100
22.348300 2.521300
22.371600 2.427900
22.394800 2.343000
22.418100 2.293100
22.441400 2.232800
22.464600 2.148300
22.487900 2.031200
22.511200 1.950800
22.534400 1.716300
22.557700 1.569400
22.581000 1.456400
22.604200 1.361500
22.627500 1.275600
22.650800 1.211200
22.674000 1.194500
22.697300 1.007000
22.720600 0.893400
22.743800 0.814300
22.767100 0.751000
22.790300 0.703400
22.813600 0.676800
22.836900 0.617500
22.860100 0.598300
22.883400 0.586800
22.906700 0.570000
22.929900 0.507100
22.953200 0.401700
22.976500 0.377300
22.999700 0.344600
23.023000 0.247400
23.046300 0.238600
23.069500 0.228500
23.092800 0.196700
23.116100 0.188200
23.139300 0.180700
23.162600 0.171700
23.185900 0.161200
23.209100 0.145200
23.232400 0.182400
23.255600 0.069100
23.278900 0.064200
23.302200 0.006200
23.325400 0.000000
23.348700 0.000000
23.372000 0.000000
23.395200 0.000000
23.418500 0.000000
23.441800 0.000000
23.465000 0.000000
23.488300 0.000000
23.511600 0.000000
23.534800 0.000000
23.558100 0.000000
23.581400 0.000000
23.604600 0.000000
23.627900 0.000000
23.651100 0.000000
23.674400 0.000000
23.697700 0.000000
23.720900 0.000000
23.744200 0.000000
23.767500 0.000000
23.790700 0.000000
23.814000 0.000000
23.837300 0.000000
23.860500 0.000000
23.883800 0.000000
23.907100 0.000000
23.930300 0.000000
23.953600 0.000000
23.976900 0.000000
24.000100 0.000000
24.023400 0.000000
24.046700 0.000000
24.069900 0.000000
24.093200 0.000000
24.116400 0.000000
24.139700 0.000000
24.163000 0.000000
24.186200 0.000000
24.209500 0.000000
24.232800 0.000000
24.256000 0.000000
24.279300 0.000000
24.302600 0.000000
24.325800 0.000000
24.349100 0.000000
24.372400 0.000000
24.395600 0.000000
24.418900 0.000000
24.442200 0.000000
24.465400 0.000000
24.488700 0.000000
24.512000 0.000000
24.535200 0.000000
24.558500 0.000000
24.581700 0.000000
24.605000 0.000000
24.628300 0.000000
24.651500 0.000000
24.674800 0.000000
24.698100 0.000000
24.721300 0.000000
24.744600 0.000000
24.767900 0.000000
24.791100 0.000000
24.814400 0.000000
24.837700 0.000000
24.860900 0.000000
24.884200 0.000000
24.907500 0.000000
24.930700 0.000000
24.954000 0.000000
24.977300 0.000000
25.000500 0.000000
25.023800 0.000000
25.047000 0.000000
25.070300 0.000000
25.093600 0.000000
25.116800 0.000000
25.140100 0.000000
25.163400 0.000000
25.186600 0.000000
25.209900 0.000000
25.233200 0.000000
25.256400 0.000000
25.279700 0.000000
25.303000 0.000000
25.326200 0.000000
25.349500 0.000000
25.372800 0.000000
25.396000 0.000000
25.419300 0.000000
e
