set title 'mp-570472 - Density of States'
set xlabel 'Energy (eV)'
set ylabel 'DOS (states/eV)'
set grid
set xrange [-10:10]
set yrange [0:371.803]
set xzeroaxis lt -1
set terminal png size 800,600
set output 'mp-570472_dos_gnuplot.png'
plot '-' using 1:2 with lines title 'DOS'
-12.145300 0.000000
-12.131300 0.000000
-12.117200 0.000000
-12.103200 0.000000
-12.089100 0.000000
-12.075100 0.000000
-12.061100 0.000000
-12.047000 0.000000
-12.033000 0.000000
-12.018900 0.000000
-12.004900 0.000000
-11.990800 0.000000
-11.976800 0.000000
-11.962700 0.000000
-11.948700 0.000000
-11.934700 0.000000
-11.920600 0.000000
-11.906600 0.000000
-11.892500 0.000000
-11.878500 0.000000
-11.864400 0.000000
-11.850400 0.000000
-11.836300 0.000000
-11.822300 0.000000
-11.808300 0.000000
-11.794200 0.000000
-11.780200 0.000000
-11.766100 0.000000
-11.752100 0.000000
-11.738000 0.000000
-11.724000 0.000000
-11.709900 0.000000
-11.695900 0.000000
-11.681900 0.000000
-11.667800 0.000000
-11.653800 0.000000
-11.639700 0.000000
-11.625700 0.000000
-11.611600 0.000000
-11.597600 0.000000
-11.583500 0.000000
-11.569500 0.000000
-11.555500 0.000000
-11.541400 0.000000
-11.527400 0.000000
-11.513300 0.000000
-11.499300 0.000000
-11.485200 0.000000
-11.471200 0.000000
-11.457100 0.000000
-11.443100 0.000000
-11.429100 0.000000
-11.415000 0.000000
-11.401000 0.000000
-11.386900 0.000000
-11.372900 0.000000
-11.358800 0.000000
-11.344800 0.000000
-11.330700 0.000000
-11.316700 0.000000
-11.302700 0.000000
-11.288600 0.000000
-11.274600 0.000000
-11.260500 0.000000
-11.246500 0.000000
-11.232400 0.000000
-11.218400 0.000000
-11.204300 0.000000
-11.190300 0.000000
-11.176200 0.000000
-11.162200 0.000000
-11.148200 0.000000
-11.134100 0.000000
-11.120100 0.000000
-11.106000 0.000000
-11.092000 0.000000
-11.077900 0.000000
-11.063900 0.000000
-11.049800 0.000000
-11.035800 0.000000
-11.021800 0.000000
-11.007700 0.000000
-10.993700 0.000000
-10.979600 0.000000
-10.965600 0.000000
-10.951500 0.000000
-10.937500 0.000000
-10.923400 0.000000
-10.909400 0.000000
-10.895400 0.000000
-10.881300 0.000000
-10.867300 0.045300
-10.853200 0.543400
-10.839200 1.041600
-10.825100 1.539700
-10.811100 2.228900
-10.797000 3.551000
-10.783000 3.761200
-10.769000 4.855000
-10.754900 5.948800
-10.740900 7.042600
-10.726800 6.668600
-10.712800 5.946400
-10.698700 6.669900
-10.684700 7.393300
-10.670600 8.116800
-10.656600 8.942300
-10.642600 10.186500
-10.628500 9.957100
-10.614500 10.798100
-10.600400 11.639100
-10.586400 12.496500
-10.572300 11.971800
-10.558300 12.444300
-10.544200 12.916800
-10.530200 13.388700
-10.516200 13.855200
-10.502100 14.320400
-10.488100 14.855800
-10.474000 15.453200
-10.460000 16.050600
-10.445900 16.647900
-10.431900 19.028100
-10.417800 21.747900
-10.403800 30.809100
-10.389800 38.731000
-10.375700 41.288100
-10.361700 44.156900
-10.347600 56.200600
-10.333600 71.372100
-10.319500 66.269000
-10.305500 83.850100
-10.291400 67.982100
-10.277400 57.972200
-10.263400 63.985400
-10.249300 35.671900
-10.235300 30.801400
-10.221200 30.917200
-10.207200 32.684200
-10.193100 57.187600
-10.179100 42.572900
-10.165000 45.834900
-10.151000 31.236400
-10.137000 39.402800
-10.122900 170.592800
-10.108900 22.492000
-10.094800 0.000000
-10.080800 0.000000
-10.066700 0.000000
-10.052700 0.000000
-10.038600 0.000000
-10.024600 0.000000
-10.010600 0.000000
-9.996500 0.000000
-9.982500 0.000000
-9.968400 0.000000
-9.954400 0.000000
-9.940300 0.000000
-9.926300 0.000000
-9.912200 0.000000
-9.898200 0.000000
-9.884100 0.000000
-9.870100 0.000000
-9.856100 0.000000
-9.842000 0.000000
-9.828000 0.000000
-9.813900 0.000000
-9.799900 0.000000
-9.785800 0.000000
-9.771800 0.000000
-9.757700 0.000000
-9.743700 0.000000
-9.729700 0.000000
-9.715600 0.000000
-9.701600 0.000000
-9.687500 0.000000
-9.673500 0.000000
-9.659400 0.000000
-9.645400 0.000000
-9.631300 0.000000
-9.617300 0.000000
-9.603300 0.000000
-9.589200 0.000000
-9.575200 0.000000
-9.561100 0.000000
-9.547100 0.000000
-9.533000 0.000000
-9.519000 0.000000
-9.504900 0.000000
-9.490900 0.000000
-9.476900 0.000000
-9.462800 0.000000
-9.448800 0.000000
-9.434700 0.000000
-9.420700 0.000000
-9.406600 0.000000
-9.392600 0.000000
-9.378500 0.000000
-9.364500 0.000000
-9.350500 0.000000
-9.336400 0.000000
-9.322400 0.000000
-9.308300 0.000000
-9.294300 0.000000
-9.280200 0.000000
-9.266200 0.000000
-9.252100 0.000000
-9.238100 0.000000
-9.224100 0.000000
-9.210000 0.000000
-9.196000 0.000000
-9.181900 0.000000
-9.167900 0.000000
-9.153800 0.000000
-9.139800 0.000000
-9.125700 0.000000
-9.111700 0.000000
-9.097700 0.000000
-9.083600 0.000000
-9.069600 0.000000
-9.055500 0.000000
-9.041500 0.000000
-9.027400 0.000000
-9.013400 0.000000
-8.999300 0.000000
-8.985300 0.000000
-8.971300 0.000000
-8.957200 0.000000
-8.943200 0.000000
-8.929100 0.000000
-8.915100 0.000000
-8.901000 0.000000
-8.887000 0.000000
-8.872900 0.000000
-8.858900 0.000000
-8.844900 0.000000
-8.830800 0.000000
-8.816800 0.000000
-8.802700 0.000000
-8.788700 0.000000
-8.774600 0.000000
-8.760600 0.000000
-8.746500 0.000000
-8.732500 0.000000
-8.718400 0.000000
-8.704400 0.000000
-8.690400 0.000000
-8.676300 0.000000
-8.662300 0.000000
-8.648200 0.000000
-8.634200 0.000000
-8.620100 0.000000
-8.606100 0.000000
-8.592000 0.000000
-8.578000 0.000000
-8.564000 0.000000
-8.549900 0.000000
-8.535900 0.000000
-8.521800 0.000000
-8.507800 0.000000
-8.493700 0.000000
-8.479700 0.000000
-8.465600 0.000000
-8.451600 0.000000
-8.437600 0.000000
-8.423500 0.000000
-8.409500 0.000000
-8.395400 0.000000
-8.381400 0.000000
-8.367300 0.000000
-8.353300 0.000000
-8.339200 0.000000
-8.325200 0.000000
-8.311200 0.000000
-8.297100 0.000000
-8.283100 0.000000
-8.269000 0.000000
-8.255000 0.000000
-8.240900 0.000000
-8.226900 0.000000
-8.212800 0.000000
-8.198800 0.000000
-8.184800 0.000000
-8.170700 0.000000
-8.156700 0.000000
-8.142600 0.000000
-8.128600 0.000000
-8.114500 0.000000
-8.100500 0.000000
-8.086400 0.000000
-8.072400 0.000000
-8.058400 0.000000
-8.044300 0.000000
-8.030300 0.000000
-8.016200 0.000000
-8.002200 0.000000
-7.988100 0.000000
-7.974100 0.000000
-7.960000 0.000000
-7.946000 0.000000
-7.932000 0.000000
-7.917900 0.000000
-7.903900 0.000000
-7.889800 0.000000
-7.875800 0.000000
-7.861700 0.000000
-7.847700 0.000000
-7.833600 0.000000
-7.819600 0.000000
-7.805600 0.000000
-7.791500 0.000000
-7.777500 0.000000
-7.763400 0.000000
-7.749400 0.000000
-7.735300 0.000000
-7.721300 0.000000
-7.707200 0.000000
-7.693200 0.000000
-7.679200 0.000000
-7.665100 0.000000
-7.651100 0.000000
-7.637000 0.000000
-7.623000 0.000000
-7.608900 0.000000
-7.594900 0.000000
-7.580800 0.000000
-7.566800 0.000000
-7.552800 0.000000
-7.538700 0.000000
-7.524700 0.000000
-7.510600 0.000000
-7.496600 0.000000
-7.482500 0.000000
-7.468500 0.000000
-7.454400 0.000000
-7.440400 0.000000
-7.426300 0.000000
-7.412300 0.000000
-7.398300 0.000000
-7.384200 0.000000
-7.370200 0.000000
-7.356100 0.000000
-7.342100 0.000000
-7.328000 0.000000
-7.314000 0.000000
-7.299900 0.000000
-7.285900 0.000000
-7.271900 0.000000
-7.257800 0.000000
-7.243800 0.000000
-7.229700 0.000000
-7.215700 0.000000
-7.201600 0.000000
-7.187600 0.000000
-7.173500 0.000000
-7.159500 0.000000
-7.145500 0.000000
-7.131400 0.000000
-7.117400 0.000000
-7.103300 0.000000
-7.089300 0.000000
-7.075200 0.000000
-7.061200 0.000000
-7.047100 0.000000
-7.033100 0.000000
-7.019100 0.000000
-7.005000 0.000000
-6.991000 0.000000
-6.976900 0.000000
-6.962900 0.000000
-6.948800 0.000000
-6.934800 0.000000
-6.920700 0.000000
-6.906700 0.000000
-6.892700 0.000000
-6.878600 0.000000
-6.864600 0.000000
-6.850500 0.000000
-6.836500 0.000000
-6.822400 0.000000
-6.808400 0.000000
-6.794300 0.000000
-6.780300 0.000000
-6.766300 0.000000
-6.752200 0.000000
-6.738200 0.000000
-6.724100 0.000000
-6.710100 0.000000
-6.696000 0.000000
-6.682000 0.000000
-6.667900 0.000000
-6.653900 0.000000
-6.639900 0.000000
-6.625800 0.000000
-6.611800 0.000000
-6.597700 7.075200
-6.583700 21.792900
-6.569600 43.284300
-6.555600 42.582800
-6.541500 49.042600
-6.527500 64.551100
-6.513500 106.888000
-6.499400 76.843400
-6.485400 83.061700
-6.471300 59.972300
-6.457300 52.744000
-6.443200 149.781800
-6.429200 174.347400
-6.415100 229.850200
-6.401100 106.724800
-6.387100 252.354400
-6.373000 269.239300
-6.359000 152.167800
-6.344900 236.128400
-6.330900 338.003100
-6.316800 112.534300
-6.302800 61.692700
-6.288700 85.666300
-6.274700 104.247900
-6.260700 160.485400
-6.246600 47.738400
-6.232600 137.803600
-6.218500 118.723900
-6.204500 63.819900
-6.190400 48.345200
-6.176400 78.866000
-6.162300 54.141300
-6.148300 16.024100
-6.134200 13.613700
-6.120200 11.203300
-6.106200 31.132100
-6.092100 0.000000
-6.078100 0.000000
-6.064000 0.000000
-6.050000 0.000000
-6.035900 0.000000
-6.021900 0.000000
-6.007800 0.000000
-5.993800 0.000000
-5.979800 0.000000
-5.965700 0.000000
-5.951700 0.000000
-5.937600 0.000000
-5.923600 0.000000
-5.909500 0.000000
-5.895500 0.000000
-5.881400 0.000000
-5.867400 0.000000
-5.853400 0.000000
-5.839300 0.000000
-5.825300 0.000000
-5.811200 0.000000
-5.797200 0.000000
-5.783100 0.000000
-5.769100 0.000000
-5.755000 0.000000
-5.741000 0.000000
-5.727000 0.000000
-5.712900 0.000000
-5.698900 0.000000
-5.684800 0.000000
-5.670800 0.000000
-5.656700 0.000000
-5.642700 0.000000
-5.628600 0.000000
-5.614600 0.000000
-5.600600 0.000000
-5.586500 0.000000
-5.572500 0.000000
-5.558400 0.000000
-5.544400 0.000000
-5.530300 0.000000
-5.516300 0.000000
-5.502200 0.000000
-5.488200 0.000000
-5.474200 0.000000
-5.460100 0.000000
-5.446100 0.000000
-5.432000 0.000000
-5.418000 0.000000
-5.403900 0.000000
-5.389900 0.000000
-5.375800 0.000000
-5.361800 0.000000
-5.347800 0.000000
-5.333700 0.000000
-5.319700 0.000000
-5.305600 0.000000
-5.291600 0.000000
-5.277500 0.000000
-5.263500 0.000000
-5.249400 0.000000
-5.235400 0.000000
-5.221400 0.000000
-5.207300 0.000000
-5.193300 0.000000
-5.179200 0.000000
-5.165200 0.000000
-5.151100 0.000000
-5.137100 0.000000
-5.123000 0.000000
-5.109000 0.000000
-5.095000 0.000000
-5.080900 0.000000
-5.066900 0.000000
-5.052800 0.000000
-5.038800 0.000000
-5.024700 0.000000
-5.010700 0.000000
-4.996600 0.000000
-4.982600 0.000000
-4.968500 0.000000
-4.954500 0.000000
-4.940500 0.000000
-4.926400 0.000000
-4.912400 0.000000
-4.898300 0.000000
-4.884300 0.000000
-4.870200 0.000000
-4.856200 0.000000
-4.842100 0.000000
-4.828100 0.000000
-4.814100 0.000000
-4.800000 0.000000
-4.786000 0.000000
-4.771900 0.000000
-4.757900 0.000000
-4.743800 0.000000
-4.729800 0.000000
-4.715700 0.000000
-4.701700 0.000000
-4.687700 0.000000
-4.673600 0.000000
-4.659600 0.000000
-4.645500 0.000000
-4.631500 0.000000
-4.617400 0.000000
-4.603400 0.000000
-4.589300 0.000000
-4.575300 0.000000
-4.561300 0.000000
-4.547200 0.000000
-4.533200 0.000000
-4.519100 0.000000
-4.505100 0.000000
-4.491000 0.000000
-4.477000 0.000000
-4.462900 0.000000
-4.448900 0.000000
-4.434900 0.000000
-4.420800 0.000000
-4.406800 0.000000
-4.392700 0.000000
-4.378700 0.000000
-4.364600 0.000000
-4.350600 0.000000
-4.336500 0.000000
-4.322500 0.000000
-4.308500 0.000000
-4.294400 0.000000
-4.280400 0.000000
-4.266300 0.000000
-4.252300 0.000000
-4.238200 0.000000
-4.224200 0.000000
-4.210100 0.000000
-4.196100 0.000000
-4.182100 0.000000
-4.168000 0.000000
-4.154000 0.000000
-4.139900 0.000000
-4.125900 0.000000
-4.111800 0.000000
-4.097800 0.000000
-4.083700 0.000000
-4.069700 0.000000
-4.055700 0.000000
-4.041600 0.000000
-4.027600 0.000000
-4.013500 0.000000
-3.999500 0.000000
-3.985400 0.000000
-3.971400 0.000000
-3.957300 0.000000
-3.943300 0.000000
-3.929300 0.000000
-3.915200 0.000000
-3.901200 0.000000
-3.887100 0.000000
-3.873100 0.000000
-3.859000 0.000000
-3.845000 0.000000
-3.830900 0.000000
-3.816900 0.000000
-3.802900 0.000000
-3.788800 0.000000
-3.774800 0.000000
-3.760700 0.000000
-3.746700 0.000000
-3.732600 0.000000
-3.718600 0.000000
-3.704500 0.000000
-3.690500 0.000000
-3.676400 0.000000
-3.662400 0.000000
-3.648400 0.000000
-3.634300 0.000000
-3.620300 0.000000
-3.606200 0.000000
-3.592200 0.000000
-3.578100 0.000000
-3.564100 0.000000
-3.550000 0.000000
-3.536000 0.000000
-3.522000 0.000000
-3.507900 0.000000
-3.493900 0.000000
-3.479800 0.000000
-3.465800 0.000000
-3.451700 0.000000
-3.437700 0.000000
-3.423600 0.000000
-3.409600 0.000000
-3.395600 0.000000
-3.381500 0.000000
-3.367500 0.000000
-3.353400 0.000000
-3.339400 0.000000
-3.325300 0.000000
-3.311300 0.000000
-3.297200 0.000000
-3.283200 0.000000
-3.269200 0.000000
-3.255100 0.000000
-3.241100 0.000000
-3.227000 0.000000
-3.213000 0.000000
-3.198900 0.000000
-3.184900 0.000000
-3.170800 0.000000
-3.156800 0.000000
-3.142800 0.000000
-3.128700 0.000000
-3.114700 0.000000
-3.100600 0.000000
-3.086600 0.000000
-3.072500 0.000000
-3.058500 0.000000
-3.044400 0.000000
-3.030400 0.000000
-3.016400 0.000000
-3.002300 0.000000
-2.988300 0.000000
-2.974200 0.000000
-2.960200 0.000000
-2.946100 0.000000
-2.932100 0.000000
-2.918000 0.000000
-2.904000 0.000000
-2.890000 0.000000
-2.875900 0.000000
-2.861900 0.000000
-2.847800 0.000000
-2.833800 0.000000
-2.819700 0.000000
-2.805700 0.000000
-2.791600 0.000000
-2.777600 0.000000
-2.763600 0.000000
-2.749500 0.000000
-2.735500 0.000000
-2.721400 0.000000
-2.707400 0.000000
-2.693300 0.000000
-2.679300 0.000000
-2.665200 0.000000
-2.651200 0.000000
-2.637200 3.783700
-2.623100 4.700400
-2.609100 5.617100
-2.595000 40.912700
-2.581000 15.898100
-2.566900 18.586200
-2.552900 17.417200
-2.538800 19.087700
-2.524800 20.758300
-2.510700 15.664500
-2.496700 46.918300
-2.482700 17.180000
-2.468600 17.822400
-2.454600 18.464800
-2.440500 36.018300
-2.426500 20.461700
-2.412400 18.700200
-2.398400 19.423000
-2.384300 20.145900
-2.370300 20.868800
-2.356300 18.052900
-2.342200 19.639800
-2.328200 20.722700
-2.314100 23.801800
-2.300100 28.831500
-2.286000 15.616200
-2.272000 11.358100
-2.257900 12.216600
-2.243900 13.075000
-2.229900 13.933400
-2.215800 19.300200
-2.201800 27.119300
-2.187700 9.779400
-2.173700 13.900100
-2.159600 18.491400
-2.145600 5.792700
-2.131500 5.966100
-2.117500 6.072100
-2.103500 6.070500
-2.089400 6.069000
-2.075400 6.067400
-2.061300 6.065600
-2.047300 10.895200
-2.033200 6.015400
-2.019200 2.576700
-2.005100 2.524800
-1.991100 2.472900
-1.977100 2.421000
-1.963000 2.369100
-1.949000 6.159700
-1.934900 1.924100
-1.920900 0.000000
-1.906800 0.000000
-1.892800 0.000000
-1.878700 0.000000
-1.864700 0.000000
-1.850700 0.000000
-1.836600 0.000000
-1.822600 0.000000
-1.808500 0.000000
-1.794500 0.000000
-1.780400 0.000000
-1.766400 0.000000
-1.752300 0.000000
-1.738300 0.000000
-1.724300 0.000000
-1.710200 5.063900
-1.696200 3.578600
-1.682100 2.093300
-1.668100 1.889700
-1.654000 1.995700
-1.640000 7.818900
-1.625900 6.322100
-1.611900 4.825400
-1.597900 9.627600
-1.583800 8.177000
-1.569800 6.726500
-1.555700 6.765800
-1.541700 12.926100
-1.527600 11.517300
-1.513600 10.108400
-1.499500 9.837500
-1.485500 10.247800
-1.471500 16.112600
-1.457400 14.429800
-1.443400 13.220100
-1.429300 13.742000
-1.415300 11.659500
-1.401200 12.057500
-1.387200 12.455500
-1.373100 12.853500
-1.359100 13.251500
-1.345100 11.027800
-1.331000 11.301400
-1.317000 11.575000
-1.302900 20.144700
-1.288900 9.644500
-1.274800 9.809600
-1.260800 9.974700
-1.246700 23.398600
-1.232700 7.787700
-1.218600 7.842100
-1.204600 7.896500
-1.190600 11.618600
-1.176500 5.336600
-1.162500 5.269600
-1.148400 5.867700
-1.134400 5.861400
-1.120300 5.855200
-1.106300 6.507800
-1.092200 7.177800
-1.078200 7.243700
-1.064200 7.309200
-1.050100 7.374700
-1.036100 7.440200
-1.022000 8.122500
-1.008000 8.221900
-0.993900 8.321300
-0.979900 9.026800
-0.965800 9.155900
-0.951800 9.283600
-0.937800 9.406800
-0.923700 9.530100
-0.909700 9.653300
-0.895600 9.776500
-0.881600 9.899800
-0.867500 10.018200
-0.853500 10.133100
-0.839400 10.248000
-0.825400 10.362900
-0.811400 10.477800
-0.797300 10.592700
-0.783300 11.689700
-0.769200 12.628900
-0.755200 13.872500
-0.741100 13.978300
-0.727100 14.084100
-0.713000 14.581000
-0.699000 15.149700
-0.685000 16.034600
-0.670900 17.610200
-0.656900 18.010800
-0.642800 19.957400
-0.628800 20.118200
-0.614700 18.703900
-0.600700 19.103200
-0.586600 21.136900
-0.572600 21.238500
-0.558600 21.539200
-0.544500 21.848100
-0.530500 22.259100
-0.516400 23.945200
-0.502400 24.656900
-0.488300 24.727800
-0.474300 23.790400
-0.460200 23.845900
-0.446200 23.916700
-0.432200 23.075400
-0.418100 23.177500
-0.404100 23.234800
-0.390000 23.292100
-0.376000 23.467700
-0.361900 23.690600
-0.347900 23.913500
-0.333800 23.495300
-0.319800 23.867400
-0.305800 23.254900
-0.291700 23.713600
-0.277700 23.280800
-0.263600 22.411200
-0.249600 21.146400
-0.235500 20.930900
-0.221500 20.763400
-0.207400 22.675400
-0.193400 21.965600
-0.179400 20.026900
-0.165300 19.006500
-0.151300 18.057900
-0.137200 18.827000
-0.123200 18.135300
-0.109100 16.248600
-0.095100 15.305000
-0.081000 14.647200
-0.067000 13.930500
-0.052900 13.245800
-0.038900 12.723000
-0.024900 12.367200
-0.010800 12.162900
0.003200 11.820300
0.017300 11.540600
0.031300 11.279800
0.045400 11.010500
0.059400 10.741200
0.073500 10.472000
0.087500 11.190300
0.101500 11.212100
0.115600 11.258800
0.129600 11.310000
0.143700 11.508600
0.157700 11.569900
0.171800 11.684200
0.185800 11.919300
0.199900 12.041700
0.213900 12.164200
0.227900 12.286700
0.242000 14.202200
0.256000 17.601200
0.270100 20.490700
0.284100 22.668900
0.298200 23.320400
0.312200 23.971900
0.326300 25.052900
0.340300 26.281000
0.354300 29.770100
0.368400 31.200400
0.382400 30.708700
0.396500 30.101800
0.410500 29.791900
0.424600 32.822300
0.438600 36.128500
0.452700 37.466900
0.466700 34.725500
0.480700 39.597200
0.494800 39.574800
0.508800 37.482100
0.522900 30.958200
0.536900 30.935800
0.551000 30.357100
0.565000 38.775400
0.579100 38.840300
0.593100 39.846000
0.607100 35.729000
0.621200 41.576100
0.635200 35.209900
0.649300 29.446100
0.663300 56.565200
0.677400 34.885600
0.691400 35.923100
0.705500 43.765500
0.719500 41.121000
0.733500 39.010300
0.747600 36.058900
0.761600 29.913800
0.775700 34.482400
0.789700 30.123200
0.803800 26.357600
0.817800 24.853800
0.831900 25.252200
0.845900 25.596300
0.859900 22.386200
0.874000 19.176000
0.888000 16.485300
0.902100 16.047500
0.916100 14.534500
0.930200 12.625500
0.944200 10.716500
0.958300 8.807600
0.972300 6.898600
0.986300 5.018400
1.000400 7.404400
1.014400 5.600100
1.028500 3.795800
1.042500 1.991500
1.056600 0.000000
1.070600 0.000000
1.084700 0.000000
1.098700 0.000000
1.112700 0.000000
1.126800 0.000000
1.140800 0.000000
1.154900 0.000000
1.168900 0.000000
1.183000 0.000000
1.197000 0.000000
1.211100 0.000000
1.225100 0.000000
1.239200 0.000000
1.253200 0.000000
1.267200 0.000000
1.281300 0.000000
1.295300 0.000000
1.309400 0.000000
1.323400 0.000000
1.337500 0.000000
1.351500 0.000000
1.365600 0.000000
1.379600 0.000000
1.393600 0.000000
1.407700 0.000000
1.421700 0.000000
1.435800 0.000000
1.449800 0.000000
1.463900 0.000000
1.477900 0.000000
1.492000 0.000000
1.506000 0.000000
1.520000 0.000000
1.534100 0.000000
1.548100 0.000000
1.562200 0.000000
1.576200 0.000000
1.590300 0.000000
1.604300 0.000000
1.618400 0.000000
1.632400 0.000000
1.646400 0.000000
1.660500 0.000000
1.674500 0.000000
1.688600 0.000000
1.702600 0.000000
1.716700 0.000000
1.730700 0.000000
1.744800 0.000000
1.758800 0.000000
1.772800 0.000000
1.786900 0.000000
1.800900 0.000000
1.815000 0.000000
1.829000 0.000000
1.843100 0.000000
1.857100 0.000000
1.871200 0.000000
1.885200 0.000000
1.899200 0.000000
1.913300 0.000000
1.927300 0.000000
1.941400 0.000000
1.955400 0.000000
1.969500 0.000000
1.983500 0.000000
1.997600 0.000000
2.011600 0.000000
2.025600 0.000000
2.039700 0.000000
2.053700 0.000000
2.067800 0.000000
2.081800 0.000000
2.095900 0.000000
2.109900 0.000000
2.124000 0.000000
2.138000 0.000000
2.152000 0.000000
2.166100 0.000000
2.180100 0.000000
2.194200 0.000000
2.208200 0.000000
2.222300 0.000000
2.236300 0.000000
2.250400 0.000000
2.264400 0.000000
2.278400 0.000000
2.292500 0.000000
2.306500 0.000000
2.320600 0.000000
2.334600 0.000000
2.348700 0.000000
2.362700 0.000000
2.376800 0.000000
2.390800 0.000000
2.404900 0.000000
2.418900 0.000000
2.432900 0.000000
2.447000 0.000000
2.461000 0.000000
2.475100 0.000000
2.489100 0.000000
2.503200 0.000000
2.517200 0.000000
2.531300 0.000000
2.545300 0.000000
2.559300 0.000000
2.573400 0.000000
2.587400 0.000000
2.601500 0.000000
2.615500 0.000000
2.629600 0.000000
2.643600 0.000000
2.657700 0.000000
2.671700 0.000000
2.685700 0.000000
2.699800 0.000000
2.713800 0.000000
2.727900 0.000000
2.741900 0.000000
2.756000 0.000000
2.770000 0.000000
2.784100 0.000000
2.798100 0.000000
2.812100 0.000000
2.826200 0.000000
2.840200 0.000000
2.854300 0.000000
2.868300 0.000000
2.882400 0.000000
2.896400 0.000000
2.910500 0.000000
2.924500 0.000000
2.938500 0.000000
2.952600 0.000000
2.966600 0.000000
2.980700 0.000000
2.994700 0.000000
3.008800 0.000000
3.022800 0.000000
3.036900 0.000000
3.050900 0.000000
3.064900 0.000000
3.079000 0.000000
3.093000 0.000000
3.107100 0.000000
3.121100 0.000000
3.135200 0.000000
3.149200 0.000000
3.163300 0.000000
3.177300 0.000000
3.191300 0.000000
3.205400 0.000000
3.219400 0.000000
3.233500 0.000000
3.247500 0.000000
3.261600 0.000000
3.275600 0.000000
3.289700 0.000000
3.303700 0.000000
3.317700 0.000000
3.331800 0.000000
3.345800 0.000000
3.359900 0.000000
3.373900 0.906300
3.388000 0.950800
3.402000 1.000700
3.416100 1.050700
3.430100 1.100600
3.444100 2.118900
3.458200 2.203500
3.472200 2.288100
3.486300 2.372800
3.500300 2.457400
3.514400 3.710200
3.528400 3.823900
3.542500 3.937700
3.556500 4.051400
3.570500 5.212700
3.584600 5.360500
3.598600 5.508400
3.612700 5.656300
3.626700 5.804200
3.640800 5.952000
3.654800 7.339600
3.668900 7.650000
3.682900 7.967700
3.697000 8.305900
3.711000 8.724300
3.725000 9.182700
3.739100 9.676400
3.753100 10.170100
3.767200 10.663800
3.781200 11.157500
3.795300 11.651100
3.809300 12.193100
3.823400 12.772400
3.837400 13.819500
3.851400 18.763000
3.865500 15.999600
3.879500 13.165800
3.893600 13.754300
3.907600 14.342800
3.921700 18.467700
3.935700 18.259000
3.949800 22.007100
3.963800 20.711800
3.977800 19.416400
3.991900 17.773700
4.005900 17.267700
4.020000 21.534000
4.034000 19.926100
4.048100 18.032000
4.062100 16.750100
4.076200 15.468200
4.090200 15.560800
4.104200 23.529000
4.118300 18.648000
4.132300 14.496000
4.146400 12.938200
4.160400 11.380400
4.174500 9.972300
4.188500 8.730600
4.202600 7.524500
4.216600 6.318300
4.230600 6.046800
4.244700 6.192000
4.258700 6.337200
4.272800 9.893400
4.286800 7.675800
4.300900 5.458100
4.314900 3.240500
4.329000 3.185200
4.343000 3.245100
4.357000 3.305100
4.371100 0.000000
4.385100 0.000000
4.399200 0.000000
4.413200 0.000000
4.427300 0.000000
4.441300 0.000000
4.455400 0.000000
4.469400 0.000000
4.483400 0.000000
4.497500 0.000000
4.511500 0.000000
4.525600 0.000000
4.539600 0.000000
4.553700 0.000000
4.567700 0.000000
4.581800 0.000000
4.595800 0.000000
4.609800 0.000000
4.623900 0.000000
4.637900 0.000000
4.652000 0.000000
4.666000 0.000000
4.680100 0.000000
4.694100 0.000000
4.708200 0.000000
4.722200 0.000000
4.736200 0.000000
4.750300 0.000000
4.764300 0.000000
4.778400 0.000000
4.792400 0.000000
4.806500 0.000000
4.820500 0.000000
4.834600 0.000000
4.848600 0.000000
4.862700 0.000000
4.876700 0.000000
4.890700 0.000000
4.904800 0.000000
4.918800 0.000000
4.932900 0.000000
4.946900 0.000000
4.961000 0.000000
4.975000 0.000000
4.989100 0.000000
5.003100 0.000000
5.017100 0.000000
5.031200 0.000000
5.045200 0.000000
5.059300 0.000000
5.073300 0.000000
5.087400 0.000000
5.101400 0.000000
5.115500 0.000000
5.129500 0.000000
5.143500 0.000000
5.157600 0.000000
5.171600 0.000000
5.185700 0.000000
5.199700 0.000000
5.213800 0.000000
5.227800 0.000000
5.241900 0.000000
5.255900 0.000000
5.269900 0.000000
5.284000 0.000000
5.298000 0.000000
5.312100 0.000000
5.326100 0.000000
5.340200 0.000000
5.354200 0.000000
5.368300 0.000000
5.382300 0.000000
5.396300 0.000000
5.410400 0.000300
5.424400 0.010900
5.438500 0.021600
5.452500 0.032300
5.466600 0.053800
5.480600 0.083800
5.494700 0.113900
5.508700 0.143900
5.522700 0.174000
5.536800 0.204000
5.550800 0.234100
5.564900 0.271500
5.578900 0.311600
5.593000 0.351800
5.607000 0.394700
5.621100 0.444400
5.635100 0.494200
5.649100 0.544000
5.663200 0.593800
5.677200 0.643500
5.691300 0.693300
5.705300 0.743100
5.719400 0.792900
5.733400 0.842600
5.747500 0.892400
5.761500 0.942200
5.775500 0.991900
5.789600 1.041700
5.803600 1.091500
5.817700 1.141300
5.831700 1.191000
5.845800 1.240800
5.859800 1.290600
5.873900 1.340300
5.887900 1.390100
5.901900 1.439900
5.916000 1.489700
5.930000 1.539400
5.944100 3.376200
5.958100 3.777100
5.972200 4.178100
5.986200 4.435400
6.000300 4.443300
6.014300 4.451200
6.028300 5.159700
6.042400 5.399400
6.056400 6.026500
6.070500 6.704700
6.084500 7.770900
6.098600 7.979400
6.112600 8.187900
6.126700 8.396400
6.140700 8.666100
6.154800 8.907200
6.168800 9.148300
6.182800 9.874100
6.196900 9.915800
6.210900 10.016700
6.225000 10.080500
6.239000 10.144200
6.253100 10.207900
6.267100 10.271600
6.281200 10.335300
6.295200 10.399100
6.309200 11.063100
6.323300 11.199500
6.337300 11.335800
6.351400 11.472100
6.365400 11.608400
6.379500 16.041300
6.393500 15.636600
6.407600 15.231900
6.421600 14.535600
6.435600 13.587800
6.449700 12.640000
6.463700 12.475500
6.477800 12.354800
6.491800 12.234000
6.505900 18.131900
6.519900 16.563900
6.534000 14.099900
6.548000 12.746900
6.562000 12.310000
6.576100 11.873100
6.590100 12.592700
6.604200 15.835200
6.618200 9.712500
6.632300 9.390200
6.646300 9.101700
6.660400 8.979500
6.674400 7.493400
6.688400 9.825200
6.702500 9.980400
6.716500 10.135700
6.730600 10.290900
6.744600 8.317800
6.758700 8.223800
6.772700 8.180100
6.786800 8.136500
6.800800 8.092800
6.814800 10.853400
6.828900 10.616800
6.842900 10.388100
6.857000 12.930600
6.871000 11.771200
6.885100 11.106900
6.899100 10.442500
6.913200 9.778200
6.927200 9.276200
6.941200 8.130800
6.955300 7.750900
6.969300 7.371100
6.983400 7.106800
6.997400 6.894300
7.011500 6.057700
7.025500 5.939100
7.039600 10.438400
7.053600 11.197400
7.067600 11.956400
7.081700 12.715400
7.095700 13.474400
7.109800 14.233400
7.123800 30.393000
7.137900 23.551800
7.151900 16.716300
7.166000 14.084600
7.180000 13.303600
7.194000 14.065400
7.208100 15.436700
7.222100 20.485200
7.236200 22.029500
7.250200 20.162600
7.264300 18.609800
7.278300 17.077700
7.292400 12.197300
7.306400 13.593400
7.320500 14.989500
7.334500 27.700800
7.348500 23.573000
7.362600 21.086700
7.376600 17.439800
7.390700 19.136200
7.404700 21.474300
7.418800 23.012900
7.432800 24.551600
7.446900 14.086400
7.460900 15.657300
7.474900 15.067700
7.489000 16.413100
7.503000 18.051000
7.517100 19.910200
7.531100 23.273600
7.545200 18.709500
7.559200 18.888400
7.573300 18.935100
7.587300 18.981700
7.601300 16.136400
7.615400 15.190900
7.629400 20.971700
7.643500 21.953900
7.657500 22.912300
7.671600 24.865700
7.685600 20.951100
7.699700 21.424500
7.713700 22.111400
7.727700 21.412100
7.741800 21.660900
7.755800 22.341600
7.769900 23.097900
7.783900 19.778800
7.798000 23.659000
7.812000 28.217900
7.826100 35.149800
7.840100 27.130900
7.854100 25.376500
7.868200 27.526700
7.882200 22.242100
7.896300 17.786200
7.910300 14.938000
7.924400 16.290300
7.938400 16.494000
7.952500 17.851600
7.966500 17.489900
7.980500 17.128200
7.994600 18.879700
8.008600 18.594400
8.022700 18.152300
8.036700 17.883500
8.050800 17.614700
8.064800 17.345900
8.078900 17.077100
8.092900 20.056800
8.106900 21.251200
8.121000 20.742600
8.135000 20.195800
8.149100 19.640500
8.163100 18.745600
8.177200 18.326300
8.191200 17.907000
8.205300 18.755100
8.219300 21.622200
8.233300 14.789700
8.247400 16.712400
8.261400 16.001600
8.275500 15.290800
8.289500 14.579900
8.303600 16.895900
8.317600 19.378800
8.331700 14.979400
8.345700 13.425000
8.359700 11.875800
8.373800 10.824400
8.387800 9.773000
8.401900 8.819900
8.415900 8.080200
8.430000 7.340400
8.444000 6.836300
8.458100 6.652600
8.472100 6.469000
8.486100 6.285300
8.500200 6.101700
8.514200 5.918000
8.528300 5.734300
8.542300 5.550700
8.556400 5.367000
8.570400 5.183400
8.584500 5.218400
8.598500 5.278000
8.612600 5.348200
8.626600 5.431900
8.640600 5.198700
8.654700 5.325600
8.668700 5.452600
8.682800 4.885600
8.696800 4.671700
8.710900 12.180300
8.724900 4.223200
8.739000 4.386900
8.753000 4.550600
8.767000 4.341900
8.781100 7.593700
8.795100 12.537200
8.809200 5.481500
8.823200 5.791200
8.837300 6.487200
8.851300 7.123800
8.865400 7.202600
8.879400 7.651500
8.893400 7.352000
8.907500 7.052500
8.921500 6.753000
8.935600 6.453600
8.949600 6.612400
8.963700 7.032500
8.977700 8.063000
8.991800 8.711600
9.005800 9.360200
9.019800 10.008800
9.033900 10.657400
9.047900 12.951700
9.062000 11.977500
9.076000 11.421000
9.090100 10.410000
9.104100 10.589800
9.118200 9.761600
9.132200 10.663900
9.146200 11.913800
9.160300 27.715200
9.174300 16.371400
9.188400 19.569800
9.202400 20.156100
9.216500 19.854100
9.230500 19.552100
9.244600 16.793600
9.258600 27.880400
9.272600 14.493700
9.286700 13.632400
9.300700 12.771000
9.314800 12.233300
9.328800 13.690700
9.342900 16.646400
9.356900 20.034700
9.371000 16.128400
9.385000 16.984800
9.399000 15.427100
9.413100 17.637000
9.427100 18.514600
9.441200 19.079300
9.455200 15.128900
9.469300 14.545200
9.483300 20.068300
9.497400 17.880300
9.511400 16.098300
9.525400 15.669400
9.539500 15.287800
9.553500 15.706400
9.567600 16.731200
9.581600 19.670400
9.595700 19.958400
9.609700 20.246400
9.623800 20.534400
9.637800 19.360900
9.651800 16.818300
9.665900 15.963600
9.679900 15.524100
9.694000 15.525700
9.708000 15.077900
9.722100 13.166800
9.736100 14.259900
9.750200 15.877100
9.764200 17.533700
9.778300 17.099900
9.792300 17.645100
9.806300 17.438300
9.820400 16.930500
9.834400 16.422700
9.848500 16.006900
9.862500 15.269100
9.876600 16.253400
9.890600 17.340700
9.904700 18.462300
9.918700 17.721800
9.932700 18.746200
9.946800 14.705800
9.960800 12.515000
9.974900 11.706100
9.988900 12.485500
10.003000 13.346900
10.017000 14.208300
10.031100 15.810800
10.045100 14.413000
10.059100 15.981100
10.073200 17.549100
10.087200 16.017000
10.101300 11.651400
10.115300 12.813500
10.129400 12.518200
10.143400 12.223000
10.157500 11.927700
10.171500 11.632400
10.185500 13.500900
10.199600 13.302400
10.213600 12.944400
10.227700 12.667500
10.241700 12.968100
10.255800 13.829100
10.269800 11.580800
10.283900 13.110900
10.297900 9.417500
10.311900 9.820800
10.326000 9.865100
10.340000 9.909500
10.354100 9.953800
10.368100 9.998100
10.382200 10.042400
10.396200 10.086700
10.410300 10.143900
10.424300 10.207600
10.438300 10.748500
10.452400 10.971300
10.466400 12.231300
10.480500 12.457000
10.494500 12.682700
10.508600 12.908400
10.522600 13.134100
10.536700 13.359800
10.550700 13.054500
10.564700 13.153600
10.578800 13.252700
10.592800 13.351800
10.606900 13.463100
10.620900 11.504300
10.635000 11.339100
10.649000 11.176000
10.663100 11.069400
10.677100 10.974200
10.691100 10.026500
10.705200 10.411400
10.719200 10.573600
10.733300 10.739800
10.747300 10.918900
10.761400 11.142300
10.775400 11.365700
10.789500 11.589200
10.803500 10.840700
10.817500 11.069500
10.831600 11.225400
10.845600 9.174900
10.859700 9.134100
10.873700 9.037400
10.887800 8.940600
10.901800 8.843900
10.915900 8.747100
10.929900 8.650400
10.943900 10.202300
10.958000 10.295500
10.972000 10.388600
10.986100 10.489900
11.000100 10.540200
11.014200 11.079700
11.028200 11.097600
11.042300 12.784400
11.056300 12.793600
11.070400 12.802700
11.084400 12.811800
11.098400 12.821000
11.112500 12.830100
11.126500 14.590200
11.140600 14.312000
11.154600 13.860000
11.168700 13.410400
11.182700 14.863000
11.196800 14.345900
11.210800 15.713300
11.224800 15.167800
11.238900 15.396800
11.252900 14.905600
11.267000 14.414400
11.281000 13.926600
11.295100 13.636900
11.309100 13.354300
11.323200 13.071700
11.337200 13.819600
11.351200 13.483000
11.365300 13.146300
11.379300 12.498700
11.393400 12.336600
11.407400 12.172600
11.421500 12.591300
11.435500 12.392400
11.449600 11.822300
11.463600 11.630800
11.477600 11.439200
11.491700 14.509100
11.505700 13.820300
11.519800 13.121700
11.533800 12.403100
11.547900 27.782000
11.561900 13.670900
11.576000 12.569300
11.590000 12.654000
11.604000 12.738700
11.618100 12.823400
11.632100 12.617100
11.646200 12.832200
11.660200 13.104500
11.674300 13.787300
11.688300 14.593700
11.702400 15.202400
11.716400 14.738700
11.730400 15.403700
11.744500 16.085600
11.758500 16.807700
11.772600 16.999300
11.786600 25.522600
11.800700 15.190700
11.814700 14.876900
11.828800 15.043200
11.842800 15.232200
11.856800 15.026700
11.870900 14.766300
11.884900 14.509500
11.899000 14.365800
11.913000 14.803700
11.927100 15.515300
11.941100 16.227000
11.955200 16.938700
11.969200 15.812500
11.983200 16.726300
11.997300 17.642200
12.011300 15.110300
12.025400 15.992100
12.039400 15.243900
12.053500 15.659500
12.067500 11.862400
12.081600 11.980700
12.095600 12.099100
12.109600 12.436500
12.123700 12.891000
12.137700 19.282100
12.151800 11.878900
12.165800 12.184100
12.179900 12.520600
12.193900 13.083500
12.208000 14.070500
12.222000 14.447000
12.236100 16.855100
12.250100 15.035900
12.264100 15.230300
12.278200 14.895100
12.292200 15.045000
12.306300 14.547600
12.320300 14.000300
12.334400 13.833200
12.348400 13.990400
12.362500 15.481200
12.376500 15.284000
12.390500 15.086700
12.404600 14.889500
12.418600 14.692300
12.432700 15.733500
12.446700 16.958200
12.460800 17.220900
12.474800 15.930400
12.488900 16.144300
12.502900 15.745200
12.516900 15.359000
12.531000 15.054900
12.545000 15.043600
12.559100 16.060100
12.573100 16.125200
12.587200 16.190300
12.601200 16.255400
12.615300 14.674000
12.629300 13.982400
12.643300 13.290900
12.657400 12.599300
12.671400 12.849200
12.685500 12.836300
12.699500 13.210300
12.713600 13.584300
12.727600 15.917800
12.741700 16.510100
12.755700 17.102400
12.769700 16.450500
12.783800 15.649100
12.797800 14.780400
12.811900 15.696700
12.825900 15.959300
12.840000 17.902800
12.854000 19.416200
12.868100 19.406000
12.882100 17.407500
12.896100 15.113600
12.910200 17.403700
12.924200 17.556700
12.938300 17.709800
12.952300 17.862800
12.966400 17.998300
12.980400 18.141000
12.994500 17.553000
13.008500 16.924700
13.022500 16.188800
13.036600 15.037400
13.050600 13.886100
13.064700 26.623000
13.078700 14.166400
13.092800 29.244800
13.106800 15.227600
13.120900 14.863700
13.134900 13.740900
13.148900 17.535900
13.163000 17.179500
13.177000 16.823100
13.191100 17.681800
13.205100 15.038300
13.219200 14.499200
13.233200 14.240600
13.247300 13.982000
13.261300 13.723500
13.275300 13.464900
13.289400 12.477000
13.303400 12.468700
13.317500 12.468800
13.331500 12.487300
13.345600 12.505900
13.359600 12.547100
13.373700 10.965200
13.387700 11.294000
13.401700 11.825800
13.415800 11.182300
13.429800 14.629000
13.443900 14.214500
13.457900 9.010900
13.472000 9.418000
13.486000 9.879500
13.500100 10.341000
13.514100 10.802600
13.528200 14.026500
13.542200 15.753100
13.556200 18.283300
13.570300 11.554500
13.584300 11.783000
13.598400 12.011600
13.612400 17.233800
13.626500 28.521200
13.640500 26.777300
13.654600 7.973700
13.668600 8.105300
13.682600 16.871200
13.696700 14.857500
13.710700 12.832500
13.724800 16.384900
13.738800 11.117900
13.752900 11.393200
13.766900 11.599500
13.781000 11.564400
13.795000 11.529200
13.809000 14.613700
13.823100 17.331700
13.837100 13.570300
13.851200 13.576700
13.865200 13.583000
13.879300 13.589400
13.893300 13.595800
13.907400 13.602200
13.921400 9.233100
13.935400 6.429300
13.949500 5.354400
13.963500 3.488800
13.977600 2.977400
13.991600 3.057000
14.005700 4.745900
14.019700 6.746300
14.033800 7.305900
14.047800 6.646500
14.061800 5.987100
14.075900 5.327700
14.089900 4.668300
14.104000 4.164300
14.118000 4.236200
14.132100 4.035300
14.146100 4.380100
14.160200 4.660500
14.174200 4.476900
14.188200 4.293400
14.202300 4.109900
14.216300 3.926400
14.230400 3.742800
14.244400 3.559300
14.258500 3.375800
14.272500 3.192300
14.286600 3.008700
14.300600 2.825200
14.314600 2.641700
14.328700 2.458200
14.342700 2.292800
14.356800 2.192600
14.370800 2.105500
14.384900 2.018900
14.398900 1.975700
14.413000 1.932500
14.427000 1.889400
14.441000 1.846200
14.455100 2.762300
14.469100 1.926400
14.483200 1.090400
14.497200 1.023300
14.511300 1.009900
14.525300 0.996500
14.539400 0.983100
14.553400 0.969600
14.567400 0.956200
14.581500 0.942800
14.595500 0.929400
14.609600 1.478200
14.623600 1.418200
14.637700 0.959400
14.651700 0.500500
14.665800 0.041700
14.679800 0.000000
14.693900 0.000000
14.707900 0.000000
14.721900 0.000000
14.736000 0.000000
14.750000 0.000000
14.764100 0.000000
14.778100 0.000000
14.792200 0.000000
14.806200 0.000000
14.820300 0.000000
14.834300 0.000000
14.848300 0.000000
14.862400 0.000000
14.876400 0.000000
14.890500 0.000000
14.904500 0.000000
14.918600 0.000000
14.932600 0.000000
14.946700 0.000000
14.960700 0.000000
14.974700 0.000000
14.988800 0.000000
15.002800 0.000000
15.016900 0.000000
15.030900 0.000000
15.045000 0.000000
15.059000 0.000000
15.073100 0.000000
15.087100 0.000000
15.101100 0.000000
15.115200 0.000000
15.129200 0.000000
15.143300 0.000000
15.157300 0.000000
15.171400 0.000000
15.185400 0.000000
15.199500 0.000000
15.213500 0.000000
15.227500 0.000000
15.241600 0.000000
15.255600 0.000000
15.269700 0.000000
15.283700 0.000000
15.297800 0.000000
15.311800 0.000000
15.325900 0.000000
15.339900 0.000000
15.353900 0.000000
15.368000 0.000000
15.382000 0.000000
15.396100 0.000000
15.410100 0.000000
15.424200 0.000000
15.438200 0.000000
15.452300 0.000000
15.466300 0.000000
15.480300 0.000000
15.494400 0.000000
15.508400 0.000000
15.522500 0.000000
15.536500 0.000000
15.550600 0.000000
15.564600 0.000000
15.578700 0.000000
15.592700 0.000000
15.606700 0.000000
15.620800 0.000000
15.634800 0.000000
15.648900 0.000000
15.662900 0.000000
15.677000 0.000000
15.691000 0.000000
15.705100 0.000000
15.719100 0.000000
15.733100 0.000000
15.747200 0.000000
15.761200 0.000000
15.775300 0.000000
15.789300 0.000000
15.803400 0.000000
15.817400 0.000000
15.831500 0.000000
15.845500 0.000000
15.859500 0.000000
15.873600 0.000000
15.887600 0.000000
15.901700 0.000000
15.915700 0.000000
15.929800 0.000000
15.943800 0.000000
e
