set title 'mp-1224847 - Density of States'
set xlabel 'Energy (eV)'
set ylabel 'DOS (states/eV)'
set grid
set xrange [-10:10]
set yrange [0:3.965]
set xzeroaxis lt -1
set terminal png size 800,600
set output 'mp-1224847_dos_gnuplot.png'
plot '-' using 1:2 with lines title 'DOS'
-54.556500 0.000000
-54.494600 0.000000
-54.432700 0.000000
-54.370800 0.000000
-54.308900 0.000000
-54.247000 0.000000
-54.185100 0.000000
-54.123200 0.000000
-54.061200 0.000000
-53.999300 0.000000
-53.937400 0.000000
-53.875500 0.000000
-53.813600 0.000000
-53.751700 0.000000
-53.689800 0.000000
-53.627900 0.000000
-53.566000 0.000000
-53.504100 0.000000
-53.442200 0.000000
-53.380200 0.000000
-53.318300 0.000000
-53.256400 0.000000
-53.194500 0.000000
-53.132600 0.000000
-53.070700 0.000000
-53.008800 0.000000
-52.946900 0.000000
-52.885000 0.000000
-52.823100 0.000000
-52.761100 0.000000
-52.699200 0.000000
-52.637300 0.000000
-52.575400 0.000000
-52.513500 0.000000
-52.451600 0.000000
-52.389700 0.000000
-52.327800 0.000000
-52.265900 0.000000
-52.204000 0.000000
-52.142100 0.000000
-52.080100 0.000000
-52.018200 0.000000
-51.956300 0.000000
-51.894400 0.000000
-51.832500 0.000000
-51.770600 0.000000
-51.708700 0.000000
-51.646800 0.000000
-51.584900 0.000000
-51.523000 0.000000
-51.461000 0.000000
-51.399100 0.000000
-51.337200 0.000000
-51.275300 0.000000
-51.213400 0.000000
-51.151500 0.000000
-51.089600 0.000000
-51.027700 0.000000
-50.965800 0.000000
-50.903900 0.000000
-50.842000 0.000000
-50.780000 0.000000
-50.718100 0.000000
-50.656200 0.000000
-50.594300 0.000000
-50.532400 0.000000
-50.470500 0.000000
-50.408600 0.000000
-50.346700 0.000000
-50.284800 0.000000
-50.222900 0.000000
-50.160900 0.000000
-50.099000 0.000000
-50.037100 0.000000
-49.975200 0.000000
-49.913300 0.000000
-49.851400 0.000000
-49.789500 0.000000
-49.727600 0.000000
-49.665700 0.000000
-49.603800 0.000000
-49.541900 0.000000
-49.479900 0.000000
-49.418000 0.000000
-49.356100 0.000000
-49.294200 0.000000
-49.232300 0.000000
-49.170400 0.000000
-49.108500 0.000000
-49.046600 0.000000
-48.984700 0.000000
-48.922800 21.060800
-48.860800 7.577700
-48.798900 17.505000
-48.737000 0.000000
-48.675100 0.000000
-48.613200 0.000000
-48.551300 0.000000
-48.489400 0.000000
-48.427500 0.000000
-48.365600 0.000000
-48.303700 0.000000
-48.241800 0.000000
-48.179800 0.000000
-48.117900 0.000000
-48.056000 0.000000
-47.994100 0.000000
-47.932200 0.000000
-47.870300 0.000000
-47.808400 0.000000
-47.746500 0.000000
-47.684600 0.000000
-47.622700 0.000000
-47.560700 0.000000
-47.498800 0.000000
-47.436900 0.000000
-47.375000 0.000000
-47.313100 0.000000
-47.251200 0.000000
-47.189300 0.000000
-47.127400 0.000000
-47.065500 0.000000
-47.003600 0.000000
-46.941600 0.000000
-46.879700 0.000000
-46.817800 0.000000
-46.755900 0.000000
-46.694000 0.000000
-46.632100 0.000000
-46.570200 0.000000
-46.508300 0.000000
-46.446400 0.000000
-46.384500 0.000000
-46.322600 0.000000
-46.260600 0.000000
-46.198700 0.000000
-46.136800 0.000000
-46.074900 0.000000
-46.013000 0.000000
-45.951100 0.000000
-45.889200 0.000000
-45.827300 0.000000
-45.765400 0.000000
-45.703500 0.000000
-45.641500 0.000000
-45.579600 0.000000
-45.517700 0.000000
-45.455800 0.000000
-45.393900 0.000000
-45.332000 0.000000
-45.270100 0.000000
-45.208200 0.000000
-45.146300 0.000000
-45.084400 0.000000
-45.022500 0.000000
-44.960500 0.000000
-44.898600 0.000000
-44.836700 0.000000
-44.774800 0.000000
-44.712900 0.000000
-44.651000 0.000000
-44.589100 0.000000
-44.527200 0.000000
-44.465300 0.000000
-44.403400 0.000000
-44.341400 0.000000
-44.279500 0.000000
-44.217600 0.000000
-44.155700 0.000000
-44.093800 0.000000
-44.031900 0.000000
-43.970000 0.000000
-43.908100 0.000000
-43.846200 0.000000
-43.784300 0.000000
-43.722400 0.000000
-43.660400 0.000000
-43.598500 0.000000
-43.536600 0.000000
-43.474700 0.000000
-43.412800 0.000000
-43.350900 0.000000
-43.289000 0.000000
-43.227100 0.000000
-43.165200 0.000000
-43.103300 0.000000
-43.041300 0.000000
-42.979400 0.000000
-42.917500 0.000000
-42.855600 0.000000
-42.793700 0.000000
-42.731800 0.000000
-42.669900 0.000000
-42.608000 0.000000
-42.546100 0.000000
-42.484200 0.000000
-42.422300 0.000000
-42.360300 0.000000
-42.298400 0.000000
-42.236500 0.000000
-42.174600 0.000000
-42.112700 0.000000
-42.050800 0.000000
-41.988900 0.000000
-41.927000 0.000000
-41.865100 0.000000
-41.803200 0.000000
-41.741200 0.000000
-41.679300 0.000000
-41.617400 0.000000
-41.555500 0.000000
-41.493600 0.000000
-41.431700 0.000000
-41.369800 0.000000
-41.307900 0.000000
-41.246000 0.000000
-41.184100 0.000000
-41.122200 0.000000
-41.060200 0.000000
-40.998300 0.000000
-40.936400 3.566300
-40.874500 4.762800
-40.812600 2.143300
-40.750700 2.155500
-40.688800 2.611600
-40.626900 3.465000
-40.565000 5.946700
-40.503100 19.975000
-40.441100 3.779200
-40.379200 0.000000
-40.317300 0.000000
-40.255400 0.000000
-40.193500 0.000000
-40.131600 0.000000
-40.069700 0.000000
-40.007800 0.000000
-39.945900 0.000000
-39.884000 0.000000
-39.822100 0.000000
-39.760100 0.000000
-39.698200 0.000000
-39.636300 0.000000
-39.574400 0.000000
-39.512500 0.000000
-39.450600 0.000000
-39.388700 0.000000
-39.326800 0.000000
-39.264900 0.000000
-39.203000 0.000000
-39.141000 0.000000
-39.079100 0.000000
-39.017200 0.000000
-38.955300 0.000000
-38.893400 0.000000
-38.831500 0.000000
-38.769600 0.000000
-38.707700 0.000000
-38.645800 0.000000
-38.583900 0.000000
-38.522000 0.000000
-38.460000 0.000000
-38.398100 0.000000
-38.336200 0.000000
-38.274300 0.000000
-38.212400 0.000000
-38.150500 0.000000
-38.088600 0.000000
-38.026700 0.000000
-37.964800 0.000000
-37.902900 0.000000
-37.840900 0.000000
-37.779000 0.000000
-37.717100 0.000000
-37.655200 0.000000
-37.593300 0.000000
-37.531400 0.000000
-37.469500 0.000000
-37.407600 0.000000
-37.345700 0.000000
-37.283800 0.000000
-37.221900 0.000000
-37.159900 0.000000
-37.098000 0.000000
-37.036100 0.000000
-36.974200 0.000000
-36.912300 0.000000
-36.850400 0.000000
-36.788500 0.000000
-36.726600 0.000000
-36.664700 0.000000
-36.602800 0.000000
-36.540800 0.000000
-36.478900 0.000000
-36.417000 0.000000
-36.355100 0.000000
-36.293200 0.000000
-36.231300 0.000000
-36.169400 0.000000
-36.107500 0.000000
-36.045600 0.000000
-35.983700 0.000000
-35.921800 0.000000
-35.859800 0.000000
-35.797900 0.000000
-35.736000 0.000000
-35.674100 0.000000
-35.612200 0.000000
-35.550300 0.000000
-35.488400 0.000000
-35.426500 0.000000
-35.364600 0.000000
-35.302700 0.000000
-35.240700 0.000000
-35.178800 0.000000
-35.116900 0.000000
-35.055000 0.000000
-34.993100 0.000000
-34.931200 0.000000
-34.869300 0.000000
-34.807400 0.000000
-34.745500 0.000000
-34.683600 0.000000
-34.621700 0.000000
-34.559700 0.000000
-34.497800 0.000000
-34.435900 0.000000
-34.374000 0.000000
-34.312100 0.000000
-34.250200 0.000000
-34.188300 0.000000
-34.126400 0.000000
-34.064500 0.000000
-34.002600 0.000000
-33.940600 0.000000
-33.878700 0.000000
-33.816800 0.000000
-33.754900 0.000000
-33.693000 0.000000
-33.631100 0.000000
-33.569200 0.000000
-33.507300 0.000000
-33.445400 0.000000
-33.383500 0.000000
-33.321600 0.000000
-33.259600 0.000000
-33.197700 0.000000
-33.135800 0.000000
-33.073900 0.000000
-33.012000 0.000000
-32.950100 0.000000
-32.888200 0.000000
-32.826300 0.000000
-32.764400 0.000000
-32.702500 0.000000
-32.640500 0.000000
-32.578600 0.000000
-32.516700 0.000000
-32.454800 0.000000
-32.392900 0.000000
-32.331000 0.000000
-32.269100 0.000000
-32.207200 0.000000
-32.145300 0.000000
-32.083400 0.000000
-32.021500 0.000000
-31.959500 0.000000
-31.897600 0.000000
-31.835700 0.000000
-31.773800 0.000000
-31.711900 0.000000
-31.650000 0.000000
-31.588100 0.000000
-31.526200 0.000000
-31.464300 0.000000
-31.402400 0.000000
-31.340400 0.000000
-31.278500 0.000000
-31.216600 0.000000
-31.154700 0.000000
-31.092800 0.000000
-31.030900 0.000000
-30.969000 0.000000
-30.907100 0.000000
-30.845200 0.000000
-30.783300 0.000000
-30.721400 0.000000
-30.659400 0.000000
-30.597500 0.000000
-30.535600 0.000000
-30.473700 0.000000
-30.411800 0.000000
-30.349900 0.000000
-30.288000 0.000000
-30.226100 0.000000
-30.164200 0.000000
-30.102300 0.000000
-30.040300 0.000000
-29.978400 0.000000
-29.916500 0.000000
-29.854600 0.000000
-29.792700 0.000000
-29.730800 0.000000
-29.668900 0.000000
-29.607000 0.000000
-29.545100 0.000000
-29.483200 0.000000
-29.421300 0.000000
-29.359300 0.000000
-29.297400 0.000000
-29.235500 0.000000
-29.173600 0.000000
-29.111700 0.000000
-29.049800 0.000000
-28.987900 0.000000
-28.926000 0.000000
-28.864100 0.000000
-28.802200 0.000000
-28.740200 0.000000
-28.678300 0.000000
-28.616400 0.000000
-28.554500 0.000000
-28.492600 0.000000
-28.430700 0.000000
-28.368800 0.000000
-28.306900 0.000000
-28.245000 0.000000
-28.183100 0.000000
-28.121200 0.000000
-28.059200 0.000000
-27.997300 0.000000
-27.935400 0.000000
-27.873500 0.000000
-27.811600 0.000000
-27.749700 0.000000
-27.687800 0.000000
-27.625900 0.000000
-27.564000 0.000000
-27.502100 0.000000
-27.440100 0.000000
-27.378200 0.000000
-27.316300 0.000000
-27.254400 0.000000
-27.192500 0.000000
-27.130600 0.000000
-27.068700 0.000000
-27.006800 0.000000
-26.944900 0.000000
-26.883000 0.000000
-26.821100 0.000000
-26.759100 0.000000
-26.697200 0.000000
-26.635300 0.000000
-26.573400 0.000000
-26.511500 0.000000
-26.449600 0.000000
-26.387700 0.000000
-26.325800 0.000000
-26.263900 0.000000
-26.202000 0.000000
-26.140000 0.000000
-26.078100 0.000000
-26.016200 0.000000
-25.954300 0.000000
-25.892400 0.000000
-25.830500 0.000000
-25.768600 0.000000
-25.706700 0.000000
-25.644800 0.000000
-25.582900 0.000000
-25.521000 0.000000
-25.459000 0.000000
-25.397100 0.000000
-25.335200 0.000000
-25.273300 0.000000
-25.211400 0.000000
-25.149500 0.000000
-25.087600 0.000000
-25.025700 0.000000
-24.963800 0.000000
-24.901900 0.000000
-24.839900 0.000000
-24.778000 0.000000
-24.716100 0.000000
-24.654200 0.000000
-24.592300 0.000000
-24.530400 0.000000
-24.468500 0.000000
-24.406600 0.000000
-24.344700 0.000000
-24.282800 0.000000
-24.220900 0.000000
-24.158900 0.000000
-24.097000 0.000000
-24.035100 0.000000
-23.973200 0.000000
-23.911300 0.000000
-23.849400 0.000000
-23.787500 0.000000
-23.725600 0.000000
-23.663700 0.000000
-23.601800 0.000000
-23.539800 0.000000
-23.477900 0.000000
-23.416000 0.000000
-23.354100 0.000000
-23.292200 0.000000
-23.230300 0.000000
-23.168400 0.000000
-23.106500 0.000000
-23.044600 0.000000
-22.982700 0.000000
-22.920800 0.000000
-22.858800 0.000000
-22.796900 0.000000
-22.735000 0.000000
-22.673100 0.000000
-22.611200 0.000000
-22.549300 0.000000
-22.487400 0.000000
-22.425500 0.000000
-22.363600 0.000000
-22.301700 0.000000
-22.239700 0.000000
-22.177800 0.000000
-22.115900 0.000000
-22.054000 0.000000
-21.992100 0.000000
-21.930200 0.000000
-21.868300 0.000000
-21.806400 0.000000
-21.744500 0.000000
-21.682600 0.000000
-21.620700 0.000000
-21.558700 0.000000
-21.496800 0.000000
-21.434900 0.000000
-21.373000 0.000000
-21.311100 0.000000
-21.249200 0.000000
-21.187300 0.000000
-21.125400 0.000000
-21.063500 0.000000
-21.001600 0.000000
-20.939600 0.000000
-20.877700 0.000000
-20.815800 0.000000
-20.753900 0.000000
-20.692000 0.000000
-20.630100 0.000000
-20.568200 0.000000
-20.506300 0.000000
-20.444400 0.000000
-20.382500 0.000000
-20.320600 0.000000
-20.258600 0.000000
-20.196700 0.000000
-20.134800 0.000000
-20.072900 0.000000
-20.011000 0.000000
-19.949100 0.000000
-19.887200 0.000000
-19.825300 0.000000
-19.763400 0.000000
-19.701500 0.000000
-19.639500 0.000000
-19.577600 0.000000
-19.515700 0.000000
-19.453800 0.000000
-19.391900 0.000000
-19.330000 0.000000
-19.268100 0.000000
-19.206200 0.000000
-19.144300 0.000000
-19.082400 0.000000
-19.020500 0.000000
-18.958500 0.000000
-18.896600 0.000000
-18.834700 0.000000
-18.772800 0.000000
-18.710900 0.000000
-18.649000 0.000000
-18.587100 0.000000
-18.525200 0.000000
-18.463300 0.000000
-18.401400 0.000000
-18.339400 0.000000
-18.277500 0.000000
-18.215600 0.000000
-18.153700 0.000000
-18.091800 0.000000
-18.029900 0.000000
-17.968000 0.000000
-17.906100 0.000000
-17.844200 0.000000
-17.782300 0.000000
-17.720400 0.000000
-17.658400 0.000000
-17.596500 0.000000
-17.534600 0.000000
-17.472700 0.000000
-17.410800 0.000000
-17.348900 0.000000
-17.287000 0.000000
-17.225100 0.000000
-17.163200 0.000000
-17.101300 0.000000
-17.039300 0.000000
-16.977400 0.000000
-16.915500 0.000000
-16.853600 0.000000
-16.791700 0.000000
-16.729800 0.000000
-16.667900 0.000000
-16.606000 0.000000
-16.544100 0.000000
-16.482200 0.000000
-16.420300 0.000000
-16.358300 0.000000
-16.296400 0.000000
-16.234500 0.000000
-16.172600 0.000000
-16.110700 0.000000
-16.048800 0.000000
-15.986900 0.000000
-15.925000 0.000000
-15.863100 0.000000
-15.801200 0.000000
-15.739200 0.000000
-15.677300 0.000000
-15.615400 0.000000
-15.553500 0.000000
-15.491600 0.000000
-15.429700 0.000000
-15.367800 0.000000
-15.305900 0.000000
-15.244000 0.000000
-15.182100 0.000000
-15.120200 0.000000
-15.058200 0.000000
-14.996300 0.000000
-14.934400 0.000000
-14.872500 0.000000
-14.810600 0.000000
-14.748700 0.000000
-14.686800 0.000000
-14.624900 0.000000
-14.563000 0.000000
-14.501100 0.000000
-14.439100 0.000000
-14.377200 0.000000
-14.315300 0.000000
-14.253400 0.000000
-14.191500 0.000000
-14.129600 0.000000
-14.067700 0.000000
-14.005800 0.000000
-13.943900 0.000000
-13.882000 0.000000
-13.820100 0.000000
-13.758100 0.000000
-13.696200 0.000000
-13.634300 0.000000
-13.572400 0.000000
-13.510500 0.000000
-13.448600 0.000000
-13.386700 0.000000
-13.324800 0.000000
-13.262900 0.000000
-13.201000 0.000000
-13.139000 0.000000
-13.077100 0.000000
-13.015200 0.000000
-12.953300 0.000000
-12.891400 0.000000
-12.829500 0.000000
-12.767600 0.000000
-12.705700 0.000000
-12.643800 0.000000
-12.581900 0.000000
-12.520000 0.000000
-12.458000 0.000000
-12.396100 0.000000
-12.334200 0.000000
-12.272300 0.000000
-12.210400 0.000000
-12.148500 0.000000
-12.086600 0.000000
-12.024700 0.000000
-11.962800 0.000000
-11.900900 0.000000
-11.838900 0.000000
-11.777000 0.000000
-11.715100 0.000000
-11.653200 0.000000
-11.591300 0.000000
-11.529400 0.000000
-11.467500 0.000000
-11.405600 0.000000
-11.343700 0.000000
-11.281800 0.000000
-11.219900 0.000000
-11.157900 0.000000
-11.096000 0.000000
-11.034100 0.000000
-10.972200 0.000000
-10.910300 0.000000
-10.848400 0.000000
-10.786500 0.000000
-10.724600 0.000000
-10.662700 0.000000
-10.600800 0.000000
-10.538800 0.000000
-10.476900 0.000000
-10.415000 0.000000
-10.353100 0.000000
-10.291200 0.000000
-10.229300 0.000000
-10.167400 0.000000
-10.105500 0.000000
-10.043600 0.000000
-9.981700 0.000000
-9.919800 0.000000
-9.857800 0.000000
-9.795900 0.000000
-9.734000 0.000000
-9.672100 0.000000
-9.610200 0.000000
-9.548300 0.000000
-9.486400 0.000000
-9.424500 0.000000
-9.362600 0.000000
-9.300700 0.000000
-9.238700 0.000000
-9.176800 0.000000
-9.114900 0.000000
-9.053000 0.000000
-8.991100 0.000000
-8.929200 0.000000
-8.867300 0.000000
-8.805400 0.000000
-8.743500 0.000000
-8.681600 0.000000
-8.619700 0.000000
-8.557700 0.000000
-8.495800 0.000000
-8.433900 0.000000
-8.372000 0.000000
-8.310100 0.000000
-8.248200 0.000000
-8.186300 0.000000
-8.124400 0.000000
-8.062500 0.000000
-8.000600 0.000000
-7.938600 0.000000
-7.876700 0.000000
-7.814800 0.000000
-7.752900 0.000000
-7.691000 0.000000
-7.629100 0.000000
-7.567200 0.000000
-7.505300 0.000000
-7.443400 0.000000
-7.381500 0.000000
-7.319600 0.000000
-7.257600 0.000000
-7.195700 0.000000
-7.133800 0.000000
-7.071900 0.000000
-7.010000 0.000000
-6.948100 0.000000
-6.886200 0.000000
-6.824300 0.000000
-6.762400 0.000000
-6.700500 0.000000
-6.638500 0.000000
-6.576600 0.000000
-6.514700 0.000000
-6.452800 0.000000
-6.390900 0.000000
-6.329000 0.000000
-6.267100 0.000000
-6.205200 0.000000
-6.143300 0.000000
-6.081400 0.000000
-6.019500 0.000000
-5.957500 0.000000
-5.895600 0.000000
-5.833700 0.000000
-5.771800 0.000000
-5.709900 0.000000
-5.648000 0.000000
-5.586100 0.000000
-5.524200 0.000000
-5.462300 0.000000
-5.400400 0.000000
-5.338400 0.000000
-5.276500 0.000000
-5.214600 0.000000
-5.152700 0.000000
-5.090800 0.000000
-5.028900 0.000000
-4.967000 0.000000
-4.905100 0.000000
-4.843200 0.000000
-4.781300 0.000000
-4.719400 0.000000
-4.657400 0.000000
-4.595500 0.000000
-4.533600 0.000000
-4.471700 0.000000
-4.409800 0.000000
-4.347900 0.000000
-4.286000 0.000000
-4.224100 0.000000
-4.162200 0.000000
-4.100300 0.000000
-4.038300 0.000000
-3.976400 0.000000
-3.914500 0.000000
-3.852600 0.000000
-3.790700 0.000000
-3.728800 0.000000
-3.666900 0.000000
-3.605000 0.000000
-3.543100 0.000000
-3.481200 0.000000
-3.419300 0.000000
-3.357300 0.000000
-3.295400 0.000000
-3.233500 0.000000
-3.171600 0.000000
-3.109700 0.000000
-3.047800 0.000000
-2.985900 0.000000
-2.924000 0.000000
-2.862100 0.000000
-2.800200 0.000000
-2.738200 0.000000
-2.676300 0.000000
-2.614400 0.000000
-2.552500 0.000000
-2.490600 0.000000
-2.428700 0.000000
-2.366800 0.000000
-2.304900 0.000000
-2.243000 0.000000
-2.181100 0.000000
-2.119200 0.008800
-2.057200 0.025600
-1.995300 0.027200
-1.933400 0.033200
-1.871500 0.038100
-1.809600 0.043900
-1.747700 0.048700
-1.685800 0.051600
-1.623900 0.055100
-1.562000 0.058900
-1.500100 0.063100
-1.438100 0.067300
-1.376200 0.071400
-1.314300 0.075100
-1.252400 0.078700
-1.190500 0.082400
-1.128600 0.086100
-1.066700 0.089900
-1.004800 0.094100
-0.942900 0.098400
-0.881000 0.102900
-0.819100 0.107600
-0.757100 0.112300
-0.695200 0.117100
-0.633300 0.122200
-0.571400 0.127700
-0.509500 0.133600
-0.447600 0.139900
-0.385700 0.147000
-0.323800 0.156300
-0.261900 0.165200
-0.200000 0.172700
-0.138000 0.179200
-0.076100 0.189900
-0.014200 0.207900
0.047700 0.225200
0.109600 0.250600
0.171500 0.417600
0.233400 0.593600
0.295300 0.818100
0.357200 0.877700
0.419100 1.040300
0.481000 1.202700
0.543000 1.359100
0.604900 1.549900
0.666800 1.547600
0.728700 1.508200
0.790600 1.287800
0.852500 1.264100
0.914400 1.272200
0.976300 1.282400
1.038200 1.266000
1.100100 1.461900
1.162100 1.585500
1.224000 1.680800
1.285900 1.804300
1.347800 1.937100
1.409700 2.120300
1.471600 1.926300
1.533500 1.783300
1.595400 1.768200
1.657300 1.530000
1.719200 1.385900
1.781100 1.340200
1.843100 1.465000
1.905000 1.404100
1.966900 1.172100
2.028800 1.221200
2.090700 1.449000
2.152600 1.394500
2.214500 1.587100
2.276400 1.904800
2.338300 1.863200
2.400200 1.588300
2.462200 1.578400
2.524100 1.696000
2.586000 1.891900
2.647900 2.031600
2.709800 2.177500
2.771700 2.255600
2.833600 2.104500
2.895500 2.166000
2.957400 2.410700
3.019300 2.810700
3.081200 3.604400
3.143200 2.987000
3.205100 3.201600
3.267000 3.379300
3.328900 2.109100
3.390800 2.796100
3.452700 2.081800
3.514600 1.846900
3.576500 1.975200
3.638400 1.918000
3.700300 1.968100
3.762300 2.043200
3.824200 2.050300
3.886100 2.319300
3.948000 2.136000
4.009900 1.977700
4.071800 1.794800
4.133700 1.454500
4.195600 1.594900
4.257500 1.862200
4.319400 1.976600
4.381300 2.142300
4.443300 2.349000
4.505200 2.151500
4.567100 1.822400
4.629000 1.727900
4.690900 1.581600
4.752800 1.619000
4.814700 1.589000
4.876600 1.570500
4.938500 1.841200
5.000400 2.117200
5.062400 1.367000
5.124300 1.377300
5.186200 1.548300
5.248100 1.670800
5.310000 1.755700
5.371900 1.725000
5.433800 1.659300
5.495700 1.759500
5.557600 1.739900
5.619500 1.627100
5.681400 1.487300
5.743400 1.346600
5.805300 0.915900
5.867200 0.922700
5.929100 0.861900
5.991000 0.739600
6.052900 0.518600
6.114800 0.453600
6.176700 0.436900
6.238600 0.425600
6.300500 0.422900
6.362500 0.412900
6.424400 0.373600
6.486300 0.330500
6.548200 0.319400
6.610100 0.320200
6.672000 0.320200
6.733900 0.317800
6.795800 0.314100
6.857700 0.311600
6.919600 0.308900
6.981500 0.304000
7.043500 0.300900
7.105400 0.300400
7.167300 0.300900
7.229200 0.301800
7.291100 0.301900
7.353000 0.301700
7.414900 0.302100
7.476800 0.302400
7.538700 0.302000
7.600600 0.301900
7.662600 0.300800
7.724500 0.299900
7.786400 0.299300
7.848300 0.298200
7.910200 0.297800
7.972100 0.306800
8.034000 0.309600
8.095900 0.277900
8.157800 0.274100
8.219700 0.273300
8.281600 0.271500
8.343600 0.268800
8.405500 0.266100
8.467400 0.263100
8.529300 0.261300
8.591200 0.260600
8.653100 0.260900
8.715000 0.261000
8.776900 0.260400
8.838800 0.258400
8.900700 0.258900
8.962700 0.268200
9.024600 0.263800
9.086500 0.249200
9.148400 0.241200
9.210300 0.238200
9.272200 0.237600
9.334100 0.238900
9.396000 0.239500
9.457900 0.238500
9.519800 0.238200
9.581700 0.240700
9.643700 0.243300
9.705600 0.243400
9.767500 0.246300
9.829400 0.249400
9.891300 0.250500
9.953200 0.248600
10.015100 0.252500
10.077000 0.276900
10.138900 0.236000
10.200800 0.219200
10.262800 0.203800
10.324700 0.192300
10.386600 0.187900
10.448500 0.196600
10.510400 0.203300
10.572300 0.198400
10.634200 0.189000
10.696100 0.184900
10.758000 0.182200
10.819900 0.180500
10.881800 0.180800
10.943800 0.182600
11.005700 0.184200
11.067600 0.185000
11.129500 0.184300
11.191400 0.183400
11.253300 0.183300
11.315200 0.184200
11.377100 0.186000
11.439000 0.210100
11.500900 0.223200
11.562900 0.173100
11.624800 0.155400
11.686700 0.149500
11.748600 0.144400
11.810500 0.143400
11.872400 0.140400
11.934300 0.132800
11.996200 0.126100
12.058100 0.119700
12.120000 0.112600
12.181900 0.104600
12.243900 0.095200
12.305800 0.085700
12.367700 0.078000
12.429600 0.072700
12.491500 0.089800
12.553400 0.231800
12.615300 0.310700
12.677200 0.325200
12.739100 0.318500
12.801000 0.332800
12.863000 0.346200
12.924900 0.318700
12.986800 0.302000
13.048700 0.298800
13.110600 0.288100
13.172500 0.321300
13.234400 0.333100
13.296300 0.340400
13.358200 0.346800
13.420100 0.355100
13.482000 0.359200
13.544000 0.359300
13.605900 0.359100
13.667800 0.357400
13.729700 0.350100
13.791600 0.334900
13.853500 0.330400
13.915400 0.327200
13.977300 0.327900
14.039200 0.335900
14.101100 0.350200
14.163100 0.316300
14.225000 0.309600
14.286900 0.296700
14.348800 0.287500
14.410700 0.282700
14.472600 0.266600
14.534500 0.259400
14.596400 0.252500
14.658300 0.246100
14.720200 0.239800
14.782100 0.236600
14.844100 0.234200
14.906000 0.228700
14.967900 0.223800
15.029800 0.218900
15.091700 0.214100
15.153600 0.211200
15.215500 0.210900
15.277400 0.210000
15.339300 0.207300
15.401200 0.205800
15.463200 0.206000
15.525100 0.205800
15.587000 0.200400
15.648900 0.195700
15.710800 0.195800
15.772700 0.201400
15.834600 0.212500
15.896500 0.229100
15.958400 0.250000
16.020300 0.274800
16.082200 0.304900
16.144200 0.395700
16.206100 0.481900
16.268000 0.492400
16.329900 0.495200
16.391800 0.477400
16.453700 0.471000
16.515600 0.472900
16.577500 0.458200
16.639400 0.458500
16.701300 0.476700
16.763300 0.497000
16.825200 0.509900
16.887100 0.518400
16.949000 0.532400
17.010900 0.519200
17.072800 0.500700
17.134700 0.481200
17.196600 0.465800
17.258500 0.451700
17.320400 0.444500
17.382300 0.445000
17.444300 0.444900
17.506200 0.440700
17.568100 0.443300
17.630000 0.463900
17.691900 0.456000
17.753800 0.456100
17.815700 0.455200
17.877600 0.452200
17.939500 0.452200
18.001400 0.454800
18.063400 0.460500
18.125300 0.466900
18.187200 0.474500
18.249100 0.484300
18.311000 0.489200
18.372900 0.491700
18.434800 0.487900
18.496700 0.483700
18.558600 0.483400
18.620500 0.493500
18.682400 0.493000
18.744400 0.489200
18.806300 0.488000
18.868200 0.489900
18.930100 0.496400
18.992000 0.491100
19.053900 0.497500
19.115800 0.503400
19.177700 0.500200
19.239600 0.493800
19.301500 0.495400
19.363500 0.499200
19.425400 0.502700
19.487300 0.504000
19.549200 0.506500
19.611100 0.507000
19.673000 0.505700
19.734900 0.502900
19.796800 0.498200
19.858700 0.496000
19.920600 0.492800
19.982500 0.493100
20.044500 0.488900
20.106400 0.483600
20.168300 0.477100
20.230200 0.469300
20.292100 0.465900
20.354000 0.464400
20.415900 0.463600
20.477800 0.458600
20.539700 0.457300
20.601600 0.456300
20.663600 0.453600
20.725500 0.449500
20.787400 0.446400
20.849300 0.443600
20.911200 0.442900
20.973100 0.438600
21.035000 0.435200
21.096900 0.438000
21.158800 0.455900
21.220700 0.441600
21.282600 0.423300
21.344600 0.408600
21.406500 0.401800
21.468400 0.397800
21.530300 0.394400
21.592200 0.391600
21.654100 0.388700
21.716000 0.384100
21.777900 0.378700
21.839800 0.374200
21.901700 0.374300
21.963700 0.386500
22.025600 0.398900
22.087500 0.420600
22.149400 0.438100
22.211300 0.455300
22.273200 0.452200
22.335100 0.452800
22.397000 0.475000
22.458900 0.491000
22.520800 0.499900
22.582700 0.494300
22.644700 0.499700
22.706600 0.503300
22.768500 0.521200
22.830400 0.531200
22.892300 0.542100
22.954200 0.554700
23.016100 0.582900
23.078000 0.556800
23.139900 0.544000
23.201800 0.544500
23.263800 0.530300
23.325700 0.531300
23.387600 0.523000
23.449500 0.514400
23.511400 0.501300
23.573300 0.504700
23.635200 0.507300
23.697100 0.515500
23.759000 0.520600
23.820900 0.591700
23.882800 0.535700
23.944800 0.514700
24.006700 0.483500
24.068600 0.463500
24.130500 0.461700
24.192400 0.458900
24.254300 0.454500
24.316200 0.450000
24.378100 0.447800
24.440000 0.445800
24.501900 0.445300
24.563900 0.445900
24.625800 0.446600
24.687700 0.444000
24.749600 0.434800
24.811500 0.434500
24.873400 0.424800
24.935300 0.409200
24.997200 0.399200
25.059100 0.394600
25.121000 0.385700
25.182900 0.376600
25.244900 0.372100
25.306800 0.376400
25.368700 0.381100
25.430600 0.387900
25.492500 0.412400
25.554400 0.420600
25.616300 0.432800
25.678200 0.445600
25.740100 0.476300
25.802000 0.520400
25.864000 0.590600
25.925900 0.585000
25.987800 0.574100
26.049700 0.594200
26.111600 0.568000
26.173500 0.568300
26.235400 0.546900
26.297300 0.538300
26.359200 0.517400
26.421100 0.532000
26.483000 0.578800
26.545000 0.614000
26.606900 0.610800
26.668800 0.585200
26.730700 0.578000
26.792600 0.610800
26.854500 0.608200
26.916400 0.593700
26.978300 0.576300
27.040200 0.566500
27.102100 0.562200
27.164100 0.554000
27.226000 0.549200
27.287900 0.552800
27.349800 0.566900
27.411700 0.585600
27.473600 0.596300
27.535500 0.619400
27.597400 0.619700
27.659300 0.612000
27.721200 0.611200
27.783100 0.615400
27.845100 0.628600
27.907000 0.645900
27.968900 0.626200
28.030800 0.630100
28.092700 0.607100
28.154600 0.589100
28.216500 0.572700
28.278400 0.566500
28.340300 0.564200
28.402200 0.566300
28.464200 0.575900
28.526100 0.585700
28.588000 0.590500
28.649900 0.596900
28.711800 0.601100
28.773700 0.605900
28.835600 0.584000
28.897500 0.573200
28.959400 0.576300
29.021300 0.577500
29.083200 0.573700
29.145200 0.576800
29.207100 0.569900
29.269000 0.552500
29.330900 0.540100
29.392800 0.514400
29.454700 0.495900
29.516600 0.488700
29.578500 0.486500
29.640400 0.484100
29.702300 0.478800
29.764300 0.493100
29.826200 0.516300
29.888100 0.535500
29.950000 0.565400
30.011900 0.608100
30.073800 0.673600
30.135700 0.796100
30.197600 0.962600
30.259500 1.513100
30.321400 22.567300
30.383300 1.747500
30.445300 0.957300
30.507200 0.716400
30.569100 0.601400
30.631000 0.513700
30.692900 0.440800
30.754800 0.375000
30.816700 0.344000
30.878600 0.320000
30.940500 0.303800
31.002400 0.290400
31.064400 0.280800
31.126300 0.275400
31.188200 0.273400
31.250100 0.268100
31.312000 0.270600
31.373900 0.277900
31.435800 0.290900
31.497700 0.311400
31.559600 0.331300
31.621500 0.390900
31.683400 0.462500
31.745400 0.499600
31.807300 0.518000
31.869200 0.542100
31.931100 0.543800
31.993000 0.566500
32.054900 0.548700
32.116800 0.567800
32.178700 0.582800
32.240600 0.600300
32.302500 0.624500
32.364500 0.626100
32.426400 0.593300
32.488300 0.564000
32.550200 0.536600
32.612100 0.535800
32.674000 0.549900
32.735900 0.576500
32.797800 0.618600
32.859700 0.644600
32.921600 0.654300
32.983500 0.657500
33.045500 0.669900
33.107400 0.696900
33.169300 0.716800
33.231200 0.771700
33.293100 0.819800
33.355000 0.831900
33.416900 0.764700
33.478800 0.746700
33.540700 0.717100
33.602600 0.688300
33.664600 0.677700
33.726500 0.670400
33.788400 0.701200
33.850300 0.631600
33.912200 0.604300
33.974100 0.590100
34.036000 0.592900
34.097900 0.578000
34.159800 0.527800
34.221700 0.499700
34.283600 0.477000
34.345600 0.472800
34.407500 0.477300
34.469400 0.484900
34.531300 0.506400
34.593200 0.523400
34.655100 0.523700
34.717000 0.531400
34.778900 0.550900
34.840800 0.581500
34.902700 0.603800
34.964700 0.614800
35.026600 0.604100
35.088500 0.575800
35.150400 0.566400
35.212300 0.575900
35.274200 0.566300
35.336100 0.572800
35.398000 0.565600
35.459900 0.565100
35.521800 0.577200
35.583700 0.579100
35.645700 0.578800
35.707600 0.590300
35.769500 0.593800
35.831400 0.607200
35.893300 0.613600
35.955200 0.619600
36.017100 0.629000
36.079000 0.635400
36.140900 0.623400
36.202800 0.628000
36.264800 0.639300
36.326700 0.661100
36.388600 0.678600
36.450500 0.692700
36.512400 0.727500
36.574300 0.614600
36.636200 0.577300
36.698100 0.568800
36.760000 0.566400
36.821900 0.565900
36.883800 0.574200
36.945800 0.594000
37.007700 0.667400
37.069600 0.698400
37.131500 0.679600
37.193400 0.724600
37.255300 0.673200
37.317200 0.648300
37.379100 0.644800
37.441000 0.657500
37.502900 0.656500
37.564900 0.653900
37.626800 0.660300
37.688700 0.652300
37.750600 0.640800
37.812500 0.629200
37.874400 0.616900
37.936300 0.614100
37.998200 0.614100
38.060100 0.596400
38.122000 0.608600
38.183900 0.613200
38.245900 0.617800
38.307800 0.621500
38.369700 0.625400
38.431600 0.627700
38.493500 0.606000
38.555400 0.584400
38.617300 0.584500
38.679200 0.598100
38.741100 0.594000
38.803000 0.581500
38.865000 0.569700
38.926900 0.551400
38.988800 0.545200
39.050700 0.543100
39.112600 0.540600
39.174500 0.542600
39.236400 0.540500
39.298300 0.535500
39.360200 0.534000
39.422100 0.554200
39.484000 0.571200
39.546000 0.566300
39.607900 0.581700
39.669800 0.565400
39.731700 0.550500
39.793600 0.534500
39.855500 0.531100
39.917400 0.528900
39.979300 0.532100
40.041200 0.535000
40.103100 0.542200
40.165100 0.564700
40.227000 0.581400
40.288900 0.591900
40.350800 0.591500
40.412700 0.585900
40.474600 0.580600
40.536500 0.581700
40.598400 0.593000
40.660300 0.595900
40.722200 0.594500
40.784100 0.595400
40.846100 0.597600
40.908000 0.595100
40.969900 0.571600
41.031800 0.562400
41.093700 0.558700
41.155600 0.550900
41.217500 0.547100
41.279400 0.553500
41.341300 0.572500
41.403200 0.555400
41.465200 0.535800
41.527100 0.528400
41.589000 0.523500
41.650900 0.518100
41.712800 0.525200
41.774700 0.529300
41.836600 0.541300
41.898500 0.581300
41.960400 0.603800
42.022300 0.619300
42.084200 0.652000
42.146200 0.644800
42.208100 0.673400
42.270000 0.639400
42.331900 0.639400
42.393800 0.629600
42.455700 0.631900
42.517600 0.641500
42.579500 0.630100
42.641400 0.615600
42.703300 0.626700
42.765300 0.625300
42.827200 0.619200
42.889100 0.616200
42.951000 0.615600
43.012900 0.621200
43.074800 0.624200
43.136700 0.627100
43.198600 0.630100
43.260500 0.624800
43.322400 0.620700
43.384300 0.615400
43.446300 0.606700
43.508200 0.606600
43.570100 0.605300
43.632000 0.612600
43.693900 0.622600
43.755800 0.631400
43.817700 0.656900
43.879600 0.685600
43.941500 0.702100
44.003400 0.718400
44.065400 0.735000
44.127300 0.728500
44.189200 0.741700
44.251100 0.750200
44.313000 0.753500
44.374900 0.767900
44.436800 0.773300
44.498700 0.811100
44.560600 0.771000
44.622500 0.761700
44.684400 0.730300
44.746400 0.717500
44.808300 0.723400
44.870200 0.746300
44.932100 0.740800
44.994000 0.747400
45.055900 0.761900
45.117800 0.765900
45.179700 0.754000
45.241600 0.757700
45.303500 0.762100
45.365500 0.753500
45.427400 0.745200
45.489300 0.748800
45.551200 0.764800
45.613100 0.760900
45.675000 0.735400
45.736900 0.722500
45.798800 0.691200
45.860700 0.674400
45.922600 0.663700
45.984500 0.669700
46.046500 0.671100
46.108400 0.665300
46.170300 0.664900
46.232200 0.667100
46.294100 0.682800
46.356000 0.703400
46.417900 0.720000
46.479800 0.718200
46.541700 0.710800
46.603600 0.723000
46.665600 0.745000
46.727500 0.772800
46.789400 0.809400
46.851300 0.804300
46.913200 0.813700
46.975100 0.806900
47.037000 0.776900
47.098900 0.755400
47.160800 0.740700
47.222700 0.737800
47.284600 0.760200
47.346600 0.738400
47.408500 0.724400
47.470400 0.721900
47.532300 0.734700
47.594200 0.753100
47.656100 0.766500
47.718000 0.762900
47.779900 0.740800
47.841800 0.747300
47.903700 0.737600
47.965700 0.729400
48.027600 0.728800
48.089500 0.727300
48.151400 0.741700
48.213300 0.738800
48.275200 0.732700
48.337100 0.732000
48.399000 0.725300
48.460900 0.725900
48.522800 0.697500
48.584700 0.686900
48.646700 0.684700
48.708600 0.698500
48.770500 0.697100
48.832400 0.690500
48.894300 0.675500
48.956200 0.645100
49.018100 0.615500
49.080000 0.589000
49.141900 0.559000
49.203800 0.541400
49.265800 0.540800
49.327700 0.564900
49.389600 0.564800
49.451500 0.580300
49.513400 0.603600
49.575300 0.615900
49.637200 0.642100
49.699100 0.661500
49.761000 0.653200
49.822900 0.629000
49.884800 0.645700
49.946800 0.648200
50.008700 0.720600
50.070600 0.735800
50.132500 0.744000
50.194400 0.756300
50.256300 0.778200
50.318200 0.799000
50.380100 0.798200
50.442000 0.759900
50.503900 0.728400
50.565900 0.727600
50.627800 0.723300
50.689700 0.718700
50.751600 0.719000
50.813500 0.709600
50.875400 0.718200
50.937300 0.725200
50.999200 0.737900
51.061100 0.759400
51.123000 0.772400
51.184900 0.783100
51.246900 0.755800
51.308800 0.722100
51.370700 0.719800
51.432600 0.727700
51.494500 0.749500
51.556400 0.795400
51.618300 0.882100
51.680200 1.002900
51.742100 1.243400
51.804000 1.669300
51.866000 1.985800
51.927900 1.946200
51.989800 1.906400
52.051700 2.043100
52.113600 1.996700
52.175500 1.798200
52.237400 1.433600
52.299300 1.225600
52.361200 1.109300
52.423100 1.054300
52.485000 1.073800
52.547000 1.074000
52.608900 1.035300
52.670800 1.042900
52.732700 0.918400
52.794600 0.838200
52.856500 0.806900
52.918400 0.786800
52.980300 0.780300
53.042200 0.788100
53.104100 0.771300
53.166100 0.719600
53.228000 0.693500
53.289900 0.686300
53.351800 0.702700
53.413700 0.715100
53.475600 0.712800
53.537500 0.698100
53.599400 0.672900
53.661300 0.639600
53.723200 0.625100
53.785100 0.618200
53.847100 0.604200
53.909000 0.573000
53.970900 0.560500
54.032800 0.576300
54.094700 0.610400
54.156600 0.669200
54.218500 0.738600
54.280400 0.821700
54.342300 0.846200
54.404200 0.873700
54.466200 0.889000
54.528100 0.886100
54.590000 0.872900
54.651900 0.883900
54.713800 0.852800
54.775700 0.827000
54.837600 0.817600
54.899500 0.816000
54.961400 0.782200
55.023300 0.732900
55.085200 0.681700
55.147200 0.677100
55.209100 0.633000
55.271000 0.633600
55.332900 0.648100
55.394800 0.662400
55.456700 0.689200
55.518600 0.752800
55.580500 0.789600
55.642400 0.838700
55.704300 0.884300
55.766300 0.921200
55.828200 0.961800
55.890100 0.948600
55.952000 0.908700
56.013900 0.877200
56.075800 0.832400
56.137700 0.783600
56.199600 0.763000
56.261500 0.759000
56.323400 0.726800
56.385300 0.717300
56.447300 0.742400
56.509200 0.780400
56.571100 0.803100
56.633000 0.835500
56.694900 0.852600
56.756800 0.871000
56.818700 0.878800
56.880600 0.881100
56.942500 0.867000
57.004400 0.849800
57.066400 0.857800
57.128300 0.840200
57.190200 0.815300
57.252100 0.791700
57.314000 0.785000
57.375900 0.812500
57.437800 0.827700
57.499700 0.806000
57.561600 0.797500
57.623500 0.799200
57.685400 0.790700
57.747400 0.783700
57.809300 0.805700
57.871200 0.827700
57.933100 0.841700
57.995000 0.868300
58.056900 0.918000
58.118800 0.844600
58.180700 0.767400
58.242600 0.734400
58.304500 0.727900
58.366500 0.701400
58.428400 0.682600
58.490300 0.699800
58.552200 0.761100
58.614100 0.775700
58.676000 0.763200
58.737900 0.748600
58.799800 0.751300
58.861700 0.758700
58.923600 0.734400
58.985500 0.722000
59.047500 0.692000
59.109400 0.675000
59.171300 0.642100
59.233200 0.622600
59.295100 0.647700
59.357000 0.588100
59.418900 0.559600
59.480800 0.533500
59.542700 0.505500
59.604600 0.500300
59.666600 0.502700
59.728500 0.498700
59.790400 0.511100
59.852300 0.527900
59.914200 0.539300
59.976100 0.541100
60.038000 0.537500
60.099900 0.549000
60.161800 0.557200
60.223700 0.554900
60.285600 0.535100
60.347600 0.501300
60.409500 0.466200
60.471400 0.433200
60.533300 0.427600
60.595200 0.434000
60.657100 0.420700
60.719000 0.396100
60.780900 0.373700
60.842800 0.351000
60.904700 0.343600
60.966700 0.335200
61.028600 0.328200
61.090500 0.317700
61.152400 0.302000
61.214300 0.289700
61.276200 0.278300
61.338100 0.247000
61.400000 0.216900
61.461900 0.195100
61.523800 0.176000
61.585700 0.152000
61.647700 0.134000
61.709600 0.121600
61.771500 0.115600
61.833400 0.109300
61.895300 0.107200
61.957200 0.105900
62.019100 0.105000
62.081000 0.098300
62.142900 0.089300
62.204800 0.081400
62.266800 0.078000
62.328700 0.077200
62.390600 0.076300
62.452500 0.060800
62.514400 0.052700
62.576300 0.047500
62.638200 0.044300
62.700100 0.042000
62.762000 0.040200
62.823900 0.039600
62.885800 0.033700
62.947800 0.019400
63.009700 0.010100
63.071600 0.005300
63.133500 0.003200
63.195400 0.001900
63.257300 0.000900
63.319200 0.000200
63.381100 0.000000
63.443000 0.000000
63.504900 0.000000
63.566900 0.000000
63.628800 0.000000
63.690700 0.000000
63.752600 0.000000
63.814500 0.000000
63.876400 0.000000
63.938300 0.000000
64.000200 0.000000
64.062100 0.000000
64.124000 0.000000
64.185900 0.000000
64.247900 0.000000
64.309800 0.000000
64.371700 0.000000
64.433600 0.000000
64.495500 0.000000
64.557400 0.000000
64.619300 0.000000
64.681200 0.000000
64.743100 0.000000
64.805000 0.000000
64.867000 0.000000
64.928900 0.000000
64.990800 0.000000
65.052700 0.000000
65.114600 0.000000
65.176500 0.000000
65.238400 0.000000
65.300300 0.000000
65.362200 0.000000
65.424100 0.000000
65.486000 0.000000
65.548000 0.000000
65.609900 0.000000
65.671800 0.000000
65.733700 0.000000
65.795600 0.000000
65.857500 0.000000
65.919400 0.000000
65.981300 0.000000
66.043200 0.000000
66.105100 0.000000
66.167100 0.000000
66.229000 0.000000
66.290900 0.000000
66.352800 0.000000
66.414700 0.000000
66.476600 0.000000
66.538500 0.000000
66.600400 0.000000
66.662300 0.000000
66.724200 0.000000
66.786100 0.000000
66.848100 0.000000
66.910000 0.000000
66.971900 0.000000
67.033800 0.000000
67.095700 0.000000
67.157600 0.000000
67.219500 0.000000
67.281400 0.000000
67.343300 0.000000
67.405200 0.000000
67.467200 0.000000
67.529100 0.000000
67.591000 0.000000
67.652900 0.000000
67.714800 0.000000
67.776700 0.000000
67.838600 0.000000
67.900500 0.000000
67.962400 0.000000
68.024300 0.000000
68.086200 0.000000
68.148200 0.000000
68.210100 0.000000
68.272000 0.000000
68.333900 0.000000
68.395800 0.000000
68.457700 0.000000
68.519600 0.000000
68.581500 0.000000
68.643400 0.000000
68.705300 0.000000
68.767300 0.000000
68.829200 0.000000
68.891100 0.000000
68.953000 0.000000
69.014900 0.000000
69.076800 0.000000
69.138700 0.000000
69.200600 0.000000
69.262500 0.000000
e
