set title 'mp-1216472 - Density of States'
set xlabel 'Energy (eV)'
set ylabel 'DOS (states/eV)'
set grid
set xrange [-10:10]
set yrange [0:11.984]
set xzeroaxis lt -1
set terminal png size 800,600
set output 'mp-1216472_dos_gnuplot.png'
plot '-' using 1:2 with lines title 'DOS'
-34.627600 0.000000
-34.592100 0.000000
-34.556600 0.000000
-34.521100 0.000000
-34.485600 0.000000
-34.450100 0.000000
-34.414600 0.000000
-34.379100 0.000000
-34.343600 0.000000
-34.308100 0.000000
-34.272600 0.000000
-34.237200 0.000000
-34.201700 0.000000
-34.166200 0.000000
-34.130700 0.000000
-34.095200 0.000000
-34.059700 0.000000
-34.024200 0.000000
-33.988700 0.000000
-33.953200 0.000000
-33.917700 0.000000
-33.882200 0.000000
-33.846700 0.000000
-33.811200 0.000000
-33.775700 0.000000
-33.740200 0.000000
-33.704700 0.000000
-33.669200 0.000000
-33.633700 0.000000
-33.598200 0.000000
-33.562700 0.000000
-33.527200 0.000000
-33.491700 0.000000
-33.456200 0.000000
-33.420700 0.000000
-33.385200 0.000000
-33.349700 0.000000
-33.314200 0.000000
-33.278700 0.000000
-33.243200 0.000000
-33.207700 0.000000
-33.172200 0.000000
-33.136700 0.000000
-33.101200 0.000000
-33.065700 0.000000
-33.030200 0.000000
-32.994700 0.000000
-32.959200 0.000000
-32.923700 0.000000
-32.888300 0.000000
-32.852800 0.000000
-32.817300 0.000000
-32.781800 0.000000
-32.746300 0.000000
-32.710800 0.000000
-32.675300 0.000000
-32.639800 0.000000
-32.604300 0.000000
-32.568800 0.000000
-32.533300 0.000000
-32.497800 0.000000
-32.462300 0.000000
-32.426800 0.000000
-32.391300 0.000000
-32.355800 0.000000
-32.320300 0.000000
-32.284800 0.000000
-32.249300 0.000000
-32.213800 0.000000
-32.178300 0.000000
-32.142800 0.000000
-32.107300 0.000000
-32.071800 0.000000
-32.036300 0.000000
-32.000800 0.000000
-31.965300 0.000000
-31.929800 0.000000
-31.894300 0.000000
-31.858800 0.000000
-31.823300 0.000000
-31.787800 0.000000
-31.752300 0.000000
-31.716800 0.000000
-31.681300 0.000000
-31.645800 0.000000
-31.610300 0.000000
-31.574800 0.000000
-31.539400 0.000000
-31.503900 0.000000
-31.468400 0.000000
-31.432900 0.000000
-31.397400 0.599100
-31.361900 3.513700
-31.326400 11.224900
-31.290900 30.777700
-31.255400 5.088300
-31.219900 40.945600
-31.184400 20.479300
-31.148900 13.538400
-31.113400 10.630600
-31.077900 12.816600
-31.042400 15.099800
-31.006900 15.040400
-30.971400 8.209000
-30.935900 0.000000
-30.900400 0.000000
-30.864900 0.000000
-30.829400 0.000000
-30.793900 0.000000
-30.758400 0.000000
-30.722900 0.000000
-30.687400 0.000000
-30.651900 5.942100
-30.616400 15.438400
-30.580900 8.368100
-30.545400 5.935000
-30.509900 6.541100
-30.474400 9.740300
-30.438900 13.088700
-30.403400 14.399000
-30.367900 19.542000
-30.332400 22.978200
-30.296900 1.994600
-30.261400 28.290700
-30.225900 0.000000
-30.190500 0.000000
-30.155000 0.000000
-30.119500 0.000000
-30.084000 0.000000
-30.048500 0.000000
-30.013000 0.000000
-29.977500 0.000000
-29.942000 0.000000
-29.906500 0.000000
-29.871000 0.000000
-29.835500 0.000000
-29.800000 0.000000
-29.764500 0.000000
-29.729000 0.000000
-29.693500 0.000000
-29.658000 0.000000
-29.622500 0.000000
-29.587000 0.000000
-29.551500 0.000000
-29.516000 0.000000
-29.480500 0.000000
-29.445000 0.000000
-29.409500 0.000000
-29.374000 0.000000
-29.338500 0.000000
-29.303000 0.000000
-29.267500 0.000000
-29.232000 0.000000
-29.196500 0.000000
-29.161000 0.000000
-29.125500 0.000000
-29.090000 0.000000
-29.054500 0.000000
-29.019000 0.000000
-28.983500 0.000000
-28.948000 0.000000
-28.912500 0.000000
-28.877000 0.000000
-28.841600 0.000000
-28.806100 0.000000
-28.770600 0.000000
-28.735100 0.000000
-28.699600 0.000000
-28.664100 0.000000
-28.628600 0.000000
-28.593100 0.000000
-28.557600 0.000000
-28.522100 0.000000
-28.486600 0.000000
-28.451100 0.000000
-28.415600 0.000000
-28.380100 0.000000
-28.344600 0.000000
-28.309100 0.000000
-28.273600 0.000000
-28.238100 0.000000
-28.202600 0.000000
-28.167100 0.000000
-28.131600 0.000000
-28.096100 0.000000
-28.060600 0.000000
-28.025100 0.000000
-27.989600 0.000000
-27.954100 0.000000
-27.918600 0.000000
-27.883100 0.000000
-27.847600 0.000000
-27.812100 0.000000
-27.776600 0.000000
-27.741100 0.000000
-27.705600 0.000000
-27.670100 0.000000
-27.634600 0.000000
-27.599100 0.000000
-27.563600 0.000000
-27.528100 0.000000
-27.492700 0.000000
-27.457200 0.000000
-27.421700 0.000000
-27.386200 0.000000
-27.350700 0.000000
-27.315200 0.000000
-27.279700 0.000000
-27.244200 0.000000
-27.208700 0.000000
-27.173200 0.000000
-27.137700 0.000000
-27.102200 0.000000
-27.066700 0.000000
-27.031200 0.000000
-26.995700 0.000000
-26.960200 0.000000
-26.924700 0.000000
-26.889200 0.000000
-26.853700 0.000000
-26.818200 0.000000
-26.782700 0.000000
-26.747200 0.000000
-26.711700 0.000000
-26.676200 0.000000
-26.640700 0.000000
-26.605200 0.000000
-26.569700 0.000000
-26.534200 0.000000
-26.498700 0.000000
-26.463200 0.000000
-26.427700 0.000000
-26.392200 0.000000
-26.356700 0.000000
-26.321200 0.000000
-26.285700 0.000000
-26.250200 0.000000
-26.214700 0.000000
-26.179200 0.000000
-26.143800 0.000000
-26.108300 0.000000
-26.072800 0.000000
-26.037300 0.000000
-26.001800 0.000000
-25.966300 0.000000
-25.930800 0.000000
-25.895300 0.000000
-25.859800 0.000000
-25.824300 0.000000
-25.788800 0.000000
-25.753300 0.000000
-25.717800 0.000000
-25.682300 0.000000
-25.646800 0.000000
-25.611300 0.000000
-25.575800 0.000000
-25.540300 0.000000
-25.504800 0.000000
-25.469300 0.000000
-25.433800 0.000000
-25.398300 0.000000
-25.362800 0.000000
-25.327300 0.000000
-25.291800 0.000000
-25.256300 0.000000
-25.220800 0.000000
-25.185300 0.000000
-25.149800 0.000000
-25.114300 0.000000
-25.078800 0.000000
-25.043300 0.000000
-25.007800 0.000000
-24.972300 0.000000
-24.936800 0.000000
-24.901300 0.000000
-24.865800 0.000000
-24.830300 0.000000
-24.794900 0.000000
-24.759400 0.000000
-24.723900 0.000000
-24.688400 0.000000
-24.652900 0.000000
-24.617400 0.000000
-24.581900 0.000000
-24.546400 0.000000
-24.510900 0.000000
-24.475400 0.000000
-24.439900 0.000000
-24.404400 0.000000
-24.368900 0.000000
-24.333400 0.000000
-24.297900 0.000000
-24.262400 0.000000
-24.226900 0.000000
-24.191400 0.000000
-24.155900 0.000000
-24.120400 0.000000
-24.084900 0.000000
-24.049400 0.000000
-24.013900 0.000000
-23.978400 0.000000
-23.942900 0.000000
-23.907400 0.000000
-23.871900 0.000000
-23.836400 0.000000
-23.800900 0.000000
-23.765400 0.000000
-23.729900 0.000000
-23.694400 0.000000
-23.658900 0.000000
-23.623400 0.000000
-23.587900 0.000000
-23.552400 0.000000
-23.516900 0.000000
-23.481400 0.000000
-23.445900 0.000000
-23.410500 0.000000
-23.375000 0.000000
-23.339500 0.000000
-23.304000 0.000000
-23.268500 0.000000
-23.233000 0.000000
-23.197500 0.000000
-23.162000 0.000000
-23.126500 0.000000
-23.091000 0.000000
-23.055500 0.000000
-23.020000 0.000000
-22.984500 0.000000
-22.949000 0.000000
-22.913500 0.000000
-22.878000 0.000000
-22.842500 0.000000
-22.807000 0.000000
-22.771500 0.000000
-22.736000 0.000000
-22.700500 0.000000
-22.665000 0.000000
-22.629500 0.000000
-22.594000 0.000000
-22.558500 0.000000
-22.523000 0.000000
-22.487500 0.000000
-22.452000 0.000000
-22.416500 0.000000
-22.381000 0.000000
-22.345500 0.000000
-22.310000 0.000000
-22.274500 0.000000
-22.239000 0.000000
-22.203500 0.000000
-22.168000 0.000000
-22.132500 0.000000
-22.097000 0.000000
-22.061600 0.000000
-22.026100 0.000000
-21.990600 0.000000
-21.955100 0.000000
-21.919600 0.000000
-21.884100 0.000000
-21.848600 0.000000
-21.813100 0.000000
-21.777600 0.000000
-21.742100 0.000000
-21.706600 0.000000
-21.671100 0.000000
-21.635600 0.000000
-21.600100 0.000000
-21.564600 0.000000
-21.529100 0.000000
-21.493600 0.000000
-21.458100 0.000000
-21.422600 0.000000
-21.387100 0.000000
-21.351600 0.000000
-21.316100 0.000000
-21.280600 0.000000
-21.245100 0.000000
-21.209600 0.000000
-21.174100 0.000000
-21.138600 0.000000
-21.103100 0.000000
-21.067600 0.000000
-21.032100 0.000000
-20.996600 0.000000
-20.961100 0.000000
-20.925600 0.000000
-20.890100 0.000000
-20.854600 0.000000
-20.819100 0.000000
-20.783600 0.000000
-20.748100 0.000000
-20.712700 0.000000
-20.677200 0.000000
-20.641700 0.000000
-20.606200 0.000000
-20.570700 0.000000
-20.535200 0.000000
-20.499700 0.000000
-20.464200 0.000000
-20.428700 0.000000
-20.393200 0.000000
-20.357700 0.000000
-20.322200 0.000000
-20.286700 0.000000
-20.251200 0.000000
-20.215700 0.000000
-20.180200 0.000000
-20.144700 0.000000
-20.109200 0.000000
-20.073700 0.000000
-20.038200 0.000000
-20.002700 0.000000
-19.967200 0.000000
-19.931700 0.000000
-19.896200 0.000000
-19.860700 0.000000
-19.825200 0.000000
-19.789700 0.000000
-19.754200 0.000000
-19.718700 0.000000
-19.683200 0.000000
-19.647700 0.000000
-19.612200 0.000000
-19.576700 0.000000
-19.541200 0.000000
-19.505700 0.000000
-19.470200 0.000000
-19.434700 0.000000
-19.399200 0.000000
-19.363800 0.000000
-19.328300 0.000000
-19.292800 0.000000
-19.257300 0.000000
-19.221800 0.000000
-19.186300 0.000000
-19.150800 0.000000
-19.115300 0.000000
-19.079800 0.000000
-19.044300 0.000000
-19.008800 0.000000
-18.973300 0.000000
-18.937800 0.000000
-18.902300 0.000000
-18.866800 0.000000
-18.831300 0.000000
-18.795800 0.000000
-18.760300 0.000000
-18.724800 0.000000
-18.689300 0.000000
-18.653800 0.000000
-18.618300 0.000000
-18.582800 0.000000
-18.547300 0.000000
-18.511800 0.000000
-18.476300 0.000000
-18.440800 0.000000
-18.405300 0.000000
-18.369800 0.000000
-18.334300 0.000000
-18.298800 0.000000
-18.263300 0.000000
-18.227800 0.000000
-18.192300 0.000000
-18.156800 0.000000
-18.121300 0.000000
-18.085800 0.000000
-18.050300 0.000000
-18.014900 0.000000
-17.979400 0.000000
-17.943900 0.000000
-17.908400 0.000000
-17.872900 0.000000
-17.837400 0.000000
-17.801900 0.000000
-17.766400 0.000000
-17.730900 0.000000
-17.695400 0.000000
-17.659900 0.000000
-17.624400 0.000000
-17.588900 0.000000
-17.553400 0.000000
-17.517900 0.000000
-17.482400 0.000000
-17.446900 0.000000
-17.411400 0.000000
-17.375900 0.000000
-17.340400 0.000000
-17.304900 0.000000
-17.269400 0.000000
-17.233900 0.000000
-17.198400 0.000000
-17.162900 0.000000
-17.127400 0.000000
-17.091900 0.000000
-17.056400 0.000000
-17.020900 0.000000
-16.985400 0.000000
-16.949900 0.000000
-16.914400 0.000000
-16.878900 0.000000
-16.843400 0.000000
-16.807900 0.000000
-16.772400 0.000000
-16.736900 0.000000
-16.701400 0.000000
-16.666000 0.000000
-16.630500 0.000000
-16.595000 0.000000
-16.559500 0.000000
-16.524000 0.000000
-16.488500 0.000000
-16.453000 0.000000
-16.417500 0.000000
-16.382000 0.000000
-16.346500 0.000000
-16.311000 0.000000
-16.275500 0.000000
-16.240000 0.000000
-16.204500 0.000000
-16.169000 0.000000
-16.133500 0.000000
-16.098000 0.000000
-16.062500 0.000000
-16.027000 0.000000
-15.991500 0.000000
-15.956000 0.000000
-15.920500 0.000000
-15.885000 0.000000
-15.849500 0.000000
-15.814000 0.000000
-15.778500 0.000000
-15.743000 0.000000
-15.707500 0.000000
-15.672000 0.000000
-15.636500 0.000000
-15.601000 0.000000
-15.565500 0.000000
-15.530000 0.000000
-15.494500 0.000000
-15.459000 0.000000
-15.423500 0.000000
-15.388000 0.000000
-15.352500 0.000000
-15.317100 0.000000
-15.281600 0.000000
-15.246100 0.000000
-15.210600 0.000000
-15.175100 0.000000
-15.139600 0.000000
-15.104100 0.000000
-15.068600 0.000000
-15.033100 0.000000
-14.997600 0.000000
-14.962100 0.000000
-14.926600 0.000000
-14.891100 0.000000
-14.855600 0.000000
-14.820100 0.000000
-14.784600 0.000000
-14.749100 0.000000
-14.713600 0.000000
-14.678100 0.000000
-14.642600 0.000000
-14.607100 0.000000
-14.571600 0.000000
-14.536100 0.000000
-14.500600 0.000000
-14.465100 0.000000
-14.429600 0.000000
-14.394100 0.000000
-14.358600 0.000000
-14.323100 0.000000
-14.287600 0.000000
-14.252100 0.000000
-14.216600 0.000000
-14.181100 0.000000
-14.145600 0.000000
-14.110100 0.000000
-14.074600 0.000000
-14.039100 0.000000
-14.003600 0.000000
-13.968100 0.000000
-13.932700 0.000000
-13.897200 0.000000
-13.861700 0.000000
-13.826200 0.000000
-13.790700 0.000000
-13.755200 0.000000
-13.719700 0.000000
-13.684200 0.000000
-13.648700 0.000000
-13.613200 0.000000
-13.577700 0.000000
-13.542200 0.000000
-13.506700 0.000000
-13.471200 0.000000
-13.435700 0.000000
-13.400200 0.000000
-13.364700 0.000000
-13.329200 0.000000
-13.293700 0.000000
-13.258200 0.000000
-13.222700 0.000000
-13.187200 0.000000
-13.151700 0.000000
-13.116200 0.000000
-13.080700 0.000000
-13.045200 0.000000
-13.009700 0.000000
-12.974200 0.000000
-12.938700 0.000000
-12.903200 0.000000
-12.867700 0.000000
-12.832200 0.000000
-12.796700 0.000000
-12.761200 0.000000
-12.725700 0.000000
-12.690200 0.000000
-12.654700 0.000000
-12.619200 0.000000
-12.583800 0.000000
-12.548300 0.000000
-12.512800 0.000000
-12.477300 0.000000
-12.441800 0.000000
-12.406300 0.000000
-12.370800 0.000000
-12.335300 0.000000
-12.299800 0.000000
-12.264300 0.000000
-12.228800 0.000000
-12.193300 0.000000
-12.157800 0.000000
-12.122300 0.000000
-12.086800 0.000000
-12.051300 0.000000
-12.015800 0.000000
-11.980300 0.000000
-11.944800 0.000000
-11.909300 0.000000
-11.873800 0.000000
-11.838300 0.000000
-11.802800 0.000000
-11.767300 0.000000
-11.731800 0.000000
-11.696300 0.000000
-11.660800 0.000000
-11.625300 0.000000
-11.589800 0.000000
-11.554300 0.000000
-11.518800 0.000000
-11.483300 0.000000
-11.447800 0.000000
-11.412300 0.000000
-11.376800 0.000000
-11.341300 0.000000
-11.305800 0.000000
-11.270300 0.000000
-11.234900 0.000000
-11.199400 0.000000
-11.163900 0.000000
-11.128400 0.000000
-11.092900 0.000000
-11.057400 0.000000
-11.021900 0.000000
-10.986400 0.000000
-10.950900 0.000000
-10.915400 0.000000
-10.879900 0.000000
-10.844400 0.000000
-10.808900 0.000000
-10.773400 0.000000
-10.737900 0.000000
-10.702400 0.000000
-10.666900 0.000000
-10.631400 0.000000
-10.595900 0.000000
-10.560400 0.000000
-10.524900 0.000000
-10.489400 0.000000
-10.453900 0.000000
-10.418400 0.000000
-10.382900 0.000000
-10.347400 0.000000
-10.311900 0.000000
-10.276400 0.000000
-10.240900 0.000000
-10.205400 0.000000
-10.169900 0.000000
-10.134400 0.000000
-10.098900 0.000000
-10.063400 0.000000
-10.027900 0.000000
-9.992400 0.000000
-9.956900 0.000000
-9.921400 0.000000
-9.886000 0.000000
-9.850500 0.000000
-9.815000 0.000000
-9.779500 0.000000
-9.744000 0.000000
-9.708500 0.000000
-9.673000 0.000000
-9.637500 0.000000
-9.602000 0.000000
-9.566500 0.038400
-9.531000 0.158100
-9.495500 0.290200
-9.460000 0.269700
-9.424500 0.224400
-9.389000 0.237800
-9.353500 0.251100
-9.318000 0.264500
-9.282500 0.277700
-9.247000 0.279800
-9.211500 0.273600
-9.176000 0.268800
-9.140500 0.273800
-9.105000 0.281400
-9.069500 0.288900
-9.034000 0.296400
-8.998500 0.308200
-8.963000 0.437000
-8.927500 0.615100
-8.892000 0.752500
-8.856500 0.736700
-8.821000 0.785500
-8.785500 0.824700
-8.750000 0.842500
-8.714500 0.857800
-8.679000 0.890100
-8.643500 0.925200
-8.608000 0.960200
-8.572500 1.001700
-8.537100 1.073600
-8.501600 1.158500
-8.466100 1.230600
-8.430600 1.303000
-8.395100 1.376100
-8.359600 1.524100
-8.324100 1.660900
-8.288600 1.791000
-8.253100 1.912600
-8.217600 2.630800
-8.182100 3.747800
-8.146600 4.580100
-8.111100 3.647200
-8.075600 4.132400
-8.040100 4.424600
-8.004600 3.066800
-7.969100 3.209500
-7.933600 0.000000
-7.898100 0.000000
-7.862600 0.000000
-7.827100 0.000000
-7.791600 0.000000
-7.756100 0.091000
-7.720600 3.715100
-7.685100 2.865500
-7.649600 2.092800
-7.614100 1.570800
-7.578600 1.435100
-7.543100 1.312100
-7.507600 1.280400
-7.472100 1.272400
-7.436600 1.331400
-7.401100 1.455900
-7.365600 1.833300
-7.330100 2.357100
-7.294600 4.476400
-7.259100 0.327000
-7.223600 0.000000
-7.188200 0.000000
-7.152700 0.000000
-7.117200 0.000000
-7.081700 0.000000
-7.046200 0.000000
-7.010700 0.000000
-6.975200 0.000000
-6.939700 0.000000
-6.904200 0.000000
-6.868700 0.000000
-6.833200 0.000000
-6.797700 0.000000
-6.762200 0.000000
-6.726700 0.000000
-6.691200 0.000000
-6.655700 0.000000
-6.620200 0.000000
-6.584700 0.000000
-6.549200 0.000000
-6.513700 0.000000
-6.478200 0.000000
-6.442700 0.000000
-6.407200 0.000000
-6.371700 0.000000
-6.336200 0.000000
-6.300700 0.000000
-6.265200 0.000000
-6.229700 0.000000
-6.194200 0.000000
-6.158700 0.000000
-6.123200 0.000000
-6.087700 0.000000
-6.052200 0.000000
-6.016700 0.000000
-5.981200 0.000000
-5.945700 0.000000
-5.910200 0.000000
-5.874700 0.000000
-5.839300 0.000000
-5.803800 0.000000
-5.768300 0.000000
-5.732800 0.000000
-5.697300 0.000000
-5.661800 0.000000
-5.626300 0.000000
-5.590800 0.000000
-5.555300 0.000000
-5.519800 0.000000
-5.484300 0.000000
-5.448800 0.000000
-5.413300 0.000000
-5.377800 0.000000
-5.342300 0.000000
-5.306800 0.000000
-5.271300 0.000000
-5.235800 0.000000
-5.200300 0.000000
-5.164800 0.000000
-5.129300 0.000000
-5.093800 0.000000
-5.058300 0.000000
-5.022800 0.000000
-4.987300 0.000000
-4.951800 0.000000
-4.916300 0.000000
-4.880800 0.000000
-4.845300 0.000000
-4.809800 0.000000
-4.774300 0.000000
-4.738800 0.000000
-4.703300 0.000000
-4.667800 0.000000
-4.632300 0.000000
-4.596800 0.000000
-4.561300 0.000000
-4.525800 0.000000
-4.490400 0.000000
-4.454900 0.000000
-4.419400 0.000000
-4.383900 0.000000
-4.348400 0.000000
-4.312900 0.000000
-4.277400 0.000000
-4.241900 0.000000
-4.206400 0.000000
-4.170900 0.000000
-4.135400 0.000000
-4.099900 0.000000
-4.064400 0.000000
-4.028900 0.000000
-3.993400 0.000000
-3.957900 0.000000
-3.922400 0.000000
-3.886900 0.000000
-3.851400 0.000000
-3.815900 0.000000
-3.780400 0.000000
-3.744900 0.000000
-3.709400 0.000000
-3.673900 0.000000
-3.638400 0.000000
-3.602900 0.000000
-3.567400 0.000000
-3.531900 0.000000
-3.496400 0.000000
-3.460900 0.000000
-3.425400 0.000000
-3.389900 0.000000
-3.354400 0.000000
-3.318900 0.000000
-3.283400 0.000000
-3.247900 0.000000
-3.212400 0.000000
-3.176900 0.000000
-3.141400 0.000000
-3.106000 0.000000
-3.070500 0.000000
-3.035000 0.000000
-2.999500 0.000000
-2.964000 0.000000
-2.928500 0.000000
-2.893000 0.000000
-2.857500 0.000000
-2.822000 0.000000
-2.786500 0.000000
-2.751000 0.000000
-2.715500 0.000000
-2.680000 0.000000
-2.644500 0.000000
-2.609000 0.000000
-2.573500 0.000000
-2.538000 0.000000
-2.502500 0.000000
-2.467000 0.000000
-2.431500 0.000000
-2.396000 0.000000
-2.360500 0.000000
-2.325000 0.000000
-2.289500 0.000000
-2.254000 0.000000
-2.218500 0.000000
-2.183000 0.000000
-2.147500 0.000000
-2.112000 0.000000
-2.076500 0.000000
-2.041000 0.000000
-2.005500 0.000000
-1.970000 0.000000
-1.934500 0.000000
-1.899000 0.000000
-1.863500 0.000000
-1.828000 0.000000
-1.792500 0.000000
-1.757100 0.000000
-1.721600 0.000000
-1.686100 0.000000
-1.650600 0.000000
-1.615100 0.000000
-1.579600 0.000000
-1.544100 0.000000
-1.508600 0.000000
-1.473100 0.000000
-1.437600 0.000000
-1.402100 0.000000
-1.366600 0.000000
-1.331100 0.000000
-1.295600 0.000000
-1.260100 0.000000
-1.224600 0.000000
-1.189100 0.000000
-1.153600 0.000000
-1.118100 0.000000
-1.082600 0.000000
-1.047100 0.000000
-1.011600 0.000000
-0.976100 0.000000
-0.940600 0.000000
-0.905100 0.000000
-0.869600 0.000000
-0.834100 0.000000
-0.798600 0.000000
-0.763100 0.000000
-0.727600 0.000000
-0.692100 0.000000
-0.656600 0.000000
-0.621100 0.000000
-0.585600 0.000000
-0.550100 0.000000
-0.514600 0.000000
-0.479100 0.000000
-0.443600 0.002100
-0.408200 0.046800
-0.372700 0.165000
-0.337200 0.351200
-0.301700 0.554400
-0.266200 0.694800
-0.230700 0.732900
-0.195200 0.678700
-0.159700 0.649900
-0.124200 0.662600
-0.088700 0.689600
-0.053200 0.716500
-0.017700 0.743500
0.017800 0.769700
0.053300 0.795100
0.088800 0.819000
0.124300 0.847800
0.159800 0.887700
0.195300 0.941800
0.230800 1.000600
0.266300 1.060800
0.301800 1.124800
0.337300 1.194000
0.372800 1.399100
0.408300 2.250200
0.443800 2.678800
0.479300 3.000800
0.514800 3.252400
0.550300 2.555400
0.585800 2.282900
0.621300 1.942500
0.656800 2.460600
0.692300 2.289300
0.727800 1.907600
0.763300 2.699000
0.798800 0.514300
0.834300 0.715000
0.869800 0.844600
0.905300 0.967900
0.940700 1.091800
0.976200 1.275500
1.011700 1.843600
1.047200 1.955600
1.082700 1.612300
1.118200 0.989200
1.153700 0.548100
1.189200 0.339500
1.224700 2.694500
1.260200 2.899700
1.295700 3.566400
1.331200 5.206500
1.366700 7.573400
1.402200 2.475900
1.437700 0.985000
1.473200 1.337600
1.508700 1.940600
1.544200 1.931400
1.579700 1.811000
1.615200 1.704100
1.650700 1.628800
1.686200 1.778700
1.721700 1.840800
1.757200 1.964400
1.792700 4.238300
1.828200 3.042100
1.863700 2.831500
1.899200 2.991400
1.934700 3.064600
1.970200 3.365300
2.005700 4.293100
2.041200 6.778900
2.076700 9.483900
2.112200 4.519000
2.147700 5.574100
2.183200 8.819000
2.218700 1.553600
2.254200 2.518600
2.289600 4.473000
2.325100 6.229700
2.360600 6.036900
2.396100 4.794500
2.431600 5.058100
2.467100 1.702400
2.502600 1.653500
2.538100 1.598100
2.573600 1.639400
2.609100 1.767500
2.644600 1.882900
2.680100 2.057100
2.715600 2.038600
2.751100 2.106000
2.786600 2.121800
2.822100 2.006100
2.857600 1.783000
2.893100 1.679000
2.928600 3.832700
2.964100 2.221500
2.999600 1.626700
3.035100 1.527300
3.070600 1.443000
3.106100 1.352400
3.141600 1.246100
3.177100 1.177800
3.212600 1.161500
3.248100 1.150900
3.283600 1.142500
3.319100 1.136500
3.354600 1.134600
3.390100 1.162600
3.425600 1.192000
3.461100 1.247900
3.496600 1.316700
3.532100 1.348200
3.567600 1.385000
3.603100 1.441000
3.638500 1.504500
3.674000 1.381100
3.709500 1.271100
3.745000 1.238600
3.780500 1.235300
3.816000 1.249700
3.851500 0.890400
3.887000 0.601500
3.922500 0.559300
3.958000 0.521300
3.993500 0.483300
4.029000 0.437100
4.064500 0.391500
4.100000 0.377600
4.135500 0.385800
4.171000 0.354400
4.206500 0.323000
4.242000 0.291600
4.277500 0.260300
4.313000 0.228900
4.348500 0.248700
4.384000 0.306700
4.419500 0.190600
4.455000 0.075900
4.490500 0.018300
4.526000 0.025800
4.561500 0.057400
4.597000 0.099400
4.632500 0.146200
4.668000 0.188400
4.703500 0.222800
4.739000 0.249100
4.774500 0.272800
4.810000 0.296400
4.845500 0.320000
4.881000 0.343700
4.916500 0.367100
4.952000 0.388100
4.987400 0.402800
5.022900 0.417200
5.058400 0.429600
5.093900 0.437000
5.129400 0.446900
5.164900 0.459100
5.200400 0.472000
5.235900 0.485900
5.271400 0.501100
5.306900 0.516400
5.342400 0.531700
5.377900 0.559800
5.413400 0.607100
5.448900 0.666500
5.484400 0.729500
5.519900 0.806200
5.555400 0.885000
5.590900 0.986400
5.626400 1.815200
5.661900 1.844400
5.697400 1.900300
5.732900 2.012200
5.768400 2.008800
5.803900 1.849200
5.839400 2.151500
5.874900 3.254900
5.910400 1.561300
5.945900 1.878500
5.981400 2.125000
6.016900 2.616300
6.052400 2.841100
6.087900 3.029900
6.123400 1.874200
6.158900 1.344100
6.194400 0.906600
6.229900 0.961000
6.265400 1.280300
6.300900 1.644800
6.336400 1.739800
6.371800 1.970900
6.407300 2.249000
6.442800 2.418100
6.478300 2.903100
6.513800 2.940800
6.549300 2.771700
6.584800 2.950000
6.620300 2.785200
6.655800 2.111500
6.691300 1.897900
6.726800 1.925700
6.762300 1.948600
6.797800 1.929800
6.833300 1.771100
6.868800 1.549600
6.904300 1.600600
6.939800 1.648600
6.975300 1.855900
7.010800 2.182300
7.046300 2.505700
7.081800 2.811800
7.117300 2.381100
7.152800 3.101800
7.188300 2.651100
7.223800 2.403700
7.259300 2.079500
7.294800 1.858500
7.330300 1.729100
7.365800 1.809300
7.401300 1.747400
7.436800 1.342400
7.472300 1.002000
7.507800 0.965700
7.543300 1.127600
7.578800 1.248100
7.614300 1.349300
7.649800 1.428000
7.685300 1.519100
7.720700 1.553600
7.756200 1.603200
7.791700 1.698300
7.827200 2.030400
7.862700 1.818800
7.898200 2.035700
7.933700 2.785900
7.969200 2.894800
8.004700 2.674700
8.040200 2.612600
8.075700 2.514100
8.111200 2.541600
8.146700 2.656000
8.182200 2.805100
8.217700 3.132700
8.253200 3.841300
8.288700 3.995400
8.324200 4.058600
8.359700 4.082700
8.395200 4.245400
8.430700 4.243700
8.466200 4.392100
8.501700 4.563400
8.537200 4.550000
8.572700 3.932700
8.608200 4.253100
8.643700 4.033500
8.679200 4.921700
8.714700 5.640300
8.750200 5.908100
8.785700 5.239400
8.821200 6.136400
8.856700 5.986000
8.892200 5.466000
8.927700 5.796900
8.963200 7.306800
8.998700 3.908400
9.034200 4.601300
9.069600 4.162700
9.105100 5.443100
9.140600 5.704500
9.176100 4.829800
9.211600 3.967000
9.247100 3.977600
9.282600 5.811100
9.318100 7.358800
9.353600 10.894700
9.389100 3.152800
9.424600 3.166600
9.460100 3.045500
9.495600 3.167600
9.531100 3.367100
9.566600 4.465100
9.602100 5.571300
9.637600 5.818300
9.673100 5.137600
9.708600 3.056800
9.744100 4.751000
9.779600 5.647400
9.815100 4.161700
9.850600 2.879500
9.886100 2.605300
9.921600 1.887600
9.957100 1.931800
9.992600 2.058100
10.028100 2.206900
10.063600 2.483500
10.099100 2.636300
10.134600 2.719800
10.170100 2.835700
10.205600 2.841400
10.241100 2.889900
10.276600 2.951900
10.312100 2.933600
10.347600 2.895900
10.383100 2.979100
10.418500 2.556500
10.454000 2.555200
10.489500 2.643300
10.525000 2.542600
10.560500 2.726500
10.596000 2.815100
10.631500 2.694300
10.667000 2.968600
10.702500 2.778700
10.738000 1.485300
10.773500 1.029200
10.809000 0.854800
10.844500 0.915100
10.880000 2.275300
10.915500 2.981800
10.951000 2.757200
10.986500 3.001300
11.022000 3.408700
11.057500 2.763700
11.093000 2.094300
11.128500 2.261200
11.164000 2.647000
11.199500 2.608100
11.235000 2.663000
11.270500 2.270600
11.306000 2.394100
11.341500 2.217600
11.377000 1.960300
11.412500 1.737600
11.448000 2.334400
11.483500 2.652000
11.519000 2.200400
11.554500 1.656400
11.590000 1.823300
11.625500 3.374900
11.661000 2.845800
11.696500 2.531900
11.732000 2.845000
11.767400 3.065200
11.802900 2.493200
11.838400 2.913400
11.873900 4.284200
11.909400 2.572300
11.944900 2.438200
11.980400 2.630000
12.015900 2.359600
12.051400 1.978400
12.086900 2.034700
12.122400 2.269000
12.157900 2.056000
12.193400 2.253400
12.228900 2.458800
12.264400 2.055500
12.299900 1.665500
12.335400 1.371200
12.370900 1.206300
12.406400 1.064000
12.441900 0.966300
12.477400 1.174200
12.512900 1.611400
12.548400 1.664800
12.583900 1.554700
12.619400 1.406000
12.654900 1.489200
12.690400 1.286500
12.725900 0.939400
12.761400 0.666900
12.796900 0.414700
12.832400 0.314500
12.867900 0.300200
12.903400 0.289900
12.938900 0.282600
12.974400 0.277600
13.009900 0.274600
13.045400 0.273600
13.080900 0.275500
13.116300 0.278600
13.151800 0.281800
13.187300 0.285000
13.222800 0.288200
13.258300 0.292300
13.293800 0.297700
13.329300 0.304000
13.364800 0.311200
13.400300 0.319900
13.435800 0.330200
13.471300 0.341000
13.506800 0.352000
13.542300 0.363500
13.577800 0.376200
13.613300 0.383000
13.648800 0.392100
13.684300 0.402000
13.719800 0.412600
13.755300 0.424000
13.790800 0.436900
13.826300 0.451900
13.861800 0.467200
13.897300 0.482800
13.932800 0.498800
13.968300 0.514900
14.003800 0.533700
14.039300 0.733200
14.074800 0.639900
14.110300 0.594400
14.145800 0.408100
14.181300 0.390200
14.216800 0.381600
14.252300 0.370800
14.287800 0.360100
14.323300 0.352000
14.358800 0.343800
14.394300 0.335700
14.429800 0.328500
14.465200 0.322800
14.500700 0.318100
14.536200 0.314400
14.571700 0.312000
14.607200 0.312800
14.642700 0.328600
14.678200 0.356300
14.713700 0.385300
14.749200 0.415700
14.784700 0.447400
14.820200 0.388300
14.855700 0.323300
14.891200 0.342800
14.926700 0.383000
14.962200 0.409800
14.997700 0.432400
15.033200 0.452600
15.068700 0.471500
15.104200 0.489100
15.139700 0.509800
15.175200 0.534300
15.210700 0.559300
15.246200 0.590000
15.281700 0.621700
15.317200 0.644600
15.352700 0.674700
15.388200 0.699900
15.423700 0.725300
15.459200 0.681400
15.494700 0.703400
15.530200 0.730900
15.565700 0.768800
15.601200 0.811600
15.636700 0.814200
15.672200 0.775800
15.707700 0.787500
15.743200 0.794300
15.778700 0.801000
15.814200 0.819300
15.849600 0.834700
15.885100 1.368100
15.920600 1.304700
15.956100 1.142400
15.991600 0.981100
16.027100 0.873200
16.062600 0.851100
16.098100 0.848100
16.133600 0.843900
16.169100 0.838500
16.204600 0.833200
16.240100 0.843800
16.275600 0.840200
16.311100 0.818900
16.346600 0.794100
16.382100 0.786000
16.417600 0.793000
16.453100 0.803900
16.488600 0.813400
16.524100 0.821200
16.559600 0.829200
16.595100 0.838300
16.630600 0.848500
16.666100 0.858100
16.701600 0.864300
16.737100 0.847400
16.772600 0.829300
16.808100 0.824600
16.843600 0.831800
16.879100 0.844600
16.914600 0.885500
16.950100 1.133500
16.985600 0.981100
17.021100 0.911300
17.056600 0.864100
17.092100 0.828000
17.127600 0.798800
17.163100 0.775900
17.198500 0.751300
17.234000 0.718600
17.269500 0.688600
17.305000 0.653500
17.340500 0.619300
17.376000 0.574700
17.411500 0.540100
17.447000 0.511000
17.482500 0.481600
17.518000 0.456800
17.553500 0.439700
17.589000 0.420900
17.624500 0.402000
17.660000 0.384900
17.695500 0.394300
17.731000 0.657800
17.766500 0.666500
17.802000 0.724800
17.837500 0.795900
17.873000 0.867400
17.908500 0.993500
17.944000 1.057100
17.979500 1.128600
18.015000 1.188300
18.050500 1.284300
18.086000 1.416900
18.121500 1.534100
18.157000 1.648700
18.192500 1.861700
18.228000 1.995900
18.263500 1.791000
18.299000 1.191000
18.334500 0.973300
18.370000 0.870800
18.405500 0.661900
18.441000 0.418200
18.476500 0.395100
18.512000 0.415400
18.547400 0.543300
18.582900 0.744300
18.618400 0.883600
18.653900 0.952400
18.689400 0.993000
18.724900 0.966900
18.760400 0.873400
18.795900 0.890300
18.831400 0.905600
18.866900 0.889300
18.902400 0.902300
18.937900 0.948200
18.973400 1.039300
19.008900 1.176200
19.044400 1.236500
19.079900 1.294600
19.115400 1.343000
19.150900 1.273300
19.186400 1.250400
19.221900 1.149300
19.257400 1.053600
19.292900 0.943000
19.328400 0.895200
19.363900 0.835800
19.399400 0.794600
19.434900 0.816600
19.470400 1.055600
19.505900 1.308300
19.541400 1.419200
19.576900 1.501000
19.612400 1.540500
19.647900 1.559900
19.683400 1.600100
19.718900 1.670600
19.754400 1.693300
19.789900 1.516900
19.825400 1.504300
19.860900 1.463700
19.896300 1.414400
19.931800 1.351800
19.967300 1.281200
20.002800 1.041100
20.038300 0.898800
20.073800 0.865800
20.109300 0.824200
20.144800 0.781100
20.180300 0.757900
20.215800 0.743800
20.251300 0.794000
20.286800 0.910500
20.322300 1.045500
20.357800 1.141300
20.393300 1.178800
20.428800 1.224100
20.464300 1.299800
20.499800 1.438500
20.535300 1.543000
20.570800 1.568300
20.606300 1.707600
20.641800 1.762900
20.677300 1.967200
20.712800 2.229100
20.748300 3.128200
20.783800 2.880500
20.819300 2.699100
20.854800 2.571400
20.890300 2.447600
20.925800 2.405400
20.961300 2.218800
20.996800 1.992300
21.032300 1.892200
21.067800 1.973100
21.103300 2.286300
21.138800 2.549800
21.174300 3.200800
21.209800 2.685700
21.245200 2.390200
21.280700 2.287100
21.316200 1.815100
21.351700 1.634400
21.387200 1.609400
21.422700 1.567800
21.458200 1.537100
21.493700 1.515400
21.529200 1.493700
21.564700 1.431600
21.600200 1.352000
21.635700 1.298400
21.671200 1.257600
21.706700 1.218400
21.742200 1.186700
21.777700 1.159200
21.813200 1.129200
21.848700 1.095500
21.884200 1.057800
21.919700 1.023100
21.955200 0.995400
21.990700 0.971100
22.026200 0.950100
22.061700 0.925900
22.097200 0.904300
22.132700 0.883200
22.168200 0.888200
22.203700 0.886500
22.239200 0.902400
22.274700 0.920400
22.310200 1.090700
22.345700 1.402200
22.381200 1.507200
22.416700 1.804900
22.452200 2.114000
22.487700 2.311900
22.523200 2.262900
22.558700 1.993100
22.594100 1.630200
22.629600 1.561200
22.665100 1.523200
22.700600 1.509600
22.736100 1.529900
22.771600 1.508400
22.807100 1.468200
22.842600 1.440300
22.878100 1.428800
22.913600 1.431000
22.949100 1.462800
22.984600 1.556000
23.020100 1.568100
23.055600 1.283500
23.091100 1.121200
23.126600 0.958200
23.162100 0.815100
23.197600 0.694000
23.233100 0.590600
23.268600 0.627100
23.304100 0.779700
23.339600 1.288000
23.375100 1.707000
23.410600 1.616400
23.446100 1.691200
23.481600 1.780700
23.517100 1.994000
23.552600 2.128000
23.588100 1.737100
23.623600 1.437200
23.659100 1.385800
23.694600 1.235000
23.730100 1.159000
23.765600 1.117100
23.801100 1.114600
23.836600 1.233100
23.872100 1.412300
23.907600 1.762200
23.943000 1.891900
23.978500 1.863500
24.014000 1.797100
24.049500 1.476300
24.085000 1.345200
24.120500 1.223100
24.156000 1.127000
24.191500 1.045500
24.227000 0.974600
24.262500 0.904800
24.298000 0.950800
24.333500 0.845200
24.369000 0.752600
24.404500 0.694900
24.440000 0.655200
24.475500 0.619400
24.511000 0.585500
24.546500 0.564200
24.582000 0.558500
24.617500 0.568900
24.653000 0.591200
24.688500 0.623600
24.724000 0.663000
24.759500 0.711800
24.795000 0.784500
24.830500 0.966300
24.866000 1.337200
24.901500 1.532800
24.937000 1.419900
24.972500 1.508300
25.008000 1.465900
25.043500 1.631700
25.079000 1.801000
25.114500 1.627200
25.150000 1.553200
25.185500 1.510900
25.221000 1.479200
25.256500 1.544200
25.291900 1.223000
25.327400 1.101900
25.362900 1.044600
25.398400 0.991400
25.433900 0.929100
25.469400 0.950400
25.504900 0.981700
25.540400 1.048300
25.575900 1.056600
25.611400 0.934300
25.646900 0.902200
25.682400 0.898900
25.717900 0.980100
25.753400 0.881800
25.788900 0.926400
25.824400 0.962700
25.859900 1.062900
25.895400 1.162400
25.930900 1.261200
25.966400 1.481700
26.001900 1.632000
26.037400 1.531700
26.072900 1.455200
26.108400 1.350100
26.143900 1.262300
26.179400 1.240500
26.214900 1.247000
26.250400 1.264600
26.285900 1.182600
26.321400 1.138400
26.356900 1.130900
26.392400 1.128600
26.427900 1.136000
26.463400 1.125100
26.498900 1.133500
26.534400 1.126000
26.569900 1.135400
26.605400 1.091400
26.640900 1.076000
26.676300 1.085500
26.711800 1.062200
26.747300 1.045800
26.782800 1.037600
26.818300 1.130400
26.853800 1.044000
26.889300 1.058800
26.924800 1.138900
26.960300 1.220800
26.995800 1.271700
27.031300 1.262700
27.066800 1.299400
27.102300 1.297000
27.137800 1.467500
27.173300 1.540200
27.208800 1.535200
27.244300 1.587000
27.279800 1.580000
27.315300 1.499700
27.350800 1.440800
27.386300 1.386600
27.421800 1.386000
27.457300 1.394400
27.492800 1.515300
27.528300 1.678600
27.563800 1.432800
27.599300 1.304800
27.634800 1.788000
27.670300 1.453300
27.705800 1.514600
27.741300 1.751200
27.776800 1.859400
27.812300 1.909400
27.847800 2.041100
27.883300 2.185800
27.918800 2.341000
27.954300 1.879300
27.989800 1.616000
28.025200 1.475500
28.060700 1.501400
28.096200 1.477800
28.131700 1.393500
28.167200 1.301000
28.202700 1.286500
28.238200 1.253100
28.273700 1.160600
28.309200 1.097100
28.344700 0.834100
28.380200 0.717300
28.415700 0.653000
28.451200 0.659800
28.486700 0.692200
28.522200 0.706900
28.557700 0.764600
28.593200 0.808100
28.628700 0.842700
28.664200 0.862300
28.699700 0.926600
28.735200 0.946300
28.770700 0.903300
28.806200 0.866900
28.841700 0.838800
28.877200 0.828400
28.912700 0.859500
28.948200 0.914300
28.983700 0.990500
29.019200 1.090500
29.054700 1.138400
29.090200 1.175900
29.125700 1.221400
29.161200 1.286700
29.196700 1.360400
29.232200 1.221000
29.267700 1.174000
29.303200 1.118200
29.338700 1.043700
29.374100 0.957100
29.409600 0.992500
29.445100 1.076100
29.480600 1.128500
29.516100 1.150700
29.551600 1.245700
29.587100 1.277400
29.622600 1.277800
29.658100 1.298900
29.693600 1.319700
29.729100 1.228400
29.764600 1.080200
29.800100 0.917500
29.835600 0.800800
29.871100 0.740100
29.906600 0.761700
29.942100 0.778600
29.977600 0.794300
30.013100 0.830000
30.048600 0.883600
30.084100 0.938300
30.119600 0.987700
30.155100 1.049400
30.190600 1.190900
30.226100 1.372000
30.261600 1.224800
30.297100 1.170100
30.332600 1.123300
30.368100 1.066200
30.403600 1.036400
30.439100 1.033600
30.474600 0.991300
30.510100 0.886100
30.545600 0.807300
30.581100 0.766900
30.616600 0.750000
30.652100 0.783600
30.687600 0.818200
30.723000 0.908200
30.758500 0.960900
30.794000 0.978000
30.829500 0.877400
30.865000 0.747100
30.900500 0.623900
30.936000 0.535600
30.971500 0.451600
31.007000 0.437600
31.042500 0.430100
31.078000 0.427400
31.113500 0.429300
31.149000 0.419500
31.184500 0.391500
31.220000 0.353400
31.255500 0.313000
31.291000 0.274100
31.326500 0.244400
31.362000 0.224400
31.397500 0.210400
31.433000 0.200700
31.468500 0.191700
31.504000 0.183400
31.539500 0.175700
31.575000 0.168600
31.610500 0.162900
31.646000 0.166300
31.681500 0.163500
31.717000 0.151300
31.752500 0.137900
31.788000 0.132200
31.823500 0.129200
31.859000 0.126100
31.894500 0.122700
31.930000 0.119200
31.965500 0.115600
32.001000 0.112000
32.036500 0.108300
32.071900 0.104700
32.107400 0.101100
32.142900 0.097700
32.178400 0.094300
32.213900 0.090800
32.249400 0.087600
32.284900 0.084700
32.320400 0.082300
32.355900 0.080400
32.391400 0.079000
32.426900 0.078200
32.462400 0.077200
32.497900 0.073100
32.533400 0.065400
32.568900 0.059800
32.604400 0.057100
32.639900 0.053800
32.675400 0.050000
32.710900 0.045900
32.746400 0.041900
32.781900 0.037900
32.817400 0.034000
32.852900 0.029700
32.888400 0.024700
32.923900 0.020100
32.959400 0.015800
32.994900 0.011900
33.030400 0.008400
33.065900 0.005300
33.101400 0.002600
33.136900 0.000200
33.172400 0.000000
33.207900 0.000000
33.243400 0.000000
33.278900 0.000000
33.314400 0.000000
33.349900 0.000000
33.385400 0.000000
33.420800 0.000000
33.456300 0.000000
33.491800 0.000000
33.527300 0.000000
33.562800 0.000000
33.598300 0.000000
33.633800 0.000000
33.669300 0.000000
33.704800 0.000000
33.740300 0.000000
33.775800 0.000000
33.811300 0.000000
33.846800 0.000000
33.882300 0.000000
33.917800 0.000000
33.953300 0.000000
33.988800 0.000000
34.024300 0.000000
34.059800 0.000000
34.095300 0.000000
34.130800 0.000000
34.166300 0.000000
34.201800 0.000000
34.237300 0.000000
34.272800 0.000000
34.308300 0.000000
34.343800 0.000000
34.379300 0.000000
34.414800 0.000000
34.450300 0.000000
34.485800 0.000000
34.521300 0.000000
34.556800 0.000000
34.592300 0.000000
34.627800 0.000000
34.663300 0.000000
34.698800 0.000000
34.734300 0.000000
34.769700 0.000000
34.805200 0.000000
34.840700 0.000000
34.876200 0.000000
34.911700 0.000000
34.947200 0.000000
34.982700 0.000000
35.018200 0.000000
35.053700 0.000000
35.089200 0.000000
35.124700 0.000000
35.160200 0.000000
35.195700 0.000000
35.231200 0.000000
35.266700 0.000000
35.302200 0.000000
35.337700 0.000000
35.373200 0.000000
35.408700 0.000000
35.444200 0.000000
35.479700 0.000000
35.515200 0.000000
35.550700 0.000000
35.586200 0.000000
35.621700 0.000000
35.657200 0.000000
35.692700 0.000000
35.728200 0.000000
35.763700 0.000000
35.799200 0.000000
35.834700 0.000000
35.870200 0.000000
35.905700 0.000000
35.941200 0.000000
35.976700 0.000000
36.012200 0.000000
36.047700 0.000000
36.083200 0.000000
36.118700 0.000000
36.154100 0.000000
36.189600 0.000000
36.225100 0.000000
36.260600 0.000000
36.296100 0.000000
36.331600 0.000000
36.367100 0.000000
e
