set title 'mp-1094140 - Density of States'
set xlabel 'Energy (eV)'
set ylabel 'DOS (states/eV)'
set grid
set xrange [-10:10]
set yrange [0:6.211]
set xzeroaxis lt -1
set terminal png size 800,600
set output 'mp-1094140_dos_gnuplot.png'
plot '-' using 1:2 with lines title 'DOS'
-44.313500 0.000000
-44.271400 0.000000
-44.229400 0.000000
-44.187300 0.000000
-44.145300 0.000000
-44.103200 0.000000
-44.061200 0.000000
-44.019100 0.000000
-43.977100 0.000000
-43.935000 0.000000
-43.893000 0.000000
-43.851000 0.000000
-43.808900 0.000000
-43.766900 0.000000
-43.724800 0.000000
-43.682800 0.000000
-43.640700 0.000000
-43.598700 0.000000
-43.556600 0.000000
-43.514600 0.000000
-43.472500 0.000000
-43.430500 0.000000
-43.388400 0.000000
-43.346400 0.000000
-43.304300 0.000000
-43.262300 0.000000
-43.220300 0.000000
-43.178200 0.000000
-43.136200 0.000000
-43.094100 0.000000
-43.052100 0.000000
-43.010000 0.000000
-42.968000 0.000000
-42.925900 0.000000
-42.883900 0.000000
-42.841800 0.000000
-42.799800 0.000000
-42.757700 0.000000
-42.715700 0.000000
-42.673700 0.000000
-42.631600 0.000000
-42.589600 0.000000
-42.547500 0.000000
-42.505500 0.000000
-42.463400 0.000000
-42.421400 0.000000
-42.379300 0.000000
-42.337300 0.000000
-42.295200 0.000000
-42.253200 0.000000
-42.211100 0.000000
-42.169100 0.000000
-42.127000 0.000000
-42.085000 0.000000
-42.043000 0.000000
-42.000900 0.000000
-41.958900 0.000000
-41.916800 0.000000
-41.874800 0.000000
-41.832700 0.000000
-41.790700 0.000000
-41.748600 0.000000
-41.706600 0.000000
-41.664500 0.000000
-41.622500 0.000000
-41.580400 0.000000
-41.538400 0.000000
-41.496400 0.000000
-41.454300 0.000000
-41.412300 0.000000
-41.370200 0.000000
-41.328200 0.000000
-41.286100 0.000000
-41.244100 0.000000
-41.202000 0.000000
-41.160000 0.000000
-41.117900 0.000000
-41.075900 0.000000
-41.033800 0.000000
-40.991800 0.000000
-40.949700 0.000000
-40.907700 0.000000
-40.865700 0.000000
-40.823600 0.000000
-40.781600 0.000000
-40.739500 0.000000
-40.697500 0.000000
-40.655400 0.000000
-40.613400 0.000000
-40.571300 0.000000
-40.529300 0.000000
-40.487200 0.000000
-40.445200 9.611500
-40.403100 4.020400
-40.361100 3.114200
-40.319100 3.114200
-40.277000 2.714200
-40.235000 0.000000
-40.192900 0.000000
-40.150900 2.678700
-40.108800 2.678700
-40.066800 3.036400
-40.024700 3.880800
-39.982700 6.094800
-39.940600 0.000000
-39.898600 0.000000
-39.856500 0.000000
-39.814500 198.518100
-39.772400 0.000000
-39.730400 0.000000
-39.688400 0.000000
-39.646300 0.000000
-39.604300 0.000000
-39.562200 0.000000
-39.520200 0.000000
-39.478100 0.000000
-39.436100 0.000000
-39.394000 0.000000
-39.352000 0.000000
-39.309900 0.000000
-39.267900 0.000000
-39.225800 0.000000
-39.183800 0.000000
-39.141800 0.000000
-39.099700 0.000000
-39.057700 0.000000
-39.015600 0.000000
-38.973600 0.000000
-38.931500 0.000000
-38.889500 0.000000
-38.847400 0.000000
-38.805400 0.000000
-38.763300 0.000000
-38.721300 0.000000
-38.679200 0.000000
-38.637200 0.000000
-38.595100 0.000000
-38.553100 0.000000
-38.511100 0.000000
-38.469000 0.000000
-38.427000 0.000000
-38.384900 0.000000
-38.342900 0.000000
-38.300800 0.000000
-38.258800 0.000000
-38.216700 0.000000
-38.174700 0.000000
-38.132600 0.000000
-38.090600 0.000000
-38.048500 0.000000
-38.006500 0.000000
-37.964400 0.000000
-37.922400 0.000000
-37.880400 0.000000
-37.838300 0.000000
-37.796300 0.000000
-37.754200 0.000000
-37.712200 0.000000
-37.670100 0.000000
-37.628100 0.000000
-37.586000 0.000000
-37.544000 0.000000
-37.501900 0.000000
-37.459900 0.000000
-37.417800 0.000000
-37.375800 0.000000
-37.333800 0.000000
-37.291700 0.000000
-37.249700 0.000000
-37.207600 0.000000
-37.165600 0.000000
-37.123500 0.000000
-37.081500 0.000000
-37.039400 0.000000
-36.997400 0.000000
-36.955300 0.000000
-36.913300 0.000000
-36.871200 0.000000
-36.829200 0.000000
-36.787100 0.000000
-36.745100 0.000000
-36.703100 0.000000
-36.661000 0.000000
-36.619000 0.000000
-36.576900 0.000000
-36.534900 0.000000
-36.492800 0.000000
-36.450800 0.000000
-36.408700 0.000000
-36.366700 0.000000
-36.324600 0.000000
-36.282600 0.000000
-36.240500 0.000000
-36.198500 0.000000
-36.156500 0.000000
-36.114400 0.000000
-36.072400 0.000000
-36.030300 0.000000
-35.988300 0.000000
-35.946200 0.000000
-35.904200 0.000000
-35.862100 0.000000
-35.820100 0.000000
-35.778000 0.000000
-35.736000 0.000000
-35.693900 0.000000
-35.651900 0.000000
-35.609800 0.000000
-35.567800 0.000000
-35.525800 0.000000
-35.483700 0.000000
-35.441700 0.000000
-35.399600 0.000000
-35.357600 0.000000
-35.315500 0.000000
-35.273500 0.000000
-35.231400 0.000000
-35.189400 0.000000
-35.147300 0.000000
-35.105300 0.000000
-35.063200 0.000000
-35.021200 0.000000
-34.979200 0.000000
-34.937100 0.000000
-34.895100 0.000000
-34.853000 0.000000
-34.811000 0.000000
-34.768900 0.000000
-34.726900 0.000000
-34.684800 0.000000
-34.642800 0.000000
-34.600700 0.000000
-34.558700 0.000000
-34.516600 0.000000
-34.474600 0.000000
-34.432500 0.000000
-34.390500 0.000000
-34.348500 0.000000
-34.306400 0.000000
-34.264400 0.000000
-34.222300 0.000000
-34.180300 0.000000
-34.138200 0.000000
-34.096200 0.000000
-34.054100 0.000000
-34.012100 0.000000
-33.970000 0.000000
-33.928000 0.000000
-33.885900 0.000000
-33.843900 0.000000
-33.801800 0.000000
-33.759800 0.000000
-33.717800 0.000000
-33.675700 0.000000
-33.633700 0.000000
-33.591600 0.000000
-33.549600 0.000000
-33.507500 0.000000
-33.465500 0.000000
-33.423400 0.000000
-33.381400 0.000000
-33.339300 0.000000
-33.297300 0.000000
-33.255200 0.000000
-33.213200 0.000000
-33.171200 0.000000
-33.129100 0.000000
-33.087100 0.000000
-33.045000 0.000000
-33.003000 0.000000
-32.960900 0.000000
-32.918900 0.000000
-32.876800 0.000000
-32.834800 0.000000
-32.792700 0.000000
-32.750700 0.000000
-32.708600 0.000000
-32.666600 0.000000
-32.624500 0.000000
-32.582500 0.000000
-32.540500 0.000000
-32.498400 0.000000
-32.456400 0.000000
-32.414300 0.000000
-32.372300 0.000000
-32.330200 0.000000
-32.288200 0.000000
-32.246100 0.000000
-32.204100 0.000000
-32.162000 0.000000
-32.120000 0.000000
-32.077900 0.000000
-32.035900 0.000000
-31.993900 0.000000
-31.951800 0.000000
-31.909800 0.000000
-31.867700 0.000000
-31.825700 0.000000
-31.783600 0.000000
-31.741600 0.000000
-31.699500 0.000000
-31.657500 0.000000
-31.615400 0.000000
-31.573400 0.000000
-31.531300 0.000000
-31.489300 0.000000
-31.447200 0.000000
-31.405200 0.000000
-31.363200 0.000000
-31.321100 0.000000
-31.279100 0.000000
-31.237000 0.000000
-31.195000 0.000000
-31.152900 0.000000
-31.110900 0.000000
-31.068800 0.000000
-31.026800 0.000000
-30.984700 0.000000
-30.942700 0.000000
-30.900600 0.000000
-30.858600 0.000000
-30.816600 0.000000
-30.774500 0.000000
-30.732500 0.000000
-30.690400 0.000000
-30.648400 0.000000
-30.606300 0.000000
-30.564300 0.000000
-30.522200 0.000000
-30.480200 0.000000
-30.438100 0.000000
-30.396100 0.000000
-30.354000 0.000000
-30.312000 0.000000
-30.269900 0.000000
-30.227900 0.000000
-30.185900 0.000000
-30.143800 0.000000
-30.101800 0.000000
-30.059700 0.000000
-30.017700 0.000000
-29.975600 0.000000
-29.933600 0.000000
-29.891500 0.000000
-29.849500 0.000000
-29.807400 0.000000
-29.765400 0.000000
-29.723300 0.000000
-29.681300 0.000000
-29.639300 0.000000
-29.597200 0.000000
-29.555200 0.000000
-29.513100 0.000000
-29.471100 0.000000
-29.429000 0.000000
-29.387000 0.000000
-29.344900 0.000000
-29.302900 0.000000
-29.260800 0.000000
-29.218800 0.000000
-29.176700 0.000000
-29.134700 0.000000
-29.092600 0.000000
-29.050600 0.000000
-29.008600 0.000000
-28.966500 0.000000
-28.924500 0.000000
-28.882400 0.000000
-28.840400 0.000000
-28.798300 0.000000
-28.756300 0.000000
-28.714200 0.000000
-28.672200 0.000000
-28.630100 0.000000
-28.588100 0.000000
-28.546000 0.000000
-28.504000 0.000000
-28.461900 0.000000
-28.419900 0.000000
-28.377900 0.000000
-28.335800 0.000000
-28.293800 0.000000
-28.251700 0.000000
-28.209700 0.000000
-28.167600 0.000000
-28.125600 0.000000
-28.083500 0.000000
-28.041500 0.000000
-27.999400 0.000000
-27.957400 0.000000
-27.915300 0.000000
-27.873300 0.000000
-27.831300 0.000000
-27.789200 0.000000
-27.747200 0.000000
-27.705100 0.000000
-27.663100 0.000000
-27.621000 0.000000
-27.579000 0.000000
-27.536900 0.000000
-27.494900 0.000000
-27.452800 0.000000
-27.410800 0.000000
-27.368700 0.000000
-27.326700 0.000000
-27.284600 0.000000
-27.242600 0.000000
-27.200600 0.000000
-27.158500 0.000000
-27.116500 0.000000
-27.074400 0.000000
-27.032400 0.000000
-26.990300 0.000000
-26.948300 0.000000
-26.906200 0.000000
-26.864200 0.000000
-26.822100 0.000000
-26.780100 0.000000
-26.738000 0.000000
-26.696000 0.000000
-26.654000 0.000000
-26.611900 0.000000
-26.569900 0.000000
-26.527800 0.000000
-26.485800 0.000000
-26.443700 0.000000
-26.401700 0.000000
-26.359600 0.000000
-26.317600 0.000000
-26.275500 0.000000
-26.233500 0.000000
-26.191400 0.000000
-26.149400 0.000000
-26.107300 0.000000
-26.065300 0.000000
-26.023300 0.000000
-25.981200 0.000000
-25.939200 0.000000
-25.897100 0.000000
-25.855100 0.000000
-25.813000 0.000000
-25.771000 0.000000
-25.728900 0.000000
-25.686900 0.000000
-25.644800 0.000000
-25.602800 0.000000
-25.560700 0.000000
-25.518700 0.000000
-25.476700 0.000000
-25.434600 0.000000
-25.392600 0.000000
-25.350500 0.000000
-25.308500 0.000000
-25.266400 0.000000
-25.224400 0.000000
-25.182300 0.000000
-25.140300 0.000000
-25.098200 0.000000
-25.056200 0.000000
-25.014100 0.000000
-24.972100 0.000000
-24.930000 0.000000
-24.888000 0.000000
-24.846000 0.000000
-24.803900 0.000000
-24.761900 0.000000
-24.719800 0.000000
-24.677800 0.000000
-24.635700 0.000000
-24.593700 0.000000
-24.551600 0.000000
-24.509600 0.000000
-24.467500 0.000000
-24.425500 0.000000
-24.383400 0.000000
-24.341400 0.000000
-24.299400 0.000000
-24.257300 0.000000
-24.215300 0.000000
-24.173200 0.000000
-24.131200 0.000000
-24.089100 0.000000
-24.047100 0.000000
-24.005000 0.000000
-23.963000 0.000000
-23.920900 0.000000
-23.878900 0.000000
-23.836800 0.000000
-23.794800 0.000000
-23.752700 0.000000
-23.710700 0.000000
-23.668700 0.000000
-23.626600 0.000000
-23.584600 0.000000
-23.542500 0.000000
-23.500500 0.000000
-23.458400 0.000000
-23.416400 0.000000
-23.374300 0.000000
-23.332300 0.000000
-23.290200 0.000000
-23.248200 0.000000
-23.206100 0.000000
-23.164100 0.000000
-23.122000 0.000000
-23.080000 0.000000
-23.038000 0.000000
-22.995900 0.000000
-22.953900 0.000000
-22.911800 0.000000
-22.869800 0.000000
-22.827700 0.000000
-22.785700 0.000000
-22.743600 0.000000
-22.701600 0.000000
-22.659500 0.000000
-22.617500 0.000000
-22.575400 0.000000
-22.533400 0.000000
-22.491400 0.000000
-22.449300 0.000000
-22.407300 0.000000
-22.365200 0.000000
-22.323200 0.000000
-22.281100 0.000000
-22.239100 0.000000
-22.197000 0.000000
-22.155000 0.000000
-22.112900 0.000000
-22.070900 0.000000
-22.028800 0.000000
-21.986800 0.000000
-21.944700 0.000000
-21.902700 0.000000
-21.860700 0.000000
-21.818600 0.000000
-21.776600 0.000000
-21.734500 0.000000
-21.692500 0.000000
-21.650400 0.000000
-21.608400 0.000000
-21.566300 0.000000
-21.524300 0.000000
-21.482200 0.000000
-21.440200 0.000000
-21.398100 0.000000
-21.356100 0.000000
-21.314100 0.000000
-21.272000 0.000000
-21.230000 0.000000
-21.187900 0.000000
-21.145900 0.000000
-21.103800 0.000000
-21.061800 0.000000
-21.019700 0.000000
-20.977700 0.000000
-20.935600 0.000000
-20.893600 0.000000
-20.851500 0.000000
-20.809500 0.000000
-20.767400 0.000000
-20.725400 0.000000
-20.683400 0.000000
-20.641300 0.000000
-20.599300 0.000000
-20.557200 0.000000
-20.515200 0.000000
-20.473100 0.000000
-20.431100 0.000000
-20.389000 0.000000
-20.347000 0.000000
-20.304900 0.000000
-20.262900 0.000000
-20.220800 0.000000
-20.178800 0.000000
-20.136800 0.000000
-20.094700 0.000000
-20.052700 0.000000
-20.010600 0.000000
-19.968600 0.000000
-19.926500 0.000000
-19.884500 0.000000
-19.842400 0.000000
-19.800400 0.000000
-19.758300 0.000000
-19.716300 0.000000
-19.674200 0.000000
-19.632200 0.000000
-19.590100 0.000000
-19.548100 0.000000
-19.506100 0.000000
-19.464000 0.000000
-19.422000 0.000000
-19.379900 0.000000
-19.337900 0.000000
-19.295800 0.000000
-19.253800 0.000000
-19.211700 0.000000
-19.169700 0.000000
-19.127600 0.000000
-19.085600 0.000000
-19.043500 0.000000
-19.001500 0.000000
-18.959500 0.000000
-18.917400 0.000000
-18.875400 0.000000
-18.833300 0.000000
-18.791300 0.000000
-18.749200 0.000000
-18.707200 0.000000
-18.665100 0.000000
-18.623100 0.000000
-18.581000 0.000000
-18.539000 0.000000
-18.496900 0.000000
-18.454900 0.000000
-18.412800 0.000000
-18.370800 0.000000
-18.328800 0.000000
-18.286700 0.000000
-18.244700 0.000000
-18.202600 0.000000
-18.160600 0.000000
-18.118500 0.000000
-18.076500 0.000000
-18.034400 0.000000
-17.992400 0.000000
-17.950300 0.000000
-17.908300 0.000000
-17.866200 0.000000
-17.824200 0.000000
-17.782100 0.000000
-17.740100 0.000000
-17.698100 0.000000
-17.656000 0.000000
-17.614000 0.000000
-17.571900 0.000000
-17.529900 0.000000
-17.487800 0.000000
-17.445800 0.000000
-17.403700 0.000000
-17.361700 0.000000
-17.319600 0.000000
-17.277600 0.000000
-17.235500 0.000000
-17.193500 0.000000
-17.151500 0.000000
-17.109400 0.000000
-17.067400 0.000000
-17.025300 0.000000
-16.983300 0.000000
-16.941200 0.000000
-16.899200 0.000000
-16.857100 0.000000
-16.815100 0.000000
-16.773000 0.000000
-16.731000 0.000000
-16.688900 0.000000
-16.646900 0.000000
-16.604800 0.000000
-16.562800 0.000000
-16.520800 0.000000
-16.478700 0.000000
-16.436700 0.000000
-16.394600 0.000000
-16.352600 0.000000
-16.310500 0.000000
-16.268500 0.000000
-16.226400 0.000000
-16.184400 0.000000
-16.142300 0.000000
-16.100300 0.000000
-16.058200 0.000000
-16.016200 34.045900
-15.974200 61.249000
-15.932100 110.239200
-15.890100 112.397700
-15.848000 37.858600
-15.806000 0.000000
-15.763900 0.000000
-15.721900 0.000000
-15.679800 0.000000
-15.637800 0.000000
-15.595700 0.000000
-15.553700 0.000000
-15.511600 0.000000
-15.469600 0.000000
-15.427500 0.000000
-15.385500 0.000000
-15.343500 0.000000
-15.301400 0.000000
-15.259400 0.000000
-15.217300 0.000000
-15.175300 0.000000
-15.133200 0.000000
-15.091200 0.000000
-15.049100 0.000000
-15.007100 0.000000
-14.965000 0.000000
-14.923000 0.000000
-14.880900 0.000000
-14.838900 0.000000
-14.796900 0.000000
-14.754800 0.000000
-14.712800 0.000000
-14.670700 0.000000
-14.628700 0.000000
-14.586600 0.000000
-14.544600 0.000000
-14.502500 0.000000
-14.460500 0.000000
-14.418400 0.000000
-14.376400 0.000000
-14.334300 0.000000
-14.292300 0.000000
-14.250200 0.000000
-14.208200 0.000000
-14.166200 0.000000
-14.124100 0.000000
-14.082100 0.000000
-14.040000 0.000000
-13.998000 0.000000
-13.955900 0.000000
-13.913900 0.000000
-13.871800 0.000000
-13.829800 0.000000
-13.787700 0.000000
-13.745700 0.000000
-13.703600 0.000000
-13.661600 0.000000
-13.619600 0.000000
-13.577500 0.000000
-13.535500 0.000000
-13.493400 0.000000
-13.451400 0.000000
-13.409300 0.000000
-13.367300 0.000000
-13.325200 0.000000
-13.283200 0.000000
-13.241100 0.000000
-13.199100 0.000000
-13.157000 0.000000
-13.115000 0.000000
-13.072900 0.000000
-13.030900 0.000000
-12.988900 0.000000
-12.946800 0.000000
-12.904800 0.000000
-12.862700 0.000000
-12.820700 0.000000
-12.778600 0.000000
-12.736600 0.000000
-12.694500 0.000000
-12.652500 0.000000
-12.610400 0.000000
-12.568400 0.000000
-12.526300 0.000000
-12.484300 0.000000
-12.442200 0.000000
-12.400200 0.000000
-12.358200 0.000000
-12.316100 0.000000
-12.274100 0.000000
-12.232000 0.000000
-12.190000 0.000000
-12.147900 0.000000
-12.105900 0.000000
-12.063800 0.000000
-12.021800 0.000000
-11.979700 0.000000
-11.937700 0.000000
-11.895600 0.000000
-11.853600 0.000000
-11.811600 0.000000
-11.769500 0.000000
-11.727500 0.000000
-11.685400 0.000000
-11.643400 0.000000
-11.601300 0.000000
-11.559300 0.000000
-11.517200 0.000000
-11.475200 0.000000
-11.433100 0.000000
-11.391100 0.000000
-11.349000 0.000000
-11.307000 0.000000
-11.264900 0.000000
-11.222900 0.000000
-11.180900 0.000000
-11.138800 0.000000
-11.096800 0.000000
-11.054700 0.000000
-11.012700 0.000000
-10.970600 0.000000
-10.928600 0.000000
-10.886500 0.000000
-10.844500 0.000000
-10.802400 0.000000
-10.760400 0.000000
-10.718300 0.000000
-10.676300 0.000000
-10.634300 0.000000
-10.592200 0.000000
-10.550200 0.000000
-10.508100 0.000000
-10.466100 0.000000
-10.424000 0.000000
-10.382000 0.000000
-10.339900 0.000000
-10.297900 0.000000
-10.255800 0.000000
-10.213800 0.000000
-10.171700 0.000000
-10.129700 0.000000
-10.087600 0.000000
-10.045600 0.000000
-10.003600 0.000000
-9.961500 0.000000
-9.919500 0.000000
-9.877400 0.000000
-9.835400 0.000000
-9.793300 0.000000
-9.751300 0.000000
-9.709200 0.000000
-9.667200 0.000000
-9.625100 0.000000
-9.583100 0.000000
-9.541000 0.000000
-9.499000 0.000000
-9.457000 0.000000
-9.414900 0.000000
-9.372900 0.000000
-9.330800 0.000000
-9.288800 0.000000
-9.246700 0.000000
-9.204700 0.000000
-9.162600 0.000000
-9.120600 0.000000
-9.078500 0.000000
-9.036500 0.000000
-8.994400 0.000000
-8.952400 0.000000
-8.910300 0.000000
-8.868300 0.000000
-8.826300 0.000000
-8.784200 0.000000
-8.742200 0.000000
-8.700100 0.000000
-8.658100 0.000000
-8.616000 0.000000
-8.574000 0.000000
-8.531900 0.000000
-8.489900 0.000000
-8.447800 0.000000
-8.405800 0.000000
-8.363700 0.000000
-8.321700 0.000000
-8.279600 0.000000
-8.237600 0.000000
-8.195600 0.000000
-8.153500 0.000000
-8.111500 0.000000
-8.069400 0.000000
-8.027400 0.000000
-7.985300 0.000000
-7.943300 0.000000
-7.901200 0.000000
-7.859200 0.000000
-7.817100 0.000000
-7.775100 0.000000
-7.733000 0.000000
-7.691000 0.000000
-7.649000 0.000000
-7.606900 0.000000
-7.564900 0.000000
-7.522800 0.000000
-7.480800 0.000000
-7.438700 0.000000
-7.396700 0.000000
-7.354600 0.000000
-7.312600 0.000000
-7.270500 0.000000
-7.228500 0.000000
-7.186400 0.000000
-7.144400 0.000000
-7.102300 0.000000
-7.060300 0.000000
-7.018300 0.000000
-6.976200 0.000000
-6.934200 0.000000
-6.892100 0.000000
-6.850100 0.000000
-6.808000 0.000000
-6.766000 0.000000
-6.723900 0.000000
-6.681900 0.000000
-6.639800 0.000000
-6.597800 0.000000
-6.555700 0.000000
-6.513700 0.000000
-6.471700 0.000000
-6.429600 0.000000
-6.387600 0.000000
-6.345500 0.000000
-6.303500 0.000000
-6.261400 0.000000
-6.219400 0.000000
-6.177300 0.000000
-6.135300 0.000000
-6.093200 0.000000
-6.051200 0.000000
-6.009100 0.000000
-5.967100 0.000000
-5.925000 0.000000
-5.883000 0.000000
-5.841000 0.000000
-5.798900 0.000000
-5.756900 0.000000
-5.714800 0.000000
-5.672800 0.000000
-5.630700 0.000000
-5.588700 0.000000
-5.546600 0.000000
-5.504600 0.000000
-5.462500 0.001700
-5.420500 0.033200
-5.378400 0.073400
-5.336400 0.091600
-5.294400 0.114100
-5.252300 0.135700
-5.210300 0.148100
-5.168200 0.157200
-5.126200 0.165500
-5.084100 0.177300
-5.042100 0.191700
-5.000000 0.207200
-4.958000 0.214600
-4.915900 0.221800
-4.873900 0.230500
-4.831800 0.237700
-4.789800 0.245900
-4.747700 0.255100
-4.705700 0.264900
-4.663700 0.276300
-4.621600 0.287200
-4.579600 0.293600
-4.537500 0.299900
-4.495500 0.306600
-4.453400 0.313400
-4.411400 0.321100
-4.369300 0.330400
-4.327300 0.339600
-4.285200 0.349500
-4.243200 0.359600
-4.201100 0.369400
-4.159100 0.378400
-4.117100 0.388500
-4.075000 0.401100
-4.033000 0.416300
-3.990900 0.433600
-3.948900 0.455700
-3.906800 0.483100
-3.864800 0.488900
-3.822700 0.485300
-3.780700 0.485700
-3.738600 0.505500
-3.696600 0.503200
-3.654500 0.477700
-3.612500 0.478900
-3.570400 0.476600
-3.528400 0.470100
-3.486400 0.462500
-3.444300 0.459400
-3.402300 0.457500
-3.360200 0.460000
-3.318200 0.461400
-3.276100 0.468500
-3.234100 0.478900
-3.192000 0.487000
-3.150000 0.491200
-3.107900 0.490400
-3.065900 0.489400
-3.023800 0.488800
-2.981800 0.456800
-2.939700 0.422100
-2.897700 0.404400
-2.855700 0.375000
-2.813600 0.344200
-2.771600 0.310300
-2.729500 0.287500
-2.687500 0.283400
-2.645400 0.295400
-2.603400 0.255000
-2.561300 0.284600
-2.519300 0.354000
-2.477200 0.426200
-2.435200 0.476800
-2.393100 0.533800
-2.351100 0.555900
-2.309100 0.571100
-2.267000 0.584900
-2.225000 0.603800
-2.182900 0.628300
-2.140900 0.568900
-2.098800 0.588400
-2.056800 0.612800
-2.014700 0.629900
-1.972700 0.647900
-1.930600 0.675000
-1.888600 0.684200
-1.846500 0.674000
-1.804500 0.666100
-1.762400 0.631600
-1.720400 0.631500
-1.678400 0.671300
-1.636300 0.667500
-1.594300 0.676900
-1.552200 0.686400
-1.510200 0.678500
-1.468100 0.662700
-1.426100 0.658200
-1.384000 0.664500
-1.342000 0.691300
-1.299900 0.727000
-1.257900 0.772400
-1.215800 0.791600
-1.173800 0.798900
-1.131800 0.781400
-1.089700 0.778000
-1.047700 0.761500
-1.005600 0.751900
-0.963600 0.746900
-0.921500 0.740000
-0.879500 0.733900
-0.837400 0.774200
-0.795400 0.808200
-0.753300 0.756300
-0.711300 0.777600
-0.669200 0.769700
-0.627200 0.768100
-0.585100 0.771500
-0.543100 0.778900
-0.501100 0.791200
-0.459000 0.806200
-0.417000 0.820800
-0.374900 0.837700
-0.332900 0.845300
-0.290800 0.879300
-0.248800 0.895600
-0.206700 0.901700
-0.164700 0.912400
-0.122600 0.919900
-0.080600 0.942300
-0.038500 0.959300
0.003500 0.972300
0.045500 0.986400
0.087600 0.998000
0.129600 1.005600
0.171700 1.008700
0.213700 1.028000
0.255800 1.074300
0.297800 1.237700
0.339900 1.477700
0.381900 1.512900
0.424000 1.385000
0.466000 1.113500
0.508100 0.994600
0.550100 0.919000
0.592200 0.815600
0.634200 0.753300
0.676200 0.713900
0.718300 0.683100
0.760300 0.662600
0.802400 0.627400
0.844400 0.577400
0.886500 0.527500
0.928500 0.504000
0.970600 0.482200
1.012600 0.462600
1.054700 0.445100
1.096700 0.423800
1.138800 0.414400
1.180800 0.416400
1.222800 0.399100
1.264900 0.380400
1.306900 0.359300
1.349000 0.341200
1.391000 0.324900
1.433100 0.313800
1.475100 0.295700
1.517200 0.340800
1.559200 0.315600
1.601300 0.292000
1.643300 0.249100
1.685400 0.208000
1.727400 0.185700
1.769500 0.192100
1.811500 0.156500
1.853500 0.134500
1.895600 0.118200
1.937600 0.107900
1.979700 0.102200
2.021700 0.100500
2.063800 0.103900
2.105800 0.113000
2.147900 0.122400
2.189900 0.139900
2.232000 0.210300
2.274000 0.318500
2.316100 0.486500
2.358100 0.699900
2.400200 0.928200
2.442200 0.994800
2.484200 0.974000
2.526300 0.976800
2.568300 0.965900
2.610400 0.983100
2.652400 0.989200
2.694500 0.989100
2.736500 0.985700
2.778600 0.912500
2.820600 0.947200
2.862700 1.014200
2.904700 0.992400
2.946800 0.946600
2.988800 0.949400
3.030800 0.934300
3.072900 0.953600
3.114900 1.000700
3.157000 1.028800
3.199000 1.103700
3.241100 1.113600
3.283100 1.136400
3.325200 1.157700
3.367200 1.158300
3.409300 1.167500
3.451300 1.171600
3.493400 1.173300
3.535400 1.126300
3.577500 1.110200
3.619500 1.087600
3.661500 1.104800
3.703600 1.044800
3.745600 1.092400
3.787700 1.224700
3.829700 1.491900
3.871800 1.578000
3.913800 1.607300
3.955900 1.752000
3.997900 1.741100
4.040000 1.537400
4.082000 1.471700
4.124100 1.445600
4.166100 1.429500
4.208100 1.477600
4.250200 1.619800
4.292200 1.734900
4.334300 1.650500
4.376300 1.575600
4.418400 1.797100
4.460400 1.770600
4.502500 1.835400
4.544500 1.803800
4.586600 1.946500
4.628600 2.079700
4.670700 2.110300
4.712700 2.005900
4.754800 2.173000
4.796800 2.371600
4.838800 2.207500
4.880900 2.039600
4.922900 1.925700
4.965000 1.601400
5.007000 1.354200
5.049100 1.249100
5.091100 1.250000
5.133200 1.272000
5.175200 1.416300
5.217300 1.781000
5.259300 1.774600
5.301400 1.773900
5.343400 1.738700
5.385400 1.620400
5.427500 1.671900
5.469500 1.956700
5.511600 2.239600
5.553600 2.445700
5.595700 4.002700
5.637700 3.653600
5.679800 3.663000
5.721800 4.442800
5.763900 4.375500
5.805900 4.700600
5.848000 3.532500
5.890000 3.399600
5.932100 3.334500
5.974100 3.325600
6.016100 3.744200
6.058200 3.767500
6.100200 3.326600
6.142300 3.049100
6.184300 3.341400
6.226400 2.872700
6.268400 2.658500
6.310500 2.813500
6.352500 3.691900
6.394600 3.280500
6.436600 3.323100
6.478700 3.081200
6.520700 2.796500
6.562700 2.339800
6.604800 2.259900
6.646800 2.111500
6.688900 1.901000
6.730900 1.847000
6.773000 2.048300
6.815000 2.499300
6.857100 2.472600
6.899100 2.463500
6.941200 2.405100
6.983200 2.370300
7.025300 2.268700
7.067300 2.318100
7.109400 2.208500
7.151400 2.265300
7.193400 2.519900
7.235500 2.173200
7.277500 2.040500
7.319600 1.466900
7.361600 1.059600
7.403700 1.634900
7.445700 1.694000
7.487800 2.508600
7.529800 2.693000
7.571900 2.271000
7.613900 2.305000
7.656000 2.083700
7.698000 1.992500
7.740100 1.989500
7.782100 2.012600
7.824100 1.968300
7.866200 1.819600
7.908200 1.983200
7.950300 2.732600
7.992300 2.775700
8.034400 2.989500
8.076400 3.199000
8.118500 3.350600
8.160500 3.585700
8.202600 4.346800
8.244600 4.252200
8.286700 2.771500
8.328700 5.646200
8.370700 3.043800
8.412800 2.422300
8.454800 1.757800
8.496900 1.581500
8.538900 1.527800
8.581000 1.473800
8.623000 1.373500
8.665100 1.348000
8.707100 1.378700
8.749200 1.515200
8.791200 1.439900
8.833300 1.321100
8.875300 1.482100
8.917400 1.522800
8.959400 1.595800
9.001400 1.624000
9.043500 1.600700
9.085500 1.407900
9.127600 1.224300
9.169600 1.149700
9.211700 1.114000
9.253700 1.124300
9.295800 1.191700
9.337800 1.238100
9.379900 1.350900
9.421900 1.971100
9.464000 1.654200
9.506000 1.583100
9.548000 1.454000
9.590100 1.171100
9.632100 1.456100
9.674200 2.067100
9.716200 1.893600
9.758300 1.755600
9.800300 1.750200
9.842400 1.856500
9.884400 2.007800
9.926500 2.027000
9.968500 1.921800
10.010600 1.872000
10.052600 1.648500
10.094700 1.509800
10.136700 1.540100
10.178700 1.526700
10.220800 1.499500
10.262800 1.408800
10.304900 1.219900
10.346900 1.166800
10.389000 1.234900
10.431000 1.394500
10.473100 1.452600
10.515100 1.508400
10.557200 1.511800
10.599200 1.525600
10.641300 1.527700
10.683300 1.540100
10.725300 1.500200
10.767400 1.462400
10.809400 1.455400
10.851500 1.345700
10.893500 1.328600
10.935600 1.309800
10.977600 1.209300
11.019700 1.096300
11.061700 1.096000
11.103800 1.091200
11.145800 0.886400
11.187900 0.860900
11.229900 0.818100
11.272000 0.846200
11.314000 0.884800
11.356000 0.898100
11.398100 0.970000
11.440100 1.174700
11.482200 1.412100
11.524200 1.595200
11.566300 1.786500
11.608300 1.808200
11.650400 1.771000
11.692400 1.763700
11.734500 1.653100
11.776500 1.615400
11.818600 1.598300
11.860600 1.565800
11.902700 1.555800
11.944700 1.470400
11.986700 1.384400
12.028800 1.357300
12.070800 1.251500
12.112900 1.159400
12.154900 1.086000
12.197000 1.121700
12.239000 1.152200
12.281100 1.171000
12.323100 1.137800
12.365200 1.174300
12.407200 1.369300
12.449300 1.514200
12.491300 1.608000
12.533300 1.685900
12.575400 1.775200
12.617400 1.904100
12.659500 1.958700
12.701500 1.769200
12.743600 1.742300
12.785600 1.729500
12.827700 1.781500
12.869700 1.879600
12.911800 1.710500
12.953800 1.594300
12.995900 1.542700
13.037900 1.574600
13.080000 1.604100
13.122000 1.533900
13.164000 1.386400
13.206100 1.284100
13.248100 1.299800
13.290200 1.336900
13.332200 1.395200
13.374300 1.493800
13.416300 1.756000
13.458400 1.802900
13.500400 1.811900
13.542500 1.949800
13.584500 2.029900
13.626600 2.055400
13.668600 1.828800
13.710600 1.768700
13.752700 1.751300
13.794700 1.710400
13.836800 1.602600
13.878800 1.504800
13.920900 1.416300
13.962900 1.217800
14.005000 1.101900
14.047000 1.128100
14.089100 1.186700
14.131100 1.216500
14.173200 1.255700
14.215200 1.390100
14.257300 1.507700
14.299300 1.723900
14.341300 1.609600
14.383400 1.465900
14.425400 1.518700
14.467500 1.539700
14.509500 1.566600
14.551600 1.459800
14.593600 1.376200
14.635700 1.300600
14.677700 1.197900
14.719800 1.208700
14.761800 1.192500
14.803900 1.143600
14.845900 1.086400
14.887900 1.009500
14.930000 0.883800
14.972000 0.841500
15.014100 0.882400
15.056100 0.941100
15.098200 1.005700
15.140200 1.002800
15.182300 1.021600
15.224300 1.049200
15.266400 1.055400
15.308400 1.022200
15.350500 0.955500
15.392500 0.864600
15.434600 0.835300
15.476600 0.821300
15.518600 0.832100
15.560700 0.838500
15.602700 0.860100
15.644800 0.942400
15.686800 0.982000
15.728900 1.014800
15.770900 1.038400
15.813000 1.051300
15.855000 1.086000
15.897100 1.131600
15.939100 1.156300
15.981200 1.116800
16.023200 1.098100
16.065200 1.101700
16.107300 1.032200
16.149300 1.003200
16.191400 0.980400
16.233400 0.962200
16.275500 0.923200
16.317500 0.838600
16.359600 0.749400
16.401600 0.684000
16.443700 0.647600
16.485700 0.633500
16.527800 0.614900
16.569800 0.626600
16.611900 0.653900
16.653900 0.683900
16.695900 0.703900
16.738000 0.724000
16.780000 0.713900
16.822100 0.710500
16.864100 0.637000
16.906200 0.668500
16.948200 0.657900
16.990300 0.676300
17.032300 0.723700
17.074400 0.728600
17.116400 0.721800
17.158500 0.736200
17.200500 0.742100
17.242600 0.754100
17.284600 0.780300
17.326600 0.806100
17.368700 0.856000
17.410700 0.899400
17.452800 0.939500
17.494800 1.015600
17.536900 1.116700
17.578900 1.293800
17.621000 1.546000
17.663000 1.663500
17.705100 1.746100
17.747100 1.700100
17.789200 1.755100
17.831200 1.435700
17.873200 1.258100
17.915300 1.270600
17.957300 1.375300
17.999400 1.602100
18.041400 1.734800
18.083500 1.849600
18.125500 1.866200
18.167600 1.773300
18.209600 1.678600
18.251700 1.685900
18.293700 1.731200
18.335800 1.819700
18.377800 1.915500
18.419900 1.789800
18.461900 1.494000
18.503900 1.358000
18.546000 1.307300
18.588000 1.216600
18.630100 1.184600
18.672100 1.225400
18.714200 1.312700
18.756200 1.557700
18.798300 1.554500
18.840300 1.437500
18.882400 1.443300
18.924400 1.444800
18.966500 1.473400
19.008500 1.503300
19.050500 1.525700
19.092600 1.570900
19.134600 1.618800
19.176700 1.765500
19.218700 1.610500
19.260800 1.623700
19.302800 1.501000
19.344900 1.461200
19.386900 1.442800
19.429000 1.446200
19.471000 1.452800
19.513100 1.551800
19.555100 1.589000
19.597200 1.445900
19.639200 1.374100
19.681200 1.328200
19.723300 1.309100
19.765300 1.270200
19.807400 1.240900
19.849400 1.230500
19.891500 1.222600
19.933500 1.219400
19.975600 1.144900
20.017600 1.158000
20.059700 1.193100
20.101700 1.218600
20.143800 1.225800
20.185800 1.261200
20.227800 1.300800
20.269900 1.315400
20.311900 1.358100
20.354000 1.406100
20.396000 1.435800
20.438100 1.391300
20.480100 1.336600
20.522200 1.522200
20.564200 1.500900
20.606300 1.519200
20.648300 1.537300
20.690400 1.636700
20.732400 1.493400
20.774500 1.437700
20.816500 1.435800
20.858500 1.384200
20.900600 1.372600
20.942600 1.386500
20.984700 1.414600
21.026700 1.410400
21.068800 1.384900
21.110800 1.369800
21.152900 1.375500
21.194900 1.392200
21.237000 1.397100
21.279000 1.407700
21.321100 1.406800
21.363100 1.428600
21.405100 1.523800
21.447200 1.458700
21.489200 1.466300
21.531300 1.480400
21.573300 1.504200
21.615400 1.526900
21.657400 1.494000
21.699500 1.496000
21.741500 1.430600
21.783600 1.389100
21.825600 1.375700
21.867700 1.403500
21.909700 1.398300
21.951800 1.397600
21.993800 1.401700
22.035800 1.422400
22.077900 1.433700
22.119900 1.450700
22.162000 1.469000
22.204000 1.434600
22.246100 1.422000
22.288100 1.476400
22.330200 1.498100
22.372200 1.492600
22.414300 1.445800
22.456300 1.456800
22.498400 1.506900
22.540400 1.464800
22.582500 1.476300
22.624500 1.554300
22.666500 1.547000
22.708600 1.572000
22.750600 1.588900
22.792700 1.552800
22.834700 1.498600
22.876800 1.450700
22.918800 1.447600
22.960900 1.459500
23.002900 1.457500
23.045000 1.459600
23.087000 1.479600
23.129100 1.497500
23.171100 1.554200
23.213100 1.637200
23.255200 1.664500
23.297200 1.643300
23.339300 1.583800
23.381300 1.563100
23.423400 1.483400
23.465400 1.433200
23.507500 1.421500
23.549500 1.494700
23.591600 1.458800
23.633600 1.468000
23.675700 1.494600
23.717700 1.505600
23.759800 1.571300
23.801800 1.661500
23.843800 1.710200
23.885900 1.725300
23.927900 1.654600
23.970000 1.577000
24.012000 1.532500
24.054100 1.557000
24.096100 1.657900
24.138200 1.620600
24.180200 1.552800
24.222300 1.568800
24.264300 1.398300
24.306400 1.384400
24.348400 1.389100
24.390400 1.408600
24.432500 1.408000
24.474500 1.408000
24.516600 1.474700
24.558600 1.565400
24.600700 1.636400
24.642700 1.593300
24.684800 1.460600
24.726800 1.470500
24.768900 1.473000
24.810900 1.516200
24.853000 1.551200
24.895000 1.581400
24.937100 1.632200
24.979100 1.671800
25.021100 1.684900
25.063200 1.625100
25.105200 1.505600
25.147300 1.347600
25.189300 1.304400
25.231400 1.326400
25.273400 1.348600
25.315500 1.385500
25.357500 1.448000
25.399600 1.403300
25.441600 1.347900
25.483700 1.378700
25.525700 1.462100
25.567700 1.554100
25.609800 1.619100
25.651800 1.674400
25.693900 1.726600
25.735900 1.789400
25.778000 1.798100
25.820000 1.765100
25.862100 1.830700
25.904100 1.875600
25.946200 1.791800
25.988200 1.760900
26.030300 1.675300
26.072300 1.620400
26.114400 1.586500
26.156400 1.520800
26.198400 1.512300
26.240500 1.550900
26.282500 1.589100
26.324600 1.615600
26.366600 1.645700
26.408700 1.669400
26.450700 1.687200
26.492800 1.674000
26.534800 1.628300
26.576900 1.632500
26.618900 1.637300
26.661000 1.659600
26.703000 1.661100
26.745000 1.628100
26.787100 1.598200
26.829100 1.609900
26.871200 1.557300
26.913200 1.614800
26.955300 1.719000
26.997300 1.766800
27.039400 1.771400
27.081400 1.781400
27.123500 1.752100
27.165500 1.810600
27.207600 1.807600
27.249600 1.800500
27.291700 1.730800
27.333700 1.706300
27.375700 1.718900
27.417800 1.729400
27.459800 1.747700
27.501900 1.797900
27.543900 1.818000
27.586000 1.813200
27.628000 1.807100
27.670100 1.796000
27.712100 1.815500
27.754200 1.826700
27.796200 1.820500
27.838300 1.825300
27.880300 1.857100
27.922400 1.938500
27.964400 1.990100
28.006400 1.941500
28.048500 1.879100
28.090500 1.863600
28.132600 1.877300
28.174600 1.799900
28.216700 1.761000
28.258700 1.792400
28.300800 1.826000
28.342800 1.854900
28.384900 1.897000
28.426900 1.851300
28.469000 1.831500
28.511000 1.872000
28.553000 1.884300
28.595100 1.934700
28.637100 1.925000
28.679200 1.878700
28.721200 1.863100
28.763300 1.867100
28.805300 1.779100
28.847400 1.734000
28.889400 1.717700
28.931500 1.773000
28.973500 1.685000
29.015600 1.710300
29.057600 1.735400
29.099700 1.772600
29.141700 1.827400
29.183700 1.873200
29.225800 1.899200
29.267800 1.882500
29.309900 1.815900
29.351900 1.666300
29.394000 1.726300
29.436000 1.820700
29.478100 1.824700
29.520100 1.924000
29.562200 1.853600
29.604200 1.739000
29.646300 1.640700
29.688300 1.608900
29.730300 1.533700
29.772400 1.512500
29.814400 1.599900
29.856500 1.737300
29.898500 1.713300
29.940600 1.683500
29.982600 1.625000
30.024700 1.587400
30.066700 1.568400
30.108800 1.578700
30.150800 1.578400
30.192900 1.599400
30.234900 1.580600
30.277000 1.547900
30.319000 1.614100
30.361000 1.704200
30.403100 1.813700
30.445100 1.918300
30.487200 1.906000
30.529200 1.750000
30.571300 1.609600
30.613300 1.532300
30.655400 1.511500
30.697400 1.560900
30.739500 1.721800
30.781500 2.043100
30.823600 1.951800
30.865600 1.885200
30.907600 1.802100
30.949700 1.732200
30.991700 1.620100
31.033800 1.628700
31.075800 1.651300
31.117900 1.685800
31.159900 1.722200
31.202000 1.699900
31.244000 1.656100
31.286100 1.628700
31.328100 1.591900
31.370200 1.581000
31.412200 1.593300
31.454300 1.632700
31.496300 1.652100
31.538300 1.636100
31.580400 1.638600
31.622400 1.653700
31.664500 1.707500
31.706500 1.751800
31.748600 1.819700
31.790600 1.830800
31.832700 1.825800
31.874700 1.826500
31.916800 1.814500
31.958800 1.819200
32.000900 1.764600
32.042900 1.708900
32.084900 1.674500
32.127000 1.648200
32.169000 1.583500
32.211100 1.596400
32.253100 1.624900
32.295200 1.637800
32.337200 1.691700
32.379300 1.784200
32.421300 1.806200
32.463400 1.771500
32.505400 1.678200
32.547500 1.549000
32.589500 1.445900
32.631600 1.407800
32.673600 1.510900
32.715600 1.420100
32.757700 1.344900
32.799700 1.260700
32.841800 1.214500
32.883800 1.161500
32.925900 1.151500
32.967900 1.176600
33.010000 1.179600
33.052000 1.188000
33.094100 1.025100
33.136100 1.037100
33.178200 1.003900
33.220200 1.149300
33.262300 1.006600
33.304300 0.915000
33.346300 0.867300
33.388400 0.818300
33.430400 0.790800
33.472500 0.743500
33.514500 0.700100
33.556600 0.656000
33.598600 0.614800
33.640700 0.587800
33.682700 0.561600
33.724800 0.508300
33.766800 0.447000
33.808900 0.404100
33.850900 0.377300
33.892900 0.359200
33.935000 0.347000
33.977000 0.343700
34.019100 0.356400
34.061100 0.368900
34.103200 0.373600
34.145200 0.389200
34.187300 0.391200
34.229300 0.345000
34.271400 0.291400
34.313400 0.226900
34.355500 0.185300
34.397500 0.181400
34.439600 0.170200
34.481600 0.154800
34.523600 0.141000
34.565700 0.129100
34.607700 0.118500
34.649800 0.109200
34.691800 0.099700
34.733900 0.090500
34.775900 0.082000
34.818000 0.080300
34.860000 0.081900
34.902100 0.080800
34.944100 0.075900
34.986200 0.064200
35.028200 0.050200
35.070200 0.048200
35.112300 0.046600
35.154300 0.055200
35.196400 0.059100
35.238400 0.048500
35.280500 0.041800
35.322500 0.034500
35.364600 0.026600
35.406600 0.025300
35.448700 0.024100
35.490700 0.022900
35.532800 0.021800
35.574800 0.020700
35.616900 0.019700
35.658900 0.017000
35.700900 0.016300
35.743000 0.015700
35.785000 0.015100
35.827100 0.014600
35.869100 0.014000
35.911200 0.013500
35.953200 0.000000
35.995300 0.000000
36.037300 0.000000
36.079400 0.000000
36.121400 0.000000
36.163500 0.000000
36.205500 0.000000
36.247500 0.000000
36.289600 0.000000
36.331600 0.000000
36.373700 0.000000
36.415700 0.000000
36.457800 0.000000
36.499800 0.000000
36.541900 0.000000
36.583900 0.000000
36.626000 0.000000
36.668000 0.000000
36.710100 0.000000
36.752100 0.000000
36.794200 0.000000
36.836200 0.000000
36.878200 0.000000
36.920300 0.000000
36.962300 0.000000
37.004400 0.000000
37.046400 0.000000
37.088500 0.000000
37.130500 0.000000
37.172600 0.000000
37.214600 0.000000
37.256700 0.000000
37.298700 0.000000
37.340800 0.000000
37.382800 0.000000
37.424900 0.000000
37.466900 0.000000
37.508900 0.000000
37.551000 0.000000
37.593000 0.000000
37.635100 0.000000
37.677100 0.000000
37.719200 0.000000
37.761200 0.000000
37.803300 0.000000
37.845300 0.000000
37.887400 0.000000
37.929400 0.000000
37.971500 0.000000
38.013500 0.000000
38.055500 0.000000
38.097600 0.000000
38.139600 0.000000
38.181700 0.000000
38.223700 0.000000
38.265800 0.000000
38.307800 0.000000
38.349900 0.000000
38.391900 0.000000
38.434000 0.000000
38.476000 0.000000
38.518100 0.000000
38.560100 0.000000
38.602200 0.000000
38.644200 0.000000
38.686200 0.000000
38.728300 0.000000
38.770300 0.000000
38.812400 0.000000
38.854400 0.000000
38.896500 0.000000
38.938500 0.000000
38.980600 0.000000
39.022600 0.000000
39.064700 0.000000
39.106700 0.000000
39.148800 0.000000
39.190800 0.000000
39.232800 0.000000
39.274900 0.000000
39.316900 0.000000
39.359000 0.000000
39.401000 0.000000
39.443100 0.000000
39.485100 0.000000
39.527200 0.000000
39.569200 0.000000
39.611300 0.000000
39.653300 0.000000
39.695400 0.000000
39.737400 0.000000
39.779500 0.000000
e
