set title 'mp-1206707 - Density of States'
set xlabel 'Energy (eV)'
set ylabel 'DOS (states/eV)'
set grid
set xrange [-10:10]
set yrange [0:46.908]
set xzeroaxis lt -1
set terminal png size 800,600
set output 'mp-1206707_dos_gnuplot.png'
plot '-' using 1:2 with lines title 'DOS'
-30.003700 0.000000
-29.974200 0.000000
-29.944700 0.000000
-29.915200 0.000000
-29.885700 0.000000
-29.856200 0.000000
-29.826700 0.000000
-29.797200 0.000000
-29.767700 0.000000
-29.738200 0.000000
-29.708700 0.000000
-29.679200 0.000000
-29.649700 0.000000
-29.620200 0.000000
-29.590700 0.000000
-29.561200 0.000000
-29.531700 0.000000
-29.502200 0.000000
-29.472700 0.000000
-29.443300 0.000000
-29.413800 0.000000
-29.384300 0.000000
-29.354800 0.000000
-29.325300 0.000000
-29.295800 0.000000
-29.266300 0.000000
-29.236800 0.000000
-29.207300 0.000000
-29.177800 0.000000
-29.148300 0.000000
-29.118800 0.000000
-29.089300 0.000000
-29.059800 0.000000
-29.030300 0.000000
-29.000800 0.000000
-28.971300 0.000000
-28.941800 0.000000
-28.912300 0.000000
-28.882800 0.000000
-28.853300 0.000000
-28.823800 0.000000
-28.794300 0.000000
-28.764800 0.000000
-28.735300 0.000000
-28.705800 0.000000
-28.676300 0.000000
-28.646800 0.000000
-28.617400 0.000000
-28.587900 0.000000
-28.558400 0.000000
-28.528900 0.000000
-28.499400 0.000000
-28.469900 0.000000
-28.440400 0.000000
-28.410900 0.000000
-28.381400 0.000000
-28.351900 0.000000
-28.322400 0.000000
-28.292900 0.000000
-28.263400 0.000000
-28.233900 0.000000
-28.204400 0.000000
-28.174900 0.000000
-28.145400 0.000000
-28.115900 0.000000
-28.086400 0.000000
-28.056900 0.000000
-28.027400 0.000000
-27.997900 0.000000
-27.968400 0.000000
-27.938900 0.000000
-27.909400 0.000000
-27.879900 0.000000
-27.850400 0.000000
-27.821000 0.000000
-27.791500 0.000000
-27.762000 0.000000
-27.732500 0.000000
-27.703000 0.000000
-27.673500 0.000000
-27.644000 0.000000
-27.614500 0.000000
-27.585000 0.000000
-27.555500 0.000000
-27.526000 0.000000
-27.496500 0.000000
-27.467000 0.000000
-27.437500 0.000000
-27.408000 0.000000
-27.378500 0.000000
-27.349000 0.000000
-27.319500 0.635100
-27.290000 2.400900
-27.260500 2.760100
-27.231000 3.339900
-27.201500 4.054600
-27.172000 8.613700
-27.142500 4.332300
-27.113000 3.278900
-27.083500 2.763900
-27.054000 2.851400
-27.024500 0.000000
-26.995100 0.000000
-26.965600 0.000000
-26.936100 0.000000
-26.906600 0.000000
-26.877100 0.000000
-26.847600 0.000000
-26.818100 0.000000
-26.788600 0.000000
-26.759100 0.000000
-26.729600 0.000000
-26.700100 0.000000
-26.670600 0.000000
-26.641100 0.000000
-26.611600 0.000000
-26.582100 0.000000
-26.552600 0.000000
-26.523100 0.000000
-26.493600 0.000000
-26.464100 0.000000
-26.434600 0.000000
-26.405100 0.000000
-26.375600 0.000000
-26.346100 0.000000
-26.316600 0.000000
-26.287100 0.000000
-26.257600 0.000000
-26.228100 0.000000
-26.198700 0.000000
-26.169200 0.000000
-26.139700 0.000000
-26.110200 0.000000
-26.080700 0.000000
-26.051200 0.000000
-26.021700 0.000000
-25.992200 0.000000
-25.962700 0.000000
-25.933200 0.000000
-25.903700 0.000000
-25.874200 0.000000
-25.844700 0.000000
-25.815200 0.000000
-25.785700 0.000000
-25.756200 0.000000
-25.726700 0.000000
-25.697200 0.000000
-25.667700 0.000000
-25.638200 0.000000
-25.608700 0.000000
-25.579200 0.000000
-25.549700 0.000000
-25.520200 0.000000
-25.490700 0.000000
-25.461200 0.000000
-25.431700 0.000000
-25.402200 0.000000
-25.372800 0.000000
-25.343300 0.000000
-25.313800 0.000000
-25.284300 0.000000
-25.254800 0.000000
-25.225300 0.000000
-25.195800 0.000000
-25.166300 0.000000
-25.136800 0.000000
-25.107300 0.000000
-25.077800 0.000000
-25.048300 0.000000
-25.018800 0.000000
-24.989300 0.000000
-24.959800 0.000000
-24.930300 0.000000
-24.900800 0.000000
-24.871300 0.000000
-24.841800 0.000000
-24.812300 0.000000
-24.782800 0.000000
-24.753300 0.000000
-24.723800 0.000000
-24.694300 0.000000
-24.664800 0.000000
-24.635300 0.000000
-24.605800 0.000000
-24.576400 0.000000
-24.546900 0.000000
-24.517400 0.000000
-24.487900 0.000000
-24.458400 0.000000
-24.428900 0.000000
-24.399400 0.000000
-24.369900 0.000000
-24.340400 0.000000
-24.310900 0.000000
-24.281400 0.000000
-24.251900 0.000000
-24.222400 0.000000
-24.192900 0.000000
-24.163400 0.000000
-24.133900 0.000000
-24.104400 0.000000
-24.074900 0.000000
-24.045400 0.000000
-24.015900 0.000000
-23.986400 0.000000
-23.956900 0.000000
-23.927400 0.000000
-23.897900 0.000000
-23.868400 0.000000
-23.838900 0.000000
-23.809400 0.000000
-23.779900 0.000000
-23.750500 0.000000
-23.721000 0.000000
-23.691500 0.000000
-23.662000 0.000000
-23.632500 0.000000
-23.603000 0.000000
-23.573500 0.000000
-23.544000 0.000000
-23.514500 0.000000
-23.485000 0.000000
-23.455500 0.000000
-23.426000 0.000000
-23.396500 0.000000
-23.367000 0.000000
-23.337500 0.000000
-23.308000 0.000000
-23.278500 0.000000
-23.249000 0.000000
-23.219500 0.000000
-23.190000 0.000000
-23.160500 0.000000
-23.131000 0.000000
-23.101500 0.000000
-23.072000 0.000000
-23.042500 0.000000
-23.013000 0.000000
-22.983500 0.000000
-22.954100 0.000000
-22.924600 0.000000
-22.895100 0.000000
-22.865600 0.000000
-22.836100 0.000000
-22.806600 0.000000
-22.777100 0.000000
-22.747600 0.000000
-22.718100 0.000000
-22.688600 0.000000
-22.659100 0.000000
-22.629600 0.000000
-22.600100 0.000000
-22.570600 0.000000
-22.541100 0.000000
-22.511600 0.000000
-22.482100 0.000000
-22.452600 0.000000
-22.423100 0.000000
-22.393600 0.000000
-22.364100 0.000000
-22.334600 0.000000
-22.305100 0.000000
-22.275600 0.000000
-22.246100 0.000000
-22.216600 0.000000
-22.187100 0.000000
-22.157600 0.000000
-22.128200 0.000000
-22.098700 0.000000
-22.069200 0.000000
-22.039700 0.000000
-22.010200 0.000000
-21.980700 0.000000
-21.951200 0.000000
-21.921700 0.000000
-21.892200 0.000000
-21.862700 0.000000
-21.833200 0.000000
-21.803700 0.000000
-21.774200 0.000000
-21.744700 0.000000
-21.715200 0.000000
-21.685700 0.000000
-21.656200 0.000000
-21.626700 0.000000
-21.597200 0.000000
-21.567700 0.000000
-21.538200 0.000000
-21.508700 0.000000
-21.479200 0.000000
-21.449700 0.000000
-21.420200 0.000000
-21.390700 0.000000
-21.361200 0.000000
-21.331800 0.000000
-21.302300 0.000000
-21.272800 0.000000
-21.243300 0.000000
-21.213800 0.000000
-21.184300 0.000000
-21.154800 0.000000
-21.125300 0.000000
-21.095800 0.000000
-21.066300 0.000000
-21.036800 0.000000
-21.007300 0.000000
-20.977800 0.000000
-20.948300 0.000000
-20.918800 0.000000
-20.889300 0.000000
-20.859800 0.000000
-20.830300 0.000000
-20.800800 0.000000
-20.771300 0.000000
-20.741800 0.000000
-20.712300 0.000000
-20.682800 0.000000
-20.653300 0.000000
-20.623800 0.000000
-20.594300 0.000000
-20.564800 0.000000
-20.535300 0.000000
-20.505900 0.000000
-20.476400 0.000000
-20.446900 0.000000
-20.417400 0.000000
-20.387900 0.000000
-20.358400 0.000000
-20.328900 0.000000
-20.299400 0.000000
-20.269900 0.000000
-20.240400 0.000000
-20.210900 0.000000
-20.181400 0.000000
-20.151900 0.000000
-20.122400 0.000000
-20.092900 0.000000
-20.063400 0.000000
-20.033900 0.000000
-20.004400 0.000000
-19.974900 0.000000
-19.945400 0.000000
-19.915900 0.000000
-19.886400 0.000000
-19.856900 0.000000
-19.827400 0.000000
-19.797900 0.000000
-19.768400 0.000000
-19.738900 0.000000
-19.709500 0.000000
-19.680000 0.000000
-19.650500 0.000000
-19.621000 0.000000
-19.591500 0.000000
-19.562000 0.000000
-19.532500 0.000000
-19.503000 0.000000
-19.473500 0.000000
-19.444000 0.000000
-19.414500 0.000000
-19.385000 0.000000
-19.355500 0.000000
-19.326000 0.000000
-19.296500 0.000000
-19.267000 0.000000
-19.237500 0.000000
-19.208000 0.000000
-19.178500 0.000000
-19.149000 0.000000
-19.119500 0.000000
-19.090000 0.000000
-19.060500 0.000000
-19.031000 0.000000
-19.001500 0.000000
-18.972000 0.000000
-18.942500 0.000000
-18.913000 0.000000
-18.883600 0.000000
-18.854100 0.000000
-18.824600 0.000000
-18.795100 0.000000
-18.765600 0.000000
-18.736100 0.000000
-18.706600 0.000000
-18.677100 0.000000
-18.647600 0.000000
-18.618100 0.000000
-18.588600 0.000000
-18.559100 0.000000
-18.529600 0.000000
-18.500100 0.000000
-18.470600 0.000000
-18.441100 0.000000
-18.411600 0.000000
-18.382100 0.000000
-18.352600 0.000000
-18.323100 0.000000
-18.293600 0.000000
-18.264100 0.000000
-18.234600 0.000000
-18.205100 0.000000
-18.175600 0.000000
-18.146100 0.000000
-18.116600 0.000000
-18.087200 0.000000
-18.057700 0.000000
-18.028200 0.000000
-17.998700 0.000000
-17.969200 0.000000
-17.939700 0.000000
-17.910200 0.000000
-17.880700 0.000000
-17.851200 0.000000
-17.821700 0.000000
-17.792200 0.000000
-17.762700 0.000000
-17.733200 0.000000
-17.703700 0.000000
-17.674200 0.000000
-17.644700 0.000000
-17.615200 0.000000
-17.585700 0.000000
-17.556200 0.000000
-17.526700 0.000000
-17.497200 0.000000
-17.467700 0.000000
-17.438200 0.000000
-17.408700 0.000000
-17.379200 0.000000
-17.349700 0.000000
-17.320200 0.000000
-17.290700 0.000000
-17.261300 0.000000
-17.231800 0.000000
-17.202300 0.000000
-17.172800 0.000000
-17.143300 0.000000
-17.113800 0.000000
-17.084300 0.000000
-17.054800 0.000000
-17.025300 0.000000
-16.995800 0.000000
-16.966300 0.000000
-16.936800 0.000000
-16.907300 0.000000
-16.877800 0.000000
-16.848300 0.000000
-16.818800 0.000000
-16.789300 0.000000
-16.759800 0.000000
-16.730300 0.000000
-16.700800 0.000000
-16.671300 0.000000
-16.641800 0.000000
-16.612300 0.000000
-16.582800 0.000000
-16.553300 0.000000
-16.523800 0.000000
-16.494300 0.000000
-16.464900 0.000000
-16.435400 0.000000
-16.405900 0.000000
-16.376400 0.000000
-16.346900 0.000000
-16.317400 0.000000
-16.287900 0.000000
-16.258400 0.000000
-16.228900 0.000000
-16.199400 0.000000
-16.169900 0.000000
-16.140400 0.000000
-16.110900 0.000000
-16.081400 0.000000
-16.051900 0.000000
-16.022400 0.000000
-15.992900 0.000000
-15.963400 0.000000
-15.933900 0.000000
-15.904400 0.000000
-15.874900 0.000000
-15.845400 0.000000
-15.815900 0.000000
-15.786400 0.000000
-15.756900 0.000000
-15.727400 0.000000
-15.697900 0.000000
-15.668400 0.000000
-15.639000 0.000000
-15.609500 0.000000
-15.580000 0.000000
-15.550500 0.000000
-15.521000 0.000000
-15.491500 0.000000
-15.462000 0.000000
-15.432500 0.000000
-15.403000 0.000000
-15.373500 0.000000
-15.344000 0.000000
-15.314500 0.000000
-15.285000 0.000000
-15.255500 0.000000
-15.226000 0.000000
-15.196500 0.000000
-15.167000 0.000000
-15.137500 0.000000
-15.108000 0.000000
-15.078500 0.000000
-15.049000 0.000000
-15.019500 0.000000
-14.990000 0.000000
-14.960500 0.000000
-14.931000 0.000000
-14.901500 0.000000
-14.872000 0.000000
-14.842500 0.000000
-14.813100 0.000000
-14.783600 0.000000
-14.754100 0.000000
-14.724600 0.000000
-14.695100 0.000000
-14.665600 0.000000
-14.636100 0.000000
-14.606600 0.000000
-14.577100 0.000000
-14.547600 0.000000
-14.518100 0.000000
-14.488600 0.000000
-14.459100 0.000000
-14.429600 0.000000
-14.400100 0.000000
-14.370600 0.000000
-14.341100 0.000000
-14.311600 0.000000
-14.282100 0.000000
-14.252600 0.000000
-14.223100 0.000000
-14.193600 0.000000
-14.164100 0.000000
-14.134600 0.000000
-14.105100 0.000000
-14.075600 0.000000
-14.046100 0.000000
-14.016700 0.000000
-13.987200 0.000000
-13.957700 0.000000
-13.928200 0.000000
-13.898700 0.000000
-13.869200 0.000000
-13.839700 0.000000
-13.810200 0.000000
-13.780700 0.000000
-13.751200 0.000000
-13.721700 0.000000
-13.692200 0.000000
-13.662700 0.000000
-13.633200 0.000000
-13.603700 0.000000
-13.574200 0.000000
-13.544700 0.000000
-13.515200 0.000000
-13.485700 0.000000
-13.456200 0.000000
-13.426700 0.000000
-13.397200 0.000000
-13.367700 0.000000
-13.338200 0.000000
-13.308700 0.000000
-13.279200 0.000000
-13.249700 0.000000
-13.220200 0.000000
-13.190800 0.000000
-13.161300 0.000000
-13.131800 0.000000
-13.102300 0.000000
-13.072800 0.000000
-13.043300 0.000000
-13.013800 0.000000
-12.984300 0.000000
-12.954800 0.000000
-12.925300 0.000000
-12.895800 0.000000
-12.866300 0.000000
-12.836800 0.000000
-12.807300 0.000000
-12.777800 0.000000
-12.748300 0.000000
-12.718800 0.000000
-12.689300 0.000000
-12.659800 0.000000
-12.630300 0.000000
-12.600800 0.000000
-12.571300 0.000000
-12.541800 0.000000
-12.512300 0.000000
-12.482800 0.000000
-12.453300 0.000000
-12.423800 0.000000
-12.394400 0.000000
-12.364900 0.000000
-12.335400 0.000000
-12.305900 0.000000
-12.276400 0.000000
-12.246900 0.000000
-12.217400 0.000000
-12.187900 0.000000
-12.158400 0.000000
-12.128900 0.000000
-12.099400 0.000000
-12.069900 0.000000
-12.040400 0.000000
-12.010900 0.000000
-11.981400 0.000000
-11.951900 0.000000
-11.922400 0.000000
-11.892900 0.000000
-11.863400 0.000000
-11.833900 0.000000
-11.804400 0.000000
-11.774900 0.000000
-11.745400 0.000000
-11.715900 0.000000
-11.686400 0.000000
-11.656900 0.000000
-11.627400 0.000000
-11.597900 0.000000
-11.568500 0.000000
-11.539000 0.000000
-11.509500 0.000000
-11.480000 0.000000
-11.450500 0.000000
-11.421000 0.000000
-11.391500 0.000000
-11.362000 0.000000
-11.332500 0.000000
-11.303000 0.000000
-11.273500 0.000000
-11.244000 0.000000
-11.214500 0.000000
-11.185000 0.000000
-11.155500 0.000000
-11.126000 0.000000
-11.096500 0.000000
-11.067000 0.000000
-11.037500 0.000000
-11.008000 0.000000
-10.978500 0.000000
-10.949000 0.000000
-10.919500 0.000000
-10.890000 0.000000
-10.860500 0.000000
-10.831000 0.000000
-10.801500 0.000000
-10.772100 0.000000
-10.742600 1.144700
-10.713100 1.379900
-10.683600 1.398900
-10.654100 1.580900
-10.624600 1.833200
-10.595100 2.039200
-10.565600 3.352300
-10.536100 1.638300
-10.506600 1.535500
-10.477100 1.449500
-10.447600 1.622100
-10.418100 1.181200
-10.388600 1.802000
-10.359100 1.063400
-10.329600 1.063400
-10.300100 1.063400
-10.270600 3.431600
-10.241100 6.584300
-10.211600 2.993200
-10.182100 4.677600
-10.152600 8.033300
-10.123100 5.456300
-10.093600 4.427800
-10.064100 2.036600
-10.034600 3.240400
-10.005100 3.282300
-9.975600 0.997900
-9.946200 0.998100
-9.916700 0.998200
-9.887200 0.998300
-9.857700 0.999000
-9.828200 1.295500
-9.798700 1.139800
-9.769200 1.351700
-9.739700 1.141000
-9.710200 1.220400
-9.680700 1.220500
-9.651200 1.220600
-9.621700 1.220700
-9.592200 1.220800
-9.562700 2.340500
-9.533200 2.377400
-9.503700 2.447300
-9.474200 3.395600
-9.444700 7.134800
-9.415200 6.686500
-9.385700 6.891800
-9.356200 14.991800
-9.326700 9.979200
-9.297200 20.377400
-9.267700 22.922400
-9.238200 32.620900
-9.208700 24.310900
-9.179200 36.991900
-9.149800 42.643500
-9.120300 32.659400
-9.090800 26.620900
-9.061300 27.088800
-9.031800 16.393300
-9.002300 2.770900
-8.972800 0.000000
-8.943300 0.000000
-8.913800 0.000000
-8.884300 0.000000
-8.854800 0.000000
-8.825300 0.000000
-8.795800 0.000000
-8.766300 0.000000
-8.736800 0.000000
-8.707300 0.000000
-8.677800 0.000000
-8.648300 0.000000
-8.618800 0.000000
-8.589300 0.000000
-8.559800 0.000000
-8.530300 0.000000
-8.500800 0.000000
-8.471300 0.000000
-8.441800 0.000000
-8.412300 0.000000
-8.382800 0.000000
-8.353300 0.000000
-8.323900 0.000000
-8.294400 0.000000
-8.264900 0.000000
-8.235400 0.000000
-8.205900 0.000000
-8.176400 0.000000
-8.146900 0.000000
-8.117400 0.000000
-8.087900 0.000000
-8.058400 0.000000
-8.028900 0.000000
-7.999400 0.000000
-7.969900 0.000000
-7.940400 0.000000
-7.910900 0.000000
-7.881400 0.000000
-7.851900 0.000000
-7.822400 0.000000
-7.792900 0.000000
-7.763400 0.000000
-7.733900 0.000000
-7.704400 0.000000
-7.674900 0.000000
-7.645400 0.000000
-7.615900 0.000000
-7.586400 0.000000
-7.556900 0.000000
-7.527500 0.000000
-7.498000 0.000000
-7.468500 0.000000
-7.439000 0.000000
-7.409500 0.000000
-7.380000 0.000000
-7.350500 0.000000
-7.321000 0.000000
-7.291500 0.000000
-7.262000 0.000000
-7.232500 0.000000
-7.203000 0.000000
-7.173500 0.000000
-7.144000 0.000000
-7.114500 0.000000
-7.085000 0.000000
-7.055500 0.000000
-7.026000 0.000000
-6.996500 0.000000
-6.967000 0.000000
-6.937500 0.000000
-6.908000 0.000000
-6.878500 0.000000
-6.849000 0.000000
-6.819500 0.000000
-6.790000 0.000000
-6.760500 0.000000
-6.731000 0.000000
-6.701600 0.000000
-6.672100 0.000000
-6.642600 0.000000
-6.613100 0.000000
-6.583600 0.000000
-6.554100 0.000000
-6.524600 0.000000
-6.495100 0.000000
-6.465600 0.000000
-6.436100 0.000000
-6.406600 0.000000
-6.377100 0.000000
-6.347600 0.000000
-6.318100 0.000000
-6.288600 0.000000
-6.259100 0.000000
-6.229600 0.000000
-6.200100 0.000000
-6.170600 0.000000
-6.141100 0.000000
-6.111600 0.000000
-6.082100 0.000000
-6.052600 0.000000
-6.023100 0.000000
-5.993600 0.000000
-5.964100 0.000000
-5.934600 0.000000
-5.905200 0.000000
-5.875700 0.000000
-5.846200 0.000000
-5.816700 0.000000
-5.787200 0.000000
-5.757700 0.000000
-5.728200 0.000000
-5.698700 0.000000
-5.669200 0.000000
-5.639700 0.000000
-5.610200 0.000000
-5.580700 0.000000
-5.551200 0.000000
-5.521700 0.000000
-5.492200 0.000000
-5.462700 0.000000
-5.433200 0.000000
-5.403700 0.000000
-5.374200 0.000000
-5.344700 0.000000
-5.315200 0.000000
-5.285700 0.000000
-5.256200 0.000000
-5.226700 0.000000
-5.197200 0.000000
-5.167700 0.000000
-5.138200 0.000000
-5.108700 0.000000
-5.079300 0.000000
-5.049800 0.000000
-5.020300 0.000000
-4.990800 0.000000
-4.961300 0.000000
-4.931800 0.000000
-4.902300 0.000000
-4.872800 0.000000
-4.843300 0.000000
-4.813800 0.000000
-4.784300 0.000000
-4.754800 0.000000
-4.725300 0.000000
-4.695800 0.000000
-4.666300 0.000000
-4.636800 0.000000
-4.607300 0.000000
-4.577800 0.000000
-4.548300 0.000000
-4.518800 0.000000
-4.489300 0.000000
-4.459800 0.000000
-4.430300 0.000000
-4.400800 0.000000
-4.371300 0.000000
-4.341800 0.000000
-4.312300 0.000000
-4.282900 0.000000
-4.253400 0.000000
-4.223900 0.000000
-4.194400 0.000000
-4.164900 0.000000
-4.135400 0.000000
-4.105900 0.000000
-4.076400 0.000000
-4.046900 0.000000
-4.017400 0.000000
-3.987900 0.000000
-3.958400 0.000000
-3.928900 0.000000
-3.899400 0.000000
-3.869900 0.000000
-3.840400 0.000000
-3.810900 0.000000
-3.781400 0.000000
-3.751900 0.000000
-3.722400 0.000000
-3.692900 0.000000
-3.663400 0.000000
-3.633900 0.000000
-3.604400 0.000000
-3.574900 0.000000
-3.545400 0.000000
-3.515900 0.000000
-3.486400 0.000000
-3.457000 0.000000
-3.427500 0.000000
-3.398000 0.000000
-3.368500 0.000000
-3.339000 0.000000
-3.309500 0.000000
-3.280000 0.000000
-3.250500 0.000000
-3.221000 0.000000
-3.191500 0.000000
-3.162000 0.000000
-3.132500 0.000000
-3.103000 0.000000
-3.073500 0.007000
-3.044000 0.024900
-3.014500 0.049000
-2.985000 0.077800
-2.955500 0.103200
-2.926000 0.117700
-2.896500 0.128200
-2.867000 0.136300
-2.837500 0.145900
-2.808000 0.158700
-2.778500 0.175900
-2.749000 0.195600
-2.719500 0.222600
-2.690000 0.249200
-2.660600 0.265700
-2.631100 0.264100
-2.601600 0.259000
-2.572100 0.254600
-2.542600 0.254500
-2.513100 0.256000
-2.483600 0.258300
-2.454100 0.260200
-2.424600 0.261600
-2.395100 0.261500
-2.365600 0.258700
-2.336100 0.255800
-2.306600 0.254100
-2.277100 0.255100
-2.247600 0.257800
-2.218100 0.260500
-2.188600 0.263200
-2.159100 0.266300
-2.129600 0.269600
-2.100100 0.273100
-2.070600 0.275900
-2.041100 0.277000
-2.011600 0.277200
-1.982100 0.276600
-1.952600 0.275600
-1.923100 0.273500
-1.893600 0.272000
-1.864100 0.271500
-1.834700 0.272600
-1.805200 0.277200
-1.775700 0.289800
-1.746200 0.305300
-1.716700 0.324000
-1.687200 0.344300
-1.657700 0.357000
-1.628200 0.364900
-1.598700 0.372800
-1.569200 0.383300
-1.539700 0.395100
-1.510200 0.409800
-1.480700 0.424200
-1.451200 0.439200
-1.421700 0.454800
-1.392200 0.471100
-1.362700 0.492000
-1.333200 0.509500
-1.303700 0.526800
-1.274200 0.545100
-1.244700 0.566900
-1.215200 0.613600
-1.185700 0.656900
-1.156200 0.681400
-1.126700 0.678300
-1.097200 0.679100
-1.067700 0.690700
-1.038300 0.700800
-1.008800 0.709800
-0.979300 0.713200
-0.949800 0.715500
-0.920300 0.720800
-0.890800 0.731100
-0.861300 0.741200
-0.831800 0.767300
-0.802300 0.833900
-0.772800 0.943900
-0.743300 0.980700
-0.713800 0.988800
-0.684300 0.927700
-0.654800 0.881600
-0.625300 0.846900
-0.595800 0.823000
-0.566300 0.812300
-0.536800 0.817200
-0.507300 0.934800
-0.477800 0.990800
-0.448300 1.025000
-0.418800 1.005200
-0.389300 1.010700
-0.359800 1.036300
-0.330300 1.096300
-0.300800 1.102600
-0.271300 1.088000
-0.241800 1.012500
-0.212400 0.920200
-0.182900 0.841500
-0.153400 0.778200
-0.123900 0.751300
-0.094400 0.723900
-0.064900 0.694800
-0.035400 0.664300
-0.005900 0.628400
0.023600 0.595400
0.053100 0.566700
0.082600 0.547700
0.112100 0.537000
0.141600 0.527200
0.171100 0.517400
0.200600 0.507700
0.230100 0.492900
0.259600 0.481900
0.289100 0.469900
0.318600 0.458000
0.348100 0.444900
0.377600 0.428500
0.407100 0.410200
0.436600 0.398800
0.466100 0.389600
0.495600 0.380300
0.525100 0.371100
0.554600 0.361800
0.584100 0.352600
0.613500 0.362800
0.643000 0.361200
0.672500 0.352900
0.702000 0.345300
0.731500 0.337700
0.761000 0.330100
0.790500 0.322500
0.820000 0.315000
0.849500 0.292700
0.879000 0.280100
0.908500 0.259100
0.938000 0.247400
0.967500 0.235700
0.997000 0.264700
1.026500 0.427200
1.056000 0.193800
1.085500 0.120600
1.115000 0.114100
1.144500 0.107600
1.174000 0.101100
1.203500 0.094600
1.233000 0.115700
1.262500 0.140800
1.292000 0.165500
1.321500 0.046700
1.351000 0.000000
1.380500 0.000000
1.409900 0.000000
1.439400 0.000000
1.468900 0.000000
1.498400 0.000000
1.527900 0.000000
1.557400 0.000000
1.586900 0.000000
1.616400 0.000000
1.645900 0.000000
1.675400 0.000000
1.704900 0.000000
1.734400 0.000000
1.763900 0.000000
1.793400 0.000000
1.822900 0.000000
1.852400 0.000000
1.881900 0.000000
1.911400 0.000000
1.940900 0.000000
1.970400 0.000000
1.999900 0.000000
2.029400 0.000000
2.058900 0.000000
2.088400 0.000000
2.117900 0.000000
2.147400 0.000000
2.176900 0.000000
2.206400 0.000000
2.235800 0.000000
2.265300 0.000000
2.294800 0.000000
2.324300 0.000000
2.353800 0.000000
2.383300 0.000000
2.412800 0.000000
2.442300 0.000000
2.471800 0.000000
2.501300 0.000000
2.530800 0.000000
2.560300 0.000000
2.589800 0.000000
2.619300 0.000000
2.648800 0.000000
2.678300 0.000000
2.707800 0.000000
2.737300 0.000000
2.766800 0.000000
2.796300 0.000000
2.825800 0.000000
2.855300 0.000000
2.884800 0.000000
2.914300 0.000000
2.943800 0.000000
2.973300 0.000000
3.002800 0.000000
3.032200 0.000000
3.061700 0.000000
3.091200 0.000000
3.120700 0.000000
3.150200 0.000000
3.179700 0.000000
3.209200 0.000000
3.238700 0.000000
3.268200 0.000000
3.297700 0.000000
3.327200 0.000000
3.356700 0.000000
3.386200 0.000000
3.415700 0.000000
3.445200 0.000000
3.474700 0.000000
3.504200 0.000000
3.533700 0.000000
3.563200 0.000000
3.592700 0.000000
3.622200 0.000000
3.651700 0.000000
3.681200 0.000000
3.710700 0.000000
3.740200 0.000000
3.769700 0.000000
3.799200 0.000000
3.828700 0.000000
3.858100 0.001500
3.887600 0.009100
3.917100 0.038100
3.946600 0.085500
3.976100 0.152200
4.005600 0.212500
4.035100 0.245000
4.064600 0.267400
4.094100 0.274700
4.123600 0.268700
4.153100 0.266000
4.182600 0.269600
4.212100 0.275500
4.241600 0.282200
4.271100 0.288600
4.300600 0.295200
4.330100 0.303300
4.359600 0.313500
4.389100 0.326500
4.418600 0.337100
4.448100 0.343900
4.477600 0.348400
4.507100 0.363200
4.536600 0.419300
4.566100 0.497600
4.595600 0.601600
4.625100 0.612000
4.654500 0.665600
4.684000 0.767500
4.713500 0.860100
4.743000 0.891000
4.772500 0.841000
4.802000 0.881700
4.831500 0.923200
4.861000 0.956000
4.890500 0.978600
4.920000 0.997100
4.949500 1.085400
4.979000 1.251500
5.008500 1.379700
5.038000 1.570300
5.067500 1.675800
5.097000 1.667900
5.126500 1.686300
5.156000 1.617000
5.185500 1.676300
5.215000 1.627100
5.244500 1.631400
5.274000 1.645200
5.303500 1.531400
5.333000 1.483400
5.362500 1.444600
5.392000 1.407400
5.421500 1.378700
5.451000 1.422300
5.480400 1.383400
5.509900 1.272300
5.539400 1.152900
5.568900 1.032300
5.598400 0.897400
5.627900 0.845700
5.657400 0.668700
5.686900 0.581100
5.716400 0.526000
5.745900 0.487300
5.775400 0.491700
5.804900 0.498600
5.834400 0.519500
5.863900 0.652800
5.893400 0.486100
5.922900 0.487100
5.952400 0.491000
5.981900 0.497600
6.011400 0.506800
6.040900 0.509200
6.070400 0.520800
6.099900 0.540200
6.129400 0.567000
6.158900 0.600600
6.188400 0.641400
6.217900 0.702200
6.247400 0.761600
6.276800 0.860900
6.306300 0.985900
6.335800 1.077900
6.365300 1.100600
6.394800 0.951200
6.424300 0.939400
6.453800 0.949800
6.483300 1.023500
6.512800 1.042400
6.542300 1.045600
6.571800 1.102800
6.601300 1.188600
6.630800 1.262900
6.660300 1.327200
6.689800 1.400700
6.719300 1.488500
6.748800 1.546100
6.778300 1.601600
6.807800 1.574000
6.837300 1.542000
6.866800 1.520900
6.896300 1.519000
6.925800 1.590300
6.955300 1.739900
6.984800 1.932800
7.014300 2.615200
7.043800 2.680200
7.073300 2.399100
7.102700 2.312300
7.132200 2.239400
7.161700 2.192300
7.191200 2.120800
7.220700 2.090000
7.250200 2.135800
7.279700 2.182000
7.309200 2.249800
7.338700 2.362800
7.368200 2.392700
7.397700 2.723800
7.427200 2.392600
7.456700 1.902300
7.486200 1.703200
7.515700 1.721600
7.545200 1.936600
7.574700 2.575100
7.604200 3.622400
7.633700 3.780100
7.663200 2.984100
7.692700 3.370500
7.722200 5.571100
7.751700 7.219100
7.781200 9.393600
7.810700 9.001500
7.840200 7.038900
7.869700 12.753800
7.899100 17.033200
7.928600 16.204600
7.958100 15.089900
7.987600 9.534000
8.017100 10.303700
8.046600 7.996700
8.076100 10.282300
8.105600 5.227500
8.135100 7.872200
8.164600 10.160300
8.194100 14.555900
8.223600 8.830000
8.253100 4.787600
8.282600 7.094700
8.312100 4.995300
8.341600 4.288900
8.371100 2.764800
8.400600 2.244100
8.430100 1.985300
8.459600 1.654500
8.489100 1.551800
8.518600 1.719700
8.548100 1.872600
8.577600 1.623800
8.607100 1.862500
8.636600 2.271200
8.666100 1.965600
8.695600 1.734900
8.725000 1.468800
8.754500 1.361200
8.784000 1.301500
8.813500 1.237600
8.843000 1.167100
8.872500 1.125000
8.902000 1.090800
8.931500 1.059200
8.961000 1.041800
8.990500 1.024600
9.020000 1.010500
9.049500 0.996000
9.079000 0.969800
9.108500 0.938900
9.138000 0.905200
9.167500 0.888500
9.197000 0.839400
9.226500 0.758700
9.256000 0.668500
9.285500 0.687100
9.315000 0.747500
9.344500 0.858300
9.374000 0.861900
9.403500 0.716800
9.433000 0.757700
9.462500 0.754400
9.492000 0.748800
9.521400 0.744900
9.550900 0.725500
9.580400 0.715000
9.609900 0.706500
9.639400 0.731800
9.668900 0.746200
9.698400 0.752700
9.727900 0.749600
9.757400 0.735300
9.786900 0.711100
9.816400 0.775500
9.845900 0.842700
9.875400 0.864100
9.904900 0.904100
9.934400 0.944300
9.963900 0.997300
9.993400 1.079900
10.022900 1.181300
10.052400 1.286400
10.081900 1.458600
10.111400 1.706000
10.140900 1.993400
10.170400 1.653500
10.199900 1.733400
10.229400 1.825200
10.258900 1.953200
10.288400 2.041000
10.317900 2.073100
10.347300 2.109000
10.376800 2.092500
10.406300 2.012500
10.435800 1.891200
10.465300 1.825900
10.494800 1.743500
10.524300 1.594600
10.553800 1.418300
10.583300 1.300700
10.612800 1.252100
10.642300 1.282800
10.671800 1.304500
10.701300 1.350100
10.730800 1.401900
10.760300 1.453300
10.789800 1.509800
10.819300 1.570300
10.848800 1.571900
10.878300 1.545800
10.907800 1.514800
10.937300 1.511400
10.966800 1.507700
10.996300 1.490700
11.025800 1.493700
11.055300 1.485100
11.084800 1.475500
11.114300 1.504300
11.143700 1.545700
11.173200 1.584200
11.202700 1.613600
11.232200 1.588000
11.261700 1.549500
11.291200 1.529200
11.320700 1.509300
11.350200 1.492400
11.379700 1.466700
11.409200 1.443800
11.438700 1.451600
11.468200 1.496400
11.497700 1.357800
11.527200 1.306100
11.556700 1.285100
11.586200 1.262100
11.615700 1.248800
11.645200 1.250100
11.674700 1.328600
11.704200 1.310300
11.733700 1.266700
11.763200 1.200800
11.792700 1.110400
11.822200 1.063400
11.851700 1.055600
11.881200 1.064900
11.910700 1.114300
11.940200 1.074300
11.969600 1.063200
11.999100 1.104100
12.028600 1.196800
12.058100 1.216300
12.087600 1.204500
12.117100 1.092600
12.146600 1.036900
12.176100 1.002000
12.205600 0.999300
12.235100 0.990000
12.264600 0.998200
12.294100 0.985100
12.323600 0.969300
12.353100 0.924800
12.382600 0.891000
12.412100 0.892500
12.441600 0.939500
12.471100 0.997700
12.500600 1.002100
12.530100 1.019800
12.559600 1.052800
12.589100 1.080200
12.618600 1.111100
12.648100 1.143300
12.677600 1.157300
12.707100 1.144700
12.736600 1.175700
12.766000 1.240100
12.795500 1.222100
12.825000 1.219900
12.854500 1.220700
12.884000 1.212000
12.913500 1.169000
12.943000 1.132000
12.972500 1.108300
13.002000 1.119400
13.031500 1.138600
13.061000 1.174200
13.090500 1.187800
13.120000 1.146200
13.149500 1.099700
13.179000 1.081500
13.208500 1.132300
13.238000 1.161900
13.267500 1.190000
13.297000 1.208900
13.326500 1.186800
13.356000 1.177100
13.385500 1.176100
13.415000 1.134600
13.444500 1.099000
13.474000 1.082100
13.503500 1.064800
13.533000 1.050600
13.562500 1.051200
13.591900 1.039300
13.621400 1.053600
13.650900 1.057600
13.680400 1.064600
13.709900 1.071900
13.739400 1.073300
13.768900 1.087300
13.798400 1.119500
13.827900 1.107000
13.857400 1.113100
13.886900 1.156800
13.916400 1.213600
13.945900 1.272700
13.975400 1.323900
14.004900 1.337800
14.034400 1.366100
14.063900 1.383700
14.093400 1.378200
14.122900 1.368000
14.152400 1.319100
14.181900 1.226800
14.211400 1.108500
14.240900 1.019400
14.270400 0.968100
14.299900 0.925700
14.329400 0.894300
14.358900 0.865000
14.388300 0.851800
14.417800 0.846000
14.447300 0.842200
14.476800 0.839500
14.506300 0.837500
14.535800 0.836500
14.565300 0.836600
14.594800 0.842500
14.624300 0.859200
14.653800 0.875600
14.683300 0.921500
14.712800 0.967200
14.742300 1.007800
14.771800 0.986400
14.801300 0.969300
14.830800 0.956100
14.860300 0.943600
14.889800 0.922600
14.919300 0.892600
14.948800 0.856200
14.978300 0.792100
15.007800 0.763300
15.037300 0.745100
15.066800 0.818600
15.096300 0.764100
15.125800 0.645500
15.155300 0.647000
15.184800 0.658700
15.214200 0.687600
15.243700 0.690800
15.273200 0.670500
15.302700 0.656900
15.332200 0.646800
15.361700 0.654800
15.391200 0.634500
15.420700 0.641500
15.450200 0.642200
15.479700 0.650000
15.509200 0.658500
15.538700 0.615600
15.568200 0.594000
15.597700 0.601200
15.627200 0.608800
15.656700 0.617300
15.686200 0.628900
15.715700 0.630300
15.745200 0.607800
15.774700 0.626500
15.804200 0.659800
15.833700 0.695000
15.863200 0.674800
15.892700 0.678600
15.922200 0.663200
15.951700 0.665400
15.981200 0.682400
16.010700 0.751900
16.040100 0.773500
16.069600 0.798800
16.099100 0.797200
16.128600 0.823000
16.158100 0.854300
16.187600 0.888000
16.217100 0.927000
16.246600 0.968600
16.276100 0.985000
16.305600 0.976800
16.335100 0.982000
16.364600 0.983500
16.394100 1.004700
16.423600 1.032900
16.453100 1.048000
16.482600 1.060100
16.512100 1.085100
16.541600 1.118800
16.571100 1.153300
16.600600 1.185300
16.630100 1.227200
16.659600 1.265100
16.689100 1.293300
16.718600 1.307300
16.748100 1.344900
16.777600 1.386600
16.807100 1.435400
16.836500 1.525400
16.866000 2.000300
16.895500 1.834600
16.925000 1.852000
16.954500 1.721300
16.984000 1.597200
17.013500 1.570800
17.043000 1.575100
17.072500 1.558600
17.102000 1.544600
17.131500 1.571400
17.161000 1.661700
17.190500 1.910900
17.220000 2.126900
17.249500 1.762400
17.279000 1.606200
17.308500 1.506800
17.338000 1.431700
17.367500 1.350800
17.397000 1.292000
17.426500 1.271800
17.456000 1.259300
17.485500 1.246300
17.515000 1.253000
17.544500 1.306800
17.574000 1.370700
17.603500 1.383300
17.633000 1.380700
17.662400 1.415800
17.691900 1.409700
17.721400 1.400000
17.750900 1.395000
17.780400 1.423600
17.809900 1.450400
17.839400 1.436000
17.868900 1.424800
17.898400 1.403000
17.927900 1.383600
17.957400 1.365100
17.986900 1.352200
18.016400 1.351500
18.045900 1.375500
18.075400 1.377500
18.104900 1.401000
18.134400 1.498300
18.163900 1.468300
18.193400 1.419000
18.222900 1.423200
18.252400 1.417600
18.281900 1.369300
18.311400 1.357100
18.340900 1.357900
18.370400 1.206900
18.399900 1.102400
18.429400 1.065800
18.458800 1.041000
18.488300 1.053000
18.517800 0.999500
18.547300 0.991800
18.576800 1.011900
18.606300 1.050900
18.635800 1.111400
18.665300 1.201700
18.694800 1.307500
18.724300 1.343700
18.753800 1.337600
18.783300 1.485300
18.812800 1.429000
18.842300 1.450400
18.871800 1.396700
18.901300 1.334700
18.930800 1.290600
18.960300 1.265000
18.989800 1.325500
19.019300 1.281000
19.048800 1.316700
19.078300 1.337400
19.107800 1.398700
19.137300 1.324000
19.166800 1.350200
19.196300 1.383100
19.225800 1.546900
19.255300 1.539800
19.284700 1.503200
19.314200 1.494800
19.343700 1.422500
19.373200 1.318000
19.402700 1.280300
19.432200 1.286000
19.461700 1.229400
19.491200 1.165300
19.520700 1.131100
19.550200 1.114800
19.579700 1.126300
19.609200 1.165200
19.638700 1.210800
19.668200 1.274700
19.697700 1.337800
19.727200 1.433900
19.756700 1.704200
19.786200 1.649400
19.815700 1.451700
19.845200 1.477800
19.874700 1.353800
19.904200 1.334000
19.933700 1.301800
19.963200 1.331400
19.992700 1.329400
20.022200 1.309800
20.051700 1.311600
20.081100 1.334700
20.110600 1.314800
20.140100 1.276300
20.169600 1.223200
20.199100 1.179200
20.228600 1.157200
20.258100 1.139100
20.287600 1.116400
20.317100 1.118100
20.346600 1.127400
20.376100 1.147100
20.405600 1.166900
20.435100 1.169800
20.464600 1.182300
20.494100 1.161700
20.523600 1.137700
20.553100 1.099100
20.582600 1.040000
20.612100 1.014000
20.641600 0.998600
20.671100 0.998400
20.700600 1.042400
20.730100 1.100100
20.759600 1.127900
20.789100 1.198100
20.818600 1.246700
20.848100 1.313100
20.877600 1.381800
20.907000 1.447100
20.936500 1.427000
20.966000 1.500700
20.995500 1.553600
21.025000 1.522800
21.054500 1.505000
21.084000 1.476600
21.113500 1.478300
21.143000 1.450500
21.172500 1.474800
21.202000 1.432600
21.231500 1.349000
21.261000 1.312900
21.290500 1.315300
21.320000 1.328300
21.349500 1.355800
21.379000 1.420800
21.408500 1.407800
21.438000 1.413300
21.467500 1.436200
21.497000 1.459900
21.526500 1.457600
21.556000 1.457300
21.585500 1.460900
21.615000 1.473600
21.644500 1.493200
21.674000 1.515900
21.703400 1.544300
21.732900 1.561700
21.762400 1.560100
21.791900 1.612800
21.821400 1.700000
21.850900 1.775900
21.880400 1.840700
21.909900 1.884600
21.939400 1.935700
21.968900 1.982400
21.998400 1.906800
22.027900 1.839400
22.057400 1.725400
22.086900 1.638200
22.116400 1.565000
22.145900 1.492000
22.175400 1.449400
22.204900 1.455100
22.234400 1.477100
22.263900 1.435200
22.293400 1.422500
22.322900 1.441700
22.352400 1.465500
22.381900 1.487700
22.411400 1.508400
22.440900 1.555400
22.470400 1.599000
22.499900 1.641300
22.529300 1.646700
22.558800 1.692900
22.588300 1.732800
22.617800 1.754800
22.647300 1.774100
22.676800 1.766900
22.706300 1.834700
22.735800 1.828600
22.765300 1.849600
22.794800 1.874500
22.824300 1.892300
22.853800 1.882700
22.883300 1.860800
22.912800 1.830800
22.942300 1.802300
22.971800 1.735700
23.001300 1.701600
23.030800 1.807800
23.060300 1.922700
23.089800 1.774100
23.119300 1.734200
23.148800 1.783100
23.178300 1.692300
23.207800 1.731900
23.237300 1.779800
23.266800 1.803600
23.296300 1.804000
23.325700 1.796100
23.355200 1.774900
23.384700 1.790000
23.414200 1.783900
23.443700 1.821400
23.473200 1.888900
23.502700 1.854900
23.532200 1.840100
23.561700 1.775700
23.591200 1.756600
23.620700 1.737200
23.650200 1.825100
23.679700 1.870000
23.709200 1.926200
23.738700 1.878500
23.768200 1.823700
23.797700 1.747900
23.827200 1.661700
23.856700 1.564200
23.886200 1.485900
23.915700 1.430500
23.945200 1.378300
23.974700 1.301900
24.004200 1.267200
24.033700 1.191600
24.063200 1.086200
24.092700 1.092400
24.122200 1.148200
24.151600 1.193500
24.181100 0.809200
24.210600 0.722900
24.240100 0.687800
24.269600 0.661000
24.299100 0.637700
24.328600 0.618000
24.358100 0.605000
24.387600 0.600000
24.417100 0.601800
24.446600 0.625600
24.476100 0.652600
24.505600 0.649600
24.535100 0.644700
24.564600 0.639100
24.594100 0.632800
24.623600 0.626800
24.653100 0.618800
24.682600 0.592600
24.712100 0.569200
24.741600 0.560700
24.771100 0.546800
24.800600 0.532100
24.830100 0.526200
24.859600 0.523800
24.889100 0.527800
24.918600 0.533900
24.948000 0.541800
24.977500 0.540000
25.007000 0.525100
25.036500 0.511800
25.066000 0.497300
25.095500 0.481500
25.125000 0.465700
25.154500 0.456900
25.184000 0.458300
25.213500 0.428300
25.243000 0.409600
25.272500 0.393400
25.302000 0.380700
25.331500 0.369900
25.361000 0.364000
25.390500 0.365100
25.420000 0.375400
25.449500 0.355000
25.479000 0.350100
25.508500 0.340400
25.538000 0.330000
25.567500 0.319100
25.597000 0.304000
25.626500 0.288100
25.656000 0.281600
25.685500 0.276800
25.715000 0.272200
25.744500 0.267900
25.773900 0.363000
25.803400 0.378200
25.832900 0.308100
25.862400 0.272500
25.891900 0.202300
25.921400 0.160600
25.950900 0.228400
25.980400 0.301100
26.009900 0.471700
26.039400 0.533200
26.068900 0.497500
26.098400 0.259700
26.127900 0.183300
26.157400 0.122600
26.186900 0.077700
26.216400 0.045800
26.245900 0.021400
26.275400 0.000000
26.304900 0.000000
26.334400 0.000000
26.363900 0.000000
26.393400 0.000000
26.422900 0.000000
26.452400 0.000000
26.481900 0.000000
26.511400 0.000000
26.540900 0.000000
26.570300 0.000000
26.599800 0.000000
26.629300 0.000000
26.658800 0.000000
26.688300 0.000000
26.717800 0.000000
26.747300 0.000000
26.776800 0.000000
26.806300 0.000000
26.835800 0.000000
26.865300 0.000000
26.894800 0.000000
26.924300 0.000000
26.953800 0.000000
26.983300 0.000000
27.012800 0.000000
27.042300 0.000000
27.071800 0.000000
27.101300 0.000000
27.130800 0.000000
27.160300 0.000000
27.189800 0.000000
27.219300 0.000000
27.248800 0.000000
27.278300 0.000000
27.307800 0.000000
27.337300 0.000000
27.366800 0.000000
27.396200 0.000000
27.425700 0.000000
27.455200 0.000000
27.484700 0.000000
27.514200 0.000000
27.543700 0.000000
27.573200 0.000000
27.602700 0.000000
27.632200 0.000000
27.661700 0.000000
27.691200 0.000000
27.720700 0.000000
27.750200 0.000000
27.779700 0.000000
27.809200 0.000000
27.838700 0.000000
27.868200 0.000000
27.897700 0.000000
27.927200 0.000000
27.956700 0.000000
27.986200 0.000000
28.015700 0.000000
28.045200 0.000000
28.074700 0.000000
28.104200 0.000000
28.133700 0.000000
28.163200 0.000000
28.192600 0.000000
28.222100 0.000000
28.251600 0.000000
28.281100 0.000000
28.310600 0.000000
28.340100 0.000000
28.369600 0.000000
28.399100 0.000000
28.428600 0.000000
28.458100 0.000000
28.487600 0.000000
28.517100 0.000000
28.546600 0.000000
28.576100 0.000000
28.605600 0.000000
28.635100 0.000000
28.664600 0.000000
28.694100 0.000000
28.723600 0.000000
28.753100 0.000000
28.782600 0.000000
28.812100 0.000000
28.841600 0.000000
28.871100 0.000000
28.900600 0.000000
28.930100 0.000000
28.959600 0.000000
28.989100 0.000000
e
