set title 'mp-32994 - Density of States'
set xlabel 'Energy (eV)'
set ylabel 'DOS (states/eV)'
set grid
set xrange [-10:10]
set yrange [0:12.501]
set xzeroaxis lt -1
set terminal png size 800,600
set output 'mp-32994_dos_gnuplot.png'
plot '-' using 1:2 with lines title 'DOS'
-27.098700 0.000000
-27.070500 0.000000
-27.042400 0.000000
-27.014200 0.000000
-26.986000 0.000000
-26.957900 0.000000
-26.929700 0.000000
-26.901600 0.000000
-26.873400 0.000000
-26.845200 0.000000
-26.817100 0.000000
-26.788900 0.000000
-26.760700 0.000000
-26.732600 0.000000
-26.704400 0.000000
-26.676200 0.000000
-26.648100 0.000000
-26.619900 0.000000
-26.591800 0.000000
-26.563600 0.000000
-26.535400 0.000000
-26.507300 0.000000
-26.479100 0.000000
-26.450900 0.000000
-26.422800 0.000000
-26.394600 0.000000
-26.366500 0.000000
-26.338300 0.000000
-26.310100 0.000000
-26.282000 0.000000
-26.253800 0.000000
-26.225600 0.000000
-26.197500 0.000000
-26.169300 0.000000
-26.141100 0.000000
-26.113000 0.000000
-26.084800 0.000000
-26.056700 0.000000
-26.028500 0.000000
-26.000300 0.000000
-25.972200 0.000000
-25.944000 0.000000
-25.915800 0.000000
-25.887700 0.000000
-25.859500 0.000000
-25.831300 0.000000
-25.803200 0.000000
-25.775000 0.000000
-25.746900 0.000000
-25.718700 0.000000
-25.690500 0.000000
-25.662400 0.000000
-25.634200 0.000000
-25.606000 0.000000
-25.577900 0.000000
-25.549700 0.000000
-25.521500 0.000000
-25.493400 0.000000
-25.465200 0.000000
-25.437100 0.000000
-25.408900 0.000000
-25.380700 0.000000
-25.352600 0.000000
-25.324400 0.000000
-25.296200 0.000000
-25.268100 0.000000
-25.239900 0.000000
-25.211700 0.000000
-25.183600 0.000000
-25.155400 0.000000
-25.127300 0.000000
-25.099100 0.000000
-25.070900 0.000000
-25.042800 0.000000
-25.014600 0.000000
-24.986400 0.000000
-24.958300 0.000000
-24.930100 0.000000
-24.902000 0.000000
-24.873800 0.000000
-24.845600 0.000000
-24.817500 0.000000
-24.789300 0.000000
-24.761100 0.000000
-24.733000 0.000000
-24.704800 0.000000
-24.676600 0.000000
-24.648500 0.000500
-24.620300 0.006600
-24.592200 0.053700
-24.564000 0.264600
-24.535800 0.833900
-24.507700 1.827200
-24.479500 3.088600
-24.451300 4.473200
-24.423200 6.184300
-24.395000 8.764100
-24.366800 12.495900
-24.338700 16.870000
-24.310500 20.498700
-24.282400 22.127100
-24.254200 22.233300
-24.226000 22.114300
-24.197900 21.580600
-24.169700 19.770200
-24.141500 16.974900
-24.113400 15.248400
-24.085200 16.623900
-24.057000 20.211700
-24.028900 23.133500
-24.000700 23.793500
-23.972600 23.193800
-23.944400 22.364600
-23.916200 21.130000
-23.888100 19.221400
-23.859900 16.461100
-23.831700 12.685300
-23.803600 8.493200
-23.775400 6.599400
-23.747200 10.076100
-23.719100 19.209300
-23.690900 30.924900
-23.662800 40.550200
-23.634600 44.918200
-23.606400 44.157800
-23.578300 39.701600
-23.550100 33.219000
-23.521900 27.212600
-23.493800 23.095700
-23.465600 20.362400
-23.437500 19.074000
-23.409300 19.337800
-23.381100 18.932300
-23.353000 15.454300
-23.324800 9.824700
-23.296600 4.727200
-23.268500 1.634200
-23.240300 0.375800
-23.212100 0.053600
-23.184000 0.004500
-23.155800 0.000200
-23.127700 0.000000
-23.099500 0.000000
-23.071300 0.000000
-23.043200 0.000000
-23.015000 0.000000
-22.986800 0.000000
-22.958700 0.000000
-22.930500 0.000000
-22.902300 0.000000
-22.874200 0.000000
-22.846000 0.000000
-22.817900 0.000000
-22.789700 0.000000
-22.761500 0.000000
-22.733400 0.000000
-22.705200 0.000000
-22.677000 0.000000
-22.648900 0.000000
-22.620700 0.000000
-22.592500 0.000000
-22.564400 0.000000
-22.536200 0.000000
-22.508100 0.000000
-22.479900 0.000000
-22.451700 0.000000
-22.423600 0.000000
-22.395400 0.000000
-22.367200 0.000000
-22.339100 0.000000
-22.310900 0.000000
-22.282700 0.000000
-22.254600 0.000000
-22.226400 0.000000
-22.198300 0.000000
-22.170100 0.000000
-22.141900 0.000000
-22.113800 0.000000
-22.085600 0.000000
-22.057400 0.000000
-22.029300 0.000000
-22.001100 0.000000
-21.973000 0.000000
-21.944800 0.000000
-21.916600 0.000000
-21.888500 0.000000
-21.860300 0.000000
-21.832100 0.000000
-21.804000 0.000000
-21.775800 0.000000
-21.747600 0.000000
-21.719500 0.000000
-21.691300 0.000000
-21.663200 0.000000
-21.635000 0.000000
-21.606800 0.000000
-21.578700 0.000000
-21.550500 0.000000
-21.522300 0.000000
-21.494200 0.000000
-21.466000 0.000000
-21.437800 0.000000
-21.409700 0.000000
-21.381500 0.000000
-21.353400 0.000000
-21.325200 0.000000
-21.297000 0.000000
-21.268900 0.000000
-21.240700 0.000000
-21.212500 0.000000
-21.184400 0.000000
-21.156200 0.000000
-21.128000 0.000000
-21.099900 0.000000
-21.071700 0.000000
-21.043600 0.000000
-21.015400 0.000000
-20.987200 0.000000
-20.959100 0.000000
-20.930900 0.000000
-20.902700 0.000000
-20.874600 0.000000
-20.846400 0.000000
-20.818200 0.000000
-20.790100 0.000000
-20.761900 0.000000
-20.733800 0.000000
-20.705600 0.000000
-20.677400 0.000000
-20.649300 0.000000
-20.621100 0.000000
-20.592900 0.000000
-20.564800 0.000000
-20.536600 0.000000
-20.508500 0.000000
-20.480300 0.000000
-20.452100 0.000000
-20.424000 0.000000
-20.395800 0.000000
-20.367600 0.000000
-20.339500 0.000000
-20.311300 0.000000
-20.283100 0.000000
-20.255000 0.000000
-20.226800 0.000000
-20.198700 0.000000
-20.170500 0.000000
-20.142300 0.000000
-20.114200 0.000000
-20.086000 0.000000
-20.057800 0.000000
-20.029700 0.000000
-20.001500 0.000000
-19.973300 0.000000
-19.945200 0.000000
-19.917000 0.000000
-19.888900 0.000000
-19.860700 0.000000
-19.832500 0.000000
-19.804400 0.000000
-19.776200 0.000000
-19.748000 0.000000
-19.719900 0.000000
-19.691700 0.000000
-19.663500 0.000000
-19.635400 0.000000
-19.607200 0.000000
-19.579100 0.000000
-19.550900 0.000000
-19.522700 0.000000
-19.494600 0.000000
-19.466400 0.000000
-19.438200 0.000000
-19.410100 0.000000
-19.381900 0.000000
-19.353700 0.000000
-19.325600 0.000000
-19.297400 0.000000
-19.269300 0.000000
-19.241100 0.000000
-19.212900 0.000000
-19.184800 0.000000
-19.156600 0.000000
-19.128400 0.000000
-19.100300 0.000000
-19.072100 0.000000
-19.044000 0.000000
-19.015800 0.000000
-18.987600 0.000000
-18.959500 0.000000
-18.931300 0.000000
-18.903100 0.000000
-18.875000 0.000000
-18.846800 0.000000
-18.818600 0.000000
-18.790500 0.000000
-18.762300 0.000000
-18.734200 0.000000
-18.706000 0.000000
-18.677800 0.000000
-18.649700 0.000000
-18.621500 0.000000
-18.593300 0.000000
-18.565200 0.000000
-18.537000 0.000000
-18.508800 0.000000
-18.480700 0.000000
-18.452500 0.000000
-18.424400 0.000000
-18.396200 0.000000
-18.368000 0.000000
-18.339900 0.000000
-18.311700 0.000000
-18.283500 0.000000
-18.255400 0.000000
-18.227200 0.000000
-18.199000 0.000000
-18.170900 0.000000
-18.142700 0.000000
-18.114600 0.000000
-18.086400 0.000000
-18.058200 0.000000
-18.030100 0.000000
-18.001900 0.000000
-17.973700 0.000000
-17.945600 0.000000
-17.917400 0.000000
-17.889200 0.000000
-17.861100 0.000000
-17.832900 0.000000
-17.804800 0.000000
-17.776600 0.000000
-17.748400 0.000000
-17.720300 0.000000
-17.692100 0.000000
-17.663900 0.000000
-17.635800 0.000000
-17.607600 0.000000
-17.579500 0.000000
-17.551300 0.000000
-17.523100 0.000000
-17.495000 0.000000
-17.466800 0.000000
-17.438600 0.000000
-17.410500 0.000000
-17.382300 0.000000
-17.354100 0.000000
-17.326000 0.000000
-17.297800 0.000000
-17.269700 0.000000
-17.241500 0.000000
-17.213300 0.000000
-17.185200 0.000000
-17.157000 0.000000
-17.128800 0.000000
-17.100700 0.000000
-17.072500 0.000000
-17.044300 0.000000
-17.016200 0.000000
-16.988000 0.000000
-16.959900 0.000000
-16.931700 0.000000
-16.903500 0.000000
-16.875400 0.000000
-16.847200 0.000000
-16.819000 0.000000
-16.790900 0.000000
-16.762700 0.000000
-16.734500 0.000000
-16.706400 0.000000
-16.678200 0.000000
-16.650100 0.000000
-16.621900 0.000000
-16.593700 0.000000
-16.565600 0.000000
-16.537400 0.000000
-16.509200 0.000000
-16.481100 0.000000
-16.452900 0.000000
-16.424700 0.000000
-16.396600 0.000000
-16.368400 0.000000
-16.340300 0.000000
-16.312100 0.000000
-16.283900 0.000000
-16.255800 0.000000
-16.227600 0.000000
-16.199400 0.000000
-16.171300 0.000000
-16.143100 0.000000
-16.115000 0.000000
-16.086800 0.000000
-16.058600 0.000000
-16.030500 0.000000
-16.002300 0.000000
-15.974100 0.000000
-15.946000 0.000000
-15.917800 0.000000
-15.889600 0.000000
-15.861500 0.000000
-15.833300 0.000000
-15.805200 0.000000
-15.777000 0.000000
-15.748800 0.000000
-15.720700 0.000000
-15.692500 0.000000
-15.664300 0.000000
-15.636200 0.000000
-15.608000 0.000000
-15.579800 0.000000
-15.551700 0.000000
-15.523500 0.000000
-15.495400 0.000000
-15.467200 0.000000
-15.439000 0.000000
-15.410900 0.000000
-15.382700 0.000000
-15.354500 0.000000
-15.326400 0.000000
-15.298200 0.000000
-15.270000 0.000000
-15.241900 0.000000
-15.213700 0.000000
-15.185600 0.000000
-15.157400 0.000000
-15.129200 0.000000
-15.101100 0.000000
-15.072900 0.000000
-15.044700 0.000000
-15.016600 0.000000
-14.988400 0.000000
-14.960200 0.000000
-14.932100 0.000000
-14.903900 0.000000
-14.875800 0.000000
-14.847600 0.000000
-14.819400 0.000000
-14.791300 0.000000
-14.763100 0.000000
-14.734900 0.000000
-14.706800 0.000000
-14.678600 0.000000
-14.650500 0.000000
-14.622300 0.000000
-14.594100 0.000000
-14.566000 0.000000
-14.537800 0.000000
-14.509600 0.000000
-14.481500 0.000000
-14.453300 0.000000
-14.425100 0.000000
-14.397000 0.000000
-14.368800 0.000000
-14.340700 0.000000
-14.312500 0.000000
-14.284300 0.000000
-14.256200 0.000000
-14.228000 0.000000
-14.199800 0.000000
-14.171700 0.000000
-14.143500 0.000000
-14.115300 0.000000
-14.087200 0.000000
-14.059000 0.000000
-14.030900 0.000000
-14.002700 0.000000
-13.974500 0.000000
-13.946400 0.000000
-13.918200 0.000000
-13.890000 0.000000
-13.861900 0.000000
-13.833700 0.000000
-13.805500 0.000000
-13.777400 0.000000
-13.749200 0.000000
-13.721100 0.000000
-13.692900 0.000000
-13.664700 0.000000
-13.636600 0.000000
-13.608400 0.000000
-13.580200 0.000000
-13.552100 0.000000
-13.523900 0.000000
-13.495800 0.000000
-13.467600 0.000000
-13.439400 0.000000
-13.411300 0.000000
-13.383100 0.000000
-13.354900 0.000000
-13.326800 0.000000
-13.298600 0.000000
-13.270400 0.000000
-13.242300 0.000000
-13.214100 0.000000
-13.186000 0.000000
-13.157800 0.000000
-13.129600 0.000000
-13.101500 0.000000
-13.073300 0.000000
-13.045100 0.000000
-13.017000 0.000000
-12.988800 0.000000
-12.960600 0.000000
-12.932500 0.000000
-12.904300 0.000000
-12.876200 0.000000
-12.848000 0.000000
-12.819800 0.000000
-12.791700 0.000000
-12.763500 0.000000
-12.735300 0.000000
-12.707200 0.000000
-12.679000 0.000000
-12.650800 0.000000
-12.622700 0.000000
-12.594500 0.000000
-12.566400 0.000000
-12.538200 0.000000
-12.510000 0.000000
-12.481900 0.000000
-12.453700 0.000000
-12.425500 0.000000
-12.397400 0.000000
-12.369200 0.000000
-12.341000 0.000000
-12.312900 0.000000
-12.284700 0.000000
-12.256600 0.000000
-12.228400 0.000000
-12.200200 0.000000
-12.172100 0.000000
-12.143900 0.000000
-12.115700 0.000000
-12.087600 0.000000
-12.059400 0.000000
-12.031300 0.000000
-12.003100 0.000000
-11.974900 0.000000
-11.946800 0.000000
-11.918600 0.000000
-11.890400 0.000000
-11.862300 0.000000
-11.834100 0.000000
-11.805900 0.000000
-11.777800 0.000000
-11.749600 0.000000
-11.721500 0.000000
-11.693300 0.000000
-11.665100 0.000000
-11.637000 0.000000
-11.608800 0.000000
-11.580600 0.000000
-11.552500 0.000000
-11.524300 0.000000
-11.496100 0.000000
-11.468000 0.000000
-11.439800 0.000000
-11.411700 0.000000
-11.383500 0.000000
-11.355300 0.000000
-11.327200 0.000000
-11.299000 0.000000
-11.270800 0.000000
-11.242700 0.000000
-11.214500 0.000000
-11.186300 0.000000
-11.158200 0.000000
-11.130000 0.000000
-11.101900 0.000000
-11.073700 0.000000
-11.045500 0.000000
-11.017400 0.000000
-10.989200 0.000000
-10.961000 0.000000
-10.932900 0.000000
-10.904700 0.000000
-10.876500 0.000000
-10.848400 0.000000
-10.820200 0.000000
-10.792100 0.000000
-10.763900 0.000000
-10.735700 0.000000
-10.707600 0.000000
-10.679400 0.000000
-10.651200 0.000000
-10.623100 0.000000
-10.594900 0.000000
-10.566800 0.000000
-10.538600 0.000000
-10.510400 0.000000
-10.482300 0.000000
-10.454100 0.000000
-10.425900 0.000000
-10.397800 0.000000
-10.369600 0.000000
-10.341400 0.000000
-10.313300 0.000000
-10.285100 0.000000
-10.257000 0.000000
-10.228800 0.000000
-10.200600 0.000000
-10.172500 0.000000
-10.144300 0.000000
-10.116100 0.000000
-10.088000 0.000000
-10.059800 0.000000
-10.031600 0.000000
-10.003500 0.000000
-9.975300 0.000000
-9.947200 0.000000
-9.919000 0.000000
-9.890800 0.000000
-9.862700 0.000000
-9.834500 0.000000
-9.806300 0.000300
-9.778200 0.002400
-9.750000 0.012100
-9.721800 0.035500
-9.693700 0.069700
-9.665500 0.112500
-9.637400 0.179200
-9.609200 0.284800
-9.581000 0.378500
-9.552900 0.350400
-9.524700 0.229600
-9.496500 0.208200
-9.468400 0.380500
-9.440200 0.575800
-9.412000 0.596000
-9.383900 0.545100
-9.355700 0.599900
-9.327600 0.672300
-9.299400 0.609500
-9.271200 0.506600
-9.243100 0.520000
-9.214900 0.694100
-9.186700 0.912900
-9.158600 0.982300
-9.130400 1.000100
-9.102300 1.090200
-9.074100 1.080800
-9.045900 1.059600
-9.017800 1.254100
-8.989600 1.348400
-8.961400 1.154800
-8.933300 1.114600
-8.905100 1.516200
-8.876900 2.129100
-8.848800 2.621000
-8.820600 2.975200
-8.792500 3.203300
-8.764300 3.264800
-8.736100 3.385600
-8.708000 3.828600
-8.679800 4.561900
-8.651600 5.166800
-8.623500 5.410800
-8.595300 5.246600
-8.567100 4.619100
-8.539000 4.065200
-8.510800 4.189100
-8.482700 4.800600
-8.454500 5.256800
-8.426300 5.265200
-8.398200 5.190600
-8.370000 5.406800
-8.341800 5.952700
-8.313700 6.444600
-8.285500 6.290600
-8.257300 5.712200
-8.229200 5.579200
-8.201000 5.939500
-8.172900 6.066300
-8.144700 5.778500
-8.116500 5.218500
-8.088400 4.612100
-8.060200 4.610600
-8.032000 5.212300
-8.003900 5.515500
-7.975700 5.177900
-7.947500 4.529000
-7.919400 3.905900
-7.891200 3.419900
-7.863100 2.973300
-7.834900 2.637200
-7.806700 2.433600
-7.778600 2.086600
-7.750400 1.586300
-7.722200 1.231300
-7.694100 1.134200
-7.665900 1.252000
-7.637800 1.346400
-7.609600 1.197100
-7.581400 0.862700
-7.553300 0.589300
-7.525100 0.565700
-7.496900 0.682700
-7.468800 0.664600
-7.440600 0.482900
-7.412400 0.310200
-7.384300 0.197900
-7.356100 0.114100
-7.328000 0.049000
-7.299800 0.013200
-7.271600 0.002100
-7.243500 0.000200
-7.215300 0.000000
-7.187100 0.000000
-7.159000 0.000000
-7.130800 0.000000
-7.102600 0.000000
-7.074500 0.000000
-7.046300 0.000000
-7.018200 0.000000
-6.990000 0.000000
-6.961800 0.000000
-6.933700 0.000000
-6.905500 0.000000
-6.877300 0.000000
-6.849200 0.000000
-6.821000 0.000000
-6.792800 0.000000
-6.764700 0.000000
-6.736500 0.000000
-6.708400 0.000000
-6.680200 0.000000
-6.652000 0.000000
-6.623900 0.000000
-6.595700 0.000000
-6.567500 0.000000
-6.539400 0.000000
-6.511200 0.000000
-6.483000 0.000000
-6.454900 0.000000
-6.426700 0.000000
-6.398600 0.000000
-6.370400 0.000000
-6.342200 0.000000
-6.314100 0.000000
-6.285900 0.000000
-6.257700 0.000000
-6.229600 0.000000
-6.201400 0.000000
-6.173300 0.000000
-6.145100 0.000000
-6.116900 0.000000
-6.088800 0.000000
-6.060600 0.000000
-6.032400 0.000000
-6.004300 0.000000
-5.976100 0.000000
-5.947900 0.000000
-5.919800 0.000000
-5.891600 0.000000
-5.863500 0.000000
-5.835300 0.000000
-5.807100 0.000000
-5.779000 0.000000
-5.750800 0.000000
-5.722600 0.000000
-5.694500 0.000000
-5.666300 0.000000
-5.638100 0.000000
-5.610000 0.000000
-5.581800 0.000000
-5.553700 0.000000
-5.525500 0.000000
-5.497300 0.000000
-5.469200 0.000000
-5.441000 0.000000
-5.412800 0.000000
-5.384700 0.000000
-5.356500 0.000000
-5.328300 0.000000
-5.300200 0.000000
-5.272000 0.000000
-5.243900 0.000000
-5.215700 0.000000
-5.187500 0.000000
-5.159400 0.000000
-5.131200 0.000000
-5.103000 0.000000
-5.074900 0.000000
-5.046700 0.000000
-5.018500 0.000000
-4.990400 0.000000
-4.962200 0.000000
-4.934100 0.000000
-4.905900 0.000000
-4.877700 0.000000
-4.849600 0.000000
-4.821400 0.000000
-4.793200 0.000000
-4.765100 0.000000
-4.736900 0.000000
-4.708800 0.000000
-4.680600 0.000000
-4.652400 0.000000
-4.624300 0.000000
-4.596100 0.000000
-4.567900 0.000000
-4.539800 0.000000
-4.511600 0.000000
-4.483400 0.000000
-4.455300 0.000000
-4.427100 0.000000
-4.399000 0.000000
-4.370800 0.000000
-4.342600 0.000000
-4.314500 0.000000
-4.286300 0.000000
-4.258100 0.000000
-4.230000 0.000000
-4.201800 0.000000
-4.173600 0.000000
-4.145500 0.000000
-4.117300 0.000000
-4.089200 0.000000
-4.061000 0.000000
-4.032800 0.000000
-4.004700 0.000000
-3.976500 0.000000
-3.948300 0.000000
-3.920200 0.000000
-3.892000 0.000000
-3.863800 0.000000
-3.835700 0.000000
-3.807500 0.000000
-3.779400 0.000000
-3.751200 0.000000
-3.723000 0.000000
-3.694900 0.000000
-3.666700 0.000000
-3.638500 0.000000
-3.610400 0.000000
-3.582200 0.000000
-3.554000 0.000000
-3.525900 0.000000
-3.497700 0.000000
-3.469600 0.000000
-3.441400 0.000000
-3.413200 0.000000
-3.385100 0.000000
-3.356900 0.000000
-3.328700 0.000000
-3.300600 0.000000
-3.272400 0.000000
-3.244300 0.000000
-3.216100 0.000000
-3.187900 0.000000
-3.159800 0.000000
-3.131600 0.000000
-3.103400 0.000000
-3.075300 0.000000
-3.047100 0.000000
-3.018900 0.000000
-2.990800 0.000000
-2.962600 0.000000
-2.934500 0.000000
-2.906300 0.000000
-2.878100 0.000000
-2.850000 0.000000
-2.821800 0.000000
-2.793600 0.000000
-2.765500 0.000000
-2.737300 0.000000
-2.709100 0.000000
-2.681000 0.000000
-2.652800 0.000000
-2.624700 0.000000
-2.596500 0.000000
-2.568300 0.000000
-2.540200 0.000000
-2.512000 0.000000
-2.483800 0.000000
-2.455700 0.000000
-2.427500 0.000000
-2.399300 0.000000
-2.371200 0.000000
-2.343000 0.000000
-2.314900 0.000000
-2.286700 0.000000
-2.258500 0.000000
-2.230400 0.000000
-2.202200 0.000000
-2.174000 0.000000
-2.145900 0.000000
-2.117700 0.000000
-2.089500 0.000000
-2.061400 0.000000
-2.033200 0.000000
-2.005100 0.000000
-1.976900 0.000000
-1.948700 0.000000
-1.920600 0.000000
-1.892400 0.000000
-1.864200 0.000000
-1.836100 0.000000
-1.807900 0.000000
-1.779800 0.000000
-1.751600 0.000000
-1.723400 0.000000
-1.695300 0.000000
-1.667100 0.000000
-1.638900 0.000000
-1.610800 0.000000
-1.582600 0.000000
-1.554400 0.000000
-1.526300 0.000000
-1.498100 0.000000
-1.470000 0.000000
-1.441800 0.000000
-1.413600 0.000000
-1.385500 0.000000
-1.357300 0.000000
-1.329100 0.000000
-1.301000 0.000000
-1.272800 0.000000
-1.244600 0.000000
-1.216500 0.000000
-1.188300 0.000000
-1.160200 0.000000
-1.132000 0.000100
-1.103800 0.001000
-1.075700 0.007800
-1.047500 0.032100
-1.019300 0.073100
-0.991200 0.100100
-0.963000 0.112400
-0.934800 0.167500
-0.906700 0.291900
-0.878500 0.448900
-0.850400 0.551300
-0.822200 0.549000
-0.794000 0.570100
-0.765900 0.705800
-0.737700 0.825500
-0.709500 0.810900
-0.681400 0.667700
-0.653200 0.574500
-0.625000 0.731600
-0.596900 1.045000
-0.568700 1.211700
-0.540600 1.176200
-0.512400 1.239500
-0.484200 1.423700
-0.456100 1.399900
-0.427900 1.179400
-0.399700 1.158900
-0.371600 1.603100
-0.343400 2.253400
-0.315300 2.633100
-0.287100 2.643200
-0.258900 2.457300
-0.230800 2.364800
-0.202600 2.529900
-0.174400 2.792800
-0.146300 2.944100
-0.118100 2.861100
-0.089900 2.787800
-0.061800 3.102000
-0.033600 3.659600
-0.005500 4.056300
0.022700 4.210700
0.050900 4.253500
0.079000 4.142900
0.107200 3.939200
0.135400 3.980900
0.163500 4.244100
0.191700 4.191500
0.219900 3.592100
0.248000 2.944900
0.276200 2.776200
0.304300 2.933900
0.332500 3.252200
0.360700 3.818600
0.388800 4.092900
0.417000 3.634300
0.445200 3.313800
0.473300 3.954600
0.501500 4.785000
0.529700 4.869100
0.557800 4.395800
0.586000 3.641000
0.614100 2.869100
0.642300 2.504000
0.670500 2.493100
0.698600 2.470600
0.726800 2.484400
0.755000 2.738900
0.783100 3.220200
0.811300 3.659400
0.839500 3.596300
0.867600 3.095900
0.895800 2.935000
0.923900 3.429500
0.952100 3.828400
0.980300 3.611200
1.008400 3.255100
1.036600 3.259600
1.064800 3.293900
1.092900 3.073600
1.121100 2.962700
1.149200 2.957100
1.177400 2.759900
1.205600 2.619900
1.233700 2.553600
1.261900 2.301300
1.290100 2.208400
1.318200 2.689200
1.346400 3.492700
1.374600 4.173600
1.402700 4.531800
1.430900 4.797200
1.459000 5.308200
1.487200 5.791700
1.515400 6.140500
1.543500 6.584600
1.571700 6.827000
1.599900 7.039000
1.628000 7.997700
1.656200 9.305900
1.684400 9.762700
1.712500 9.297800
1.740700 8.889500
1.768800 8.995300
1.797000 9.449100
1.825200 9.675800
1.853300 9.199000
1.881500 8.500800
1.909700 8.037200
1.937800 7.811600
1.966000 8.278900
1.994200 9.640700
2.022300 10.960600
2.050500 11.364400
2.078600 11.181900
2.106800 10.765700
2.135000 9.998500
2.163100 9.106200
2.191300 8.440400
2.219500 8.031300
2.247600 7.919000
2.275800 8.045000
2.303900 7.832200
2.332100 7.161500
2.360300 6.468500
2.388400 5.816900
2.416600 5.472000
2.444800 5.758500
2.472900 6.261300
2.501100 6.758500
2.529300 7.208400
2.557400 7.040600
2.585600 6.118300
2.613700 5.100400
2.641900 4.702800
2.670100 4.950000
2.698200 5.027600
2.726400 4.477600
2.754600 3.816100
2.782700 3.574000
2.810900 3.609300
2.839100 3.538600
2.867200 3.259800
2.895400 2.838500
2.923500 2.422600
2.951700 2.162500
2.979900 1.977000
3.008000 1.794000
3.036200 1.776700
3.064400 1.960200
3.092500 2.079300
3.120700 2.012400
3.148900 1.789700
3.177000 1.482100
3.205200 1.253200
3.233300 1.071200
3.261500 0.837400
3.289700 0.587000
3.317800 0.363400
3.346000 0.247800
3.374200 0.332700
3.402300 0.627200
3.430500 1.018600
3.458700 1.277100
3.486800 1.316600
3.515000 1.219900
3.543100 0.970700
3.571300 0.665100
3.599500 0.498500
3.627600 0.463000
3.655800 0.493700
3.684000 0.591700
3.712100 0.671900
3.740300 0.661700
3.768400 0.661900
3.796600 0.746100
3.824800 0.707800
3.852900 0.447800
3.881100 0.244200
3.909300 0.333000
3.937400 0.670500
3.965600 1.002900
3.993800 1.206500
4.021900 1.326000
4.050100 1.237700
4.078200 1.013300
4.106400 0.997600
4.134600 1.152700
4.162700 1.087700
4.190900 0.797000
4.219100 0.720900
4.247200 1.044800
4.275400 1.446700
4.303600 1.523300
4.331700 1.313900
4.359900 1.203600
4.388000 1.278800
4.416200 1.289700
4.444400 1.179000
4.472500 1.200500
4.500700 1.480700
4.528900 1.673300
4.557000 1.606700
4.585200 1.613600
4.613400 1.778100
4.641500 2.014500
4.669700 2.399000
4.697800 2.635600
4.726000 2.509400
4.754200 2.351200
4.782300 2.315900
4.810500 2.169400
4.838700 1.819300
4.866800 1.559700
4.895000 1.573700
4.923200 1.675200
4.951300 1.861200
4.979500 2.270200
5.007600 2.606700
5.035800 2.653900
5.064000 2.653800
5.092100 2.740100
5.120300 2.781000
5.148500 2.486300
5.176600 1.929900
5.204800 1.788200
5.232900 2.361700
5.261100 2.934800
5.289300 2.689200
5.317400 1.892900
5.345600 1.405400
5.373800 1.622900
5.401900 2.358000
5.430100 2.927700
5.458300 2.756000
5.486400 2.207800
5.514600 1.998300
5.542700 2.138300
5.570900 2.168700
5.599100 2.116300
5.627200 2.225600
5.655400 2.304900
5.683600 2.173500
5.711700 2.038700
5.739900 2.146700
5.768100 2.470700
5.796200 2.816600
5.824400 3.013900
5.852500 3.184600
5.880700 3.399700
5.908900 3.437800
5.937000 3.243500
5.965200 2.936000
5.993400 2.604400
6.021500 2.310500
6.049700 2.168600
6.077900 2.106300
6.106000 1.935600
6.134200 1.865400
6.162300 1.986000
6.190500 1.974600
6.218700 1.826000
6.246800 1.686700
6.275000 1.490200
6.303200 1.309800
6.331300 1.370600
6.359500 1.675400
6.387700 2.208400
6.415800 2.987900
6.444000 3.680100
6.472100 3.971300
6.500300 3.916100
6.528500 3.614800
6.556600 3.500600
6.584800 4.117500
6.613000 5.016900
6.641100 5.368300
6.669300 5.026700
6.697400 4.206900
6.725600 3.315500
6.753800 2.969300
6.781900 3.213000
6.810100 3.222500
6.838300 2.880000
6.866400 2.824700
6.894600 3.054100
6.922800 3.235400
6.950900 3.196400
6.979100 3.116000
7.007200 3.244200
7.035400 3.218400
7.063600 2.897100
7.091700 2.810600
7.119900 2.922500
7.148100 2.729900
7.176200 2.237100
7.204400 1.911800
7.232600 2.186300
7.260700 2.752000
7.288900 2.923700
7.317000 2.590100
7.345200 2.232400
7.373400 2.283500
7.401500 2.618500
7.429700 2.990700
7.457900 3.384400
7.486000 3.774300
7.514200 4.145700
7.542400 4.390600
7.570500 4.217900
7.598700 3.728100
7.626800 3.276500
7.655000 2.921400
7.683200 2.514900
7.711300 2.134400
7.739500 2.121600
7.767700 2.526900
7.795800 2.907100
7.824000 2.916600
7.852200 2.800200
7.880300 2.833400
7.908500 2.946100
7.936600 3.021300
7.964800 2.881200
7.993000 2.362600
8.021100 1.720900
8.049300 1.396500
8.077500 1.559400
8.105600 1.999800
8.133800 2.286100
8.161900 2.279200
8.190100 2.442700
8.218300 3.033600
8.246400 3.674300
8.274600 4.079400
8.302800 4.144000
8.330900 3.757500
8.359100 2.994800
8.387300 2.211700
8.415400 1.788700
8.443600 1.853400
8.471700 2.017300
8.499900 1.770500
8.528100 1.262800
8.556200 1.104300
8.584400 1.434400
8.612600 1.875100
8.640700 2.195400
8.668900 2.546300
8.697100 2.977200
8.725200 3.004600
8.753400 2.424500
8.781500 1.821100
8.809700 1.636600
8.837900 1.732400
8.866000 1.985300
8.894200 2.605800
8.922400 3.604200
8.950500 4.553400
8.978700 4.658800
9.006900 3.738900
9.035000 2.950400
9.063200 3.090300
9.091300 3.805400
9.119500 4.390600
9.147700 4.392800
9.175800 3.989100
9.204000 3.644500
9.232200 3.593200
9.260300 3.967500
9.288500 4.623000
9.316700 4.851200
9.344800 4.422300
9.373000 3.901900
9.401100 3.673300
9.429300 3.785600
9.457500 4.074300
9.485600 4.166100
9.513800 4.065400
9.542000 4.117300
9.570100 4.239300
9.598300 4.174200
9.626400 4.064600
9.654600 4.127200
9.682800 4.301800
9.710900 4.447900
9.739100 4.273700
9.767300 3.805600
9.795400 3.464600
9.823600 3.247300
9.851800 3.342500
9.879900 4.148300
9.908100 5.220300
9.936200 5.658900
9.964400 5.275500
9.992600 4.812200
10.020700 4.421500
10.048900 3.628700
10.077100 2.831000
10.105200 2.699900
10.133400 2.991400
10.161600 3.066600
10.189700 2.926200
10.217900 2.900700
10.246000 3.086700
10.274200 3.642500
10.302400 4.522400
10.330500 5.224400
10.358700 5.564600
10.386900 5.891300
10.415000 6.135100
10.443200 5.878200
10.471400 5.234500
10.499500 4.462900
10.527700 3.969400
10.555800 4.080800
10.584000 4.363700
10.612200 4.401400
10.640300 4.463300
10.668500 4.921200
10.696700 5.605000
10.724800 6.005700
10.753000 5.931400
10.781200 5.928700
10.809300 6.493700
10.837500 7.372200
10.865600 7.831800
10.893800 7.523800
10.922000 6.879500
10.950100 6.261700
10.978300 5.919200
11.006500 6.282100
11.034600 7.046500
11.062800 7.211300
11.090900 6.621000
11.119100 6.056700
11.147300 6.028400
11.175400 6.168200
11.203600 5.957000
11.231800 5.563700
11.259900 5.304400
11.288100 5.456500
11.316300 6.210300
11.344400 6.787300
11.372600 6.255400
11.400700 5.492000
11.428900 5.879900
11.457100 6.784300
11.485200 6.890500
11.513400 6.385400
11.541600 6.146900
11.569700 6.344000
11.597900 6.412900
11.626100 6.104000
11.654200 5.820700
11.682400 5.946800
11.710500 6.593600
11.738700 7.161800
11.766900 6.955400
11.795000 6.211400
11.823200 5.574200
11.851400 5.427800
11.879500 5.693200
11.907700 6.179900
11.935900 7.119600
11.964000 8.532900
11.992200 9.532200
12.020300 9.122100
12.048500 7.694500
12.076700 6.320800
12.104800 5.610000
12.133000 5.850700
12.161200 6.732000
12.189300 7.375800
12.217500 7.485000
12.245700 7.371700
12.273800 7.292300
12.302000 7.477500
12.330100 7.686900
12.358300 7.258000
12.386500 6.239700
12.414600 5.600300
12.442800 5.739100
12.471000 5.688600
12.499100 4.781200
12.527300 4.064200
12.555400 4.713100
12.583600 6.037200
12.611800 6.594900
12.639900 6.212600
12.668100 5.594800
12.696300 5.022400
12.724400 4.597200
12.752600 4.979900
12.780800 6.517400
12.808900 8.227100
12.837100 8.966500
12.865200 8.760900
12.893400 7.895200
12.921600 6.790000
12.949700 6.397300
12.977900 6.898300
13.006100 7.693200
13.034200 8.150500
13.062400 7.893500
13.090600 7.495700
13.118700 7.443700
13.146900 7.155500
13.175000 6.464100
13.203200 5.860800
13.231400 5.363500
13.259500 4.863900
13.287700 4.436300
13.315900 4.285600
13.344000 4.810700
13.372200 5.655900
13.400400 6.017800
13.428500 6.053500
13.456700 5.883500
13.484800 5.217900
13.513000 4.345000
13.541200 3.764400
13.569300 3.564200
13.597500 3.371100
13.625700 3.036800
13.653800 2.884500
13.682000 3.156100
13.710200 3.520300
13.738300 3.631700
13.766500 3.684100
13.794600 3.901600
13.822800 4.225300
13.851000 4.388100
13.879100 4.116400
13.907300 3.479900
13.935500 3.130300
13.963600 3.291600
13.991800 3.299600
14.019900 2.816200
14.048100 2.359700
14.076300 2.538300
14.104400 3.070000
14.132600 3.257500
14.160800 3.125300
14.188900 3.079800
14.217100 3.243600
14.245300 3.471700
14.273400 3.564300
14.301600 3.483800
14.329700 3.235300
14.357900 2.739300
14.386100 2.112700
14.414200 1.839000
14.442400 2.061700
14.470600 2.250800
14.498700 1.974700
14.526900 1.626700
14.555100 1.811500
14.583200 2.392200
14.611400 2.874300
14.639500 3.100200
14.667700 3.091000
14.695900 3.050000
14.724000 3.334200
14.752200 3.660100
14.780400 3.483700
14.808500 2.989000
14.836700 2.779400
14.864900 3.073700
14.893000 3.480200
14.921200 3.569100
14.949300 3.186900
14.977500 2.547300
15.005700 2.008100
15.033800 1.821000
15.062000 2.243100
15.090200 3.092400
15.118300 3.770800
15.146500 4.228100
15.174700 4.506900
15.202800 4.318500
15.231000 3.998500
15.259100 3.844000
15.287300 3.585900
15.315500 3.154300
15.343600 2.885300
15.371800 3.069600
15.400000 3.509700
15.428100 3.767800
15.456300 3.659900
15.484400 3.339900
15.512600 3.272700
15.540800 3.438400
15.568900 3.434700
15.597100 3.385100
15.625300 3.309500
15.653400 2.870000
15.681600 2.036800
15.709800 1.351600
15.737900 1.578800
15.766100 2.893300
15.794200 4.387700
15.822400 4.926300
15.850600 4.594100
15.878700 4.189600
15.906900 4.048800
15.935100 4.115300
15.963200 4.269800
15.991400 4.325300
16.019600 4.191800
16.047700 3.943500
16.075900 3.754600
16.104000 3.821000
16.132200 3.774400
16.160400 3.264500
16.188500 2.744200
16.216700 2.484100
16.244900 2.319800
16.273000 2.216600
16.301200 2.290100
16.329400 2.390900
16.357500 2.097200
16.385700 1.669900
16.413800 1.968300
16.442000 2.956000
16.470200 3.559700
16.498300 3.315300
16.526500 2.828700
16.554700 2.618700
16.582800 2.597500
16.611000 2.440600
16.639200 2.097700
16.667300 1.896500
16.695500 1.961900
16.723600 2.090500
16.751800 2.190300
16.780000 2.346800
16.808100 2.616500
16.836300 2.753300
16.864500 2.698500
16.892600 2.771200
16.920800 3.069600
16.948900 3.266200
16.977100 3.113900
17.005300 2.839000
17.033400 2.670800
17.061600 2.777600
17.089800 3.164500
17.117900 3.361900
17.146100 3.207600
17.174300 2.880600
17.202400 2.369300
17.230600 1.849700
17.258700 1.695100
17.286900 2.168000
17.315100 3.005700
17.343200 3.315800
17.371400 2.740200
17.399600 2.119000
17.427700 2.110200
17.455900 2.375500
17.484100 2.507400
17.512200 2.381700
17.540400 2.081600
17.568500 2.060500
17.596700 2.557200
17.624900 3.168500
17.653000 3.490500
17.681200 3.431000
17.709400 3.117100
17.737500 2.775000
17.765700 2.736100
17.793900 3.180500
17.822000 3.768200
17.850200 4.027900
17.878300 4.000800
17.906500 3.960500
17.934700 4.010900
17.962800 3.980100
17.991000 3.738600
18.019200 3.611200
18.047300 3.741100
18.075500 4.090000
18.103600 4.647300
18.131800 5.026000
18.160000 6.029200
18.188100 11.387700
18.216300 24.108300
18.244500 37.180400
18.272600 36.849300
18.300800 23.721600
18.329000 11.381800
18.357100 5.920600
18.385300 4.631500
18.413400 4.153200
18.441600 3.277600
18.469800 2.499800
18.497900 2.710100
18.526100 4.352100
18.554300 8.790000
18.582400 19.043800
18.610600 33.053700
18.638800 38.374200
18.666900 28.596500
18.695100 14.688200
18.723200 6.511700
18.751400 3.408700
18.779600 2.486700
18.807700 2.512200
18.835900 2.685900
18.864100 2.405600
18.892200 1.969000
18.920400 1.866700
18.948600 1.925500
18.976700 2.023800
19.004900 2.141400
19.033000 1.971400
19.061200 1.782800
19.089400 2.098900
19.117500 2.529000
19.145700 2.697800
19.173900 2.978400
19.202000 3.441700
19.230200 3.486800
19.258400 2.938200
19.286500 2.393000
19.314700 2.128000
19.342800 1.977900
19.371000 1.905100
19.399200 2.050700
19.427300 2.412700
19.455500 2.650700
19.483700 2.599400
19.511800 2.560300
19.540000 2.659700
19.568100 2.554200
19.596300 2.141400
19.624500 1.923700
19.652600 2.126600
19.680800 2.224200
19.709000 1.828000
19.737100 1.257400
19.765300 1.059100
19.793500 1.346600
19.821600 1.830600
19.849800 2.371500
19.877900 2.958800
19.906100 3.399800
19.934300 3.454900
19.962400 3.370500
19.990600 3.438400
20.018800 3.444000
20.046900 3.267200
20.075100 3.061900
20.103300 3.041400
20.131400 3.318100
20.159600 3.543300
20.187700 3.240700
20.215900 2.607300
20.244100 2.243000
20.272200 2.327800
20.300400 2.617500
20.328600 3.034900
20.356700 3.551700
20.384900 4.020000
20.413100 4.247600
20.441200 4.075400
20.469400 3.753300
20.497500 3.360700
20.525700 2.751900
20.553900 2.452900
20.582000 2.885500
20.610200 3.304700
20.638400 3.235300
20.666500 3.293200
20.694700 3.556200
20.722900 3.539200
20.751000 3.435800
20.779200 3.721200
20.807300 4.089800
20.835500 4.053000
20.863700 3.884300
20.891800 4.090900
20.920000 4.631200
20.948200 5.123600
20.976300 5.625800
21.004500 6.015800
21.032600 5.583000
21.060800 4.365700
21.089000 3.446900
21.117100 3.692000
21.145300 4.908100
21.173500 5.834400
21.201600 5.582200
21.229800 4.795600
21.258000 4.354500
21.286100 4.297900
21.314300 4.513300
21.342400 5.230800
21.370600 6.377900
21.398800 6.854100
21.426900 6.000000
21.455100 4.918300
21.483300 4.563300
21.511400 4.520600
21.539600 4.168500
21.567800 3.278800
21.595900 2.230900
21.624100 1.756300
21.652200 2.149000
21.680400 2.996800
21.708600 3.450000
21.736700 3.218100
21.764900 2.982700
21.793100 3.179800
21.821200 3.491800
21.849400 3.597900
21.877600 3.459000
21.905700 3.169500
21.933900 3.031200
21.962000 3.091800
21.990200 2.976400
22.018400 2.787700
22.046500 2.819400
22.074700 2.976300
22.102900 3.125600
22.131000 3.401700
22.159200 3.735400
22.187400 3.697400
22.215500 3.321800
22.243700 3.001300
22.271800 2.999900
22.300000 3.389300
22.328200 3.600600
22.356300 3.021100
22.384500 2.310600
22.412700 2.423000
22.440800 3.245700
22.469000 3.961100
22.497100 4.103000
22.525300 4.380900
22.553500 5.116800
22.581600 5.272700
22.609800 4.516900
22.638000 3.659100
22.666100 3.265200
22.694300 3.317200
22.722500 3.486900
22.750600 3.530300
22.778800 3.621200
22.806900 3.722900
22.835100 3.391900
22.863300 2.835400
22.891400 2.659400
22.919600 3.016000
22.947800 3.653800
22.975900 4.131500
23.004100 4.096400
23.032300 3.571800
23.060400 3.109300
23.088600 3.258600
23.116700 3.595800
23.144900 3.371100
23.173100 2.976400
23.201200 3.237100
23.229400 4.140700
23.257600 5.069600
23.285700 5.233100
23.313900 4.446300
23.342100 3.453100
23.370200 2.830500
23.398400 2.533700
23.426500 2.751600
23.454700 3.770100
23.482900 4.937700
23.511000 5.190300
23.539200 4.392500
23.567400 3.462700
23.595500 3.239200
23.623700 3.330500
23.651900 2.847000
23.680000 2.045600
23.708200 1.637400
23.736300 1.531400
23.764500 1.420400
23.792700 1.338500
23.820800 1.337100
23.849000 1.458500
23.877200 1.740800
23.905300 1.935400
23.933500 1.878100
23.961600 1.913300
23.989800 2.186200
24.018000 2.290400
24.046100 2.031300
24.074300 1.767200
24.102500 1.661800
24.130600 1.452500
24.158800 1.202700
24.187000 1.246700
24.215100 1.579200
24.243300 1.845800
24.271400 1.691700
24.299600 1.306800
24.327800 1.184900
24.355900 1.243000
24.384100 1.107600
24.412300 0.894500
24.440400 0.945600
24.468600 1.203400
24.496800 1.285300
24.524900 1.154600
24.553100 1.016000
24.581200 0.947200
24.609400 0.940300
24.637600 0.913800
24.665700 0.818900
24.693900 0.675900
24.722100 0.617800
24.750200 0.665300
24.778400 0.619900
24.806600 0.453700
24.834700 0.324400
24.862900 0.286200
24.891000 0.325100
24.919200 0.415500
24.947400 0.534700
24.975500 0.667600
25.003700 0.775400
25.031900 0.843100
25.060000 0.807400
25.088200 0.671800
25.116400 0.596200
25.144500 0.578500
25.172700 0.442800
25.200800 0.227000
25.229000 0.128200
25.257200 0.185100
25.285300 0.254300
25.313500 0.208300
25.341700 0.097900
25.369800 0.026400
25.398000 0.004100
25.426100 0.001000
25.454300 0.006800
25.482500 0.040900
25.510600 0.140500
25.538800 0.280600
25.567000 0.336000
25.595100 0.281900
25.623300 0.298500
25.651500 0.453300
25.679600 0.513500
25.707800 0.358600
25.735900 0.216600
25.764100 0.235400
25.792300 0.265500
25.820400 0.180600
25.848600 0.069900
25.876800 0.029600
25.904900 0.067300
25.933100 0.153700
25.961300 0.205000
25.989400 0.162100
26.017600 0.085800
26.045700 0.064100
26.073900 0.118000
26.102100 0.178000
26.130200 0.171500
26.158400 0.180900
26.186600 0.355700
26.214700 0.648900
26.242900 0.779100
26.271100 0.650600
26.299200 0.516600
26.327400 0.534100
26.355500 0.583000
26.383700 0.517300
26.411900 0.348200
26.440000 0.205700
26.468200 0.245200
26.496400 0.450800
26.524500 0.576600
26.552700 0.516400
26.580900 0.426800
26.609000 0.356500
26.637200 0.278400
26.665300 0.231100
26.693500 0.183100
26.721700 0.098700
26.749800 0.030800
26.778000 0.005300
26.806200 0.000500
26.834300 0.000000
26.862500 0.000000
26.890600 0.000000
26.918800 0.000000
26.947000 0.000000
26.975100 0.000000
27.003300 0.000000
27.031500 0.000000
27.059600 0.000000
27.087800 0.000000
27.116000 0.000000
27.144100 0.000000
27.172300 0.000000
27.200400 0.000000
27.228600 0.000000
27.256800 0.000000
27.284900 0.000000
27.313100 0.000000
27.341300 0.000000
27.369400 0.000000
27.397600 0.000000
27.425800 0.000000
27.453900 0.000000
27.482100 0.000000
27.510200 0.000000
27.538400 0.000000
27.566600 0.000000
27.594700 0.000000
27.622900 0.000000
27.651100 0.000000
27.679200 0.000000
27.707400 0.000000
27.735600 0.000000
27.763700 0.000000
27.791900 0.000000
27.820000 0.000000
27.848200 0.000000
27.876400 0.000000
27.904500 0.000000
27.932700 0.000000
27.960900 0.000000
27.989000 0.000000
28.017200 0.000000
28.045400 0.000000
28.073500 0.000000
28.101700 0.000000
28.129800 0.000000
28.158000 0.000000
28.186200 0.000000
28.214300 0.000000
28.242500 0.000000
28.270700 0.000000
28.298800 0.000000
28.327000 0.000000
28.355100 0.000000
28.383300 0.000000
28.411500 0.000000
28.439600 0.000000
28.467800 0.000000
28.496000 0.000000
28.524100 0.000000
28.552300 0.000000
28.580500 0.000000
28.608600 0.000000
28.636800 0.000000
28.664900 0.000000
28.693100 0.000000
28.721300 0.000000
28.749400 0.000000
28.777600 0.000000
28.805800 0.000000
28.833900 0.000000
28.862100 0.000000
28.890300 0.000000
28.918400 0.000000
28.946600 0.000000
28.974700 0.000000
29.002900 0.000000
29.031100 0.000000
29.059200 0.000000
29.087400 0.000000
29.115600 0.000000
29.143700 0.000000
29.171900 0.000000
29.200100 0.000000
29.228200 0.000000
e
