set title 'mp-536 - Density of States'
set xlabel 'Energy (eV)'
set ylabel 'DOS (states/eV)'
set grid
set xrange [-10:10]
set yrange [0:72.051]
set xzeroaxis lt -1
set terminal png size 800,600
set output 'mp-536_dos_gnuplot.png'
plot '-' using 1:2 with lines title 'DOS'
-38.983000 0.000000
-38.944300 0.000000
-38.905600 0.000000
-38.866900 0.000000
-38.828200 0.000000
-38.789500 0.000000
-38.750800 0.000000
-38.712100 0.000000
-38.673400 0.000000
-38.634700 0.000000
-38.596000 0.000000
-38.557300 0.000000
-38.518700 0.000000
-38.480000 0.000000
-38.441300 0.000000
-38.402600 0.000000
-38.363900 0.000000
-38.325200 0.000000
-38.286500 0.000000
-38.247800 0.000000
-38.209100 0.000000
-38.170400 0.000000
-38.131700 0.000000
-38.093000 0.000000
-38.054300 0.000000
-38.015600 0.000000
-37.976900 0.000000
-37.938200 0.000000
-37.899500 0.000000
-37.860800 0.000000
-37.822100 0.000000
-37.783400 0.000000
-37.744700 0.000000
-37.706000 0.000000
-37.667300 0.000000
-37.628600 0.000000
-37.589900 0.000000
-37.551200 0.000000
-37.512500 0.000000
-37.473800 0.000000
-37.435100 0.000000
-37.396400 0.000000
-37.357700 0.000000
-37.319000 0.000000
-37.280300 0.000000
-37.241600 0.000000
-37.202900 0.000000
-37.164200 0.000000
-37.125500 0.000000
-37.086800 0.000000
-37.048100 0.000000
-37.009400 0.000000
-36.970700 0.000000
-36.932000 0.000000
-36.893400 0.000000
-36.854700 0.000000
-36.816000 0.000000
-36.777300 0.000000
-36.738600 0.000000
-36.699900 0.000000
-36.661200 0.000000
-36.622500 0.000000
-36.583800 0.000000
-36.545100 0.000000
-36.506400 0.000000
-36.467700 0.000000
-36.429000 0.000000
-36.390300 0.000000
-36.351600 0.000000
-36.312900 0.000000
-36.274200 0.000000
-36.235500 0.000000
-36.196800 0.000000
-36.158100 0.000000
-36.119400 0.000000
-36.080700 0.000000
-36.042000 0.000000
-36.003300 0.000000
-35.964600 0.000000
-35.925900 0.000000
-35.887200 0.000000
-35.848500 0.000000
-35.809800 0.000000
-35.771100 0.000000
-35.732400 0.000000
-35.693700 0.000000
-35.655000 0.000000
-35.616300 0.000200
-35.577600 0.019200
-35.538900 0.563300
-35.500200 5.447900
-35.461500 17.701200
-35.422800 19.584300
-35.384100 7.387400
-35.345400 0.939200
-35.306700 0.039500
-35.268000 0.000500
-35.229400 0.000000
-35.190700 0.000000
-35.152000 0.000000
-35.113300 0.000000
-35.074600 0.000000
-35.035900 0.000000
-34.997200 0.000000
-34.958500 0.000000
-34.919800 0.000000
-34.881100 0.000000
-34.842400 0.000000
-34.803700 0.000000
-34.765000 0.000000
-34.726300 0.000000
-34.687600 0.000000
-34.648900 0.000000
-34.610200 0.000000
-34.571500 0.000000
-34.532800 0.000000
-34.494100 0.000000
-34.455400 0.000000
-34.416700 0.000000
-34.378000 0.000000
-34.339300 0.000000
-34.300600 0.000000
-34.261900 0.000000
-34.223200 0.000000
-34.184500 0.000000
-34.145800 0.000000
-34.107100 0.000000
-34.068400 0.000000
-34.029700 0.000000
-33.991000 0.000000
-33.952300 0.000000
-33.913600 0.000000
-33.874900 0.000000
-33.836200 0.000000
-33.797500 0.000000
-33.758800 0.000000
-33.720100 0.000000
-33.681400 0.000000
-33.642700 0.000000
-33.604100 0.000000
-33.565400 0.000000
-33.526700 0.000000
-33.488000 0.000000
-33.449300 0.000000
-33.410600 0.000000
-33.371900 0.000000
-33.333200 0.000000
-33.294500 0.000000
-33.255800 0.000000
-33.217100 0.000000
-33.178400 0.000000
-33.139700 0.000000
-33.101000 0.000000
-33.062300 0.000000
-33.023600 0.000000
-32.984900 0.000000
-32.946200 0.000000
-32.907500 0.000000
-32.868800 0.000000
-32.830100 0.000000
-32.791400 0.000000
-32.752700 0.000000
-32.714000 0.000000
-32.675300 0.000000
-32.636600 0.000000
-32.597900 0.000000
-32.559200 0.000000
-32.520500 0.000000
-32.481800 0.000000
-32.443100 0.000000
-32.404400 0.000000
-32.365700 0.000000
-32.327000 0.000000
-32.288300 0.000000
-32.249600 0.000000
-32.210900 0.000000
-32.172200 0.000000
-32.133500 0.000000
-32.094800 0.000000
-32.056100 0.000000
-32.017400 0.000000
-31.978800 0.000000
-31.940100 0.000000
-31.901400 0.000000
-31.862700 0.000000
-31.824000 0.000000
-31.785300 0.000000
-31.746600 0.000000
-31.707900 0.000000
-31.669200 0.000000
-31.630500 0.000000
-31.591800 0.000000
-31.553100 0.000000
-31.514400 0.000000
-31.475700 0.000000
-31.437000 0.000000
-31.398300 0.000000
-31.359600 0.000000
-31.320900 0.000000
-31.282200 0.000000
-31.243500 0.000000
-31.204800 0.000000
-31.166100 0.000000
-31.127400 0.000000
-31.088700 0.000000
-31.050000 0.000000
-31.011300 0.000000
-30.972600 0.000000
-30.933900 0.000000
-30.895200 0.000000
-30.856500 0.000000
-30.817800 0.000000
-30.779100 0.000000
-30.740400 0.000000
-30.701700 0.000000
-30.663000 0.000000
-30.624300 0.000000
-30.585600 0.000000
-30.546900 0.000000
-30.508200 0.000000
-30.469500 0.000000
-30.430800 0.000000
-30.392100 0.000000
-30.353500 0.000000
-30.314800 0.000000
-30.276100 0.000000
-30.237400 0.000000
-30.198700 0.000000
-30.160000 0.000000
-30.121300 0.000000
-30.082600 0.000000
-30.043900 0.000000
-30.005200 0.000000
-29.966500 0.000000
-29.927800 0.000000
-29.889100 0.000000
-29.850400 0.000000
-29.811700 0.000000
-29.773000 0.000000
-29.734300 0.000000
-29.695600 0.000000
-29.656900 0.000000
-29.618200 0.000000
-29.579500 0.000000
-29.540800 0.000000
-29.502100 0.000000
-29.463400 0.000000
-29.424700 0.000000
-29.386000 0.000000
-29.347300 0.000000
-29.308600 0.000000
-29.269900 0.000000
-29.231200 0.000000
-29.192500 0.000000
-29.153800 0.000000
-29.115100 0.000000
-29.076400 0.000000
-29.037700 0.000000
-28.999000 0.000000
-28.960300 0.000000
-28.921600 0.000000
-28.882900 0.000000
-28.844200 0.000000
-28.805500 0.000000
-28.766800 0.000000
-28.728200 0.000000
-28.689500 0.000000
-28.650800 0.000000
-28.612100 0.000000
-28.573400 0.000000
-28.534700 0.000000
-28.496000 0.000000
-28.457300 0.000000
-28.418600 0.000000
-28.379900 0.000000
-28.341200 0.000000
-28.302500 0.000000
-28.263800 0.000000
-28.225100 0.000000
-28.186400 0.000000
-28.147700 0.000000
-28.109000 0.000000
-28.070300 0.000000
-28.031600 0.000000
-27.992900 0.000000
-27.954200 0.000000
-27.915500 0.000000
-27.876800 0.000000
-27.838100 0.000000
-27.799400 0.000000
-27.760700 0.000000
-27.722000 0.000000
-27.683300 0.000000
-27.644600 0.000000
-27.605900 0.000000
-27.567200 0.000000
-27.528500 0.000000
-27.489800 0.000000
-27.451100 0.000000
-27.412400 0.000000
-27.373700 0.000000
-27.335000 0.000000
-27.296300 0.000000
-27.257600 0.000000
-27.218900 0.000000
-27.180200 0.000000
-27.141500 0.000000
-27.102900 0.000000
-27.064200 0.000000
-27.025500 0.000000
-26.986800 0.000000
-26.948100 0.000000
-26.909400 0.000000
-26.870700 0.000000
-26.832000 0.000000
-26.793300 0.000000
-26.754600 0.000000
-26.715900 0.000000
-26.677200 0.000000
-26.638500 0.000000
-26.599800 0.000000
-26.561100 0.000000
-26.522400 0.000000
-26.483700 0.000000
-26.445000 0.000000
-26.406300 0.000000
-26.367600 0.000000
-26.328900 0.000000
-26.290200 0.000000
-26.251500 0.000000
-26.212800 0.000000
-26.174100 0.000000
-26.135400 0.000000
-26.096700 0.000000
-26.058000 0.000000
-26.019300 0.000000
-25.980600 0.000000
-25.941900 0.000000
-25.903200 0.000000
-25.864500 0.000000
-25.825800 0.000000
-25.787100 0.000000
-25.748400 0.000000
-25.709700 0.000000
-25.671000 0.000000
-25.632300 0.000000
-25.593600 0.000000
-25.554900 0.000000
-25.516200 0.000000
-25.477600 0.000000
-25.438900 0.000000
-25.400200 0.000000
-25.361500 0.000000
-25.322800 0.000000
-25.284100 0.000000
-25.245400 0.000000
-25.206700 0.000000
-25.168000 0.000000
-25.129300 0.000000
-25.090600 0.000000
-25.051900 0.000000
-25.013200 0.000000
-24.974500 0.000000
-24.935800 0.000000
-24.897100 0.000000
-24.858400 0.000000
-24.819700 0.000000
-24.781000 0.000000
-24.742300 0.000000
-24.703600 0.000000
-24.664900 0.000000
-24.626200 0.000000
-24.587500 0.000000
-24.548800 0.000000
-24.510100 0.000000
-24.471400 0.000000
-24.432700 0.000000
-24.394000 0.000000
-24.355300 0.000000
-24.316600 0.000000
-24.277900 0.000000
-24.239200 0.000000
-24.200500 0.000000
-24.161800 0.000000
-24.123100 0.000000
-24.084400 0.000000
-24.045700 0.000000
-24.007000 0.000000
-23.968300 0.000000
-23.929600 0.000000
-23.890900 0.000000
-23.852300 0.000000
-23.813600 0.000000
-23.774900 0.000000
-23.736200 0.000000
-23.697500 0.000000
-23.658800 0.000000
-23.620100 0.000000
-23.581400 0.000000
-23.542700 0.000000
-23.504000 0.000000
-23.465300 0.000000
-23.426600 0.000000
-23.387900 0.000000
-23.349200 0.000000
-23.310500 0.000000
-23.271800 0.000000
-23.233100 0.000000
-23.194400 0.000000
-23.155700 0.000000
-23.117000 0.000000
-23.078300 0.000000
-23.039600 0.000000
-23.000900 0.000000
-22.962200 0.000000
-22.923500 0.000000
-22.884800 0.000000
-22.846100 0.000000
-22.807400 0.000000
-22.768700 0.000000
-22.730000 0.000000
-22.691300 0.000000
-22.652600 0.000000
-22.613900 0.000000
-22.575200 0.000000
-22.536500 0.000000
-22.497800 0.000000
-22.459100 0.000000
-22.420400 0.000000
-22.381700 0.000000
-22.343000 0.000000
-22.304300 0.000000
-22.265600 0.000000
-22.227000 0.000000
-22.188300 0.000000
-22.149600 0.000000
-22.110900 0.000000
-22.072200 0.000000
-22.033500 0.000000
-21.994800 0.000000
-21.956100 0.000000
-21.917400 0.000000
-21.878700 0.000000
-21.840000 0.000000
-21.801300 0.000000
-21.762600 0.000000
-21.723900 0.000000
-21.685200 0.000000
-21.646500 0.000000
-21.607800 0.000000
-21.569100 0.000000
-21.530400 0.000000
-21.491700 0.000000
-21.453000 0.000000
-21.414300 0.000000
-21.375600 0.000000
-21.336900 0.000000
-21.298200 0.000000
-21.259500 0.000000
-21.220800 0.000000
-21.182100 0.000000
-21.143400 0.000000
-21.104700 0.000000
-21.066000 0.000000
-21.027300 0.000000
-20.988600 0.000000
-20.949900 0.000000
-20.911200 0.000000
-20.872500 0.000000
-20.833800 0.000000
-20.795100 0.000000
-20.756400 0.000000
-20.717700 0.000000
-20.679000 0.000000
-20.640300 0.000000
-20.601700 0.000000
-20.563000 0.000000
-20.524300 0.000000
-20.485600 0.000000
-20.446900 0.000000
-20.408200 0.000000
-20.369500 0.000000
-20.330800 0.000000
-20.292100 0.000000
-20.253400 0.000000
-20.214700 0.000000
-20.176000 0.000000
-20.137300 0.000000
-20.098600 0.000000
-20.059900 0.000000
-20.021200 0.000000
-19.982500 0.000000
-19.943800 0.000000
-19.905100 0.000000
-19.866400 0.000000
-19.827700 0.000000
-19.789000 0.000000
-19.750300 0.000000
-19.711600 0.000000
-19.672900 0.000000
-19.634200 0.000000
-19.595500 0.000000
-19.556800 0.000000
-19.518100 0.000000
-19.479400 0.000000
-19.440700 0.000000
-19.402000 0.000000
-19.363300 0.000000
-19.324600 0.000000
-19.285900 0.000000
-19.247200 0.000000
-19.208500 0.000000
-19.169800 0.000000
-19.131100 0.000000
-19.092400 0.000000
-19.053700 0.000000
-19.015000 0.000000
-18.976400 0.000000
-18.937700 0.000000
-18.899000 0.000000
-18.860300 0.000000
-18.821600 0.000000
-18.782900 0.000000
-18.744200 0.000000
-18.705500 0.000000
-18.666800 0.000000
-18.628100 0.000000
-18.589400 0.000000
-18.550700 0.000000
-18.512000 0.000000
-18.473300 0.000000
-18.434600 0.000000
-18.395900 0.000000
-18.357200 0.000000
-18.318500 0.000000
-18.279800 0.000000
-18.241100 0.000000
-18.202400 0.000000
-18.163700 0.000000
-18.125000 0.000000
-18.086300 0.000000
-18.047600 0.000000
-18.008900 0.000000
-17.970200 0.000000
-17.931500 0.000000
-17.892800 0.000000
-17.854100 0.000000
-17.815400 0.000000
-17.776700 0.000000
-17.738000 0.000000
-17.699300 0.000000
-17.660600 0.000000
-17.621900 0.000000
-17.583200 0.000000
-17.544500 0.000000
-17.505800 0.000000
-17.467100 0.000000
-17.428400 0.000000
-17.389700 0.000000
-17.351100 0.000000
-17.312400 0.000000
-17.273700 0.000000
-17.235000 0.000000
-17.196300 0.000000
-17.157600 0.000000
-17.118900 0.000000
-17.080200 0.000000
-17.041500 0.000000
-17.002800 0.000000
-16.964100 0.000000
-16.925400 0.000000
-16.886700 0.000000
-16.848000 0.000000
-16.809300 0.000000
-16.770600 0.000000
-16.731900 0.000000
-16.693200 0.000000
-16.654500 0.000000
-16.615800 0.000000
-16.577100 0.000000
-16.538400 0.000000
-16.499700 0.000000
-16.461000 0.000000
-16.422300 0.000000
-16.383600 0.000000
-16.344900 0.000000
-16.306200 0.000000
-16.267500 0.000000
-16.228800 0.000000
-16.190100 0.000000
-16.151400 0.000000
-16.112700 0.000000
-16.074000 0.000000
-16.035300 0.000000
-15.996600 0.000000
-15.957900 0.000000
-15.919200 0.000000
-15.880500 0.000000
-15.841800 0.000000
-15.803100 0.000000
-15.764400 0.000000
-15.725800 0.000000
-15.687100 0.000000
-15.648400 0.000000
-15.609700 0.000000
-15.571000 0.000000
-15.532300 0.000000
-15.493600 0.000000
-15.454900 0.000000
-15.416200 0.000000
-15.377500 0.000000
-15.338800 0.000000
-15.300100 0.000000
-15.261400 0.000000
-15.222700 0.000000
-15.184000 0.000000
-15.145300 0.000000
-15.106600 0.000000
-15.067900 0.000000
-15.029200 0.000000
-14.990500 0.000000
-14.951800 0.000000
-14.913100 0.000000
-14.874400 0.000000
-14.835700 0.000000
-14.797000 0.000000
-14.758300 0.000000
-14.719600 0.000000
-14.680900 0.000000
-14.642200 0.000000
-14.603500 0.000000
-14.564800 0.000000
-14.526100 0.000000
-14.487400 0.000000
-14.448700 0.000000
-14.410000 0.000000
-14.371300 0.000000
-14.332600 0.000000
-14.293900 0.000000
-14.255200 0.000000
-14.216500 0.000000
-14.177800 0.000000
-14.139100 0.000000
-14.100500 0.000000
-14.061800 0.000000
-14.023100 0.000000
-13.984400 0.000000
-13.945700 0.000000
-13.907000 0.000000
-13.868300 0.000000
-13.829600 0.000000
-13.790900 0.000000
-13.752200 0.000500
-13.713500 0.026500
-13.674800 0.512800
-13.636100 4.209500
-13.597400 15.945700
-13.558700 29.325000
-13.520000 27.691000
-13.481300 16.614500
-13.442600 10.136500
-13.403900 9.772500
-13.365200 11.133000
-13.326500 12.832100
-13.287800 11.206000
-13.249100 4.748700
-13.210400 0.835400
-13.171700 0.057000
-13.133000 0.001400
-13.094300 0.000000
-13.055600 0.000000
-13.016900 0.000000
-12.978200 0.000000
-12.939500 0.000000
-12.900800 0.000000
-12.862100 0.000000
-12.823400 0.000000
-12.784700 0.000000
-12.746000 0.000000
-12.707300 0.000000
-12.668600 0.000000
-12.629900 0.000000
-12.591200 0.000000
-12.552500 0.000000
-12.513800 0.000000
-12.475200 0.000000
-12.436500 0.000000
-12.397800 0.000000
-12.359100 0.000000
-12.320400 0.000000
-12.281700 0.000000
-12.243000 0.000000
-12.204300 0.000000
-12.165600 0.000000
-12.126900 0.000000
-12.088200 0.000000
-12.049500 0.000000
-12.010800 0.000000
-11.972100 0.000000
-11.933400 0.000000
-11.894700 0.000000
-11.856000 0.000000
-11.817300 0.000000
-11.778600 0.000000
-11.739900 0.000000
-11.701200 0.000000
-11.662500 0.000000
-11.623800 0.000000
-11.585100 0.000000
-11.546400 0.000000
-11.507700 0.000000
-11.469000 0.000000
-11.430300 0.000000
-11.391600 0.000000
-11.352900 0.000000
-11.314200 0.000000
-11.275500 0.000000
-11.236800 0.000000
-11.198100 0.000000
-11.159400 0.000000
-11.120700 0.000000
-11.082000 0.000000
-11.043300 0.000000
-11.004600 0.000000
-10.965900 0.000000
-10.927200 0.000000
-10.888500 0.000000
-10.849900 0.000000
-10.811200 0.000000
-10.772500 0.000000
-10.733800 0.000000
-10.695100 0.000000
-10.656400 0.000000
-10.617700 0.000000
-10.579000 0.000000
-10.540300 0.000000
-10.501600 0.000000
-10.462900 0.000000
-10.424200 0.000000
-10.385500 0.000000
-10.346800 0.000000
-10.308100 0.000000
-10.269400 0.000000
-10.230700 0.000000
-10.192000 0.000000
-10.153300 0.000000
-10.114600 0.000000
-10.075900 0.000000
-10.037200 0.000000
-9.998500 0.000000
-9.959800 0.000000
-9.921100 0.000000
-9.882400 0.000000
-9.843700 0.000000
-9.805000 0.000000
-9.766300 0.000000
-9.727600 0.000000
-9.688900 0.000000
-9.650200 0.000000
-9.611500 0.000000
-9.572800 0.000000
-9.534100 0.000000
-9.495400 0.000000
-9.456700 0.000000
-9.418000 0.000000
-9.379300 0.000000
-9.340600 0.000000
-9.301900 0.000000
-9.263200 0.000000
-9.224600 0.000000
-9.185900 0.000000
-9.147200 0.000000
-9.108500 0.000000
-9.069800 0.000000
-9.031100 0.000000
-8.992400 0.000000
-8.953700 0.000000
-8.915000 0.000000
-8.876300 0.000000
-8.837600 0.000000
-8.798900 0.000000
-8.760200 0.000000
-8.721500 0.000000
-8.682800 0.000000
-8.644100 0.000000
-8.605400 0.000000
-8.566700 0.000000
-8.528000 0.000000
-8.489300 0.000000
-8.450600 0.000000
-8.411900 0.000000
-8.373200 0.000000
-8.334500 0.000000
-8.295800 0.000000
-8.257100 0.000000
-8.218400 0.000000
-8.179700 0.000000
-8.141000 0.000000
-8.102300 0.000000
-8.063600 0.000000
-8.024900 0.000000
-7.986200 0.000000
-7.947500 0.000000
-7.908800 0.000000
-7.870100 0.000000
-7.831400 0.000000
-7.792700 0.000000
-7.754000 0.000000
-7.715300 0.000000
-7.676600 0.000000
-7.637900 0.000000
-7.599300 0.000000
-7.560600 0.000000
-7.521900 0.000000
-7.483200 0.000000
-7.444500 0.000000
-7.405800 0.000000
-7.367100 0.000000
-7.328400 0.000000
-7.289700 0.000000
-7.251000 0.000000
-7.212300 0.000000
-7.173600 0.000000
-7.134900 0.000000
-7.096200 0.000000
-7.057500 0.000000
-7.018800 0.000000
-6.980100 0.000000
-6.941400 0.000000
-6.902700 0.000000
-6.864000 0.000000
-6.825300 0.000000
-6.786600 0.000000
-6.747900 0.000000
-6.709200 0.000000
-6.670500 0.000000
-6.631800 0.000000
-6.593100 0.000000
-6.554400 0.000000
-6.515700 0.000000
-6.477000 0.000000
-6.438300 0.000000
-6.399600 0.000000
-6.360900 0.000000
-6.322200 0.000000
-6.283500 0.000000
-6.244800 0.000000
-6.206100 0.000000
-6.167400 0.000000
-6.128700 0.000000
-6.090000 0.000000
-6.051300 0.000000
-6.012600 0.000000
-5.973900 0.000000
-5.935300 0.000000
-5.896600 0.000000
-5.857900 0.000000
-5.819200 0.000000
-5.780500 0.000000
-5.741800 0.000000
-5.703100 0.000000
-5.664400 0.000000
-5.625700 0.000000
-5.587000 0.000000
-5.548300 0.000000
-5.509600 0.000000
-5.470900 0.000000
-5.432200 0.000000
-5.393500 0.000000
-5.354800 0.000000
-5.316100 0.000000
-5.277400 0.000000
-5.238700 0.000000
-5.200000 0.000000
-5.161300 0.000000
-5.122600 0.000000
-5.083900 0.000000
-5.045200 0.000000
-5.006500 0.000000
-4.967800 0.000000
-4.929100 0.000000
-4.890400 0.000000
-4.851700 0.000000
-4.813000 0.000000
-4.774300 0.000000
-4.735600 0.000000
-4.696900 0.000000
-4.658200 0.000000
-4.619500 0.001300
-4.580800 0.012000
-4.542100 0.039000
-4.503400 0.060700
-4.464700 0.095100
-4.426000 0.163500
-4.387300 0.284600
-4.348600 0.333900
-4.310000 0.197900
-4.271300 0.083200
-4.232600 0.187400
-4.193900 0.421900
-4.155200 0.482000
-4.116500 0.408600
-4.077800 0.485100
-4.039100 0.601000
-4.000400 0.449200
-3.961700 0.327800
-3.923000 0.515700
-3.884300 0.784100
-3.845600 0.762100
-3.806900 0.806400
-3.768200 0.903700
-3.729500 1.182300
-3.690800 1.828000
-3.652100 2.118200
-3.613400 2.902400
-3.574700 5.433100
-3.536000 8.957400
-3.497300 12.363100
-3.458600 14.986200
-3.419900 18.007600
-3.381200 23.951800
-3.342500 31.949500
-3.303800 39.484700
-3.265100 45.456300
-3.226400 56.245500
-3.187700 65.500500
-3.149000 58.704600
-3.110300 41.374600
-3.071600 26.581100
-3.032900 18.778600
-2.994200 15.535700
-2.955500 16.768300
-2.916800 21.219000
-2.878100 24.601500
-2.839400 23.035500
-2.800700 18.416000
-2.762000 18.751100
-2.723300 25.546100
-2.684700 29.819800
-2.646000 29.996300
-2.607300 29.741100
-2.568600 31.478600
-2.529900 36.817600
-2.491200 41.433300
-2.452500 39.713100
-2.413800 37.930100
-2.375100 38.684400
-2.336400 38.781100
-2.297700 31.048300
-2.259000 14.895000
-2.220300 4.034900
-2.181600 1.477900
-2.142900 1.745100
-2.104200 1.770100
-2.065500 1.386700
-2.026800 0.950800
-1.988100 0.896600
-1.949400 1.261800
-1.910700 1.264300
-1.872000 0.902100
-1.833300 0.854000
-1.794600 1.090100
-1.755900 1.338500
-1.717200 1.444500
-1.678500 1.770000
-1.639800 1.710300
-1.601100 1.106200
-1.562400 0.621900
-1.523700 0.598900
-1.485000 1.066300
-1.446300 1.382900
-1.407600 1.121800
-1.368900 0.669100
-1.330200 0.599000
-1.291500 0.977700
-1.252800 1.259700
-1.214100 1.452500
-1.175400 1.718300
-1.136700 1.593000
-1.098000 1.192300
-1.059400 1.152800
-1.020700 1.641100
-0.982000 1.847000
-0.943300 1.436500
-0.904600 1.073200
-0.865900 1.273900
-0.827200 1.808700
-0.788500 2.164400
-0.749800 2.255500
-0.711100 1.808900
-0.672400 1.685500
-0.633700 1.847800
-0.595000 1.846300
-0.556300 1.616900
-0.517600 1.250200
-0.478900 1.356000
-0.440200 1.165000
-0.401500 0.918900
-0.362800 1.406100
-0.324100 1.507000
-0.285400 1.009400
-0.246700 0.875500
-0.208000 0.987100
-0.169300 0.828300
-0.130600 0.698200
-0.091900 0.799800
-0.053200 0.720900
-0.014500 0.843200
0.024200 1.071500
0.062900 1.040900
0.101600 0.913200
0.140300 0.732000
0.179000 0.687300
0.217700 0.636500
0.256400 0.555300
0.295100 0.758000
0.333800 1.035200
0.372500 1.170800
0.411200 1.318500
0.449900 1.579300
0.488600 1.348800
0.527300 0.913700
0.565900 0.747900
0.604600 0.856400
0.643300 1.352400
0.682000 1.737300
0.720700 2.090100
0.759400 2.892200
0.798100 3.270000
0.836800 2.685800
0.875500 2.076300
0.914200 1.444600
0.952900 1.015200
0.991600 0.851000
1.030300 1.116000
1.069000 1.573100
1.107700 1.455800
1.146400 1.445400
1.185100 1.535000
1.223800 1.567300
1.262500 1.622700
1.301200 1.321400
1.339900 0.858900
1.378600 0.759300
1.417300 0.835000
1.456000 1.400400
1.494700 2.045400
1.533400 1.924400
1.572100 1.757600
1.610800 2.053100
1.649500 2.470100
1.688200 2.544700
1.726900 1.803000
1.765600 0.785000
1.804300 0.392300
1.843000 0.484200
1.881700 0.533700
1.920400 0.519700
1.959100 0.539200
1.997800 0.587600
2.036500 1.069300
2.075200 1.716700
2.113900 2.092200
2.152600 2.092800
2.191200 1.720700
2.229900 1.406200
2.268600 1.694700
2.307300 1.621100
2.346000 1.183000
2.384700 1.466400
2.423400 1.858600
2.462100 2.156900
2.500800 2.632000
2.539500 2.310600
2.578200 1.634900
2.616900 1.574400
2.655600 1.644600
2.694300 1.308700
2.733000 1.009400
2.771700 1.245800
2.810400 1.614600
2.849100 2.088200
2.887800 2.536100
2.926500 2.614200
2.965200 2.940800
3.003900 3.149100
3.042600 2.835400
3.081300 2.254800
3.120000 1.575500
3.158700 1.212200
3.197400 1.605100
3.236100 2.553900
3.274800 3.200700
3.313500 3.057600
3.352200 3.021800
3.390900 3.032500
3.429600 2.931700
3.468300 3.255000
3.507000 3.566900
3.545700 3.477300
3.584400 3.307400
3.623100 3.406200
3.661800 4.286500
3.700500 5.376700
3.739200 5.467200
3.777900 5.150900
3.816500 4.657500
3.855200 4.851000
3.893900 5.394300
3.932600 4.995600
3.971300 4.221900
4.010000 3.312400
4.048700 2.836900
4.087400 2.546100
4.126100 2.189800
4.164800 2.425500
4.203500 2.898700
4.242200 2.954600
4.280900 2.624700
4.319600 2.244200
4.358300 2.029500
4.397000 1.558200
4.435700 1.416000
4.474400 1.666400
4.513100 1.720800
4.551800 2.032700
4.590500 2.408300
4.629200 1.981300
4.667900 1.713100
4.706600 1.832600
4.745300 1.926000
4.784000 1.738300
4.822700 1.008200
4.861400 0.813300
4.900100 1.356800
4.938800 1.662500
4.977500 1.559700
5.016200 1.893300
5.054900 2.415800
5.093600 2.230500
5.132300 1.883200
5.171000 1.941400
5.209700 2.343800
5.248400 2.322100
5.287100 2.236600
5.325800 3.129900
5.364500 4.140400
5.403200 4.085700
5.441800 3.739700
5.480500 3.694800
5.519200 3.629100
5.557900 4.216700
5.596600 6.201100
5.635300 7.185000
5.674000 7.165800
5.712700 8.281200
5.751400 9.810800
5.790100 11.109500
5.828800 12.311600
5.867500 12.840600
5.906200 13.231700
5.944900 14.664600
5.983600 15.401900
6.022300 14.372500
6.061000 13.758300
6.099700 14.717500
6.138400 16.094400
6.177100 16.594400
6.215800 18.898500
6.254500 22.154600
6.293200 22.972300
6.331900 18.957300
6.370600 13.427500
6.409300 9.712600
6.448000 7.691100
6.486700 5.737800
6.525400 3.713600
6.564100 2.116100
6.602800 1.955300
6.641500 2.080000
6.680200 1.346000
6.718900 0.587100
6.757600 0.417800
6.796300 0.752300
6.835000 0.963700
6.873700 0.826900
6.912400 0.763300
6.951100 0.867100
6.989800 1.204100
7.028500 1.484600
7.067100 1.511000
7.105800 1.857200
7.144500 2.680700
7.183200 3.537800
7.221900 3.982500
7.260600 3.859100
7.299300 4.295400
7.338000 4.946600
7.376700 4.246300
7.415400 3.337000
7.454100 3.733300
7.492800 3.824900
7.531500 3.204100
7.570200 2.503900
7.608900 2.293900
7.647600 2.618500
7.686300 3.131500
7.725000 3.545900
7.763700 3.482900
7.802400 3.326100
7.841100 3.826200
7.879800 4.928500
7.918500 5.115200
7.957200 4.323100
7.995900 3.671100
8.034600 4.308900
8.073300 5.171200
8.112000 4.781400
8.150700 4.341000
8.189400 4.807400
8.228100 5.487000
8.266800 5.498400
8.305500 5.708200
8.344200 5.475900
8.382900 4.681500
8.421600 5.038100
8.460300 5.196200
8.499000 4.358600
8.537700 3.171400
8.576400 2.997600
8.615100 3.943100
8.653800 4.048400
8.692400 3.861400
8.731100 4.601500
8.769800 4.894000
8.808500 4.153500
8.847200 3.134300
8.885900 2.371800
8.924600 2.667500
8.963300 2.882900
9.002000 2.983200
9.040700 3.739900
9.079400 3.794100
9.118100 2.981300
9.156800 2.528800
9.195500 2.846600
9.234200 3.268200
9.272900 2.862700
9.311600 2.595000
9.350300 3.056300
9.389000 2.848600
9.427700 2.407100
9.466400 2.354800
9.505100 1.842500
9.543800 1.365300
9.582500 1.462100
9.621200 1.850900
9.659900 2.298900
9.698600 2.615700
9.737300 2.689400
9.776000 2.270500
9.814700 1.797700
9.853400 1.848400
9.892100 2.187300
9.930800 2.658100
9.969500 3.376200
10.008200 4.007100
10.046900 4.168000
10.085600 3.954700
10.124300 3.243700
10.163000 2.063900
10.201700 1.317200
10.240400 1.837500
10.279100 2.888600
10.317700 3.161200
10.356400 3.255900
10.395100 3.224200
10.433800 2.595200
10.472500 2.235200
10.511200 2.112300
10.549900 2.211000
10.588600 2.092900
10.627300 1.663400
10.666000 1.777000
10.704700 2.076900
10.743400 2.264200
10.782100 2.244900
10.820800 2.015800
10.859500 1.815400
10.898200 2.062700
10.936900 2.879600
10.975600 3.093200
11.014300 2.391600
11.053000 2.162300
11.091700 2.667100
11.130400 2.502300
11.169100 2.539700
11.207800 2.626900
11.246500 1.847100
11.285200 0.948700
11.323900 0.759400
11.362600 1.237900
11.401300 1.897400
11.440000 2.552200
11.478700 2.903400
11.517400 2.979800
11.556100 2.746400
11.594800 2.194600
11.633500 2.297600
11.672200 2.723000
11.710900 2.274300
11.749600 1.807700
11.788300 1.670300
11.827000 1.818000
11.865700 2.842400
11.904400 3.506800
11.943000 2.675600
11.981700 1.961300
12.020400 1.991900
12.059100 2.063400
12.097800 2.181200
12.136500 2.037300
12.175200 1.788500
12.213900 1.604200
12.252600 1.901400
12.291300 2.830900
12.330000 2.815900
12.368700 2.187300
12.407400 1.943800
12.446100 2.170200
12.484800 2.676900
12.523500 3.211200
12.562200 3.391900
12.600900 3.392300
12.639600 3.248300
12.678300 3.112500
12.717000 3.769300
12.755700 3.888300
12.794400 2.937300
12.833100 2.302800
12.871800 2.551900
12.910500 3.031500
12.949200 3.009200
12.987900 3.138300
13.026600 2.941800
13.065300 2.741100
13.104000 3.288000
13.142700 3.648800
13.181400 3.356000
13.220100 3.374100
13.258800 3.662200
13.297500 2.952100
13.336200 2.278800
13.374900 2.265200
13.413600 2.255300
13.452300 2.053300
13.491000 2.160500
13.529700 2.309200
13.568300 2.522700
13.607000 2.579000
13.645700 2.049300
13.684400 1.730000
13.723100 2.028400
13.761800 2.574700
13.800500 3.048200
13.839200 3.070000
13.877900 2.881700
13.916600 3.002900
13.955300 3.170500
13.994000 3.018300
14.032700 3.082700
14.071400 3.514300
14.110100 3.456400
14.148800 2.921000
14.187500 2.539100
14.226200 2.265200
14.264900 2.289900
14.303600 2.364600
14.342300 1.949800
14.381000 1.501300
14.419700 1.575100
14.458400 1.605700
14.497100 1.743400
14.535800 2.242300
14.574500 2.143100
14.613200 1.682000
14.651900 1.942500
14.690600 2.990100
14.729300 3.228000
14.768000 3.172200
14.806700 3.228900
14.845400 2.778300
14.884100 1.730500
14.922800 1.033700
14.961500 1.211800
15.000200 1.819000
15.038900 2.376700
15.077600 2.979000
15.116300 3.275400
15.155000 3.200900
15.193600 2.600600
15.232300 1.941700
15.271000 1.851300
15.309700 1.974900
15.348400 1.882600
15.387100 1.771000
15.425800 2.065800
15.464500 2.232800
15.503200 1.425000
15.541900 0.856000
15.580600 1.529600
15.619300 2.083700
15.658000 1.758400
15.696700 1.635700
15.735400 2.262200
15.774100 2.773700
15.812800 2.604600
15.851500 2.250200
15.890200 2.377400
15.928900 3.211800
15.967600 4.135500
16.006300 3.666100
16.045000 2.254100
16.083700 1.935800
16.122400 2.776400
16.161100 3.398300
16.199800 3.613100
16.238500 3.126700
16.277200 2.633200
16.315900 2.611700
16.354600 3.398700
16.393300 3.975400
16.432000 3.306300
16.470700 2.803800
16.509400 3.319000
16.548100 3.876300
16.586800 3.845700
16.625500 4.163400
16.664200 4.509400
16.702900 3.951500
16.741600 3.605600
16.780300 3.752500
16.818900 4.220000
16.857600 4.035600
16.896300 3.005400
16.935000 3.285100
16.973700 3.785200
17.012400 3.777500
17.051100 3.461800
17.089800 2.773200
17.128500 2.461400
17.167200 2.536600
17.205900 3.398000
17.244600 4.387000
17.283300 4.372900
17.322000 4.324600
17.360700 4.629700
17.399400 3.785600
17.438100 2.692500
17.476800 2.562200
17.515500 2.514000
17.554200 1.998400
17.592900 2.032500
17.631600 2.615300
17.670300 2.648000
17.709000 2.690200
17.747700 3.217400
17.786400 3.082000
17.825100 2.939100
17.863800 3.194700
17.902500 3.145300
17.941200 3.341200
17.979900 3.180400
18.018600 2.432400
18.057300 2.459200
18.096000 3.558500
18.134700 3.791600
18.173400 3.123000
18.212100 2.720800
18.250800 2.727900
18.289500 2.425000
18.328200 1.802200
18.366900 2.175400
18.405600 3.150500
18.444200 3.255800
18.482900 2.798300
18.521600 2.606500
18.560300 2.935200
18.599000 3.321400
18.637700 3.186200
18.676400 3.041400
18.715100 3.694100
18.753800 4.111800
18.792500 3.815200
18.831200 3.233900
18.869900 2.537300
18.908600 2.617100
18.947300 2.913600
18.986000 2.187800
19.024700 1.713000
19.063400 2.069900
19.102100 2.429300
19.140800 2.360500
19.179500 2.248500
19.218200 2.368600
19.256900 2.308300
19.295600 2.604500
19.334300 2.476300
19.373000 2.220700
19.411700 2.826600
19.450400 3.454300
19.489100 3.534100
19.527800 3.022000
19.566500 1.933200
19.605200 1.433600
19.643900 1.492000
19.682600 1.757400
19.721300 2.241100
19.760000 2.818200
19.798700 2.897400
19.837400 2.613800
19.876100 2.883300
19.914800 3.718900
19.953500 3.938600
19.992200 3.726900
20.030900 3.563300
20.069500 3.042700
20.108200 2.899900
20.146900 2.660200
20.185600 1.811100
20.224300 1.647000
20.263000 2.251800
20.301700 3.234100
20.340400 4.617700
20.379100 5.045700
20.417800 4.542800
20.456500 3.965900
20.495200 3.097100
20.533900 2.886200
20.572600 3.387400
20.611300 3.361800
20.650000 2.493700
20.688700 2.013200
20.727400 2.967500
20.766100 3.273300
20.804800 2.769700
20.843500 3.023000
20.882200 3.307000
20.920900 3.192600
20.959600 3.034100
20.998300 2.945900
21.037000 3.365400
21.075700 3.350700
21.114400 3.072200
21.153100 3.493200
21.191800 3.849900
21.230500 4.325900
21.269200 4.897800
21.307900 4.511700
21.346600 3.640700
21.385300 3.620600
21.424000 3.696000
21.462700 2.973600
21.501400 3.279300
21.540100 4.125000
21.578800 3.975800
21.617500 3.340100
21.656200 3.244000
21.694800 3.532000
21.733500 3.094200
21.772200 2.523400
21.810900 2.864800
21.849600 3.605600
21.888300 3.657400
21.927000 3.675200
21.965700 4.222400
22.004400 4.326800
22.043100 3.573600
22.081800 3.309300
22.120500 3.355500
22.159200 3.167000
22.197900 2.990700
22.236600 2.902200
22.275300 2.727000
22.314000 2.368600
22.352700 2.361800
22.391400 2.753200
22.430100 3.278400
22.468800 3.500100
22.507500 2.713400
22.546200 1.806700
22.584900 1.921800
22.623600 2.638500
22.662300 3.267900
22.701000 3.519500
22.739700 2.978300
22.778400 1.924300
22.817100 1.209300
22.855800 1.195500
22.894500 1.951200
22.933200 2.783600
22.971900 2.998800
23.010600 2.999500
23.049300 3.045100
23.088000 2.992000
23.126700 2.649800
23.165400 2.297500
23.204100 2.230200
23.242800 1.978800
23.281500 1.663000
23.320200 2.172500
23.358800 2.935000
23.397500 2.981900
23.436200 2.528500
23.474900 2.315900
23.513600 3.152000
23.552300 4.371100
23.591000 4.135400
23.629700 3.142400
23.668400 2.311200
23.707100 2.070200
23.745800 2.835200
23.784500 3.379100
23.823200 3.331900
23.861900 3.348200
23.900600 3.406200
23.939300 3.188100
23.978000 3.251800
24.016700 3.956900
24.055400 4.217800
24.094100 3.713100
24.132800 3.272900
24.171500 2.607600
24.210200 2.716900
24.248900 3.323300
24.287600 3.773600
24.326300 3.813500
24.365000 3.636400
24.403700 3.803000
24.442400 3.649700
24.481100 3.253800
24.519800 2.998300
24.558500 3.067100
24.597200 3.064900
24.635900 3.229600
24.674600 3.693300
24.713300 4.235000
24.752000 4.248900
24.790700 3.748300
24.829400 3.788900
24.868100 3.595100
24.906800 3.316900
24.945500 3.629000
24.984100 3.541200
25.022800 3.443500
25.061500 2.980700
25.100200 3.001700
25.138900 3.334200
25.177600 3.029900
25.216300 3.108700
25.255000 4.118100
25.293700 4.769800
25.332400 3.791200
25.371100 2.454900
25.409800 2.000200
25.448500 1.839000
25.487200 2.113200
25.525900 2.611400
25.564600 2.851300
25.603300 3.028500
25.642000 3.341100
25.680700 3.750200
25.719400 4.142700
25.758100 3.743400
25.796800 3.046500
25.835500 2.899300
25.874200 2.752400
25.912900 3.420600
25.951600 4.637500
25.990300 4.958400
26.029000 4.104100
26.067700 2.889800
26.106400 1.955600
26.145100 1.779600
26.183800 2.755800
26.222500 3.518000
26.261200 3.289600
26.299900 3.480300
26.338600 4.517000
26.377300 4.614100
26.416000 3.718000
26.454700 4.281400
26.493400 5.387800
26.532100 5.046200
26.570800 3.798500
26.609400 2.771500
26.648100 3.000700
26.686800 4.042200
26.725500 4.265700
26.764200 4.194500
26.802900 4.562000
26.841600 4.502300
26.880300 4.141400
26.919000 4.160200
26.957700 3.935300
26.996400 3.800000
27.035100 3.915000
27.073800 3.626700
27.112500 2.984400
27.151200 3.037700
27.189900 3.297100
27.228600 3.341200
27.267300 3.506700
27.306000 4.252100
27.344700 5.037200
27.383400 4.921400
27.422100 4.652900
27.460800 4.476800
27.499500 4.667700
27.538200 4.305900
27.576900 3.230400
27.615600 3.251800
27.654300 3.979900
27.693000 4.252700
27.731700 3.886200
27.770400 3.638500
27.809100 3.663300
27.847800 3.351000
27.886500 3.294600
27.925200 4.001400
27.963900 4.239600
28.002600 3.742500
28.041300 3.744600
28.080000 4.260800
28.118700 5.549500
28.157400 6.196400
28.196100 4.634000
28.234700 2.948600
28.273400 2.897900
28.312100 3.619500
28.350800 3.714500
28.389500 3.652700
28.428200 3.971000
28.466900 4.408200
28.505600 4.038200
28.544300 3.692300
28.583000 3.947200
28.621700 4.739200
28.660400 5.770800
28.699100 5.618900
28.737800 4.355100
28.776500 3.561300
28.815200 3.442800
28.853900 3.282400
28.892600 3.219500
28.931300 3.142300
28.970000 2.683800
29.008700 2.235400
29.047400 2.322500
29.086100 3.743900
29.124800 5.320200
29.163500 4.676700
29.202200 3.431600
29.240900 3.296000
29.279600 3.687800
29.318300 3.790200
29.357000 3.494700
29.395700 3.367700
29.434400 3.505700
29.473100 4.169400
29.511800 4.286700
29.550500 3.749900
29.589200 4.007800
29.627900 4.710600
29.666600 4.923800
29.705300 4.461900
29.744000 3.078200
29.782700 2.770200
29.821400 3.655800
29.860000 4.391200
29.898700 4.604000
29.937400 4.870400
29.976100 5.284400
30.014800 4.998400
30.053500 3.882000
30.092200 3.173300
30.130900 3.083800
30.169600 3.406900
30.208300 4.521400
30.247000 5.536500
30.285700 4.883700
30.324400 3.787300
30.363100 3.940400
30.401800 4.362300
30.440500 4.398200
30.479200 4.386900
30.517900 3.834800
30.556600 2.837000
30.595300 2.529700
30.634000 2.958200
30.672700 3.763100
30.711400 4.584600
30.750100 3.976500
30.788800 2.796500
30.827500 2.757500
30.866200 3.501800
30.904900 3.927900
30.943600 4.063600
30.982300 4.378700
31.021000 4.099600
31.059700 3.682100
31.098400 4.143300
31.137100 4.648500
31.175800 4.409500
31.214500 3.678400
31.253200 3.383400
31.291900 4.412400
31.330600 4.929400
31.369300 4.137100
31.408000 3.968900
31.446700 4.572400
31.485300 4.122800
31.524000 3.071900
31.562700 3.079400
31.601400 3.378100
31.640100 3.675100
31.678800 4.265600
31.717500 4.779500
31.756200 4.894700
31.794900 4.303200
31.833600 3.734200
31.872300 3.948000
31.911000 4.187200
31.949700 3.799100
31.988400 3.264200
32.027100 2.580100
32.065800 2.190300
32.104500 2.861900
32.143200 4.306500
32.181900 5.324800
32.220600 4.649600
32.259300 3.737800
32.298000 3.281000
32.336700 3.301200
32.375400 3.941500
32.414100 4.090200
32.452800 3.605600
32.491500 2.961800
32.530200 2.368700
32.568900 2.568900
32.607600 3.081500
32.646300 3.194900
32.685000 4.202600
32.723700 4.913200
32.762400 3.532900
32.801100 2.142700
32.839800 1.821400
32.878500 1.412300
32.917200 1.490200
32.955900 1.896100
32.994600 1.831200
33.033300 1.766000
33.072000 1.969900
33.110600 2.119300
33.149300 2.427100
33.188000 2.548100
33.226700 1.890100
33.265400 1.280700
33.304100 1.017100
33.342800 1.009500
33.381500 1.236200
33.420200 1.206000
33.458900 1.104400
33.497600 0.952100
33.536300 0.808200
33.575000 0.874500
33.613700 0.796900
33.652400 0.478500
33.691100 0.295200
33.729800 0.305800
33.768500 0.353700
33.807200 0.322200
33.845900 0.233200
33.884600 0.212800
33.923300 0.268900
33.962000 0.289000
34.000700 0.277400
34.039400 0.144700
34.078100 0.047800
34.116800 0.059600
34.155500 0.072900
34.194200 0.042300
34.232900 0.010700
34.271600 0.011400
34.310300 0.074100
34.349000 0.184800
34.387700 0.172300
34.426400 0.064100
34.465100 0.009900
34.503800 0.000600
34.542500 0.000100
34.581200 0.001900
34.619900 0.016100
34.658600 0.050700
34.697300 0.071400
34.735900 0.049500
34.774600 0.015300
34.813300 0.002900
34.852000 0.010900
34.890700 0.035600
34.929400 0.039300
34.968100 0.014600
35.006800 0.001800
35.045500 0.000100
35.084200 0.000000
35.122900 0.000000
35.161600 0.000000
35.200300 0.000000
35.239000 0.000000
35.277700 0.000000
35.316400 0.000000
35.355100 0.000000
35.393800 0.000000
35.432500 0.000000
35.471200 0.000000
35.509900 0.000000
35.548600 0.000000
35.587300 0.000000
35.626000 0.000000
35.664700 0.000000
35.703400 0.000000
35.742100 0.000000
35.780800 0.000000
35.819500 0.000000
35.858200 0.000000
35.896900 0.000000
35.935600 0.000000
35.974300 0.000000
36.013000 0.000000
36.051700 0.000000
36.090400 0.000000
36.129100 0.000000
36.167800 0.000000
36.206500 0.000000
36.245200 0.000000
36.283900 0.000000
36.322600 0.000000
36.361200 0.000000
36.399900 0.000000
36.438600 0.000000
36.477300 0.000000
36.516000 0.000000
36.554700 0.000000
36.593400 0.000000
36.632100 0.000000
36.670800 0.000000
36.709500 0.000000
36.748200 0.000000
36.786900 0.000000
36.825600 0.000000
36.864300 0.000000
36.903000 0.000000
36.941700 0.000000
36.980400 0.000000
37.019100 0.000000
37.057800 0.000000
37.096500 0.000000
37.135200 0.000000
37.173900 0.000000
37.212600 0.000000
37.251300 0.000000
37.290000 0.000000
37.328700 0.000000
37.367400 0.000000
37.406100 0.000000
37.444800 0.000000
37.483500 0.000000
37.522200 0.000000
37.560900 0.000000
37.599600 0.000000
37.638300 0.000000
37.677000 0.000000
37.715700 0.000000
37.754400 0.000000
37.793100 0.000000
37.831800 0.000000
37.870500 0.000000
37.909200 0.000000
37.947900 0.000000
37.986500 0.000000
38.025200 0.000000
38.063900 0.000000
38.102600 0.000000
38.141300 0.000000
38.180000 0.000000
38.218700 0.000000
38.257400 0.000000
38.296100 0.000000
38.334800 0.000000
38.373500 0.000000
38.412200 0.000000
e
