set title 'mp-27215 - Density of States'
set xlabel 'Energy (eV)'
set ylabel 'DOS (states/eV)'
set grid
set xrange [-10:10]
set yrange [0:10.383]
set xzeroaxis lt -1
set terminal png size 800,600
set output 'mp-27215_dos_gnuplot.png'
plot '-' using 1:2 with lines title 'DOS'
-45.182300 0.000000
-45.138300 0.000000
-45.094400 0.000000
-45.050500 0.000000
-45.006500 0.000000
-44.962600 0.000000
-44.918700 0.000000
-44.874700 0.000000
-44.830800 0.000000
-44.786900 0.000000
-44.742900 0.000000
-44.699000 0.000000
-44.655100 0.000000
-44.611100 0.000000
-44.567200 0.000000
-44.523300 0.000000
-44.479300 0.000000
-44.435400 0.000000
-44.391400 0.000000
-44.347500 0.000000
-44.303600 0.000000
-44.259600 0.000000
-44.215700 0.000000
-44.171800 0.000000
-44.127800 0.000000
-44.083900 0.000000
-44.040000 0.000000
-43.996000 0.000000
-43.952100 0.000000
-43.908200 0.000000
-43.864200 0.000000
-43.820300 0.000000
-43.776400 0.000000
-43.732400 0.000000
-43.688500 0.000000
-43.644600 0.000000
-43.600600 0.000000
-43.556700 0.000000
-43.512700 0.000000
-43.468800 0.000000
-43.424900 0.000000
-43.380900 0.000000
-43.337000 0.000000
-43.293100 0.000000
-43.249100 0.000000
-43.205200 0.000000
-43.161300 0.000000
-43.117300 0.000000
-43.073400 0.000000
-43.029500 0.000000
-42.985500 0.000000
-42.941600 0.000000
-42.897700 0.000000
-42.853700 0.000000
-42.809800 0.000000
-42.765900 0.000000
-42.721900 0.000000
-42.678000 0.000000
-42.634100 0.000000
-42.590100 0.000000
-42.546200 0.000000
-42.502200 0.000000
-42.458300 0.000000
-42.414400 0.000000
-42.370400 0.000000
-42.326500 0.000000
-42.282600 0.000000
-42.238600 0.000000
-42.194700 0.000000
-42.150800 0.000000
-42.106800 0.000000
-42.062900 0.000000
-42.019000 0.000000
-41.975000 0.000000
-41.931100 0.000000
-41.887200 0.000000
-41.843200 0.000000
-41.799300 0.000000
-41.755400 0.000000
-41.711400 0.000000
-41.667500 0.000000
-41.623600 0.000000
-41.579600 0.000000
-41.535700 0.000000
-41.491700 0.000000
-41.447800 0.000000
-41.403900 0.000000
-41.359900 0.000000
-41.316000 0.000000
-41.272100 0.000000
-41.228100 0.000000
-41.184200 207.694900
-41.140300 0.000000
-41.096300 0.000000
-41.052400 0.000000
-41.008500 0.000000
-40.964500 0.000000
-40.920600 0.000000
-40.876700 0.000000
-40.832700 0.000000
-40.788800 0.000000
-40.744900 0.000000
-40.700900 0.000000
-40.657000 0.000000
-40.613100 0.000000
-40.569100 0.000000
-40.525200 0.000000
-40.481200 0.000000
-40.437300 0.000000
-40.393400 0.000000
-40.349400 0.000000
-40.305500 0.000000
-40.261600 0.000000
-40.217600 0.000000
-40.173700 0.000000
-40.129800 0.000000
-40.085800 0.000000
-40.041900 0.000000
-39.998000 0.000000
-39.954000 0.000000
-39.910100 0.000000
-39.866200 0.000000
-39.822200 0.000000
-39.778300 0.000000
-39.734400 0.000000
-39.690400 0.000000
-39.646500 0.000000
-39.602500 0.000000
-39.558600 0.000000
-39.514700 0.000000
-39.470700 0.000000
-39.426800 0.000000
-39.382900 0.000000
-39.338900 0.000000
-39.295000 0.000000
-39.251100 0.000000
-39.207100 0.000000
-39.163200 0.000000
-39.119300 0.000000
-39.075300 0.000000
-39.031400 0.000000
-38.987500 0.000000
-38.943500 0.000000
-38.899600 0.000000
-38.855700 0.000000
-38.811700 0.000000
-38.767800 0.000000
-38.723900 0.000000
-38.679900 0.000000
-38.636000 0.000000
-38.592000 0.000000
-38.548100 0.000000
-38.504200 0.000000
-38.460200 0.000000
-38.416300 0.000000
-38.372400 0.000000
-38.328400 0.000000
-38.284500 0.000000
-38.240600 0.000000
-38.196600 0.000000
-38.152700 0.000000
-38.108800 0.000000
-38.064800 0.000000
-38.020900 0.000000
-37.977000 0.000000
-37.933000 0.000000
-37.889100 0.000000
-37.845200 0.000000
-37.801200 0.000000
-37.757300 0.000000
-37.713400 0.000000
-37.669400 0.000000
-37.625500 0.000000
-37.581500 0.000000
-37.537600 0.000000
-37.493700 0.000000
-37.449700 0.000000
-37.405800 0.000000
-37.361900 0.000000
-37.317900 0.000000
-37.274000 0.000000
-37.230100 0.000000
-37.186100 0.000000
-37.142200 0.000000
-37.098300 0.000000
-37.054300 0.000000
-37.010400 0.000000
-36.966500 0.000000
-36.922500 0.000000
-36.878600 0.000000
-36.834700 0.000000
-36.790700 0.000000
-36.746800 0.000000
-36.702900 0.000000
-36.658900 0.000000
-36.615000 0.000000
-36.571000 0.000000
-36.527100 0.000000
-36.483200 0.000000
-36.439200 0.000000
-36.395300 0.000000
-36.351400 0.000000
-36.307400 0.000000
-36.263500 0.000000
-36.219600 0.000000
-36.175600 0.000000
-36.131700 0.000000
-36.087800 0.000000
-36.043800 0.000000
-35.999900 0.000000
-35.956000 0.000000
-35.912000 0.000000
-35.868100 0.000000
-35.824200 0.000000
-35.780200 0.000000
-35.736300 0.000000
-35.692300 0.000000
-35.648400 0.000000
-35.604500 0.000000
-35.560500 0.000000
-35.516600 0.000000
-35.472700 0.000000
-35.428700 0.000000
-35.384800 0.000000
-35.340900 0.000000
-35.296900 0.000000
-35.253000 0.000000
-35.209100 0.000000
-35.165100 0.000000
-35.121200 0.000000
-35.077300 0.000000
-35.033300 0.000000
-34.989400 0.000000
-34.945500 0.000000
-34.901500 0.000000
-34.857600 0.000000
-34.813700 0.000000
-34.769700 0.000000
-34.725800 0.000000
-34.681800 0.000000
-34.637900 0.000000
-34.594000 0.000000
-34.550000 0.000000
-34.506100 0.000000
-34.462200 0.000000
-34.418200 0.000000
-34.374300 0.000000
-34.330400 0.000000
-34.286400 0.000000
-34.242500 0.000000
-34.198600 0.000000
-34.154600 0.000000
-34.110700 0.000000
-34.066800 0.000000
-34.022800 0.000000
-33.978900 0.000000
-33.935000 0.000000
-33.891000 0.000000
-33.847100 0.000000
-33.803200 0.000000
-33.759200 0.000000
-33.715300 0.000000
-33.671300 0.000000
-33.627400 0.000000
-33.583500 0.000000
-33.539500 0.000000
-33.495600 0.000000
-33.451700 0.000000
-33.407700 0.000000
-33.363800 0.000000
-33.319900 0.000000
-33.275900 0.000000
-33.232000 0.000000
-33.188100 0.000000
-33.144100 0.000000
-33.100200 0.000000
-33.056300 0.000000
-33.012300 0.000000
-32.968400 0.000000
-32.924500 0.000000
-32.880500 0.000000
-32.836600 0.000000
-32.792600 0.000000
-32.748700 0.000000
-32.704800 0.000000
-32.660800 0.000000
-32.616900 0.000000
-32.573000 0.000000
-32.529000 0.000000
-32.485100 0.000000
-32.441200 0.000000
-32.397200 0.000000
-32.353300 0.000000
-32.309400 0.000000
-32.265400 0.000000
-32.221500 0.000000
-32.177600 0.000000
-32.133600 0.000000
-32.089700 0.000000
-32.045800 0.000000
-32.001800 0.000000
-31.957900 0.000000
-31.914000 0.000000
-31.870000 0.000000
-31.826100 0.000000
-31.782100 0.000000
-31.738200 0.000000
-31.694300 0.000000
-31.650300 0.000000
-31.606400 0.000000
-31.562500 0.000000
-31.518500 0.000000
-31.474600 0.000000
-31.430700 0.000000
-31.386700 0.000000
-31.342800 0.000000
-31.298900 0.000000
-31.254900 0.000000
-31.211000 0.000000
-31.167100 0.000000
-31.123100 0.000000
-31.079200 0.000000
-31.035300 0.000000
-30.991300 0.000000
-30.947400 0.000000
-30.903500 0.000000
-30.859500 0.000000
-30.815600 0.000000
-30.771600 0.000000
-30.727700 0.000000
-30.683800 0.000000
-30.639800 0.000000
-30.595900 0.000000
-30.552000 0.000000
-30.508000 0.000000
-30.464100 0.000000
-30.420200 0.000000
-30.376200 0.000000
-30.332300 0.000000
-30.288400 0.000000
-30.244400 0.000000
-30.200500 0.000000
-30.156600 0.000000
-30.112600 0.000000
-30.068700 0.000000
-30.024800 0.000000
-29.980800 0.000000
-29.936900 0.000000
-29.893000 0.000000
-29.849000 0.000000
-29.805100 0.000000
-29.761100 0.000000
-29.717200 0.000000
-29.673300 0.000000
-29.629300 0.000000
-29.585400 0.000000
-29.541500 0.000000
-29.497500 0.000000
-29.453600 0.000000
-29.409700 0.000000
-29.365700 0.000000
-29.321800 0.000000
-29.277900 0.000000
-29.233900 0.000000
-29.190000 0.000000
-29.146100 0.000000
-29.102100 0.000000
-29.058200 0.000000
-29.014300 0.000000
-28.970300 0.000000
-28.926400 0.000000
-28.882400 0.000000
-28.838500 0.000000
-28.794600 0.000000
-28.750600 0.000000
-28.706700 0.000000
-28.662800 0.000000
-28.618800 0.000000
-28.574900 0.000000
-28.531000 0.000000
-28.487000 0.000000
-28.443100 0.000000
-28.399200 0.000000
-28.355200 0.000000
-28.311300 0.000000
-28.267400 0.000000
-28.223400 0.000000
-28.179500 0.000000
-28.135600 0.000000
-28.091600 0.000000
-28.047700 0.000000
-28.003800 0.000000
-27.959800 0.000000
-27.915900 0.000000
-27.871900 0.000000
-27.828000 0.000000
-27.784100 0.000000
-27.740100 0.000000
-27.696200 0.000000
-27.652300 0.000000
-27.608300 0.000000
-27.564400 0.000000
-27.520500 0.000000
-27.476500 0.000000
-27.432600 0.000000
-27.388700 0.000000
-27.344700 0.000000
-27.300800 0.000000
-27.256900 0.000000
-27.212900 0.000000
-27.169000 0.000000
-27.125100 0.000000
-27.081100 0.000000
-27.037200 0.000000
-26.993300 0.000000
-26.949300 0.000000
-26.905400 0.000000
-26.861400 0.000000
-26.817500 0.000000
-26.773600 0.000000
-26.729600 0.000000
-26.685700 0.000000
-26.641800 0.000000
-26.597800 0.000000
-26.553900 0.000000
-26.510000 0.000000
-26.466000 0.000000
-26.422100 0.000000
-26.378200 0.000000
-26.334200 0.000000
-26.290300 0.000000
-26.246400 0.000000
-26.202400 0.000000
-26.158500 0.000000
-26.114600 0.000000
-26.070600 0.000000
-26.026700 0.000000
-25.982800 0.000000
-25.938800 0.000000
-25.894900 0.000000
-25.850900 0.000000
-25.807000 0.000000
-25.763100 0.000000
-25.719100 0.000000
-25.675200 0.000000
-25.631300 0.000000
-25.587300 0.000000
-25.543400 0.000000
-25.499500 0.000000
-25.455500 0.000000
-25.411600 0.000000
-25.367700 0.000000
-25.323700 0.000000
-25.279800 0.000000
-25.235900 0.000000
-25.191900 0.000000
-25.148000 0.000000
-25.104100 0.000000
-25.060100 0.000000
-25.016200 0.000000
-24.972200 0.000000
-24.928300 0.000000
-24.884400 0.000000
-24.840400 0.000000
-24.796500 0.000000
-24.752600 0.000000
-24.708600 0.000000
-24.664700 0.000000
-24.620800 0.000000
-24.576800 0.000000
-24.532900 0.000000
-24.489000 0.000000
-24.445000 0.000000
-24.401100 0.000000
-24.357200 0.000000
-24.313200 0.000000
-24.269300 0.000000
-24.225400 0.000000
-24.181400 0.000000
-24.137500 0.000000
-24.093600 0.000000
-24.049600 0.000000
-24.005700 0.000000
-23.961700 0.000000
-23.917800 0.000000
-23.873900 0.000000
-23.829900 0.000000
-23.786000 0.000000
-23.742100 0.000000
-23.698100 0.000000
-23.654200 0.000000
-23.610300 0.000000
-23.566300 0.000000
-23.522400 0.000000
-23.478500 0.000000
-23.434500 0.000000
-23.390600 0.000000
-23.346700 0.000000
-23.302700 0.000000
-23.258800 0.000000
-23.214900 0.000000
-23.170900 0.000000
-23.127000 0.000000
-23.083100 0.000000
-23.039100 0.000000
-22.995200 0.000000
-22.951200 0.000000
-22.907300 0.000000
-22.863400 0.000000
-22.819400 0.000000
-22.775500 0.000000
-22.731600 0.000000
-22.687600 0.000000
-22.643700 0.000000
-22.599800 0.000000
-22.555800 0.000000
-22.511900 0.000000
-22.468000 0.000000
-22.424000 0.000000
-22.380100 0.000000
-22.336200 0.000000
-22.292200 0.000000
-22.248300 0.000000
-22.204400 0.000000
-22.160400 0.000000
-22.116500 0.000000
-22.072500 0.000000
-22.028600 0.000000
-21.984700 0.000000
-21.940700 0.000000
-21.896800 0.000000
-21.852900 0.000000
-21.808900 0.000000
-21.765000 0.000000
-21.721100 0.000000
-21.677100 0.000000
-21.633200 0.000000
-21.589300 0.000000
-21.545300 0.000000
-21.501400 0.000000
-21.457500 0.000000
-21.413500 0.000000
-21.369600 0.000000
-21.325700 0.000000
-21.281700 0.000000
-21.237800 0.000000
-21.193900 0.000000
-21.149900 0.000000
-21.106000 0.000000
-21.062000 0.000000
-21.018100 0.000000
-20.974200 0.000000
-20.930200 0.000000
-20.886300 0.000000
-20.842400 0.000000
-20.798400 0.000000
-20.754500 0.000000
-20.710600 0.000000
-20.666600 0.000000
-20.622700 0.000000
-20.578800 0.000000
-20.534800 0.000000
-20.490900 0.000000
-20.447000 0.000000
-20.403000 0.000000
-20.359100 0.000000
-20.315200 0.000000
-20.271200 0.000000
-20.227300 0.000000
-20.183400 0.000000
-20.139400 0.000000
-20.095500 0.000000
-20.051500 0.000000
-20.007600 0.000000
-19.963700 0.000000
-19.919700 0.000000
-19.875800 0.000000
-19.831900 0.000000
-19.787900 0.000000
-19.744000 0.000000
-19.700100 0.000000
-19.656100 0.000000
-19.612200 0.000000
-19.568300 0.000000
-19.524300 0.000000
-19.480400 0.000000
-19.436500 0.000000
-19.392500 0.000000
-19.348600 0.000000
-19.304700 0.000000
-19.260700 0.000000
-19.216800 0.000000
-19.172900 0.000000
-19.128900 0.000000
-19.085000 0.000000
-19.041000 0.000000
-18.997100 0.000000
-18.953200 0.000000
-18.909200 0.000000
-18.865300 0.000000
-18.821400 0.000000
-18.777400 0.000000
-18.733500 0.000000
-18.689600 0.000000
-18.645600 0.000000
-18.601700 0.000000
-18.557800 0.000000
-18.513800 0.000000
-18.469900 0.000000
-18.426000 0.000000
-18.382000 0.000000
-18.338100 0.000000
-18.294200 0.000000
-18.250200 0.000000
-18.206300 0.000000
-18.162300 0.000000
-18.118400 0.000000
-18.074500 0.000000
-18.030500 0.000000
-17.986600 0.000000
-17.942700 0.000000
-17.898700 0.000000
-17.854800 0.000000
-17.810900 0.000000
-17.766900 0.000000
-17.723000 0.000000
-17.679100 0.000000
-17.635100 0.000000
-17.591200 0.000000
-17.547300 0.000000
-17.503300 0.000000
-17.459400 0.000000
-17.415500 0.000000
-17.371500 0.000000
-17.327600 0.000000
-17.283700 0.000000
-17.239700 0.000000
-17.195800 0.000000
-17.151800 0.000000
-17.107900 0.000000
-17.064000 0.000000
-17.020000 0.000000
-16.976100 0.000000
-16.932200 0.000000
-16.888200 0.000000
-16.844300 0.000000
-16.800400 0.000000
-16.756400 0.000000
-16.712500 0.000000
-16.668600 0.000000
-16.624600 0.000000
-16.580700 0.000000
-16.536800 0.000000
-16.492800 0.000000
-16.448900 0.000000
-16.405000 0.000000
-16.361000 0.000000
-16.317100 0.000000
-16.273200 0.000000
-16.229200 0.000000
-16.185300 0.000000
-16.141300 0.000000
-16.097400 0.000000
-16.053500 0.000000
-16.009500 0.000000
-15.965600 0.000000
-15.921700 0.000000
-15.877700 0.000000
-15.833800 0.000000
-15.789900 0.000000
-15.745900 0.000000
-15.702000 0.000000
-15.658100 0.000000
-15.614100 0.000000
-15.570200 0.000000
-15.526300 0.000000
-15.482300 0.000000
-15.438400 0.000000
-15.394500 0.000000
-15.350500 0.000000
-15.306600 0.000000
-15.262600 0.000000
-15.218700 0.000000
-15.174800 0.000000
-15.130800 0.000000
-15.086900 0.000000
-15.043000 0.000000
-14.999000 0.000000
-14.955100 0.000000
-14.911200 0.000000
-14.867200 0.000000
-14.823300 0.000000
-14.779400 0.000000
-14.735400 0.000000
-14.691500 0.000000
-14.647600 0.000000
-14.603600 0.000000
-14.559700 0.000000
-14.515800 0.000000
-14.471800 0.000000
-14.427900 0.000000
-14.384000 0.000000
-14.340000 0.000000
-14.296100 0.000000
-14.252100 0.000000
-14.208200 0.000000
-14.164300 0.000000
-14.120300 0.000000
-14.076400 0.000000
-14.032500 0.000000
-13.988500 0.000000
-13.944600 0.000000
-13.900700 0.000000
-13.856700 0.000000
-13.812800 0.000000
-13.768900 0.000000
-13.724900 0.000000
-13.681000 0.000000
-13.637100 0.000000
-13.593100 0.000000
-13.549200 0.000000
-13.505300 0.000000
-13.461300 0.000000
-13.417400 0.000000
-13.373500 0.000000
-13.329500 0.000000
-13.285600 0.000000
-13.241600 0.000000
-13.197700 0.000000
-13.153800 0.000000
-13.109800 0.000000
-13.065900 0.000000
-13.022000 0.000000
-12.978000 0.000000
-12.934100 0.000000
-12.890200 0.000000
-12.846200 0.000000
-12.802300 0.000000
-12.758400 0.000000
-12.714400 0.000000
-12.670500 0.000000
-12.626600 0.000000
-12.582600 0.000000
-12.538700 0.000000
-12.494800 0.000000
-12.450800 0.000000
-12.406900 0.000000
-12.363000 0.000000
-12.319000 0.000000
-12.275100 0.000000
-12.231100 0.000000
-12.187200 0.000000
-12.143300 0.000000
-12.099300 0.000000
-12.055400 0.000000
-12.011500 0.000000
-11.967500 0.000000
-11.923600 0.000000
-11.879700 0.000000
-11.835700 0.000000
-11.791800 0.000000
-11.747900 0.000000
-11.703900 0.000000
-11.660000 0.000000
-11.616100 0.000000
-11.572100 0.000000
-11.528200 0.000000
-11.484300 0.000000
-11.440300 0.000000
-11.396400 0.000000
-11.352400 0.000000
-11.308500 0.000000
-11.264600 0.000000
-11.220600 0.000000
-11.176700 0.000000
-11.132800 0.000000
-11.088800 0.000000
-11.044900 0.000000
-11.001000 0.000000
-10.957000 0.000000
-10.913100 0.000000
-10.869200 0.000000
-10.825200 0.000000
-10.781300 0.000000
-10.737400 0.000000
-10.693400 0.000000
-10.649500 0.000000
-10.605600 0.000000
-10.561600 0.443600
-10.517700 0.840400
-10.473800 0.875300
-10.429800 0.924600
-10.385900 0.955100
-10.341900 1.035400
-10.298000 1.110700
-10.254100 1.198200
-10.210100 1.371000
-10.166200 1.552100
-10.122300 1.768600
-10.078300 1.611200
-10.034400 1.538000
-9.990500 2.687600
-9.946500 4.806200
-9.902600 8.797100
-9.858700 2.993900
-9.814700 2.965500
-9.770800 3.518600
-9.726900 6.599300
-9.682900 0.000000
-9.639000 0.000000
-9.595100 0.000000
-9.551100 0.000000
-9.507200 0.000000
-9.463300 0.000000
-9.419300 0.000000
-9.375400 0.000000
-9.331400 0.000000
-9.287500 0.000000
-9.243600 0.000000
-9.199600 0.000000
-9.155700 0.000000
-9.111800 0.000000
-9.067800 0.000000
-9.023900 0.000000
-8.980000 0.000000
-8.936000 0.000000
-8.892100 0.000000
-8.848200 0.000000
-8.804200 0.000000
-8.760300 0.000000
-8.716400 0.000000
-8.672400 0.000000
-8.628500 0.000000
-8.584600 0.000000
-8.540600 0.000000
-8.496700 0.000000
-8.452800 0.000000
-8.408800 0.000000
-8.364900 0.000000
-8.320900 0.000000
-8.277000 0.000000
-8.233100 0.000000
-8.189100 0.000000
-8.145200 0.000000
-8.101300 0.000000
-8.057300 0.000000
-8.013400 0.000000
-7.969500 0.000000
-7.925500 0.000000
-7.881600 0.000000
-7.837700 0.000000
-7.793700 0.000000
-7.749800 0.000000
-7.705900 0.000000
-7.661900 0.000000
-7.618000 0.000000
-7.574100 0.000000
-7.530100 0.000000
-7.486200 0.000000
-7.442200 0.000000
-7.398300 0.000000
-7.354400 0.000000
-7.310400 0.000000
-7.266500 0.000000
-7.222600 0.000000
-7.178600 0.000000
-7.134700 0.000000
-7.090800 0.000000
-7.046800 0.000000
-7.002900 0.000000
-6.959000 0.000000
-6.915000 0.000000
-6.871100 0.000000
-6.827200 0.000000
-6.783200 0.000000
-6.739300 0.000000
-6.695400 0.000000
-6.651400 0.000000
-6.607500 0.000000
-6.563600 0.000000
-6.519600 0.000000
-6.475700 0.000000
-6.431700 0.000000
-6.387800 0.000000
-6.343900 0.000000
-6.299900 0.000000
-6.256000 0.000000
-6.212100 0.000000
-6.168100 0.000000
-6.124200 0.000000
-6.080300 0.000000
-6.036300 0.000000
-5.992400 0.000000
-5.948500 0.000000
-5.904500 0.000000
-5.860600 0.000000
-5.816700 0.000000
-5.772700 0.000000
-5.728800 0.000000
-5.684900 0.000000
-5.640900 0.000000
-5.597000 0.000000
-5.553100 0.000000
-5.509100 0.000000
-5.465200 0.000000
-5.421200 0.000000
-5.377300 0.000000
-5.333400 0.000000
-5.289400 0.000000
-5.245500 0.000000
-5.201600 0.000000
-5.157600 0.000000
-5.113700 0.000000
-5.069800 0.000000
-5.025800 0.000000
-4.981900 0.000000
-4.938000 0.000000
-4.894000 0.000000
-4.850100 0.000000
-4.806200 0.000000
-4.762200 0.000000
-4.718300 0.000000
-4.674400 0.000000
-4.630400 0.000000
-4.586500 0.000000
-4.542500 0.000000
-4.498600 0.000000
-4.454700 0.000000
-4.410700 0.000000
-4.366800 0.000000
-4.322900 0.000000
-4.278900 0.000000
-4.235000 0.000000
-4.191100 0.000000
-4.147100 0.000000
-4.103200 0.000000
-4.059300 0.000000
-4.015300 0.000000
-3.971400 0.000000
-3.927500 0.000000
-3.883500 0.000000
-3.839600 0.000000
-3.795700 0.000000
-3.751700 0.000000
-3.707800 0.000000
-3.663900 0.000000
-3.619900 0.000000
-3.576000 0.000000
-3.532000 0.000000
-3.488100 0.000000
-3.444200 0.000000
-3.400200 0.000000
-3.356300 0.000000
-3.312400 0.000000
-3.268400 0.000000
-3.224500 0.000000
-3.180600 0.000000
-3.136600 0.000000
-3.092700 0.000000
-3.048800 0.000000
-3.004800 0.000000
-2.960900 0.000000
-2.917000 0.000000
-2.873000 0.000000
-2.829100 0.000000
-2.785200 0.000000
-2.741200 0.000000
-2.697300 0.000000
-2.653400 0.000000
-2.609400 0.000000
-2.565500 0.000000
-2.521500 0.000000
-2.477600 0.000000
-2.433700 0.000000
-2.389700 0.000000
-2.345800 0.000000
-2.301900 0.108400
-2.257900 0.441500
-2.214000 0.791000
-2.170100 1.015600
-2.126100 1.061500
-2.082200 0.706100
-2.038300 0.778000
-1.994300 0.824600
-1.950400 0.940000
-1.906500 1.150700
-1.862500 1.286200
-1.818600 1.621500
-1.774700 1.725000
-1.730700 1.798600
-1.686800 1.778500
-1.642900 1.784900
-1.598900 1.977400
-1.555000 1.335400
-1.511000 0.798000
-1.467100 0.522600
-1.423200 0.248300
-1.379200 0.741100
-1.335300 2.077600
-1.291400 2.995400
-1.247400 3.193000
-1.203500 2.590400
-1.159600 1.606100
-1.115600 1.170200
-1.071700 1.270400
-1.027800 1.106600
-0.983800 1.030400
-0.939900 1.117500
-0.896000 1.232100
-0.852000 1.422300
-0.808100 1.659700
-0.764200 1.984700
-0.720200 2.044100
-0.676300 2.281900
-0.632300 2.806600
-0.588400 2.327500
-0.544500 2.525800
-0.500500 2.644900
-0.456600 2.280800
-0.412700 2.443800
-0.368700 2.794400
-0.324800 3.561300
-0.280900 2.006400
-0.236900 2.056900
-0.193000 2.630200
-0.149100 3.135600
-0.105100 2.852300
-0.061200 2.843500
-0.017300 2.441600
0.026700 2.348300
0.070600 2.547400
0.114500 2.107100
0.158500 1.503900
0.202400 1.696000
0.246300 2.004500
0.290300 2.439300
0.334200 2.607000
0.378200 2.502700
0.422100 2.606000
0.466000 3.465000
0.510000 3.131900
0.553900 1.952300
0.597800 1.858100
0.641800 1.937200
0.685700 1.807600
0.729600 1.547500
0.773600 1.234200
0.817500 1.068100
0.861400 0.919500
0.905400 0.807400
0.949300 0.700100
0.993200 0.608300
1.037200 0.555900
1.081100 0.467000
1.125000 0.362200
1.169000 0.257400
1.212900 0.157500
1.256800 0.000000
1.300800 0.000000
1.344700 0.088200
1.388700 0.498400
1.432600 0.799900
1.476500 0.798600
1.520500 0.797400
1.564400 0.825600
1.608300 0.880400
1.652300 0.994800
1.696200 6.933200
1.740100 8.813800
1.784100 7.591900
1.828000 3.692200
1.871900 5.047200
1.915900 9.439100
1.959800 3.672800
2.003700 3.387800
2.047700 3.564100
2.091600 3.292300
2.135500 2.927500
2.179500 3.030600
2.223400 2.596700
2.267300 1.454900
2.311300 0.309800
2.355200 0.019600
2.399200 0.000000
2.443100 0.041700
2.487000 0.251800
2.531000 1.025700
2.574900 1.702800
2.618800 3.033800
2.662800 4.035900
2.706700 4.585000
2.750600 3.191700
2.794600 2.318700
2.838500 1.769700
2.882400 0.740500
2.926400 0.000000
2.970300 0.000000
3.014200 0.000000
3.058200 0.000000
3.102100 0.000000
3.146000 0.000000
3.190000 0.000200
3.233900 0.501900
3.277900 1.471900
3.321800 2.104400
3.365700 2.227800
3.409700 2.083700
3.453600 1.634800
3.497500 1.587400
3.541500 1.928200
3.585400 1.921100
3.629300 1.674600
3.673300 1.716200
3.717200 1.613300
3.761100 1.529800
3.805100 0.628400
3.849000 0.110400
3.892900 0.000000
3.936900 0.000000
3.980800 0.000000
4.024700 0.000000
4.068700 0.000000
4.112600 0.000000
4.156500 0.000000
4.200500 0.000000
4.244400 0.000000
4.288400 0.000000
4.332300 0.000000
4.376200 0.000000
4.420200 0.000000
4.464100 0.000000
4.508000 0.000000
4.552000 0.000000
4.595900 0.000000
4.639800 0.000000
4.683800 0.000000
4.727700 0.000000
4.771600 0.000000
4.815600 0.000000
4.859500 0.000000
4.903400 0.000000
4.947400 0.000000
4.991300 0.000000
5.035200 0.000000
5.079200 0.000000
5.123100 0.000000
5.167000 0.000000
5.211000 0.000000
5.254900 0.000000
5.298900 0.000000
5.342800 0.000000
5.386700 0.000000
5.430700 0.000000
5.474600 0.000000
5.518500 0.000000
5.562500 0.020400
5.606400 0.068000
5.650300 0.111300
5.694300 0.146900
5.738200 0.170500
5.782100 0.199300
5.826100 0.230000
5.870000 0.264000
5.913900 0.301300
5.957900 0.341300
6.001800 0.384600
6.045700 0.446600
6.089700 0.538000
6.133600 0.642100
6.177600 0.699800
6.221500 0.784400
6.265400 0.905500
6.309400 0.941700
6.353300 0.840400
6.397200 0.830000
6.441200 0.880400
6.485100 0.951800
6.529000 1.023300
6.573000 1.122500
6.616900 1.278000
6.660800 1.398900
6.704800 1.539800
6.748700 1.568100
6.792600 1.569700
6.836600 1.622700
6.880500 1.605100
6.924400 1.672700
6.968400 1.851500
7.012300 1.747300
7.056200 1.721100
7.100200 1.572600
7.144100 1.334100
7.188100 1.201100
7.232000 1.081600
7.275900 0.980900
7.319900 0.859000
7.363800 0.868800
7.407700 0.875000
7.451700 0.975100
7.495600 0.795700
7.539500 0.751800
7.583500 0.711900
7.627400 0.694900
7.671300 0.595900
7.715300 0.534000
7.759200 0.430700
7.803100 0.452300
7.847100 0.452900
7.891000 0.422000
7.934900 0.442000
7.978900 0.548800
8.022800 0.664100
8.066700 0.816500
8.110700 1.165400
8.154600 1.279500
8.198600 1.470300
8.242500 1.640700
8.286400 1.597700
8.330400 1.586800
8.374300 1.514300
8.418200 1.470000
8.462200 1.479800
8.506100 1.233400
8.550000 1.162600
8.594000 1.063500
8.637900 1.173800
8.681800 1.250300
8.725800 1.406900
8.769700 1.461400
8.813600 1.487700
8.857600 1.562000
8.901500 1.617900
8.945400 1.719700
8.989400 1.690600
9.033300 1.751600
9.077200 1.792600
9.121200 1.655200
9.165100 1.598200
9.209100 1.499300
9.253000 1.306900
9.296900 1.219700
9.340900 1.171300
9.384800 1.213400
9.428700 1.264300
9.472700 1.433300
9.516600 1.615000
9.560500 1.690000
9.604500 1.807700
9.648400 1.758100
9.692300 1.834600
9.736300 1.885900
9.780200 2.087000
9.824100 2.222700
9.868100 2.070700
9.912000 1.968800
9.955900 1.942500
9.999900 2.010100
10.043800 1.790800
10.087800 1.722600
10.131700 1.673800
10.175600 1.590300
10.219600 1.584500
10.263500 1.835800
10.307400 1.718500
10.351400 1.586600
10.395300 1.639600
10.439200 1.675400
10.483200 1.647000
10.527100 1.576500
10.571000 1.514200
10.615000 1.502100
10.658900 1.512600
10.702800 1.568000
10.746800 1.813000
10.790700 1.804000
10.834600 1.685600
10.878600 1.554500
10.922500 1.508900
10.966400 1.513300
11.010400 1.493600
11.054300 1.641200
11.098300 1.754500
11.142200 1.784800
11.186100 1.700400
11.230100 1.602100
11.274000 1.542400
11.317900 1.444100
11.361900 1.414700
11.405800 1.379700
11.449700 1.342200
11.493700 1.399300
11.537600 1.317000
11.581500 1.196300
11.625500 1.177200
11.669400 1.200200
11.713300 1.199200
11.757300 1.131200
11.801200 1.059800
11.845100 1.013300
11.889100 0.980800
11.933000 0.974700
11.976900 0.972300
12.020900 0.957800
12.064800 0.914100
12.108800 0.885200
12.152700 0.893600
12.196600 0.898900
12.240600 0.931000
12.284500 1.020500
12.328400 1.227300
12.372400 1.161100
12.416300 1.132200
12.460200 1.123100
12.504200 1.219500
12.548100 1.276500
12.592000 1.309200
12.636000 1.318600
12.679900 1.306100
12.723800 1.341200
12.767800 1.316100
12.811700 1.389100
12.855600 1.495900
12.899600 1.607900
12.943500 1.719100
12.987400 1.743900
13.031400 1.678600
13.075300 1.620200
13.119300 1.510300
13.163200 1.431900
13.207100 1.382700
13.251100 1.396600
13.295000 1.504700
13.338900 1.551400
13.382900 1.661900
13.426800 1.722300
13.470700 1.653100
13.514700 1.607300
13.558600 1.630700
13.602500 1.653900
13.646500 1.584300
13.690400 1.565900
13.734300 1.577300
13.778300 1.567100
13.822200 1.584600
13.866100 1.539900
13.910100 1.453500
13.954000 1.474200
13.998000 1.566700
14.041900 1.650500
14.085800 1.772500
14.129800 1.800300
14.173700 1.770100
14.217600 1.743200
14.261600 1.644900
14.305500 1.611300
14.349400 1.590000
14.393400 1.605200
14.437300 1.660300
14.481200 1.775700
14.525200 1.867600
14.569100 1.994900
14.613000 1.993700
14.657000 1.851800
14.700900 1.817700
14.744800 1.872300
14.788800 1.922900
14.832700 1.822100
14.876600 1.681800
14.920600 1.601900
14.964500 1.600400
15.008500 1.647100
15.052400 1.722500
15.096300 1.798400
15.140300 1.788200
15.184200 1.800000
15.228100 1.773000
15.272100 1.896200
15.316000 1.698700
15.359900 1.614100
15.403900 1.578800
15.447800 1.572000
15.491700 1.585300
15.535700 1.671400
15.579600 1.841800
15.623500 2.052100
15.667500 2.053200
15.711400 1.963900
15.755300 1.801800
15.799300 1.666500
15.843200 1.634000
15.887100 1.744800
15.931100 1.924900
15.975000 1.992700
16.019000 2.028000
16.062900 2.084900
16.106800 2.043300
16.150800 1.958000
16.194700 1.854400
16.238600 1.828400
16.282600 1.863400
16.326500 1.868900
16.370400 1.838900
16.414400 1.785400
16.458300 1.765400
16.502200 1.747800
16.546200 1.772800
16.590100 1.875900
16.634000 1.769500
16.678000 1.802300
16.721900 1.811700
16.765800 1.760500
16.809800 1.712200
16.853700 1.630600
16.897700 1.581400
16.941600 1.602400
16.985500 1.591200
17.029500 1.565100
17.073400 1.624500
17.117300 1.714300
17.161300 1.777000
17.205200 1.857200
17.249100 1.911600
17.293100 1.912900
17.337000 1.915000
17.380900 1.913600
17.424900 1.887200
17.468800 1.810500
17.512700 1.837300
17.556700 1.912300
17.600600 1.976100
17.644500 1.944400
17.688500 1.947600
17.732400 1.969200
17.776300 1.881900
17.820300 1.892300
17.864200 1.828600
17.908200 1.788200
17.952100 1.782200
17.996000 1.806700
18.040000 1.857900
18.083900 1.928700
18.127800 1.963400
18.171800 1.945600
18.215700 1.866900
18.259600 1.858500
18.303600 1.892500
18.347500 1.964000
18.391400 1.855600
18.435400 1.730100
18.479300 1.759800
18.523200 1.807600
18.567200 1.859800
18.611100 2.041000
18.655000 2.228100
18.699000 2.211600
18.742900 2.123900
18.786800 2.073900
18.830800 2.032000
18.874700 2.050500
18.918700 2.087500
18.962600 2.125900
19.006500 2.168800
19.050500 2.271400
19.094400 2.240200
19.138300 2.205400
19.182300 2.189200
19.226200 2.317100
19.270100 2.325300
19.314100 2.330300
19.358000 2.236200
19.401900 2.103700
19.445900 2.051700
19.489800 2.053100
19.533700 2.006600
19.577700 1.939800
19.621600 1.895400
19.665500 1.900400
19.709500 1.904500
19.753400 1.872500
19.797300 1.881500
19.841300 1.852300
19.885200 1.853300
19.929200 1.867100
19.973100 1.862800
20.017000 1.920900
20.061000 1.817300
20.104900 1.831300
20.148800 1.858700
20.192800 1.875600
20.236700 1.915600
20.280600 2.015500
20.324600 2.083900
20.368500 2.088000
20.412400 1.975000
20.456400 1.950900
20.500300 1.977400
20.544200 1.976100
20.588200 1.983300
20.632100 2.092100
20.676000 2.161300
20.720000 2.160400
20.763900 2.120600
20.807900 2.151000
20.851800 2.215400
20.895700 2.151300
20.939700 2.052500
20.983600 1.880500
21.027500 1.829100
21.071500 1.903700
21.115400 2.047800
21.159300 2.235900
21.203300 2.090400
21.247200 2.080800
21.291100 2.177300
21.335100 2.143900
21.379000 2.080200
21.422900 2.088300
21.466900 2.076900
21.510800 2.067500
21.554700 2.070400
21.598700 2.057200
21.642600 2.004300
21.686500 2.011600
21.730500 2.064900
21.774400 2.082300
21.818400 2.059900
21.862300 2.040600
21.906200 2.069400
21.950200 2.142500
21.994100 2.241400
22.038000 2.181800
22.082000 2.215700
22.125900 2.238900
22.169800 2.314300
22.213800 2.247200
22.257700 2.241400
22.301600 2.360700
22.345600 2.462000
22.389500 2.535000
22.433400 2.506100
22.477400 2.379400
22.521300 2.331900
22.565200 2.205000
22.609200 2.104500
22.653100 2.068900
22.697000 2.071400
22.741000 2.063500
22.784900 2.114300
22.828900 2.099600
22.872800 2.113000
22.916700 2.075700
22.960700 1.990600
23.004600 2.032900
23.048500 2.121700
23.092500 2.236100
23.136400 2.277700
23.180300 2.354200
23.224300 2.293900
23.268200 2.278600
23.312100 2.380100
23.356100 2.363400
23.400000 2.270100
23.443900 2.241800
23.487900 2.192500
23.531800 2.135200
23.575700 2.195200
23.619700 2.185800
23.663600 2.173600
23.707500 2.155600
23.751500 2.141800
23.795400 2.137200
23.839400 2.188700
23.883300 2.084500
23.927200 2.062300
23.971200 2.131800
24.015100 2.137600
24.059000 2.134400
24.103000 2.063400
24.146900 2.011900
24.190800 2.015400
24.234800 1.987500
24.278700 1.942800
24.322600 2.039200
24.366600 2.184800
24.410500 2.303800
24.454400 2.339300
24.498400 2.296800
24.542300 2.340500
24.586200 2.269700
24.630200 2.229900
24.674100 2.200900
24.718100 2.113500
24.762000 2.075900
24.805900 2.131000
24.849900 2.237600
24.893800 2.127500
24.937700 1.999700
24.981700 2.082300
25.025600 2.285000
25.069500 2.255100
25.113500 2.231200
25.157400 2.261800
25.201300 2.191400
25.245300 2.136100
25.289200 2.256100
25.333100 2.351700
25.377100 2.490300
25.421000 2.428500
25.464900 2.297000
25.508900 2.183700
25.552800 2.180400
25.596700 2.314200
25.640700 2.493300
25.684600 2.554000
25.728600 2.503400
25.772500 2.432700
25.816400 2.376800
25.860400 2.414500
25.904300 2.376000
25.948200 2.311600
25.992200 2.340700
26.036100 2.474800
26.080000 2.437800
26.124000 2.362600
26.167900 2.375300
26.211800 2.296800
26.255800 2.337700
26.299700 2.374700
26.343600 2.408500
26.387600 2.523100
26.431500 2.644300
26.475400 2.634400
26.519400 2.457000
26.563300 2.336700
26.607200 2.295600
26.651200 2.282300
26.695100 2.279900
26.739100 2.300100
26.783000 2.296700
26.826900 2.357100
26.870900 2.398500
26.914800 2.271700
26.958700 2.300600
27.002700 2.257800
27.046600 2.231900
27.090500 2.227200
27.134500 2.162100
27.178400 2.131300
27.222300 2.056500
27.266300 2.031600
27.310200 2.067900
27.354100 2.114700
27.398100 2.113900
27.442000 2.095000
27.485900 2.108700
27.529900 2.133400
27.573800 2.217000
27.617800 2.292600
27.661700 2.312200
27.705600 2.319800
27.749600 2.390000
27.793500 2.457600
27.837400 2.405400
27.881400 2.409600
27.925300 2.381300
27.969200 2.395000
28.013200 2.372400
28.057100 2.544700
28.101000 2.445800
28.145000 2.357100
28.188900 2.308800
28.232800 2.308300
28.276800 2.264200
28.320700 2.315000
28.364600 2.496900
28.408600 2.768400
28.452500 2.716900
28.496400 2.671300
28.540400 2.753200
28.584300 2.795600
28.628300 2.573400
28.672200 2.490000
28.716100 2.330900
28.760100 2.456000
28.804000 2.357900
28.847900 2.447600
28.891900 2.358900
28.935800 2.268100
28.979700 2.268900
29.023700 2.335000
29.067600 2.424700
29.111500 2.468800
29.155500 2.605500
29.199400 2.534000
29.243300 2.436500
29.287300 2.454100
29.331200 2.476100
29.375100 2.463400
29.419100 2.590700
29.463000 2.680100
29.506900 2.590700
29.550900 2.497700
29.594800 2.426900
29.638800 2.421400
29.682700 2.440300
29.726600 2.463400
29.770600 2.478500
29.814500 2.435300
29.858400 2.388600
29.902400 2.316100
29.946300 2.243300
29.990200 2.289100
30.034200 2.371400
30.078100 2.438400
30.122000 2.327600
30.166000 2.322000
30.209900 2.465400
30.253800 2.518800
30.297800 2.521000
30.341700 2.552400
30.385600 2.572400
30.429600 2.603200
30.473500 2.541600
30.517400 2.417300
30.561400 2.385700
30.605300 2.441800
30.649300 2.510600
30.693200 2.346900
30.737100 2.397400
30.781100 2.340300
30.825000 2.438200
30.868900 2.456300
30.912900 2.434000
30.956800 2.489600
31.000700 2.536100
31.044700 2.460000
31.088600 2.412500
31.132500 2.390800
31.176500 2.350100
31.220400 2.345800
31.264300 2.414600
31.308300 2.594300
31.352200 2.793100
31.396100 2.858900
31.440100 2.762500
31.484000 2.675100
31.528000 2.513400
31.571900 2.346800
31.615800 2.303000
31.659800 2.393400
31.703700 2.441700
31.747600 2.398200
31.791600 2.446400
31.835500 2.570700
31.879400 2.633100
31.923400 2.572200
31.967300 2.551600
32.011200 2.617300
32.055200 2.497600
32.099100 2.551600
32.143000 2.555300
32.187000 2.674000
32.230900 2.732200
32.274800 2.795300
32.318800 2.716300
32.362700 2.440900
32.406600 2.465900
32.450600 2.617200
32.494500 2.592700
32.538500 2.709800
32.582400 2.781600
32.626300 2.755200
32.670300 2.601800
32.714200 2.493000
32.758100 2.496500
32.802100 2.517600
32.846000 2.542100
32.889900 2.400100
32.933900 2.413100
32.977800 2.489200
33.021700 2.566100
33.065700 2.482200
33.109600 2.378400
33.153500 2.396300
33.197500 2.247000
33.241400 2.104100
33.285300 2.109300
33.329300 2.122600
33.373200 2.177100
33.417100 2.321300
33.461100 2.477800
33.505000 2.692500
33.549000 2.713600
33.592900 2.618800
33.636800 2.609400
33.680800 2.528800
33.724700 2.618600
33.768600 2.765400
33.812600 2.820100
33.856500 2.786600
33.900400 2.896700
33.944400 2.837200
33.988300 2.821600
34.032200 2.807900
34.076200 2.663200
34.120100 2.675600
34.164000 2.705100
34.208000 2.774500
34.251900 2.803800
34.295800 2.777700
34.339800 2.957400
34.383700 3.125700
34.427600 3.392600
34.471600 3.453700
34.515500 3.469200
34.559500 3.247000
34.603400 3.220800
34.647300 3.179300
34.691300 3.617300
34.735200 3.644200
34.779100 3.662100
34.823100 3.442600
34.867000 3.268700
34.910900 3.406800
34.954900 3.353200
34.998800 3.300300
35.042700 3.334000
35.086700 3.241000
35.130600 2.901700
35.174500 2.844200
35.218500 2.825400
35.262400 2.847900
35.306300 2.901300
35.350300 2.915000
35.394200 2.986800
35.438200 2.663000
35.482100 2.695500
35.526000 2.914800
35.570000 2.998600
35.613900 3.096900
35.657800 2.989600
35.701800 2.705200
35.745700 2.533600
35.789600 2.547300
35.833600 2.567800
35.877500 2.554600
35.921400 2.603000
35.965400 2.697700
36.009300 3.026000
36.053200 2.987500
36.097200 2.886500
36.141100 2.799400
36.185000 2.728100
36.229000 2.618200
36.272900 2.579000
36.316800 2.595600
36.360800 2.590000
36.404700 2.626500
36.448700 2.623900
36.492600 2.657700
36.536500 2.627500
36.580500 2.661800
36.624400 2.657600
36.668300 2.653400
36.712300 2.636900
36.756200 2.726700
36.800100 2.591200
36.844100 2.453000
36.888000 2.388200
36.931900 2.131400
36.975900 1.905700
37.019800 1.763300
37.063700 1.650700
37.107700 1.479100
37.151600 1.344200
37.195500 1.317000
37.239500 1.133000
37.283400 1.019700
37.327300 0.879900
37.371300 0.821100
37.415200 0.737300
37.459200 0.632800
37.503100 0.493900
37.547000 0.485000
37.591000 0.488700
37.634900 0.453400
37.678800 0.421800
37.722800 0.410400
37.766700 0.310100
37.810600 0.128000
37.854600 0.054100
37.898500 0.020000
37.942400 0.006900
37.986400 0.001200
38.030300 0.000000
38.074200 0.000000
38.118200 0.000000
38.162100 0.000000
38.206000 0.000000
38.250000 0.000000
38.293900 0.000000
38.337900 0.000000
38.381800 0.000000
38.425700 0.000000
38.469700 0.000000
38.513600 0.000000
38.557500 0.000000
38.601500 0.000000
38.645400 0.000000
38.689300 0.000000
38.733300 0.000000
38.777200 0.000000
38.821100 0.000000
38.865100 0.000000
38.909000 0.000000
38.952900 0.000000
38.996900 0.000000
39.040800 0.000000
39.084700 0.000000
39.128700 0.000000
39.172600 0.000000
39.216500 0.000000
39.260500 0.000000
39.304400 0.000000
39.348400 0.000000
39.392300 0.000000
39.436200 0.000000
39.480200 0.000000
39.524100 0.000000
39.568000 0.000000
39.612000 0.000000
39.655900 0.000000
39.699800 0.000000
39.743800 0.000000
39.787700 0.000000
39.831600 0.000000
39.875600 0.000000
39.919500 0.000000
39.963400 0.000000
40.007400 0.000000
40.051300 0.000000
40.095200 0.000000
40.139200 0.000000
40.183100 0.000000
40.227000 0.000000
40.271000 0.000000
40.314900 0.000000
40.358900 0.000000
40.402800 0.000000
40.446700 0.000000
40.490700 0.000000
40.534600 0.000000
40.578500 0.000000
40.622500 0.000000
40.666400 0.000000
40.710300 0.000000
40.754300 0.000000
40.798200 0.000000
40.842100 0.000000
40.886100 0.000000
40.930000 0.000000
40.973900 0.000000
41.017900 0.000000
41.061800 0.000000
41.105700 0.000000
41.149700 0.000000
41.193600 0.000000
41.237500 0.000000
41.281500 0.000000
41.325400 0.000000
41.369400 0.000000
41.413300 0.000000
41.457200 0.000000
41.501200 0.000000
41.545100 0.000000
41.589000 0.000000
41.633000 0.000000
41.676900 0.000000
41.720800 0.000000
41.764800 0.000000
41.808700 0.000000
41.852600 0.000000
41.896600 0.000000
41.940500 0.000000
41.984400 0.000000
42.028400 0.000000
42.072300 0.000000
42.116200 0.000000
42.160200 0.000000
42.204100 0.000000
42.248100 0.000000
42.292000 0.000000
42.335900 0.000000
42.379900 0.000000
42.423800 0.000000
42.467700 0.000000
42.511700 0.000000
42.555600 0.000000
42.599500 0.000000
42.643500 0.000000
42.687400 0.000000
e
