set title 'mp-1223919 - Density of States'
set xlabel 'Energy (eV)'
set ylabel 'DOS (states/eV)'
set grid
set xrange [-10:10]
set yrange [0:5.076]
set xzeroaxis lt -1
set terminal png size 800,600
set output 'mp-1223919_dos_gnuplot.png'
plot '-' using 1:2 with lines title 'DOS'
-43.550800 0.000000
-43.495000 0.000000
-43.439300 0.000000
-43.383600 0.000000
-43.327900 0.000000
-43.272200 0.000000
-43.216500 0.000000
-43.160800 0.000000
-43.105000 0.000000
-43.049300 0.000000
-42.993600 0.000000
-42.937900 0.000000
-42.882200 0.000000
-42.826500 0.000000
-42.770800 0.000000
-42.715000 0.000000
-42.659300 0.000000
-42.603600 0.000000
-42.547900 0.000000
-42.492200 0.000000
-42.436500 0.000000
-42.380800 0.000000
-42.325000 0.000000
-42.269300 0.000000
-42.213600 0.000000
-42.157900 0.000000
-42.102200 0.000000
-42.046500 0.000000
-41.990800 0.000000
-41.935000 0.000000
-41.879300 0.000000
-41.823600 0.000000
-41.767900 0.000000
-41.712200 0.000000
-41.656500 0.000000
-41.600800 0.000000
-41.545000 0.000000
-41.489300 0.000000
-41.433600 0.000000
-41.377900 0.000000
-41.322200 0.000000
-41.266500 0.000000
-41.210800 0.000000
-41.155000 0.000000
-41.099300 0.000000
-41.043600 0.000000
-40.987900 0.000000
-40.932200 0.000000
-40.876500 0.000000
-40.820800 0.000000
-40.765000 0.000000
-40.709300 0.000000
-40.653600 0.000000
-40.597900 0.000000
-40.542200 0.000000
-40.486500 0.000000
-40.430800 0.000000
-40.375000 0.000000
-40.319300 0.000000
-40.263600 0.000000
-40.207900 0.000000
-40.152200 0.000000
-40.096500 0.000000
-40.040800 0.000000
-39.985000 0.000000
-39.929300 0.000000
-39.873600 0.000000
-39.817900 0.000000
-39.762200 0.000000
-39.706500 0.000000
-39.650800 0.000000
-39.595000 0.000000
-39.539300 0.000000
-39.483600 0.000000
-39.427900 0.000000
-39.372200 0.000000
-39.316500 0.000000
-39.260800 0.000000
-39.205000 0.000000
-39.149300 0.000000
-39.093600 0.000000
-39.037900 0.000000
-38.982200 0.000000
-38.926500 0.000000
-38.870800 0.000000
-38.815100 0.000000
-38.759300 0.000000
-38.703600 0.000000
-38.647900 0.000000
-38.592200 0.000000
-38.536500 0.000000
-38.480800 3.641500
-38.425100 9.543000
-38.369300 14.790100
-38.313600 20.118700
-38.257900 5.946700
-38.202200 7.217800
-38.146500 11.328400
-38.090800 10.845300
-38.035100 9.023100
-37.979300 0.000000
-37.923600 0.000000
-37.867900 0.000000
-37.812200 0.000000
-37.756500 0.000000
-37.700800 0.000000
-37.645100 0.000000
-37.589300 0.000000
-37.533600 0.000000
-37.477900 0.000000
-37.422200 0.000000
-37.366500 0.000000
-37.310800 0.000000
-37.255100 0.000000
-37.199300 0.000000
-37.143600 0.000000
-37.087900 0.000000
-37.032200 0.000000
-36.976500 0.000000
-36.920800 0.000000
-36.865100 0.000000
-36.809300 0.000000
-36.753600 0.000000
-36.697900 0.000000
-36.642200 0.000000
-36.586500 0.000000
-36.530800 0.000000
-36.475100 0.000000
-36.419300 0.000000
-36.363600 0.000000
-36.307900 0.000000
-36.252200 0.000000
-36.196500 0.000000
-36.140800 0.000000
-36.085100 0.000000
-36.029300 0.000000
-35.973600 0.000000
-35.917900 0.000000
-35.862200 0.000000
-35.806500 0.000000
-35.750800 0.000000
-35.695100 0.000000
-35.639300 0.000000
-35.583600 0.000000
-35.527900 0.000000
-35.472200 0.000000
-35.416500 0.000000
-35.360800 0.000000
-35.305100 0.000000
-35.249300 0.000000
-35.193600 0.000000
-35.137900 0.000000
-35.082200 0.000000
-35.026500 0.000000
-34.970800 0.000000
-34.915100 0.000000
-34.859300 0.000000
-34.803600 0.000000
-34.747900 0.000000
-34.692200 0.000000
-34.636500 0.000000
-34.580800 0.000000
-34.525100 0.000000
-34.469300 0.000000
-34.413600 0.000000
-34.357900 0.000000
-34.302200 0.000000
-34.246500 0.000000
-34.190800 0.000000
-34.135100 0.000000
-34.079400 0.000000
-34.023600 0.000000
-33.967900 0.000000
-33.912200 0.000000
-33.856500 0.000000
-33.800800 0.000000
-33.745100 0.000000
-33.689400 0.000000
-33.633600 0.000000
-33.577900 0.000000
-33.522200 0.000000
-33.466500 0.000000
-33.410800 0.000000
-33.355100 0.000000
-33.299400 0.000000
-33.243600 0.000000
-33.187900 0.000000
-33.132200 0.000000
-33.076500 0.000000
-33.020800 0.000000
-32.965100 0.000000
-32.909400 0.000000
-32.853600 0.000000
-32.797900 0.000000
-32.742200 0.000000
-32.686500 0.000000
-32.630800 0.000000
-32.575100 0.000000
-32.519400 0.000000
-32.463600 0.000000
-32.407900 0.000000
-32.352200 0.000000
-32.296500 0.000000
-32.240800 0.000000
-32.185100 0.000000
-32.129400 0.000000
-32.073600 0.000000
-32.017900 0.000000
-31.962200 0.000000
-31.906500 0.000000
-31.850800 0.000000
-31.795100 0.000000
-31.739400 0.000000
-31.683600 0.000000
-31.627900 0.000000
-31.572200 0.000000
-31.516500 0.000000
-31.460800 0.000000
-31.405100 0.000000
-31.349400 0.000000
-31.293600 0.000000
-31.237900 0.000000
-31.182200 0.000000
-31.126500 0.000000
-31.070800 0.000000
-31.015100 0.000000
-30.959400 0.000000
-30.903600 0.000000
-30.847900 0.000000
-30.792200 0.000000
-30.736500 0.000000
-30.680800 0.000000
-30.625100 0.000000
-30.569400 0.000000
-30.513600 0.000000
-30.457900 0.000000
-30.402200 0.000000
-30.346500 0.000000
-30.290800 0.000000
-30.235100 0.000000
-30.179400 0.000000
-30.123600 0.000000
-30.067900 0.000000
-30.012200 0.000000
-29.956500 0.000000
-29.900800 0.000000
-29.845100 0.000000
-29.789400 0.000000
-29.733700 0.000000
-29.677900 0.000000
-29.622200 0.000000
-29.566500 0.000000
-29.510800 0.000000
-29.455100 0.000000
-29.399400 0.000000
-29.343700 0.000000
-29.287900 0.000000
-29.232200 0.000000
-29.176500 0.000000
-29.120800 0.000000
-29.065100 0.000000
-29.009400 0.000000
-28.953700 0.000000
-28.897900 0.000000
-28.842200 0.000000
-28.786500 0.000000
-28.730800 0.000000
-28.675100 0.000000
-28.619400 0.000000
-28.563700 0.000000
-28.507900 0.000000
-28.452200 0.000000
-28.396500 0.000000
-28.340800 0.000000
-28.285100 0.000000
-28.229400 0.000000
-28.173700 0.000000
-28.117900 0.000000
-28.062200 0.000000
-28.006500 0.000000
-27.950800 0.000000
-27.895100 0.000000
-27.839400 0.000000
-27.783700 0.000000
-27.727900 0.000000
-27.672200 0.000000
-27.616500 0.000000
-27.560800 0.000000
-27.505100 0.000000
-27.449400 0.000000
-27.393700 0.000000
-27.337900 0.000000
-27.282200 0.000000
-27.226500 0.000000
-27.170800 0.000000
-27.115100 0.000000
-27.059400 0.000000
-27.003700 0.000000
-26.947900 0.000000
-26.892200 0.000000
-26.836500 0.000000
-26.780800 0.000000
-26.725100 0.000000
-26.669400 0.000000
-26.613700 0.000000
-26.557900 0.000000
-26.502200 0.000000
-26.446500 0.000000
-26.390800 0.000000
-26.335100 0.000000
-26.279400 0.000000
-26.223700 0.000000
-26.167900 0.000000
-26.112200 0.000000
-26.056500 0.000000
-26.000800 0.000000
-25.945100 0.000000
-25.889400 0.000000
-25.833700 0.000000
-25.777900 0.000000
-25.722200 0.000000
-25.666500 0.000000
-25.610800 0.000000
-25.555100 0.000000
-25.499400 0.000000
-25.443700 0.000000
-25.387900 0.000000
-25.332200 0.000000
-25.276500 0.000000
-25.220800 0.000000
-25.165100 0.000000
-25.109400 0.000000
-25.053700 0.000000
-24.998000 0.000000
-24.942200 0.000000
-24.886500 0.000000
-24.830800 0.000000
-24.775100 0.000000
-24.719400 0.000000
-24.663700 0.000000
-24.608000 0.000000
-24.552200 0.000000
-24.496500 0.000000
-24.440800 0.000000
-24.385100 0.000000
-24.329400 0.000000
-24.273700 0.000000
-24.218000 0.000000
-24.162200 0.000000
-24.106500 0.000000
-24.050800 0.000000
-23.995100 0.000000
-23.939400 0.000000
-23.883700 0.000000
-23.828000 0.000000
-23.772200 0.000000
-23.716500 0.000000
-23.660800 0.000000
-23.605100 0.000000
-23.549400 0.000000
-23.493700 0.000000
-23.438000 0.000000
-23.382200 0.000000
-23.326500 0.000000
-23.270800 0.000000
-23.215100 0.000000
-23.159400 0.000000
-23.103700 0.000000
-23.048000 0.000000
-22.992200 0.000000
-22.936500 0.000000
-22.880800 0.000000
-22.825100 0.000000
-22.769400 0.000000
-22.713700 0.000000
-22.658000 0.000000
-22.602200 0.000000
-22.546500 0.000000
-22.490800 0.000000
-22.435100 0.000000
-22.379400 0.000000
-22.323700 0.000000
-22.268000 0.000000
-22.212200 0.000000
-22.156500 0.000000
-22.100800 0.000000
-22.045100 0.000000
-21.989400 0.000000
-21.933700 0.000000
-21.878000 0.000000
-21.822200 0.000000
-21.766500 0.000000
-21.710800 0.000000
-21.655100 0.000000
-21.599400 0.000000
-21.543700 0.000000
-21.488000 0.000000
-21.432200 0.000000
-21.376500 0.000000
-21.320800 0.000000
-21.265100 0.000000
-21.209400 0.000000
-21.153700 0.000000
-21.098000 0.000000
-21.042200 0.000000
-20.986500 0.000000
-20.930800 0.000000
-20.875100 0.000000
-20.819400 0.000000
-20.763700 0.000000
-20.708000 0.000000
-20.652200 0.000000
-20.596500 0.000000
-20.540800 0.000000
-20.485100 0.000000
-20.429400 0.000000
-20.373700 0.000000
-20.318000 0.000000
-20.262300 0.000000
-20.206500 0.000000
-20.150800 0.000000
-20.095100 0.000000
-20.039400 0.000000
-19.983700 0.000000
-19.928000 0.000000
-19.872300 0.000000
-19.816500 0.000000
-19.760800 0.000000
-19.705100 0.000000
-19.649400 0.000000
-19.593700 0.000000
-19.538000 0.000000
-19.482300 0.000000
-19.426500 0.000000
-19.370800 0.000000
-19.315100 0.000000
-19.259400 0.000000
-19.203700 0.000000
-19.148000 0.000000
-19.092300 0.000000
-19.036500 0.000000
-18.980800 0.000000
-18.925100 0.000000
-18.869400 0.000000
-18.813700 0.000000
-18.758000 0.000000
-18.702300 0.000000
-18.646500 0.000000
-18.590800 0.000000
-18.535100 0.000000
-18.479400 0.000000
-18.423700 0.000000
-18.368000 0.000000
-18.312300 0.000000
-18.256500 0.000000
-18.200800 0.000000
-18.145100 0.000000
-18.089400 0.000000
-18.033700 0.000000
-17.978000 0.000000
-17.922300 0.000000
-17.866500 0.000000
-17.810800 0.000000
-17.755100 0.000000
-17.699400 0.000000
-17.643700 0.000000
-17.588000 0.000000
-17.532300 0.000000
-17.476500 0.000000
-17.420800 0.000000
-17.365100 0.000000
-17.309400 0.000000
-17.253700 0.000000
-17.198000 0.000000
-17.142300 0.000000
-17.086500 0.000000
-17.030800 0.000000
-16.975100 0.000000
-16.919400 0.000000
-16.863700 0.000000
-16.808000 0.000000
-16.752300 0.000000
-16.696500 0.000000
-16.640800 0.000000
-16.585100 0.000000
-16.529400 0.000000
-16.473700 0.000000
-16.418000 0.000000
-16.362300 0.000000
-16.306500 0.000000
-16.250800 0.000000
-16.195100 0.000000
-16.139400 0.000000
-16.083700 0.000000
-16.028000 0.000000
-15.972300 0.000000
-15.916500 0.000000
-15.860800 0.000000
-15.805100 0.000000
-15.749400 0.000000
-15.693700 0.000000
-15.638000 0.000000
-15.582300 0.000000
-15.526600 0.000000
-15.470800 0.000000
-15.415100 0.000000
-15.359400 0.000000
-15.303700 0.000000
-15.248000 0.000000
-15.192300 0.000000
-15.136600 0.000000
-15.080800 0.000000
-15.025100 0.000000
-14.969400 0.000000
-14.913700 0.000000
-14.858000 0.000000
-14.802300 0.000000
-14.746600 0.000000
-14.690800 0.000000
-14.635100 0.000000
-14.579400 0.000000
-14.523700 0.000000
-14.468000 0.000000
-14.412300 0.000000
-14.356600 0.000000
-14.300800 0.000000
-14.245100 0.000000
-14.189400 0.000000
-14.133700 0.000000
-14.078000 0.000000
-14.022300 0.000000
-13.966600 0.000000
-13.910800 0.000000
-13.855100 0.000000
-13.799400 0.000000
-13.743700 0.000000
-13.688000 0.000000
-13.632300 0.000000
-13.576600 0.000000
-13.520800 0.000000
-13.465100 0.000000
-13.409400 0.000000
-13.353700 0.000000
-13.298000 0.000000
-13.242300 0.000000
-13.186600 0.000000
-13.130800 0.000000
-13.075100 0.000000
-13.019400 0.000000
-12.963700 0.000000
-12.908000 0.000000
-12.852300 0.000000
-12.796600 0.000000
-12.740800 0.000000
-12.685100 0.000000
-12.629400 0.000000
-12.573700 0.000000
-12.518000 0.000000
-12.462300 0.000000
-12.406600 0.000000
-12.350800 0.000000
-12.295100 0.000000
-12.239400 0.000000
-12.183700 0.000000
-12.128000 0.000000
-12.072300 0.000000
-12.016600 0.000000
-11.960800 0.000000
-11.905100 0.000000
-11.849400 0.000000
-11.793700 0.000000
-11.738000 0.000000
-11.682300 0.000000
-11.626600 0.000000
-11.570800 0.000000
-11.515100 0.000000
-11.459400 0.000000
-11.403700 0.000000
-11.348000 0.000000
-11.292300 0.000000
-11.236600 0.000000
-11.180800 0.000000
-11.125100 0.000000
-11.069400 0.000000
-11.013700 0.000000
-10.958000 0.000000
-10.902300 0.000000
-10.846600 0.000000
-10.790900 0.000000
-10.735100 0.000000
-10.679400 0.000000
-10.623700 0.000000
-10.568000 0.000000
-10.512300 0.000000
-10.456600 0.000000
-10.400900 0.000000
-10.345100 0.000000
-10.289400 0.000000
-10.233700 0.000000
-10.178000 0.000000
-10.122300 0.000000
-10.066600 0.000000
-10.010900 0.000000
-9.955100 0.000000
-9.899400 0.000000
-9.843700 0.000000
-9.788000 0.000000
-9.732300 0.000000
-9.676600 0.000000
-9.620900 0.000000
-9.565100 0.000000
-9.509400 0.000000
-9.453700 0.000000
-9.398000 0.000000
-9.342300 0.000000
-9.286600 0.000000
-9.230900 0.000000
-9.175100 0.000000
-9.119400 0.000000
-9.063700 0.000000
-9.008000 0.000000
-8.952300 0.000000
-8.896600 0.000000
-8.840900 0.000000
-8.785100 0.000000
-8.729400 0.000000
-8.673700 0.000000
-8.618000 0.000000
-8.562300 0.000000
-8.506600 0.000000
-8.450900 0.000000
-8.395100 0.000000
-8.339400 0.000000
-8.283700 0.000000
-8.228000 0.000000
-8.172300 0.000000
-8.116600 0.000000
-8.060900 0.000000
-8.005100 0.000000
-7.949400 0.000000
-7.893700 0.000000
-7.838000 0.000000
-7.782300 0.000000
-7.726600 0.000000
-7.670900 0.000000
-7.615100 0.000000
-7.559400 0.000000
-7.503700 0.000000
-7.448000 0.000000
-7.392300 0.000000
-7.336600 0.000000
-7.280900 0.000000
-7.225100 0.000000
-7.169400 0.000000
-7.113700 0.000000
-7.058000 0.000000
-7.002300 0.000000
-6.946600 0.000000
-6.890900 0.000000
-6.835100 0.000000
-6.779400 0.000000
-6.723700 0.000000
-6.668000 0.000000
-6.612300 0.000000
-6.556600 0.000000
-6.500900 0.000000
-6.445100 0.000000
-6.389400 0.000000
-6.333700 0.000000
-6.278000 0.000000
-6.222300 0.000000
-6.166600 0.000000
-6.110900 0.000000
-6.055200 0.000000
-5.999400 0.000000
-5.943700 0.000000
-5.888000 0.000000
-5.832300 0.000000
-5.776600 0.000000
-5.720900 0.000000
-5.665200 0.000000
-5.609400 0.000000
-5.553700 0.000000
-5.498000 0.000000
-5.442300 0.000000
-5.386600 0.000000
-5.330900 0.000000
-5.275200 0.000000
-5.219400 0.000000
-5.163700 0.000000
-5.108000 0.000000
-5.052300 0.000000
-4.996600 0.000000
-4.940900 0.000000
-4.885200 0.000000
-4.829400 0.000000
-4.773700 0.000000
-4.718000 0.000000
-4.662300 0.000000
-4.606600 0.000000
-4.550900 0.000000
-4.495200 0.000000
-4.439400 0.000000
-4.383700 0.000000
-4.328000 0.000000
-4.272300 0.000000
-4.216600 0.000000
-4.160900 0.000000
-4.105200 0.000000
-4.049400 0.000000
-3.993700 0.000000
-3.938000 0.000000
-3.882300 0.000000
-3.826600 0.000000
-3.770900 0.000000
-3.715200 0.000000
-3.659400 0.000000
-3.603700 0.000000
-3.548000 0.000000
-3.492300 0.000000
-3.436600 0.000000
-3.380900 0.000000
-3.325200 0.000000
-3.269400 0.000000
-3.213700 0.000000
-3.158000 0.000000
-3.102300 0.000000
-3.046600 0.000000
-2.990900 0.000000
-2.935200 0.000000
-2.879400 0.000000
-2.823700 0.000000
-2.768000 0.000000
-2.712300 0.000000
-2.656600 0.000000
-2.600900 0.000000
-2.545200 0.000000
-2.489400 0.000000
-2.433700 0.000000
-2.378000 0.000000
-2.322300 0.000000
-2.266600 0.000000
-2.210900 0.000000
-2.155200 0.000000
-2.099400 0.000000
-2.043700 0.000000
-1.988000 0.000000
-1.932300 0.000000
-1.876600 0.000000
-1.820900 0.000000
-1.765200 0.000000
-1.709500 0.000000
-1.653700 0.000000
-1.598000 0.000000
-1.542300 0.000000
-1.486600 0.000000
-1.430900 0.000000
-1.375200 0.000000
-1.319500 0.000000
-1.263700 0.000000
-1.208000 0.000000
-1.152300 0.000000
-1.096600 0.002600
-1.040900 0.019500
-0.985200 0.044000
-0.929500 0.049600
-0.873700 0.058100
-0.818000 0.065500
-0.762300 0.074500
-0.706600 0.083800
-0.650900 0.091800
-0.595200 0.098300
-0.539500 0.103900
-0.483700 0.109800
-0.428000 0.116300
-0.372300 0.123300
-0.316600 0.130700
-0.260900 0.138300
-0.205200 0.146700
-0.149500 0.155300
-0.093700 0.163000
-0.038000 0.171700
0.017700 0.183000
0.073400 0.196700
0.129100 0.213200
0.184800 0.223200
0.240500 0.217800
0.296300 0.223200
0.352000 0.228500
0.407700 0.233400
0.463400 0.237900
0.519100 0.241500
0.574800 0.244400
0.630500 0.248300
0.686300 0.254400
0.742000 0.261200
0.797700 0.268300
0.853400 0.275900
0.909100 0.284400
0.964800 0.293800
1.020500 0.303600
1.076300 0.314900
1.132000 0.327500
1.187700 0.341500
1.243400 0.356900
1.299100 0.507500
1.354800 0.750100
1.410500 0.941400
1.466300 0.987400
1.522000 0.951900
1.577700 0.974000
1.633400 1.007900
1.689100 1.056100
1.744800 1.160500
1.800500 1.338900
1.856300 1.464200
1.912000 1.627900
1.967700 1.762400
2.023400 1.801400
2.079100 1.748000
2.134800 1.662200
2.190500 1.743100
2.246300 1.870300
2.302000 2.099700
2.357700 2.222800
2.413400 2.403300
2.469100 2.502300
2.524800 2.641600
2.580500 2.714400
2.636300 2.858700
2.692000 3.073400
2.747700 3.079000
2.803400 3.038700
2.859100 3.043200
2.914800 3.074600
2.970500 3.077000
3.026200 3.009100
3.082000 2.990300
3.137700 2.870200
3.193400 2.921000
3.249100 3.016400
3.304800 2.483900
3.360500 2.488900
3.416200 2.213500
3.472000 1.837800
3.527700 1.784900
3.583400 1.657500
3.639100 1.794000
3.694800 1.829400
3.750500 1.896500
3.806200 2.012900
3.862000 2.361500
3.917700 3.246600
3.973400 2.832000
4.029100 3.014900
4.084800 2.702600
4.140500 2.531800
4.196200 2.509300
4.252000 2.463800
4.307700 2.390300
4.363400 2.400900
4.419100 2.409500
4.474800 2.447800
4.530500 2.522100
4.586200 2.579800
4.642000 2.696100
4.697700 2.730300
4.753400 2.797400
4.809100 2.782800
4.864800 2.932900
4.920500 3.372300
4.976200 3.230400
5.032000 3.159000
5.087700 3.337800
5.143400 3.333600
5.199100 3.467500
5.254800 3.668800
5.310500 4.070600
5.366200 4.070900
5.422000 4.445000
5.477700 4.614200
5.533400 4.571200
5.589100 3.730100
5.644800 3.700600
5.700500 3.047900
5.756200 2.763000
5.812000 2.552500
5.867700 2.438400
5.923400 2.732800
5.979100 2.635400
6.034800 2.345600
6.090500 2.026900
6.146200 2.025700
6.202000 2.149300
6.257700 2.251500
6.313400 2.433100
6.369100 2.514000
6.424800 2.589600
6.480500 2.540700
6.536200 2.491400
6.592000 2.630700
6.647700 2.590500
6.703400 2.770700
6.759100 2.946900
6.814800 2.586500
6.870500 2.492300
6.926200 2.465400
6.982000 2.582800
7.037700 3.565100
7.093400 3.139000
7.149100 2.790100
7.204800 2.576800
7.260500 2.442000
7.316200 2.382800
7.372000 2.608700
7.427700 2.575400
7.483400 2.432200
7.539100 2.326600
7.594800 2.260400
7.650500 2.146600
7.706200 2.070700
7.761900 2.017800
7.817700 1.977800
7.873400 1.993000
7.929100 2.067400
7.984800 2.101400
8.040500 2.109400
8.096200 2.119000
8.151900 2.158400
8.207700 2.221300
8.263400 2.301000
8.319100 2.427300
8.374800 2.544000
8.430500 2.516900
8.486200 2.565300
8.541900 2.678500
8.597700 2.758000
8.653400 2.888800
8.709100 3.163900
8.764800 3.588900
8.820500 3.990100
8.876200 3.809200
8.931900 3.405000
8.987700 3.004200
9.043400 2.786700
9.099100 2.499600
9.154800 2.341600
9.210500 2.233500
9.266200 2.304000
9.321900 2.359800
9.377700 2.016700
9.433400 1.435900
9.489100 0.893000
9.544800 0.680700
9.600500 0.570500
9.656200 0.540700
9.711900 0.549400
9.767700 0.547700
9.823400 0.545400
9.879100 0.542600
9.934800 0.542600
9.990500 0.539200
10.046200 0.532900
10.101900 0.528700
10.157700 0.521500
10.213400 0.516700
10.269100 0.515800
10.324800 0.517200
10.380500 0.518600
10.436200 0.518400
10.491900 0.517400
10.547700 0.518100
10.603400 0.518600
10.659100 0.519300
10.714800 0.520400
10.770500 0.522100
10.826200 0.523600
10.881900 0.524900
10.937700 0.526100
10.993400 0.527200
11.049100 0.532500
11.104800 0.534500
11.160500 0.536000
11.216200 0.537300
11.271900 0.538700
11.327700 0.540100
11.383400 0.541400
11.439100 0.543400
11.494800 0.550400
11.550500 0.558500
11.606200 0.564000
11.661900 0.543000
11.717700 0.527000
11.773400 0.516100
11.829100 0.507400
11.884800 0.501800
11.940500 0.498500
11.996200 0.495400
12.051900 0.492800
12.107700 0.490200
12.163400 0.485600
12.219100 0.481900
12.274800 0.479700
12.330500 0.478700
12.386200 0.479700
12.441900 0.481900
12.497600 0.486900
12.553400 0.493500
12.609100 0.496200
12.664800 0.518800
12.720500 0.510500
12.776200 0.481600
12.831900 0.476000
12.887600 0.478600
12.943400 0.480500
12.999100 0.481900
13.054800 0.485800
13.110500 0.500800
13.166200 0.501800
13.221900 0.500100
13.277600 0.497000
13.333400 0.494400
13.389100 0.490600
13.444800 0.517300
13.500500 0.478100
13.556200 0.452400
13.611900 0.432800
13.667600 0.423300
13.723400 0.416400
13.779100 0.409500
13.834800 0.402700
13.890500 0.394800
13.946200 0.385100
14.001900 0.374200
14.057600 0.362000
14.113400 0.361000
14.169100 0.370400
14.224800 0.360300
14.280500 0.352300
14.336200 0.346100
14.391900 0.347200
14.447600 0.349800
14.503400 0.351800
14.559100 0.353500
14.614800 0.358800
14.670500 0.369300
14.726200 0.438200
14.781900 0.419200
14.837600 0.399200
14.893400 0.389500
14.949100 0.382300
15.004800 0.363900
15.060500 0.340500
15.116200 0.318400
15.171900 0.298700
15.227600 0.282700
15.283400 0.268700
15.339100 0.284900
15.394800 0.305200
15.450500 0.332100
15.506200 0.359900
15.561900 0.409700
15.617600 0.414400
15.673400 0.404500
15.729100 0.420200
15.784800 0.485600
15.840500 0.621100
15.896200 0.761500
15.951900 1.016400
16.007600 0.862000
16.063400 0.823900
16.119100 0.798000
16.174800 0.768000
16.230500 0.725700
16.286200 0.716000
16.341900 0.686400
16.397600 0.671200
16.453400 0.659900
16.509100 0.645900
16.564800 0.634400
16.620500 0.624800
16.676200 0.615800
16.731900 0.607200
16.787600 0.599600
16.843400 0.601800
16.899100 0.611300
16.954800 0.627600
17.010500 0.643500
17.066200 0.655000
17.121900 0.655800
17.177600 0.649700
17.233300 0.645200
17.289100 0.632900
17.344800 0.625300
17.400500 0.633500
17.456200 0.641500
17.511900 0.633600
17.567600 0.609900
17.623300 0.572700
17.679100 0.522600
17.734800 0.482900
17.790500 0.467100
17.846200 0.459500
17.901900 0.455500
17.957600 0.454200
18.013300 0.453900
18.069100 0.457700
18.124800 0.464400
18.180500 0.474300
18.236200 0.486800
18.291900 0.498100
18.347600 0.511900
18.403300 0.514900
18.459100 0.529100
18.514800 0.549400
18.570500 0.571400
18.626200 0.623100
18.681900 0.655600
18.737600 0.693600
18.793300 0.742800
18.849100 0.736300
18.904800 0.731300
18.960500 0.711100
19.016200 0.678900
19.071900 0.710900
19.127600 0.665600
19.183300 0.658400
19.239100 0.668800
19.294800 0.621500
19.350500 0.592200
19.406200 0.589400
19.461900 0.596200
19.517600 0.585800
19.573300 0.575700
19.629100 0.573400
19.684800 0.595300
19.740500 0.633500
19.796200 0.705700
19.851900 0.751300
19.907600 0.777400
19.963300 0.799500
20.019100 0.804700
20.074800 0.827100
20.130500 0.788700
20.186200 0.786800
20.241900 0.790200
20.297600 0.796100
20.353300 0.803400
20.409100 0.813600
20.464800 0.844300
20.520500 0.866100
20.576200 0.873200
20.631900 0.863700
20.687600 0.848400
20.743300 0.858500
20.799100 0.865900
20.854800 0.867900
20.910500 0.852500
20.966200 0.840400
21.021900 0.828900
21.077600 0.841200
21.133300 0.887400
21.189100 0.957800
21.244800 1.010400
21.300500 1.035400
21.356200 1.036500
21.411900 1.045400
21.467600 1.052300
21.523300 1.057400
21.579100 1.059600
21.634800 1.059100
21.690500 1.052200
21.746200 1.047200
21.801900 1.043800
21.857600 1.038200
21.913300 1.033500
21.969000 1.030800
22.024800 1.032200
22.080500 1.035300
22.136200 1.040600
22.191900 1.047100
22.247600 1.054700
22.303300 1.066300
22.359000 1.074600
22.414800 1.082800
22.470500 1.089800
22.526200 1.089900
22.581900 1.085500
22.637600 1.077200
22.693300 1.076000
22.749000 1.075800
22.804800 1.052100
22.860500 1.036300
22.916200 1.028200
22.971900 1.025000
23.027600 1.030300
23.083300 1.042500
23.139000 1.052000
23.194800 1.059000
23.250500 1.068500
23.306200 1.088100
23.361900 1.122100
23.417600 1.144800
23.473300 1.152700
23.529000 1.169100
23.584800 1.208300
23.640500 1.236200
23.696200 1.258500
23.751900 1.250400
23.807600 1.260200
23.863300 1.284200
23.919000 1.284500
23.974800 1.301300
24.030500 1.349900
24.086200 1.403600
24.141900 1.437800
24.197600 1.508200
24.253300 1.568200
24.309000 1.566900
24.364800 1.534500
24.420500 1.580900
24.476200 1.646800
24.531900 1.584500
24.587600 1.413200
24.643300 1.322000
24.699000 1.281900
24.754800 1.260900
24.810500 1.254500
24.866200 1.218400
24.921900 1.228500
24.977600 1.264700
25.033300 1.312400
25.089000 1.357800
25.144800 1.374300
25.200500 1.415400
25.256200 1.448200
25.311900 1.466500
25.367600 1.447000
25.423300 1.397100
25.479000 1.304000
25.534800 1.268800
25.590500 1.236500
25.646200 1.198400
25.701900 1.169000
25.757600 1.141000
25.813300 1.122600
25.869000 1.119600
25.924800 1.143500
25.980500 1.164500
26.036200 1.225900
26.091900 1.159600
26.147600 1.136600
26.203300 1.145100
26.259000 1.167700
26.314700 1.202200
26.370500 1.220800
26.426200 1.187200
26.481900 1.183200
26.537600 1.181400
26.593300 1.188700
26.649000 1.169500
26.704700 1.132000
26.760500 1.077800
26.816200 1.022400
26.871900 0.982800
26.927600 0.916300
26.983300 0.789300
27.039000 0.768600
27.094700 0.734700
27.150500 0.694400
27.206200 0.619000
27.261900 0.561500
27.317600 0.541200
27.373300 0.527400
27.429000 0.522700
27.484700 0.503600
27.540500 0.496000
27.596200 0.500700
27.651900 0.513500
27.707600 0.529400
27.763300 0.572700
27.819000 0.593200
27.874700 0.615900
27.930500 0.640600
27.986200 0.665000
28.041900 0.684200
28.097600 0.704600
28.153300 0.725200
28.209000 0.746200
28.264700 0.770600
28.320500 0.800300
28.376200 0.840800
28.431900 0.903400
28.487600 0.971600
28.543300 1.036500
28.599000 1.088700
28.654700 1.136400
28.710500 1.176200
28.766200 1.212800
28.821900 1.253500
28.877600 1.282800
28.933300 1.307800
28.989000 1.334300
29.044700 1.368300
29.100500 1.399100
29.156200 1.412600
29.211900 1.459000
29.267600 1.506400
29.323300 1.580900
29.379000 1.552600
29.434700 1.503100
29.490500 1.531900
29.546200 1.633700
29.601900 1.744800
29.657600 1.630900
29.713300 1.502300
29.769000 1.471100
29.824700 1.418100
29.880500 1.417200
29.936200 1.460400
29.991900 1.516400
30.047600 1.496500
30.103300 1.470200
30.159000 1.447500
30.214700 1.420700
30.270500 1.415700
30.326200 1.392600
30.381900 1.374400
30.437600 1.363600
30.493300 1.373600
30.549000 1.339800
30.604700 1.310500
30.660500 1.287600
30.716200 1.255200
30.771900 1.232600
30.827600 1.207900
30.883300 1.176400
30.939000 1.162500
30.994700 1.148700
31.050400 1.138800
31.106200 1.152100
31.161900 1.135300
31.217600 1.092400
31.273300 1.045000
31.329000 1.011900
31.384700 0.976900
31.440400 0.950400
31.496200 0.918500
31.551900 0.875000
31.607600 0.839000
31.663300 0.815200
31.719000 0.800700
31.774700 0.806200
31.830400 0.807000
31.886200 0.810300
31.941900 0.887500
31.997600 0.797400
32.053300 0.771400
32.109000 0.742900
32.164700 0.732400
32.220400 0.722100
32.276200 0.719400
32.331900 0.731900
32.387600 0.756200
32.443300 0.822900
32.499000 0.942500
32.554700 1.215100
32.610400 1.541300
32.666200 2.037400
32.721900 3.802700
32.777600 3.846800
32.833300 2.160900
32.889000 1.031300
32.944700 0.790900
33.000400 0.752700
33.056200 0.765400
33.111900 0.790000
33.167600 0.818800
33.223300 0.840300
33.279000 0.836100
33.334700 0.856800
33.390400 0.894800
33.446200 0.929600
33.501900 0.962100
33.557600 1.010500
33.613300 1.035600
33.669000 1.079900
33.724700 1.085000
33.780400 1.038600
33.836200 1.036300
33.891900 1.044600
33.947600 1.050000
34.003300 1.090400
34.059000 1.043800
34.114700 0.991900
34.170400 0.924300
34.226200 0.911700
34.281900 0.907800
34.337600 0.928200
34.393300 0.978300
34.449000 1.030700
34.504700 1.107300
34.560400 1.156800
34.616200 1.177200
34.671900 1.208200
34.727600 1.187700
34.783300 1.189100
34.839000 1.248900
34.894700 1.279600
34.950400 1.301100
35.006200 1.337000
35.061900 1.292700
35.117600 1.291800
35.173300 1.293000
35.229000 1.255400
35.284700 1.172500
35.340400 1.105000
35.396200 1.077600
35.451900 1.058500
35.507600 1.045600
35.563300 1.046500
35.619000 1.061300
35.674700 1.079500
35.730400 1.098300
35.786100 1.113500
35.841900 1.122700
35.897600 1.074900
35.953300 1.076100
36.009000 1.086400
36.064700 1.096600
36.120400 1.119500
36.176100 1.138700
36.231900 1.166100
36.287600 1.205400
36.343300 1.249700
36.399000 1.311100
36.454700 1.326300
36.510400 1.332600
36.566100 1.354500
36.621900 1.396900
36.677600 1.454300
36.733300 1.574500
36.789000 1.597700
36.844700 1.586500
36.900400 1.476600
36.956100 1.392500
37.011900 1.288400
37.067600 1.336700
37.123300 1.388600
37.179000 1.502800
37.234700 1.569000
37.290400 1.651700
37.346100 1.730900
37.401900 1.799700
37.457600 1.769200
37.513300 1.775300
37.569000 1.791100
37.624700 1.753100
37.680400 1.834400
37.736100 2.005200
37.791900 2.079100
37.847600 2.194700
37.903300 2.260000
37.959000 2.339000
38.014700 2.157900
38.070400 1.965500
38.126100 1.849100
38.181900 1.861800
38.237600 1.827000
38.293300 1.789000
38.349000 1.762900
38.404700 1.759600
38.460400 1.753200
38.516100 1.743300
38.571900 1.731400
38.627600 1.748100
38.683300 1.771000
38.739000 1.782200
38.794700 1.817500
38.850400 1.784400
38.906100 1.754700
38.961900 1.605700
39.017600 1.590900
39.073300 1.587800
39.129000 1.578600
39.184700 1.509500
39.240400 1.496800
39.296100 1.530900
39.351900 1.545800
39.407600 1.442900
39.463300 1.438100
39.519000 1.447400
39.574700 1.469400
39.630400 1.471600
39.686100 1.475200
39.741900 1.473700
39.797600 1.506400
39.853300 1.663500
39.909000 1.860700
39.964700 2.036700
40.020400 2.172700
40.076100 2.332200
40.131900 2.616600
40.187600 3.008700
40.243300 3.722200
40.299000 5.222800
40.354700 8.153600
40.410400 15.802200
40.466100 26.107200
40.521800 17.792500
40.577600 7.552800
40.633300 5.644800
40.689000 3.589900
40.744700 2.827500
40.800400 2.523600
40.856100 2.366600
40.911800 2.243300
40.967600 2.103200
41.023300 2.078800
41.079000 1.762800
41.134700 1.683100
41.190400 1.557700
41.246100 1.403400
41.301800 1.374100
41.357600 1.381300
41.413300 1.403200
41.469000 1.456600
41.524700 1.472300
41.580400 1.468000
41.636100 1.456300
41.691800 1.450200
41.747600 1.450200
41.803300 1.435200
41.859000 1.381000
41.914700 1.348100
41.970400 1.301000
42.026100 1.271000
42.081800 1.246800
42.137600 1.228600
42.193300 1.228900
42.249000 1.228400
42.304700 1.215400
42.360400 1.197000
42.416100 1.190800
42.471800 1.194500
42.527600 1.194600
42.583300 1.193700
42.639000 1.207900
42.694700 1.217100
42.750400 1.241400
42.806100 1.256900
42.861800 1.271200
42.917600 1.247500
42.973300 1.271500
43.029000 1.314600
43.084700 1.331700
43.140400 1.407100
43.196100 1.438300
43.251800 1.446300
43.307600 1.453100
43.363300 1.443900
43.419000 1.429000
43.474700 1.399000
43.530400 1.354100
43.586100 1.320000
43.641800 1.286600
43.697600 1.273100
43.753300 1.248400
43.809000 1.230000
43.864700 1.225200
43.920400 1.210600
43.976100 1.188600
44.031800 1.168300
44.087600 1.187600
44.143300 1.195100
44.199000 1.298700
44.254700 1.379200
44.310400 1.341600
44.366100 1.403700
44.421800 1.400400
44.477600 1.287000
44.533300 1.206400
44.589000 1.177700
44.644700 1.198800
44.700400 1.262500
44.756100 1.288700
44.811800 1.176900
44.867600 1.088600
44.923300 1.000800
44.979000 0.967900
45.034700 0.941100
45.090400 0.905100
45.146100 0.896200
45.201800 0.905500
45.257500 0.944800
45.313300 1.068300
45.369000 1.194600
45.424700 1.118900
45.480400 1.107000
45.536100 1.133100
45.591800 1.198100
45.647500 1.316700
45.703300 1.306100
45.759000 1.290800
45.814700 1.276700
45.870400 1.343400
45.926100 1.375900
45.981800 1.414200
46.037500 1.445200
46.093300 1.462200
46.149000 1.483600
46.204700 1.489400
46.260400 1.518000
46.316100 1.622100
46.371800 1.722800
46.427500 1.816300
46.483300 1.880700
46.539000 1.926100
46.594700 1.958500
46.650400 1.989300
46.706100 2.059300
46.761800 2.073500
46.817500 2.099500
46.873300 2.160900
46.929000 2.185000
46.984700 2.285500
47.040400 2.442700
47.096100 2.462400
47.151800 2.424400
47.207500 2.452400
47.263300 2.498700
47.319000 2.562600
47.374700 2.572200
47.430400 2.375100
47.486100 2.220500
47.541800 2.203700
47.597500 2.258900
47.653300 2.158400
47.709000 2.056000
47.764700 1.999300
47.820400 1.962000
47.876100 1.916800
47.931800 1.832500
47.987500 1.713800
48.043300 1.699100
48.099000 1.666000
48.154700 1.704300
48.210400 1.752300
48.266100 1.806600
48.321800 1.817600
48.377500 1.944600
48.433300 1.961800
48.489000 1.974400
48.544700 1.891900
48.600400 1.753600
48.656100 1.607100
48.711800 1.568000
48.767500 1.564700
48.823300 1.613300
48.879000 1.710300
48.934700 1.743000
48.990400 1.725600
49.046100 1.642300
49.101800 1.595100
49.157500 1.548200
49.213300 1.482200
49.269000 1.508200
49.324700 1.598700
49.380400 1.954900
49.436100 2.020800
49.491800 2.106200
49.547500 1.923900
49.603300 1.845900
49.659000 1.643500
49.714700 1.612500
49.770400 1.628200
49.826100 1.708000
49.881800 1.756400
49.937500 1.837600
49.993200 1.975800
50.049000 2.089100
50.104700 2.161400
50.160400 2.173900
50.216100 2.253700
50.271800 2.256700
50.327500 2.261800
50.383200 2.116800
50.439000 1.887100
50.494700 2.171900
50.550400 1.924000
50.606100 1.656300
50.661800 1.463400
50.717500 1.426400
50.773200 1.481000
50.829000 1.592300
50.884700 1.633400
50.940400 1.692400
50.996100 1.684800
51.051800 1.582900
51.107500 1.546800
51.163200 1.586400
51.219000 1.753300
51.274700 1.853600
51.330400 1.738300
51.386100 1.647900
51.441800 1.718300
51.497500 1.861800
51.553200 1.846300
51.609000 1.777100
51.664700 1.671000
51.720400 1.598400
51.776100 1.574400
51.831800 1.541800
51.887500 1.496500
51.943200 1.411700
51.999000 1.361400
52.054700 1.323200
52.110400 1.298400
52.166100 1.303800
52.221800 1.342300
52.277500 1.373500
52.333200 1.412900
52.389000 1.485000
52.444700 1.516200
52.500400 1.525400
52.556100 1.589400
52.611800 1.607700
52.667500 1.528500
52.723200 1.415400
52.779000 1.320300
52.834700 1.250900
52.890400 1.201200
52.946100 1.150400
53.001800 1.114200
53.057500 1.065300
53.113200 1.033200
53.169000 1.051400
53.224700 1.101400
53.280400 1.166700
53.336100 1.232500
53.391800 1.308700
53.447500 1.374800
53.503200 1.463200
53.559000 1.550700
53.614700 1.637000
53.670400 1.697100
53.726100 1.746400
53.781800 1.784500
53.837500 1.772400
53.893200 1.759000
53.949000 1.713000
54.004700 1.704400
54.060400 1.726500
54.116100 1.778400
54.171800 1.823600
54.227500 1.870500
54.283200 2.028900
54.338900 2.077400
54.394700 2.061400
54.450400 2.113700
54.506100 2.073200
54.561800 2.003500
54.617500 1.958500
54.673200 1.911300
54.728900 1.872900
54.784700 1.845100
54.840400 1.844600
54.896100 1.858100
54.951800 1.815900
55.007500 1.773000
55.063200 1.731800
55.118900 1.686000
55.174700 1.671700
55.230400 1.711700
55.286100 1.737700
55.341800 1.709800
55.397500 1.677500
55.453200 1.661200
55.508900 1.660700
55.564700 1.670400
55.620400 1.662100
55.676100 1.696900
55.731800 1.765000
55.787500 1.834800
55.843200 1.824400
55.898900 1.713300
55.954700 1.640500
56.010400 1.508600
56.066100 1.408500
56.121800 1.339400
56.177500 1.284300
56.233200 1.235700
56.288900 1.245400
56.344700 1.291300
56.400400 1.360000
56.456100 1.398700
56.511800 1.465900
56.567500 1.518900
56.623200 1.522900
56.678900 1.557800
56.734700 1.633800
56.790400 1.704500
56.846100 1.773700
56.901800 1.852200
56.957500 1.922400
57.013200 1.852700
57.068900 1.828700
57.124700 1.834400
57.180400 1.877600
57.236100 1.938100
57.291800 1.913200
57.347500 1.898300
57.403200 1.894200
57.458900 1.935900
57.514700 1.920700
57.570400 1.855400
57.626100 1.771700
57.681800 1.752100
57.737500 1.712100
57.793200 1.823100
57.848900 1.795400
57.904700 1.807300
57.960400 1.735400
58.016100 1.585300
58.071800 1.464500
58.127500 1.386300
58.183200 1.298000
58.238900 1.237000
58.294700 1.225800
58.350400 1.252100
58.406100 1.297900
58.461800 1.416400
58.517500 1.487800
58.573200 1.402900
58.628900 1.297900
58.684700 1.297100
58.740400 1.344500
58.796100 1.336100
58.851800 1.352300
58.907500 1.381800
58.963200 1.428700
59.018900 1.516500
59.074600 1.536200
59.130400 1.519000
59.186100 1.400000
59.241800 1.380900
59.297500 1.402500
59.353200 1.394600
59.408900 1.403800
59.464600 1.433400
59.520400 1.464500
59.576100 1.497800
59.631800 1.492700
59.687500 1.399000
59.743200 1.328600
59.798900 1.284100
59.854600 1.240100
59.910400 1.198700
59.966100 1.161200
60.021800 1.130800
60.077500 1.112900
60.133200 1.116700
60.188900 1.124000
60.244600 1.130000
60.300400 1.129500
60.356100 1.127300
60.411800 1.131500
60.467500 1.092600
60.523200 1.004800
60.578900 0.925800
60.634600 0.821400
60.690400 0.768200
60.746100 0.718200
60.801800 0.675500
60.857500 0.647500
60.913200 0.623400
60.968900 0.608500
61.024600 0.601200
61.080400 0.619700
61.136100 0.628200
61.191800 0.632200
61.247500 0.655100
61.303200 0.648100
61.358900 0.657900
61.414600 0.520900
61.470400 0.426600
61.526100 0.393700
61.581800 0.371800
61.637500 0.338300
61.693200 0.307100
61.748900 0.292200
61.804600 0.278100
61.860400 0.266500
61.916100 0.212200
61.971800 0.200900
62.027500 0.186700
62.083200 0.168500
62.138900 0.149100
62.194600 0.127800
62.250400 0.104200
62.306100 0.080700
62.361800 0.059400
62.417500 0.049500
62.473200 0.042300
62.528900 0.034900
62.584600 0.033300
62.640400 0.042000
62.696100 0.008500
62.751800 0.001200
62.807500 0.000000
62.863200 0.000000
62.918900 0.000000
62.974600 0.000000
63.030400 0.000000
63.086100 0.000000
63.141800 0.000000
63.197500 0.000000
63.253200 0.000000
63.308900 0.000000
63.364600 0.000000
63.420400 0.000000
63.476100 0.000000
63.531800 0.000000
63.587500 0.000000
63.643200 0.000000
63.698900 0.000000
63.754600 0.000000
63.810300 0.000000
63.866100 0.000000
63.921800 0.000000
63.977500 0.000000
64.033200 0.000000
64.088900 0.000000
64.144600 0.000000
64.200300 0.000000
64.256100 0.000000
64.311800 0.000000
64.367500 0.000000
64.423200 0.000000
64.478900 0.000000
64.534600 0.000000
64.590300 0.000000
64.646100 0.000000
64.701800 0.000000
64.757500 0.000000
64.813200 0.000000
64.868900 0.000000
64.924600 0.000000
64.980300 0.000000
65.036100 0.000000
65.091800 0.000000
65.147500 0.000000
65.203200 0.000000
65.258900 0.000000
65.314600 0.000000
65.370300 0.000000
65.426100 0.000000
65.481800 0.000000
65.537500 0.000000
65.593200 0.000000
65.648900 0.000000
65.704600 0.000000
65.760300 0.000000
65.816100 0.000000
65.871800 0.000000
65.927500 0.000000
65.983200 0.000000
66.038900 0.000000
66.094600 0.000000
66.150300 0.000000
66.206100 0.000000
66.261800 0.000000
66.317500 0.000000
66.373200 0.000000
66.428900 0.000000
66.484600 0.000000
66.540300 0.000000
66.596100 0.000000
66.651800 0.000000
66.707500 0.000000
66.763200 0.000000
66.818900 0.000000
66.874600 0.000000
66.930300 0.000000
66.986100 0.000000
67.041800 0.000000
67.097500 0.000000
67.153200 0.000000
67.208900 0.000000
67.264600 0.000000
67.320300 0.000000
67.376100 0.000000
67.431800 0.000000
67.487500 0.000000
67.543200 0.000000
67.598900 0.000000
67.654600 0.000000
67.710300 0.000000
67.766100 0.000000
67.821800 0.000000
67.877500 0.000000
e
