set title 'mp-1002063 - Density of States'
set xlabel 'Energy (eV)'
set ylabel 'DOS (states/eV)'
set grid
set xrange [-10:10]
set yrange [0:35.716]
set xzeroaxis lt -1
set terminal png size 800,600
set output 'mp-1002063_dos_gnuplot.png'
plot '-' using 1:2 with lines title 'DOS'
-21.070300 0.000000
-21.048400 0.000000
-21.026500 0.000000
-21.004600 0.000000
-20.982600 0.000000
-20.960700 0.000000
-20.938800 0.000000
-20.916900 0.000000
-20.894900 0.000000
-20.873000 0.000000
-20.851100 0.000000
-20.829200 0.000000
-20.807200 0.000000
-20.785300 0.000000
-20.763400 0.000000
-20.741500 0.000000
-20.719600 0.000000
-20.697600 0.000000
-20.675700 0.000000
-20.653800 0.000000
-20.631900 0.000000
-20.609900 0.000000
-20.588000 0.000000
-20.566100 0.000000
-20.544200 0.000000
-20.522200 0.000000
-20.500300 0.000000
-20.478400 0.000000
-20.456500 0.000000
-20.434500 0.000000
-20.412600 0.000000
-20.390700 0.000000
-20.368800 0.000000
-20.346800 0.000000
-20.324900 0.000000
-20.303000 0.000000
-20.281100 0.000000
-20.259100 0.000000
-20.237200 0.000000
-20.215300 0.000000
-20.193400 0.000000
-20.171400 0.000000
-20.149500 0.000000
-20.127600 0.000000
-20.105700 0.000000
-20.083700 0.000000
-20.061800 0.000000
-20.039900 0.000000
-20.018000 0.000000
-19.996000 0.000000
-19.974100 0.000000
-19.952200 0.000000
-19.930300 0.000000
-19.908300 0.000000
-19.886400 0.000000
-19.864500 0.000000
-19.842600 0.000000
-19.820600 0.000000
-19.798700 0.000000
-19.776800 0.000000
-19.754900 0.000000
-19.733000 0.000000
-19.711000 0.000000
-19.689100 0.000000
-19.667200 0.000000
-19.645300 0.000000
-19.623300 0.000000
-19.601400 0.000000
-19.579500 0.000000
-19.557600 0.000000
-19.535600 0.000000
-19.513700 0.000000
-19.491800 0.000000
-19.469900 0.000000
-19.447900 0.000000
-19.426000 0.000000
-19.404100 0.000000
-19.382200 0.000000
-19.360200 0.000000
-19.338300 0.000000
-19.316400 0.000000
-19.294500 0.000000
-19.272500 0.000000
-19.250600 0.000000
-19.228700 0.000000
-19.206800 0.000000
-19.184800 0.000000
-19.162900 0.000000
-19.141000 0.000000
-19.119100 0.000000
-19.097100 0.000000
-19.075200 130.961300
-19.053300 187.178600
-19.031400 41.817400
-19.009400 214.074200
-18.987500 0.000000
-18.965600 127.293700
-18.943700 87.142800
-18.921700 0.000000
-18.899800 0.000000
-18.877900 0.000000
-18.856000 0.000000
-18.834000 0.000000
-18.812100 0.000000
-18.790200 0.000000
-18.768300 0.000000
-18.746400 0.000000
-18.724400 0.000000
-18.702500 0.000000
-18.680600 0.000000
-18.658700 0.000000
-18.636700 0.000000
-18.614800 0.000000
-18.592900 0.000000
-18.571000 0.000000
-18.549000 0.000000
-18.527100 0.000000
-18.505200 0.000000
-18.483300 0.000000
-18.461300 0.000000
-18.439400 0.000000
-18.417500 0.000000
-18.395600 0.000000
-18.373600 0.000000
-18.351700 0.000000
-18.329800 0.000000
-18.307900 0.000000
-18.285900 0.000000
-18.264000 0.000000
-18.242100 0.000000
-18.220200 0.000000
-18.198200 0.000000
-18.176300 0.000000
-18.154400 0.000000
-18.132500 0.000000
-18.110500 0.000000
-18.088600 0.000000
-18.066700 0.000000
-18.044800 0.000000
-18.022800 0.000000
-18.000900 0.000000
-17.979000 0.000000
-17.957100 0.000000
-17.935100 0.000000
-17.913200 0.000000
-17.891300 0.000000
-17.869400 0.000000
-17.847400 0.000000
-17.825500 0.000000
-17.803600 0.000000
-17.781700 0.000000
-17.759800 0.000000
-17.737800 0.000000
-17.715900 0.000000
-17.694000 0.000000
-17.672100 0.000000
-17.650100 0.000000
-17.628200 0.000000
-17.606300 0.000000
-17.584400 0.000000
-17.562400 0.000000
-17.540500 0.000000
-17.518600 0.000000
-17.496700 0.000000
-17.474700 0.000000
-17.452800 0.000000
-17.430900 0.000000
-17.409000 0.000000
-17.387000 0.000000
-17.365100 0.000000
-17.343200 0.000000
-17.321300 0.000000
-17.299300 0.000000
-17.277400 0.000000
-17.255500 0.000000
-17.233600 0.000000
-17.211600 0.000000
-17.189700 0.000000
-17.167800 0.000000
-17.145900 0.000000
-17.123900 0.000000
-17.102000 0.000000
-17.080100 0.000000
-17.058200 0.000000
-17.036200 0.000000
-17.014300 0.000000
-16.992400 0.000000
-16.970500 0.000000
-16.948500 0.000000
-16.926600 0.000000
-16.904700 0.000000
-16.882800 0.000000
-16.860800 0.000000
-16.838900 0.000000
-16.817000 0.000000
-16.795100 0.000000
-16.773200 0.000000
-16.751200 0.000000
-16.729300 0.000000
-16.707400 0.000000
-16.685500 0.000000
-16.663500 0.000000
-16.641600 0.000000
-16.619700 0.000000
-16.597800 0.000000
-16.575800 0.000000
-16.553900 0.000000
-16.532000 0.000000
-16.510100 0.000000
-16.488100 0.000000
-16.466200 0.000000
-16.444300 0.000000
-16.422400 0.000000
-16.400400 0.000000
-16.378500 0.000000
-16.356600 0.000000
-16.334700 0.000000
-16.312700 0.000000
-16.290800 0.000000
-16.268900 0.000000
-16.247000 0.000000
-16.225000 0.000000
-16.203100 0.000000
-16.181200 0.000000
-16.159300 0.000000
-16.137300 0.000000
-16.115400 0.000000
-16.093500 0.000000
-16.071600 0.000000
-16.049600 0.000000
-16.027700 0.000000
-16.005800 0.000000
-15.983900 0.000000
-15.961900 0.000000
-15.940000 0.000000
-15.918100 0.000000
-15.896200 0.000000
-15.874200 0.000000
-15.852300 0.000000
-15.830400 0.000000
-15.808500 0.000000
-15.786600 0.000000
-15.764600 0.000000
-15.742700 0.000000
-15.720800 0.000000
-15.698900 0.000000
-15.676900 0.000000
-15.655000 0.000000
-15.633100 0.000000
-15.611200 0.000000
-15.589200 0.000000
-15.567300 0.000000
-15.545400 0.000000
-15.523500 0.000000
-15.501500 0.000000
-15.479600 0.000000
-15.457700 0.000000
-15.435800 0.000000
-15.413800 0.000000
-15.391900 0.000000
-15.370000 0.000000
-15.348100 0.000000
-15.326100 0.000000
-15.304200 0.000000
-15.282300 0.000000
-15.260400 0.000000
-15.238400 0.000000
-15.216500 0.000000
-15.194600 0.000000
-15.172700 0.000000
-15.150700 0.000000
-15.128800 0.000000
-15.106900 0.000000
-15.085000 0.000000
-15.063000 0.000000
-15.041100 0.000000
-15.019200 0.000000
-14.997300 0.000000
-14.975300 0.000000
-14.953400 0.000000
-14.931500 0.000000
-14.909600 0.000000
-14.887600 0.000000
-14.865700 0.000000
-14.843800 0.000000
-14.821900 0.000000
-14.799900 0.000000
-14.778000 0.000000
-14.756100 0.000000
-14.734200 0.000000
-14.712300 0.000000
-14.690300 0.000000
-14.668400 0.000000
-14.646500 0.000000
-14.624600 0.000000
-14.602600 0.000000
-14.580700 0.000000
-14.558800 0.000000
-14.536900 0.000000
-14.514900 0.000000
-14.493000 0.000000
-14.471100 0.000000
-14.449200 0.000000
-14.427200 0.000000
-14.405300 0.000000
-14.383400 0.000000
-14.361500 0.000000
-14.339500 0.000000
-14.317600 0.000000
-14.295700 0.000000
-14.273800 0.000000
-14.251800 0.000000
-14.229900 0.000000
-14.208000 0.000000
-14.186100 0.000000
-14.164100 0.000000
-14.142200 0.000000
-14.120300 0.000000
-14.098400 0.000000
-14.076400 0.000000
-14.054500 0.000000
-14.032600 0.000000
-14.010700 0.000000
-13.988700 0.000000
-13.966800 0.000000
-13.944900 0.000000
-13.923000 0.000000
-13.901000 0.000000
-13.879100 0.000000
-13.857200 0.000000
-13.835300 0.000000
-13.813300 0.000000
-13.791400 0.000000
-13.769500 0.000000
-13.747600 0.000000
-13.725700 0.000000
-13.703700 0.000000
-13.681800 0.000000
-13.659900 0.000000
-13.638000 0.000000
-13.616000 0.000000
-13.594100 0.000000
-13.572200 0.000000
-13.550300 0.000000
-13.528300 0.000000
-13.506400 0.000000
-13.484500 0.000000
-13.462600 0.000000
-13.440600 0.000000
-13.418700 0.000000
-13.396800 0.000000
-13.374900 0.000000
-13.352900 0.000000
-13.331000 0.000000
-13.309100 0.000000
-13.287200 0.000000
-13.265200 0.000000
-13.243300 0.000000
-13.221400 0.000000
-13.199500 0.000000
-13.177500 0.000000
-13.155600 0.000000
-13.133700 0.000000
-13.111800 0.000000
-13.089800 0.000000
-13.067900 0.000000
-13.046000 0.000000
-13.024100 0.000000
-13.002100 0.000000
-12.980200 0.000000
-12.958300 0.000000
-12.936400 0.000000
-12.914400 0.000000
-12.892500 0.000000
-12.870600 0.000000
-12.848700 0.000000
-12.826700 0.000000
-12.804800 0.000000
-12.782900 0.000000
-12.761000 0.000000
-12.739100 0.000000
-12.717100 0.000000
-12.695200 0.000000
-12.673300 0.000000
-12.651400 0.000000
-12.629400 0.000000
-12.607500 0.000000
-12.585600 0.000000
-12.563700 0.000000
-12.541700 0.000000
-12.519800 0.000000
-12.497900 0.000000
-12.476000 0.000000
-12.454000 0.000000
-12.432100 0.000000
-12.410200 0.000000
-12.388300 0.000000
-12.366300 0.000000
-12.344400 0.000000
-12.322500 0.000000
-12.300600 0.000000
-12.278600 0.000000
-12.256700 0.000000
-12.234800 0.000000
-12.212900 0.000000
-12.190900 0.000000
-12.169000 0.000000
-12.147100 0.000000
-12.125200 0.000000
-12.103200 0.000000
-12.081300 0.000000
-12.059400 0.000000
-12.037500 0.000000
-12.015500 0.000000
-11.993600 0.000000
-11.971700 0.000000
-11.949800 0.000000
-11.927800 0.000000
-11.905900 0.000000
-11.884000 0.000000
-11.862100 0.000000
-11.840100 0.000000
-11.818200 0.000000
-11.796300 0.000000
-11.774400 0.000000
-11.752500 0.000000
-11.730500 0.000000
-11.708600 0.000000
-11.686700 0.000000
-11.664800 0.000000
-11.642800 0.000000
-11.620900 0.000000
-11.599000 0.000000
-11.577100 0.000000
-11.555100 0.000000
-11.533200 0.000000
-11.511300 0.000000
-11.489400 0.000000
-11.467400 0.000000
-11.445500 0.000000
-11.423600 0.000000
-11.401700 0.000000
-11.379700 0.000000
-11.357800 0.000000
-11.335900 0.000000
-11.314000 0.000000
-11.292000 0.000000
-11.270100 0.000000
-11.248200 0.000000
-11.226300 0.000000
-11.204300 0.000000
-11.182400 0.000000
-11.160500 0.000000
-11.138600 0.000000
-11.116600 0.000000
-11.094700 0.000000
-11.072800 0.000000
-11.050900 0.000000
-11.028900 0.000000
-11.007000 0.000000
-10.985100 0.000000
-10.963200 0.000000
-10.941200 0.000000
-10.919300 0.000000
-10.897400 0.000000
-10.875500 0.000000
-10.853500 0.039700
-10.831600 0.169100
-10.809700 0.388500
-10.787800 0.697700
-10.765900 1.523500
-10.743900 1.287400
-10.722000 1.321900
-10.700100 1.450100
-10.678200 1.597700
-10.656200 1.764600
-10.634300 1.950800
-10.612400 2.156400
-10.590500 2.387200
-10.568500 2.637300
-10.546600 2.887300
-10.524700 3.137100
-10.502800 4.029800
-10.480800 4.446000
-10.458900 4.726000
-10.437000 4.924900
-10.415100 5.042400
-10.393100 5.078700
-10.371200 4.898900
-10.349300 4.763700
-10.327400 4.941500
-10.305400 5.108400
-10.283500 5.303200
-10.261600 4.561600
-10.239700 3.409500
-10.217700 2.398200
-10.195800 1.527800
-10.173900 0.798100
-10.152000 0.209300
-10.130000 0.000000
-10.108100 0.000000
-10.086200 0.000000
-10.064300 0.000000
-10.042300 0.000000
-10.020400 0.023100
-9.998500 0.564300
-9.976600 1.255100
-9.954600 2.093600
-9.932700 3.079700
-9.910800 4.213500
-9.888900 5.112400
-9.866900 5.598600
-9.845000 5.388000
-9.823100 5.018000
-9.801200 5.255300
-9.779300 5.334000
-9.757300 5.267100
-9.735400 5.054600
-9.713500 4.696400
-9.691600 4.192700
-9.669600 3.237700
-9.647700 2.935300
-9.625800 2.661900
-9.603900 2.426500
-9.581900 2.235400
-9.560000 2.051700
-9.538100 1.871100
-9.516200 1.701700
-9.494200 1.550600
-9.472300 1.417700
-9.450400 1.303200
-9.428500 1.217700
-9.406500 1.188400
-9.384600 1.216800
-9.362700 10.200200
-9.340800 32.468900
-9.318800 29.245500
-9.296900 10.864400
-9.275000 6.594700
-9.253100 9.950000
-9.231100 14.887400
-9.209200 11.955300
-9.187300 12.787800
-9.165400 11.120700
-9.143400 6.535700
-9.121500 5.245100
-9.099600 4.002500
-9.077700 2.827600
-9.055700 2.194000
-9.033800 0.578300
-9.011900 0.159300
-8.990000 0.001400
-8.968000 0.000000
-8.946100 0.000000
-8.924200 0.000000
-8.902300 0.000000
-8.880300 0.000000
-8.858400 0.000000
-8.836500 0.000000
-8.814600 0.000000
-8.792700 0.000000
-8.770700 0.000000
-8.748800 0.000000
-8.726900 0.000000
-8.705000 0.000000
-8.683000 0.000000
-8.661100 0.000000
-8.639200 0.000000
-8.617300 0.000000
-8.595300 0.000000
-8.573400 0.000000
-8.551500 0.000000
-8.529600 0.000000
-8.507600 0.000000
-8.485700 0.000000
-8.463800 0.000000
-8.441900 0.000000
-8.419900 0.000000
-8.398000 0.000000
-8.376100 0.000000
-8.354200 0.000000
-8.332200 0.000000
-8.310300 0.000000
-8.288400 0.000000
-8.266500 0.000000
-8.244500 0.000000
-8.222600 0.000000
-8.200700 0.000000
-8.178800 0.000000
-8.156800 0.000000
-8.134900 0.000000
-8.113000 0.000000
-8.091100 0.000000
-8.069100 0.000000
-8.047200 0.000000
-8.025300 0.000000
-8.003400 0.000000
-7.981400 0.000000
-7.959500 0.000000
-7.937600 0.000000
-7.915700 0.000000
-7.893700 0.000000
-7.871800 0.000000
-7.849900 0.000000
-7.828000 0.000000
-7.806000 0.000000
-7.784100 0.000000
-7.762200 0.000000
-7.740300 0.000000
-7.718400 0.000000
-7.696400 0.000000
-7.674500 0.000000
-7.652600 0.000000
-7.630700 0.000000
-7.608700 0.000000
-7.586800 0.000000
-7.564900 0.000000
-7.543000 0.000000
-7.521000 0.000000
-7.499100 0.000000
-7.477200 0.000000
-7.455300 0.000000
-7.433300 0.000000
-7.411400 0.000000
-7.389500 0.000000
-7.367600 0.000000
-7.345600 0.000000
-7.323700 0.000000
-7.301800 0.000000
-7.279900 0.000000
-7.257900 0.000000
-7.236000 0.000000
-7.214100 0.000000
-7.192200 0.000000
-7.170200 0.000000
-7.148300 0.000000
-7.126400 0.000000
-7.104500 0.000000
-7.082500 0.000000
-7.060600 0.000000
-7.038700 0.000000
-7.016800 0.000000
-6.994800 0.000000
-6.972900 0.000000
-6.951000 0.000000
-6.929100 0.000000
-6.907100 0.000000
-6.885200 0.000000
-6.863300 0.000000
-6.841400 0.000000
-6.819400 0.000000
-6.797500 0.000000
-6.775600 0.000000
-6.753700 0.000000
-6.731800 0.000000
-6.709800 0.000000
-6.687900 0.000000
-6.666000 0.000000
-6.644100 0.000000
-6.622100 0.000000
-6.600200 0.000000
-6.578300 0.000000
-6.556400 0.000000
-6.534400 0.000000
-6.512500 0.000000
-6.490600 0.000000
-6.468700 0.000000
-6.446700 0.000000
-6.424800 0.000000
-6.402900 0.000000
-6.381000 0.000000
-6.359000 0.000000
-6.337100 0.000000
-6.315200 0.000000
-6.293300 0.000000
-6.271300 0.000000
-6.249400 0.000000
-6.227500 0.000000
-6.205600 0.000000
-6.183600 0.000000
-6.161700 0.000000
-6.139800 0.000000
-6.117900 0.000000
-6.095900 0.000000
-6.074000 0.000000
-6.052100 0.000000
-6.030200 0.000000
-6.008200 0.000000
-5.986300 0.000000
-5.964400 0.000000
-5.942500 0.000000
-5.920500 0.000000
-5.898600 0.000000
-5.876700 0.000000
-5.854800 0.000000
-5.832800 0.000000
-5.810900 0.000000
-5.789000 0.000000
-5.767100 0.000000
-5.745200 0.000000
-5.723200 0.000000
-5.701300 0.000000
-5.679400 0.000000
-5.657500 0.000000
-5.635500 0.000000
-5.613600 0.000000
-5.591700 0.000000
-5.569800 0.000000
-5.547800 0.000000
-5.525900 0.000000
-5.504000 0.000000
-5.482100 0.000000
-5.460100 0.000000
-5.438200 0.000000
-5.416300 0.000000
-5.394400 0.000000
-5.372400 0.000000
-5.350500 0.000000
-5.328600 0.000000
-5.306700 0.000000
-5.284700 0.000000
-5.262800 0.000000
-5.240900 0.000000
-5.219000 0.012800
-5.197000 0.049900
-5.175100 0.111300
-5.153200 0.197000
-5.131300 0.307000
-5.109300 0.441300
-5.087400 0.599900
-5.065500 1.083200
-5.043600 0.840100
-5.021600 0.919100
-4.999700 1.004700
-4.977800 1.089000
-4.955900 1.178000
-4.933900 1.275500
-4.912000 1.381400
-4.890100 1.495800
-4.868200 1.618700
-4.846200 1.752500
-4.824300 1.928700
-4.802400 2.092400
-4.780500 2.240000
-4.758600 2.512900
-4.736600 3.028700
-4.714700 3.275400
-4.692800 3.465300
-4.670900 3.598600
-4.648900 3.691600
-4.627000 3.752800
-4.605100 3.781400
-4.583200 3.777300
-4.561200 3.485900
-4.539300 3.296800
-4.517400 3.362600
-4.495500 3.434000
-4.473500 3.506700
-4.451600 3.638000
-4.429700 3.326500
-4.407800 2.997400
-4.385800 2.701800
-4.363900 2.566000
-4.342000 2.271100
-4.320100 1.587500
-4.298100 0.933100
-4.276200 0.533300
-4.254300 0.396000
-4.232400 0.274700
-4.210400 0.169500
-4.188500 0.080200
-4.166600 0.007000
-4.144700 0.000000
-4.122700 0.000000
-4.100800 0.000000
-4.078900 0.000000
-4.057000 0.000000
-4.035000 0.215800
-4.013100 0.367100
-3.991200 0.535600
-3.969300 0.721500
-3.947300 0.924600
-3.925400 1.145100
-3.903500 1.382800
-3.881600 1.677000
-3.859600 1.561700
-3.837700 1.523400
-3.815800 1.719300
-3.793900 1.959000
-3.772000 2.233200
-3.750000 2.852800
-3.728100 2.614100
-3.706200 2.598500
-3.684300 2.545700
-3.662300 2.545800
-3.640400 2.572100
-3.618500 2.585800
-3.596600 2.587000
-3.574600 2.579200
-3.552700 2.739900
-3.530800 2.825300
-3.508900 2.835300
-3.486900 2.795300
-3.465000 2.771200
-3.443100 2.762400
-3.421200 2.738300
-3.399200 2.668700
-3.377300 2.556900
-3.355400 2.402800
-3.333500 2.222000
-3.311500 2.024600
-3.289600 1.810200
-3.267700 1.578800
-3.245800 1.429700
-3.223800 1.321700
-3.201900 1.233500
-3.180000 1.162400
-3.158100 1.095600
-3.136100 1.032200
-3.114200 0.972200
-3.092300 0.915500
-3.070400 0.862300
-3.048400 0.812300
-3.026500 0.762300
-3.004600 0.710300
-2.982700 0.656300
-2.960700 0.600400
-2.938800 0.548000
-2.916900 0.503300
-2.895000 0.466300
-2.873000 0.343600
-2.851100 0.299000
-2.829200 0.257600
-2.807300 0.219300
-2.785400 0.184000
-2.763400 0.151800
-2.741500 0.122700
-2.719600 0.096800
-2.697700 0.073900
-2.675700 0.054000
-2.653800 0.037300
-2.631900 0.023700
-2.610000 0.013100
-2.588000 0.005700
-2.566100 0.001300
-2.544200 0.000000
-2.522300 0.000000
-2.500300 0.000000
-2.478400 0.000000
-2.456500 0.000000
-2.434600 0.000000
-2.412600 0.000000
-2.390700 0.000000
-2.368800 0.000000
-2.346900 0.000000
-2.324900 0.000000
-2.303000 0.000000
-2.281100 0.000000
-2.259200 0.000000
-2.237200 0.000000
-2.215300 0.000000
-2.193400 0.000000
-2.171500 0.000000
-2.149500 0.000000
-2.127600 0.000000
-2.105700 0.000000
-2.083800 0.000000
-2.061800 0.000000
-2.039900 0.000000
-2.018000 0.000000
-1.996100 0.000000
-1.974100 0.000000
-1.952200 0.000000
-1.930300 0.000000
-1.908400 0.000000
-1.886400 0.000000
-1.864500 0.000000
-1.842600 0.000000
-1.820700 0.000000
-1.798800 0.000000
-1.776800 0.000000
-1.754900 0.000000
-1.733000 0.000000
-1.711100 0.000000
-1.689100 0.000000
-1.667200 0.000000
-1.645300 0.000000
-1.623400 1.538400
-1.601400 2.465000
-1.579500 3.260000
-1.557600 3.986100
-1.535700 4.643500
-1.513700 5.232200
-1.491800 5.797200
-1.469900 6.614200
-1.448000 7.107400
-1.426000 6.364000
-1.404100 5.890200
-1.382200 6.169700
-1.360300 5.763300
-1.338300 5.419400
-1.316400 5.292100
-1.294500 5.072900
-1.272600 4.839000
-1.250600 5.769400
-1.228700 3.814600
-1.206800 3.389700
-1.184900 3.207600
-1.162900 3.289200
-1.141000 4.342300
-1.119100 5.187500
-1.097200 6.071900
-1.075200 6.767400
-1.053300 9.027700
-1.031400 14.020800
-1.009500 12.552400
-0.987500 8.589600
-0.965600 4.608400
-0.943700 1.557700
-0.921800 1.130100
-0.899800 0.770900
-0.877900 0.480300
-0.856000 0.259700
-0.834100 0.117100
-0.812100 0.053300
-0.790200 0.066200
-0.768300 0.108600
-0.746400 0.161400
-0.724500 0.248500
-0.702500 0.548500
-0.680600 1.265800
-0.658700 2.681900
-0.636800 3.744500
-0.614800 2.258000
-0.592900 2.623500
-0.571000 3.348700
-0.549100 4.281800
-0.527100 5.150100
-0.505200 4.546300
-0.483300 4.887800
-0.461400 5.251300
-0.439400 6.278900
-0.417500 6.193100
-0.395600 6.681300
-0.373700 7.207700
-0.351700 8.055000
-0.329800 9.828200
-0.307900 7.008700
-0.286000 7.259400
-0.264000 7.619800
-0.242100 7.871800
-0.220200 7.818100
-0.198300 7.772500
-0.176300 7.550600
-0.154400 7.442400
-0.132500 7.158200
-0.110600 6.293600
-0.088600 6.086900
-0.066700 5.698300
-0.044800 3.879900
-0.022900 1.982100
-0.000900 1.537000
0.021000 1.170200
0.042900 0.789800
0.064800 0.635900
0.086800 0.474700
0.108700 0.306000
0.130600 0.130000
0.152500 0.622900
0.174500 2.113000
0.196400 7.528500
0.218300 10.428300
0.240200 14.824700
0.262100 15.268000
0.284100 9.888400
0.306000 6.903200
0.327900 5.994600
0.349800 9.700800
0.371800 10.832400
0.393700 10.631100
0.415600 11.198300
0.437500 11.354600
0.459500 7.056300
0.481400 6.473900
0.503300 5.987900
0.525200 5.586500
0.547200 5.222100
0.569100 5.967200
0.591000 4.984400
0.612900 4.362500
0.634900 3.777500
0.656800 2.976600
0.678700 0.331700
0.700600 0.587500
0.722600 0.881900
0.744500 1.203400
0.766400 1.478000
0.788300 1.550200
0.810300 1.770100
0.832200 1.970700
0.854100 2.173900
0.876000 2.384900
0.898000 2.489700
0.919900 2.596400
0.941800 2.705200
0.963700 2.822700
0.985700 3.002700
1.007600 3.223300
1.029500 3.904700
1.051400 4.827600
1.073400 6.197800
1.095300 6.626600
1.117200 6.292100
1.139100 6.205100
1.161100 5.555400
1.183000 4.281800
1.204900 4.335100
1.226800 4.450500
1.248700 4.731300
1.270700 5.079100
1.292600 5.494100
1.314500 5.976100
1.336400 7.082100
1.358400 11.489600
1.380300 20.617800
1.402200 22.583700
1.424100 6.210100
1.446100 4.239000
1.468000 3.113300
1.489900 2.941000
1.511800 3.313900
1.533800 5.255300
1.555700 8.279600
1.577600 14.542400
1.599500 13.920700
1.621500 14.460000
1.643400 13.630600
1.665300 11.101000
1.687200 6.152500
1.709200 4.066700
1.731100 4.234400
1.753000 6.614500
1.774900 11.384200
1.796900 19.031000
1.818800 25.822900
1.840700 14.404900
1.862600 4.112000
1.884600 0.503300
1.906500 0.263800
1.928400 0.101000
1.950300 0.014900
1.972300 0.000000
1.994200 0.000000
2.016100 0.000000
2.038000 0.000000
2.060000 0.000000
2.081900 0.000000
2.103800 0.000000
2.125700 0.000000
2.147700 0.000000
2.169600 0.000000
2.191500 0.000000
2.213400 0.000000
2.235300 0.000000
2.257300 0.000000
2.279200 0.000000
2.301100 0.000000
2.323000 0.000000
2.345000 0.000000
2.366900 0.000000
2.388800 0.000000
2.410700 0.000000
2.432700 0.000000
2.454600 0.000000
2.476500 0.000000
2.498400 0.000000
2.520400 0.000000
2.542300 0.000000
2.564200 0.000000
2.586100 0.000000
2.608100 0.000000
2.630000 0.000000
2.651900 0.000000
2.673800 0.000000
2.695800 0.000000
2.717700 0.000000
2.739600 0.000000
2.761500 0.000000
2.783500 0.000000
2.805400 0.000000
2.827300 0.000000
2.849200 0.000000
2.871200 0.000000
2.893100 0.000000
2.915000 0.000000
2.936900 0.000000
2.958900 0.000000
2.980800 0.000000
3.002700 0.000000
3.024600 0.000000
3.046600 0.000000
3.068500 0.000000
3.090400 0.000000
3.112300 0.000000
3.134300 0.000000
3.156200 0.000000
3.178100 0.000000
3.200000 0.000000
3.221900 0.000000
3.243900 0.000000
3.265800 0.000000
3.287700 0.000000
3.309600 0.000000
3.331600 0.000000
3.353500 0.000000
3.375400 0.000000
3.397300 0.000000
3.419300 0.000000
3.441200 0.000000
3.463100 0.000000
3.485000 0.000000
3.507000 0.000000
3.528900 0.000000
3.550800 0.000000
3.572700 0.000000
3.594700 0.000000
3.616600 0.000000
3.638500 0.000000
3.660400 0.000000
3.682400 0.000000
3.704300 0.000000
3.726200 0.000000
3.748100 0.000000
3.770100 0.000000
3.792000 0.000000
3.813900 0.000000
3.835800 0.000000
3.857800 0.000500
3.879700 0.003200
3.901600 0.008200
3.923500 0.015500
3.945500 0.025000
3.967400 0.036900
3.989300 0.051100
4.011200 0.067600
4.033200 0.086300
4.055100 0.107400
4.077000 0.130800
4.098900 0.156500
4.120900 0.184400
4.142800 0.214700
4.164700 0.247300
4.186600 0.282100
4.208500 0.319300
4.230500 0.358800
4.252400 0.672000
4.274300 0.865500
4.296200 1.039500
4.318200 1.187200
4.340100 1.308600
4.362000 1.413400
4.383900 1.628800
4.405900 2.003600
4.427800 2.582500
4.449700 3.371000
4.471600 8.184600
4.493600 8.937100
4.515500 9.622500
4.537400 8.969100
4.559300 10.766100
4.581300 11.317400
4.603200 8.716100
4.625100 6.388000
4.647000 1.873400
4.669000 2.077000
4.690900 2.275000
4.712800 3.551600
4.734700 4.691200
4.756700 5.378600
4.778600 5.945700
4.800500 5.515300
4.822400 5.384600
4.844400 5.586500
4.866300 5.731800
4.888200 5.719900
4.910100 5.619600
4.932100 5.351900
4.954000 4.951400
4.975900 4.000400
4.997800 3.348400
5.019800 3.001100
5.041700 2.636000
5.063600 3.545100
5.085500 0.201000
5.107500 0.000000
5.129400 0.000000
5.151300 0.000000
5.173200 0.000000
5.195100 0.000000
5.217100 0.000000
5.239000 0.000000
5.260900 0.000000
5.282800 0.000000
5.304800 0.000000
5.326700 0.000000
5.348600 0.000000
5.370500 0.000000
5.392500 0.000000
5.414400 0.000000
5.436300 0.000300
5.458200 0.003100
5.480200 0.008800
5.502100 0.017300
5.524000 0.028600
5.545900 0.111700
5.567900 0.255600
5.589800 0.315600
5.611700 0.324700
5.633600 0.402300
5.655600 0.485300
5.677500 0.573900
5.699400 0.667900
5.721300 0.767500
5.743300 0.872600
5.765200 0.983100
5.787100 1.245000
5.809000 1.378300
5.831000 1.492800
5.852900 1.599600
5.874800 1.701700
5.896700 1.820800
5.918700 1.928700
5.940600 2.026200
5.962500 2.235800
5.984400 2.457500
6.006400 2.638800
6.028300 2.821700
6.050200 2.859600
6.072100 2.904000
6.094100 2.965000
6.116000 3.046000
6.137900 3.140200
6.159800 3.262400
6.181800 3.491500
6.203700 3.709100
6.225600 3.897700
6.247500 4.062400
6.269400 4.200000
6.291400 4.308300
6.313300 5.101600
6.335200 4.749100
6.357100 4.948900
6.379100 5.411100
6.401000 5.904200
6.422900 4.530500
6.444800 4.385500
6.466800 3.998300
6.488700 3.681000
6.510600 3.472400
6.532500 3.565300
6.554500 4.692800
6.576400 6.349400
6.598300 7.611900
6.620200 8.741200
6.642200 8.215000
6.664100 6.169800
6.686000 5.676000
6.707900 5.234700
6.729900 4.918900
6.751800 5.011100
6.773700 4.817300
6.795600 4.548500
6.817600 4.971900
6.839500 4.162100
6.861400 3.750200
6.883300 2.666800
6.905300 2.803100
6.927200 2.977300
6.949100 3.796400
6.971000 4.552100
6.993000 5.244500
7.014900 7.487200
7.036800 5.898000
7.058700 5.019100
7.080700 3.743200
7.102600 3.585900
7.124500 4.160200
7.146400 4.117800
7.168400 4.091500
7.190300 4.079600
7.212200 4.081800
7.234100 4.076300
7.256000 4.073700
7.278000 4.081500
7.299900 4.099700
7.321800 4.128400
7.343700 4.167600
7.365700 4.217500
7.387600 4.278900
7.409500 5.182700
7.431400 5.505000
7.453400 4.876100
7.475300 4.440400
7.497200 4.065200
7.519100 3.750500
7.541100 3.414700
7.563000 2.743400
7.584900 2.576200
7.606800 2.423100
7.628800 2.254800
7.650700 2.060800
7.672600 1.841900
7.694500 1.623000
7.716500 1.412900
7.738400 1.212100
7.760300 1.100400
7.782200 0.989600
7.804200 0.879600
7.826100 0.770600
7.848000 0.662400
7.869900 0.605000
7.891900 1.139700
7.913800 2.795100
7.935700 3.471700
7.957600 4.076000
7.979600 4.589500
8.001500 4.851200
8.023400 4.842500
8.045300 4.553200
8.067300 4.092900
8.089200 3.748800
8.111100 3.445700
8.133000 3.183400
8.155000 2.961500
8.176900 2.741000
8.198800 2.539400
8.220700 2.392600
8.242600 3.023400
8.264600 2.897900
8.286500 2.688300
8.308400 2.430200
8.330300 2.589900
8.352300 2.681800
8.374200 2.770400
8.396100 2.855800
8.418000 2.924300
8.440000 3.175700
8.461900 3.492900
8.483800 3.877600
8.505700 4.347700
8.527700 4.907800
8.549600 5.389000
8.571500 5.582400
8.593400 5.861000
8.615400 6.887800
8.637300 5.402400
8.659200 5.175600
8.681100 4.978400
8.703100 4.849700
8.725000 4.879600
8.746900 4.145400
8.768800 3.758700
8.790800 4.511500
8.812700 3.317500
8.834600 2.322200
8.856500 2.110500
8.878500 1.936400
8.900400 1.753000
8.922300 1.606100
8.944200 1.456200
8.966200 1.303200
8.988100 1.146100
9.010000 0.986800
9.031900 0.871700
9.053900 0.763700
9.075800 0.662800
9.097700 0.569100
9.119600 0.482400
9.141600 0.402800
9.163500 0.329900
9.185400 0.272300
9.207300 0.225100
9.229200 0.179200
9.251200 0.134600
9.273100 0.091200
9.295000 0.049200
9.316900 0.008400
9.338900 0.545700
9.360800 0.584700
9.382700 0.857800
9.404600 1.199200
9.426600 1.552600
9.448500 1.897100
9.470400 2.225500
9.492300 2.525400
9.514300 3.023400
9.536200 3.786300
9.558100 3.437000
9.580000 3.284200
9.602000 3.526600
9.623900 3.970000
9.645800 4.533600
9.667700 5.482500
9.689700 6.955500
9.711600 7.916500
9.733500 8.439500
9.755400 7.978800
9.777400 7.704600
9.799300 7.357100
9.821200 6.936100
9.843100 6.524900
9.865100 7.585900
9.887000 6.183400
9.908900 5.002600
9.930800 3.981800
9.952800 3.253600
9.974700 3.631900
9.996600 4.951300
10.018500 5.210700
10.040500 5.632300
10.062400 6.061700
10.084300 6.434900
10.106200 7.303900
10.128200 3.704700
10.150100 3.091500
10.172000 2.971900
10.193900 3.258400
10.215800 3.843300
10.237800 4.005800
10.259700 4.201100
10.281600 4.457600
10.303500 5.988300
10.325500 6.696800
10.347400 7.333400
10.369300 8.382800
10.391200 7.294600
10.413200 5.952600
10.435100 5.527400
10.457000 5.042300
10.478900 5.304800
10.500900 5.920000
10.522800 6.470500
10.544700 5.508400
10.566600 6.568100
10.588600 7.773900
10.610500 7.923600
10.632400 7.820700
10.654300 7.997700
10.676300 8.075400
10.698200 7.019100
10.720100 5.793600
10.742000 3.999000
10.764000 3.009300
10.785900 2.559000
10.807800 2.187800
10.829700 1.895500
10.851700 1.690200
10.873600 1.582600
10.895500 1.507100
10.917400 1.799800
10.939400 2.147800
10.961300 2.551100
10.983200 3.009700
11.005100 6.088500
11.027100 7.674000
11.049000 6.973600
11.070900 6.441900
11.092800 6.012400
11.114800 6.003200
11.136700 6.058500
11.158600 6.157900
11.180500 6.272900
11.202400 6.420900
11.224400 6.604000
11.246300 6.853700
11.268200 7.515700
11.290100 8.409500
11.312100 9.373100
11.334000 9.621500
11.355900 7.834800
11.377800 5.643300
11.399800 5.188800
11.421700 4.894100
11.443600 4.476700
11.465500 4.150000
11.487500 3.948200
11.509400 3.902000
11.531300 3.884200
11.553200 3.894600
11.575200 3.933200
11.597100 4.000000
11.619000 4.094900
11.640900 4.099900
11.662900 4.165900
11.684800 4.245200
11.706700 4.407000
11.728600 5.165000
11.750600 5.359700
11.772500 5.457900
11.794400 5.549200
11.816300 5.348800
11.838300 5.143300
11.860200 5.005800
11.882100 4.980700
11.904000 4.885600
11.926000 4.720200
11.947900 4.484600
11.969800 4.417200
11.991700 4.388600
12.013700 4.382000
12.035600 4.377700
12.057500 4.359000
12.079400 4.338000
12.101400 4.328500
12.123300 4.448400
12.145200 5.257500
12.167100 5.306000
12.189000 4.705000
12.211000 4.474400
12.232900 4.320200
12.254800 4.030900
12.276700 3.979900
12.298700 3.959000
12.320600 3.711500
12.342500 3.488600
12.364400 3.281100
12.386400 3.088900
12.408300 3.403100
12.430200 3.326600
12.452100 3.129500
12.474100 2.920900
12.496000 2.716800
12.517900 2.634300
12.539800 2.685500
12.561800 2.954400
12.583700 3.272900
12.605600 3.641000
12.627500 4.058600
12.649500 4.743700
12.671400 6.733700
12.693300 9.360700
12.715200 9.253100
12.737200 8.308100
12.759100 7.359900
12.781000 6.386300
12.802900 5.315800
12.824900 4.293000
12.846800 3.982400
12.868700 3.815500
12.890600 3.763300
12.912600 3.796400
12.934500 4.105300
12.956400 5.662800
12.978300 5.759900
13.000300 6.128700
13.022200 6.525000
13.044100 6.844600
13.066000 7.124100
13.088000 7.363400
13.109900 7.614200
13.131800 7.249400
13.153700 5.968800
13.175600 5.510800
13.197600 4.955100
13.219500 4.745300
13.241400 4.559400
13.263300 4.355800
13.285300 4.197400
13.307200 4.843800
13.329100 5.083400
13.351000 6.030600
13.373000 6.979400
13.394900 8.512400
13.416800 8.224100
13.438700 7.817600
13.460700 7.156300
13.482600 6.494400
13.504500 5.771900
13.526400 5.336300
13.548400 5.339700
13.570300 4.819100
13.592200 3.982600
13.614100 3.279600
13.636100 2.724000
13.658000 2.141200
13.679900 1.929600
13.701800 1.816300
13.723800 1.987100
13.745700 2.283600
13.767600 2.657700
13.789500 5.099500
13.811500 10.811400
13.833400 13.196900
13.855300 9.991500
13.877200 10.330100
13.899200 8.515800
13.921100 7.052800
13.943000 5.455300
13.964900 4.507300
13.986900 3.513100
14.008800 2.761800
14.030700 2.092900
14.052600 2.137200
14.074600 2.365600
14.096500 2.669100
14.118400 3.032300
14.140300 3.361900
14.162300 3.645700
14.184200 3.882400
14.206100 4.080300
14.228000 4.281400
14.249900 4.930700
14.271900 5.708100
14.293800 6.583100
14.315700 7.618000
14.337600 7.875600
14.359600 9.616500
14.381500 7.910600
14.403400 6.287600
14.425300 5.270200
14.447300 2.528100
14.469200 2.900700
14.491100 3.447300
14.513000 4.144800
14.535000 3.700000
14.556900 3.908200
14.578800 4.184900
14.600700 4.636100
14.622700 5.041100
14.644600 5.376000
14.666500 5.731500
14.688400 6.029800
14.710400 5.442000
14.732300 5.662200
14.754200 6.543800
14.776100 8.021000
14.798100 7.351000
14.820000 4.411500
14.841900 3.560200
14.863800 3.646700
14.885800 4.261200
14.907700 4.324700
14.929600 4.592600
14.951500 4.894000
14.973500 4.861700
14.995400 4.154300
15.017300 4.374600
15.039200 4.644400
15.061200 5.161100
15.083100 5.168200
15.105000 5.259500
15.126900 5.461600
15.148900 6.334700
15.170800 6.653600
15.192700 6.874600
15.214600 7.089800
15.236500 7.244300
15.258500 7.337900
15.280400 7.372500
15.302300 7.350600
15.324200 7.147400
15.346200 7.282200
15.368100 5.769200
15.390000 4.922600
15.411900 4.693800
15.433900 4.743100
15.455800 4.846400
15.477700 5.003600
15.499600 5.131900
15.521600 5.287300
15.543500 5.460000
15.565400 5.555700
15.587300 5.541100
15.609300 5.201400
15.631200 4.984600
15.653100 5.423900
15.675000 5.640200
15.697000 5.972800
15.718900 6.286600
15.740800 6.669900
15.762700 6.904300
15.784700 7.761200
15.806600 6.900000
15.828500 7.178300
15.850400 7.545200
15.872400 6.992600
15.894300 7.108800
15.916200 6.969300
15.938100 7.185600
15.960100 7.303600
15.982000 7.163300
16.003900 6.497900
16.025800 5.250900
16.047800 5.030100
16.069700 4.880800
16.091600 5.572600
16.113500 6.644800
16.135500 7.335000
16.157400 6.211900
16.179300 5.609800
16.201200 5.098800
16.223100 5.069500
16.245100 5.183600
16.267000 5.588300
16.288900 5.970400
16.310800 5.875400
16.332800 5.733500
16.354700 5.544600
16.376600 5.293600
16.398500 5.686700
16.420500 5.825100
16.442400 6.258200
16.464300 5.972900
16.486200 6.398900
16.508200 6.244400
16.530100 6.222700
16.552000 5.981100
16.573900 5.594400
16.595900 5.315500
16.617800 5.087800
16.639700 4.931900
16.661600 4.830500
16.683600 4.657300
16.705500 4.454100
16.727400 4.220900
16.749300 3.980300
16.771300 4.007500
16.793200 4.466400
16.815100 4.915200
16.837000 5.248000
16.859000 5.475700
16.880900 5.680600
16.902800 5.862000
16.924700 6.019900
16.946700 5.387900
16.968600 5.425000
16.990500 4.895700
17.012400 4.341000
17.034400 3.760900
17.056300 3.159900
17.078200 3.041600
17.100100 3.019900
17.122100 3.443700
17.144000 4.365400
17.165900 6.391300
17.187800 10.021100
17.209700 8.146400
17.231700 7.357300
17.253600 6.735600
17.275500 6.159300
17.297400 5.628600
17.319400 5.243200
17.341300 4.820300
17.363200 4.459800
17.385100 4.302300
17.407100 4.225700
17.429000 4.231900
17.450900 4.470000
17.472800 4.687000
17.494800 4.998700
17.516700 4.824100
17.538600 5.442300
17.560500 5.631100
17.582500 5.865700
17.604400 6.266200
17.626300 6.615200
17.648200 7.035700
17.670200 7.406100
17.692100 7.680000
17.714000 7.571400
17.735900 7.463000
17.757900 7.479100
17.779800 8.026700
17.801700 8.104800
17.823600 7.916000
17.845600 7.287600
17.867500 6.235400
17.889400 5.941700
17.911300 7.066600
17.933300 7.057900
17.955200 7.106900
17.977100 6.189800
17.999000 5.937000
18.021000 5.555000
18.042900 5.244300
18.064800 4.679800
18.086700 4.391400
18.108700 4.341000
18.130600 4.395900
18.152500 4.977600
18.174400 5.049900
18.196300 5.175900
18.218300 5.355700
18.240200 5.665500
18.262100 9.592200
18.284000 8.470000
18.306000 6.928400
18.327900 5.642900
18.349800 5.764800
18.371700 5.614200
18.393700 5.544500
18.415600 5.546000
18.437500 5.604700
18.459400 5.664100
18.481400 5.722700
18.503300 5.482200
18.525200 6.463800
18.547100 8.156000
18.569100 8.643100
18.591000 8.705700
18.612900 8.344200
18.634800 7.662300
18.656800 7.313800
18.678700 7.085200
18.700600 7.797700
18.722500 7.871500
18.744500 6.986800
18.766400 6.627800
18.788300 6.520100
18.810200 5.852500
18.832200 5.391800
18.854100 5.548000
18.876000 5.989800
18.897900 6.440600
18.919900 6.804500
18.941800 7.276200
18.963700 7.379600
18.985600 7.177500
19.007600 6.204900
19.029500 4.942500
19.051400 4.936100
19.073300 4.918000
19.095300 4.892000
19.117200 4.871500
19.139100 4.856200
19.161000 4.735700
19.182900 4.492600
19.204900 4.666400
19.226800 4.841400
19.248700 5.066600
19.270600 5.497100
19.292600 6.021400
19.314500 6.563400
19.336400 7.170100
19.358300 7.377700
19.380300 7.487600
19.402200 7.481800
19.424100 7.815500
19.446000 7.848000
19.468000 8.055600
19.489900 8.578000
19.511800 7.004300
19.533700 5.241600
19.555700 5.251100
19.577600 5.238000
19.599500 5.202500
19.621400 5.144500
19.643400 5.063900
19.665300 4.999500
19.687200 4.853600
19.709100 4.810700
19.731100 4.638900
19.753000 4.590400
19.774900 4.549400
19.796800 4.374500
19.818800 3.667800
19.840700 3.553600
19.862600 3.565700
19.884500 3.466000
19.906500 3.824200
19.928400 4.203900
19.950300 4.673000
19.972200 5.144400
19.994200 5.547100
20.016100 5.626800
20.038000 6.140900
20.059900 6.598000
20.081900 6.585600
20.103800 6.162300
20.125700 5.768500
20.147600 5.402500
20.169500 5.108200
20.191500 4.832800
20.213400 4.535800
20.235300 4.215400
20.257200 3.883900
20.279200 3.517000
20.301100 2.939200
20.323000 2.658700
20.344900 2.403600
20.366900 2.189300
20.388800 2.032500
20.410700 1.896400
20.432600 1.322600
20.454600 1.219200
20.476500 1.116800
20.498400 1.015200
20.520300 1.328600
20.542300 1.004800
20.564200 0.708000
20.586100 0.449500
20.608000 0.225000
20.630000 0.043000
20.651900 0.031700
20.673800 0.022200
20.695700 0.014300
20.717700 0.008200
20.739600 0.003700
20.761500 0.001000
20.783400 0.000000
20.805400 0.000000
20.827300 0.000000
20.849200 0.000000
20.871100 0.000000
20.893100 0.000000
20.915000 0.000000
20.936900 0.000000
20.958800 0.000000
20.980800 0.000000
21.002700 0.000000
21.024600 0.000000
21.046500 0.000000
21.068500 0.000000
21.090400 0.000000
21.112300 0.000000
21.134200 0.000000
21.156200 0.000000
21.178100 0.000000
21.200000 0.000000
21.221900 0.000000
21.243800 0.000000
21.265800 0.000000
21.287700 0.000000
21.309600 0.000000
21.331500 0.000000
21.353500 0.000000
21.375400 0.000000
21.397300 0.000000
21.419200 0.000000
21.441200 0.000000
21.463100 0.000000
21.485000 0.000000
21.506900 0.000000
21.528900 0.000000
21.550800 0.000000
21.572700 0.000000
21.594600 0.000000
21.616600 0.000000
21.638500 0.000000
21.660400 0.000000
21.682300 0.000000
21.704300 0.000000
21.726200 0.000000
21.748100 0.000000
21.770000 0.000000
21.792000 0.000000
21.813900 0.000000
21.835800 0.000000
21.857700 0.000000
21.879700 0.000000
21.901600 0.000000
21.923500 0.000000
21.945400 0.000000
21.967400 0.000000
21.989300 0.000000
22.011200 0.000000
22.033100 0.000000
22.055100 0.000000
22.077000 0.000000
22.098900 0.000000
22.120800 0.000000
22.142800 0.000000
22.164700 0.000000
22.186600 0.000000
22.208500 0.000000
22.230400 0.000000
22.252400 0.000000
22.274300 0.000000
22.296200 0.000000
22.318100 0.000000
22.340100 0.000000
22.362000 0.000000
22.383900 0.000000
22.405800 0.000000
22.427800 0.000000
22.449700 0.000000
22.471600 0.000000
22.493500 0.000000
22.515500 0.000000
22.537400 0.000000
22.559300 0.000000
22.581200 0.000000
22.603200 0.000000
22.625100 0.000000
22.647000 0.000000
22.668900 0.000000
22.690900 0.000000
22.712800 0.000000
22.734700 0.000000
22.756600 0.000000
22.778600 0.000000
e
