set title 'mp-1186622 - Density of States'
set xlabel 'Energy (eV)'
set ylabel 'DOS (states/eV)'
set grid
set xrange [-10:10]
set yrange [0:4.740]
set xzeroaxis lt -1
set terminal png size 800,600
set output 'mp-1186622_dos_gnuplot.png'
plot '-' using 1:2 with lines title 'DOS'
-35.280200 0.000000
-35.244100 0.000000
-35.208000 0.000000
-35.171900 0.000000
-35.135800 0.000000
-35.099800 0.000000
-35.063700 0.000000
-35.027600 0.000000
-34.991500 0.000000
-34.955400 0.000000
-34.919300 0.000000
-34.883200 0.000000
-34.847100 0.000000
-34.811000 0.000000
-34.775000 0.000000
-34.738900 0.000000
-34.702800 0.000000
-34.666700 0.000000
-34.630600 0.000000
-34.594500 0.000000
-34.558400 0.000000
-34.522300 0.000000
-34.486200 0.000000
-34.450200 0.000000
-34.414100 0.000000
-34.378000 0.000000
-34.341900 0.000000
-34.305800 0.000000
-34.269700 0.000000
-34.233600 0.000000
-34.197500 0.000000
-34.161400 0.000000
-34.125400 0.000000
-34.089300 0.000000
-34.053200 0.000000
-34.017100 0.000000
-33.981000 0.000000
-33.944900 0.000000
-33.908800 0.000000
-33.872700 0.000000
-33.836600 0.000000
-33.800600 0.000000
-33.764500 0.000000
-33.728400 0.000000
-33.692300 0.000000
-33.656200 0.000000
-33.620100 0.000000
-33.584000 0.000000
-33.547900 0.000000
-33.511800 0.000000
-33.475800 0.000000
-33.439700 0.000000
-33.403600 0.000000
-33.367500 0.000000
-33.331400 0.000000
-33.295300 0.000000
-33.259200 0.000000
-33.223100 0.000000
-33.187000 0.000000
-33.151000 0.000000
-33.114900 0.000000
-33.078800 0.000000
-33.042700 0.000000
-33.006600 0.000000
-32.970500 0.000000
-32.934400 0.000000
-32.898300 0.000000
-32.862200 0.000000
-32.826100 0.000000
-32.790100 0.000000
-32.754000 0.000000
-32.717900 0.000000
-32.681800 0.000000
-32.645700 0.000000
-32.609600 0.000000
-32.573500 0.000000
-32.537400 0.000000
-32.501300 0.000000
-32.465300 0.000000
-32.429200 0.000000
-32.393100 0.000000
-32.357000 0.000000
-32.320900 0.000000
-32.284800 0.000000
-32.248700 0.000000
-32.212600 0.000000
-32.176500 0.000000
-32.140500 0.000000
-32.104400 0.000000
-32.068300 0.000000
-32.032200 0.000000
-31.996100 39.299000
-31.960000 0.000000
-31.923900 0.000000
-31.887800 0.000000
-31.851700 0.000000
-31.815700 0.000000
-31.779600 0.000000
-31.743500 0.000000
-31.707400 0.000000
-31.671300 0.000000
-31.635200 0.000000
-31.599100 0.000000
-31.563000 0.000000
-31.526900 0.000000
-31.490900 0.000000
-31.454800 0.000000
-31.418700 0.000000
-31.382600 0.000000
-31.346500 0.000000
-31.310400 0.000000
-31.274300 0.000000
-31.238200 0.000000
-31.202100 0.000000
-31.166100 0.000000
-31.130000 0.000000
-31.093900 0.000000
-31.057800 0.000000
-31.021700 0.000000
-30.985600 0.000000
-30.949500 0.000000
-30.913400 0.000000
-30.877300 0.000000
-30.841300 0.000000
-30.805200 0.000000
-30.769100 0.000000
-30.733000 0.000000
-30.696900 0.000000
-30.660800 0.000000
-30.624700 0.000000
-30.588600 0.000000
-30.552500 0.000000
-30.516500 0.000000
-30.480400 0.000000
-30.444300 0.000000
-30.408200 0.000000
-30.372100 0.000000
-30.336000 0.000000
-30.299900 0.000000
-30.263800 0.000000
-30.227700 0.000000
-30.191700 0.000000
-30.155600 0.000000
-30.119500 0.000000
-30.083400 0.000000
-30.047300 0.000000
-30.011200 0.000000
-29.975100 0.000000
-29.939000 0.000000
-29.902900 0.000000
-29.866900 0.000000
-29.830800 0.000000
-29.794700 0.000000
-29.758600 0.000000
-29.722500 0.000000
-29.686400 0.000000
-29.650300 0.000000
-29.614200 0.000000
-29.578100 0.000000
-29.542100 0.000000
-29.506000 0.000000
-29.469900 0.000000
-29.433800 0.000000
-29.397700 0.000000
-29.361600 0.000000
-29.325500 0.000000
-29.289400 0.000000
-29.253300 0.000000
-29.217300 0.000000
-29.181200 0.000000
-29.145100 0.000000
-29.109000 0.000000
-29.072900 0.000000
-29.036800 0.000000
-29.000700 0.000000
-28.964600 0.000000
-28.928500 0.000000
-28.892500 0.000000
-28.856400 0.000000
-28.820300 0.000000
-28.784200 0.000000
-28.748100 0.000000
-28.712000 0.000000
-28.675900 0.000000
-28.639800 0.000000
-28.603700 0.000000
-28.567700 0.000000
-28.531600 0.000000
-28.495500 0.000000
-28.459400 0.000000
-28.423300 0.000000
-28.387200 0.000000
-28.351100 0.000000
-28.315000 0.000000
-28.278900 0.000000
-28.242900 0.000000
-28.206800 0.000000
-28.170700 0.000000
-28.134600 0.000000
-28.098500 0.000000
-28.062400 0.000000
-28.026300 0.000000
-27.990200 0.000000
-27.954100 0.000000
-27.918100 0.000000
-27.882000 0.000000
-27.845900 0.000000
-27.809800 0.000000
-27.773700 0.000000
-27.737600 0.000000
-27.701500 0.000000
-27.665400 0.000000
-27.629300 0.000000
-27.593200 0.000000
-27.557200 0.000000
-27.521100 0.000000
-27.485000 0.000000
-27.448900 0.000000
-27.412800 0.000000
-27.376700 0.000000
-27.340600 0.000000
-27.304500 0.000000
-27.268400 0.000000
-27.232400 0.000000
-27.196300 0.000000
-27.160200 0.000000
-27.124100 0.000000
-27.088000 0.000000
-27.051900 0.000000
-27.015800 0.000000
-26.979700 0.000000
-26.943600 0.000000
-26.907600 0.000000
-26.871500 0.000000
-26.835400 0.000000
-26.799300 0.000000
-26.763200 0.000000
-26.727100 0.000000
-26.691000 0.000000
-26.654900 0.000000
-26.618800 0.000000
-26.582800 0.000000
-26.546700 0.000000
-26.510600 0.000000
-26.474500 0.000000
-26.438400 0.000000
-26.402300 0.000000
-26.366200 0.000000
-26.330100 0.000000
-26.294000 0.000000
-26.258000 0.000000
-26.221900 0.000000
-26.185800 0.000000
-26.149700 0.000000
-26.113600 0.000000
-26.077500 0.000000
-26.041400 0.000000
-26.005300 0.000000
-25.969200 0.000000
-25.933200 0.000000
-25.897100 0.000000
-25.861000 0.000000
-25.824900 0.000000
-25.788800 0.000000
-25.752700 0.000000
-25.716600 0.000000
-25.680500 0.000000
-25.644400 0.000000
-25.608400 0.000000
-25.572300 0.000000
-25.536200 0.000000
-25.500100 0.000000
-25.464000 0.000000
-25.427900 0.000000
-25.391800 0.000000
-25.355700 0.000000
-25.319600 0.000000
-25.283600 0.000000
-25.247500 0.000000
-25.211400 0.000000
-25.175300 0.000000
-25.139200 0.000000
-25.103100 0.000000
-25.067000 0.000000
-25.030900 0.000000
-24.994800 0.000000
-24.958800 0.000000
-24.922700 0.000000
-24.886600 0.000000
-24.850500 0.000000
-24.814400 0.000000
-24.778300 0.000000
-24.742200 0.000000
-24.706100 0.000000
-24.670000 0.000000
-24.634000 0.000000
-24.597900 0.000000
-24.561800 0.000000
-24.525700 0.000000
-24.489600 0.000000
-24.453500 0.000000
-24.417400 0.000000
-24.381300 0.000000
-24.345200 0.000000
-24.309200 0.000000
-24.273100 0.000000
-24.237000 0.000000
-24.200900 0.000000
-24.164800 0.000000
-24.128700 0.000000
-24.092600 0.000000
-24.056500 0.000000
-24.020400 0.000000
-23.984400 0.000000
-23.948300 0.000000
-23.912200 0.000000
-23.876100 0.000000
-23.840000 0.000000
-23.803900 0.000000
-23.767800 0.000000
-23.731700 0.000000
-23.695600 0.000000
-23.659600 0.000000
-23.623500 0.000000
-23.587400 0.000000
-23.551300 0.000000
-23.515200 0.000000
-23.479100 0.000000
-23.443000 0.000000
-23.406900 0.000000
-23.370800 0.000000
-23.334800 0.000000
-23.298700 0.000000
-23.262600 0.000000
-23.226500 0.000000
-23.190400 0.000000
-23.154300 0.000000
-23.118200 0.000000
-23.082100 0.000000
-23.046000 0.000000
-23.010000 0.000000
-22.973900 0.000000
-22.937800 0.000000
-22.901700 0.000000
-22.865600 0.000000
-22.829500 0.000000
-22.793400 0.000000
-22.757300 0.000000
-22.721200 0.000000
-22.685100 0.000000
-22.649100 0.000000
-22.613000 0.000000
-22.576900 0.000000
-22.540800 0.000000
-22.504700 0.000000
-22.468600 0.000000
-22.432500 0.000000
-22.396400 0.000000
-22.360300 0.000000
-22.324300 0.000000
-22.288200 0.000000
-22.252100 0.000000
-22.216000 0.000000
-22.179900 0.000000
-22.143800 0.000000
-22.107700 0.000000
-22.071600 0.000000
-22.035500 0.000000
-21.999500 0.000000
-21.963400 0.000000
-21.927300 0.000000
-21.891200 0.000000
-21.855100 0.000000
-21.819000 0.000000
-21.782900 0.000000
-21.746800 0.000000
-21.710700 0.000000
-21.674700 0.000000
-21.638600 0.000000
-21.602500 0.000000
-21.566400 0.000000
-21.530300 0.000000
-21.494200 0.000000
-21.458100 0.000000
-21.422000 0.000000
-21.385900 0.000000
-21.349900 0.000000
-21.313800 0.000000
-21.277700 0.000000
-21.241600 0.000000
-21.205500 0.000000
-21.169400 0.000000
-21.133300 0.000000
-21.097200 0.000000
-21.061100 0.000000
-21.025100 0.000000
-20.989000 0.000000
-20.952900 0.000000
-20.916800 0.000000
-20.880700 0.000000
-20.844600 0.000000
-20.808500 0.000000
-20.772400 0.000000
-20.736300 0.000000
-20.700300 0.000000
-20.664200 0.000000
-20.628100 0.000000
-20.592000 0.000000
-20.555900 0.000000
-20.519800 0.000000
-20.483700 0.000000
-20.447600 0.000000
-20.411500 0.000000
-20.375500 0.000000
-20.339400 0.000000
-20.303300 0.000000
-20.267200 0.000000
-20.231100 0.000000
-20.195000 0.000000
-20.158900 0.000000
-20.122800 0.000000
-20.086700 0.000000
-20.050700 0.000000
-20.014600 0.000000
-19.978500 0.000000
-19.942400 0.000000
-19.906300 0.000000
-19.870200 0.000000
-19.834100 0.000000
-19.798000 0.000000
-19.761900 0.000000
-19.725900 0.000000
-19.689800 0.000000
-19.653700 0.000000
-19.617600 0.000000
-19.581500 0.000000
-19.545400 0.000000
-19.509300 0.000000
-19.473200 0.000000
-19.437100 0.000000
-19.401100 0.000000
-19.365000 0.000000
-19.328900 0.000000
-19.292800 0.000000
-19.256700 0.000000
-19.220600 0.000000
-19.184500 0.000000
-19.148400 0.000000
-19.112300 0.000000
-19.076300 0.000000
-19.040200 0.000000
-19.004100 0.000000
-18.968000 0.000000
-18.931900 0.000000
-18.895800 0.000000
-18.859700 0.000000
-18.823600 0.000000
-18.787500 0.000000
-18.751500 0.000000
-18.715400 0.000000
-18.679300 0.000000
-18.643200 0.000000
-18.607100 0.000000
-18.571000 0.000000
-18.534900 0.000000
-18.498800 0.000000
-18.462700 0.000000
-18.426700 0.000000
-18.390600 0.000000
-18.354500 0.000000
-18.318400 0.000000
-18.282300 0.000000
-18.246200 0.000000
-18.210100 0.000000
-18.174000 0.000000
-18.137900 0.000000
-18.101900 0.000000
-18.065800 0.000000
-18.029700 0.000000
-17.993600 0.000000
-17.957500 0.000000
-17.921400 0.000000
-17.885300 0.000000
-17.849200 0.000000
-17.813100 0.000000
-17.777100 0.000000
-17.741000 0.000000
-17.704900 0.000000
-17.668800 0.000000
-17.632700 0.000000
-17.596600 0.000000
-17.560500 0.000000
-17.524400 0.000000
-17.488300 0.000000
-17.452200 0.000000
-17.416200 0.000000
-17.380100 0.000000
-17.344000 0.000000
-17.307900 0.000000
-17.271800 0.000000
-17.235700 0.000000
-17.199600 0.000000
-17.163500 0.000000
-17.127400 0.000000
-17.091400 0.000000
-17.055300 0.000000
-17.019200 0.000000
-16.983100 0.000000
-16.947000 0.000000
-16.910900 0.000000
-16.874800 0.000000
-16.838700 0.000000
-16.802600 0.000000
-16.766600 0.000000
-16.730500 0.000000
-16.694400 0.000000
-16.658300 0.000000
-16.622200 0.000000
-16.586100 0.000000
-16.550000 0.000000
-16.513900 0.000000
-16.477800 0.000000
-16.441800 0.000000
-16.405700 0.000000
-16.369600 0.000000
-16.333500 0.000000
-16.297400 0.000000
-16.261300 0.000000
-16.225200 0.000000
-16.189100 0.000000
-16.153000 0.000000
-16.117000 0.000000
-16.080900 0.000000
-16.044800 0.000000
-16.008700 0.000000
-15.972600 0.000000
-15.936500 0.000000
-15.900400 0.000000
-15.864300 0.000000
-15.828200 0.000000
-15.792200 0.000000
-15.756100 0.000000
-15.720000 0.000000
-15.683900 0.000000
-15.647800 0.000000
-15.611700 0.000000
-15.575600 0.000000
-15.539500 0.000000
-15.503400 0.000000
-15.467400 0.000000
-15.431300 0.000000
-15.395200 0.000000
-15.359100 0.000000
-15.323000 0.000000
-15.286900 0.000000
-15.250800 0.000000
-15.214700 0.000000
-15.178600 0.000000
-15.142600 0.000000
-15.106500 0.000000
-15.070400 0.000000
-15.034300 0.000000
-14.998200 0.000000
-14.962100 0.000000
-14.926000 0.000000
-14.889900 0.000000
-14.853800 0.000000
-14.817800 0.000000
-14.781700 0.000000
-14.745600 0.000000
-14.709500 0.000000
-14.673400 0.000000
-14.637300 0.000000
-14.601200 0.000000
-14.565100 0.000000
-14.529000 0.000000
-14.493000 0.000000
-14.456900 0.000000
-14.420800 0.000000
-14.384700 0.000000
-14.348600 0.000000
-14.312500 0.000000
-14.276400 0.000000
-14.240300 0.000000
-14.204200 0.000000
-14.168200 0.000000
-14.132100 0.000000
-14.096000 0.000000
-14.059900 0.000000
-14.023800 0.000000
-13.987700 0.000000
-13.951600 0.000000
-13.915500 0.000000
-13.879400 0.000000
-13.843400 0.000000
-13.807300 0.000000
-13.771200 0.000000
-13.735100 0.000000
-13.699000 0.000000
-13.662900 0.000000
-13.626800 0.000000
-13.590700 0.000000
-13.554600 0.000000
-13.518600 0.000000
-13.482500 0.000000
-13.446400 0.000000
-13.410300 0.000000
-13.374200 0.000000
-13.338100 0.000000
-13.302000 0.000000
-13.265900 0.000000
-13.229800 0.000000
-13.193800 0.000000
-13.157700 0.000000
-13.121600 0.000000
-13.085500 0.000000
-13.049400 0.000000
-13.013300 0.000000
-12.977200 0.000000
-12.941100 0.000000
-12.905000 0.000000
-12.869000 0.000000
-12.832900 6.158900
-12.796800 7.475900
-12.760700 8.874200
-12.724600 9.459000
-12.688500 14.501100
-12.652400 8.830900
-12.616300 15.336200
-12.580200 41.894800
-12.544100 21.252300
-12.508100 8.725500
-12.472000 11.332400
-12.435900 15.112800
-12.399800 9.969300
-12.363700 0.000000
-12.327600 0.000000
-12.291500 0.000000
-12.255400 0.000000
-12.219300 0.000000
-12.183300 0.000000
-12.147200 0.000000
-12.111100 0.000000
-12.075000 0.000000
-12.038900 0.000000
-12.002800 0.000000
-11.966700 0.000000
-11.930600 0.000000
-11.894500 0.000000
-11.858500 0.000000
-11.822400 0.000000
-11.786300 0.000000
-11.750200 0.000000
-11.714100 0.000000
-11.678000 0.000000
-11.641900 0.000000
-11.605800 0.000000
-11.569700 0.000000
-11.533700 0.000000
-11.497600 0.000000
-11.461500 0.000000
-11.425400 0.000000
-11.389300 0.000000
-11.353200 0.000000
-11.317100 0.000000
-11.281000 0.000000
-11.244900 0.000000
-11.208900 0.000000
-11.172800 0.000000
-11.136700 0.000000
-11.100600 0.000000
-11.064500 0.000000
-11.028400 0.000000
-10.992300 0.000000
-10.956200 0.000000
-10.920100 0.000000
-10.884100 0.000000
-10.848000 0.000000
-10.811900 0.000000
-10.775800 0.000000
-10.739700 0.000000
-10.703600 0.000000
-10.667500 0.000000
-10.631400 0.000000
-10.595300 0.000000
-10.559300 0.000000
-10.523200 0.000000
-10.487100 0.000000
-10.451000 0.000000
-10.414900 0.000000
-10.378800 0.000000
-10.342700 0.000000
-10.306600 0.000000
-10.270500 0.000000
-10.234500 0.000000
-10.198400 0.000000
-10.162300 0.000000
-10.126200 0.000000
-10.090100 0.000000
-10.054000 0.000000
-10.017900 0.000000
-9.981800 0.000000
-9.945700 0.000000
-9.909700 0.000000
-9.873600 0.000000
-9.837500 0.000000
-9.801400 0.000000
-9.765300 0.000000
-9.729200 0.000000
-9.693100 0.000000
-9.657000 0.000000
-9.620900 0.000000
-9.584900 0.000000
-9.548800 0.000000
-9.512700 0.000000
-9.476600 0.000000
-9.440500 0.000000
-9.404400 0.000000
-9.368300 0.000000
-9.332200 0.000000
-9.296100 0.000000
-9.260100 0.000000
-9.224000 0.000000
-9.187900 0.000000
-9.151800 0.000000
-9.115700 0.000000
-9.079600 0.000000
-9.043500 0.000000
-9.007400 0.000000
-8.971300 0.000000
-8.935300 0.000000
-8.899200 0.000000
-8.863100 0.000000
-8.827000 0.000000
-8.790900 0.000000
-8.754800 0.000000
-8.718700 0.000000
-8.682600 0.000000
-8.646500 0.000000
-8.610500 0.000000
-8.574400 0.000000
-8.538300 0.000000
-8.502200 0.000000
-8.466100 0.000000
-8.430000 0.000000
-8.393900 0.000000
-8.357800 0.000000
-8.321700 0.000000
-8.285700 0.000000
-8.249600 0.000000
-8.213500 0.000000
-8.177400 0.000000
-8.141300 0.000000
-8.105200 0.000000
-8.069100 0.000000
-8.033000 0.000000
-7.996900 0.000000
-7.960900 0.000000
-7.924800 0.000000
-7.888700 0.000000
-7.852600 0.000000
-7.816500 0.000000
-7.780400 0.000000
-7.744300 0.000000
-7.708200 0.000000
-7.672100 0.000000
-7.636000 0.000000
-7.600000 0.000000
-7.563900 0.000000
-7.527800 0.000000
-7.491700 0.000000
-7.455600 0.000000
-7.419500 0.000000
-7.383400 0.000000
-7.347300 0.000000
-7.311200 0.000000
-7.275200 0.000000
-7.239100 0.000000
-7.203000 0.000000
-7.166900 0.000000
-7.130800 0.000000
-7.094700 0.000000
-7.058600 0.000000
-7.022500 0.000000
-6.986400 0.000000
-6.950400 0.000000
-6.914300 0.000000
-6.878200 0.000000
-6.842100 0.000000
-6.806000 0.000000
-6.769900 0.000000
-6.733800 0.000000
-6.697700 0.000000
-6.661600 0.000000
-6.625600 0.000000
-6.589500 0.000000
-6.553400 0.000000
-6.517300 0.000000
-6.481200 0.010300
-6.445100 0.057600
-6.409000 0.113300
-6.372900 0.151000
-6.336800 0.171000
-6.300800 0.192000
-6.264700 0.206500
-6.228600 0.231700
-6.192500 0.258300
-6.156400 0.286000
-6.120300 0.306600
-6.084200 0.318000
-6.048100 0.335300
-6.012000 0.353100
-5.976000 0.371000
-5.939900 0.389700
-5.903800 0.409300
-5.867700 0.429400
-5.831600 0.450700
-5.795500 0.474700
-5.759400 0.501300
-5.723300 0.524000
-5.687200 0.544300
-5.651200 0.564800
-5.615100 0.587200
-5.579000 0.610700
-5.542900 0.641100
-5.506800 0.682300
-5.470700 0.731800
-5.434600 0.796800
-5.398500 0.819400
-5.362400 0.816700
-5.326400 0.835900
-5.290300 0.857800
-5.254200 0.857500
-5.218100 0.851400
-5.182000 0.852600
-5.145900 0.860800
-5.109800 0.868600
-5.073700 0.874700
-5.037600 0.878500
-5.001600 0.880700
-4.965500 0.877700
-4.929400 0.884400
-4.893300 0.891300
-4.857200 0.897000
-4.821100 0.903100
-4.785000 0.910600
-4.748900 0.917800
-4.712800 0.924100
-4.676800 0.933500
-4.640700 0.939400
-4.604600 0.945300
-4.568500 0.970000
-4.532400 1.007600
-4.496300 1.056700
-4.460200 1.175800
-4.424100 1.259000
-4.388000 1.304700
-4.352000 1.273900
-4.315900 1.215200
-4.279800 1.194000
-4.243700 1.144200
-4.207600 1.073800
-4.171500 0.983500
-4.135400 0.890800
-4.099300 0.850500
-4.063200 0.799500
-4.027200 0.782800
-3.991100 0.759400
-3.955000 0.745700
-3.918900 0.801700
-3.882800 0.949600
-3.846700 1.115200
-3.810600 1.357100
-3.774500 1.650000
-3.738400 1.678000
-3.702400 1.777300
-3.666300 1.958900
-3.630200 1.613600
-3.594100 1.465500
-3.558000 1.522400
-3.521900 1.646500
-3.485800 1.759800
-3.449700 1.895900
-3.413600 2.089500
-3.377600 2.370200
-3.341500 2.987100
-3.305400 2.876400
-3.269300 2.508600
-3.233200 1.879300
-3.197100 1.689800
-3.161000 1.727600
-3.124900 1.658100
-3.088800 1.657800
-3.052800 1.900100
-3.016700 1.790100
-2.980600 1.834200
-2.944500 1.908100
-2.908400 1.759100
-2.872300 1.642700
-2.836200 1.607800
-2.800100 1.599800
-2.764000 1.601300
-2.728000 1.609400
-2.691900 1.627000
-2.655800 1.662500
-2.619700 1.697800
-2.583600 1.756400
-2.547500 1.820600
-2.511400 1.916700
-2.475300 2.120500
-2.439200 2.237000
-2.403100 2.244000
-2.367100 2.282400
-2.331000 2.332100
-2.294900 2.475300
-2.258800 2.246200
-2.222700 2.057900
-2.186600 2.020600
-2.150500 1.964800
-2.114400 1.992200
-2.078300 2.033700
-2.042300 2.479400
-2.006200 2.413400
-1.970100 1.444000
-1.934000 0.564900
-1.897900 0.545400
-1.861800 0.525900
-1.825700 0.506400
-1.789600 0.487000
-1.753500 0.472100
-1.717500 0.465200
-1.681400 0.458800
-1.645300 0.452300
-1.609200 0.445800
-1.573100 0.439300
-1.537000 0.432800
-1.500900 0.414900
-1.464800 0.378900
-1.428700 0.382500
-1.392700 0.377100
-1.356600 0.366300
-1.320500 0.353900
-1.284400 0.341400
-1.248300 0.329000
-1.212200 0.316600
-1.176100 0.304100
-1.140000 0.291700
-1.103900 0.279300
-1.067900 0.266900
-1.031800 0.263700
-0.995700 0.268600
-0.959600 0.278200
-0.923500 0.292900
-0.887400 0.293100
-0.851300 0.279200
-0.815200 0.257400
-0.779100 0.228000
-0.743100 0.190900
-0.707000 0.139700
-0.670900 0.104500
-0.634800 0.077100
-0.598700 0.054600
-0.562600 0.036200
-0.526500 0.021300
-0.490400 0.009900
-0.454300 0.002100
-0.418300 0.000000
-0.382200 0.000000
-0.346100 0.000000
-0.310000 0.000000
-0.273900 0.000000
-0.237800 0.000000
-0.201700 0.000000
-0.165600 0.000000
-0.129500 0.000000
-0.093500 0.000000
-0.057400 0.000000
-0.021300 0.000000
0.014800 0.000000
0.050900 0.000000
0.087000 0.000000
0.123100 0.000000
0.159200 0.000000
0.195300 0.000000
0.231300 0.000000
0.267400 0.000000
0.303500 0.000000
0.339600 0.000000
0.375700 0.000000
0.411800 0.000000
0.447900 0.000000
0.484000 0.000000
0.520100 0.000000
0.556100 0.000000
0.592200 0.000000
0.628300 0.000000
0.664400 0.152200
0.700500 0.103100
0.736600 0.127700
0.772700 0.154700
0.808800 0.165200
0.844900 0.201700
0.880900 0.247900
0.917000 0.303500
0.953100 0.361900
0.989200 0.435500
1.025300 0.502900
1.061400 0.567900
1.097500 0.475300
1.133600 0.497800
1.169700 0.545800
1.205700 0.528100
1.241800 0.547600
1.277900 0.566900
1.314000 0.594000
1.350100 0.643500
1.386200 0.689900
1.422300 0.817100
1.458400 0.930000
1.494500 0.980000
1.530500 0.972000
1.566600 1.110100
1.602700 1.267000
1.638800 1.427600
1.674900 1.789100
1.711000 1.743200
1.747100 1.916100
1.783200 2.084700
1.819300 2.269000
1.855300 2.467400
1.891400 2.675000
1.927500 2.603200
1.963600 2.497600
1.999700 2.384400
2.035800 2.228800
2.071900 1.994300
2.108000 1.897400
2.144100 1.727100
2.180100 1.656300
2.216200 1.632200
2.252300 1.619700
2.288400 1.624800
2.324500 1.636600
2.360600 2.296800
2.396700 1.841000
2.432800 1.691100
2.468900 1.666300
2.505000 1.660000
2.541000 1.677800
2.577100 1.771900
2.613200 2.010600
2.649300 2.212300
2.685400 2.125500
2.721500 2.088800
2.757600 1.974900
2.793700 2.014900
2.829800 2.247000
2.865800 2.675600
2.901900 2.908200
2.938000 2.987100
2.974100 3.267500
3.010200 3.650800
3.046300 3.760900
3.082400 3.306600
3.118500 3.028600
3.154600 3.144200
3.190600 3.359900
3.226700 3.364800
3.262800 3.268200
3.298900 2.766500
3.335000 2.281500
3.371100 3.102600
3.407200 3.993600
3.443300 4.309200
3.479400 4.122500
3.515400 3.900400
3.551500 3.803600
3.587600 3.335000
3.623700 3.035400
3.659800 2.781700
3.695900 2.585800
3.732000 2.449400
3.768100 2.350700
3.804200 2.283100
3.840200 2.259900
3.876300 2.279800
3.912400 2.331700
3.948500 2.392800
3.984600 2.467700
4.020700 2.533400
4.056800 2.565800
4.092900 2.557800
4.129000 2.522000
4.165000 2.507300
4.201100 2.500200
4.237200 2.542500
4.273300 2.297200
4.309400 1.941300
4.345500 1.683500
4.381600 1.625800
4.417700 1.554000
4.453800 1.446900
4.489800 1.351200
4.525900 1.346600
4.562000 1.406700
4.598100 1.326400
4.634200 1.228300
4.670300 1.157400
4.706400 1.175600
4.742500 1.176100
4.778600 1.201300
4.814600 1.458000
4.850700 1.767400
4.886800 2.102200
4.922900 2.595800
4.959000 2.845200
4.995100 2.970300
5.031200 3.125700
5.067300 3.254400
5.103400 3.439000
5.139400 3.312100
5.175500 3.121900
5.211600 2.969200
5.247700 2.868200
5.283800 2.577100
5.319900 2.237400
5.356000 1.968800
5.392100 1.854900
5.428200 1.814200
5.464200 1.844100
5.500300 2.159200
5.536400 2.298900
5.572500 1.987300
5.608600 1.956600
5.644700 2.214000
5.680800 2.312400
5.716900 2.163100
5.753000 1.939800
5.789000 1.974300
5.825100 1.853900
5.861200 1.805900
5.897300 1.791800
5.933400 1.828300
5.969500 1.862200
6.005600 1.945400
6.041700 2.044100
6.077800 2.148000
6.113800 2.266500
6.149900 2.425300
6.186000 2.577700
6.222100 2.587200
6.258200 2.635100
6.294300 2.715500
6.330400 2.727100
6.366500 2.729000
6.402600 2.717200
6.438600 2.709800
6.474700 2.691500
6.510800 2.676800
6.546900 2.741500
6.583000 2.616800
6.619100 2.499200
6.655200 2.473300
6.691300 2.367600
6.727400 2.179000
6.763400 2.028100
6.799500 1.931300
6.835600 1.838000
6.871700 1.771300
6.907800 1.731800
6.943900 1.736200
6.980000 1.761800
7.016100 1.791500
7.052200 1.819800
7.088200 1.836200
7.124300 1.817400
7.160400 1.811700
7.196500 1.824200
7.232600 1.849300
7.268700 1.864000
7.304800 1.896100
7.340900 1.932300
7.377000 1.966200
7.413000 1.985400
7.449100 2.048200
7.485200 2.164400
7.521300 2.247400
7.557400 2.232100
7.593500 2.519600
7.629600 1.835900
7.665700 1.718100
7.701800 1.583700
7.737900 1.496700
7.773900 1.393100
7.810000 1.326100
7.846100 1.288500
7.882200 1.269100
7.918300 1.265200
7.954400 1.272300
7.990500 1.327500
8.026600 1.502300
8.062700 1.549900
8.098700 1.668000
8.134800 1.577300
8.170900 1.655800
8.207000 1.880900
8.243100 2.541900
8.279200 2.198800
8.315300 2.052100
8.351400 1.943500
8.387500 2.106400
8.423500 2.178600
8.459600 1.831400
8.495700 1.763100
8.531800 1.707100
8.567900 1.654500
8.604000 1.640300
8.640100 1.712200
8.676200 1.868400
8.712300 2.130800
8.748300 2.806300
8.784400 2.842500
8.820500 2.409600
8.856600 2.027200
8.892700 1.722500
8.928800 1.526200
8.964900 1.478300
9.001000 1.446900
9.037100 1.419300
9.073100 1.403200
9.109200 1.399400
9.145300 1.397500
9.181400 1.384300
9.217500 1.377100
9.253600 1.400300
9.289700 1.419600
9.325800 1.433600
9.361900 1.472600
9.397900 1.515600
9.434000 1.612300
9.470100 1.739000
9.506200 1.975300
9.542300 2.102100
9.578400 2.057900
9.614500 2.007500
9.650600 2.019200
9.686700 1.975200
9.722700 1.950600
9.758800 1.960100
9.794900 2.235200
9.831000 2.200900
9.867100 2.232800
9.903200 2.403000
9.939300 2.440300
9.975400 2.395700
10.011500 2.433300
10.047500 2.504000
10.083600 2.633900
10.119700 2.618300
10.155800 2.693500
10.191900 2.846900
10.228000 3.002100
10.264100 3.085500
10.300200 2.963400
10.336300 3.027700
10.372300 3.087800
10.408400 3.271000
10.444500 3.529700
10.480600 3.472500
10.516700 3.376600
10.552800 3.606200
10.588900 3.813200
10.625000 4.262300
10.661100 4.384600
10.697100 4.321400
10.733200 4.443600
10.769300 4.709900
10.805400 4.977800
10.841500 4.429500
10.877600 4.308500
10.913700 4.448300
10.949800 4.994100
10.985900 5.344300
11.021900 4.170100
11.058000 3.517500
11.094100 3.470000
11.130200 3.225500
11.166300 3.278700
11.202400 3.717100
11.238500 4.180900
11.274600 4.191500
11.310700 4.357300
11.346700 4.340600
11.382800 4.158400
11.418900 3.987300
11.455000 4.021900
11.491100 3.942000
11.527200 3.932900
11.563300 3.779400
11.599400 3.720200
11.635500 3.571500
11.671500 3.454100
11.707600 3.509900
11.743700 3.476700
11.779800 3.301400
11.815900 3.232000
11.852000 3.181400
11.888100 3.125400
11.924200 3.065500
11.960300 2.982400
11.996300 2.869600
12.032400 2.761800
12.068500 2.671300
12.104600 2.593500
12.140700 2.591200
12.176800 2.666800
12.212900 2.816000
12.249000 4.135900
12.285100 3.679700
12.321100 3.302600
12.357200 3.147900
12.393300 2.938700
12.429400 2.252700
12.465500 2.171400
12.501600 2.050600
12.537700 2.002100
12.573800 2.228200
12.609900 1.920900
12.646000 1.895300
12.682000 1.835600
12.718100 1.731300
12.754200 1.641800
12.790300 1.573200
12.826400 1.471600
12.862500 1.430500
12.898600 1.383100
12.934700 1.435200
12.970800 1.419900
13.006800 1.445500
13.042900 1.378300
13.079000 1.351900
13.115100 1.359300
13.151200 1.373300
13.187300 1.389300
13.223400 1.406000
13.259500 1.441800
13.295600 1.464000
13.331600 1.479600
13.367700 1.466600
13.403800 1.424400
13.439900 1.401900
13.476000 1.353100
13.512100 1.323400
13.548200 1.306800
13.584300 1.294200
13.620400 1.279600
13.656400 1.272500
13.692500 1.269000
13.728600 1.290300
13.764700 1.330500
13.800800 1.370800
13.836900 1.400500
13.873000 1.442700
13.909100 1.504500
13.945200 1.581200
13.981200 1.659200
14.017300 1.731200
14.053400 1.813500
14.089500 2.142300
14.125600 2.294900
14.161700 2.348100
14.197800 2.396000
14.233900 2.547800
14.270000 2.692700
14.306000 2.664800
14.342100 2.536500
14.378200 2.356400
14.414300 2.190800
14.450400 2.055700
14.486500 1.962100
14.522600 1.883100
14.558700 1.714400
14.594800 1.709400
14.630800 1.721800
14.666900 1.720400
14.703000 1.704900
14.739100 1.712000
14.775200 1.711800
14.811300 1.861800
14.847400 1.860200
14.883500 1.880700
14.919600 1.946800
14.955600 2.041400
14.991700 2.191900
15.027800 2.098100
15.063900 1.988900
15.100000 1.965700
15.136100 1.954600
15.172200 1.984000
15.208300 1.929000
15.244400 1.838700
15.280400 1.792400
15.316500 1.726300
15.352600 1.638900
15.388700 1.583600
15.424800 1.507100
15.460900 1.492000
15.497000 1.720900
15.533100 1.632300
15.569200 1.689200
15.605200 1.650600
15.641300 1.562900
15.677400 1.662000
15.713500 1.850400
15.749600 2.157700
15.785700 2.539100
15.821800 3.076600
15.857900 3.559700
15.894000 3.223100
15.930000 2.904000
15.966100 2.241700
16.002200 1.985200
16.038300 1.979200
16.074400 2.203000
16.110500 2.626800
16.146600 2.613400
16.182700 2.760800
16.218800 2.676100
16.254800 2.773300
16.290900 3.068500
16.327000 3.241200
16.363100 3.144700
16.399200 3.177200
16.435300 3.490300
16.471400 4.213200
16.507500 3.861000
16.543600 3.194000
16.579600 3.032300
16.615700 2.902800
16.651800 2.789800
16.687900 2.721400
16.724000 2.685900
16.760100 2.685900
16.796200 2.807800
16.832300 3.001000
16.868400 3.415600
16.904400 3.901500
16.940500 4.014900
16.976600 3.680400
17.012700 3.731800
17.048800 3.820700
17.084900 3.967000
17.121000 4.101600
17.157100 4.372500
17.193200 4.272500
17.229200 4.143200
17.265300 3.816700
17.301400 3.549800
17.337500 3.410400
17.373600 3.234600
17.409700 3.129400
17.445800 2.986500
17.481900 2.795500
17.518000 2.978700
17.554100 2.634500
17.590100 2.632200
17.626200 2.853000
17.662300 3.308000
17.698400 3.755400
17.734500 3.608800
17.770600 3.396400
17.806700 3.482600
17.842800 3.176300
17.878900 2.983900
17.914900 2.886600
17.951000 2.688000
17.987100 2.589400
18.023200 2.684400
18.059300 2.736000
18.095400 2.750300
18.131500 2.849900
18.167600 2.848700
18.203700 2.747600
18.239700 2.838500
18.275800 2.984700
18.311900 3.394400
18.348000 3.956300
18.384100 3.774100
18.420200 3.931200
18.456300 3.692500
18.492400 3.344100
18.528500 3.133000
18.564500 2.848300
18.600600 2.579400
18.636700 2.514500
18.672800 2.584000
18.708900 2.869500
18.745000 3.847700
18.781100 3.038700
18.817200 2.933800
18.853300 2.890500
18.889300 2.879400
18.925400 3.096900
18.961500 3.294800
18.997600 3.590800
19.033700 3.477300
19.069800 3.531100
19.105900 3.521800
19.142000 3.454500
19.178100 2.788800
19.214100 2.626100
19.250200 2.518400
19.286300 2.486100
19.322400 2.564000
19.358500 2.631800
19.394600 2.699800
19.430700 2.619600
19.466800 2.609300
19.502900 2.601300
19.538900 2.601300
19.575000 2.392900
19.611100 2.276800
19.647200 2.271700
19.683300 2.332600
19.719400 2.425900
19.755500 2.463300
19.791600 2.694100
19.827700 2.710500
19.863700 2.683100
19.899800 2.692700
19.935900 2.685900
19.972000 2.671300
20.008100 2.687100
20.044200 2.895400
20.080300 3.132800
20.116400 4.089900
20.152500 3.589400
20.188500 3.118800
20.224600 2.645100
20.260700 2.456300
20.296800 2.349800
20.332900 2.293600
20.369000 2.279900
20.405100 2.352100
20.441200 2.490900
20.477300 2.761100
20.513300 3.090500
20.549400 3.428600
20.585500 3.814600
20.621600 4.100800
20.657700 4.286100
20.693800 4.230300
20.729900 4.179900
20.766000 3.689700
20.802100 3.561700
20.838100 3.456600
20.874200 3.415900
20.910300 3.449800
20.946400 3.357400
20.982500 3.388700
21.018600 3.444300
21.054700 3.522300
21.090800 3.491100
21.126900 3.404500
21.162900 3.266000
21.199000 3.047500
21.235100 2.840700
21.271200 2.584200
21.307300 2.453000
21.343400 2.260100
21.379500 2.101700
21.415600 2.082000
21.451700 2.116100
21.487700 2.205900
21.523800 2.303900
21.559900 2.338400
21.596000 2.356800
21.632100 2.338200
21.668200 2.244400
21.704300 2.239400
21.740400 2.304100
21.776500 2.059400
21.812500 2.070000
21.848600 2.134400
21.884700 2.013300
21.920800 2.034500
21.956900 2.163400
21.993000 2.323900
22.029100 2.473700
22.065200 2.609800
22.101300 2.632300
22.137300 2.794500
22.173400 2.930100
22.209500 3.101800
22.245600 3.869200
22.281700 3.511300
22.317800 3.350500
22.353900 3.221000
22.390000 3.142100
22.426100 3.023300
22.462100 3.112100
22.498200 2.966100
22.534300 2.874900
22.570400 2.992000
22.606500 2.927800
22.642600 2.827900
22.678700 2.915200
22.714800 2.833000
22.750900 2.884900
22.787000 2.927600
22.823000 3.018600
22.859100 3.086600
22.895200 3.091900
22.931300 3.117400
22.967400 3.139500
23.003500 3.166300
23.039600 3.123300
23.075700 3.045700
23.111800 2.942100
23.147800 2.796500
23.183900 2.775100
23.220000 2.772500
23.256100 2.802600
23.292200 2.822500
23.328300 2.893000
23.364400 2.939700
23.400500 2.864200
23.436600 2.931200
23.472600 2.831800
23.508700 2.829300
23.544800 2.855900
23.580900 3.016000
23.617000 3.163200
23.653100 3.354600
23.689200 3.314400
23.725300 3.272600
23.761400 3.303500
23.797400 3.359600
23.833500 3.492900
23.869600 3.570800
23.905700 3.620000
23.941800 3.542000
23.977900 3.369300
24.014000 3.246000
24.050100 3.080200
24.086200 2.988800
24.122200 3.000800
24.158300 3.033700
24.194400 3.096200
24.230500 2.819600
24.266600 2.798800
24.302700 2.779300
24.338800 2.734000
24.374900 2.718100
24.411000 2.782500
24.447000 2.891800
24.483100 2.924300
24.519200 2.775400
24.555300 2.575000
24.591400 2.467000
24.627500 2.400900
24.663600 2.339200
24.699700 2.344400
24.735800 2.338900
24.771800 2.264900
24.807900 2.169600
24.844000 2.123100
24.880100 2.198400
24.916200 2.252500
24.952300 2.416200
24.988400 2.518500
25.024500 2.728600
25.060600 2.984400
25.096600 3.174700
25.132700 3.180100
25.168800 3.003700
25.204900 2.793000
25.241000 2.625200
25.277100 2.564700
25.313200 2.544700
25.349300 2.536800
25.385400 2.508800
25.421400 2.449900
25.457500 2.755800
25.493600 2.705200
25.529700 2.661400
25.565800 2.631200
25.601900 2.617600
25.638000 2.637400
25.674100 2.692400
25.710200 2.827200
25.746200 2.901600
25.782300 2.889100
25.818400 2.988900
25.854500 2.921300
25.890600 2.758600
25.926700 2.672000
25.962800 2.496100
25.998900 2.620400
26.035000 2.675100
26.071000 2.693600
26.107100 2.649300
26.143200 2.489900
26.179300 2.431800
26.215400 2.405700
26.251500 2.411900
26.287600 2.439500
26.323700 2.453500
26.359800 2.604700
26.395800 2.431900
26.431900 2.497300
26.468000 2.614900
26.504100 2.728600
26.540200 2.776000
26.576300 2.731000
26.612400 2.829000
26.648500 3.012300
26.684600 2.887200
26.720600 2.858000
26.756700 2.853600
26.792800 2.973600
26.828900 2.982500
26.865000 2.936100
26.901100 2.861400
26.937200 2.813800
26.973300 2.766500
27.009400 2.711800
27.045400 2.678400
27.081500 2.635300
27.117600 2.526300
27.153700 2.483200
27.189800 2.432800
27.225900 2.355100
27.262000 2.357800
27.298100 2.292600
27.334200 2.281700
27.370200 2.291000
27.406300 2.345900
27.442400 2.426900
27.478500 2.371400
27.514600 2.319300
27.550700 2.369700
27.586800 2.478800
27.622900 2.690200
27.659000 2.620600
27.695100 2.656600
27.731100 2.698700
27.767200 2.743600
27.803300 2.846100
27.839400 3.005800
27.875500 3.065100
27.911600 3.471400
27.947700 3.498600
27.983800 3.648500
28.019900 3.324100
28.055900 3.332800
28.092000 3.382200
28.128100 3.423200
28.164200 3.401400
28.200300 3.393200
28.236400 3.463900
28.272500 3.400900
28.308600 3.378400
28.344700 3.278400
28.380700 3.130300
28.416800 2.993200
28.452900 2.885800
28.489000 2.834200
28.525100 2.857400
28.561200 2.911100
28.597300 2.984700
28.633400 3.090800
28.669500 3.240400
28.705500 3.457800
28.741600 3.712500
28.777700 3.683000
28.813800 3.683000
28.849900 3.671500
28.886000 3.661000
28.922100 3.552500
28.958200 3.492600
28.994300 3.372600
29.030300 3.432000
29.066400 3.391200
29.102500 3.345300
29.138600 3.284800
29.174700 3.249700
29.210800 3.220100
29.246900 3.134600
29.283000 3.051900
29.319100 2.957600
29.355100 2.984800
29.391200 3.014200
29.427300 2.934800
29.463400 2.857000
29.499500 2.820700
29.535600 2.807200
29.571700 2.744000
29.607800 2.703000
29.643900 2.677300
29.679900 2.633800
29.716000 2.625900
29.752100 2.670000
29.788200 2.684500
29.824300 2.690900
29.860400 2.726700
29.896500 2.820200
29.932600 2.920700
29.968700 2.996100
30.004700 2.988700
30.040800 2.980000
30.076900 3.166600
30.113000 3.379900
30.149100 3.805700
30.185200 3.735300
30.221300 3.907200
30.257400 4.048600
30.293500 4.314600
30.329500 4.377800
30.365600 4.044400
30.401700 3.668900
30.437800 3.437200
30.473900 3.252200
30.510000 3.176200
30.546100 3.118100
30.582200 3.174800
30.618300 3.485400
30.654300 4.014400
30.690400 3.532200
30.726500 3.440700
30.762600 3.424000
30.798700 3.472400
30.834800 3.587600
30.870900 3.735800
30.907000 3.991600
30.943100 4.148900
30.979100 4.027000
31.015200 3.906600
31.051300 3.650300
31.087400 3.565600
31.123500 3.507900
31.159600 3.433300
31.195700 3.344300
31.231800 3.285500
31.267900 3.288400
31.303900 3.369800
31.340000 3.555500
31.376100 3.892900
31.412200 3.849400
31.448300 4.063000
31.484400 4.017800
31.520500 3.834500
31.556600 3.519100
31.592700 3.170300
31.628700 2.991700
31.664800 2.506700
31.700900 2.256700
31.737000 2.165800
31.773100 2.076800
31.809200 1.962000
31.845300 1.886700
31.881400 1.827600
31.917500 1.808000
31.953500 1.755500
31.989600 1.733900
32.025700 1.637000
32.061800 1.539100
32.097900 1.452400
32.134000 1.312500
32.170100 1.202200
32.206200 1.078400
32.242300 0.941800
32.278300 0.862600
32.314400 0.799800
32.350500 0.883700
32.386600 0.682600
32.422700 0.686100
32.458800 0.664000
32.494900 0.575100
32.531000 0.488500
32.567100 0.450300
32.603200 0.418400
32.639200 0.391800
32.675300 0.368200
32.711400 0.347000
32.747500 0.328400
32.783600 0.311800
32.819700 0.240100
32.855800 0.190500
32.891900 0.168900
32.928000 0.158500
32.964000 0.150200
33.000100 0.145400
33.036200 0.152100
33.072300 0.171800
33.108400 0.142500
33.144500 0.127200
33.180600 0.116900
33.216700 0.109000
33.252800 0.101800
33.288800 0.095200
33.324900 0.095600
33.361000 0.096200
33.397100 0.093100
33.433200 0.085000
33.469300 0.071800
33.505400 0.055900
33.541500 0.043600
33.577600 0.027200
33.613600 0.000200
33.649700 0.000000
33.685800 0.000000
33.721900 0.000000
33.758000 0.000000
33.794100 0.000000
33.830200 0.000000
33.866300 0.000000
33.902400 0.000000
33.938400 0.000000
33.974500 0.000000
34.010600 0.000000
34.046700 0.000000
34.082800 0.000000
34.118900 0.000000
34.155000 0.000000
34.191100 0.000000
34.227200 0.000000
34.263200 0.000000
34.299300 0.000000
34.335400 0.000000
34.371500 0.000000
34.407600 0.000000
34.443700 0.000000
34.479800 0.000000
34.515900 0.000000
34.552000 0.000000
34.588000 0.000000
34.624100 0.000000
34.660200 0.000000
34.696300 0.000000
34.732400 0.000000
34.768500 0.000000
34.804600 0.000000
34.840700 0.000000
34.876800 0.000000
34.912800 0.000000
34.948900 0.000000
34.985000 0.000000
35.021100 0.000000
35.057200 0.000000
35.093300 0.000000
35.129400 0.000000
35.165500 0.000000
35.201600 0.000000
35.237600 0.000000
35.273700 0.000000
35.309800 0.000000
35.345900 0.000000
35.382000 0.000000
35.418100 0.000000
35.454200 0.000000
35.490300 0.000000
35.526400 0.000000
35.562400 0.000000
35.598500 0.000000
35.634600 0.000000
35.670700 0.000000
35.706800 0.000000
35.742900 0.000000
35.779000 0.000000
35.815100 0.000000
35.851200 0.000000
35.887200 0.000000
35.923300 0.000000
35.959400 0.000000
35.995500 0.000000
36.031600 0.000000
36.067700 0.000000
36.103800 0.000000
36.139900 0.000000
36.176000 0.000000
36.212000 0.000000
36.248100 0.000000
36.284200 0.000000
36.320300 0.000000
36.356400 0.000000
36.392500 0.000000
36.428600 0.000000
36.464700 0.000000
36.500800 0.000000
36.536800 0.000000
36.572900 0.000000
36.609000 0.000000
36.645100 0.000000
36.681200 0.000000
36.717300 0.000000
36.753400 0.000000
36.789500 0.000000
36.825600 0.000000
36.861600 0.000000
36.897700 0.000000
e
