set title 'mp-571568 - Density of States'
set xlabel 'Energy (eV)'
set ylabel 'DOS (states/eV)'
set grid
set xrange [-10:10]
set yrange [0:1034.068]
set xzeroaxis lt -1
set terminal png size 800,600
set output 'mp-571568_dos_gnuplot.png'
plot '-' using 1:2 with lines title 'DOS'
-11.958200 0.000000
-11.945500 0.000000
-11.932800 0.000000
-11.920100 0.000000
-11.907400 0.000000
-11.894700 0.000000
-11.882000 0.000000
-11.869300 0.000000
-11.856600 0.000000
-11.843900 0.000000
-11.831200 0.000000
-11.818500 0.000000
-11.805800 0.000000
-11.793100 0.000000
-11.780400 0.000000
-11.767700 0.000000
-11.755000 0.000000
-11.742300 0.000000
-11.729600 0.000000
-11.716900 0.000000
-11.704200 0.000000
-11.691500 0.000000
-11.678800 0.000000
-11.666100 0.000000
-11.653400 0.000000
-11.640700 0.000000
-11.628000 0.000000
-11.615300 0.000000
-11.602600 0.000000
-11.589900 0.000000
-11.577200 0.000000
-11.564600 0.000000
-11.551900 0.000000
-11.539200 0.000000
-11.526500 0.000000
-11.513800 0.000000
-11.501100 0.000000
-11.488400 0.000000
-11.475700 0.000000
-11.463000 0.000000
-11.450300 0.000000
-11.437600 0.000000
-11.424900 0.000000
-11.412200 0.000000
-11.399500 0.000000
-11.386800 0.000000
-11.374100 0.000000
-11.361400 0.000000
-11.348700 0.000000
-11.336000 0.000000
-11.323300 0.000000
-11.310600 0.000000
-11.297900 0.000000
-11.285200 0.000000
-11.272500 0.000000
-11.259800 0.000000
-11.247100 0.000000
-11.234400 0.000000
-11.221700 0.000000
-11.209000 0.000000
-11.196300 0.000000
-11.183600 0.000000
-11.170900 0.000000
-11.158200 0.000000
-11.145500 0.000000
-11.132800 0.000000
-11.120100 0.000000
-11.107400 0.000000
-11.094700 0.000000
-11.082000 0.000000
-11.069300 0.000000
-11.056600 0.000000
-11.043900 0.000000
-11.031200 0.000000
-11.018500 0.000000
-11.005800 0.000000
-10.993100 0.000000
-10.980400 0.000000
-10.967700 0.000000
-10.955000 0.000000
-10.942300 0.000000
-10.929600 0.000000
-10.916900 0.000000
-10.904200 0.000000
-10.891500 0.000000
-10.878800 0.000000
-10.866100 0.000000
-10.853400 0.000000
-10.840700 0.000000
-10.828000 0.000000
-10.815300 0.000000
-10.802600 0.040300
-10.789900 0.879300
-10.777200 2.219800
-10.764500 4.275100
-10.751800 6.541700
-10.739100 9.662000
-10.726400 13.369900
-10.713700 15.656000
-10.701000 15.821600
-10.688300 15.620400
-10.675700 17.378500
-10.663000 16.171000
-10.650300 15.548800
-10.637600 16.072500
-10.624900 16.596300
-10.612200 17.120000
-10.599500 17.643800
-10.586800 18.167600
-10.574100 18.693200
-10.561400 19.268700
-10.548700 19.881300
-10.536000 20.546000
-10.523300 21.268400
-10.510600 22.064200
-10.497900 22.863700
-10.485200 23.659000
-10.472500 24.448700
-10.459800 25.222800
-10.447100 25.992900
-10.434400 26.763100
-10.421700 27.533300
-10.409000 28.303400
-10.396300 29.073600
-10.383600 29.843800
-10.370900 31.475800
-10.358200 36.765800
-10.345500 48.648400
-10.332800 70.203700
-10.320100 83.541500
-10.307400 109.660400
-10.294700 126.661000
-10.282000 137.062400
-10.269300 151.681200
-10.256600 175.819100
-10.243900 292.984900
-10.231200 247.886100
-10.218500 319.928200
-10.205800 0.000000
-10.193100 0.000000
-10.180400 0.000000
-10.167700 0.000000
-10.155000 0.000000
-10.142300 0.000000
-10.129600 0.000000
-10.116900 0.000000
-10.104200 0.000000
-10.091500 0.000000
-10.078800 0.000000
-10.066100 0.000000
-10.053400 0.000000
-10.040700 0.000000
-10.028000 0.000000
-10.015300 0.000000
-10.002600 0.000000
-9.989900 0.000000
-9.977200 0.000000
-9.964500 0.000000
-9.951800 0.000000
-9.939100 0.000000
-9.926400 0.000000
-9.913700 0.000000
-9.901000 0.000000
-9.888300 0.000000
-9.875600 0.000000
-9.862900 0.000000
-9.850200 0.000000
-9.837500 0.000000
-9.824800 0.000000
-9.812100 0.000000
-9.799400 0.000000
-9.786800 0.000000
-9.774100 0.000000
-9.761400 0.000000
-9.748700 0.000000
-9.736000 0.000000
-9.723300 0.000000
-9.710600 0.000000
-9.697900 0.000000
-9.685200 0.000000
-9.672500 0.000000
-9.659800 0.000000
-9.647100 0.000000
-9.634400 0.000000
-9.621700 0.000000
-9.609000 0.000000
-9.596300 0.000000
-9.583600 0.000000
-9.570900 0.000000
-9.558200 0.000000
-9.545500 0.000000
-9.532800 0.000000
-9.520100 0.000000
-9.507400 0.000000
-9.494700 0.000000
-9.482000 0.000000
-9.469300 0.000000
-9.456600 0.000000
-9.443900 0.000000
-9.431200 0.000000
-9.418500 0.000000
-9.405800 0.000000
-9.393100 0.000000
-9.380400 0.000000
-9.367700 0.000000
-9.355000 0.000000
-9.342300 0.000000
-9.329600 0.000000
-9.316900 0.000000
-9.304200 0.000000
-9.291500 0.000000
-9.278800 0.000000
-9.266100 0.000000
-9.253400 0.000000
-9.240700 0.000000
-9.228000 0.000000
-9.215300 0.000000
-9.202600 0.000000
-9.189900 0.000000
-9.177200 0.000000
-9.164500 0.000000
-9.151800 0.000000
-9.139100 0.000000
-9.126400 0.000000
-9.113700 0.000000
-9.101000 0.000000
-9.088300 0.000000
-9.075600 0.000000
-9.062900 0.000000
-9.050200 0.000000
-9.037500 0.000000
-9.024800 0.000000
-9.012100 0.000000
-8.999400 0.000000
-8.986700 0.000000
-8.974000 0.000000
-8.961300 0.000000
-8.948600 0.000000
-8.935900 0.000000
-8.923200 0.000000
-8.910500 0.000000
-8.897800 0.000000
-8.885200 0.000000
-8.872500 0.000000
-8.859800 0.000000
-8.847100 0.000000
-8.834400 0.000000
-8.821700 0.000000
-8.809000 0.000000
-8.796300 0.000000
-8.783600 0.000000
-8.770900 0.000000
-8.758200 0.000000
-8.745500 0.000000
-8.732800 0.000000
-8.720100 0.000000
-8.707400 0.000000
-8.694700 0.000000
-8.682000 0.000000
-8.669300 0.000000
-8.656600 0.000000
-8.643900 0.000000
-8.631200 0.000000
-8.618500 0.000000
-8.605800 0.000000
-8.593100 0.000000
-8.580400 0.000000
-8.567700 0.000000
-8.555000 0.000000
-8.542300 0.000000
-8.529600 0.000000
-8.516900 0.000000
-8.504200 0.000000
-8.491500 0.000000
-8.478800 0.000000
-8.466100 0.000000
-8.453400 0.000000
-8.440700 0.000000
-8.428000 0.000000
-8.415300 0.000000
-8.402600 0.000000
-8.389900 0.000000
-8.377200 0.000000
-8.364500 0.000000
-8.351800 0.000000
-8.339100 0.000000
-8.326400 0.000000
-8.313700 0.000000
-8.301000 0.000000
-8.288300 0.000000
-8.275600 0.000000
-8.262900 0.000000
-8.250200 0.000000
-8.237500 0.000000
-8.224800 0.000000
-8.212100 0.000000
-8.199400 0.000000
-8.186700 0.000000
-8.174000 0.000000
-8.161300 0.000000
-8.148600 0.000000
-8.135900 0.000000
-8.123200 0.000000
-8.110500 0.000000
-8.097800 0.000000
-8.085100 0.000000
-8.072400 0.000000
-8.059700 0.000000
-8.047000 0.000000
-8.034300 0.000000
-8.021600 0.000000
-8.008900 0.000000
-7.996300 0.000000
-7.983600 0.000000
-7.970900 0.000000
-7.958200 0.000000
-7.945500 0.000000
-7.932800 0.000000
-7.920100 0.000000
-7.907400 0.000000
-7.894700 0.000000
-7.882000 0.000000
-7.869300 0.000000
-7.856600 0.000000
-7.843900 0.000000
-7.831200 0.000000
-7.818500 0.000000
-7.805800 0.000000
-7.793100 0.000000
-7.780400 0.000000
-7.767700 0.000000
-7.755000 0.000000
-7.742300 0.000000
-7.729600 0.000000
-7.716900 0.000000
-7.704200 0.000000
-7.691500 0.000000
-7.678800 0.000000
-7.666100 0.000000
-7.653400 0.000000
-7.640700 0.000000
-7.628000 0.000000
-7.615300 0.000000
-7.602600 0.000000
-7.589900 0.000000
-7.577200 0.000000
-7.564500 0.000000
-7.551800 0.000000
-7.539100 0.000000
-7.526400 0.000000
-7.513700 0.000000
-7.501000 0.000000
-7.488300 0.000000
-7.475600 0.000000
-7.462900 0.000000
-7.450200 0.000000
-7.437500 0.000000
-7.424800 0.000000
-7.412100 0.000000
-7.399400 0.000000
-7.386700 0.000000
-7.374000 0.000000
-7.361300 0.000000
-7.348600 0.000000
-7.335900 0.000000
-7.323200 0.000000
-7.310500 0.000000
-7.297800 0.000000
-7.285100 0.000000
-7.272400 0.000000
-7.259700 0.000000
-7.247000 0.000000
-7.234300 0.000000
-7.221600 0.000000
-7.208900 0.000000
-7.196200 0.000000
-7.183500 0.000000
-7.170800 0.000000
-7.158100 0.000000
-7.145400 0.000000
-7.132700 0.000000
-7.120000 0.000000
-7.107400 0.000000
-7.094700 0.000000
-7.082000 0.000000
-7.069300 0.000000
-7.056600 0.000000
-7.043900 0.000000
-7.031200 0.000000
-7.018500 0.000000
-7.005800 0.000000
-6.993100 0.000000
-6.980400 0.000000
-6.967700 0.000000
-6.955000 0.000000
-6.942300 0.000000
-6.929600 0.000000
-6.916900 0.000000
-6.904200 0.000000
-6.891500 0.000000
-6.878800 0.000000
-6.866100 0.000000
-6.853400 0.000000
-6.840700 0.000000
-6.828000 0.000000
-6.815300 0.000000
-6.802600 0.000000
-6.789900 0.000000
-6.777200 0.000000
-6.764500 0.000000
-6.751800 0.000000
-6.739100 0.000000
-6.726400 0.000000
-6.713700 0.000000
-6.701000 0.000000
-6.688300 0.000000
-6.675600 0.000000
-6.662900 0.000000
-6.650200 0.000000
-6.637500 0.000000
-6.624800 0.000000
-6.612100 0.000000
-6.599400 0.000000
-6.586700 0.000000
-6.574000 0.000000
-6.561300 0.000000
-6.548600 0.000000
-6.535900 0.000000
-6.523200 0.000000
-6.510500 8.331500
-6.497800 141.715100
-6.485100 233.616600
-6.472400 385.822200
-6.459700 274.255900
-6.447000 141.003100
-6.434300 125.526600
-6.421600 119.093500
-6.408900 145.677300
-6.396200 429.295700
-6.383500 315.134400
-6.370800 222.496000
-6.358100 103.303700
-6.345400 167.399400
-6.332700 940.061400
-6.320000 686.755700
-6.307300 251.001200
-6.294600 921.127200
-6.281900 80.210400
-6.269200 212.283400
-6.256500 124.307600
-6.243800 106.883200
-6.231100 89.458700
-6.218500 178.962700
-6.205800 0.000000
-6.193100 0.000000
-6.180400 0.000000
-6.167700 0.000000
-6.155000 0.000000
-6.142300 0.000000
-6.129600 0.000000
-6.116900 0.000000
-6.104200 0.000000
-6.091500 0.000000
-6.078800 0.000000
-6.066100 0.000000
-6.053400 0.000000
-6.040700 0.000000
-6.028000 0.000000
-6.015300 0.000000
-6.002600 0.000000
-5.989900 0.000000
-5.977200 0.000000
-5.964500 0.000000
-5.951800 0.000000
-5.939100 0.000000
-5.926400 0.000000
-5.913700 0.000000
-5.901000 0.000000
-5.888300 0.000000
-5.875600 0.000000
-5.862900 0.000000
-5.850200 0.000000
-5.837500 0.000000
-5.824800 0.000000
-5.812100 0.000000
-5.799400 0.000000
-5.786700 0.000000
-5.774000 0.000000
-5.761300 0.000000
-5.748600 0.000000
-5.735900 0.000000
-5.723200 0.000000
-5.710500 0.000000
-5.697800 0.000000
-5.685100 0.000000
-5.672400 0.000000
-5.659700 0.000000
-5.647000 0.000000
-5.634300 0.000000
-5.621600 0.000000
-5.608900 0.000000
-5.596200 0.000000
-5.583500 0.000000
-5.570800 0.000000
-5.558100 0.000000
-5.545400 0.000000
-5.532700 0.000000
-5.520000 0.000000
-5.507300 0.000000
-5.494600 0.000000
-5.481900 0.000000
-5.469200 0.000000
-5.456500 0.000000
-5.443800 0.000000
-5.431100 0.000000
-5.418400 0.000000
-5.405700 0.000000
-5.393000 0.000000
-5.380300 0.000000
-5.367600 0.000000
-5.354900 0.000000
-5.342200 0.000000
-5.329600 0.000000
-5.316900 0.000000
-5.304200 0.000000
-5.291500 0.000000
-5.278800 0.000000
-5.266100 0.000000
-5.253400 0.000000
-5.240700 0.000000
-5.228000 0.000000
-5.215300 0.000000
-5.202600 0.000000
-5.189900 0.000000
-5.177200 0.000000
-5.164500 0.000000
-5.151800 0.000000
-5.139100 0.000000
-5.126400 0.000000
-5.113700 0.000000
-5.101000 0.000000
-5.088300 0.000000
-5.075600 0.000000
-5.062900 0.000000
-5.050200 0.000000
-5.037500 0.000000
-5.024800 0.000000
-5.012100 0.000000
-4.999400 0.000000
-4.986700 0.000000
-4.974000 0.000000
-4.961300 0.000000
-4.948600 0.000000
-4.935900 0.000000
-4.923200 0.000000
-4.910500 0.000000
-4.897800 0.000000
-4.885100 0.000000
-4.872400 0.000000
-4.859700 0.000000
-4.847000 0.000000
-4.834300 0.000000
-4.821600 0.000000
-4.808900 0.000000
-4.796200 0.000000
-4.783500 0.000000
-4.770800 0.000000
-4.758100 0.000000
-4.745400 0.000000
-4.732700 0.000000
-4.720000 0.000000
-4.707300 0.000000
-4.694600 0.000000
-4.681900 0.000000
-4.669200 0.000000
-4.656500 0.000000
-4.643800 0.000000
-4.631100 0.000000
-4.618400 0.000000
-4.605700 0.000000
-4.593000 0.000000
-4.580300 0.000000
-4.567600 0.000000
-4.554900 0.000000
-4.542200 0.000000
-4.529500 0.000000
-4.516800 0.000000
-4.504100 0.000000
-4.491400 0.000000
-4.478700 0.000000
-4.466000 0.000000
-4.453300 0.000000
-4.440700 0.000000
-4.428000 0.000000
-4.415300 0.000000
-4.402600 0.000000
-4.389900 0.000000
-4.377200 0.000000
-4.364500 0.000000
-4.351800 0.000000
-4.339100 0.000000
-4.326400 0.000000
-4.313700 0.000000
-4.301000 0.000000
-4.288300 0.000000
-4.275600 0.000000
-4.262900 0.000000
-4.250200 0.000000
-4.237500 0.000000
-4.224800 0.000000
-4.212100 0.000000
-4.199400 0.000000
-4.186700 0.000000
-4.174000 0.000000
-4.161300 0.000000
-4.148600 0.000000
-4.135900 0.000000
-4.123200 0.000000
-4.110500 0.000000
-4.097800 0.000000
-4.085100 0.000000
-4.072400 0.000000
-4.059700 0.000000
-4.047000 0.000000
-4.034300 0.000000
-4.021600 0.000000
-4.008900 0.000000
-3.996200 0.000000
-3.983500 0.000000
-3.970800 0.000000
-3.958100 0.000000
-3.945400 0.000000
-3.932700 0.000000
-3.920000 0.000000
-3.907300 0.000000
-3.894600 0.000000
-3.881900 0.000000
-3.869200 0.000000
-3.856500 0.000000
-3.843800 0.000000
-3.831100 0.000000
-3.818400 0.000000
-3.805700 0.000000
-3.793000 0.000000
-3.780300 0.000000
-3.767600 0.000000
-3.754900 0.000000
-3.742200 0.000000
-3.729500 0.000000
-3.716800 0.000000
-3.704100 0.000000
-3.691400 0.000000
-3.678700 0.000000
-3.666000 0.000000
-3.653300 0.000000
-3.640600 0.000000
-3.627900 0.000000
-3.615200 0.000000
-3.602500 0.000000
-3.589800 0.000000
-3.577100 0.000000
-3.564400 0.000000
-3.551800 0.000000
-3.539100 0.000000
-3.526400 0.000000
-3.513700 0.000000
-3.501000 0.000000
-3.488300 0.000000
-3.475600 0.000000
-3.462900 0.000000
-3.450200 0.000000
-3.437500 0.000000
-3.424800 0.000000
-3.412100 0.000000
-3.399400 0.000000
-3.386700 0.000000
-3.374000 0.000000
-3.361300 0.000000
-3.348600 0.000000
-3.335900 0.000000
-3.323200 0.000000
-3.310500 0.000000
-3.297800 0.000000
-3.285100 0.000000
-3.272400 0.000000
-3.259700 0.000000
-3.247000 0.000000
-3.234300 0.000000
-3.221600 0.000000
-3.208900 0.000000
-3.196200 0.000000
-3.183500 0.000000
-3.170800 0.000000
-3.158100 0.000000
-3.145400 0.000000
-3.132700 0.000000
-3.120000 0.000000
-3.107300 0.000000
-3.094600 0.000000
-3.081900 0.000000
-3.069200 0.000000
-3.056500 0.000000
-3.043800 0.000000
-3.031100 0.000000
-3.018400 0.000000
-3.005700 0.000000
-2.993000 0.000000
-2.980300 0.000000
-2.967600 0.000000
-2.954900 0.000000
-2.942200 0.000000
-2.929500 0.000000
-2.916800 0.000000
-2.904100 0.000000
-2.891400 0.000000
-2.878700 0.000000
-2.866000 0.000000
-2.853300 0.000000
-2.840600 0.000000
-2.827900 0.000000
-2.815200 0.000000
-2.802500 0.000000
-2.789800 0.000000
-2.777100 0.000000
-2.764400 0.000000
-2.751700 0.000000
-2.739000 0.000000
-2.726300 0.000000
-2.713600 0.000000
-2.700900 0.000000
-2.688200 0.000000
-2.675500 0.000000
-2.662900 0.000000
-2.650200 0.000000
-2.637500 0.000000
-2.624800 0.000000
-2.612100 0.000000
-2.599400 0.000000
-2.586700 0.000000
-2.574000 22.484000
-2.561300 11.561600
-2.548600 42.490500
-2.535900 60.201000
-2.523200 52.058700
-2.510500 50.964200
-2.497800 57.567700
-2.485100 53.722100
-2.472400 50.292100
-2.459700 41.669200
-2.447000 40.823000
-2.434300 39.976700
-2.421600 34.125800
-2.408900 31.425700
-2.396200 28.682100
-2.383500 26.597400
-2.370800 23.082500
-2.358100 21.434300
-2.345400 21.336700
-2.332700 21.239100
-2.320000 21.141500
-2.307300 21.772500
-2.294600 22.657000
-2.281900 23.541400
-2.269200 29.068700
-2.256500 38.302800
-2.243800 40.731100
-2.231100 43.415100
-2.218400 42.884000
-2.205700 14.521500
-2.193000 15.112500
-2.180300 15.703500
-2.167600 16.450400
-2.154900 17.233900
-2.142200 32.313300
-2.129500 6.999400
-2.116800 6.880000
-2.104100 6.760700
-2.091400 6.641400
-2.078700 6.522100
-2.066000 6.402700
-2.053300 6.283400
-2.040600 6.164100
-2.027900 18.186200
-2.015200 9.720700
-2.002500 1.716400
-1.989800 1.672700
-1.977100 4.202900
-1.964400 3.011000
-1.951700 1.819000
-1.939000 0.627100
-1.926300 0.000000
-1.913600 0.000000
-1.900900 0.000000
-1.888200 0.000000
-1.875500 0.000000
-1.862800 0.000000
-1.850100 0.000000
-1.837400 0.000000
-1.824700 0.000000
-1.812000 0.000000
-1.799300 0.000000
-1.786600 0.000000
-1.774000 0.000000
-1.761300 0.000000
-1.748600 0.000000
-1.735900 0.000000
-1.723200 0.000000
-1.710500 0.000000
-1.697800 0.000000
-1.685100 0.000000
-1.672400 0.000000
-1.659700 5.141700
-1.647000 3.789000
-1.634300 7.962300
-1.621600 11.508400
-1.608900 9.235700
-1.596200 11.468700
-1.583500 14.920300
-1.570800 11.965800
-1.558100 15.349300
-1.545400 20.011400
-1.532700 16.269700
-1.520000 15.325000
-1.507300 21.150100
-1.494600 20.099600
-1.481900 19.049000
-1.469200 19.712100
-1.456500 20.430100
-1.443800 21.148200
-1.431100 21.866300
-1.418400 22.584300
-1.405700 23.302400
-1.393000 24.020500
-1.380300 24.738500
-1.367600 22.835700
-1.354900 31.262000
-1.342200 31.748600
-1.329500 18.646500
-1.316800 25.805500
-1.304100 19.103800
-1.291400 14.552500
-1.278700 14.685400
-1.266000 19.438800
-1.253300 17.514900
-1.240600 23.637800
-1.227900 11.879900
-1.215200 18.079700
-1.202500 14.285000
-1.189800 10.490200
-1.177100 8.513400
-1.164400 8.410200
-1.151700 8.307100
-1.139000 8.791100
-1.126300 8.728300
-1.113600 9.847500
-1.100900 9.874500
-1.088200 9.906500
-1.075500 11.800600
-1.062800 12.547600
-1.050100 12.698400
-1.037400 12.852000
-1.024700 13.663700
-1.012000 13.843400
-0.999300 14.023000
-0.986600 14.202700
-0.973900 14.377900
-0.961200 14.550100
-0.948500 14.722200
-0.935800 14.894400
-0.923100 15.057500
-0.910400 15.220400
-0.897700 15.372200
-0.885100 15.523000
-0.872400 15.673700
-0.859700 15.824500
-0.847000 15.975200
-0.834300 16.126000
-0.821600 16.276700
-0.808900 16.427400
-0.796200 16.578200
-0.783500 16.728900
-0.770800 16.879700
-0.758100 17.500500
-0.745400 18.096600
-0.732700 18.692700
-0.720000 20.169600
-0.707300 21.303600
-0.694600 24.470800
-0.681900 25.345100
-0.669200 28.274500
-0.656500 29.158300
-0.643800 32.533500
-0.631100 33.097000
-0.618400 34.265600
-0.605700 34.713600
-0.593000 37.877600
-0.580300 38.716300
-0.567600 38.843000
-0.554900 39.106600
-0.542200 39.713600
-0.529500 39.913000
-0.516800 38.496600
-0.504100 37.056700
-0.491400 36.997700
-0.478700 36.874400
-0.466000 36.751200
-0.453300 36.694600
-0.440600 36.845200
-0.427900 37.267900
-0.415200 36.788700
-0.402500 36.264400
-0.389800 36.569900
-0.377100 36.969200
-0.364400 37.609300
-0.351700 38.488000
-0.339000 39.408700
-0.326300 40.313600
-0.313600 40.381200
-0.300900 40.387300
-0.288200 41.098800
-0.275500 41.127100
-0.262800 39.289300
-0.250100 39.696200
-0.237400 35.910500
-0.224700 35.298000
-0.212000 32.431700
-0.199300 30.164800
-0.186600 37.405800
-0.173900 32.005800
-0.161200 27.990000
-0.148500 27.199000
-0.135800 28.180300
-0.123100 27.062900
-0.110400 25.998100
-0.097700 25.100500
-0.085000 24.013800
-0.072300 22.927400
-0.059600 22.213800
-0.046900 21.115900
-0.034200 20.058900
-0.021500 19.453000
-0.008800 18.857600
0.003800 18.327700
0.016500 17.817400
0.029200 17.331400
0.041900 16.910200
0.054600 16.507400
0.067300 16.188800
0.080000 15.946400
0.092700 15.750700
0.105400 15.527400
0.118100 15.304100
0.130800 16.138400
0.143500 16.138900
0.156200 16.230400
0.168900 17.176700
0.181600 17.418800
0.194300 18.837900
0.207000 19.514700
0.219700 20.015900
0.232400 20.517000
0.245100 21.018200
0.257800 23.137600
0.270500 25.588300
0.283200 26.536500
0.295900 28.803900
0.308600 32.970100
0.321300 35.479100
0.334000 40.913400
0.346700 45.488900
0.359400 44.607800
0.372100 45.990400
0.384800 47.518200
0.397500 49.010600
0.410200 60.146500
0.422900 74.570300
0.435600 72.793200
0.448300 60.630300
0.461000 62.462700
0.473700 49.326300
0.486400 60.754900
0.499100 73.667500
0.511800 72.685100
0.524500 47.575800
0.537200 51.129100
0.549900 47.431100
0.562600 53.025600
0.575300 60.422300
0.588000 46.637600
0.600700 49.450400
0.613400 53.356900
0.626100 51.185200
0.638800 68.951400
0.651500 64.749700
0.664200 62.652900
0.676900 90.245900
0.689600 65.875500
0.702300 62.948000
0.715000 59.309700
0.727700 64.482800
0.740400 72.124300
0.753100 56.042600
0.765800 58.866900
0.778500 55.955100
0.791200 51.511400
0.803900 48.577700
0.816600 45.998400
0.829300 40.563900
0.842000 35.975700
0.854700 32.349200
0.867400 29.026600
0.880100 26.003900
0.892700 22.981300
0.905400 33.235600
0.918100 22.737200
0.930800 27.809800
0.943500 12.093100
0.956200 33.530400
0.968900 26.650200
0.981600 0.000000
0.994300 0.000000
1.007000 0.000000
1.019700 0.000000
1.032400 0.000000
1.045100 0.000000
1.057800 0.000000
1.070500 0.000000
1.083200 0.000000
1.095900 0.000000
1.108600 0.000000
1.121300 0.000000
1.134000 0.000000
1.146700 0.000000
1.159400 0.000000
1.172100 0.000000
1.184800 0.000000
1.197500 0.000000
1.210200 0.000000
1.222900 0.000000
1.235600 0.000000
1.248300 0.000000
1.261000 0.000000
1.273700 0.000000
1.286400 0.000000
1.299100 0.000000
1.311800 0.000000
1.324500 0.000000
1.337200 0.000000
1.349900 0.000000
1.362600 0.000000
1.375300 0.000000
1.388000 0.000000
1.400700 0.000000
1.413400 0.000000
1.426100 0.000000
1.438800 0.000000
1.451500 0.000000
1.464200 0.000000
1.476900 0.000000
1.489600 0.000000
1.502300 0.000000
1.515000 0.000000
1.527700 0.000000
1.540400 0.000000
1.553100 0.000000
1.565800 0.000000
1.578500 0.000000
1.591200 0.000000
1.603900 0.000000
1.616600 0.000000
1.629300 0.000000
1.642000 0.000000
1.654700 0.000000
1.667400 0.000000
1.680100 0.000000
1.692800 0.000000
1.705500 0.000000
1.718200 0.000000
1.730900 0.000000
1.743600 0.000000
1.756300 0.000000
1.769000 0.000000
1.781600 0.000000
1.794300 0.000000
1.807000 0.000000
1.819700 0.000000
1.832400 0.000000
1.845100 0.000000
1.857800 0.000000
1.870500 0.000000
1.883200 0.000000
1.895900 0.000000
1.908600 0.000000
1.921300 0.000000
1.934000 0.000000
1.946700 0.000000
1.959400 0.000000
1.972100 0.000000
1.984800 0.000000
1.997500 0.000000
2.010200 0.000000
2.022900 0.000000
2.035600 0.000000
2.048300 0.000000
2.061000 0.000000
2.073700 0.000000
2.086400 0.000000
2.099100 0.000000
2.111800 0.000000
2.124500 0.000000
2.137200 0.000000
2.149900 0.000000
2.162600 0.000000
2.175300 0.000000
2.188000 0.000000
2.200700 0.000000
2.213400 0.000000
2.226100 0.000000
2.238800 0.000000
2.251500 0.000000
2.264200 0.000000
2.276900 0.000000
2.289600 0.000000
2.302300 0.000000
2.315000 0.000000
2.327700 0.000000
2.340400 0.000000
2.353100 0.000000
2.365800 0.000000
2.378500 0.000000
2.391200 0.000000
2.403900 0.000000
2.416600 0.000000
2.429300 0.000000
2.442000 0.000000
2.454700 0.000000
2.467400 0.000000
2.480100 0.000000
2.492800 0.000000
2.505500 0.000000
2.518200 0.000000
2.530900 0.000000
2.543600 0.000000
2.556300 0.000000
2.569000 0.000000
2.581700 0.000000
2.594400 0.000000
2.607100 0.000000
2.619800 0.000000
2.632500 0.000000
2.645200 0.000000
2.657900 0.000000
2.670500 0.000000
2.683200 0.000000
2.695900 0.000000
2.708600 0.000000
2.721300 0.000000
2.734000 0.000000
2.746700 0.000000
2.759400 0.000000
2.772100 0.000000
2.784800 0.000000
2.797500 0.000000
2.810200 0.000000
2.822900 0.000000
2.835600 0.000000
2.848300 0.000000
2.861000 0.000000
2.873700 0.000000
2.886400 0.000000
2.899100 0.000000
2.911800 0.000000
2.924500 0.000000
2.937200 0.000000
2.949900 0.000000
2.962600 0.000000
2.975300 0.000000
2.988000 0.000000
3.000700 0.000000
3.013400 0.000000
3.026100 0.000000
3.038800 0.000000
3.051500 0.000000
3.064200 0.000000
3.076900 0.000000
3.089600 0.000000
3.102300 0.000000
3.115000 0.000000
3.127700 0.000000
3.140400 0.000000
3.153100 0.000000
3.165800 0.000000
3.178500 0.000000
3.191200 0.000000
3.203900 0.000000
3.216600 0.000000
3.229300 0.000000
3.242000 0.000000
3.254700 0.000000
3.267400 0.000000
3.280100 0.000000
3.292800 0.000000
3.305500 0.000000
3.318200 0.000000
3.330900 0.000000
3.343600 0.000000
3.356300 0.000000
3.369000 0.000000
3.381700 0.000000
3.394400 0.000900
3.407100 0.884900
3.419800 0.928600
3.432500 1.869900
3.445200 1.948500
3.457900 2.926700
3.470600 3.038500
3.483300 3.150200
3.496000 3.262000
3.508700 4.374100
3.521400 4.523600
3.534100 5.800300
3.546800 5.999200
3.559500 6.198200
3.572100 6.397200
3.584800 7.807100
3.597500 9.228000
3.610200 10.702700
3.622900 10.977200
3.635600 11.251600
3.648300 11.526100
3.661000 11.800500
3.673700 12.075000
3.686400 12.349500
3.699100 12.743400
3.711800 13.179900
3.724500 13.641200
3.737200 14.151100
3.749900 14.692600
3.762600 15.369100
3.775300 16.076400
3.788000 16.837300
3.800700 17.664000
3.813400 18.583100
3.826100 19.569200
3.838800 20.555200
3.851500 21.541300
3.864200 22.527400
3.876900 23.765900
3.889600 32.736200
3.902300 32.685500
3.915000 29.190700
3.927700 27.615500
3.940400 32.227200
3.953100 35.231500
3.965800 34.141200
3.978500 33.285200
3.991200 31.833700
4.003900 42.199300
4.016600 34.819300
4.029300 29.117900
4.042000 37.100100
4.054700 31.195500
4.067400 26.851600
4.080100 25.825100
4.092800 24.853400
4.105500 23.895000
4.118200 22.744200
4.130900 21.593400
4.143600 20.214500
4.156300 20.989300
4.169000 19.791600
4.181700 20.396700
4.194400 18.239500
4.207100 16.241700
4.219800 14.244000
4.232500 12.246300
4.245200 10.529000
4.257900 9.460400
4.270600 19.058000
4.283300 11.198500
4.296000 4.216200
4.308700 5.014400
4.321400 5.812600
4.334100 0.000000
4.346800 0.000000
4.359500 0.000000
4.372200 0.000000
4.384900 0.000000
4.397600 0.000000
4.410300 0.000000
4.423000 0.000000
4.435700 0.000000
4.448400 0.000000
4.461000 0.000000
4.473700 0.000000
4.486400 0.000000
4.499100 0.000000
4.511800 0.000000
4.524500 0.000000
4.537200 0.000000
4.549900 0.000000
4.562600 0.000000
4.575300 0.000000
4.588000 0.000000
4.600700 0.000000
4.613400 0.000000
4.626100 0.000000
4.638800 0.000000
4.651500 0.000000
4.664200 0.000000
4.676900 0.000000
4.689600 0.000000
4.702300 0.000000
4.715000 0.000000
4.727700 0.000000
4.740400 0.000000
4.753100 0.000000
4.765800 0.000000
4.778500 0.000000
4.791200 0.000000
4.803900 0.000000
4.816600 0.000000
4.829300 0.000000
4.842000 0.000000
4.854700 0.000000
4.867400 0.000000
4.880100 0.000000
4.892800 0.000000
4.905500 0.000000
4.918200 0.000000
4.930900 0.000000
4.943600 0.000000
4.956300 0.000000
4.969000 0.000000
4.981700 0.000000
4.994400 0.000000
5.007100 0.000000
5.019800 0.000000
5.032500 0.000000
5.045200 0.000000
5.057900 0.000000
5.070600 0.000000
5.083300 0.000000
5.096000 0.000000
5.108700 0.000000
5.121400 0.000000
5.134100 0.000000
5.146800 0.000000
5.159500 0.000000
5.172200 0.000000
5.184900 0.000000
5.197600 0.000000
5.210300 0.000000
5.223000 0.000000
5.235700 0.000000
5.248400 0.000000
5.261100 0.000000
5.273800 0.000000
5.286500 0.000000
5.299200 0.000000
5.311900 0.000000
5.324600 0.000000
5.337300 0.000000
5.349900 0.000000
5.362600 0.000000
5.375300 0.000000
5.388000 0.000000
5.400700 0.000000
5.413400 0.000000
5.426100 0.000000
5.438800 0.000000
5.451500 0.000000
5.464200 0.000000
5.476900 0.000000
5.489600 0.010300
5.502300 0.071600
5.515000 0.144200
5.527700 0.216800
5.540400 0.289400
5.553100 0.362000
5.565800 0.434500
5.578500 0.507100
5.591200 0.579700
5.603900 0.652300
5.616600 0.724900
5.629300 0.797500
5.642000 0.870100
5.654700 0.942700
5.667400 1.015200
5.680100 1.087800
5.692800 1.160400
5.705500 1.233000
5.718200 1.305600
5.730900 1.378200
5.743600 1.450800
5.756300 1.523400
5.769000 1.595900
5.781700 1.668500
5.794400 1.741100
5.807100 1.813700
5.819800 1.886300
5.832500 1.958900
5.845200 2.031500
5.857900 2.104100
5.870600 2.176600
5.883300 2.249200
5.896000 2.321800
5.908700 2.394400
5.921400 2.467000
5.934100 2.539600
5.946800 2.612200
5.959500 2.684800
5.972200 4.505000
5.984900 4.781600
5.997600 6.787700
6.010300 7.332600
6.023000 7.877500
6.035700 8.905900
6.048400 9.288300
6.061100 10.351000
6.073800 11.563100
6.086500 12.212300
6.099200 12.577000
6.111900 12.937200
6.124600 13.319400
6.137300 14.309300
6.150000 14.535900
6.162700 15.136700
6.175400 15.326600
6.188100 15.516600
6.200800 15.706600
6.213500 15.896600
6.226200 16.086500
6.238800 16.855000
6.251500 17.099700
6.264200 17.344300
6.276900 18.080500
6.289600 18.211700
6.302300 18.343000
6.315000 18.474200
6.327700 18.605500
6.340400 18.736800
6.353100 18.821900
6.365800 18.836400
6.378500 18.850800
6.391200 18.865300
6.403900 22.953800
6.416600 22.723300
6.429300 22.492800
6.442000 22.250800
6.454700 25.856200
6.467400 24.424300
6.480100 22.990300
6.492800 21.787100
6.505500 33.903500
6.518200 22.589000
6.530900 21.043500
6.543600 20.471900
6.556300 24.369200
6.569000 22.183800
6.581700 19.998500
6.594400 16.513300
6.607100 16.495000
6.619800 16.517700
6.632500 16.540400
6.645200 16.563100
6.657900 16.585700
6.670600 15.582000
6.683300 13.647000
6.696000 15.564500
6.708700 11.549300
6.721400 13.561000
6.734100 13.285200
6.746800 13.034500
6.759500 15.209600
6.772200 17.049400
6.784900 16.576200
6.797600 16.103000
6.810300 15.629700
6.823000 15.156500
6.835700 14.683300
6.848400 13.811400
6.861100 16.211300
6.873800 15.563700
6.886500 17.013700
6.899200 15.347000
6.911900 14.709500
6.924600 14.085100
6.937300 13.460700
6.950000 12.836400
6.962700 12.212000
6.975400 11.116800
6.988100 11.058400
7.000800 10.999900
7.013500 10.941500
7.026200 14.812200
7.038900 14.407200
7.051600 18.465600
7.064300 17.510600
7.077000 18.090800
7.089700 25.736200
7.102400 23.973100
7.115100 21.736500
7.127700 20.722700
7.140400 29.257100
7.153100 39.383900
7.165800 46.348800
7.178500 44.661600
7.191200 33.807100
7.203900 26.660200
7.216600 22.445900
7.229300 25.445800
7.242000 29.231700
7.254700 42.642800
7.267400 32.902400
7.280100 26.052600
7.292800 33.021600
7.305500 67.043500
7.318200 22.212200
7.330900 22.612500
7.343600 23.012700
7.356300 23.465000
7.369000 25.790700
7.381700 28.891200
7.394400 35.268100
7.407100 26.294500
7.419800 32.418200
7.432500 36.439200
7.445200 32.626100
7.457900 27.460100
7.470600 27.416900
7.483300 27.511600
7.496000 28.575700
7.508700 28.196600
7.521400 27.093000
7.534100 27.916600
7.546800 28.860900
7.559500 29.246200
7.572200 30.867100
7.584900 28.039500
7.597600 26.878600
7.610300 28.530400
7.623000 34.084300
7.635700 31.645200
7.648400 34.572900
7.661100 38.734700
7.673800 45.123900
7.686500 46.274900
7.699200 43.947400
7.711900 46.999700
7.724600 49.495200
7.737300 41.162900
7.750000 41.107800
7.762700 35.463100
7.775400 34.788900
7.788100 41.177700
7.800800 46.368200
7.813500 36.167800
7.826200 41.765100
7.838900 36.442700
7.851600 30.795300
7.864300 35.381600
7.877000 36.499900
7.889700 35.775700
7.902400 32.467100
7.915100 29.519600
7.927800 27.283400
7.940500 25.625600
7.953200 25.228600
7.965900 23.592400
7.978600 23.695500
7.991300 23.783100
8.004000 31.474900
8.016600 36.219800
8.029300 30.054500
8.042000 27.813900
8.054700 28.934100
8.067400 29.338200
8.080100 31.553100
8.092800 31.305800
8.105500 31.058500
8.118200 30.811200
8.130900 30.563900
8.143600 30.316600
8.156300 30.069300
8.169000 29.710500
8.181700 29.286400
8.194400 34.859900
8.207100 33.289100
8.219800 30.993200
8.232500 32.490500
8.245200 29.614600
8.257900 27.300300
8.270600 27.543200
8.283300 31.678000
8.296000 33.151400
8.308700 24.736700
8.321400 26.623600
8.334100 24.940800
8.346800 22.965300
8.359500 15.309400
8.372200 13.567900
8.384900 12.662400
8.397600 12.385200
8.410300 12.107900
8.423000 11.830700
8.435700 11.553400
8.448400 11.276200
8.461100 10.998900
8.473800 10.721600
8.486500 10.444400
8.499200 9.761300
8.511900 9.506400
8.524600 9.251500
8.537300 8.996600
8.550000 8.741700
8.562700 8.486800
8.575400 7.821000
8.588100 9.626700
8.600800 9.209100
8.613500 8.808600
8.626200 10.956400
8.638900 9.969500
8.651600 8.620000
8.664300 7.707200
8.677000 6.544900
8.689700 6.502300
8.702400 7.113000
8.715100 9.455600
8.727800 11.949600
8.740500 14.100600
8.753200 10.737500
8.765900 6.998300
8.778600 7.370900
8.791300 7.743500
8.804000 8.116100
8.816700 8.488600
8.829400 8.861200
8.842100 8.881200
8.854800 6.735400
8.867500 10.476000
8.880200 11.310000
8.892900 11.708900
8.905500 14.351100
8.918200 14.700600
8.930900 14.529300
8.943600 14.407500
8.956300 14.553500
8.969000 14.699400
8.981700 14.947400
8.994400 15.314900
9.007100 15.279500
9.019800 15.244100
9.032500 15.208700
9.045200 15.173300
9.057900 21.612100
9.070600 19.555800
9.083300 18.151000
9.096000 18.283400
9.108700 21.935700
9.121400 25.946900
9.134100 30.465500
9.146800 24.573900
9.159500 28.581100
9.172200 31.604400
9.184900 34.463600
9.197600 25.904500
9.210300 25.022700
9.223000 23.639800
9.235700 24.519400
9.248400 37.185600
9.261100 42.465100
9.273800 26.315500
9.286500 24.802600
9.299200 23.894000
9.311900 22.629400
9.324600 21.364900
9.337300 18.967300
9.350000 22.755000
9.362700 25.934900
9.375400 31.391100
9.388100 27.970500
9.400800 29.791400
9.413500 31.407800
9.426200 25.058400
9.438900 23.912400
9.451600 26.387800
9.464300 26.217600
9.477000 26.047500
9.489700 25.877300
9.502400 25.722000
9.515100 27.293000
9.527800 26.965600
9.540500 26.724300
9.553200 26.482900
9.565900 26.241600
9.578600 25.212400
9.591300 33.144800
9.604000 31.022400
9.616700 29.326900
9.629400 27.742800
9.642100 27.136600
9.654800 26.746100
9.667500 25.739500
9.680200 26.508600
9.692900 25.787500
9.705600 26.682500
9.718300 26.116600
9.731000 24.012500
9.743700 25.927900
9.756400 25.648400
9.769100 27.974000
9.781800 28.155800
9.794400 28.401000
9.807100 35.675400
9.819800 25.142000
9.832500 24.106300
9.845200 23.155700
9.857900 23.944300
9.870600 22.467100
9.883300 23.334100
9.896000 24.577100
9.908700 24.763400
9.921400 26.159600
9.934100 27.555900
9.946800 25.018500
9.959500 25.782300
9.972200 21.066700
9.984900 22.155000
9.997600 20.357300
10.010300 21.343700
10.023000 23.760800
10.035700 30.238200
10.048400 24.655100
10.061100 20.718500
10.073800 19.190500
10.086500 19.727700
10.099200 20.541100
10.111900 19.582300
10.124600 23.277800
10.137300 23.491500
10.150000 18.883900
10.162700 22.171500
10.175400 23.407700
10.188100 25.314600
10.200800 20.389600
10.213500 21.677600
10.226200 16.987100
10.238900 17.722100
10.251600 17.635900
10.264300 18.904400
10.277000 19.032800
10.289700 19.593600
10.302400 19.828400
10.315100 20.063100
10.327800 20.297900
10.340500 20.663000
10.353200 21.912700
10.365900 20.081900
10.378600 20.339400
10.391300 20.597000
10.404000 20.854500
10.416700 18.811700
10.429400 19.138100
10.442100 19.197900
10.454800 18.067800
10.467500 18.519600
10.480200 18.695800
10.492900 18.877200
10.505600 17.282700
10.518300 17.305700
10.531000 17.328700
10.543700 17.351700
10.556400 17.374700
10.569100 17.397700
10.581800 17.429600
10.594500 17.486700
10.607200 17.565500
10.619900 17.111400
10.632600 17.183200
10.645300 17.255100
10.658000 17.326900
10.670700 17.398800
10.683300 17.471600
10.696000 17.554600
10.708700 17.642200
10.721400 17.681700
10.734100 17.465000
10.746800 16.608100
10.759500 16.754700
10.772200 15.376400
10.784900 15.362700
10.797600 15.460800
10.810300 14.463300
10.823000 14.541900
10.835700 14.585200
10.848400 14.599300
10.861100 14.565100
10.873800 14.537300
10.886500 14.509500
10.899200 14.481600
10.911900 17.153300
10.924600 16.561500
10.937300 15.952900
10.950000 15.344300
10.962700 16.452800
10.975400 16.655200
10.988100 16.852900
11.000800 17.168500
11.013500 17.708000
11.026200 19.486500
11.038900 19.552500
11.051600 19.534700
11.064300 21.197700
11.077000 21.556100
11.089700 21.789200
11.102400 21.963000
11.115100 21.743900
11.127800 21.177500
11.140500 20.614700
11.153200 20.052200
11.165900 19.489800
11.178600 18.927300
11.191300 18.372400
11.204000 18.445600
11.216700 17.894000
11.229400 17.347100
11.242100 17.453800
11.254800 16.966800
11.267500 16.483400
11.280200 16.978500
11.292900 16.560900
11.305600 16.149700
11.318300 15.747800
11.331000 16.510400
11.343700 16.120500
11.356400 15.381900
11.369100 15.562600
11.381800 15.205000
11.394500 14.849100
11.407200 15.037700
11.419900 15.261800
11.432600 14.945000
11.445300 14.293900
11.458000 14.240600
11.470700 14.017400
11.483400 13.794200
11.496100 13.202000
11.508800 13.057400
11.521500 12.912800
11.534200 12.768200
11.546900 15.633500
11.559600 14.670900
11.572200 13.708300
11.584900 12.745700
11.597600 13.060500
11.610300 12.516200
11.623000 11.772700
11.635700 11.592200
11.648400 11.411800
11.661100 10.688500
11.673800 10.026300
11.686500 10.281700
11.699200 10.537200
11.711900 10.792600
11.724600 11.048100
11.737300 11.303500
11.750000 11.559000
11.762700 11.814400
11.775400 12.069900
11.788100 9.247000
11.800800 9.136100
11.813500 9.109400
11.826200 9.082800
11.838900 9.842400
11.851600 14.266900
11.864300 17.639600
11.877000 10.025500
11.889700 10.316300
11.902400 10.607100
11.915100 10.897900
11.927800 9.125900
11.940500 9.283400
11.953200 7.028900
11.965900 7.021700
11.978600 7.045400
11.991300 7.069100
12.004000 7.092700
12.016700 5.492100
12.029400 5.459700
12.042100 5.465000
12.054800 5.470200
12.067500 4.154700
12.080200 4.125300
12.092900 4.095900
12.105600 4.066500
12.118300 4.037100
12.131000 4.007700
12.143700 3.978400
12.156400 2.667400
12.169100 2.615500
12.181800 2.638500
12.194500 2.752000
12.207200 2.865500
12.219900 1.676800
12.232600 1.790800
12.245300 1.904800
12.258000 2.018800
12.270700 2.132800
12.283400 2.246800
12.296100 0.000000
12.308800 0.000000
12.321500 0.000000
12.334200 0.000000
12.346900 0.000000
12.359600 0.000000
12.372300 0.000000
12.385000 0.000000
12.397700 0.000000
12.410400 0.000000
12.423100 0.000000
12.435800 0.000000
12.448500 0.000000
12.461100 0.000000
12.473800 0.000000
12.486500 0.000000
12.499200 0.000000
12.511900 0.000000
12.524600 0.000000
12.537300 0.000000
12.550000 0.000000
12.562700 0.000000
12.575400 0.000000
12.588100 0.000000
12.600800 0.000000
12.613500 0.000000
12.626200 0.000000
12.638900 0.000000
12.651600 0.000000
12.664300 0.000000
12.677000 0.000000
12.689700 0.000000
12.702400 0.000000
12.715100 0.000000
12.727800 0.000000
12.740500 0.000000
12.753200 0.000000
12.765900 0.000000
12.778600 0.000000
12.791300 0.000000
12.804000 0.000000
12.816700 0.000000
12.829400 0.000000
12.842100 0.000000
12.854800 0.000000
12.867500 0.000000
12.880200 0.000000
12.892900 0.000000
12.905600 0.000000
12.918300 0.000000
12.931000 0.000000
12.943700 0.000000
12.956400 0.000000
12.969100 0.000000
12.981800 0.000000
12.994500 0.000000
13.007200 0.000000
13.019900 0.000000
13.032600 0.000000
13.045300 0.000000
13.058000 0.000000
13.070700 0.000000
13.083400 0.000000
13.096100 0.000000
13.108800 0.000000
13.121500 0.000000
13.134200 0.000000
13.146900 0.000000
13.159600 0.000000
13.172300 0.000000
13.185000 0.000000
13.197700 0.000000
13.210400 0.000000
13.223100 0.000000
13.235800 0.000000
13.248500 0.000000
13.261200 0.000000
13.273900 0.000000
13.286600 0.000000
13.299300 0.000000
13.312000 0.000000
13.324700 0.000000
13.337400 0.000000
13.350000 0.000000
13.362700 0.000000
13.375400 0.000000
13.388100 0.000000
13.400800 0.000000
13.413500 0.000000
13.426200 0.000000
13.438900 0.000000
e
