set title 'mp-31070 - Density of States'
set xlabel 'Energy (eV)'
set ylabel 'DOS (states/eV)'
set grid
set xrange [-10:10]
set yrange [0:322.476]
set xzeroaxis lt -1
set terminal png size 800,600
set output 'mp-31070_dos_gnuplot.png'
plot '-' using 1:2 with lines title 'DOS'
-14.748600 0.000000
-14.735800 0.000000
-14.723100 0.000000
-14.710400 0.000000
-14.697600 0.000000
-14.684900 0.000000
-14.672200 0.000000
-14.659400 0.000000
-14.646700 0.000000
-14.634000 0.000000
-14.621300 0.000000
-14.608500 0.000000
-14.595800 0.000000
-14.583100 0.000000
-14.570300 0.000000
-14.557600 0.000000
-14.544900 0.000000
-14.532100 0.000000
-14.519400 0.000000
-14.506700 0.000000
-14.493900 0.000000
-14.481200 0.000000
-14.468500 0.000000
-14.455700 0.000000
-14.443000 0.000000
-14.430300 0.000000
-14.417600 0.000000
-14.404800 0.000000
-14.392100 0.000000
-14.379400 0.000000
-14.366600 0.000000
-14.353900 0.000000
-14.341200 0.000000
-14.328400 0.000000
-14.315700 0.000000
-14.303000 0.000000
-14.290200 0.000000
-14.277500 0.000000
-14.264800 0.000000
-14.252100 0.000000
-14.239300 0.000000
-14.226600 0.000000
-14.213900 0.000000
-14.201100 0.000000
-14.188400 0.000000
-14.175700 0.000000
-14.162900 0.000000
-14.150200 0.000000
-14.137500 0.000000
-14.124700 0.000000
-14.112000 0.000000
-14.099300 0.000000
-14.086600 0.000000
-14.073800 0.000000
-14.061100 0.000000
-14.048400 0.000000
-14.035600 0.000000
-14.022900 0.000000
-14.010200 0.000000
-13.997400 0.000000
-13.984700 0.000000
-13.972000 0.000000
-13.959200 0.000000
-13.946500 0.000000
-13.933800 0.000000
-13.921100 0.000000
-13.908300 0.000000
-13.895600 0.000000
-13.882900 0.000000
-13.870100 0.000000
-13.857400 0.000000
-13.844700 0.000000
-13.831900 0.000000
-13.819200 0.000000
-13.806500 0.000000
-13.793700 0.000000
-13.781000 0.000000
-13.768300 0.000000
-13.755500 0.000000
-13.742800 0.000000
-13.730100 0.000000
-13.717400 0.000000
-13.704600 0.000000
-13.691900 0.000000
-13.679200 0.000000
-13.666400 0.000000
-13.653700 0.000000
-13.641000 0.000000
-13.628200 0.000000
-13.615500 0.000000
-13.602800 0.000000
-13.590000 0.075100
-13.577300 10.812100
-13.564600 32.021800
-13.551900 72.703900
-13.539100 54.502700
-13.526400 0.000000
-13.513700 0.000000
-13.500900 24.089600
-13.488200 103.522600
-13.475500 30.984400
-13.462700 11.812100
-13.450000 0.000000
-13.437300 0.000000
-13.424500 16.149000
-13.411800 77.083300
-13.399100 0.000000
-13.386400 0.000000
-13.373600 303.944700
-13.360900 68.417900
-13.348200 0.000000
-13.335400 0.000000
-13.322700 0.000000
-13.310000 0.000000
-13.297200 0.000000
-13.284500 0.000000
-13.271800 0.000000
-13.259000 0.000000
-13.246300 0.000000
-13.233600 0.000000
-13.220900 0.000000
-13.208100 0.000000
-13.195400 0.000000
-13.182700 0.000000
-13.169900 0.000000
-13.157200 0.000000
-13.144500 0.000000
-13.131700 0.000000
-13.119000 0.000000
-13.106300 0.000000
-13.093500 0.000000
-13.080800 0.000000
-13.068100 0.000000
-13.055300 0.000000
-13.042600 0.000000
-13.029900 0.000000
-13.017200 0.000000
-13.004400 0.000000
-12.991700 0.000000
-12.979000 0.000000
-12.966200 0.000000
-12.953500 0.000000
-12.940800 0.000000
-12.928000 0.000000
-12.915300 0.000000
-12.902600 0.000000
-12.889800 0.000000
-12.877100 0.000000
-12.864400 0.000000
-12.851700 0.000000
-12.838900 0.000000
-12.826200 0.000000
-12.813500 0.000000
-12.800700 0.000000
-12.788000 0.000000
-12.775300 0.000000
-12.762500 0.000000
-12.749800 0.000000
-12.737100 0.000000
-12.724300 0.000000
-12.711600 0.000000
-12.698900 0.000000
-12.686200 0.000000
-12.673400 0.000000
-12.660700 0.000000
-12.648000 0.000000
-12.635200 0.000000
-12.622500 0.000000
-12.609800 0.000000
-12.597000 0.000000
-12.584300 0.000000
-12.571600 0.000000
-12.558800 0.000000
-12.546100 0.000000
-12.533400 0.000000
-12.520700 0.000000
-12.507900 66.989300
-12.495200 119.890700
-12.482500 0.000000
-12.469700 7.615300
-12.457000 93.693900
-12.444300 53.836500
-12.431500 5.366300
-12.418800 0.000000
-12.406100 0.000000
-12.393300 0.000000
-12.380600 0.000000
-12.367900 0.000000
-12.355100 0.000000
-12.342400 0.000000
-12.329700 0.000000
-12.317000 0.000000
-12.304200 0.000000
-12.291500 0.000000
-12.278800 0.000000
-12.266000 0.000000
-12.253300 0.000000
-12.240600 0.000000
-12.227800 0.000000
-12.215100 0.000000
-12.202400 0.000000
-12.189600 0.000000
-12.176900 0.000000
-12.164200 0.000000
-12.151500 0.000000
-12.138700 0.000000
-12.126000 23.594200
-12.113300 187.990400
-12.100500 24.473800
-12.087800 132.411100
-12.075100 159.694600
-12.062300 441.573500
-12.049600 78.856600
-12.036900 15.398400
-12.024100 124.031700
-12.011400 122.942800
-11.998700 0.000000
-11.986000 0.000000
-11.973200 0.000000
-11.960500 0.000000
-11.947800 0.000000
-11.935000 0.000000
-11.922300 0.000000
-11.909600 0.000000
-11.896800 8.662100
-11.884100 21.819700
-11.871400 53.497200
-11.858600 56.990800
-11.845900 27.153300
-11.833200 84.093200
-11.820500 79.676700
-11.807700 25.110700
-11.795000 8.122400
-11.782300 0.000000
-11.769500 0.000000
-11.756800 0.000000
-11.744100 0.000000
-11.731300 0.000000
-11.718600 0.000000
-11.705900 0.000000
-11.693100 0.000000
-11.680400 0.000000
-11.667700 0.000000
-11.654900 0.000000
-11.642200 0.000000
-11.629500 0.000000
-11.616800 0.000000
-11.604000 0.000000
-11.591300 0.000000
-11.578600 0.000000
-11.565800 0.000000
-11.553100 0.000000
-11.540400 0.000000
-11.527600 0.000000
-11.514900 0.000000
-11.502200 0.000000
-11.489400 0.000000
-11.476700 0.000000
-11.464000 0.000000
-11.451300 0.000000
-11.438500 0.000000
-11.425800 0.000000
-11.413100 0.000000
-11.400300 0.000000
-11.387600 0.000000
-11.374900 0.000000
-11.362100 0.000000
-11.349400 0.000000
-11.336700 0.000000
-11.323900 0.000000
-11.311200 0.000000
-11.298500 0.000000
-11.285800 0.000000
-11.273000 0.000000
-11.260300 0.000000
-11.247600 0.000000
-11.234800 0.000000
-11.222100 0.000000
-11.209400 0.000000
-11.196600 0.000000
-11.183900 0.000000
-11.171200 0.000000
-11.158400 0.000000
-11.145700 0.000000
-11.133000 0.000000
-11.120300 0.000000
-11.107500 0.000000
-11.094800 0.000000
-11.082100 0.000000
-11.069300 73.711200
-11.056600 76.826300
-11.043900 0.000000
-11.031100 0.000000
-11.018400 103.916700
-11.005700 0.000000
-10.992900 0.000000
-10.980200 0.000000
-10.967500 0.000000
-10.954700 0.000000
-10.942000 0.000000
-10.929300 0.000000
-10.916600 0.000000
-10.903800 0.000000
-10.891100 0.000000
-10.878400 0.000000
-10.865600 0.000000
-10.852900 0.000000
-10.840200 0.000000
-10.827400 0.000000
-10.814700 0.000000
-10.802000 22.239300
-10.789200 64.684100
-10.776500 0.000000
-10.763800 0.000000
-10.751100 0.000000
-10.738300 77.392400
-10.725600 40.980300
-10.712900 0.000000
-10.700100 0.000000
-10.687400 0.000000
-10.674700 0.000000
-10.661900 0.000000
-10.649200 0.000000
-10.636500 0.000000
-10.623700 0.000000
-10.611000 0.000000
-10.598300 0.000000
-10.585600 0.000000
-10.572800 0.000000
-10.560100 0.000000
-10.547400 0.000000
-10.534600 0.000000
-10.521900 0.000000
-10.509200 0.000000
-10.496400 0.000000
-10.483700 0.000000
-10.471000 0.000000
-10.458200 0.000000
-10.445500 0.000000
-10.432800 0.000000
-10.420100 0.000000
-10.407300 0.000000
-10.394600 0.000000
-10.381900 0.000000
-10.369100 0.000000
-10.356400 0.000000
-10.343700 0.000000
-10.330900 0.000000
-10.318200 0.000000
-10.305500 0.000000
-10.292700 0.000000
-10.280000 0.000000
-10.267300 0.000000
-10.254500 0.000000
-10.241800 0.000000
-10.229100 0.000000
-10.216400 0.000000
-10.203600 0.000000
-10.190900 0.000000
-10.178200 0.000000
-10.165400 0.000000
-10.152700 0.000000
-10.140000 0.000000
-10.127200 0.000000
-10.114500 0.000000
-10.101800 0.000000
-10.089000 0.000000
-10.076300 0.000000
-10.063600 0.000000
-10.050900 0.000000
-10.038100 0.000000
-10.025400 302.404400
-10.012700 252.895100
-9.999900 0.353700
-9.987200 0.000000
-9.974500 0.000000
-9.961700 0.000000
-9.949000 0.000000
-9.936300 0.000000
-9.923500 0.000000
-9.910800 0.000000
-9.898100 0.000000
-9.885400 0.000000
-9.872600 0.000000
-9.859900 0.000000
-9.847200 0.000000
-9.834400 0.000000
-9.821700 0.000000
-9.809000 0.000000
-9.796200 0.000000
-9.783500 0.000000
-9.770800 0.000000
-9.758000 0.000000
-9.745300 0.000000
-9.732600 0.000000
-9.719900 0.000000
-9.707100 0.000000
-9.694400 0.000000
-9.681700 0.000000
-9.668900 0.000000
-9.656200 0.000000
-9.643500 0.000000
-9.630700 0.000000
-9.618000 0.000000
-9.605300 0.000000
-9.592500 0.000000
-9.579800 0.000000
-9.567100 0.000000
-9.554300 0.000000
-9.541600 2.419300
-9.528900 15.385600
-9.516200 28.366600
-9.503400 42.123800
-9.490700 57.367500
-9.478000 0.000000
-9.465200 0.000000
-9.452500 0.000000
-9.439800 0.000000
-9.427000 40.747800
-9.414300 66.116700
-9.401600 30.056200
-9.388800 20.009100
-9.376100 9.960100
-9.363400 0.000100
-9.350700 0.000000
-9.337900 0.000000
-9.325200 0.000000
-9.312500 0.000000
-9.299700 0.000000
-9.287000 0.000000
-9.274300 0.000000
-9.261500 0.000000
-9.248800 0.000000
-9.236100 0.000000
-9.223300 0.000000
-9.210600 0.000000
-9.197900 0.000000
-9.185200 0.000000
-9.172400 0.000000
-9.159700 0.000000
-9.147000 0.000000
-9.134200 0.000000
-9.121500 0.000000
-9.108800 0.000000
-9.096000 0.000000
-9.083300 0.000000
-9.070600 0.000000
-9.057800 0.000000
-9.045100 0.000000
-9.032400 0.000000
-9.019700 0.000000
-9.006900 0.000000
-8.994200 0.000000
-8.981500 0.000000
-8.968700 0.000000
-8.956000 0.000000
-8.943300 0.000000
-8.930500 0.000000
-8.917800 0.000000
-8.905100 0.000000
-8.892300 0.000000
-8.879600 0.000000
-8.866900 0.000000
-8.854100 0.000000
-8.841400 0.000000
-8.828700 0.000000
-8.816000 0.000000
-8.803200 0.000000
-8.790500 0.000000
-8.777800 0.000000
-8.765000 0.000000
-8.752300 0.000000
-8.739600 0.000000
-8.726800 0.000000
-8.714100 0.000000
-8.701400 0.000000
-8.688600 0.000000
-8.675900 0.000000
-8.663200 1.634500
-8.650500 4.903600
-8.637700 8.172300
-8.625000 11.440300
-8.612300 14.707800
-8.599500 29.454800
-8.586800 30.643700
-8.574100 31.816800
-8.561300 24.077800
-8.548600 0.000000
-8.535900 31.007000
-8.523100 30.126500
-8.510400 29.246200
-8.497700 28.366200
-8.485000 14.331700
-8.472200 10.940600
-8.459500 7.552300
-8.446800 4.166700
-8.434000 0.783700
-8.421300 0.000000
-8.408600 0.000000
-8.395800 0.000000
-8.383100 0.000000
-8.370400 0.000000
-8.357600 0.000000
-8.344900 0.000000
-8.332200 0.000000
-8.319500 0.000000
-8.306700 0.000000
-8.294000 0.000000
-8.281300 0.000000
-8.268500 0.000000
-8.255800 0.000000
-8.243100 0.000000
-8.230300 0.000000
-8.217600 0.000000
-8.204900 0.000000
-8.192100 0.000000
-8.179400 0.000000
-8.166700 0.000000
-8.153900 0.000000
-8.141200 0.000000
-8.128500 0.000000
-8.115800 0.000000
-8.103000 0.000000
-8.090300 0.000000
-8.077600 0.000000
-8.064800 0.000000
-8.052100 0.000000
-8.039400 0.000000
-8.026600 0.000000
-8.013900 0.000000
-8.001200 0.000000
-7.988400 0.000000
-7.975700 0.000000
-7.963000 0.000000
-7.950300 0.000000
-7.937500 0.000000
-7.924800 0.000000
-7.912100 0.000000
-7.899300 0.000000
-7.886600 0.000000
-7.873900 0.000000
-7.861100 0.000000
-7.848400 0.000000
-7.835700 0.000000
-7.822900 0.000000
-7.810200 0.000000
-7.797500 0.000000
-7.784800 0.000000
-7.772000 0.000000
-7.759300 0.000000
-7.746600 0.000000
-7.733800 0.000000
-7.721100 0.000000
-7.708400 0.000000
-7.695600 0.000000
-7.682900 0.000000
-7.670200 0.000000
-7.657400 0.000000
-7.644700 0.000000
-7.632000 0.000000
-7.619300 0.000000
-7.606500 0.000000
-7.593800 0.000000
-7.581100 0.000000
-7.568300 0.000000
-7.555600 0.000000
-7.542900 0.000000
-7.530100 0.000000
-7.517400 0.000000
-7.504700 0.000000
-7.491900 0.000000
-7.479200 0.000000
-7.466500 26.931000
-7.453700 74.412800
-7.441000 121.114500
-7.428300 60.025800
-7.415600 33.546900
-7.402800 0.000000
-7.390100 0.000000
-7.377400 37.718500
-7.364600 80.363700
-7.351900 36.877900
-7.339200 0.000000
-7.326400 26.977900
-7.313700 69.462800
-7.301000 80.131500
-7.288200 0.000000
-7.275500 18.266200
-7.262800 33.197800
-7.250100 34.017000
-7.237300 145.025600
-7.224600 104.685100
-7.211900 0.000000
-7.199100 0.000000
-7.186400 0.000000
-7.173700 85.311700
-7.160900 151.646000
-7.148200 51.025400
-7.135500 38.062900
-7.122700 6.582800
-7.110000 0.000000
-7.097300 0.000000
-7.084600 0.000000
-7.071800 0.000000
-7.059100 0.000000
-7.046400 0.000000
-7.033600 0.000000
-7.020900 0.000000
-7.008200 0.000000
-6.995400 0.000000
-6.982700 0.000000
-6.970000 0.000000
-6.957200 0.000000
-6.944500 0.000000
-6.931800 0.000000
-6.919100 0.000000
-6.906300 0.000000
-6.893600 0.000000
-6.880900 0.000000
-6.868100 0.000000
-6.855400 0.000000
-6.842700 0.000000
-6.829900 0.000000
-6.817200 0.000000
-6.804500 0.000000
-6.791700 0.000000
-6.779000 0.000000
-6.766300 1.008700
-6.753500 7.506900
-6.740800 16.571900
-6.728100 27.498000
-6.715400 62.105400
-6.702600 44.163300
-6.689900 0.000000
-6.677200 0.000000
-6.664400 3.696500
-6.651700 39.706300
-6.639000 58.062000
-6.626200 25.528100
-6.613500 17.865300
-6.600800 10.112800
-6.588000 2.270600
-6.575300 0.000000
-6.562600 0.000000
-6.549900 0.000000
-6.537100 0.000000
-6.524400 0.000000
-6.511700 0.000000
-6.498900 0.000000
-6.486200 0.000000
-6.473500 0.000000
-6.460700 0.000000
-6.448000 0.000000
-6.435300 0.000000
-6.422500 0.000000
-6.409800 0.000000
-6.397100 0.000000
-6.384400 0.000000
-6.371600 0.000000
-6.358900 0.000000
-6.346200 0.000000
-6.333400 0.000000
-6.320700 0.000000
-6.308000 0.000000
-6.295200 0.000000
-6.282500 0.000000
-6.269800 0.000000
-6.257000 0.000000
-6.244300 0.000000
-6.231600 0.000000
-6.218800 0.000000
-6.206100 0.000000
-6.193400 0.000000
-6.180700 0.000000
-6.167900 0.000000
-6.155200 0.000000
-6.142500 0.000000
-6.129700 0.000000
-6.117000 0.000000
-6.104300 0.000000
-6.091500 0.000000
-6.078800 0.000000
-6.066100 0.000000
-6.053300 0.000000
-6.040600 0.000000
-6.027900 0.000000
-6.015200 0.000000
-6.002400 0.000000
-5.989700 0.000000
-5.977000 0.000000
-5.964200 0.000000
-5.951500 0.000000
-5.938800 0.000000
-5.926000 0.000000
-5.913300 0.000000
-5.900600 0.000000
-5.887800 0.000000
-5.875100 0.000000
-5.862400 0.000000
-5.849700 0.000000
-5.836900 0.000000
-5.824200 0.000000
-5.811500 0.000000
-5.798700 0.000000
-5.786000 0.000000
-5.773300 0.000000
-5.760500 0.000000
-5.747800 0.000000
-5.735100 0.000000
-5.722300 0.000000
-5.709600 0.000000
-5.696900 0.000000
-5.684200 0.000000
-5.671400 0.000000
-5.658700 0.000000
-5.646000 0.000000
-5.633200 0.000000
-5.620500 0.000000
-5.607800 0.000000
-5.595000 0.000000
-5.582300 0.000000
-5.569600 0.000000
-5.556800 0.000000
-5.544100 0.000000
-5.531400 0.000000
-5.518600 0.000000
-5.505900 0.000000
-5.493200 0.000000
-5.480500 0.000000
-5.467700 0.000000
-5.455000 0.000000
-5.442300 0.000000
-5.429500 0.000000
-5.416800 0.000000
-5.404100 0.000000
-5.391300 0.000000
-5.378600 0.000000
-5.365900 0.000000
-5.353100 0.000000
-5.340400 0.000000
-5.327700 0.000000
-5.315000 0.000000
-5.302200 0.000000
-5.289500 0.000000
-5.276800 0.000000
-5.264000 0.000000
-5.251300 0.000000
-5.238600 0.000000
-5.225800 0.000000
-5.213100 0.000000
-5.200400 0.000000
-5.187600 0.000000
-5.174900 0.000000
-5.162200 0.000000
-5.149500 0.000000
-5.136700 0.000000
-5.124000 0.000000
-5.111300 0.000000
-5.098500 0.000000
-5.085800 0.000000
-5.073100 0.000000
-5.060300 0.000000
-5.047600 0.000000
-5.034900 0.000000
-5.022100 0.000000
-5.009400 0.000000
-4.996700 0.000000
-4.984000 0.000000
-4.971200 0.000000
-4.958500 0.000000
-4.945800 0.000000
-4.933000 0.000000
-4.920300 0.000000
-4.907600 0.000000
-4.894800 0.000000
-4.882100 0.000000
-4.869400 0.000000
-4.856600 0.000000
-4.843900 0.000000
-4.831200 0.000000
-4.818400 0.000000
-4.805700 0.000000
-4.793000 0.000000
-4.780300 0.000000
-4.767500 0.000000
-4.754800 0.000000
-4.742100 0.000000
-4.729300 0.000000
-4.716600 0.000000
-4.703900 0.000000
-4.691100 0.000000
-4.678400 0.000000
-4.665700 0.000000
-4.652900 0.000000
-4.640200 0.000000
-4.627500 0.000000
-4.614800 0.000000
-4.602000 0.000000
-4.589300 0.000000
-4.576600 0.000000
-4.563800 0.000000
-4.551100 0.000000
-4.538400 0.000000
-4.525600 0.000000
-4.512900 0.000000
-4.500200 0.000000
-4.487400 0.000000
-4.474700 0.000000
-4.462000 0.000000
-4.449300 0.000000
-4.436500 0.000000
-4.423800 0.000000
-4.411100 0.000000
-4.398300 0.000000
-4.385600 0.000000
-4.372900 0.000000
-4.360100 0.000000
-4.347400 0.000000
-4.334700 0.000000
-4.321900 0.000000
-4.309200 0.000000
-4.296500 0.000000
-4.283800 0.000000
-4.271000 0.000000
-4.258300 0.000000
-4.245600 0.000000
-4.232800 0.000000
-4.220100 0.000000
-4.207400 0.000000
-4.194600 0.000000
-4.181900 0.000000
-4.169200 0.000000
-4.156400 0.000000
-4.143700 0.000000
-4.131000 0.000000
-4.118200 0.000000
-4.105500 0.000000
-4.092800 0.000000
-4.080100 0.000000
-4.067300 0.000000
-4.054600 0.000000
-4.041900 0.000000
-4.029100 0.000000
-4.016400 0.000000
-4.003700 0.000000
-3.990900 0.000000
-3.978200 0.000000
-3.965500 0.000000
-3.952700 0.000000
-3.940000 0.000000
-3.927300 0.000000
-3.914600 0.000000
-3.901800 0.000000
-3.889100 0.000000
-3.876400 0.000000
-3.863600 0.000000
-3.850900 0.000000
-3.838200 0.000000
-3.825400 0.000000
-3.812700 0.000000
-3.800000 0.000000
-3.787200 0.000000
-3.774500 293.160000
-3.761800 0.000000
-3.749100 0.000000
-3.736300 114.222500
-3.723600 50.372400
-3.710900 33.460400
-3.698100 0.057500
-3.685400 0.000000
-3.672700 0.000000
-3.659900 0.000000
-3.647200 0.000000
-3.634500 0.000000
-3.621700 0.000000
-3.609000 0.000000
-3.596300 2.042600
-3.583600 15.866000
-3.570800 36.688800
-3.558100 43.838600
-3.545400 47.654300
-3.532600 0.000000
-3.519900 7.853700
-3.507200 41.793900
-3.494400 100.450900
-3.481700 25.708400
-3.469000 9.190900
-3.456200 0.719200
-3.443500 0.000000
-3.430800 0.000000
-3.418000 0.000000
-3.405300 0.000000
-3.392600 0.000000
-3.379900 14.022300
-3.367100 28.790500
-3.354400 28.438200
-3.341700 48.060400
-3.328900 37.893000
-3.316200 17.046800
-3.303500 9.889400
-3.290700 12.135600
-3.278000 14.773500
-3.265300 20.161900
-3.252500 52.308700
-3.239800 31.875400
-3.227100 19.824300
-3.214400 23.614900
-3.201600 27.749500
-3.188900 24.872800
-3.176200 21.725200
-3.163400 18.306600
-3.150700 11.897900
-3.138000 30.034900
-3.125200 85.112700
-3.112500 34.683300
-3.099800 0.000000
-3.087000 0.000000
-3.074300 0.000000
-3.061600 0.000000
-3.048900 0.000000
-3.036100 3.596100
-3.023400 34.163400
-3.010700 46.668400
-2.997900 25.037400
-2.985200 25.130200
-2.972500 30.252000
-2.959700 33.117800
-2.947000 35.493700
-2.934300 34.194800
-2.921500 28.380500
-2.908800 20.951600
-2.896100 0.000000
-2.883400 0.002700
-2.870600 1.029900
-2.857900 3.910900
-2.845200 11.464000
-2.832400 26.066200
-2.819700 33.984300
-2.807000 44.214100
-2.794200 43.633300
-2.781500 38.204000
-2.768800 37.651400
-2.756000 36.528200
-2.743300 38.371100
-2.730600 6.333300
-2.717800 5.592900
-2.705100 37.046400
-2.692400 39.498300
-2.679700 32.528500
-2.666900 26.922200
-2.654200 30.027900
-2.641500 32.220300
-2.628700 34.812300
-2.616000 31.053700
-2.603300 20.236600
-2.590500 12.565600
-2.577800 14.893900
-2.565100 21.557200
-2.552300 28.939500
-2.539600 37.434800
-2.526900 54.917600
-2.514200 76.062000
-2.501400 47.119100
-2.488700 42.564600
-2.476000 64.680500
-2.463200 73.068100
-2.450500 38.785700
-2.437800 41.406900
-2.425000 50.942700
-2.412300 70.068500
-2.399600 66.626400
-2.386800 62.892200
-2.374100 51.517300
-2.361400 35.497800
-2.348700 42.578400
-2.335900 28.847400
-2.323200 77.005500
-2.310500 80.084200
-2.297700 51.600300
-2.285000 44.087200
-2.272300 35.026500
-2.259500 12.136500
-2.246800 6.587000
-2.234100 2.720100
-2.221300 0.535900
-2.208600 0.000000
-2.195900 0.000000
-2.183200 0.000000
-2.170400 0.000000
-2.157700 0.000000
-2.145000 0.000000
-2.132200 0.000000
-2.119500 0.000000
-2.106800 0.000000
-2.094000 0.000000
-2.081300 0.000000
-2.068600 0.000000
-2.055800 0.000000
-2.043100 0.000000
-2.030400 0.000000
-2.017600 0.000000
-2.004900 0.000000
-1.992200 0.000000
-1.979500 0.000000
-1.966700 0.000000
-1.954000 0.000000
-1.941300 0.000000
-1.928500 0.000000
-1.915800 0.000000
-1.903100 0.000000
-1.890300 0.000000
-1.877600 0.000000
-1.864900 0.000000
-1.852100 0.000000
-1.839400 0.000000
-1.826700 0.000000
-1.814000 0.000000
-1.801200 0.000000
-1.788500 0.000000
-1.775800 0.000000
-1.763000 0.000000
-1.750300 0.000000
-1.737600 0.000000
-1.724800 0.000000
-1.712100 0.000000
-1.699400 0.000000
-1.686600 0.000000
-1.673900 0.000000
-1.661200 0.000000
-1.648500 0.000000
-1.635700 0.000000
-1.623000 0.000000
-1.610300 0.000000
-1.597500 0.000000
-1.584800 0.000000
-1.572100 0.000000
-1.559300 0.000000
-1.546600 1.117600
-1.533900 7.465400
-1.521100 43.383100
-1.508400 48.059100
-1.495700 32.670000
-1.483000 23.635500
-1.470200 21.487300
-1.457500 24.823600
-1.444800 28.510600
-1.432000 36.528000
-1.419300 33.999600
-1.406600 32.518300
-1.393800 35.162100
-1.381100 37.211000
-1.368400 29.312500
-1.355600 20.029000
-1.342900 12.592900
-1.330200 9.604500
-1.317400 23.809000
-1.304700 46.699000
-1.292000 64.650000
-1.279300 62.005300
-1.266500 50.166300
-1.253800 64.525300
-1.241100 50.398900
-1.228300 50.617400
-1.215600 38.768500
-1.202900 13.103900
-1.190100 5.800500
-1.177400 11.712200
-1.164700 19.665500
-1.151900 27.163100
-1.139200 28.693500
-1.126500 31.101900
-1.113800 44.631200
-1.101000 42.466900
-1.088300 39.918300
-1.075600 35.203900
-1.062800 25.653200
-1.050100 13.135000
-1.037400 7.771700
-1.024600 10.413700
-1.011900 13.517500
-0.999200 20.790200
-0.986400 33.238500
-0.973700 46.825600
-0.961000 19.780500
-0.948300 30.827800
-0.935500 66.349300
-0.922800 62.452200
-0.910100 8.509400
-0.897300 40.008500
-0.884600 42.001800
-0.871900 40.145900
-0.859100 41.297900
-0.846400 27.502000
-0.833700 30.325400
-0.820900 29.746700
-0.808200 25.376700
-0.795500 17.670700
-0.782800 10.430500
-0.770000 7.391900
-0.757300 11.872500
-0.744600 22.074300
-0.731800 30.711200
-0.719100 34.116900
-0.706400 44.581800
-0.693600 8.497100
-0.680900 6.432500
-0.668200 40.489300
-0.655400 58.816300
-0.642700 42.407900
-0.630000 15.026000
-0.617200 10.389900
-0.604500 19.147100
-0.591800 38.620200
-0.579100 49.229600
-0.566300 36.474900
-0.553600 8.272600
-0.540900 47.999900
-0.528100 55.045400
-0.515400 32.689200
-0.502700 14.687500
-0.489900 39.170600
-0.477200 69.615700
-0.464500 73.107600
-0.451700 24.834900
-0.439000 37.363000
-0.426300 39.465000
-0.413600 32.871700
-0.400800 11.368100
-0.388100 7.219200
-0.375400 54.129400
-0.362600 41.983600
-0.349900 40.700900
-0.337200 37.049800
-0.324400 32.581500
-0.311700 29.195700
-0.299000 29.747400
-0.286200 43.278100
-0.273500 41.677300
-0.260800 48.700500
-0.248100 55.842900
-0.235300 55.468800
-0.222600 43.779700
-0.209900 26.326500
-0.197100 5.484600
-0.184400 1.062100
-0.171700 4.077200
-0.158900 8.972000
-0.146200 15.044100
-0.133500 22.326700
-0.120700 29.381700
-0.108000 45.186300
-0.095300 29.396700
-0.082600 9.564400
-0.069800 12.297600
-0.057100 31.969000
-0.044400 40.663300
-0.031600 51.856100
-0.018900 13.159600
-0.006200 0.574400
0.006600 0.000000
0.019300 0.000000
0.032000 19.144500
0.044800 28.505100
0.057500 38.544600
0.070200 47.723900
0.083000 48.923900
0.095700 42.176600
0.108400 35.227900
0.121100 34.381500
0.133900 20.988000
0.146600 0.000000
0.159300 0.000000
0.172100 19.909100
0.184800 50.964200
0.197500 47.167300
0.210300 41.063100
0.223000 35.544400
0.235700 28.761200
0.248500 28.458900
0.261200 29.310100
0.273900 36.039300
0.286600 45.252900
0.299400 60.204500
0.312100 65.020100
0.324800 62.912300
0.337600 41.022400
0.350300 39.171200
0.363000 15.808600
0.375800 37.381800
0.388500 100.491200
0.401200 105.285500
0.414000 48.888400
0.426700 51.875700
0.439400 45.866800
0.452100 38.349500
0.464900 33.608400
0.477600 7.068500
0.490300 10.545100
0.503100 63.567600
0.515800 94.096800
0.528500 0.000000
0.541300 0.000000
0.554000 0.000000
0.566700 0.000000
0.579500 0.000000
0.592200 0.000000
0.604900 0.000000
0.617600 0.000000
0.630400 0.000000
0.643100 0.000000
0.655800 0.000000
0.668600 0.000000
0.681300 0.000000
0.694000 0.000000
0.706800 0.000000
0.719500 0.000000
0.732200 0.000000
0.745000 0.000000
0.757700 0.288300
0.770400 4.140900
0.783200 12.485400
0.795900 28.318400
0.808600 31.846200
0.821300 46.172800
0.834100 75.615900
0.846800 16.559700
0.859500 32.137200
0.872300 32.606500
0.885000 26.074700
0.897700 18.513100
0.910500 0.000000
0.923200 0.550000
0.935900 14.673400
0.948700 35.468100
0.961400 69.779600
0.974100 62.061500
0.986800 60.779300
0.999600 38.660400
1.012300 16.212900
1.025000 10.885800
1.037800 6.974000
1.050500 3.695100
1.063200 1.443400
1.076000 0.230900
1.088700 0.000000
1.101400 0.000000
1.114200 0.000000
1.126900 0.000000
1.139600 0.000000
1.152300 0.000000
1.165100 0.000000
1.177800 0.000000
1.190500 0.000000
1.203300 0.000000
1.216000 0.000000
1.228700 0.000000
1.241500 0.000000
1.254200 0.000000
1.266900 0.000000
1.279700 0.000000
1.292400 0.000000
1.305100 0.000000
1.317800 0.000000
1.330600 0.000000
1.343300 0.000000
1.356000 0.000000
1.368800 0.000000
1.381500 0.000000
1.394200 0.000000
1.407000 0.000000
1.419700 0.000000
1.432400 0.000000
1.445200 0.000000
1.457900 0.000000
1.470600 0.000000
1.483400 0.000000
1.496100 0.000000
1.508800 0.000000
1.521500 0.000000
1.534300 0.000000
1.547000 0.000000
1.559700 0.000000
1.572500 0.000000
1.585200 0.000000
1.597900 0.000000
1.610700 0.000000
1.623400 0.000000
1.636100 0.000000
1.648900 0.000000
1.661600 0.000000
1.674300 0.000000
1.687000 0.000000
1.699800 0.000000
1.712500 0.000000
1.725200 0.000000
1.738000 0.000000
1.750700 0.000000
1.763400 0.000000
1.776200 0.000000
1.788900 0.000000
1.801600 0.000000
1.814400 0.000000
1.827100 0.000000
1.839800 0.000000
1.852500 0.000000
1.865300 0.000000
1.878000 0.000000
1.890700 0.000000
1.903500 0.000000
1.916200 0.000000
1.928900 0.000000
1.941700 0.000000
1.954400 0.000000
1.967100 0.000000
1.979900 0.000000
1.992600 0.000000
2.005300 0.000000
2.018000 0.000000
2.030800 0.000000
2.043500 0.000000
2.056200 0.000000
2.069000 0.000000
2.081700 0.000000
2.094400 0.000000
2.107200 0.000000
2.119900 0.000000
2.132600 0.000000
2.145400 0.000000
2.158100 0.000000
2.170800 0.000000
2.183600 0.000000
2.196300 0.000000
2.209000 0.000000
2.221700 0.000000
2.234500 0.000000
2.247200 0.000000
2.259900 0.000000
2.272700 0.000000
2.285400 0.000000
2.298100 0.000000
2.310900 0.000000
2.323600 0.000000
2.336300 0.000000
2.349100 0.000000
2.361800 0.000000
2.374500 0.000000
2.387200 0.000000
2.400000 0.000000
2.412700 0.000000
2.425400 0.000000
2.438200 0.000000
2.450900 0.000000
2.463600 0.000000
2.476400 0.000000
2.489100 0.000000
2.501800 0.000000
2.514600 0.000000
2.527300 0.000000
2.540000 0.000000
2.552700 0.000000
2.565500 0.000000
2.578200 0.000000
2.590900 0.000000
2.603700 0.000000
2.616400 0.000000
2.629100 0.000000
2.641900 0.000000
2.654600 0.000000
2.667300 0.000000
2.680100 0.000000
2.692800 0.000000
2.705500 0.000000
2.718300 0.000000
2.731000 0.000000
2.743700 0.000000
2.756400 0.000000
2.769200 0.000000
2.781900 0.000000
2.794600 0.000000
2.807400 0.000300
2.820100 0.048900
2.832800 0.181900
2.845600 0.399000
2.858300 0.700400
2.871000 1.086100
2.883800 1.556000
2.896500 2.110100
2.909200 2.748400
2.921900 3.471000
2.934700 4.277800
2.947400 5.254700
2.960100 6.598000
2.972900 8.960100
2.985600 11.316000
2.998300 13.274500
3.011100 14.088300
3.023800 13.957000
3.036500 12.745800
3.049300 11.558800
3.062000 10.395800
3.074700 9.256900
3.087400 8.142200
3.100200 6.382200
3.112900 4.454300
3.125600 3.395600
3.138400 5.465000
3.151100 18.474400
3.163800 31.730500
3.176600 36.510500
3.189300 36.703300
3.202000 14.721300
3.214800 8.631800
3.227500 3.852000
3.240200 1.237200
3.252900 3.119800
3.265700 10.966900
3.278400 24.972600
3.291100 26.179600
3.303900 26.155600
3.316600 32.784600
3.329300 37.734000
3.342100 44.065100
3.354800 37.866300
3.367500 29.832300
3.380300 20.724100
3.393000 13.145000
3.405700 7.149600
3.418500 3.844100
3.431200 3.276300
3.443900 4.245600
3.456600 12.868400
3.469400 17.243400
3.482100 20.102800
3.494800 21.956100
3.507600 23.035600
3.520300 23.341200
3.533000 22.826200
3.545800 20.440900
3.558500 9.907100
3.571200 29.955200
3.584000 38.431700
3.596700 37.423900
3.609400 12.500100
3.622100 10.755400
3.634900 9.555800
3.647600 8.905300
3.660300 9.143500
3.673100 10.522000
3.685800 13.042400
3.698500 16.657600
3.711300 38.282000
3.724000 48.057600
3.736700 69.136700
3.749500 49.209700
3.762200 37.913100
3.774900 26.745500
3.787600 16.737100
3.800400 17.129000
3.813100 20.218100
3.825800 24.505600
3.838600 35.052500
3.851300 36.948800
3.864000 45.700400
3.876800 130.681100
3.889500 7.904200
3.902200 0.000000
3.915000 0.000000
3.927700 2.895100
3.940400 40.994400
3.953100 23.100300
3.965900 12.907600
3.978600 13.315300
3.991300 20.530000
4.004100 25.420200
4.016800 26.329400
4.029500 27.837000
4.042300 27.586600
4.055000 25.152600
4.067700 20.745400
4.080500 11.655400
4.093200 12.684100
4.105900 16.022400
4.118700 22.127700
4.131400 32.314600
4.144100 34.526200
4.156800 26.827900
4.169600 15.797200
4.182300 3.409800
4.195000 1.053600
4.207800 27.883400
4.220500 32.824200
4.233200 30.957800
4.246000 26.601200
4.258700 39.891300
4.271400 37.735900
4.284200 33.760300
4.296900 29.458000
4.309600 22.766900
4.322300 24.622200
4.335100 28.349400
4.347800 27.146300
4.360500 23.817700
4.373300 22.552000
4.386000 30.404400
4.398700 36.309400
4.411500 37.759900
4.424200 35.543100
4.436900 27.512800
4.449700 36.117100
4.462400 38.057500
4.475100 34.516600
4.487800 29.174600
4.500600 24.554700
4.513300 19.549700
4.526000 15.305900
4.538800 11.672200
4.551500 9.372200
4.564200 9.053100
4.577000 20.660000
4.589700 28.865400
4.602400 29.774500
4.615200 30.417900
4.627900 33.406100
4.640600 35.124900
4.653300 90.329000
4.666100 38.130200
4.678800 37.687200
4.691500 50.831800
4.704300 52.754200
4.717000 43.874000
4.729700 34.862400
4.742500 24.660200
4.755200 31.665700
4.767900 31.972400
4.780700 31.292600
4.793400 30.876400
4.806100 29.891200
4.818900 37.565400
4.831600 38.977300
4.844300 25.942800
4.857000 34.393100
4.869800 36.194300
4.882500 34.512700
4.895200 37.880800
4.908000 40.641700
4.920700 44.685000
4.933400 39.484900
4.946200 37.374100
4.958900 40.503800
4.971600 27.749800
4.984400 24.981200
4.997100 29.354500
5.009800 39.295200
5.022500 43.532200
5.035300 24.777500
5.048000 28.226000
5.060700 41.303400
5.073500 41.146100
5.086200 37.390200
5.098900 31.233800
5.111700 9.428900
5.124400 5.937800
5.137100 6.928100
5.149900 12.785500
5.162600 23.523900
5.175300 33.271200
5.188000 128.532100
5.200800 33.089500
5.213500 34.649700
5.226200 28.941800
5.239000 22.091600
5.251700 15.485800
5.264400 9.124600
5.277200 4.484900
5.289900 4.139400
5.302600 5.313700
5.315400 6.634400
5.328100 11.775800
5.340800 32.326300
5.353500 56.199000
5.366300 54.358300
5.379000 45.051000
5.391700 38.887900
5.404500 31.268400
5.417200 22.575000
5.429900 7.844900
5.442700 11.371700
5.455400 14.011700
5.468100 15.463100
5.480900 16.067400
5.493600 16.236700
5.506300 15.964800
5.519100 15.196800
5.531800 13.919100
5.544500 12.131900
5.557200 8.143000
5.570000 8.184400
5.582700 27.009400
5.595400 25.761000
5.608200 21.765200
5.620900 16.518000
5.633600 11.372900
5.646400 10.639400
5.659100 9.786000
5.671800 8.812500
5.684600 7.718900
5.697300 6.505400
5.710000 5.171800
5.722700 3.678800
5.735500 0.419200
5.748200 0.073600
5.760900 1.581700
5.773700 5.035300
5.786400 10.434600
5.799100 30.083000
5.811900 52.921800
5.824600 43.097600
5.837300 14.774000
5.850100 37.863000
5.862800 75.920100
5.875500 22.063300
5.888200 43.629200
5.901000 61.906900
5.913700 41.047800
5.926400 37.872500
5.939200 28.945700
5.951900 20.203700
5.964600 18.059600
5.977400 16.092600
5.990100 12.971700
6.002800 11.180300
6.015600 9.012900
6.028300 6.764100
6.041000 4.628700
6.053700 2.635600
6.066500 1.145900
6.079200 0.267800
6.091900 0.000000
6.104700 0.000000
6.117400 0.329800
6.130100 2.022200
6.142900 4.531500
6.155600 7.501800
6.168300 10.933100
6.181100 14.825500
6.193800 25.585200
6.206500 41.776600
6.219300 33.484500
6.232000 15.767200
6.244700 3.757200
6.257400 13.255700
6.270200 25.214900
6.282900 37.171300
6.295600 42.017800
6.308400 42.157300
6.321100 11.981100
6.333800 5.723400
6.346600 7.322500
6.359300 8.536700
6.372000 9.360700
6.384800 9.794400
6.397500 9.837800
6.410200 9.773300
6.422900 10.343800
6.435700 22.306800
6.448400 19.384300
6.461100 16.581100
6.473900 13.846000
6.486600 5.646300
6.499300 0.000000
6.512100 0.000000
6.524800 0.000000
6.537500 0.000000
6.550300 0.000000
6.563000 0.000000
6.575700 0.000000
6.588400 0.000000
6.601200 3.270600
6.613900 40.119300
6.626600 60.499700
6.639400 22.537100
6.652100 14.518900
6.664800 6.347100
6.677600 0.125200
6.690300 0.000000
6.703000 0.001200
6.715800 0.008600
6.728500 0.022800
6.741200 0.043600
6.753900 0.071300
6.766700 0.105600
6.779400 0.146700
6.792100 0.194500
6.804900 0.249000
6.817600 0.310300
6.830300 0.378300
6.843100 0.453000
6.855800 0.534500
6.868500 0.622700
6.881300 0.717700
6.894000 0.819300
6.906700 0.927400
6.919500 1.037200
6.932200 1.147100
6.944900 1.257100
6.957600 1.367200
6.970400 1.477400
6.983100 1.587700
6.995800 1.698100
7.008600 1.808700
7.021300 1.919300
7.034000 2.030000
7.046800 2.140900
7.059500 2.251900
7.072200 2.476400
7.085000 2.699800
7.097700 2.921100
7.110400 3.140300
7.123100 3.357500
7.135900 3.572600
7.148600 3.785700
7.161300 3.996700
7.174100 4.205600
7.186800 4.412500
7.199500 4.617400
7.212300 4.818100
7.225000 4.995200
7.237700 5.144100
7.250500 5.264500
7.263200 5.356600
7.275900 5.420400
7.288600 5.455100
7.301400 5.337300
7.314100 5.173200
7.326800 5.003400
7.339600 4.962100
7.352300 5.155800
7.365000 5.584600
7.377800 6.248400
7.390500 7.147300
7.403200 8.273700
7.416000 9.615300
7.428700 11.171800
7.441400 12.943200
7.454100 12.835400
7.466900 12.003600
7.479600 12.068600
7.492300 18.109100
7.505100 21.680000
7.517800 22.078100
7.530500 22.101200
7.543300 26.445300
7.556000 32.791800
7.568700 25.850900
7.581500 18.154400
7.594200 16.077400
7.606900 14.027900
7.619700 12.023300
7.632400 10.063500
7.645100 8.145500
7.657800 6.233500
7.670600 5.012400
7.683300 4.630100
7.696000 4.483100
7.708800 4.571300
7.721500 5.159400
7.734200 6.927800
7.747000 8.668900
7.759700 10.382200
7.772400 12.067600
7.785200 12.408100
7.797900 12.546700
7.810600 12.931600
7.823300 13.365900
7.836100 12.274600
7.848800 11.450900
7.861500 11.374000
7.874300 12.761600
7.887000 16.325200
7.899700 20.526800
7.912500 25.397600
7.925200 33.095500
7.937900 43.167700
7.950700 42.631600
7.963400 17.613900
7.976100 23.469900
7.988800 21.821700
8.001600 22.443400
8.014300 24.477000
8.027000 22.513700
8.039800 20.656700
8.052500 18.998500
8.065200 19.412700
8.078000 19.970600
8.090700 20.671900
8.103400 21.516800
8.116200 22.054400
8.128900 20.679100
8.141600 18.583900
8.154300 15.836400
8.167100 10.075400
8.179800 10.683200
8.192500 12.082500
8.205300 13.299400
8.218000 18.756300
8.230700 23.570200
8.243500 25.067500
8.256200 27.985900
8.268900 32.293900
8.281700 26.352300
8.294400 20.692200
8.307100 14.246400
8.319900 8.490000
8.332600 6.657400
8.345300 13.037700
8.358000 23.087400
8.370800 30.565500
8.383500 24.482400
8.396200 25.364700
8.409000 25.981700
8.421700 26.050600
8.434400 24.324600
8.447200 22.791800
8.459900 21.030200
8.472600 18.642500
8.485400 15.753500
8.498100 14.025800
8.510800 14.537300
8.523500 15.667000
8.536300 17.293500
8.549000 18.563500
8.561700 18.992500
8.574500 19.744600
8.587200 21.386300
8.599900 33.560600
8.612700 35.678100
8.625400 32.713300
8.638100 29.008300
8.650900 24.734100
8.663600 25.307900
8.676300 27.933600
8.689000 31.605700
8.701800 36.076500
8.714500 38.222400
8.727200 42.152700
8.740000 34.937400
8.752700 26.951200
8.765400 20.098500
8.778200 23.355700
8.790900 25.622700
8.803600 27.048600
8.816400 26.402500
8.829100 25.033800
8.841800 22.941500
8.854500 21.459200
8.867300 23.499400
8.880000 27.217900
8.892700 32.937000
8.905500 45.005800
8.918200 42.177900
8.930900 43.118200
8.943700 27.193500
8.956400 18.206000
8.969100 15.065000
8.981900 14.070600
8.994600 14.589300
9.007300 15.989700
9.020100 17.402800
9.032800 18.130300
9.045500 18.028800
9.058200 11.237800
9.071000 14.045900
9.083700 43.424000
9.096400 49.999600
9.109200 30.462400
9.121900 14.903600
9.134600 18.292300
9.147400 24.562800
9.160100 27.816400
9.172800 33.884200
9.185600 24.353200
9.198300 29.502200
9.211000 35.727700
9.223700 41.125500
9.236500 37.624800
9.249200 31.566600
9.261900 27.475600
9.274700 25.292700
9.287400 25.434800
9.300100 24.670000
9.312900 22.580900
9.325600 21.942100
9.338300 24.427400
9.351100 26.489500
9.363800 27.762400
9.376500 27.812000
9.389200 27.737900
9.402000 30.115500
9.414700 30.073000
9.427400 25.608500
9.440200 23.023700
9.452900 21.929700
9.465600 20.728000
9.478400 19.894300
9.491100 15.543300
9.503800 11.271600
9.516600 8.610200
9.529300 5.674000
9.542000 2.463000
9.554700 0.019200
9.567500 0.000000
9.580200 0.000000
9.592900 0.000000
9.605700 0.000000
9.618400 0.000000
9.631100 0.000000
9.643900 0.000000
9.656600 0.000000
9.669300 0.000000
9.682100 0.000000
9.694800 0.000000
9.707500 0.000000
9.720300 0.000000
9.733000 0.000000
9.745700 0.000000
9.758400 0.000000
9.771200 0.000000
9.783900 0.000000
9.796600 0.000000
9.809400 0.000000
9.822100 0.000000
9.834800 0.000000
9.847600 0.000000
9.860300 0.000000
9.873000 0.000000
9.885800 0.000000
9.898500 0.000000
9.911200 0.000000
9.923900 0.000000
9.936700 0.000000
9.949400 0.000000
9.962100 0.000000
9.974900 0.000000
9.987600 0.000000
10.000300 0.000000
10.013100 0.000000
10.025800 0.000000
10.038500 0.000000
10.051300 0.000000
10.064000 0.000000
10.076700 0.000000
10.089400 0.000000
10.102200 0.000000
10.114900 0.000000
10.127600 0.000000
10.140400 0.000000
10.153100 0.000000
10.165800 0.000000
10.178600 0.000000
10.191300 0.000000
10.204000 0.000000
10.216800 0.000000
10.229500 0.000000
10.242200 0.000000
10.254900 0.000000
10.267700 0.000000
10.280400 0.000000
10.293100 0.000000
10.305900 0.000000
10.318600 0.000000
10.331300 0.000000
10.344100 0.000000
10.356800 0.000000
10.369500 0.000000
10.382300 0.000000
10.395000 0.000000
10.407700 0.000000
10.420500 0.000000
10.433200 0.000000
10.445900 0.000000
10.458600 0.000000
10.471400 0.000000
10.484100 0.000000
10.496800 0.000000
10.509600 0.000000
10.522300 0.000000
10.535000 0.000000
10.547800 0.000000
10.560500 0.000000
10.573200 0.000000
10.586000 0.000000
10.598700 0.000000
10.611400 0.000000
10.624100 0.000000
10.636900 0.000000
10.649600 0.000000
10.662300 0.000000
10.675100 0.000000
10.687800 0.000000
10.700500 0.000000
10.713300 0.000000
e
