set title 'mp-1018888 - Density of States'
set xlabel 'Energy (eV)'
set ylabel 'DOS (states/eV)'
set grid
set xrange [-10:10]
set yrange [0:60.151]
set xzeroaxis lt -1
set terminal png size 800,600
set output 'mp-1018888_dos_gnuplot.png'
plot '-' using 1:2 with lines title 'DOS'
-17.169600 0.000000
-17.152900 0.000000
-17.136200 0.000000
-17.119500 0.000000
-17.102800 0.000000
-17.086100 0.000000
-17.069400 0.000000
-17.052700 0.000000
-17.036000 0.000000
-17.019300 0.000000
-17.002500 0.000000
-16.985800 0.000000
-16.969100 0.000000
-16.952400 0.000000
-16.935700 0.000000
-16.919000 0.000000
-16.902300 0.000000
-16.885600 0.000000
-16.868900 0.000000
-16.852200 0.000000
-16.835500 0.000000
-16.818800 0.000000
-16.802100 0.000000
-16.785400 0.000000
-16.768700 0.000000
-16.752000 0.000000
-16.735300 0.000000
-16.718600 0.000000
-16.701900 0.000000
-16.685200 0.000000
-16.668500 0.000000
-16.651800 0.000000
-16.635100 0.000000
-16.618400 0.000000
-16.601700 0.000000
-16.585000 0.000000
-16.568300 0.000000
-16.551600 0.000000
-16.534900 0.000000
-16.518200 0.000000
-16.501500 0.000000
-16.484800 0.000000
-16.468100 0.000000
-16.451400 0.000000
-16.434700 0.000000
-16.418000 0.000000
-16.401300 0.000000
-16.384600 0.000000
-16.367900 0.000000
-16.351200 0.000000
-16.334400 0.000000
-16.317700 0.000000
-16.301000 0.000000
-16.284300 0.000000
-16.267600 0.000000
-16.250900 0.000000
-16.234200 0.000000
-16.217500 0.000000
-16.200800 0.000000
-16.184100 0.000000
-16.167400 0.000000
-16.150700 0.000000
-16.134000 0.000000
-16.117300 0.000000
-16.100600 0.000000
-16.083900 0.000000
-16.067200 0.000000
-16.050500 0.000000
-16.033800 0.000000
-16.017100 0.000000
-16.000400 0.000000
-15.983700 0.000000
-15.967000 0.000000
-15.950300 0.000000
-15.933600 0.000000
-15.916900 0.000000
-15.900200 0.000000
-15.883500 0.000000
-15.866800 0.000000
-15.850100 0.000000
-15.833400 0.000000
-15.816700 0.000000
-15.800000 0.000000
-15.783300 0.000000
-15.766600 0.000000
-15.749900 0.000000
-15.733200 0.000000
-15.716500 0.000000
-15.699800 0.000000
-15.683100 0.000000
-15.666300 0.000000
-15.649600 23.001600
-15.632900 4.198300
-15.616200 4.389700
-15.599500 4.946000
-15.582800 3.392500
-15.566100 21.193400
-15.549400 6.870700
-15.532700 6.871400
-15.516000 6.872200
-15.499300 6.653100
-15.482600 6.411400
-15.465900 6.187700
-15.449200 5.979800
-15.432500 5.383200
-15.415800 4.559200
-15.399100 4.548800
-15.382400 4.549000
-15.365700 4.549300
-15.349000 4.549500
-15.332300 4.549700
-15.315600 4.550000
-15.298900 4.550200
-15.282200 4.550400
-15.265500 4.737000
-15.248800 4.891400
-15.232100 5.038100
-15.215400 5.523100
-15.198700 6.078700
-15.182000 6.079500
-15.165300 6.080400
-15.148600 6.081200
-15.131900 6.082100
-15.115200 6.083000
-15.098500 6.083900
-15.081800 9.378600
-15.065100 7.661100
-15.048400 19.846500
-15.031700 38.058800
-15.015000 40.920100
-14.998200 28.056200
-14.981500 24.269600
-14.964800 47.170000
-14.948100 0.000000
-14.931400 0.000000
-14.914700 0.000000
-14.898000 0.000000
-14.881300 0.000000
-14.864600 0.000000
-14.847900 0.000000
-14.831200 0.000000
-14.814500 0.000000
-14.797800 0.000000
-14.781100 0.000000
-14.764400 0.000000
-14.747700 0.000000
-14.731000 0.000000
-14.714300 0.000000
-14.697600 0.000000
-14.680900 0.000000
-14.664200 0.000000
-14.647500 0.000000
-14.630800 0.000000
-14.614100 0.000000
-14.597400 0.000000
-14.580700 0.000000
-14.564000 0.000000
-14.547300 0.000000
-14.530600 0.000000
-14.513900 0.000000
-14.497200 0.000000
-14.480500 0.000000
-14.463800 0.000000
-14.447100 0.000000
-14.430400 0.000000
-14.413700 0.000000
-14.397000 0.000000
-14.380300 0.000000
-14.363600 0.000000
-14.346900 0.000000
-14.330100 0.000000
-14.313400 0.000000
-14.296700 0.000000
-14.280000 0.000000
-14.263300 0.000000
-14.246600 0.000000
-14.229900 0.000000
-14.213200 0.000000
-14.196500 0.000000
-14.179800 0.000000
-14.163100 0.000000
-14.146400 0.000000
-14.129700 0.000000
-14.113000 0.000000
-14.096300 0.000000
-14.079600 0.000000
-14.062900 0.000000
-14.046200 0.000000
-14.029500 0.000000
-14.012800 0.000000
-13.996100 0.000000
-13.979400 0.000000
-13.962700 0.000000
-13.946000 0.000000
-13.929300 0.000000
-13.912600 0.000000
-13.895900 0.000000
-13.879200 0.000000
-13.862500 0.000000
-13.845800 0.000000
-13.829100 0.000000
-13.812400 0.000000
-13.795700 0.000000
-13.779000 0.000000
-13.762300 0.000000
-13.745600 0.000000
-13.728900 0.000000
-13.712200 0.000000
-13.695500 0.000000
-13.678800 0.000000
-13.662000 0.000000
-13.645300 0.000000
-13.628600 0.000000
-13.611900 0.000000
-13.595200 0.000000
-13.578500 0.000000
-13.561800 0.000000
-13.545100 0.000000
-13.528400 0.000000
-13.511700 0.000000
-13.495000 0.000000
-13.478300 0.000000
-13.461600 0.000000
-13.444900 0.000000
-13.428200 0.000000
-13.411500 0.000000
-13.394800 0.000000
-13.378100 0.000000
-13.361400 0.000000
-13.344700 0.000000
-13.328000 0.000000
-13.311300 0.000000
-13.294600 0.000000
-13.277900 0.000000
-13.261200 0.000000
-13.244500 0.000000
-13.227800 0.000000
-13.211100 0.000000
-13.194400 0.000000
-13.177700 0.000000
-13.161000 0.000000
-13.144300 0.000000
-13.127600 0.000000
-13.110900 0.000000
-13.094200 0.000000
-13.077500 0.000000
-13.060800 0.000000
-13.044100 0.000000
-13.027400 0.000000
-13.010700 0.000000
-12.993900 0.000000
-12.977200 0.000000
-12.960500 0.000000
-12.943800 0.000000
-12.927100 0.000000
-12.910400 0.000000
-12.893700 0.000000
-12.877000 0.000000
-12.860300 0.000000
-12.843600 0.000000
-12.826900 0.000000
-12.810200 0.000000
-12.793500 0.000000
-12.776800 0.000000
-12.760100 0.000000
-12.743400 0.000000
-12.726700 0.000000
-12.710000 0.000000
-12.693300 0.000000
-12.676600 0.000000
-12.659900 0.000000
-12.643200 0.000000
-12.626500 0.000000
-12.609800 0.000000
-12.593100 0.000000
-12.576400 0.000000
-12.559700 0.000000
-12.543000 0.000000
-12.526300 0.000000
-12.509600 0.000000
-12.492900 0.000000
-12.476200 0.000000
-12.459500 0.000000
-12.442800 0.000000
-12.426100 0.000000
-12.409400 0.000000
-12.392700 0.000000
-12.376000 0.000000
-12.359300 0.000000
-12.342600 0.000000
-12.325800 0.000000
-12.309100 0.000000
-12.292400 0.000000
-12.275700 0.000000
-12.259000 0.000000
-12.242300 0.000000
-12.225600 0.000000
-12.208900 0.000000
-12.192200 0.000000
-12.175500 0.000000
-12.158800 0.000000
-12.142100 0.000000
-12.125400 0.000000
-12.108700 0.000000
-12.092000 0.000000
-12.075300 0.000000
-12.058600 0.000000
-12.041900 0.000000
-12.025200 0.000000
-12.008500 0.000000
-11.991800 0.000000
-11.975100 0.000000
-11.958400 0.000000
-11.941700 0.000000
-11.925000 0.000000
-11.908300 0.000000
-11.891600 0.000000
-11.874900 0.000000
-11.858200 0.000000
-11.841500 0.000000
-11.824800 0.000000
-11.808100 0.000000
-11.791400 0.000000
-11.774700 0.000000
-11.758000 0.000000
-11.741300 0.000000
-11.724600 0.000000
-11.707900 0.000000
-11.691200 0.000000
-11.674500 0.000000
-11.657700 0.000000
-11.641000 0.000000
-11.624300 0.000000
-11.607600 0.000000
-11.590900 0.000000
-11.574200 0.000000
-11.557500 0.000000
-11.540800 0.000000
-11.524100 0.000000
-11.507400 0.000000
-11.490700 0.000000
-11.474000 0.000000
-11.457300 0.000000
-11.440600 0.000000
-11.423900 0.000000
-11.407200 0.000000
-11.390500 0.000000
-11.373800 0.000000
-11.357100 0.000000
-11.340400 0.000000
-11.323700 0.000000
-11.307000 0.000000
-11.290300 0.000000
-11.273600 0.000000
-11.256900 0.000000
-11.240200 0.000000
-11.223500 0.000000
-11.206800 0.000000
-11.190100 0.000000
-11.173400 0.000000
-11.156700 0.000000
-11.140000 0.000000
-11.123300 0.000000
-11.106600 0.000000
-11.089900 0.000000
-11.073200 0.000000
-11.056500 0.000000
-11.039800 0.000000
-11.023100 0.000000
-11.006400 0.000000
-10.989600 0.000000
-10.972900 0.000000
-10.956200 0.000000
-10.939500 0.000000
-10.922800 0.000000
-10.906100 0.000000
-10.889400 0.000000
-10.872700 0.000000
-10.856000 0.000000
-10.839300 0.000000
-10.822600 0.000000
-10.805900 0.000000
-10.789200 0.000000
-10.772500 0.000000
-10.755800 0.000000
-10.739100 0.000000
-10.722400 0.000000
-10.705700 0.000000
-10.689000 0.000000
-10.672300 0.000000
-10.655600 0.000000
-10.638900 0.000000
-10.622200 0.000000
-10.605500 0.000000
-10.588800 0.000000
-10.572100 0.000000
-10.555400 0.000000
-10.538700 0.000000
-10.522000 0.000000
-10.505300 0.000000
-10.488600 0.000000
-10.471900 0.000000
-10.455200 0.000000
-10.438500 0.000000
-10.421800 0.000000
-10.405100 0.000000
-10.388400 0.000000
-10.371700 0.000000
-10.355000 0.000000
-10.338300 0.000000
-10.321500 0.000000
-10.304800 0.000000
-10.288100 0.000000
-10.271400 0.000000
-10.254700 0.000000
-10.238000 0.000000
-10.221300 0.000000
-10.204600 0.000000
-10.187900 0.000000
-10.171200 0.000000
-10.154500 0.000000
-10.137800 0.000000
-10.121100 0.000000
-10.104400 0.000000
-10.087700 0.000000
-10.071000 0.000000
-10.054300 0.000000
-10.037600 0.000000
-10.020900 0.000000
-10.004200 0.000000
-9.987500 0.000000
-9.970800 0.000000
-9.954100 0.000000
-9.937400 0.000000
-9.920700 0.000000
-9.904000 0.000000
-9.887300 0.000000
-9.870600 0.000000
-9.853900 0.000000
-9.837200 0.000000
-9.820500 0.000000
-9.803800 0.000000
-9.787100 0.000000
-9.770400 0.000000
-9.753700 0.000000
-9.737000 0.000000
-9.720300 0.000000
-9.703600 0.000000
-9.686900 0.000000
-9.670200 0.000000
-9.653400 0.000000
-9.636700 0.000000
-9.620000 0.000000
-9.603300 0.000000
-9.586600 0.000000
-9.569900 0.000000
-9.553200 0.000000
-9.536500 0.000000
-9.519800 0.000000
-9.503100 0.000000
-9.486400 0.000000
-9.469700 0.000000
-9.453000 0.000000
-9.436300 0.000000
-9.419600 0.000000
-9.402900 0.000000
-9.386200 0.000000
-9.369500 0.000000
-9.352800 0.000000
-9.336100 0.000000
-9.319400 0.000000
-9.302700 0.000000
-9.286000 0.000000
-9.269300 0.000000
-9.252600 0.000000
-9.235900 0.000000
-9.219200 0.000000
-9.202500 0.000000
-9.185800 0.000000
-9.169100 0.000000
-9.152400 0.000000
-9.135700 0.000000
-9.119000 0.000000
-9.102300 0.000000
-9.085600 0.000000
-9.068900 0.000000
-9.052200 0.000000
-9.035500 0.000000
-9.018800 0.000000
-9.002100 0.000000
-8.985300 0.000000
-8.968600 0.000000
-8.951900 0.000000
-8.935200 0.000000
-8.918500 0.000000
-8.901800 0.000000
-8.885100 0.000000
-8.868400 0.000000
-8.851700 0.000000
-8.835000 0.000000
-8.818300 0.000000
-8.801600 0.000000
-8.784900 0.000000
-8.768200 0.000000
-8.751500 0.000000
-8.734800 0.000000
-8.718100 0.000000
-8.701400 0.000000
-8.684700 0.000000
-8.668000 0.000000
-8.651300 0.000000
-8.634600 0.000000
-8.617900 0.000000
-8.601200 0.000000
-8.584500 0.000000
-8.567800 0.000000
-8.551100 0.000000
-8.534400 0.000000
-8.517700 0.000000
-8.501000 0.000000
-8.484300 0.000000
-8.467600 0.000000
-8.450900 0.000000
-8.434200 0.000000
-8.417500 0.000000
-8.400800 0.000000
-8.384100 0.000000
-8.367400 0.000000
-8.350700 0.000000
-8.334000 0.000000
-8.317200 0.000000
-8.300500 0.000000
-8.283800 0.000000
-8.267100 0.000000
-8.250400 0.000000
-8.233700 0.000000
-8.217000 0.000000
-8.200300 0.000000
-8.183600 0.000000
-8.166900 0.000000
-8.150200 0.000000
-8.133500 0.000000
-8.116800 0.000000
-8.100100 0.000000
-8.083400 0.000000
-8.066700 0.000000
-8.050000 0.000000
-8.033300 0.000000
-8.016600 0.000000
-7.999900 0.000000
-7.983200 0.000000
-7.966500 0.000000
-7.949800 0.000000
-7.933100 0.000000
-7.916400 0.000000
-7.899700 0.000000
-7.883000 0.000000
-7.866300 0.000000
-7.849600 0.000000
-7.832900 0.000000
-7.816200 0.000000
-7.799500 0.000000
-7.782800 0.000000
-7.766100 0.000000
-7.749400 0.000000
-7.732700 0.000000
-7.716000 0.000000
-7.699300 0.000000
-7.682600 0.000000
-7.665900 0.000000
-7.649100 0.000000
-7.632400 0.000000
-7.615700 0.000000
-7.599000 0.000000
-7.582300 0.000000
-7.565600 0.000000
-7.548900 0.000000
-7.532200 0.000000
-7.515500 0.000000
-7.498800 0.000000
-7.482100 0.000000
-7.465400 0.000000
-7.448700 0.000000
-7.432000 0.000000
-7.415300 0.000000
-7.398600 0.000000
-7.381900 0.000000
-7.365200 0.000000
-7.348500 0.000000
-7.331800 0.000000
-7.315100 0.000000
-7.298400 0.000000
-7.281700 0.000000
-7.265000 0.000000
-7.248300 0.000000
-7.231600 0.000000
-7.214900 0.000000
-7.198200 0.000000
-7.181500 0.000000
-7.164800 0.000000
-7.148100 0.000000
-7.131400 0.000000
-7.114700 0.000000
-7.098000 0.000000
-7.081300 0.000000
-7.064600 0.000000
-7.047900 0.000000
-7.031200 0.000000
-7.014500 0.000000
-6.997800 0.000000
-6.981000 0.000000
-6.964300 0.000000
-6.947600 0.000000
-6.930900 0.000000
-6.914200 0.000000
-6.897500 0.000000
-6.880800 0.000000
-6.864100 0.000000
-6.847400 0.000000
-6.830700 0.000000
-6.814000 0.000000
-6.797300 0.000000
-6.780600 0.000000
-6.763900 0.000000
-6.747200 0.000000
-6.730500 0.000000
-6.713800 0.000000
-6.697100 0.000000
-6.680400 0.000000
-6.663700 0.000000
-6.647000 0.000000
-6.630300 0.000000
-6.613600 0.000000
-6.596900 0.000000
-6.580200 0.000000
-6.563500 0.000000
-6.546800 0.000000
-6.530100 0.000000
-6.513400 0.000000
-6.496700 0.000000
-6.480000 0.000000
-6.463300 0.000000
-6.446600 0.000000
-6.429900 0.000000
-6.413200 0.000000
-6.396500 0.000000
-6.379800 0.000000
-6.363100 0.000000
-6.346400 0.000000
-6.329700 0.000000
-6.312900 0.000000
-6.296200 0.000000
-6.279500 0.000000
-6.262800 0.000000
-6.246100 0.000000
-6.229400 0.000000
-6.212700 0.000000
-6.196000 0.000000
-6.179300 0.000000
-6.162600 0.000000
-6.145900 0.000000
-6.129200 0.000000
-6.112500 0.000000
-6.095800 0.000000
-6.079100 0.000000
-6.062400 0.000000
-6.045700 0.000000
-6.029000 0.000000
-6.012300 0.000000
-5.995600 0.000000
-5.978900 0.000000
-5.962200 0.000000
-5.945500 0.000000
-5.928800 0.000000
-5.912100 0.000000
-5.895400 0.000000
-5.878700 0.000000
-5.862000 0.000000
-5.845300 0.000000
-5.828600 0.000000
-5.811900 0.000000
-5.795200 0.000000
-5.778500 0.000000
-5.761800 0.000000
-5.745100 0.000000
-5.728400 0.000000
-5.711700 2.733900
-5.695000 7.948200
-5.678300 6.481300
-5.661600 11.796800
-5.644800 9.806500
-5.628100 7.626100
-5.611400 3.793700
-5.594700 3.794200
-5.578000 3.794800
-5.561300 5.031700
-5.544600 6.606300
-5.527900 7.535300
-5.511200 7.714500
-5.494500 9.838500
-5.477800 10.798500
-5.461100 7.430500
-5.444400 7.453300
-5.427700 7.479400
-5.411000 7.508900
-5.394300 7.926500
-5.377600 7.364100
-5.360900 54.683100
-5.344200 12.579100
-5.327500 15.234800
-5.310800 15.140600
-5.294100 14.866200
-5.277400 14.385300
-5.260700 13.768800
-5.244000 11.808100
-5.227300 10.824600
-5.210600 10.144500
-5.193900 9.316500
-5.177200 8.653600
-5.160500 8.685300
-5.143800 8.872400
-5.127100 8.034600
-5.110400 7.240300
-5.093700 6.226300
-5.077000 5.938100
-5.060300 5.781900
-5.043600 5.615600
-5.026900 4.097300
-5.010200 2.837700
-4.993500 2.836800
-4.976700 2.835900
-4.960000 2.835000
-4.943300 2.834200
-4.926600 2.833400
-4.909900 2.832600
-4.893200 2.831900
-4.876500 2.831200
-4.859800 2.830500
-4.843100 2.829900
-4.826400 2.829300
-4.809700 2.828700
-4.793000 5.098800
-4.776300 4.271600
-4.759600 3.946900
-4.742900 4.446800
-4.726200 3.382700
-4.709500 2.424500
-4.692800 1.724000
-4.676100 2.284200
-4.659400 4.133300
-4.642700 5.339200
-4.626000 6.211800
-4.609300 7.543200
-4.592600 1.626000
-4.575900 1.749700
-4.559200 2.073800
-4.542500 2.425000
-4.525800 2.701400
-4.509100 3.042600
-4.492400 3.489100
-4.475700 3.489200
-4.459000 3.489400
-4.442300 3.489600
-4.425600 3.489800
-4.408900 3.490000
-4.392200 3.490200
-4.375500 3.490400
-4.358800 3.490600
-4.342100 3.490800
-4.325400 3.491000
-4.308600 3.491300
-4.291900 3.491500
-4.275200 3.491800
-4.258500 3.492100
-4.241800 3.492300
-4.225100 3.492600
-4.208400 3.492900
-4.191700 3.493200
-4.175000 3.493500
-4.158300 3.493800
-4.141600 3.494200
-4.124900 3.494500
-4.108200 5.758800
-4.091500 5.598300
-4.074800 8.700500
-4.058100 2.704700
-4.041400 2.772900
-4.024700 2.885700
-4.008000 11.086700
-3.991300 2.070800
-3.974600 28.751600
-3.957900 7.294000
-3.941200 4.165400
-3.924500 5.606900
-3.907800 5.715200
-3.891100 5.821100
-3.874400 5.924500
-3.857700 7.051100
-3.841000 7.708600
-3.824300 9.230200
-3.807600 13.776200
-3.790900 7.865700
-3.774200 7.964600
-3.757500 7.946400
-3.740800 7.893200
-3.724100 8.004100
-3.707400 7.968100
-3.690700 8.086700
-3.674000 12.938000
-3.657300 9.386200
-3.640600 9.409900
-3.623800 10.148900
-3.607100 10.169600
-3.590400 39.951500
-3.573700 10.089700
-3.557000 8.961700
-3.540300 7.415600
-3.523600 7.492200
-3.506900 7.508700
-3.490200 7.211300
-3.473500 7.931100
-3.456800 7.924600
-3.440100 8.520700
-3.423400 8.042900
-3.406700 8.256600
-3.390000 8.376200
-3.373300 12.752600
-3.356600 7.082000
-3.339900 6.440800
-3.323200 6.474900
-3.306500 6.654000
-3.289800 7.331700
-3.273100 7.730000
-3.256400 8.208100
-3.239700 8.719300
-3.223000 9.248900
-3.206300 9.814500
-3.189600 10.453600
-3.172900 14.320900
-3.156200 11.100800
-3.139500 7.689800
-3.122800 7.935600
-3.106100 8.174300
-3.089400 8.398000
-3.072700 10.671200
-3.056000 9.857500
-3.039300 4.963600
-3.022600 4.876200
-3.005900 4.889000
-2.989200 5.226500
-2.972500 19.738000
-2.955700 3.997400
-2.939000 6.321900
-2.922300 9.594600
-2.905600 6.106700
-2.888900 5.082900
-2.872200 9.663200
-2.855500 3.972900
-2.838800 4.174100
-2.822100 4.335800
-2.805400 4.496600
-2.788700 4.661000
-2.772000 4.828900
-2.755300 5.000400
-2.738600 5.613500
-2.721900 7.414100
-2.705200 9.375400
-2.688500 11.431500
-2.671800 13.811900
-2.655100 15.311400
-2.638400 12.431300
-2.621700 9.335900
-2.605000 5.845300
-2.588300 3.891000
-2.571600 3.983900
-2.554900 4.422800
-2.538200 5.693500
-2.521500 6.682000
-2.504800 6.949200
-2.488100 7.498200
-2.471400 7.252800
-2.454700 6.936700
-2.438000 17.012300
-2.421300 10.456100
-2.404600 6.126700
-2.387900 4.767500
-2.371200 3.520600
-2.354500 2.066600
-2.337800 1.108300
-2.321100 1.058800
-2.304400 1.009200
-2.287600 0.959500
-2.270900 0.909700
-2.254200 0.000000
-2.237500 0.000000
-2.220800 0.000000
-2.204100 0.000000
-2.187400 0.000000
-2.170700 0.000000
-2.154000 0.000000
-2.137300 0.000000
-2.120600 0.000000
-2.103900 0.000000
-2.087200 0.000000
-2.070500 0.000000
-2.053800 0.000000
-2.037100 0.000000
-2.020400 0.000000
-2.003700 0.000000
-1.987000 0.000000
-1.970300 0.000000
-1.953600 0.000000
-1.936900 7.424100
-1.920200 8.010500
-1.903500 1.226400
-1.886800 1.226300
-1.870100 49.179500
-1.853400 2.324900
-1.836700 2.324700
-1.820000 21.249200
-1.803300 3.985800
-1.786600 5.455600
-1.769900 5.455100
-1.753200 5.454700
-1.736500 5.454200
-1.719800 5.453800
-1.703100 5.453400
-1.686400 5.453000
-1.669700 5.452700
-1.653000 5.452300
-1.636300 5.452000
-1.619500 5.451700
-1.602800 5.451400
-1.586100 11.216600
-1.569400 6.432100
-1.552700 10.220100
-1.536000 21.202200
-1.519300 19.528200
-1.502600 13.382900
-1.485900 4.850600
-1.469200 4.555300
-1.452500 17.481300
-1.435800 23.662600
-1.419100 16.568700
-1.402400 10.157900
-1.385700 5.435400
-1.369000 5.434200
-1.352300 5.433100
-1.335600 5.432000
-1.318900 5.431000
-1.302200 5.429900
-1.285500 5.428900
-1.268800 5.427800
-1.252100 5.426800
-1.235400 5.425900
-1.218700 5.424900
-1.202000 5.424000
-1.185300 6.646400
-1.168600 7.027900
-1.151900 7.345500
-1.135200 9.163400
-1.118500 10.690200
-1.101800 11.359700
-1.085100 11.992100
-1.068400 10.714600
-1.051700 4.768500
-1.035000 3.642100
-1.018300 6.507700
-1.001600 6.016200
-0.984900 5.081600
-0.968200 4.396700
-0.951400 46.198200
-0.934700 7.454400
-0.918000 7.959700
-0.901300 8.465200
-0.884600 8.921600
-0.867900 9.311400
-0.851200 9.214300
-0.834500 9.369500
-0.817800 9.660300
-0.801100 12.231900
-0.784400 12.718300
-0.767700 11.985400
-0.751000 12.089800
-0.734300 10.979900
-0.717600 9.997100
-0.700900 10.894400
-0.684200 9.789500
-0.667500 12.020600
-0.650800 13.429800
-0.634100 11.762100
-0.617400 17.067900
-0.600700 25.811600
-0.584000 22.900900
-0.567300 21.910800
-0.550600 11.766700
-0.533900 10.766400
-0.517200 9.906000
-0.500500 9.918800
-0.483800 11.739200
-0.467100 13.759600
-0.450400 14.948300
-0.433700 19.861000
-0.417000 10.886500
-0.400300 9.013400
-0.383600 4.438900
-0.366900 11.396400
-0.350200 4.385400
-0.333500 2.439800
-0.316800 2.308500
-0.300100 0.000000
-0.283300 0.000000
-0.266600 0.000000
-0.249900 0.000000
-0.233200 0.000000
-0.216500 0.000000
-0.199800 0.000000
-0.183100 0.000000
-0.166400 0.000000
-0.149700 0.000000
-0.133000 0.000000
-0.116300 0.000000
-0.099600 0.000000
-0.082900 0.000000
-0.066200 0.000000
-0.049500 0.000000
-0.032800 0.000000
-0.016100 0.000000
0.000600 0.000000
0.017300 0.000000
0.034000 0.000000
0.050700 0.000000
0.067400 0.000000
0.084100 0.000000
0.100800 0.000000
0.117500 0.000000
0.134200 0.000000
0.150900 0.000000
0.167600 0.000000
0.184300 0.000000
0.201000 0.000000
0.217700 0.000000
0.234400 0.000000
0.251100 0.000000
0.267800 0.000000
0.284500 0.000000
0.301200 0.000000
0.317900 0.000000
0.334600 0.000000
0.351300 0.000000
0.368000 0.000000
0.384800 0.000000
0.401500 0.000000
0.418200 0.000000
0.434900 0.000000
0.451600 0.000000
0.468300 0.000000
0.485000 0.000000
0.501700 0.000000
0.518400 0.000000
0.535100 0.000000
0.551800 0.000000
0.568500 0.000000
0.585200 0.000000
0.601900 0.000000
0.618600 0.000000
0.635300 0.000000
0.652000 0.000000
0.668700 0.000000
0.685400 0.000000
0.702100 0.000000
0.718800 1.382300
0.735500 6.221200
0.752200 5.392900
0.768900 4.887900
0.785600 6.950600
0.802300 7.032700
0.819000 5.661900
0.835700 3.093000
0.852400 2.526000
0.869100 2.545700
0.885800 4.849900
0.902500 8.325000
0.919200 9.949800
0.935900 9.095400
0.952600 8.457300
0.969300 7.821700
0.986000 7.188400
1.002700 6.625400
1.019400 6.048400
1.036100 5.769500
1.052900 5.773700
1.069600 5.778100
1.086300 5.782500
1.103000 5.787100
1.119700 12.704300
1.136400 11.114200
1.153100 8.940100
1.169800 4.412100
1.186500 4.415800
1.203200 11.468800
1.219900 20.748300
1.236600 7.335300
1.253300 7.888200
1.270000 34.292500
1.286700 0.000000
1.303400 0.000000
1.320100 0.000000
1.336800 0.000000
1.353500 0.000000
1.370200 0.000000
1.386900 0.000000
1.403600 0.000000
1.420300 0.000000
1.437000 0.000000
1.453700 0.000000
1.470400 0.000000
1.487100 0.000000
1.503800 0.000000
1.520500 0.000000
1.537200 0.000000
1.553900 0.000000
1.570600 0.000000
1.587300 0.000000
1.604000 0.000000
1.620700 0.000000
1.637400 0.000000
1.654100 0.000000
1.670800 0.000000
1.687500 0.000000
1.704200 0.000000
1.721000 0.000000
1.737700 0.000000
1.754400 0.000000
1.771100 0.000000
1.787800 0.000000
1.804500 0.000000
1.821200 0.000000
1.837900 0.000000
1.854600 0.000000
1.871300 0.000000
1.888000 0.000000
1.904700 0.000000
1.921400 0.000000
1.938100 0.000000
1.954800 0.000000
1.971500 0.000000
1.988200 0.000000
2.004900 0.000000
2.021600 0.000000
2.038300 0.000000
2.055000 0.000000
2.071700 0.000000
2.088400 0.000000
2.105100 0.000000
2.121800 0.000000
2.138500 0.000000
2.155200 0.000000
2.171900 0.000000
2.188600 0.000000
2.205300 0.000000
2.222000 0.000000
2.238700 0.000000
2.255400 0.000000
2.272100 0.000000
2.288800 0.000000
2.305500 0.000000
2.322200 0.000000
2.338900 0.000000
2.355600 0.000000
2.372300 0.000000
2.389100 0.000000
2.405800 0.000000
2.422500 0.000000
2.439200 0.000000
2.455900 0.000000
2.472600 0.000000
2.489300 0.000000
2.506000 0.000000
2.522700 0.000000
2.539400 0.000000
2.556100 0.000000
2.572800 0.000000
2.589500 0.000000
2.606200 0.000000
2.622900 0.000000
2.639600 0.000000
2.656300 0.000000
2.673000 0.000000
2.689700 0.000000
2.706400 0.000000
2.723100 0.000000
2.739800 0.000000
2.756500 0.000000
2.773200 0.000000
2.789900 0.000000
2.806600 0.000000
2.823300 0.000000
2.840000 0.000000
2.856700 0.000000
2.873400 0.000000
2.890100 0.000000
2.906800 0.000000
2.923500 0.000000
2.940200 0.000000
2.956900 0.000000
2.973600 0.000000
2.990300 0.000000
3.007000 0.000000
3.023700 0.000000
3.040400 0.000000
3.057200 0.000000
3.073900 0.000000
3.090600 0.000000
3.107300 0.000000
3.124000 0.000000
3.140700 0.000000
3.157400 0.000000
3.174100 0.000000
3.190800 0.000000
3.207500 0.000000
3.224200 0.000000
3.240900 0.000000
3.257600 0.000000
3.274300 0.000000
3.291000 0.000000
3.307700 0.000000
3.324400 0.000000
3.341100 0.000000
3.357800 0.000000
3.374500 0.000000
3.391200 0.000000
3.407900 0.000000
3.424600 0.000000
3.441300 0.000000
3.458000 0.000000
3.474700 0.000000
3.491400 0.000000
3.508100 0.000000
3.524800 0.000000
3.541500 0.000000
3.558200 0.000000
3.574900 0.000000
3.591600 0.000000
3.608300 0.000000
3.625000 0.000000
3.641700 0.000000
3.658400 0.000000
3.675100 0.000000
3.691800 0.000000
3.708500 0.000000
3.725300 0.000000
3.742000 0.000000
3.758700 0.000000
3.775400 0.000000
3.792100 0.000000
3.808800 0.000000
3.825500 0.000000
3.842200 0.000000
3.858900 0.000000
3.875600 0.000000
3.892300 0.000000
3.909000 0.000000
3.925700 0.000000
3.942400 0.000000
3.959100 0.000000
3.975800 0.000000
3.992500 0.000000
4.009200 0.000000
4.025900 0.000000
4.042600 0.000000
4.059300 0.000000
4.076000 0.000000
4.092700 0.000000
4.109400 0.000000
4.126100 0.000000
4.142800 0.000000
4.159500 0.000000
4.176200 0.000000
4.192900 0.000000
4.209600 0.000000
4.226300 0.000000
4.243000 0.000000
4.259700 0.000000
4.276400 0.000000
4.293100 0.000000
4.309800 0.000000
4.326500 0.000000
4.343200 0.000000
4.359900 0.000000
4.376600 0.296600
4.393400 0.305800
4.410100 0.315100
4.426800 0.324300
4.443500 0.333500
4.460200 0.342700
4.476900 0.352000
4.493600 0.361200
4.510300 0.370400
4.527000 0.379600
4.543700 0.388800
4.560400 0.398100
4.577100 0.407300
4.593800 0.416500
4.610500 0.425700
4.627200 0.434900
4.643900 0.444200
4.660600 0.453400
4.677300 0.462600
4.694000 0.471800
4.710700 0.481100
4.727400 0.490300
4.744100 0.499500
4.760800 0.508700
4.777500 0.517900
4.794200 0.527200
4.810900 0.536400
4.827600 0.545600
4.844300 0.554800
4.861000 0.612000
4.877700 0.636200
4.894400 0.660400
4.911100 0.684600
4.927800 0.708900
4.944500 0.733100
4.961200 0.757300
4.977900 0.781500
4.994600 0.805800
5.011300 0.830000
5.028000 0.854300
5.044700 0.878500
5.061500 0.902800
5.078200 0.933700
5.094900 0.956300
5.111600 2.140400
5.128300 2.474000
5.145000 3.580600
5.161700 2.593200
5.178400 4.128100
5.195100 4.447300
5.211800 3.340400
5.228500 3.467200
5.245200 7.137900
5.261900 4.335000
5.278600 4.552300
5.295300 4.729300
5.312000 6.188500
5.328700 7.122400
5.345400 6.358900
5.362100 3.435500
5.378800 3.424200
5.395500 3.412800
5.412200 3.401500
5.428900 3.390100
5.445600 3.378700
5.462300 3.367400
5.479000 3.356000
5.495700 3.344600
5.512400 3.333200
5.529100 3.324600
5.545800 3.385200
5.562500 3.629500
5.579200 4.582700
5.595900 5.097900
5.612600 5.274900
5.629300 5.402100
5.646000 5.530600
5.662700 5.665700
5.679400 5.815100
5.696100 11.555200
5.712800 6.672300
5.729600 4.283800
5.746300 4.195900
5.763000 4.108400
5.779700 4.021200
5.796400 2.705400
5.813100 2.475900
5.829800 2.256400
5.846500 2.086500
5.863200 1.978500
5.879900 1.877000
5.896600 1.777800
5.913300 2.415100
5.930000 2.651600
5.946700 2.294100
5.963400 1.951200
5.980100 0.000000
5.996800 0.865500
6.013500 0.987800
6.030200 1.116800
6.046900 0.385600
6.063600 1.741200
6.080300 1.984200
6.097000 0.886000
6.113700 0.919300
6.130400 0.952400
6.147100 0.985600
6.163800 1.018600
6.180500 1.051700
6.197200 1.451100
6.213900 1.544400
6.230600 1.641500
6.247300 1.742400
6.264000 1.847200
6.280700 1.955900
6.297400 2.068400
6.314100 1.811400
6.330800 1.865800
6.347500 1.917800
6.364200 1.959600
6.380900 2.002700
6.397700 2.047000
6.414400 2.092400
6.431100 2.132800
6.447800 2.205600
6.464500 2.279600
6.481200 2.369000
6.497900 2.460300
6.514600 2.553100
6.531300 4.707400
6.548000 3.382700
6.564700 3.089700
6.581400 3.654200
6.598100 4.867700
6.614800 5.241800
6.631500 5.639500
6.648200 4.955500
6.664900 5.167200
6.681600 5.382900
6.698300 5.178600
6.715000 5.307500
6.731700 5.365600
6.748400 5.469800
6.765100 5.741500
6.781800 6.164800
6.798500 4.885300
6.815200 3.976000
6.831900 3.451300
6.848600 3.281500
6.865300 3.319400
6.882000 3.292600
6.898700 3.165400
6.915400 2.993800
6.932100 3.099700
6.948800 2.915500
6.965500 2.764300
6.982200 2.627500
6.998900 2.505100
7.015600 2.466800
7.032300 2.569600
7.049000 2.792400
7.065800 2.872000
7.082500 3.496400
7.099200 3.163200
7.115900 2.686400
7.132600 2.355700
7.149300 3.460600
7.166000 3.673600
7.182700 3.909700
7.199400 3.920100
7.216100 3.789700
7.232800 3.654000
7.249500 3.524100
7.266200 3.108200
7.282900 2.965500
7.299600 2.558700
7.316300 2.161300
7.333000 1.825000
7.349700 1.505200
7.366400 1.199500
7.383100 0.907900
7.399800 0.731000
7.416500 0.728100
7.433200 0.443700
7.449900 0.472400
7.466600 0.501300
7.483300 0.530200
7.500000 0.559300
7.516700 0.588500
7.533400 0.617800
7.550100 0.647200
7.566800 0.676800
7.583500 0.706500
7.600200 0.736200
7.616900 0.766100
7.633600 0.796200
7.650300 0.826300
7.667000 1.037700
7.683700 1.068900
7.700400 1.098400
7.717100 1.492500
7.733900 2.336900
7.750600 3.575200
7.767300 3.986200
7.784000 4.335100
7.800700 4.573100
7.817400 4.495000
7.834100 4.246700
7.850800 4.025400
7.867500 3.832100
7.884200 3.666900
7.900900 3.343600
7.917600 3.228200
7.934300 3.097600
7.951000 2.940700
7.967700 2.759000
7.984400 2.609600
8.001100 3.048900
8.017800 3.027100
8.034500 5.250000
8.051200 4.974700
8.067900 5.190500
8.084600 5.505500
8.101300 5.830800
8.118000 6.166400
8.134700 6.264100
8.151400 5.930700
8.168100 5.771300
8.184800 4.649500
8.201500 4.326100
8.218200 5.258100
8.234900 5.220900
8.251600 5.451700
8.268300 5.713500
8.285000 5.219000
8.301700 5.508100
8.318400 6.223700
8.335100 6.375300
8.351800 6.554800
8.368500 7.799200
8.385200 7.074900
8.402000 5.664300
8.418700 4.400300
8.435400 2.931600
8.452100 1.921400
8.468800 1.507300
8.485500 1.161400
8.502200 1.034400
8.518900 1.189300
8.535600 1.366400
8.552300 1.591200
8.569000 1.945000
8.585700 3.918700
8.602400 4.412100
8.619100 3.646700
8.635800 3.890300
8.652500 4.153500
8.669200 4.436400
8.685900 5.329700
8.702600 5.514000
8.719300 5.245700
8.736000 4.889400
8.752700 4.069200
8.769400 4.161600
8.786100 4.529000
8.802800 4.745000
8.819500 4.777100
8.836200 4.855300
8.852900 5.045100
8.869600 7.438600
8.886300 6.547400
8.903000 5.620900
8.919700 6.215600
8.936400 6.757300
8.953100 6.535300
8.969800 6.040600
8.986500 5.598500
9.003200 4.903100
9.019900 4.576800
9.036600 4.322400
9.053300 4.139800
9.070100 3.957700
9.086800 6.160200
9.103500 4.653000
9.120200 6.560400
9.136900 5.971200
9.153600 3.915800
9.170300 4.074400
9.187000 4.405900
9.203700 4.900200
9.220400 6.154100
9.237100 13.202700
9.253800 7.556400
9.270500 6.881900
9.287200 6.170700
9.303900 5.422800
9.320600 4.917200
9.337300 4.061600
9.354000 4.042700
9.370700 4.907100
9.387400 6.215900
9.404100 4.058500
9.420800 4.996300
9.437500 3.136500
9.454200 3.090900
9.470900 3.023800
9.487600 2.935200
9.504300 5.775400
9.521000 6.028000
9.537700 6.222200
9.554400 5.438500
9.571100 5.429600
9.587800 5.349400
9.604500 5.263400
9.621200 5.182900
9.637900 5.252600
9.654600 4.986600
9.671300 4.946500
9.688000 4.859400
9.704700 4.712700
9.721400 4.999300
9.738200 5.518200
9.754900 5.755700
9.771600 5.783200
9.788300 5.637100
9.805000 6.334600
9.821700 6.183100
9.838400 5.987000
9.855100 5.746200
9.871800 4.921400
9.888500 4.891200
9.905200 5.246400
9.921900 4.426800
9.938600 4.323200
9.955300 4.389800
9.972000 4.704400
9.988700 5.152300
10.005400 6.027500
10.022100 6.273800
10.038800 6.338000
10.055500 5.677900
10.072200 5.166600
10.088900 5.103000
10.105600 4.799100
10.122300 4.478000
10.139000 4.195900
10.155700 3.952800
10.172400 3.479300
10.189100 3.255300
10.205800 3.095700
10.222500 2.968900
10.239200 2.955500
10.255900 3.250500
10.272600 3.703500
10.289300 4.344400
10.306000 6.167600
10.322700 6.560700
10.339400 6.868600
10.356100 7.015500
10.372800 7.151900
10.389500 7.416700
10.406300 7.914000
10.423000 8.530900
10.439700 7.636100
10.456400 6.443000
10.473100 6.049800
10.489800 5.681100
10.506500 5.304500
10.523200 6.060000
10.539900 6.267100
10.556600 6.661300
10.573300 6.088800
10.590000 5.951500
10.606700 6.093700
10.623400 6.191900
10.640100 5.705600
10.656800 5.637000
10.673500 5.602900
10.690200 5.547300
10.706900 5.485200
10.723600 6.401800
10.740300 6.776500
10.757000 7.287300
10.773700 6.807000
10.790400 7.313800
10.807100 7.389900
10.823800 8.011900
10.840500 7.696700
10.857200 7.744600
10.873900 7.299800
10.890600 7.377100
10.907300 6.822900
10.924000 6.323500
10.940700 6.172500
10.957400 5.805500
10.974100 5.060400
10.990800 4.687300
11.007500 4.672400
11.024200 4.730200
11.040900 5.166000
11.057600 6.041000
11.074400 6.320300
11.091100 6.308000
11.107800 6.060300
11.124500 5.784500
11.141200 5.805900
11.157900 6.204500
11.174600 6.319900
11.191300 6.307800
11.208000 6.586000
11.224700 6.905600
11.241400 7.917600
11.258100 8.380600
11.274800 8.412000
11.291500 8.129400
11.308200 8.987600
11.324900 12.388300
11.341600 9.551400
11.358300 9.525800
11.375000 7.219100
11.391700 7.286300
11.408400 7.297000
11.425100 6.998900
11.441800 6.158600
11.458500 6.961100
11.475200 6.855300
11.491900 6.791900
11.508600 5.600300
11.525300 5.585900
11.542000 5.868200
11.558700 5.737800
11.575400 5.437100
11.592100 5.308600
11.608800 5.209200
11.625500 5.139000
11.642200 5.096600
11.658900 5.079100
11.675600 5.118500
11.692300 5.239900
11.709000 6.365100
11.725700 7.397900
11.742500 7.741000
11.759200 7.935800
11.775900 7.540800
11.792600 8.698100
11.809300 8.478300
11.826000 7.118700
11.842700 7.093200
11.859400 6.998500
11.876100 7.083000
11.892800 7.148000
11.909500 7.203900
11.926200 7.956400
11.942900 7.544800
11.959600 8.413800
11.976300 6.303700
11.993000 5.987100
12.009700 5.682200
12.026400 5.418200
12.043100 5.315900
12.059800 5.565100
12.076500 5.505700
12.093200 5.626500
12.109900 5.480600
12.126600 5.374100
12.143300 5.349200
12.160000 6.054700
12.176700 5.845100
12.193400 5.630300
12.210100 5.425400
12.226800 5.326200
12.243500 5.060600
12.260200 4.802400
12.276900 4.553100
12.293600 3.653500
12.310300 4.535000
12.327000 6.330200
12.343700 7.024100
12.360400 4.993200
12.377100 4.315600
12.393800 4.318700
12.410600 4.323900
12.427300 4.331200
12.444000 4.341600
12.460700 4.007800
12.477400 4.705000
12.494100 4.575400
12.510800 4.458800
12.527500 3.622100
12.544200 3.652500
12.560900 3.690200
12.577600 3.736000
12.594300 3.812300
12.611000 3.878100
12.627700 3.939400
12.644400 4.017200
12.661100 4.111500
12.677800 4.178000
12.694500 3.897600
12.711200 3.871000
12.727900 4.042500
12.744600 4.695100
12.761300 4.541700
12.778000 4.371400
12.794700 4.186800
12.811400 3.992000
12.828100 3.348200
12.844800 3.745700
12.861500 4.305600
12.878200 4.427400
12.894900 7.410900
12.911600 6.865300
12.928300 6.346600
12.945000 5.880700
12.961700 5.640200
12.978400 5.566700
12.995100 5.561800
13.011800 5.799600
13.028500 5.660400
13.045200 5.508300
13.061900 5.343500
13.078700 5.166900
13.095400 4.997200
13.112100 4.835300
13.128800 4.709900
13.145500 4.627200
13.162200 4.424600
13.178900 4.411500
13.195600 5.035200
13.212300 5.771100
13.229000 6.364000
13.245700 6.121800
13.262400 5.624500
13.279100 5.720100
13.295800 5.810300
13.312500 5.894900
13.329200 5.511300
13.345900 5.105700
13.362600 5.086700
13.379300 5.025400
13.396000 4.943900
13.412700 4.850700
13.429400 4.745900
13.446100 4.629400
13.462800 4.820100
13.479500 5.034200
13.496200 5.747300
13.512900 5.613300
13.529600 5.486300
13.546300 4.958300
13.563000 4.437700
13.579700 3.756700
13.596400 3.739200
13.613100 3.712800
13.629800 3.658000
13.646500 3.629900
13.663200 4.496600
13.679900 4.352100
13.696600 4.214800
13.713300 3.078600
13.730000 3.111800
13.746800 3.587000
13.763500 3.602800
13.780200 3.630600
13.796900 3.685600
13.813600 5.158900
13.830300 6.368000
13.847000 7.878100
13.863700 9.009600
13.880400 9.310000
13.897100 8.557400
13.913800 6.638900
13.930500 4.822300
13.947200 4.089300
13.963900 3.827400
13.980600 3.794100
13.997300 3.768700
14.014000 3.803500
14.030700 4.045300
14.047400 4.383300
14.064100 4.787500
14.080800 5.257800
14.097500 7.447700
14.114200 9.298100
14.130900 10.113100
14.147600 6.515300
14.164300 6.303800
14.181000 6.065800
14.197700 7.335400
14.214400 6.417900
14.231100 4.324000
14.247800 4.065000
14.264500 3.781900
14.281200 3.468800
14.297900 3.136100
14.314600 2.822000
14.331300 2.533600
14.348000 2.131100
14.364700 1.724300
14.381400 1.401100
14.398100 1.183900
14.414900 1.075700
14.431600 1.009100
14.448300 0.943700
14.465000 1.146400
14.481700 1.826500
14.498400 1.522600
14.515100 0.895400
14.531800 0.521700
14.548500 0.410500
14.565200 0.371700
14.581900 0.337100
14.598600 0.306600
14.615300 0.280300
14.632000 0.255400
14.648700 0.222900
14.665400 0.181700
14.682100 0.131900
14.698800 0.073500
14.715500 0.006500
14.732200 0.000000
14.748900 0.000000
14.765600 0.000000
14.782300 0.000000
14.799000 0.000000
14.815700 0.000000
14.832400 0.000000
14.849100 0.000000
14.865800 0.000000
14.882500 0.000000
14.899200 0.000000
14.915900 0.000000
14.932600 0.000000
14.949300 0.000000
14.966000 0.000000
14.982700 0.000000
14.999400 0.000000
15.016100 0.000000
15.032800 0.000000
15.049500 0.000000
15.066200 0.000000
15.083000 0.000000
15.099700 0.000000
15.116400 0.000000
15.133100 0.000000
15.149800 0.000000
15.166500 0.000000
15.183200 0.000000
15.199900 0.000000
15.216600 0.000000
15.233300 0.000000
15.250000 0.000000
15.266700 0.000000
15.283400 0.000000
15.300100 0.000000
15.316800 0.000000
15.333500 0.000000
15.350200 0.000000
15.366900 0.000000
15.383600 0.000000
15.400300 0.000000
15.417000 0.000000
15.433700 0.000000
15.450400 0.000000
15.467100 0.000000
15.483800 0.000000
15.500500 0.000000
15.517200 0.000000
15.533900 0.000000
15.550600 0.000000
15.567300 0.000000
15.584000 0.000000
15.600700 0.000000
15.617400 0.000000
15.634100 0.000000
15.650800 0.000000
15.667500 0.000000
15.684200 0.000000
15.700900 0.000000
15.717600 0.000000
15.734300 0.000000
15.751100 0.000000
15.767800 0.000000
15.784500 0.000000
15.801200 0.000000
15.817900 0.000000
15.834600 0.000000
15.851300 0.000000
15.868000 0.000000
15.884700 0.000000
15.901400 0.000000
15.918100 0.000000
15.934800 0.000000
15.951500 0.000000
15.968200 0.000000
15.984900 0.000000
16.001600 0.000000
16.018300 0.000000
16.035000 0.000000
16.051700 0.000000
16.068400 0.000000
16.085100 0.000000
16.101800 0.000000
16.118500 0.000000
16.135200 0.000000
16.151900 0.000000
16.168600 0.000000
16.185300 0.000000
16.202000 0.000000
16.218700 0.000000
16.235400 0.000000
e
