set title 'mp-873 - Density of States'
set xlabel 'Energy (eV)'
set ylabel 'DOS (states/eV)'
set grid
set xrange [-10:10]
set yrange [0:7.197]
set xzeroaxis lt -1
set terminal png size 800,600
set output 'mp-873_dos_gnuplot.png'
plot '-' using 1:2 with lines title 'DOS'
-37.569800 0.000000
-37.523200 0.000000
-37.476600 0.000000
-37.430000 0.000000
-37.383400 0.000000
-37.336800 0.000000
-37.290200 0.000000
-37.243700 0.000000
-37.197100 0.000000
-37.150500 0.000000
-37.103900 0.000000
-37.057300 0.000000
-37.010700 0.000000
-36.964100 0.000000
-36.917500 0.000000
-36.870900 0.000000
-36.824300 0.000000
-36.777700 0.000000
-36.731100 0.000000
-36.684500 0.000000
-36.638000 0.000000
-36.591400 0.000000
-36.544800 0.000000
-36.498200 0.000000
-36.451600 0.000000
-36.405000 0.000000
-36.358400 0.000000
-36.311800 0.000000
-36.265200 0.000000
-36.218600 0.000000
-36.172000 0.000000
-36.125400 0.000000
-36.078900 0.000000
-36.032300 0.000000
-35.985700 0.000000
-35.939100 0.000000
-35.892500 0.000000
-35.845900 0.000000
-35.799300 0.000000
-35.752700 0.000000
-35.706100 0.000000
-35.659500 0.000000
-35.612900 0.000000
-35.566300 0.000000
-35.519800 0.000000
-35.473200 0.000000
-35.426600 0.000000
-35.380000 0.000000
-35.333400 0.000000
-35.286800 0.000000
-35.240200 0.000000
-35.193600 0.000000
-35.147000 0.000000
-35.100400 0.000000
-35.053800 0.000000
-35.007200 0.000000
-34.960700 0.000000
-34.914100 0.000000
-34.867500 0.000000
-34.820900 0.000000
-34.774300 0.000000
-34.727700 0.000000
-34.681100 0.000000
-34.634500 0.000000
-34.587900 0.000000
-34.541300 0.000000
-34.494700 0.000000
-34.448100 0.000000
-34.401500 0.000000
-34.355000 0.000000
-34.308400 0.000000
-34.261800 0.000000
-34.215200 0.000000
-34.168600 0.000000
-34.122000 0.000000
-34.075400 0.000000
-34.028800 0.000000
-33.982200 0.000000
-33.935600 0.000000
-33.889000 0.000000
-33.842400 0.000000
-33.795900 0.000000
-33.749300 0.000000
-33.702700 0.000000
-33.656100 0.000000
-33.609500 0.000000
-33.562900 0.000000
-33.516300 0.000000
-33.469700 0.000400
-33.423100 0.070600
-33.376500 2.413400
-33.329900 17.879500
-33.283300 30.524700
-33.236800 12.326700
-33.190200 1.150000
-33.143600 0.023500
-33.097000 0.000100
-33.050400 0.000000
-33.003800 0.000000
-32.957200 0.000000
-32.910600 0.000000
-32.864000 0.000000
-32.817400 0.000000
-32.770800 0.000000
-32.724200 0.000000
-32.677700 0.000000
-32.631100 0.000000
-32.584500 0.000000
-32.537900 0.000000
-32.491300 0.000000
-32.444700 0.000000
-32.398100 0.000000
-32.351500 0.000000
-32.304900 0.000000
-32.258300 0.000000
-32.211700 0.000000
-32.165100 0.000000
-32.118600 0.000000
-32.072000 0.000000
-32.025400 0.000000
-31.978800 0.000000
-31.932200 0.000000
-31.885600 0.000000
-31.839000 0.000000
-31.792400 0.000000
-31.745800 0.000000
-31.699200 0.000000
-31.652600 0.000000
-31.606000 0.000000
-31.559400 0.000000
-31.512900 0.000000
-31.466300 0.000000
-31.419700 0.000000
-31.373100 0.000000
-31.326500 0.000000
-31.279900 0.000000
-31.233300 0.000000
-31.186700 0.000000
-31.140100 0.000000
-31.093500 0.000000
-31.046900 0.000000
-31.000300 0.000000
-30.953800 0.000000
-30.907200 0.000000
-30.860600 0.000000
-30.814000 0.000000
-30.767400 0.000000
-30.720800 0.000000
-30.674200 0.000000
-30.627600 0.000000
-30.581000 0.000000
-30.534400 0.000000
-30.487800 0.000000
-30.441200 0.000000
-30.394700 0.000000
-30.348100 0.000000
-30.301500 0.000000
-30.254900 0.000000
-30.208300 0.000000
-30.161700 0.000000
-30.115100 0.000000
-30.068500 0.000000
-30.021900 0.000000
-29.975300 0.000000
-29.928700 0.000000
-29.882100 0.000000
-29.835600 0.000000
-29.789000 0.000000
-29.742400 0.000000
-29.695800 0.000000
-29.649200 0.000000
-29.602600 0.000000
-29.556000 0.000000
-29.509400 0.000000
-29.462800 0.000000
-29.416200 0.000000
-29.369600 0.000000
-29.323000 0.000000
-29.276500 0.000000
-29.229900 0.000000
-29.183300 0.000000
-29.136700 0.000000
-29.090100 0.000000
-29.043500 0.000000
-28.996900 0.000000
-28.950300 0.000000
-28.903700 0.000000
-28.857100 0.000000
-28.810500 0.000000
-28.763900 0.000000
-28.717300 0.000000
-28.670800 0.000000
-28.624200 0.000000
-28.577600 0.000000
-28.531000 0.000000
-28.484400 0.000000
-28.437800 0.000000
-28.391200 0.000000
-28.344600 0.000000
-28.298000 0.000000
-28.251400 0.000000
-28.204800 0.000000
-28.158200 0.000000
-28.111700 0.000000
-28.065100 0.000000
-28.018500 0.000000
-27.971900 0.000000
-27.925300 0.000000
-27.878700 0.000000
-27.832100 0.000000
-27.785500 0.000000
-27.738900 0.000000
-27.692300 0.000000
-27.645700 0.000000
-27.599100 0.000000
-27.552600 0.000000
-27.506000 0.000000
-27.459400 0.000000
-27.412800 0.000000
-27.366200 0.000000
-27.319600 0.000000
-27.273000 0.000000
-27.226400 0.000000
-27.179800 0.000000
-27.133200 0.000000
-27.086600 0.000000
-27.040000 0.000000
-26.993500 0.000000
-26.946900 0.000000
-26.900300 0.000000
-26.853700 0.000000
-26.807100 0.000000
-26.760500 0.000000
-26.713900 0.000000
-26.667300 0.000000
-26.620700 0.000000
-26.574100 0.000000
-26.527500 0.000000
-26.480900 0.000000
-26.434300 0.000000
-26.387800 0.000000
-26.341200 0.000000
-26.294600 0.000000
-26.248000 0.000000
-26.201400 0.000000
-26.154800 0.000000
-26.108200 0.000000
-26.061600 0.000000
-26.015000 0.000000
-25.968400 0.000000
-25.921800 0.000000
-25.875200 0.000000
-25.828700 0.000000
-25.782100 0.000000
-25.735500 0.000000
-25.688900 0.000000
-25.642300 0.000000
-25.595700 0.000000
-25.549100 0.000000
-25.502500 0.000000
-25.455900 0.000000
-25.409300 0.000000
-25.362700 0.000000
-25.316100 0.000000
-25.269600 0.000000
-25.223000 0.000000
-25.176400 0.000000
-25.129800 0.000000
-25.083200 0.000000
-25.036600 0.000000
-24.990000 0.000000
-24.943400 0.000000
-24.896800 0.000000
-24.850200 0.000000
-24.803600 0.000000
-24.757000 0.000000
-24.710500 0.000000
-24.663900 0.000000
-24.617300 0.000000
-24.570700 0.000000
-24.524100 0.000000
-24.477500 0.000000
-24.430900 0.000000
-24.384300 0.000000
-24.337700 0.000000
-24.291100 0.000000
-24.244500 0.000000
-24.197900 0.000000
-24.151400 0.000000
-24.104800 0.000000
-24.058200 0.000000
-24.011600 0.000000
-23.965000 0.000000
-23.918400 0.000000
-23.871800 0.000000
-23.825200 0.000000
-23.778600 0.000000
-23.732000 0.000000
-23.685400 0.000000
-23.638800 0.000000
-23.592200 0.000000
-23.545700 0.000000
-23.499100 0.000000
-23.452500 0.000000
-23.405900 0.000000
-23.359300 0.000000
-23.312700 0.000000
-23.266100 0.000000
-23.219500 0.000000
-23.172900 0.000000
-23.126300 0.000000
-23.079700 0.000000
-23.033100 0.000000
-22.986600 0.000000
-22.940000 0.000000
-22.893400 0.000000
-22.846800 0.000000
-22.800200 0.000000
-22.753600 0.000000
-22.707000 0.000000
-22.660400 0.000000
-22.613800 0.000000
-22.567200 0.000000
-22.520600 0.000000
-22.474000 0.000000
-22.427500 0.000000
-22.380900 0.000000
-22.334300 0.000000
-22.287700 0.000000
-22.241100 0.000000
-22.194500 0.000000
-22.147900 0.000000
-22.101300 0.000000
-22.054700 0.000000
-22.008100 0.000000
-21.961500 0.000000
-21.914900 0.000000
-21.868400 0.000000
-21.821800 0.000000
-21.775200 0.000000
-21.728600 0.000000
-21.682000 0.000000
-21.635400 0.000000
-21.588800 0.000000
-21.542200 0.000000
-21.495600 0.000000
-21.449000 0.000000
-21.402400 0.000000
-21.355800 0.000000
-21.309300 0.000000
-21.262700 0.000000
-21.216100 0.000000
-21.169500 0.000000
-21.122900 0.000000
-21.076300 0.000000
-21.029700 0.000000
-20.983100 0.000000
-20.936500 0.000000
-20.889900 0.000000
-20.843300 0.000000
-20.796700 0.000000
-20.750100 0.000000
-20.703600 0.000000
-20.657000 0.000000
-20.610400 0.000000
-20.563800 0.000000
-20.517200 0.000000
-20.470600 0.000000
-20.424000 0.000000
-20.377400 0.000000
-20.330800 0.000000
-20.284200 0.000000
-20.237600 0.000000
-20.191000 0.000000
-20.144500 0.000000
-20.097900 0.000000
-20.051300 0.000000
-20.004700 0.000000
-19.958100 0.000000
-19.911500 0.000000
-19.864900 0.000000
-19.818300 0.000000
-19.771700 0.000000
-19.725100 0.000000
-19.678500 0.000000
-19.631900 0.000000
-19.585400 0.000000
-19.538800 0.000000
-19.492200 0.000000
-19.445600 0.000000
-19.399000 0.000000
-19.352400 0.000000
-19.305800 0.000000
-19.259200 0.000000
-19.212600 0.000000
-19.166000 0.000000
-19.119400 0.000000
-19.072800 0.000000
-19.026300 0.000000
-18.979700 0.000000
-18.933100 0.000000
-18.886500 0.000000
-18.839900 0.000000
-18.793300 0.000000
-18.746700 0.000000
-18.700100 0.000000
-18.653500 0.000000
-18.606900 0.000000
-18.560300 0.000000
-18.513700 0.000000
-18.467100 0.000000
-18.420600 0.000000
-18.374000 0.000000
-18.327400 0.000000
-18.280800 0.000000
-18.234200 0.000000
-18.187600 0.000000
-18.141000 0.000000
-18.094400 0.000000
-18.047800 0.000000
-18.001200 0.000000
-17.954600 0.000000
-17.908000 0.000000
-17.861500 0.000000
-17.814900 0.000000
-17.768300 0.000000
-17.721700 0.000000
-17.675100 0.000000
-17.628500 0.000000
-17.581900 0.000000
-17.535300 0.000000
-17.488700 0.000000
-17.442100 0.000000
-17.395500 0.000000
-17.348900 0.000000
-17.302400 0.000000
-17.255800 0.000000
-17.209200 0.000000
-17.162600 0.000000
-17.116000 0.000000
-17.069400 0.000000
-17.022800 0.000000
-16.976200 0.000000
-16.929600 0.000000
-16.883000 0.000000
-16.836400 0.000000
-16.789800 0.000000
-16.743300 0.000000
-16.696700 0.000000
-16.650100 0.000000
-16.603500 0.000000
-16.556900 0.000000
-16.510300 0.000000
-16.463700 0.000000
-16.417100 0.000000
-16.370500 0.000000
-16.323900 0.000000
-16.277300 0.000000
-16.230700 0.000000
-16.184200 0.000000
-16.137600 0.000000
-16.091000 0.000000
-16.044400 0.000000
-15.997800 0.000000
-15.951200 0.000000
-15.904600 0.000000
-15.858000 0.000000
-15.811400 0.000000
-15.764800 0.000000
-15.718200 0.000000
-15.671600 0.000000
-15.625000 0.000000
-15.578500 0.000000
-15.531900 0.000000
-15.485300 0.000000
-15.438700 0.000000
-15.392100 0.000000
-15.345500 0.000000
-15.298900 0.000000
-15.252300 0.000000
-15.205700 0.000000
-15.159100 0.000000
-15.112500 0.000000
-15.065900 0.000000
-15.019400 0.000000
-14.972800 0.000000
-14.926200 0.000000
-14.879600 0.000000
-14.833000 0.000000
-14.786400 0.000000
-14.739800 0.000000
-14.693200 0.000000
-14.646600 0.000000
-14.600000 0.000000
-14.553400 0.000000
-14.506800 0.000000
-14.460300 0.000000
-14.413700 0.000000
-14.367100 0.000000
-14.320500 0.000000
-14.273900 0.000000
-14.227300 0.000000
-14.180700 0.000000
-14.134100 0.000000
-14.087500 0.000000
-14.040900 0.000000
-13.994300 0.000000
-13.947700 0.000000
-13.901200 0.000000
-13.854600 0.000000
-13.808000 0.000000
-13.761400 0.000000
-13.714800 0.000000
-13.668200 0.000000
-13.621600 0.000000
-13.575000 0.000000
-13.528400 0.000000
-13.481800 0.000000
-13.435200 0.000000
-13.388600 0.000000
-13.342100 0.000000
-13.295500 0.000000
-13.248900 0.000000
-13.202300 0.000000
-13.155700 0.000000
-13.109100 0.000000
-13.062500 0.000000
-13.015900 0.000000
-12.969300 0.000000
-12.922700 0.000000
-12.876100 0.000000
-12.829500 0.000000
-12.782900 0.000000
-12.736400 0.000000
-12.689800 0.000000
-12.643200 0.000000
-12.596600 0.000000
-12.550000 0.000000
-12.503400 0.000000
-12.456800 0.000000
-12.410200 0.000000
-12.363600 0.000000
-12.317000 0.000000
-12.270400 0.000000
-12.223800 0.000000
-12.177300 0.000000
-12.130700 0.000000
-12.084100 0.000000
-12.037500 0.000000
-11.990900 0.000000
-11.944300 0.000000
-11.897700 0.000000
-11.851100 0.000000
-11.804500 0.000000
-11.757900 0.000000
-11.711300 0.000000
-11.664700 0.000000
-11.618200 0.000000
-11.571600 0.000000
-11.525000 0.000000
-11.478400 0.000000
-11.431800 0.000000
-11.385200 0.000000
-11.338600 0.000000
-11.292000 0.000000
-11.245400 0.000000
-11.198800 0.000000
-11.152200 0.000000
-11.105600 0.000000
-11.059100 0.000000
-11.012500 0.000000
-10.965900 0.000000
-10.919300 0.000000
-10.872700 0.000000
-10.826100 0.000000
-10.779500 0.000000
-10.732900 0.000000
-10.686300 0.000000
-10.639700 0.000000
-10.593100 0.000000
-10.546500 0.000000
-10.499900 0.000000
-10.453400 0.000000
-10.406800 0.000000
-10.360200 0.000000
-10.313600 0.000000
-10.267000 0.000000
-10.220400 0.000000
-10.173800 0.000000
-10.127200 0.000000
-10.080600 0.000000
-10.034000 0.000000
-9.987400 0.000000
-9.940800 0.000000
-9.894300 0.000000
-9.847700 0.000000
-9.801100 0.000000
-9.754500 0.000000
-9.707900 0.000000
-9.661300 0.000000
-9.614700 0.000000
-9.568100 0.000000
-9.521500 0.000000
-9.474900 0.000000
-9.428300 0.000000
-9.381700 0.000000
-9.335200 0.000000
-9.288600 0.000000
-9.242000 0.000000
-9.195400 0.000000
-9.148800 0.000000
-9.102200 0.000000
-9.055600 0.000000
-9.009000 0.000000
-8.962400 0.000000
-8.915800 0.000000
-8.869200 0.000000
-8.822600 0.000000
-8.776100 0.000000
-8.729500 0.000000
-8.682900 0.000000
-8.636300 0.000000
-8.589700 0.000000
-8.543100 0.000000
-8.496500 0.000000
-8.449900 0.000000
-8.403300 0.000000
-8.356700 0.000000
-8.310100 0.000000
-8.263500 0.000000
-8.217000 0.000000
-8.170400 0.000000
-8.123800 0.000000
-8.077200 0.000000
-8.030600 0.000000
-7.984000 0.000000
-7.937400 0.000000
-7.890800 0.000000
-7.844200 0.000000
-7.797600 0.000000
-7.751000 0.000000
-7.704400 0.000000
-7.657800 0.000000
-7.611300 0.000000
-7.564700 0.000000
-7.518100 0.000000
-7.471500 0.000000
-7.424900 0.000000
-7.378300 0.000000
-7.331700 0.000000
-7.285100 0.000000
-7.238500 0.000000
-7.191900 0.000000
-7.145300 0.000000
-7.098700 0.000000
-7.052200 0.000000
-7.005600 0.000000
-6.959000 0.000000
-6.912400 0.000000
-6.865800 0.000000
-6.819200 0.000000
-6.772600 0.000000
-6.726000 0.000000
-6.679400 0.000000
-6.632800 0.000000
-6.586200 0.000000
-6.539600 0.000000
-6.493100 0.000000
-6.446500 0.000000
-6.399900 0.000000
-6.353300 0.000000
-6.306700 0.000000
-6.260100 0.000000
-6.213500 0.000000
-6.166900 0.000000
-6.120300 0.000000
-6.073700 0.000000
-6.027100 0.000000
-5.980500 0.000000
-5.934000 0.000000
-5.887400 0.000000
-5.840800 0.000000
-5.794200 0.000000
-5.747600 0.000000
-5.701000 0.000000
-5.654400 0.000000
-5.607800 0.000000
-5.561200 0.000000
-5.514600 0.000000
-5.468000 0.000000
-5.421400 0.000000
-5.374800 0.000000
-5.328300 0.000000
-5.281700 0.000000
-5.235100 0.000000
-5.188500 0.000000
-5.141900 0.000000
-5.095300 0.000000
-5.048700 0.000000
-5.002100 0.000000
-4.955500 0.000000
-4.908900 0.000000
-4.862300 0.000000
-4.815700 0.000000
-4.769200 0.000000
-4.722600 0.000000
-4.676000 0.000000
-4.629400 0.000000
-4.582800 0.000000
-4.536200 0.000000
-4.489600 0.000000
-4.443000 0.000000
-4.396400 0.000000
-4.349800 0.000000
-4.303200 0.000000
-4.256600 0.000000
-4.210100 0.000000
-4.163500 0.000000
-4.116900 0.000000
-4.070300 0.000000
-4.023700 0.000000
-3.977100 0.000000
-3.930500 0.000000
-3.883900 0.000000
-3.837300 0.000000
-3.790700 0.000000
-3.744100 0.000000
-3.697500 0.000000
-3.651000 0.000000
-3.604400 0.000000
-3.557800 0.000000
-3.511200 0.000000
-3.464600 0.000000
-3.418000 0.000000
-3.371400 0.000000
-3.324800 0.000000
-3.278200 0.000000
-3.231600 0.000000
-3.185000 0.000000
-3.138400 0.000000
-3.091900 0.000000
-3.045300 0.000000
-2.998700 0.000000
-2.952100 0.000000
-2.905500 0.000000
-2.858900 0.000000
-2.812300 0.000000
-2.765700 0.000000
-2.719100 0.000000
-2.672500 0.000000
-2.625900 0.000000
-2.579300 0.000000
-2.532700 0.000000
-2.486200 0.000000
-2.439600 0.000000
-2.393000 0.000000
-2.346400 0.000000
-2.299800 0.000000
-2.253200 0.000000
-2.206600 0.000000
-2.160000 0.000000
-2.113400 0.000000
-2.066800 0.000000
-2.020200 0.000000
-1.973600 0.000000
-1.927100 0.000000
-1.880500 0.000000
-1.833900 0.000000
-1.787300 0.000000
-1.740700 0.000000
-1.694100 0.000000
-1.647500 0.000000
-1.600900 0.000000
-1.554300 0.000000
-1.507700 0.000100
-1.461100 0.002100
-1.414500 0.011500
-1.368000 0.024200
-1.321400 0.035500
-1.274800 0.071700
-1.228200 0.105300
-1.181600 0.044300
-1.135000 0.022900
-1.088400 0.091200
-1.041800 0.145400
-0.995200 0.140100
-0.948600 0.157500
-0.902000 0.132100
-0.855400 0.039100
-0.808900 0.060900
-0.762300 0.157100
-0.715700 0.188900
-0.669100 0.253500
-0.622500 0.355600
-0.575900 0.245600
-0.529300 0.224700
-0.482700 0.373200
-0.436100 0.655000
-0.389500 0.925600
-0.342900 0.902400
-0.296300 0.983400
-0.249800 1.469200
-0.203200 2.184700
-0.156600 2.688000
-0.110000 2.865800
-0.063400 3.109200
-0.016800 3.929800
0.029800 3.784300
0.076400 3.290500
0.123000 3.255600
0.169600 3.900900
0.216200 4.472000
0.262800 4.743700
0.309400 4.844100
0.355900 5.333800
0.402500 5.527200
0.449100 5.803500
0.495700 6.542700
0.542300 6.258500
0.588900 4.852400
0.635500 4.045900
0.682100 4.139900
0.728700 4.356600
0.775300 4.160500
0.821900 3.748400
0.868500 3.726500
0.915000 3.694800
0.961600 3.674100
1.008200 3.397400
1.054800 2.866500
1.101400 2.579800
1.148000 2.421900
1.194600 2.196500
1.241200 2.238600
1.287800 2.714100
1.334400 3.264500
1.381000 3.634900
1.427600 4.040900
1.474100 4.098100
1.520700 4.212500
1.567300 3.752600
1.613900 3.531700
1.660500 3.232500
1.707100 2.907300
1.753700 3.367200
1.800300 3.436800
1.846900 2.784300
1.893500 2.693900
1.940100 3.459100
1.986700 4.833300
2.033200 5.487200
2.079800 5.306800
2.126400 4.927600
2.173000 4.703800
2.219600 4.548700
2.266200 4.498300
2.312800 4.243400
2.359400 4.002800
2.406000 4.032800
2.452600 4.221100
2.499200 4.041400
2.545800 3.137700
2.592400 2.814000
2.638900 2.749800
2.685500 2.694300
2.732100 3.074200
2.778700 3.623500
2.825300 3.826700
2.871900 4.430300
2.918500 5.008400
2.965100 4.899500
3.011700 4.576400
3.058300 3.925000
3.104900 3.112700
3.151500 2.946300
3.198000 3.037000
3.244600 2.698000
3.291200 2.709300
3.337800 2.541600
3.384400 2.189400
3.431000 2.016200
3.477600 2.163900
3.524200 2.410500
3.570800 2.031700
3.617400 1.844600
3.664000 2.084400
3.710600 2.563700
3.757100 2.674700
3.803700 2.613700
3.850300 2.739300
3.896900 2.826400
3.943500 2.788500
3.990100 2.164900
4.036700 1.967400
4.083300 2.071000
4.129900 1.530100
4.176500 0.955700
4.223100 0.830200
4.269700 0.989700
4.316200 0.934200
4.362800 0.792800
4.409400 1.155200
4.456000 1.621200
4.502600 1.983500
4.549200 2.226400
4.595800 2.280300
4.642400 2.154700
4.689000 2.210900
4.735600 1.763000
4.782200 1.396400
4.828800 1.376200
4.875300 1.188200
4.921900 1.160200
4.968500 1.221100
5.015100 1.149200
5.061700 1.045200
5.108300 1.080200
5.154900 1.008900
5.201500 1.014800
5.248100 1.345000
5.294700 1.645600
5.341300 1.956700
5.387900 1.955600
5.434500 1.650400
5.481000 1.626700
5.527600 2.172100
5.574200 3.043300
5.620800 2.768900
5.667400 2.136900
5.714000 2.632800
5.760600 2.803200
5.807200 3.359800
5.853800 3.923400
5.900400 4.132900
5.947000 4.498400
5.993600 4.892400
6.040100 5.271800
6.086700 4.684300
6.133300 4.086200
6.179900 4.616200
6.226500 4.286700
6.273100 3.229200
6.319700 2.283800
6.366300 1.506000
6.412900 1.410300
6.459500 1.143600
6.506100 0.958600
6.552700 1.321000
6.599200 1.431200
6.645800 1.165400
6.692400 0.844700
6.739000 0.735100
6.785600 0.864000
6.832200 0.827800
6.878800 0.813600
6.925400 0.820400
6.972000 0.672500
7.018600 0.529100
7.065200 0.513400
7.111800 0.496000
7.158300 0.431800
7.204900 0.466300
7.251500 0.602600
7.298100 0.681200
7.344700 0.709500
7.391300 0.596100
7.437900 0.522900
7.484500 0.552800
7.531100 0.704400
7.577700 0.746000
7.624300 0.474500
7.670900 0.445100
7.717400 0.445300
7.764000 0.448100
7.810600 0.512500
7.857200 0.530300
7.903800 0.506300
7.950400 0.438300
7.997000 0.418400
8.043600 0.295700
8.090200 0.364400
8.136800 0.409400
8.183400 0.592500
8.230000 0.640900
8.276600 0.702100
8.323100 0.653100
8.369700 0.363100
8.416300 0.362500
8.462900 0.391900
8.509500 0.507900
8.556100 0.633500
8.602700 0.705400
8.649300 0.691100
8.695900 0.654300
8.742500 0.637400
8.789100 0.733500
8.835700 0.687100
8.882200 0.383800
8.928800 0.430200
8.975400 0.647600
9.022000 0.569700
9.068600 0.349100
9.115200 0.319900
9.161800 0.405000
9.208400 0.434000
9.255000 0.521800
9.301600 0.625600
9.348200 0.461200
9.394800 0.338800
9.441300 0.472900
9.487900 0.528800
9.534500 0.588700
9.581100 0.723500
9.627700 0.723900
9.674300 0.661300
9.720900 0.534200
9.767500 0.301200
9.814100 0.397900
9.860700 0.571000
9.907300 0.503300
9.953900 0.408100
10.000400 0.651700
10.047000 0.710100
10.093600 0.431000
10.140200 0.234500
10.186800 0.267400
10.233400 0.346700
10.280000 0.420200
10.326600 0.382700
10.373200 0.490400
10.419800 0.580800
10.466400 0.543100
10.513000 0.629300
10.559600 0.530100
10.606100 0.292500
10.652700 0.208600
10.699300 0.214000
10.745900 0.143500
10.792500 0.226800
10.839100 0.469600
10.885700 0.510800
10.932300 0.399500
10.978900 0.340000
11.025500 0.336300
11.072100 0.381000
11.118700 0.415700
11.165200 0.498800
11.211800 0.532000
11.258400 0.486000
11.305000 0.391700
11.351600 0.352800
11.398200 0.376100
11.444800 0.380000
11.491400 0.339300
11.538000 0.230800
11.584600 0.222500
11.631200 0.271300
11.677800 0.269400
11.724300 0.203400
11.770900 0.095300
11.817500 0.101500
11.864100 0.120800
11.910700 0.240800
11.957300 0.452100
12.003900 0.515500
12.050500 0.470700
12.097100 0.590500
12.143700 0.491900
12.190300 0.160600
12.236900 0.024400
12.283400 0.074500
12.330000 0.154000
12.376600 0.131900
12.423200 0.163300
12.469800 0.236700
12.516400 0.368500
12.563000 0.264700
12.609600 0.154200
12.656200 0.191400
12.702800 0.082600
12.749400 0.010400
12.796000 0.032000
12.842500 0.184800
12.889100 0.518000
12.935700 0.854500
12.982300 0.976000
13.028900 0.856300
13.075500 0.854700
13.122100 1.064000
13.168700 1.055000
13.215300 0.838800
13.261900 0.635500
13.308500 0.717000
13.355100 0.875100
13.401700 1.047800
13.448200 1.079500
13.494800 0.811800
13.541400 0.615800
13.588000 0.690200
13.634600 0.475600
13.681200 0.517800
13.727800 0.679600
13.774400 0.630800
13.821000 0.550400
13.867600 0.459100
13.914200 0.528200
13.960800 0.808600
14.007300 0.792200
14.053900 0.745200
14.100500 0.564100
14.147100 0.413800
14.193700 0.580100
14.240300 0.653000
14.286900 0.685300
14.333500 0.798200
14.380100 0.784500
14.426700 0.539800
14.473300 0.286400
14.519900 0.323400
14.566400 0.436600
14.613000 0.515800
14.659600 0.621200
14.706200 0.672800
14.752800 0.707500
14.799400 0.548800
14.846000 0.432500
14.892600 0.637300
14.939200 0.627300
14.985800 0.490500
15.032400 0.469300
15.079000 0.359700
15.125500 0.471300
15.172100 0.684300
15.218700 0.677500
15.265300 0.617000
15.311900 0.418200
15.358500 0.239900
15.405100 0.405300
15.451700 0.663400
15.498300 0.701300
15.544900 0.393100
15.591500 0.172500
15.638100 0.252900
15.684600 0.469900
15.731200 0.515300
15.777800 0.564000
15.824400 0.572400
15.871000 0.671700
15.917600 0.749900
15.964200 0.676200
16.010800 0.725300
16.057400 0.844100
16.104000 0.673700
16.150600 0.532900
16.197200 0.616500
16.243800 0.877400
16.290300 1.165500
16.336900 1.019300
16.383500 0.878000
16.430100 0.941900
16.476700 0.938000
16.523300 0.870300
16.569900 0.741300
16.616500 0.749400
16.663100 1.034600
16.709700 1.192400
16.756300 1.060200
16.802900 0.875500
16.849400 1.095500
16.896000 1.469400
16.942600 1.361600
16.989200 0.840200
17.035800 0.776900
17.082400 0.993700
17.129000 0.848400
17.175600 0.726600
17.222200 0.763300
17.268800 0.674000
17.315400 0.737100
17.362000 0.899300
17.408500 1.160900
17.455100 1.190100
17.501700 1.037800
17.548300 0.939700
17.594900 0.990100
17.641500 1.119300
17.688100 1.016500
17.734700 1.006100
17.781300 0.872900
17.827900 0.759400
17.874500 0.845200
17.921100 1.018900
17.967600 1.127100
18.014200 1.180600
18.060800 0.967500
18.107400 0.854500
18.154000 1.009200
18.200600 1.134500
18.247200 1.080600
18.293800 0.868800
18.340400 0.852300
18.387000 1.297400
18.433600 1.410500
18.480200 0.858300
18.526800 0.689400
18.573300 0.784800
18.619900 0.815400
18.666500 0.865500
18.713100 1.007100
18.759700 0.908900
18.806300 1.145200
18.852900 1.342300
18.899500 1.114800
18.946100 0.973200
18.992700 1.011300
19.039300 1.156100
19.085900 1.267600
19.132400 1.267200
19.179000 1.036400
19.225600 0.913800
19.272200 1.170900
19.318800 1.269200
19.365400 1.383200
19.412000 1.380100
19.458600 1.158300
19.505200 0.854200
19.551800 0.880400
19.598400 1.091000
19.645000 0.930700
19.691500 0.900100
19.738100 1.020200
19.784700 1.088900
19.831300 0.987300
19.877900 0.917000
19.924500 0.950200
19.971100 1.117100
20.017700 1.221000
20.064300 0.914800
20.110900 0.883900
20.157500 1.173200
20.204100 1.161500
20.250600 1.082600
20.297200 1.256700
20.343800 1.445600
20.390400 1.332800
20.437000 1.143600
20.483600 1.100600
20.530200 1.251900
20.576800 1.211500
20.623400 1.051000
20.670000 1.210800
20.716600 1.169600
20.763200 0.811100
20.809700 0.629800
20.856300 0.714600
20.902900 0.730000
20.949500 0.804600
20.996100 1.274700
21.042700 1.358600
21.089300 0.948300
21.135900 0.729100
21.182500 0.807400
21.229100 0.922100
21.275700 0.846200
21.322300 0.902600
21.368900 1.051000
21.415400 1.267800
21.462000 1.338500
21.508600 1.409300
21.555200 1.523400
21.601800 1.365300
21.648400 0.959700
21.695000 0.934100
21.741600 1.197100
21.788200 1.320800
21.834800 1.109500
21.881400 1.057700
21.928000 1.016900
21.974500 0.944800
22.021100 1.043000
22.067700 1.222200
22.114300 1.372000
22.160900 1.197200
22.207500 1.304700
22.254100 1.391700
22.300700 1.412500
22.347300 1.505100
22.393900 1.288600
22.440500 1.098500
22.487100 0.988600
22.533600 0.816600
22.580200 0.847400
22.626800 1.196700
22.673400 1.441300
22.720000 1.301200
22.766600 1.180200
22.813200 1.047100
22.859800 0.889800
22.906400 0.913300
22.953000 1.173300
22.999600 1.108700
23.046200 0.913100
23.092700 1.137400
23.139300 1.176500
23.185900 0.995800
23.232500 0.883100
23.279100 0.916400
23.325700 1.253600
23.372300 1.299700
23.418900 1.067700
23.465500 1.297300
23.512100 1.275700
23.558700 1.246800
23.605300 1.142600
23.651800 0.981100
23.698400 0.836600
23.745000 0.771900
23.791600 0.696900
23.838200 0.512000
23.884800 0.545700
23.931400 0.731300
23.978000 0.795800
24.024600 0.836500
24.071200 0.792600
24.117800 0.829400
24.164400 1.051400
24.211000 1.088500
24.257500 0.912100
24.304100 0.897900
24.350700 0.863000
24.397300 0.651100
24.443900 0.515700
24.490500 0.294100
24.537100 0.196200
24.583700 0.302100
24.630300 0.614800
24.676900 0.815500
24.723500 0.517400
24.770100 0.491200
24.816600 0.732800
24.863200 0.676100
24.909800 0.668900
24.956400 1.080300
25.003000 1.486400
25.049600 1.298200
25.096200 1.076400
25.142800 0.909800
25.189400 0.861100
25.236000 0.867400
25.282600 1.063300
25.329200 1.346200
25.375700 1.277100
25.422300 0.979400
25.468900 0.798600
25.515500 1.206500
25.562100 1.604500
25.608700 1.388300
25.655300 1.332900
25.701900 2.092500
25.748500 2.436900
25.795100 2.361900
25.841700 2.387700
25.888300 2.012800
25.934800 2.347900
25.981400 3.258500
26.028000 3.925600
26.074600 4.055500
26.121200 4.530700
26.167800 6.513300
26.214400 11.532000
26.261000 21.320100
26.307600 32.653000
26.354200 36.334900
26.400800 27.246900
26.447400 14.885000
26.494000 9.743300
26.540500 7.824100
26.587100 6.468400
26.633700 4.700600
26.680300 3.469000
26.726900 2.536300
26.773500 1.958000
26.820100 1.580300
26.866700 1.731000
26.913300 2.340100
26.959900 2.789900
27.006500 2.591800
27.053100 2.207000
27.099600 1.777300
27.146200 1.255900
27.192800 1.201400
27.239400 1.288000
27.286000 1.418100
27.332600 1.515600
27.379200 1.661400
27.425800 1.577700
27.472400 1.554800
27.519000 1.503800
27.565600 1.476200
27.612200 1.779800
27.658700 1.748900
27.705300 1.591900
27.751900 1.524100
27.798500 1.424500
27.845100 1.157900
27.891700 0.996000
27.938300 0.972100
27.984900 1.174900
28.031500 0.902500
28.078100 0.746600
28.124700 1.094500
28.171300 1.311300
28.217800 1.235300
28.264400 1.096400
28.311000 1.170400
28.357600 1.173800
28.404200 1.134300
28.450800 1.221800
28.497400 1.246100
28.544000 1.045600
28.590600 0.854800
28.637200 0.881000
28.683800 0.921900
28.730400 1.015500
28.776900 0.720000
28.823500 0.761200
28.870100 1.047800
28.916700 0.844200
28.963300 0.519000
29.009900 0.615700
29.056500 0.921500
29.103100 0.914700
29.149700 0.985100
29.196300 0.851000
29.242900 0.487000
29.289500 0.538700
29.336100 0.846500
29.382600 0.849500
29.429200 0.577100
29.475800 0.493600
29.522400 0.587200
29.569000 0.698200
29.615600 0.635700
29.662200 0.404100
29.708800 0.479600
29.755400 0.450900
29.802000 0.338400
29.848600 0.423600
29.895200 0.433200
29.941700 0.374000
29.988300 0.533300
30.034900 0.648200
30.081500 0.655600
30.128100 0.556700
30.174700 0.575900
30.221300 0.742000
30.267900 0.620300
30.314500 0.483800
30.361100 0.530800
30.407700 0.579400
30.454300 0.744300
30.500800 0.793800
30.547400 0.666300
30.594000 0.703900
30.640600 0.809400
30.687200 0.967000
30.733800 0.950300
30.780400 0.831500
30.827000 0.906200
30.873600 1.030300
30.920200 1.122900
30.966800 0.872400
31.013400 0.880800
31.059900 1.019700
31.106500 1.304100
31.153100 1.420700
31.199700 1.229800
31.246300 1.136100
31.292900 1.027100
31.339500 1.093000
31.386100 1.436400
31.432700 1.695000
31.479300 1.624700
31.525900 1.458200
31.572500 1.285900
31.619000 1.503900
31.665600 1.673600
31.712200 1.743500
31.758800 1.663500
31.805400 1.376700
31.852000 1.318200
31.898600 1.471200
31.945200 1.507900
31.991800 1.675500
32.038400 1.632000
32.085000 1.526800
32.131600 1.248300
32.178200 1.221700
32.224700 1.558600
32.271300 1.915900
32.317900 1.841100
32.364500 1.368700
32.411100 1.274000
32.457700 1.588400
32.504300 1.471200
32.550900 1.237300
32.597500 1.275000
32.644100 1.141700
32.690700 1.102900
32.737300 1.329400
32.783800 1.389200
32.830400 1.364000
32.877000 0.966200
32.923600 0.867900
32.970200 1.214500
33.016800 1.308100
33.063400 1.301100
33.110000 1.616100
33.156600 1.635700
33.203200 1.369700
33.249800 0.980300
33.296400 1.096100
33.342900 1.246100
33.389500 0.950800
33.436100 0.935700
33.482700 1.203300
33.529300 1.243400
33.575900 1.044400
33.622500 0.902700
33.669100 0.862700
33.715700 0.951400
33.762300 2.768900
33.808900 9.830000
33.855500 10.017300
33.902000 3.187800
33.948600 1.291100
33.995200 1.303900
34.041800 1.210100
34.088400 1.217900
34.135000 1.348100
34.181600 1.199800
34.228200 1.178400
34.274800 1.383700
34.321400 1.582600
34.368000 1.538300
34.414600 1.369300
34.461200 1.275800
34.507700 1.473200
34.554300 1.570600
34.600900 1.653000
34.647500 1.294300
34.694100 1.184700
34.740700 1.439800
34.787300 1.764300
34.833900 1.937700
34.880500 1.591000
34.927100 1.363700
34.973700 1.529400
35.020300 1.646100
35.066800 1.868500
35.113400 1.605600
35.160000 1.235500
35.206600 1.454600
35.253200 1.522000
35.299800 1.381000
35.346400 1.706700
35.393000 1.968100
35.439600 1.730700
35.486200 1.462300
35.532800 1.311200
35.579400 1.261700
35.625900 1.321000
35.672500 1.414300
35.719100 1.342800
35.765700 1.519900
35.812300 1.416700
35.858900 1.333600
35.905500 1.547900
35.952100 1.688700
35.998700 1.583900
36.045300 1.434700
36.091900 1.398300
36.138500 1.171700
36.185000 0.881400
36.231600 0.892500
36.278200 1.337600
36.324800 1.661400
36.371400 1.662700
36.418000 1.553800
36.464600 1.353700
36.511200 1.460100
36.557800 1.696000
36.604400 1.577700
36.651000 1.369100
36.697600 1.298500
36.744100 1.475600
36.790700 1.395400
36.837300 1.391600
36.883900 1.189500
36.930500 1.137600
36.977100 1.364500
37.023700 1.285700
37.070300 1.251000
37.116900 1.160500
37.163500 0.907500
37.210100 1.003300
37.256700 1.306000
37.303300 1.259300
37.349800 1.136700
37.396400 1.314400
37.443000 1.533300
37.489600 1.498600
37.536200 1.517700
37.582800 1.603200
37.629400 1.262400
37.676000 0.987100
37.722600 0.826600
37.769200 0.883400
37.815800 1.168500
37.862400 1.342900
37.908900 1.163900
37.955500 1.030200
38.002100 1.169100
38.048700 1.061900
38.095300 0.902600
38.141900 1.163500
38.188500 1.861900
38.235100 2.027600
38.281700 1.323900
38.328300 0.677700
38.374900 0.475400
38.421500 0.690300
38.468000 0.943000
38.514600 1.178500
38.561200 1.326200
38.607800 1.210300
38.654400 0.980400
38.701000 0.947600
38.747600 1.128600
38.794200 1.142800
38.840800 0.945500
38.887400 0.934600
38.934000 1.090300
38.980600 1.057700
39.027100 1.184400
39.073700 1.289400
39.120300 1.148400
39.166900 1.059200
39.213500 1.123000
39.260100 1.098900
39.306700 0.891500
39.353300 0.828800
39.399900 1.114100
39.446500 1.272100
39.493100 1.145000
39.539700 1.058900
39.586200 1.118700
39.632800 1.243600
39.679400 1.242200
39.726000 1.077600
39.772600 1.206500
39.819200 1.123000
39.865800 0.832100
39.912400 0.685900
39.959000 0.792700
40.005600 0.804400
40.052200 0.881700
40.098800 1.354100
40.145400 1.352500
40.191900 0.977500
40.238500 1.059900
40.285100 1.468300
40.331700 1.642000
40.378300 1.507600
40.424900 1.277500
40.471500 0.965200
40.518100 0.830400
40.564700 0.945800
40.611300 1.132200
40.657900 1.342500
40.704500 1.314700
40.751000 1.222400
40.797600 1.412400
40.844200 1.437500
40.890800 1.030200
40.937400 0.963200
40.984000 1.199300
41.030600 1.041200
41.077200 0.706000
41.123800 0.844600
41.170400 1.278500
41.217000 1.485400
41.263600 1.691700
41.310100 1.779900
41.356700 1.684200
41.403300 1.596600
41.449900 1.286600
41.496500 1.522100
41.543100 1.915900
41.589700 1.604600
41.636300 1.135300
41.682900 1.087300
41.729500 1.114400
41.776100 1.306900
41.822700 1.619600
41.869200 1.865000
41.915800 1.801400
41.962400 1.650700
42.009000 1.702500
42.055600 1.692800
42.102200 1.561600
42.148800 1.591500
42.195400 1.399900
42.242000 1.309100
42.288600 1.297900
42.335200 1.241700
42.381800 1.606000
42.428400 1.776400
42.474900 2.047900
42.521500 1.853500
42.568100 1.545400
42.614700 1.646600
42.661300 1.922600
42.707900 1.848400
42.754500 1.549600
42.801100 1.236600
42.847700 1.353000
42.894300 1.635700
42.940900 1.603200
42.987500 1.483900
43.034000 1.418800
43.080600 1.282400
43.127200 1.332200
43.173800 1.452500
43.220400 1.516500
43.267000 1.379800
43.313600 1.225700
43.360200 1.168800
43.406800 1.498900
43.453400 1.626700
43.500000 1.252500
43.546600 1.051100
43.593100 1.119200
43.639700 1.182800
43.686300 1.569200
43.732900 1.705800
43.779500 1.372400
43.826100 0.923700
43.872700 0.878700
43.919300 1.263900
43.965900 1.404400
44.012500 1.303600
44.059100 1.236400
44.105700 1.128800
44.152200 1.257700
44.198800 1.559100
44.245400 1.856500
44.292000 1.876600
44.338600 1.893700
44.385200 2.276700
44.431800 2.701600
44.478400 2.270500
44.525000 1.684600
44.571600 1.559800
44.618200 1.560500
44.664800 1.494200
44.711300 1.447600
44.757900 1.594900
44.804500 1.764900
44.851100 2.200700
44.897700 2.115500
44.944300 1.543100
44.990900 1.670200
45.037500 1.966500
45.084100 1.676800
45.130700 1.543200
45.177300 1.605300
45.223900 1.437700
45.270500 1.333500
45.317000 1.652500
45.363600 1.282800
45.410200 1.287500
45.456800 1.840300
45.503400 2.012900
45.550000 1.822200
45.596600 1.767400
45.643200 1.571000
45.689800 1.897500
45.736400 2.193400
45.783000 1.952600
45.829600 1.970100
45.876100 2.073000
45.922700 1.987200
45.969300 1.811300
46.015900 1.378600
46.062500 1.161500
46.109100 1.358500
46.155700 1.690700
46.202300 1.750500
46.248900 1.631200
46.295500 1.383100
46.342100 1.306000
46.388700 1.492300
46.435200 1.560800
46.481800 1.555100
46.528400 1.355700
46.575000 1.146900
46.621600 1.384200
46.668200 1.295600
46.714800 1.088600
46.761400 1.295500
46.808000 1.224900
46.854600 1.077800
46.901200 1.409800
46.947800 1.777300
46.994300 1.556000
47.040900 1.486100
47.087500 1.570900
47.134100 1.555100
47.180700 1.527700
47.227300 1.617000
47.273900 1.872300
47.320500 1.764300
47.367100 1.258000
47.413700 1.131400
47.460300 1.591100
47.506900 1.528600
47.553400 1.329700
47.600000 1.347900
47.646600 1.554400
47.693200 1.572600
47.739800 1.346300
47.786400 1.197800
47.833000 1.079500
47.879600 1.104600
47.926200 1.236100
47.972800 1.056500
48.019400 1.077500
48.066000 1.198900
48.112600 1.123800
48.159100 1.221200
48.205700 1.318900
48.252300 1.170600
48.298900 1.086500
48.345500 1.142600
48.392100 1.346600
48.438700 1.288300
48.485300 1.052200
48.531900 0.919100
48.578500 1.041200
48.625100 1.307700
48.671700 1.421000
48.718200 1.676800
48.764800 1.705700
48.811400 1.493800
48.858000 1.805900
48.904600 1.918100
48.951200 1.297400
48.997800 1.081700
49.044400 1.120500
49.091000 1.081700
49.137600 1.335100
49.184200 1.329700
49.230800 1.311200
49.277300 1.612000
49.323900 1.472500
49.370500 0.922700
49.417100 0.780200
49.463700 0.936300
49.510300 1.037400
49.556900 1.161800
49.603500 1.264800
49.650100 1.203200
49.696700 0.917900
49.743300 0.750800
49.789900 0.727500
49.836400 0.850200
49.883000 0.937600
49.929600 0.666600
49.976200 0.510300
50.022800 0.502600
50.069400 0.419100
50.116000 0.323600
50.162600 0.286700
50.209200 0.344600
50.255800 0.284800
50.302400 0.111700
50.349000 0.061200
50.395600 0.130100
50.442100 0.168600
50.488700 0.162200
50.535300 0.146200
50.581900 0.137600
50.628500 0.100100
50.675100 0.039200
50.721700 0.024300
50.768300 0.025700
50.814900 0.019000
50.861500 0.039600
50.908100 0.049800
50.954700 0.022000
51.001200 0.002800
51.047800 0.000100
51.094400 0.000000
51.141000 0.000000
51.187600 0.000000
51.234200 0.000300
51.280800 0.005900
51.327400 0.025400
51.374000 0.037900
51.420600 0.024500
51.467200 0.005100
51.513800 0.000300
51.560300 0.000000
51.606900 0.000000
51.653500 0.000000
51.700100 0.000000
51.746700 0.000000
51.793300 0.000000
51.839900 0.000000
51.886500 0.000000
51.933100 0.000000
51.979700 0.000000
52.026300 0.000000
52.072900 0.000000
52.119400 0.000000
52.166000 0.000000
52.212600 0.000000
52.259200 0.000000
52.305800 0.000000
52.352400 0.000000
52.399000 0.000000
52.445600 0.000000
52.492200 0.000000
52.538800 0.000000
52.585400 0.000000
52.632000 0.000000
52.678500 0.000000
52.725100 0.000000
52.771700 0.000000
52.818300 0.000000
52.864900 0.000000
52.911500 0.000000
52.958100 0.000000
53.004700 0.000000
53.051300 0.000000
53.097900 0.000000
53.144500 0.000000
53.191100 0.000000
53.237700 0.000000
53.284200 0.000000
53.330800 0.000000
53.377400 0.000000
53.424000 0.000000
53.470600 0.000000
53.517200 0.000000
53.563800 0.000000
53.610400 0.000000
53.657000 0.000000
53.703600 0.000000
53.750200 0.000000
53.796800 0.000000
53.843300 0.000000
53.889900 0.000000
53.936500 0.000000
53.983100 0.000000
54.029700 0.000000
54.076300 0.000000
54.122900 0.000000
54.169500 0.000000
54.216100 0.000000
54.262700 0.000000
54.309300 0.000000
54.355900 0.000000
54.402400 0.000000
54.449000 0.000000
54.495600 0.000000
54.542200 0.000000
54.588800 0.000000
54.635400 0.000000
54.682000 0.000000
54.728600 0.000000
54.775200 0.000000
54.821800 0.000000
54.868400 0.000000
54.915000 0.000000
54.961500 0.000000
55.008100 0.000000
55.054700 0.000000
55.101300 0.000000
55.147900 0.000000
55.194500 0.000000
55.241100 0.000000
55.287700 0.000000
55.334300 0.000000
55.380900 0.000000
55.427500 0.000000
55.474100 0.000000
55.520600 0.000000
55.567200 0.000000
55.613800 0.000000
e
