set title 'mp-1184287 - Density of States'
set xlabel 'Energy (eV)'
set ylabel 'DOS (states/eV)'
set grid
set xrange [-10:10]
set yrange [0:6.648]
set xzeroaxis lt -1
set terminal png size 800,600
set output 'mp-1184287_dos_gnuplot.png'
plot '-' using 1:2 with lines title 'DOS'
-55.181500 0.000000
-55.115600 0.000000
-55.049600 0.000000
-54.983700 0.000000
-54.917800 0.000000
-54.851800 0.000000
-54.785900 0.000000
-54.720000 0.000000
-54.654000 0.000000
-54.588100 0.000000
-54.522200 0.000000
-54.456200 0.000000
-54.390300 0.000000
-54.324300 0.000000
-54.258400 0.000000
-54.192500 0.000000
-54.126500 0.000000
-54.060600 0.000000
-53.994700 0.000000
-53.928700 0.000000
-53.862800 0.000000
-53.796900 0.000000
-53.730900 0.000000
-53.665000 0.000000
-53.599100 0.000000
-53.533100 0.000000
-53.467200 0.000000
-53.401200 0.000000
-53.335300 0.000000
-53.269400 0.000000
-53.203400 0.000000
-53.137500 0.000000
-53.071600 0.000000
-53.005600 0.000000
-52.939700 0.000000
-52.873800 0.000000
-52.807800 0.000000
-52.741900 0.000000
-52.676000 0.000000
-52.610000 0.000000
-52.544100 0.000000
-52.478200 0.000000
-52.412200 0.000000
-52.346300 0.000000
-52.280300 0.000000
-52.214400 0.000000
-52.148500 0.000000
-52.082500 0.000000
-52.016600 0.000000
-51.950700 0.000000
-51.884700 0.000000
-51.818800 0.000000
-51.752900 0.000000
-51.686900 0.000000
-51.621000 0.000000
-51.555100 0.000000
-51.489100 0.000000
-51.423200 0.000000
-51.357200 0.000000
-51.291300 0.000000
-51.225400 0.000000
-51.159400 0.000000
-51.093500 0.000000
-51.027600 0.000000
-50.961600 0.000000
-50.895700 0.000000
-50.829800 0.000000
-50.763800 0.000000
-50.697900 0.000000
-50.632000 0.000000
-50.566000 0.000000
-50.500100 0.000000
-50.434200 0.000000
-50.368200 0.000000
-50.302300 0.000000
-50.236300 0.000000
-50.170400 0.000000
-50.104500 0.000000
-50.038500 0.000000
-49.972600 0.000000
-49.906700 0.000000
-49.840700 0.000000
-49.774800 0.000000
-49.708900 0.000000
-49.642900 0.000000
-49.577000 0.000000
-49.511100 0.000000
-49.445100 0.000000
-49.379200 0.000000
-49.313200 0.000100
-49.247300 0.037700
-49.181400 1.064300
-49.115400 5.134200
-49.049500 11.729300
-48.983600 16.420100
-48.917600 15.306400
-48.851700 16.665700
-48.785800 15.591200
-48.719800 10.893200
-48.653900 16.582600
-48.588000 20.544800
-48.522000 6.266200
-48.456100 0.260400
-48.390200 0.000900
-48.324200 0.000000
-48.258300 0.000000
-48.192300 0.000000
-48.126400 0.000000
-48.060500 0.000000
-47.994500 0.000000
-47.928600 0.000000
-47.862700 0.000000
-47.796700 0.000000
-47.730800 0.000000
-47.664900 0.000000
-47.598900 0.000000
-47.533000 0.000000
-47.467100 0.000000
-47.401100 0.000000
-47.335200 0.000000
-47.269200 0.000000
-47.203300 0.000000
-47.137400 0.000000
-47.071400 0.000000
-47.005500 0.000000
-46.939600 0.000000
-46.873600 0.000000
-46.807700 0.000000
-46.741800 0.000000
-46.675800 0.000000
-46.609900 0.000000
-46.544000 0.000000
-46.478000 0.000000
-46.412100 0.000000
-46.346200 0.000000
-46.280200 0.000000
-46.214300 0.000000
-46.148300 0.000000
-46.082400 0.000000
-46.016500 0.000000
-45.950500 0.000000
-45.884600 0.000000
-45.818700 0.000000
-45.752700 0.000000
-45.686800 0.000000
-45.620900 0.000000
-45.554900 0.000000
-45.489000 0.000000
-45.423100 0.000000
-45.357100 0.000000
-45.291200 0.000000
-45.225200 0.000000
-45.159300 0.000000
-45.093400 0.000000
-45.027400 0.000000
-44.961500 0.000000
-44.895600 0.000000
-44.829600 0.000000
-44.763700 0.000000
-44.697800 0.000000
-44.631800 0.000000
-44.565900 0.000000
-44.500000 0.000000
-44.434000 0.000000
-44.368100 0.000000
-44.302200 0.000000
-44.236200 0.000000
-44.170300 0.000000
-44.104300 0.000000
-44.038400 0.000000
-43.972500 0.000000
-43.906500 0.000000
-43.840600 0.000000
-43.774700 0.000000
-43.708700 0.000000
-43.642800 0.000000
-43.576900 0.000000
-43.510900 0.000000
-43.445000 0.000000
-43.379100 0.000000
-43.313100 0.000000
-43.247200 0.000000
-43.181200 0.000000
-43.115300 0.000000
-43.049400 0.000000
-42.983400 0.000000
-42.917500 0.000000
-42.851600 0.000000
-42.785600 0.000000
-42.719700 0.000000
-42.653800 0.000000
-42.587800 0.000000
-42.521900 0.000000
-42.456000 0.000000
-42.390000 0.000000
-42.324100 0.000000
-42.258200 0.000000
-42.192200 0.000000
-42.126300 0.000000
-42.060300 0.000000
-41.994400 0.000000
-41.928500 0.000000
-41.862500 0.000000
-41.796600 0.000000
-41.730700 0.000000
-41.664700 0.000000
-41.598800 0.000000
-41.532900 0.000000
-41.466900 0.000000
-41.401000 0.000000
-41.335100 0.000000
-41.269100 0.000000
-41.203200 0.000000
-41.137200 0.000000
-41.071300 0.000000
-41.005400 0.000000
-40.939400 0.000000
-40.873500 0.000000
-40.807600 0.000000
-40.741600 0.000000
-40.675700 0.000000
-40.609800 0.000000
-40.543800 0.000000
-40.477900 0.000000
-40.412000 0.000000
-40.346000 0.000000
-40.280100 0.000000
-40.214200 0.000000
-40.148200 0.000000
-40.082300 0.000000
-40.016300 0.000000
-39.950400 0.000000
-39.884500 0.000000
-39.818500 0.000000
-39.752600 0.000000
-39.686700 0.000000
-39.620700 0.000000
-39.554800 0.000000
-39.488900 0.000000
-39.422900 0.000000
-39.357000 0.000000
-39.291100 0.000000
-39.225100 0.000000
-39.159200 0.000000
-39.093200 0.000000
-39.027300 0.000000
-38.961400 0.000000
-38.895400 0.000000
-38.829500 0.000000
-38.763600 0.000000
-38.697600 0.000000
-38.631700 0.000000
-38.565800 0.000000
-38.499800 0.000000
-38.433900 0.000000
-38.368000 0.000000
-38.302000 0.000000
-38.236100 0.000000
-38.170200 0.000000
-38.104200 0.000000
-38.038300 0.000000
-37.972300 0.000000
-37.906400 0.000000
-37.840500 0.000000
-37.774500 0.000000
-37.708600 0.000000
-37.642700 0.000000
-37.576700 0.000000
-37.510800 0.000000
-37.444900 0.000000
-37.378900 0.000000
-37.313000 0.000000
-37.247100 0.000000
-37.181100 0.000000
-37.115200 0.000000
-37.049200 0.000000
-36.983300 0.000000
-36.917400 0.000000
-36.851400 0.000000
-36.785500 0.000000
-36.719600 0.000000
-36.653600 0.000000
-36.587700 0.000000
-36.521800 0.000000
-36.455800 0.000000
-36.389900 0.000000
-36.324000 0.000000
-36.258000 0.000000
-36.192100 0.000000
-36.126200 0.000000
-36.060200 0.000000
-35.994300 0.000000
-35.928300 0.000000
-35.862400 0.000000
-35.796500 0.000000
-35.730500 0.000000
-35.664600 0.000000
-35.598700 0.000000
-35.532700 0.000000
-35.466800 0.000000
-35.400900 0.000000
-35.334900 0.000000
-35.269000 0.000000
-35.203100 0.000000
-35.137100 0.000000
-35.071200 0.000000
-35.005200 0.000000
-34.939300 0.000000
-34.873400 0.000000
-34.807400 0.000000
-34.741500 0.000000
-34.675600 0.000000
-34.609600 0.000000
-34.543700 0.000000
-34.477800 0.000000
-34.411800 0.000000
-34.345900 0.000000
-34.280000 0.000000
-34.214000 0.000000
-34.148100 0.000000
-34.082200 0.000000
-34.016200 0.000000
-33.950300 0.000000
-33.884300 0.000000
-33.818400 0.000000
-33.752500 0.000000
-33.686500 0.000000
-33.620600 0.000000
-33.554700 0.000000
-33.488700 0.000000
-33.422800 0.000000
-33.356900 0.000000
-33.290900 0.000000
-33.225000 0.000000
-33.159100 0.000000
-33.093100 0.000000
-33.027200 0.000000
-32.961200 0.000000
-32.895300 0.000000
-32.829400 0.000000
-32.763400 0.000000
-32.697500 0.000000
-32.631600 0.000000
-32.565600 0.000000
-32.499700 0.000000
-32.433800 0.000000
-32.367800 0.000000
-32.301900 0.000000
-32.236000 0.000000
-32.170000 0.000000
-32.104100 0.000000
-32.038200 0.000000
-31.972200 0.000000
-31.906300 0.000000
-31.840300 0.000000
-31.774400 0.000000
-31.708500 0.000000
-31.642500 0.000000
-31.576600 0.000000
-31.510700 0.000000
-31.444700 0.000000
-31.378800 0.000000
-31.312900 0.000000
-31.246900 0.000000
-31.181000 0.000000
-31.115100 0.000000
-31.049100 0.000000
-30.983200 0.000000
-30.917200 0.000000
-30.851300 0.000000
-30.785400 0.000000
-30.719400 0.000000
-30.653500 0.000000
-30.587600 0.000000
-30.521600 0.000000
-30.455700 0.000000
-30.389800 0.000000
-30.323800 0.000000
-30.257900 0.000000
-30.192000 0.000000
-30.126000 0.000000
-30.060100 0.000000
-29.994200 0.000000
-29.928200 0.000000
-29.862300 0.000000
-29.796300 0.000000
-29.730400 0.000000
-29.664500 0.000000
-29.598500 0.000000
-29.532600 0.000000
-29.466700 0.000000
-29.400700 0.000000
-29.334800 0.000000
-29.268900 0.000000
-29.202900 0.000000
-29.137000 0.000000
-29.071100 0.000000
-29.005100 0.000000
-28.939200 0.000000
-28.873200 0.000000
-28.807300 0.000000
-28.741400 0.000000
-28.675400 0.000000
-28.609500 0.000000
-28.543600 0.000000
-28.477600 0.000000
-28.411700 0.000000
-28.345800 0.000000
-28.279800 0.000000
-28.213900 0.000000
-28.148000 0.000000
-28.082000 0.000000
-28.016100 0.000000
-27.950200 0.000000
-27.884200 0.000000
-27.818300 0.000000
-27.752300 0.000000
-27.686400 0.000000
-27.620500 0.000000
-27.554500 0.000000
-27.488600 0.000000
-27.422700 0.000000
-27.356700 0.000000
-27.290800 0.000000
-27.224900 0.000000
-27.158900 0.000000
-27.093000 0.000000
-27.027100 0.000000
-26.961100 0.000000
-26.895200 0.000000
-26.829200 0.000000
-26.763300 0.000000
-26.697400 0.000000
-26.631400 0.000000
-26.565500 0.000000
-26.499600 0.000000
-26.433600 0.000000
-26.367700 0.000000
-26.301800 0.000000
-26.235800 0.000000
-26.169900 0.000000
-26.104000 0.000000
-26.038000 0.000000
-25.972100 0.000000
-25.906200 0.000000
-25.840200 0.000000
-25.774300 0.000000
-25.708300 0.000000
-25.642400 0.000000
-25.576500 0.000000
-25.510500 0.000000
-25.444600 0.000000
-25.378700 0.000000
-25.312700 0.000000
-25.246800 0.000000
-25.180900 0.000000
-25.114900 0.000000
-25.049000 0.000000
-24.983100 0.000000
-24.917100 0.000000
-24.851200 0.000000
-24.785200 0.000000
-24.719300 0.000000
-24.653400 0.000000
-24.587400 0.000000
-24.521500 0.000000
-24.455600 0.000000
-24.389600 0.000000
-24.323700 0.000000
-24.257800 0.000000
-24.191800 0.000000
-24.125900 0.000000
-24.060000 0.000000
-23.994000 0.000000
-23.928100 0.000000
-23.862100 0.000000
-23.796200 0.000000
-23.730300 0.000000
-23.664300 0.000000
-23.598400 0.000000
-23.532500 0.000000
-23.466500 0.000000
-23.400600 0.000000
-23.334700 0.000000
-23.268700 0.000000
-23.202800 0.000000
-23.136900 0.000000
-23.070900 0.000000
-23.005000 0.000000
-22.939100 0.000000
-22.873100 0.000000
-22.807200 0.000000
-22.741200 0.000000
-22.675300 0.000000
-22.609400 0.000000
-22.543400 0.000000
-22.477500 0.000000
-22.411600 0.000000
-22.345600 0.000000
-22.279700 0.000000
-22.213800 0.000000
-22.147800 0.000000
-22.081900 0.000000
-22.016000 0.000000
-21.950000 0.000000
-21.884100 0.000000
-21.818100 0.000000
-21.752200 0.000000
-21.686300 0.000000
-21.620300 0.000000
-21.554400 0.000000
-21.488500 0.000000
-21.422500 0.000000
-21.356600 0.000000
-21.290700 0.000000
-21.224700 0.000000
-21.158800 0.000000
-21.092900 0.000000
-21.026900 0.000000
-20.961000 0.000000
-20.895100 0.000000
-20.829100 0.000000
-20.763200 0.000000
-20.697200 0.000000
-20.631300 0.000000
-20.565400 0.000000
-20.499400 0.000000
-20.433500 0.000000
-20.367600 0.000000
-20.301600 0.000000
-20.235700 0.000000
-20.169800 0.000000
-20.103800 0.000000
-20.037900 0.000000
-19.972000 0.000000
-19.906000 0.000000
-19.840100 0.000000
-19.774100 0.000000
-19.708200 0.000000
-19.642300 0.000000
-19.576300 0.000000
-19.510400 0.000000
-19.444500 0.000000
-19.378500 0.000000
-19.312600 0.000000
-19.246700 0.000000
-19.180700 0.000000
-19.114800 0.000000
-19.048900 0.000000
-18.982900 0.000000
-18.917000 0.000000
-18.851100 0.000000
-18.785100 0.000000
-18.719200 0.000000
-18.653200 0.000000
-18.587300 0.000000
-18.521400 0.000000
-18.455400 0.000000
-18.389500 0.000000
-18.323600 0.000000
-18.257600 0.000000
-18.191700 0.000000
-18.125800 0.000000
-18.059800 0.000000
-17.993900 0.000000
-17.928000 0.000000
-17.862000 0.000000
-17.796100 0.000000
-17.730100 0.000000
-17.664200 0.000000
-17.598300 0.000000
-17.532300 0.000000
-17.466400 0.000000
-17.400500 0.000000
-17.334500 0.000000
-17.268600 0.000000
-17.202700 0.000000
-17.136700 0.000000
-17.070800 0.000000
-17.004900 0.000000
-16.938900 0.000000
-16.873000 0.000000
-16.807100 0.000000
-16.741100 0.000000
-16.675200 0.000000
-16.609200 0.000000
-16.543300 0.000000
-16.477400 0.000000
-16.411400 0.000000
-16.345500 0.000000
-16.279600 0.000000
-16.213600 0.000000
-16.147700 0.000000
-16.081800 0.000000
-16.015800 0.000000
-15.949900 0.000000
-15.884000 0.000000
-15.818000 0.000000
-15.752100 0.000000
-15.686100 0.000000
-15.620200 0.000000
-15.554300 0.000000
-15.488300 0.000000
-15.422400 0.000000
-15.356500 0.000000
-15.290500 0.000000
-15.224600 0.000000
-15.158700 0.000000
-15.092700 0.000000
-15.026800 0.000000
-14.960900 0.000000
-14.894900 0.000000
-14.829000 0.000000
-14.763100 0.000000
-14.697100 0.000000
-14.631200 0.000000
-14.565200 0.000000
-14.499300 0.000000
-14.433400 0.000000
-14.367400 0.000000
-14.301500 0.000000
-14.235600 0.000000
-14.169600 0.000000
-14.103700 0.000000
-14.037800 0.000000
-13.971800 0.000000
-13.905900 0.000000
-13.840000 0.000000
-13.774000 0.000000
-13.708100 0.000000
-13.642100 0.000000
-13.576200 0.000000
-13.510300 0.000000
-13.444300 0.000000
-13.378400 0.000000
-13.312500 0.000000
-13.246500 0.000000
-13.180600 0.000000
-13.114700 0.000000
-13.048700 0.000000
-12.982800 0.000000
-12.916900 0.000000
-12.850900 0.000000
-12.785000 0.000000
-12.719100 0.000000
-12.653100 0.000000
-12.587200 0.000000
-12.521200 0.000000
-12.455300 0.000000
-12.389400 0.000000
-12.323400 0.000000
-12.257500 0.000000
-12.191600 0.000000
-12.125600 0.000000
-12.059700 0.000000
-11.993800 0.000000
-11.927800 0.000000
-11.861900 0.000000
-11.796000 0.000000
-11.730000 0.000000
-11.664100 0.000000
-11.598100 0.000000
-11.532200 0.000000
-11.466300 0.000000
-11.400300 0.000000
-11.334400 0.000000
-11.268500 0.000000
-11.202500 0.000000
-11.136600 0.000000
-11.070700 0.000000
-11.004700 0.000000
-10.938800 0.000000
-10.872900 0.000000
-10.806900 0.000000
-10.741000 0.000000
-10.675100 0.000000
-10.609100 0.000000
-10.543200 0.000000
-10.477200 0.000000
-10.411300 0.000000
-10.345400 0.000000
-10.279400 0.000000
-10.213500 0.000000
-10.147600 0.000000
-10.081600 0.000000
-10.015700 0.000000
-9.949800 0.000000
-9.883800 0.000000
-9.817900 0.000000
-9.752000 0.000000
-9.686000 0.000000
-9.620100 0.000000
-9.554100 0.000000
-9.488200 0.000000
-9.422300 0.000000
-9.356300 0.000000
-9.290400 0.000000
-9.224500 0.000000
-9.158500 0.000000
-9.092600 0.000000
-9.026700 0.000000
-8.960700 0.000000
-8.894800 0.000000
-8.828900 0.000000
-8.762900 0.000000
-8.697000 0.000000
-8.631100 0.000000
-8.565100 0.000000
-8.499200 0.000000
-8.433200 0.000000
-8.367300 0.000000
-8.301400 0.000000
-8.235400 0.000000
-8.169500 0.000000
-8.103600 0.000000
-8.037600 0.000000
-7.971700 0.000000
-7.905800 0.000000
-7.839800 0.000000
-7.773900 0.000000
-7.708000 0.000000
-7.642000 0.000000
-7.576100 0.000000
-7.510100 0.000000
-7.444200 0.000000
-7.378300 0.000000
-7.312300 0.000000
-7.246400 0.000000
-7.180500 0.000000
-7.114500 0.000000
-7.048600 0.000000
-6.982700 0.000000
-6.916700 0.000000
-6.850800 0.000000
-6.784900 0.000000
-6.718900 0.000000
-6.653000 0.000000
-6.587100 0.000000
-6.521100 0.000000
-6.455200 0.000000
-6.389200 0.000000
-6.323300 0.000000
-6.257400 0.000000
-6.191400 0.000000
-6.125500 0.000000
-6.059600 0.000000
-5.993600 0.000000
-5.927700 0.000000
-5.861800 0.000000
-5.795800 0.000000
-5.729900 0.000000
-5.664000 0.000000
-5.598000 0.000000
-5.532100 0.000000
-5.466100 0.000000
-5.400200 0.000000
-5.334300 0.000000
-5.268300 0.000000
-5.202400 0.000000
-5.136500 0.000000
-5.070500 0.000000
-5.004600 0.000000
-4.938700 0.000000
-4.872700 0.000000
-4.806800 0.000000
-4.740900 0.000000
-4.674900 0.000000
-4.609000 0.000000
-4.543100 0.000000
-4.477100 0.000800
-4.411200 0.010000
-4.345200 0.025600
-4.279300 0.060900
-4.213400 0.038100
-4.147400 0.054600
-4.081500 0.095100
-4.015600 0.111200
-3.949600 0.056900
-3.883700 0.048700
-3.817800 0.122000
-3.751800 0.174700
-3.685900 0.103200
-3.620000 0.107900
-3.554000 0.114400
-3.488100 0.102900
-3.422100 0.132300
-3.356200 0.179900
-3.290300 0.229200
-3.224300 0.144000
-3.158400 0.142600
-3.092500 0.117700
-3.026500 0.176400
-2.960600 0.222300
-2.894700 0.204400
-2.828700 0.235000
-2.762800 0.224500
-2.696900 0.216800
-2.630900 0.220700
-2.565000 0.184000
-2.499100 0.234800
-2.433100 0.402100
-2.367200 0.276300
-2.301200 0.219100
-2.235300 0.254900
-2.169400 0.368900
-2.103400 0.454000
-2.037500 0.387700
-1.971600 0.422000
-1.905600 0.415500
-1.839700 0.446500
-1.773800 0.568600
-1.707800 0.761900
-1.641900 0.742900
-1.576000 0.826600
-1.510000 1.114000
-1.444100 1.291200
-1.378100 1.276700
-1.312200 0.760900
-1.246300 0.083600
-1.180300 0.001000
-1.114400 0.000000
-1.048500 0.000000
-0.982500 0.000000
-0.916600 0.000000
-0.850700 0.000000
-0.784700 0.000000
-0.718800 0.000100
-0.652900 0.004600
-0.586900 0.046400
-0.521000 0.109700
-0.455100 0.133200
-0.389100 0.214100
-0.323200 0.166700
-0.257200 0.240800
-0.191300 0.304400
-0.125400 0.235100
-0.059400 0.475500
0.006500 0.566200
0.072400 0.743600
0.138400 0.813400
0.204300 1.081800
0.270200 1.346500
0.336200 1.948300
0.402100 1.788300
0.468000 1.557600
0.534000 1.354400
0.599900 1.155300
0.665900 1.060400
0.731800 0.888000
0.797700 0.951700
0.863700 1.143900
0.929600 1.138900
0.995500 1.554400
1.061500 2.585600
1.127400 3.554200
1.193300 4.237000
1.259300 4.181700
1.325200 3.597000
1.391100 3.728400
1.457100 3.824100
1.523000 3.489300
1.588900 3.537800
1.654900 3.634800
1.720800 3.725700
1.786800 3.401200
1.852700 3.355000
1.918600 2.749700
1.984600 2.593000
2.050500 2.729900
2.116400 2.526000
2.182400 2.156600
2.248300 2.111200
2.314200 2.412100
2.380200 2.822700
2.446100 2.921600
2.512000 3.141400
2.578000 2.846200
2.643900 2.732600
2.709900 2.709800
2.775800 2.806200
2.841700 2.714500
2.907700 2.916500
2.973600 2.752000
3.039500 2.417300
3.105500 2.896200
3.171400 3.337400
3.237300 3.384600
3.303300 3.101200
3.369200 3.289500
3.435100 3.162000
3.501100 2.783200
3.567000 2.734200
3.632900 3.417700
3.698900 4.036000
3.764800 4.235200
3.830800 3.656900
3.896700 2.653300
3.962600 2.625700
4.028600 3.017100
4.094500 3.513400
4.160400 4.394100
4.226400 5.715800
4.292300 5.815000
4.358200 6.043300
4.424200 5.020200
4.490100 3.369600
4.556000 1.870300
4.622000 1.762200
4.687900 2.054400
4.753900 1.538200
4.819800 1.189500
4.885700 1.349300
4.951700 1.362600
5.017600 1.344700
5.083500 1.807700
5.149500 2.633500
5.215400 3.083500
5.281300 3.968500
5.347300 3.760200
5.413200 1.897400
5.479100 0.925500
5.545100 0.393700
5.611000 0.454000
5.676900 0.844300
5.742900 1.029600
5.808800 0.971600
5.874800 0.946200
5.940700 0.818000
6.006600 0.745700
6.072600 0.639700
6.138500 0.569800
6.204400 0.607100
6.270400 0.542000
6.336300 0.724800
6.402200 0.579800
6.468200 0.478100
6.534100 0.562700
6.600000 0.505300
6.666000 0.341200
6.731900 0.485900
6.797900 0.653400
6.863800 0.457300
6.929700 0.643200
6.995700 0.464900
7.061600 0.499100
7.127500 0.648100
7.193500 0.430600
7.259400 0.669900
7.325300 0.584100
7.391300 0.571200
7.457200 0.788400
7.523100 0.692000
7.589100 0.702700
7.655000 0.971600
7.720900 0.681000
7.786900 0.810300
7.852800 0.861500
7.918800 0.503000
7.984700 0.497500
8.050600 0.540600
8.116600 0.479400
8.182500 0.462500
8.248400 0.428300
8.314400 0.649800
8.380300 0.693200
8.446200 0.661600
8.512200 0.700000
8.578100 0.777800
8.644000 0.559100
8.710000 0.277200
8.775900 0.360800
8.841900 0.454000
8.907800 0.326300
8.973700 0.235400
9.039700 0.273200
9.105600 0.305400
9.171500 0.408500
9.237500 0.415300
9.303400 0.504500
9.369300 0.582700
9.435300 0.557700
9.501200 0.501000
9.567100 0.522000
9.633100 0.518300
9.699000 0.507700
9.764900 0.248200
9.830900 0.406000
9.896800 0.362100
9.962800 0.396400
10.028700 0.332800
10.094600 0.346700
10.160600 0.308100
10.226500 0.317800
10.292400 0.307900
10.358400 0.322500
10.424300 0.398500
10.490200 0.427700
10.556200 0.390100
10.622100 0.487600
10.688000 0.528300
10.754000 0.556600
10.819900 0.400500
10.885900 0.296900
10.951800 0.354000
11.017700 0.322600
11.083700 0.253400
11.149600 0.386900
11.215500 0.614300
11.281500 0.727900
11.347400 0.584300
11.413300 0.626700
11.479300 0.395300
11.545200 0.251400
11.611100 0.361600
11.677100 0.395200
11.743000 0.436500
11.808900 0.648500
11.874900 0.661800
11.940800 0.580900
12.006800 0.438900
12.072700 0.642100
12.138600 0.655400
12.204600 0.721900
12.270500 0.494000
12.336400 0.497600
12.402400 0.534900
12.468300 0.427200
12.534200 0.354100
12.600200 0.362800
12.666100 0.369600
12.732000 0.440800
12.798000 0.371300
12.863900 0.233300
12.929900 0.157600
12.995800 0.183400
13.061700 0.233500
13.127700 0.228000
13.193600 0.327200
13.259500 0.274600
13.325500 0.243100
13.391400 0.235500
13.457300 0.258000
13.523300 0.190300
13.589200 0.234700
13.655100 0.502200
13.721100 0.445800
13.787000 0.532200
13.852900 0.480000
13.918900 0.347000
13.984800 0.416900
14.050800 0.817300
14.116700 0.663100
14.182600 0.491100
14.248600 0.332100
14.314500 0.488500
14.380400 0.497800
14.446400 0.292600
14.512300 0.419100
14.578200 0.289700
14.644200 0.191700
14.710100 0.411200
14.776000 0.534600
14.842000 0.464400
14.907900 0.305700
14.973900 0.488200
15.039800 0.489900
15.105700 0.339700
15.171700 0.324300
15.237600 0.227300
15.303500 0.221600
15.369500 0.310400
15.435400 0.291700
15.501300 0.305600
15.567300 0.293100
15.633200 0.326700
15.699100 0.430500
15.765100 0.398000
15.831000 0.546300
15.896900 0.479800
15.962900 0.368000
16.028800 0.358600
16.094800 0.504500
16.160700 0.594300
16.226600 0.491300
16.292600 0.561100
16.358500 0.570500
16.424400 0.442700
16.490400 0.478600
16.556300 0.439700
16.622200 0.397100
16.688200 0.402100
16.754100 0.296300
16.820000 0.334000
16.886000 0.355300
16.951900 0.569600
17.017900 0.570200
17.083800 0.646900
17.149700 0.743300
17.215700 0.632200
17.281600 0.421700
17.347500 0.399800
17.413500 0.491500
17.479400 0.380500
17.545300 0.330700
17.611300 0.502800
17.677200 0.778400
17.743100 0.708200
17.809100 0.584500
17.875000 0.663000
17.940900 0.576000
18.006900 0.558200
18.072800 0.518200
18.138800 0.438800
18.204700 0.517800
18.270600 0.555400
18.336600 0.526000
18.402500 0.495500
18.468400 0.536200
18.534400 0.854500
18.600300 0.891600
18.666200 0.882400
18.732200 0.788500
18.798100 0.723600
18.864000 0.607400
18.930000 0.534300
18.995900 0.796000
19.061900 0.791400
19.127800 0.992300
19.193700 0.972500
19.259700 0.965900
19.325600 1.041400
19.391500 0.815100
19.457500 0.694900
19.523400 0.698600
19.589300 0.556000
19.655300 0.366900
19.721200 0.372800
19.787100 0.472200
19.853100 0.528500
19.919000 0.576100
19.984900 0.420000
20.050900 0.517700
20.116800 0.619300
20.182800 0.933400
20.248700 0.740700
20.314600 0.819600
20.380600 0.614600
20.446500 0.747200
20.512400 0.910700
20.578400 0.792500
20.644300 0.843500
20.710200 0.741800
20.776200 0.610500
20.842100 0.512000
20.908000 0.610100
20.974000 0.589600
21.039900 0.517500
21.105900 0.646400
21.171800 0.613400
21.237700 0.836700
21.303700 1.058300
21.369600 0.750000
21.435500 0.670200
21.501500 0.449900
21.567400 0.558400
21.633300 0.704000
21.699300 0.666300
21.765200 0.830400
21.831100 0.978400
21.897100 0.706800
21.963000 0.696100
22.028900 0.677800
22.094900 1.052600
22.160800 1.165400
22.226800 0.816900
22.292700 0.527300
22.358600 0.428000
22.424600 0.565200
22.490500 0.543900
22.556400 0.596000
22.622400 0.861400
22.688300 0.761900
22.754200 0.665200
22.820200 0.765300
22.886100 0.671400
22.952000 0.600700
23.018000 0.651800
23.083900 0.624900
23.149900 0.463200
23.215800 0.610200
23.281700 0.785800
23.347700 0.887400
23.413600 0.942100
23.479500 0.810300
23.545500 1.089600
23.611400 1.060400
23.677300 0.778400
23.743300 0.632400
23.809200 0.776100
23.875100 0.716900
23.941100 0.619300
24.007000 0.820500
24.072900 0.782000
24.138900 0.672500
24.204800 0.723900
24.270800 0.565900
24.336700 0.535300
24.402600 0.961200
24.468600 0.956200
24.534500 0.786900
24.600400 0.739200
24.666400 0.978500
24.732300 0.894800
24.798200 0.747300
24.864200 0.660100
24.930100 0.584100
24.996000 0.491200
25.062000 0.695100
25.127900 0.737400
25.193900 0.741200
25.259800 0.747400
25.325700 0.756700
25.391700 0.608900
25.457600 0.688700
25.523500 0.960600
25.589500 0.926700
25.655400 0.695000
25.721300 0.866500
25.787300 0.939400
25.853200 0.818000
25.919100 0.882700
25.985100 0.890000
26.051000 0.916600
26.116900 0.678400
26.182900 0.534800
26.248800 0.610500
26.314800 0.827900
26.380700 0.814200
26.446600 0.778300
26.512600 0.801200
26.578500 0.569700
26.644400 0.574100
26.710400 0.614100
26.776300 0.748000
26.842200 0.927600
26.908200 0.817500
26.974100 0.791500
27.040000 0.648200
27.106000 0.696900
27.171900 0.871200
27.237900 0.701800
27.303800 0.735500
27.369700 0.837700
27.435700 0.739000
27.501600 0.792300
27.567500 0.722700
27.633500 0.693700
27.699400 0.653100
27.765300 0.732000
27.831300 0.541200
27.897200 0.457400
27.963100 0.802500
28.029100 0.792500
28.095000 0.845800
28.160900 0.626100
28.226900 0.447800
28.292800 0.563700
28.358800 0.518000
28.424700 0.858200
28.490600 1.065500
28.556600 1.026400
28.622500 0.959200
28.688400 0.966300
28.754400 0.603500
28.820300 0.599200
28.886200 0.837800
28.952200 0.807600
29.018100 0.693100
29.084000 0.700800
29.150000 0.926700
29.215900 1.104300
29.281900 0.932200
29.347800 1.140600
29.413700 1.088800
29.479700 0.773000
29.545600 0.535600
29.611500 0.489300
29.677500 0.856200
29.743400 1.183100
29.809300 1.019500
29.875300 0.831100
29.941200 0.854800
30.007100 0.821600
30.073100 0.527400
30.139000 0.370500
30.204900 0.675400
30.270900 0.852300
30.336800 0.666900
30.402800 0.405600
30.468700 0.763300
30.534600 0.847900
30.600600 0.733500
30.666500 0.942700
30.732400 1.111900
30.798400 1.065800
30.864300 0.889700
30.930200 0.925500
30.996200 0.861400
31.062100 0.867000
31.128000 0.821100
31.194000 0.816300
31.259900 0.897100
31.325900 0.929700
31.391800 0.761900
31.457700 0.766600
31.523700 0.730600
31.589600 0.890500
31.655500 1.199400
31.721500 0.828400
31.787400 0.753900
31.853300 0.836700
31.919300 0.902800
31.985200 0.669500
32.051100 0.904000
32.117100 1.307000
32.183000 1.026200
32.249000 0.882800
32.314900 0.981400
32.380800 0.716100
32.446800 0.551600
32.512700 0.590100
32.578600 0.655000
32.644600 0.816100
32.710500 0.839300
32.776400 1.061000
32.842400 1.016200
32.908300 1.015400
32.974200 1.343100
33.040200 1.204600
33.106100 0.673000
33.172000 0.775400
33.238000 0.915200
33.303900 0.866400
33.369900 1.256300
33.435800 1.006300
33.501700 0.808700
33.567700 0.929600
33.633600 0.689800
33.699500 0.795800
33.765500 0.851800
33.831400 0.584000
33.897300 0.516300
33.963300 0.860200
34.029200 1.058400
34.095100 1.077600
34.161100 0.918400
34.227000 0.751700
34.293000 0.781700
34.358900 1.028300
34.424800 0.822900
34.490800 0.766400
34.556700 0.667700
34.622600 0.734000
34.688600 0.582800
34.754500 0.715000
34.820400 0.780600
34.886400 0.620800
34.952300 0.465500
35.018200 0.573900
35.084200 0.728000
35.150100 0.493300
35.216000 0.668500
35.282000 0.767300
35.347900 0.752700
35.413900 0.512000
35.479800 0.547100
35.545700 0.634300
35.611700 0.499700
35.677600 0.523700
35.743500 0.592300
35.809500 0.595900
35.875400 0.787400
35.941300 0.854200
36.007300 0.819800
36.073200 0.904300
36.139100 0.722800
36.205100 0.799300
36.271000 1.092400
36.337000 1.085500
36.402900 0.891300
36.468800 0.917500
36.534800 0.845300
36.600700 0.585700
36.666600 0.761100
36.732600 0.672400
36.798500 0.807500
36.864400 0.633000
36.930400 0.971400
36.996300 1.188000
37.062200 0.732100
37.128200 0.482800
37.194100 0.777300
37.260000 0.818400
37.326000 0.668300
37.391900 0.813600
37.457900 0.894000
37.523800 1.028500
37.589700 0.895700
37.655700 0.827800
37.721600 0.797500
37.787500 1.040700
37.853500 0.840100
37.919400 0.714700
37.985300 0.931400
38.051300 0.880500
38.117200 0.837700
38.183100 0.845600
38.249100 0.883600
38.315000 0.807200
38.381000 0.720300
38.446900 0.582400
38.512800 0.804500
38.578800 1.158300
38.644700 1.056200
38.710600 1.180700
38.776600 1.077400
38.842500 0.944300
38.908400 0.870000
38.974400 1.133400
39.040300 1.047900
39.106200 0.714800
39.172200 0.678700
39.238100 0.806500
39.304000 1.137100
39.370000 1.194400
39.435900 0.909800
39.501900 0.886100
39.567800 0.843100
39.633700 0.980300
39.699700 1.000500
39.765600 0.982000
39.831500 1.118600
39.897500 1.084900
39.963400 1.024300
40.029300 0.867900
40.095300 0.771000
40.161200 0.667300
40.227100 0.994100
40.293100 1.129500
40.359000 0.939000
40.425000 0.805400
40.490900 0.754600
40.556800 1.020400
40.622800 1.202200
40.688700 0.953800
40.754600 0.705000
40.820600 0.973600
40.886500 1.033500
40.952400 0.740800
41.018400 0.799300
41.084300 0.992900
41.150200 0.841300
41.216200 0.545700
41.282100 0.504000
41.348000 0.697800
41.414000 1.046700
41.479900 0.824700
41.545900 0.710400
41.611800 0.808100
41.677700 0.994100
41.743700 1.198600
41.809600 1.022100
41.875500 0.836500
41.941500 0.977600
42.007400 0.916600
42.073300 0.695900
42.139300 0.587500
42.205200 0.523500
42.271100 0.910600
42.337100 1.248000
42.403000 1.387900
42.469000 1.141600
42.534900 0.988700
42.600800 0.869900
42.666800 1.017900
42.732700 1.038000
42.798600 0.901700
42.864600 0.871400
42.930500 1.191300
42.996400 1.073700
43.062400 0.899500
43.128300 0.729300
43.194200 0.785900
43.260200 0.871900
43.326100 0.895000
43.392000 0.927200
43.458000 0.999500
43.523900 0.872400
43.589900 0.903800
43.655800 1.013400
43.721700 1.295600
43.787700 1.242800
43.853600 0.965200
43.919500 0.987200
43.985500 0.813600
44.051400 0.719800
44.117300 0.746100
44.183300 0.990200
44.249200 1.196300
44.315100 0.932300
44.381100 0.794600
44.447000 0.645800
44.513000 0.776000
44.578900 0.924200
44.644800 0.787800
44.710800 0.824400
44.776700 0.807400
44.842600 0.580400
44.908600 0.757500
44.974500 0.972400
45.040400 0.959100
45.106400 0.805700
45.172300 0.815500
45.238200 1.116100
45.304200 1.080700
45.370100 1.052300
45.436000 1.275300
45.502000 1.066900
45.567900 1.029600
45.633900 1.023100
45.699800 0.888800
45.765700 0.757300
45.831700 1.145300
45.897600 0.953200
45.963500 0.980600
46.029500 1.021300
46.095400 1.082500
46.161300 1.142500
46.227300 0.993100
46.293200 0.946200
46.359100 1.023300
46.425100 1.114700
46.491000 0.721600
46.557000 0.806100
46.622900 0.786100
46.688800 0.821600
46.754800 0.964200
46.820700 0.894900
46.886600 0.721200
46.952600 1.059600
47.018500 0.927800
47.084400 0.855200
47.150400 0.769900
47.216300 0.845500
47.282200 1.102500
47.348200 0.996900
47.414100 0.915300
47.480000 0.898700
47.546000 0.981800
47.611900 1.062600
47.677900 1.148500
47.743800 1.044300
47.809700 1.015800
47.875700 1.039900
47.941600 0.880200
48.007500 0.969600
48.073500 0.786800
48.139400 0.853600
48.205300 1.064000
48.271300 1.088600
48.337200 1.195300
48.403100 1.200100
48.469100 0.902900
48.535000 0.868500
48.601000 0.895200
48.666900 0.900200
48.732800 0.846500
48.798800 0.697400
48.864700 0.957400
48.930600 1.231000
48.996600 1.137000
49.062500 1.263800
49.128400 1.156400
49.194400 0.879400
49.260300 0.760800
49.326200 0.696300
49.392200 0.930300
49.458100 1.043500
49.524000 1.000500
49.590000 0.834900
49.655900 0.697000
49.721900 0.956600
49.787800 1.172000
49.853700 0.861300
49.919700 0.725200
49.985600 1.306500
50.051500 1.495200
50.117500 0.913800
50.183400 0.968600
50.249300 1.023100
50.315300 1.213100
50.381200 1.101600
50.447100 1.042400
50.513100 0.983900
50.579000 0.859500
50.645000 0.792600
50.710900 1.129500
50.776800 0.996200
50.842800 0.946300
50.908700 1.105900
50.974600 1.166800
51.040600 1.737500
51.106500 1.229500
51.172400 1.201300
51.238400 1.312900
51.304300 1.263900
51.370200 1.423600
51.436200 1.518400
51.502100 1.193300
51.568000 1.032300
51.634000 1.537500
51.699900 1.571700
51.765900 1.542400
51.831800 1.670900
51.897700 1.578000
51.963700 2.380100
52.029600 3.157600
52.095500 3.415100
52.161500 3.514800
52.227400 3.758000
52.293300 4.489300
52.359300 5.000400
52.425200 4.474900
52.491100 3.754100
52.557100 2.497600
52.623000 2.056600
52.689000 2.246200
52.754900 2.155500
52.820800 1.652500
52.886800 1.623600
52.952700 1.576300
53.018600 1.294600
53.084600 1.518000
53.150500 1.325200
53.216400 0.881800
53.282400 0.855700
53.348300 1.433600
53.414200 1.657700
53.480200 1.667500
53.546100 1.248200
53.612000 1.110800
53.678000 1.372800
53.743900 1.456800
53.809900 1.294700
53.875800 1.257200
53.941700 1.137300
54.007700 0.857300
54.073600 0.983000
54.139500 1.167500
54.205500 1.063600
54.271400 1.353700
54.337300 1.435600
54.403300 0.953300
54.469200 0.759200
54.535100 0.922700
54.601100 1.370400
54.667000 1.246100
54.733000 1.086800
54.798900 1.048500
54.864800 0.928100
54.930800 0.674300
54.996700 0.949200
55.062600 1.198000
55.128600 1.380800
55.194500 1.462500
55.260400 0.875100
55.326400 1.045500
55.392300 1.041400
55.458200 0.874500
55.524200 0.882500
55.590100 1.148000
55.656000 1.122900
55.722000 0.947900
55.787900 1.013500
55.853900 1.046800
55.919800 0.870300
55.985700 1.067000
56.051700 1.087400
56.117600 0.758700
56.183500 1.098000
56.249500 1.244700
56.315400 1.010300
56.381300 1.133700
56.447300 0.947900
56.513200 1.154100
56.579100 1.200900
56.645100 1.062000
56.711000 1.057100
56.777000 1.090200
56.842900 1.389900
56.908800 1.317300
56.974800 1.042200
57.040700 1.414700
57.106600 1.128700
57.172600 0.770000
57.238500 0.974400
57.304400 0.859400
57.370400 0.856500
57.436300 0.867400
57.502200 1.084600
57.568200 1.239700
57.634100 0.930500
57.700000 1.257700
57.766000 1.435100
57.831900 0.958100
57.897900 0.953700
57.963800 0.946200
58.029700 1.045200
58.095700 1.351400
58.161600 1.207900
58.227500 1.214800
58.293500 0.990300
58.359400 0.872400
58.425300 0.760800
58.491300 0.759600
58.557200 1.156300
58.623100 1.496200
58.689100 1.439100
58.755000 0.996100
58.821000 0.902600
58.886900 1.227800
58.952800 1.249700
59.018800 1.083900
59.084700 0.943000
59.150600 1.230400
59.216600 1.414700
59.282500 1.385000
59.348400 1.112200
59.414400 1.131900
59.480300 1.223200
59.546200 0.987100
59.612200 0.862300
59.678100 0.954700
59.744000 1.075400
59.810000 1.051500
59.875900 0.860900
59.941900 0.911200
60.007800 0.897200
60.073700 1.300000
60.139700 1.360400
60.205600 1.373800
60.271500 1.146300
60.337500 0.975500
60.403400 0.917700
60.469300 1.242500
60.535300 1.273100
60.601200 1.110400
60.667100 1.082600
60.733100 1.232000
60.799000 1.308000
60.865000 1.120900
60.930900 1.025000
60.996800 0.925500
61.062800 0.739700
61.128700 0.927900
61.194600 0.947900
61.260600 1.061000
61.326500 0.977800
61.392400 1.102400
61.458400 1.079400
61.524300 1.236800
61.590200 1.236700
61.656200 1.051000
61.722100 0.831800
61.788000 0.713100
61.854000 1.165100
61.919900 1.171100
61.985900 0.881300
62.051800 1.238400
62.117700 1.472200
62.183700 1.494800
62.249600 1.280700
62.315500 1.199600
62.381500 0.954100
62.447400 1.105900
62.513300 1.044300
62.579300 1.148900
62.645200 0.995200
62.711100 1.275400
62.777100 1.422100
62.843000 1.146200
62.909000 1.119400
62.974900 1.238700
63.040800 1.139700
63.106800 1.315000
63.172700 1.392800
63.238600 1.182400
63.304600 1.168900
63.370500 1.457300
63.436400 1.256200
63.502400 0.979500
63.568300 0.921500
63.634200 1.093500
63.700200 1.398200
63.766100 1.135000
63.832000 0.983600
63.898000 1.318100
63.963900 1.291000
64.029900 1.193300
64.095800 1.497100
64.161700 1.460100
64.227700 1.253800
64.293600 1.228800
64.359500 1.178600
64.425500 1.266000
64.491400 1.446300
64.557300 0.991500
64.623300 0.710900
64.689200 0.858500
64.755100 1.168900
64.821100 1.162400
64.887000 1.098600
64.953000 0.792900
65.018900 0.837100
65.084800 0.912300
65.150800 0.777600
65.216700 1.199000
65.282600 1.215000
65.348600 1.197900
65.414500 1.192400
65.480400 1.448100
65.546400 1.221500
65.612300 1.180200
65.678200 1.051200
65.744200 0.770400
65.810100 0.974200
65.876000 1.161100
65.942000 1.268500
66.007900 0.976200
66.073900 0.983000
66.139800 0.947800
66.205700 0.981300
66.271700 0.922700
66.337600 1.166400
66.403500 0.904200
66.469500 1.043800
66.535400 1.197300
66.601300 0.904100
66.667300 0.933900
66.733200 1.304800
66.799100 1.053800
66.865100 0.938300
66.931000 0.795100
66.997000 0.820100
67.062900 0.936400
67.128800 0.736700
67.194800 0.646800
67.260700 0.956100
67.326600 1.035600
67.392600 1.116500
67.458500 0.881400
67.524400 0.664400
67.590400 0.558800
67.656300 0.579300
67.722200 0.479800
67.788200 0.586200
67.854100 0.949400
67.920000 1.008700
67.986000 0.749800
68.051900 0.574600
68.117900 0.457500
68.183800 0.541400
68.249700 0.636800
68.315700 0.489600
68.381600 0.317800
68.447500 0.267600
68.513500 0.486300
68.579400 0.494200
68.645300 0.613600
68.711300 0.491800
68.777200 0.237500
68.843100 0.174800
68.909100 0.198700
68.975000 0.170200
69.041000 0.180300
69.106900 0.159900
69.172800 0.166700
69.238800 0.139200
69.304700 0.066000
69.370600 0.058900
69.436600 0.030500
69.502500 0.077700
69.568400 0.195300
69.634400 0.114600
69.700300 0.057700
69.766200 0.025900
69.832200 0.020300
69.898100 0.018000
69.964000 0.008600
70.030000 0.018500
70.095900 0.064100
70.161900 0.063600
70.227800 0.004700
70.293700 0.000000
70.359700 0.002400
70.425600 0.024200
70.491500 0.016900
70.557500 0.000700
70.623400 0.000000
70.689300 0.000000
70.755300 0.000000
70.821200 0.000000
70.887100 0.000000
70.953100 0.000000
71.019000 0.000000
71.085000 0.000000
71.150900 0.000000
71.216800 0.000000
71.282800 0.000000
71.348700 0.000000
71.414600 0.000000
71.480600 0.000000
71.546500 0.000000
71.612400 0.000000
71.678400 0.000000
71.744300 0.000000
71.810200 0.000000
71.876200 0.000000
71.942100 0.000000
72.008000 0.000000
72.074000 0.000000
72.139900 0.000000
72.205900 0.000000
72.271800 0.000000
72.337700 0.000000
72.403700 0.000000
72.469600 0.000000
72.535500 0.000000
72.601500 0.000000
72.667400 0.000000
72.733300 0.000000
72.799300 0.000000
72.865200 0.000000
72.931100 0.000000
72.997100 0.000000
73.063000 0.000000
73.129000 0.000000
73.194900 0.000000
73.260800 0.000000
73.326800 0.000000
73.392700 0.000000
73.458600 0.000000
73.524600 0.000000
73.590500 0.000000
73.656400 0.000000
73.722400 0.000000
73.788300 0.000000
73.854200 0.000000
73.920200 0.000000
73.986100 0.000000
74.052000 0.000000
74.118000 0.000000
74.183900 0.000000
74.249900 0.000000
74.315800 0.000000
74.381700 0.000000
74.447700 0.000000
74.513600 0.000000
74.579500 0.000000
74.645500 0.000000
74.711400 0.000000
74.777300 0.000000
74.843300 0.000000
74.909200 0.000000
74.975100 0.000000
75.041100 0.000000
75.107000 0.000000
75.173000 0.000000
75.238900 0.000000
75.304800 0.000000
75.370800 0.000000
75.436700 0.000000
75.502600 0.000000
75.568600 0.000000
75.634500 0.000000
75.700400 0.000000
75.766400 0.000000
75.832300 0.000000
75.898200 0.000000
75.964200 0.000000
76.030100 0.000000
76.096000 0.000000
76.162000 0.000000
76.227900 0.000000
76.293900 0.000000
76.359800 0.000000
76.425700 0.000000
76.491700 0.000000
76.557600 0.000000
76.623500 0.000000
76.689500 0.000000
e
