set title 'mp-454 - Density of States'
set xlabel 'Energy (eV)'
set ylabel 'DOS (states/eV)'
set grid
set xrange [-10:10]
set yrange [0:20.018]
set xzeroaxis lt -1
set terminal png size 800,600
set output 'mp-454_dos_gnuplot.png'
plot '-' using 1:2 with lines title 'DOS'
-23.639100 0.000000
-23.619100 0.000000
-23.599100 0.000000
-23.579000 0.000000
-23.559000 0.000000
-23.539000 0.000000
-23.519000 0.000000
-23.499000 0.000000
-23.478900 0.000000
-23.458900 0.000000
-23.438900 0.000000
-23.418900 0.000000
-23.398900 0.000000
-23.378900 0.000000
-23.358800 0.000000
-23.338800 0.000000
-23.318800 0.000000
-23.298800 0.000000
-23.278800 0.000000
-23.258700 0.000000
-23.238700 0.000000
-23.218700 0.000000
-23.198700 0.000000
-23.178700 0.000000
-23.158600 0.000000
-23.138600 0.000000
-23.118600 0.000000
-23.098600 0.000000
-23.078600 0.000000
-23.058500 0.000000
-23.038500 0.000000
-23.018500 0.000000
-22.998500 0.000000
-22.978500 0.000000
-22.958500 0.000000
-22.938400 0.000000
-22.918400 0.000000
-22.898400 0.000000
-22.878400 0.000000
-22.858400 0.000000
-22.838300 0.000000
-22.818300 0.000000
-22.798300 0.000000
-22.778300 0.000000
-22.758300 0.000000
-22.738200 0.000000
-22.718200 0.000000
-22.698200 0.000000
-22.678200 0.000000
-22.658200 0.000000
-22.638100 0.000000
-22.618100 0.000000
-22.598100 0.000000
-22.578100 0.000000
-22.558100 0.000000
-22.538100 0.000000
-22.518000 0.000000
-22.498000 0.000000
-22.478000 0.000000
-22.458000 0.000000
-22.438000 0.000000
-22.417900 0.000000
-22.397900 0.000000
-22.377900 0.000000
-22.357900 0.000000
-22.337900 0.000000
-22.317800 0.000000
-22.297800 0.000000
-22.277800 0.000000
-22.257800 0.000000
-22.237800 0.000000
-22.217700 0.000000
-22.197700 0.000000
-22.177700 0.000000
-22.157700 0.000000
-22.137700 0.000000
-22.117700 0.000000
-22.097600 0.000000
-22.077600 0.000000
-22.057600 0.000000
-22.037600 0.000000
-22.017600 0.000000
-21.997500 0.000000
-21.977500 0.000000
-21.957500 0.000000
-21.937500 0.000000
-21.917500 0.000000
-21.897400 0.000000
-21.877400 0.000000
-21.857400 0.000000
-21.837400 0.000000
-21.817400 0.000000
-21.797300 0.000000
-21.777300 0.000000
-21.757300 0.000000
-21.737300 0.000000
-21.717300 0.000000
-21.697300 0.000000
-21.677200 0.000000
-21.657200 0.000000
-21.637200 0.000000
-21.617200 0.000000
-21.597200 0.000000
-21.577100 0.000000
-21.557100 0.000000
-21.537100 0.000000
-21.517100 0.000000
-21.497100 0.000000
-21.477000 0.000000
-21.457000 0.000000
-21.437000 0.000000
-21.417000 0.000000
-21.397000 0.000000
-21.376900 0.000000
-21.356900 0.000000
-21.336900 0.000000
-21.316900 0.000000
-21.296900 0.000000
-21.276800 0.000000
-21.256800 0.000000
-21.236800 0.000000
-21.216800 0.000000
-21.196800 0.000000
-21.176800 0.000000
-21.156700 0.000000
-21.136700 0.000000
-21.116700 0.000000
-21.096700 0.000000
-21.076700 0.000000
-21.056600 0.000000
-21.036600 0.000000
-21.016600 0.000000
-20.996600 0.000000
-20.976600 0.000000
-20.956500 0.000000
-20.936500 0.000000
-20.916500 0.000000
-20.896500 0.000000
-20.876500 0.000000
-20.856400 0.000000
-20.836400 0.000000
-20.816400 0.000000
-20.796400 0.000000
-20.776400 0.000000
-20.756400 0.000000
-20.736300 0.000000
-20.716300 0.000000
-20.696300 0.000000
-20.676300 0.000000
-20.656300 0.000000
-20.636200 0.000000
-20.616200 0.000000
-20.596200 0.000000
-20.576200 0.000000
-20.556200 0.000000
-20.536100 0.000000
-20.516100 0.000000
-20.496100 0.000000
-20.476100 0.000000
-20.456100 0.000000
-20.436000 0.000000
-20.416000 0.000000
-20.396000 0.000000
-20.376000 0.000000
-20.356000 0.000000
-20.336000 0.000000
-20.315900 0.000000
-20.295900 0.000000
-20.275900 0.000000
-20.255900 0.000000
-20.235900 0.000000
-20.215800 0.000000
-20.195800 0.000000
-20.175800 0.000000
-20.155800 0.000000
-20.135800 0.000000
-20.115700 0.000000
-20.095700 0.000000
-20.075700 0.000000
-20.055700 0.000000
-20.035700 0.000000
-20.015600 0.000000
-19.995600 0.000000
-19.975600 0.000000
-19.955600 0.000000
-19.935600 0.000000
-19.915600 0.000000
-19.895500 0.000000
-19.875500 0.000000
-19.855500 0.000000
-19.835500 0.000000
-19.815500 0.000000
-19.795400 0.000000
-19.775400 0.000000
-19.755400 0.000000
-19.735400 0.000000
-19.715400 0.000000
-19.695300 0.000000
-19.675300 0.000000
-19.655300 0.000000
-19.635300 0.000000
-19.615300 0.000000
-19.595200 0.000000
-19.575200 0.000000
-19.555200 0.000000
-19.535200 0.000000
-19.515200 0.000000
-19.495200 0.000000
-19.475100 0.000000
-19.455100 0.000000
-19.435100 0.000000
-19.415100 0.000000
-19.395100 0.000000
-19.375000 0.000000
-19.355000 0.000000
-19.335000 0.000000
-19.315000 0.000000
-19.295000 0.000000
-19.274900 0.000000
-19.254900 0.000000
-19.234900 0.000000
-19.214900 0.000000
-19.194900 0.000000
-19.174800 0.000000
-19.154800 0.000000
-19.134800 0.000000
-19.114800 0.000000
-19.094800 0.000000
-19.074800 0.000000
-19.054700 0.000000
-19.034700 0.000000
-19.014700 0.000000
-18.994700 0.000000
-18.974700 0.000000
-18.954600 0.000000
-18.934600 0.000000
-18.914600 0.000000
-18.894600 0.000000
-18.874600 0.000000
-18.854500 0.000000
-18.834500 0.000000
-18.814500 0.000000
-18.794500 0.000000
-18.774500 0.000000
-18.754400 0.000000
-18.734400 0.000000
-18.714400 0.000000
-18.694400 0.000000
-18.674400 0.000000
-18.654400 0.000000
-18.634300 0.000000
-18.614300 0.000000
-18.594300 0.000000
-18.574300 0.000000
-18.554300 0.000000
-18.534200 0.000000
-18.514200 0.000000
-18.494200 0.000000
-18.474200 0.000000
-18.454200 0.000000
-18.434100 0.000000
-18.414100 0.000000
-18.394100 0.000000
-18.374100 0.000000
-18.354100 0.000000
-18.334000 0.000000
-18.314000 0.000000
-18.294000 0.000000
-18.274000 0.000000
-18.254000 0.000000
-18.233900 0.000000
-18.213900 0.000000
-18.193900 0.000000
-18.173900 0.000000
-18.153900 0.000000
-18.133900 0.000000
-18.113800 0.000000
-18.093800 0.000000
-18.073800 0.000000
-18.053800 0.000000
-18.033800 0.000000
-18.013700 0.000000
-17.993700 0.000000
-17.973700 0.000000
-17.953700 0.000000
-17.933700 0.000000
-17.913600 0.000000
-17.893600 0.000000
-17.873600 0.000000
-17.853600 0.000000
-17.833600 0.000000
-17.813500 0.000000
-17.793500 0.000000
-17.773500 0.000000
-17.753500 0.000000
-17.733500 0.000000
-17.713500 0.000000
-17.693400 0.000000
-17.673400 0.000000
-17.653400 0.000000
-17.633400 0.000000
-17.613400 0.000000
-17.593300 0.000000
-17.573300 0.000000
-17.553300 0.000000
-17.533300 0.000000
-17.513300 0.000000
-17.493200 0.000000
-17.473200 0.000000
-17.453200 0.000000
-17.433200 0.000000
-17.413200 0.000000
-17.393100 0.000000
-17.373100 0.000000
-17.353100 0.000000
-17.333100 0.000000
-17.313100 0.000000
-17.293100 0.000000
-17.273000 0.000000
-17.253000 0.000000
-17.233000 0.000000
-17.213000 0.000000
-17.193000 0.000000
-17.172900 0.000000
-17.152900 0.000000
-17.132900 0.000000
-17.112900 0.000000
-17.092900 0.000000
-17.072800 0.000000
-17.052800 0.000000
-17.032800 0.000000
-17.012800 0.000000
-16.992800 0.000000
-16.972700 0.000000
-16.952700 0.000000
-16.932700 0.000000
-16.912700 0.000000
-16.892700 0.000000
-16.872700 0.000000
-16.852600 0.000000
-16.832600 0.000000
-16.812600 0.000000
-16.792600 0.000000
-16.772600 0.000000
-16.752500 0.000000
-16.732500 0.000000
-16.712500 0.000000
-16.692500 0.000000
-16.672500 0.000000
-16.652400 0.000000
-16.632400 0.000000
-16.612400 0.000000
-16.592400 0.000000
-16.572400 0.000000
-16.552300 0.000000
-16.532300 0.000000
-16.512300 0.000000
-16.492300 0.000000
-16.472300 0.000000
-16.452300 0.000000
-16.432200 0.000000
-16.412200 0.000000
-16.392200 0.000000
-16.372200 0.000000
-16.352200 0.000000
-16.332100 0.000000
-16.312100 0.000000
-16.292100 0.000000
-16.272100 0.000000
-16.252100 0.000000
-16.232000 0.000000
-16.212000 0.000000
-16.192000 0.000000
-16.172000 0.000000
-16.152000 0.000000
-16.131900 0.000000
-16.111900 0.000000
-16.091900 0.000000
-16.071900 0.000000
-16.051900 0.000000
-16.031900 0.000000
-16.011800 0.000000
-15.991800 0.000000
-15.971800 0.000000
-15.951800 0.000000
-15.931800 0.000000
-15.911700 0.000000
-15.891700 0.000000
-15.871700 0.000000
-15.851700 0.000000
-15.831700 0.000000
-15.811600 0.000000
-15.791600 0.000000
-15.771600 0.000000
-15.751600 0.000000
-15.731600 0.000000
-15.711500 0.000000
-15.691500 0.000000
-15.671500 0.000000
-15.651500 0.000000
-15.631500 0.000000
-15.611400 0.000000
-15.591400 0.000000
-15.571400 0.000000
-15.551400 0.000000
-15.531400 0.000000
-15.511400 0.000000
-15.491300 0.000000
-15.471300 0.000000
-15.451300 0.000000
-15.431300 0.000000
-15.411300 0.000000
-15.391200 0.000000
-15.371200 0.000000
-15.351200 0.000000
-15.331200 0.000000
-15.311200 0.000000
-15.291100 0.000000
-15.271100 0.000000
-15.251100 0.000000
-15.231100 0.000000
-15.211100 0.000000
-15.191000 0.000000
-15.171000 0.000000
-15.151000 0.000000
-15.131000 0.000000
-15.111000 0.000000
-15.091000 0.000000
-15.070900 0.000000
-15.050900 0.000000
-15.030900 0.000000
-15.010900 0.000000
-14.990900 0.000000
-14.970800 0.000000
-14.950800 0.000000
-14.930800 0.000000
-14.910800 0.000000
-14.890800 0.000000
-14.870700 0.000000
-14.850700 0.000000
-14.830700 0.000000
-14.810700 0.000000
-14.790700 0.000000
-14.770600 0.000000
-14.750600 0.000000
-14.730600 0.000000
-14.710600 0.000000
-14.690600 0.000000
-14.670600 0.000000
-14.650500 0.000000
-14.630500 0.000000
-14.610500 0.000000
-14.590500 0.000000
-14.570500 0.000000
-14.550400 0.000000
-14.530400 0.000000
-14.510400 0.000000
-14.490400 0.000000
-14.470400 0.000000
-14.450300 0.000000
-14.430300 0.000000
-14.410300 0.000000
-14.390300 0.000000
-14.370300 0.000000
-14.350200 0.000000
-14.330200 0.000000
-14.310200 0.000000
-14.290200 0.000000
-14.270200 0.000000
-14.250200 0.000000
-14.230100 0.000000
-14.210100 0.000000
-14.190100 0.000000
-14.170100 0.000000
-14.150100 0.000000
-14.130000 0.000000
-14.110000 0.000000
-14.090000 0.000000
-14.070000 0.000000
-14.050000 0.000000
-14.029900 0.000000
-14.009900 0.000000
-13.989900 0.000000
-13.969900 0.000000
-13.949900 0.000000
-13.929800 0.000000
-13.909800 0.000000
-13.889800 0.000000
-13.869800 0.000000
-13.849800 0.000000
-13.829800 0.000000
-13.809700 0.000000
-13.789700 0.000000
-13.769700 0.000000
-13.749700 0.000000
-13.729700 0.000000
-13.709600 0.000000
-13.689600 0.000000
-13.669600 0.000000
-13.649600 0.000000
-13.629600 0.000000
-13.609500 0.000000
-13.589500 0.000000
-13.569500 0.000000
-13.549500 0.000000
-13.529500 0.000000
-13.509400 0.000000
-13.489400 0.000000
-13.469400 0.000000
-13.449400 0.000000
-13.429400 0.000000
-13.409400 0.000000
-13.389300 0.000000
-13.369300 0.000000
-13.349300 0.000000
-13.329300 0.000000
-13.309300 0.000000
-13.289200 0.000000
-13.269200 0.000000
-13.249200 0.000000
-13.229200 0.000000
-13.209200 0.000000
-13.189100 0.000000
-13.169100 0.000000
-13.149100 0.000000
-13.129100 0.000000
-13.109100 0.000000
-13.089000 0.000000
-13.069000 0.000000
-13.049000 0.000000
-13.029000 0.000000
-13.009000 0.000000
-12.989000 0.000000
-12.968900 0.000000
-12.948900 0.000000
-12.928900 0.000000
-12.908900 0.000000
-12.888900 0.000000
-12.868800 0.000000
-12.848800 0.000000
-12.828800 0.000000
-12.808800 0.000000
-12.788800 0.000000
-12.768700 0.000000
-12.748700 0.000000
-12.728700 0.000000
-12.708700 0.000000
-12.688700 0.000000
-12.668600 0.000000
-12.648600 0.000000
-12.628600 0.000000
-12.608600 0.000000
-12.588600 0.000000
-12.568500 0.000000
-12.548500 0.000000
-12.528500 0.000000
-12.508500 0.000000
-12.488500 0.000000
-12.468500 0.000000
-12.448400 0.000000
-12.428400 0.000000
-12.408400 25.159100
-12.388400 39.842600
-12.368400 59.210300
-12.348300 107.947300
-12.328300 71.200600
-12.308300 66.215700
-12.288300 188.628500
-12.268300 97.700000
-12.248200 125.453900
-12.228200 49.306500
-12.208200 25.570100
-12.188200 23.992100
-12.168200 31.669700
-12.148100 41.896900
-12.128100 61.244000
-12.108100 98.224300
-12.088100 60.552900
-12.068100 114.724800
-12.048100 87.905900
-12.028000 81.159900
-12.008000 59.357000
-11.988000 77.758200
-11.968000 128.418200
-11.948000 59.923000
-11.927900 56.126100
-11.907900 132.126500
-11.887900 17.389700
-11.867900 0.000000
-11.847900 0.000000
-11.827800 0.000000
-11.807800 0.000000
-11.787800 0.000000
-11.767800 0.000000
-11.747800 0.000000
-11.727700 0.000000
-11.707700 0.000000
-11.687700 0.000000
-11.667700 0.000000
-11.647700 0.000000
-11.627700 0.000000
-11.607600 0.000000
-11.587600 0.000000
-11.567600 0.000000
-11.547600 0.000000
-11.527600 0.000000
-11.507500 0.000000
-11.487500 0.000000
-11.467500 0.000000
-11.447500 0.000000
-11.427500 0.000000
-11.407400 0.000000
-11.387400 0.000000
-11.367400 0.000000
-11.347400 0.000000
-11.327400 0.000000
-11.307300 0.000000
-11.287300 0.000000
-11.267300 0.000000
-11.247300 0.000000
-11.227300 0.000000
-11.207300 0.000000
-11.187200 0.000000
-11.167200 0.000000
-11.147200 0.000000
-11.127200 0.000000
-11.107200 0.000000
-11.087100 0.000000
-11.067100 0.000000
-11.047100 0.000000
-11.027100 0.000000
-11.007100 0.000000
-10.987000 0.000000
-10.967000 0.000000
-10.947000 0.000000
-10.927000 0.000000
-10.907000 0.000000
-10.886900 0.000000
-10.866900 0.000000
-10.846900 0.000000
-10.826900 0.000000
-10.806900 0.000000
-10.786900 0.000000
-10.766800 0.000000
-10.746800 0.000000
-10.726800 0.000000
-10.706800 0.000000
-10.686800 0.000000
-10.666700 0.000000
-10.646700 0.000000
-10.626700 0.000000
-10.606700 0.000000
-10.586700 0.000000
-10.566600 0.000000
-10.546600 0.000000
-10.526600 0.000000
-10.506600 0.000000
-10.486600 0.000000
-10.466500 0.000000
-10.446500 0.000000
-10.426500 0.000000
-10.406500 0.000000
-10.386500 0.000000
-10.366500 0.000000
-10.346400 0.000000
-10.326400 0.000000
-10.306400 0.000000
-10.286400 0.000000
-10.266400 0.000000
-10.246300 0.000000
-10.226300 0.000000
-10.206300 0.000000
-10.186300 0.000000
-10.166300 0.000000
-10.146200 0.000000
-10.126200 0.000000
-10.106200 0.000000
-10.086200 0.000000
-10.066200 0.000000
-10.046100 0.000000
-10.026100 0.000000
-10.006100 0.000000
-9.986100 0.000000
-9.966100 0.000000
-9.946100 0.000000
-9.926000 0.000000
-9.906000 0.000000
-9.886000 0.000000
-9.866000 0.000000
-9.846000 0.000000
-9.825900 0.000000
-9.805900 0.000000
-9.785900 0.000000
-9.765900 0.000000
-9.745900 0.000000
-9.725800 0.000000
-9.705800 0.000000
-9.685800 0.000000
-9.665800 0.000000
-9.645800 0.000000
-9.625700 0.000000
-9.605700 0.000000
-9.585700 0.000000
-9.565700 0.000000
-9.545700 0.000000
-9.525600 0.000000
-9.505600 0.000000
-9.485600 0.000000
-9.465600 0.000000
-9.445600 0.000000
-9.425600 0.000000
-9.405500 0.000000
-9.385500 0.000000
-9.365500 0.000000
-9.345500 0.000000
-9.325500 0.000000
-9.305400 0.000000
-9.285400 0.000000
-9.265400 0.000000
-9.245400 0.000000
-9.225400 0.000000
-9.205300 0.000000
-9.185300 0.000000
-9.165300 0.000000
-9.145300 0.000000
-9.125300 0.000000
-9.105200 0.000000
-9.085200 0.000000
-9.065200 0.000000
-9.045200 0.000000
-9.025200 0.000000
-9.005200 0.000000
-8.985100 0.000000
-8.965100 0.000000
-8.945100 0.000000
-8.925100 0.000000
-8.905100 0.000000
-8.885000 0.000000
-8.865000 0.000000
-8.845000 0.000000
-8.825000 0.000000
-8.805000 0.000000
-8.784900 0.000000
-8.764900 0.000000
-8.744900 0.000000
-8.724900 0.000000
-8.704900 0.000000
-8.684800 0.000000
-8.664800 0.000000
-8.644800 0.000000
-8.624800 0.000000
-8.604800 0.000000
-8.584800 0.000000
-8.564700 0.000000
-8.544700 0.000000
-8.524700 0.000000
-8.504700 0.000000
-8.484700 0.000000
-8.464600 0.000000
-8.444600 0.000000
-8.424600 0.000000
-8.404600 0.000000
-8.384600 0.000000
-8.364500 0.000000
-8.344500 0.000000
-8.324500 0.000000
-8.304500 0.000000
-8.284500 0.000000
-8.264400 0.000000
-8.244400 0.000000
-8.224400 0.000000
-8.204400 0.000000
-8.184400 0.000000
-8.164400 0.000000
-8.144300 0.000000
-8.124300 0.000000
-8.104300 0.000000
-8.084300 0.000000
-8.064300 0.000000
-8.044200 0.000000
-8.024200 0.000000
-8.004200 0.000000
-7.984200 0.000000
-7.964200 0.000000
-7.944100 0.000000
-7.924100 0.000000
-7.904100 0.000000
-7.884100 0.000000
-7.864100 0.000000
-7.844000 0.000000
-7.824000 0.000000
-7.804000 0.000000
-7.784000 0.000000
-7.764000 0.000000
-7.744000 0.000000
-7.723900 0.000000
-7.703900 0.000000
-7.683900 0.000000
-7.663900 0.000000
-7.643900 0.000000
-7.623800 0.000000
-7.603800 0.000000
-7.583800 0.024500
-7.563800 0.126600
-7.543800 0.186400
-7.523700 0.211800
-7.503700 0.246900
-7.483700 0.281600
-7.463700 0.315200
-7.443700 0.348300
-7.423600 0.367300
-7.403600 0.388400
-7.383600 0.410100
-7.363600 0.432200
-7.343600 0.455300
-7.323600 0.479300
-7.303500 0.504600
-7.283500 0.532200
-7.263500 0.557700
-7.243500 0.577100
-7.223500 0.600500
-7.203400 0.628900
-7.183400 0.661400
-7.163400 0.698400
-7.143400 0.745100
-7.123400 0.803900
-7.103300 0.783500
-7.083300 0.778200
-7.063300 0.789900
-7.043300 0.799700
-7.023300 0.803900
-7.003200 0.795100
-6.983200 0.784000
-6.963200 0.783800
-6.943200 0.787100
-6.923200 0.790200
-6.903200 0.792800
-6.883100 0.794800
-6.863100 0.795800
-6.843100 0.795900
-6.823100 0.794400
-6.803100 0.790100
-6.783000 0.791800
-6.763000 0.794500
-6.743000 0.797200
-6.723000 0.799800
-6.703000 0.800600
-6.682900 0.800800
-6.662900 0.802300
-6.642900 0.803700
-6.622900 0.804700
-6.602900 0.805400
-6.582800 0.804400
-6.562800 0.801500
-6.542800 0.800100
-6.522800 0.801000
-6.502800 0.802100
-6.482700 0.803400
-6.462700 0.804900
-6.442700 0.806900
-6.422700 0.809700
-6.402700 0.812800
-6.382700 0.815700
-6.362600 0.818600
-6.342600 0.820400
-6.322600 0.821000
-6.302600 0.822100
-6.282600 0.823100
-6.262500 0.823300
-6.242500 0.822200
-6.222500 0.821900
-6.202500 0.823500
-6.182500 0.825400
-6.162400 0.827700
-6.142400 0.830200
-6.122400 0.833000
-6.102400 0.836200
-6.082400 0.840000
-6.062300 0.844000
-6.042300 0.848100
-6.022300 0.852400
-6.002300 0.856800
-5.982300 0.861300
-5.962300 0.866000
-5.942200 0.871000
-5.922200 0.878500
-5.902200 0.888900
-5.882200 0.903000
-5.862200 0.923300
-5.842100 0.949800
-5.822100 0.980200
-5.802100 1.051400
-5.782100 1.100400
-5.762100 1.088100
-5.742000 1.071600
-5.722000 1.048900
-5.702000 1.026100
-5.682000 1.003300
-5.662000 0.973000
-5.641900 0.943300
-5.621900 0.915300
-5.601900 0.887300
-5.581900 0.857600
-5.561900 0.825400
-5.541900 0.783700
-5.521800 0.738800
-5.501800 0.707000
-5.481800 0.678100
-5.461800 0.652300
-5.441800 0.629500
-5.421700 0.609200
-5.401700 0.592400
-5.381700 0.576300
-5.361700 0.566400
-5.341700 0.582800
-5.321600 0.595400
-5.301600 0.608800
-5.281600 0.623400
-5.261600 0.640600
-5.241600 0.661800
-5.221500 0.686100
-5.201500 0.713200
-5.181500 0.743200
-5.161500 0.776200
-5.141500 0.812500
-5.121500 0.884100
-5.101400 0.962700
-5.081400 1.093800
-5.061400 1.151600
-5.041400 1.193700
-5.021400 1.219700
-5.001300 1.270400
-4.981300 1.316100
-4.961300 1.343200
-4.941300 1.359900
-4.921300 1.402400
-4.901200 1.513900
-4.881200 1.694100
-4.861200 1.689400
-4.841200 1.669400
-4.821200 1.668700
-4.801100 1.655400
-4.781100 1.628300
-4.761100 1.616800
-4.741100 1.608700
-4.721100 1.600400
-4.701100 1.590500
-4.681000 1.581300
-4.661000 1.580100
-4.641000 1.570500
-4.621000 1.549400
-4.601000 1.532300
-4.580900 1.517700
-4.560900 1.505300
-4.540900 1.496900
-4.520900 1.493200
-4.500900 1.479500
-4.480800 1.466700
-4.460800 1.451500
-4.440800 1.469500
-4.420800 1.473500
-4.400800 1.444700
-4.380700 1.408700
-4.360700 1.283700
-4.340700 1.210800
-4.320700 1.157500
-4.300700 1.109000
-4.280700 1.091700
-4.260600 1.078200
-4.240600 1.065000
-4.220600 1.051700
-4.200600 1.038900
-4.180600 1.026600
-4.160500 1.014400
-4.140500 1.002000
-4.120500 0.991200
-4.100500 0.981200
-4.080500 0.972200
-4.060400 0.962900
-4.040400 0.948700
-4.020400 0.934000
-4.000400 0.918700
-3.980400 0.906100
-3.960300 0.896100
-3.940300 0.888400
-3.920300 0.882200
-3.900300 0.875000
-3.880300 0.866900
-3.860200 0.857300
-3.840200 0.845700
-3.820200 0.831400
-3.800200 0.822200
-3.780200 0.812900
-3.760200 0.803500
-3.740100 0.794600
-3.720100 0.785900
-3.700100 0.776900
-3.680100 0.767500
-3.660100 0.756600
-3.640000 0.745400
-3.620000 0.734700
-3.600000 0.728900
-3.580000 0.727500
-3.560000 0.725500
-3.539900 0.717900
-3.519900 0.706600
-3.499900 0.698300
-3.479900 0.693100
-3.459900 0.663100
-3.439800 0.619900
-3.419800 0.590900
-3.399800 0.569900
-3.379800 0.561800
-3.359800 0.559400
-3.339800 0.564900
-3.319700 0.579200
-3.299700 0.601700
-3.279700 0.651700
-3.259700 0.670400
-3.239700 0.669200
-3.219600 0.711800
-3.199600 0.760100
-3.179600 0.747600
-3.159600 0.756600
-3.139600 0.759600
-3.119500 0.766400
-3.099500 0.776900
-3.079500 0.788300
-3.059500 0.798900
-3.039500 0.823600
-3.019400 0.845400
-2.999400 0.873000
-2.979400 0.906800
-2.959400 0.943800
-2.939400 0.987600
-2.919400 0.941100
-2.899300 0.973600
-2.879300 1.063900
-2.859300 1.213200
-2.839300 1.377800
-2.819300 1.578100
-2.799200 1.713200
-2.779200 1.836100
-2.759200 1.901600
-2.739200 1.908100
-2.719200 1.881300
-2.699100 1.820500
-2.679100 1.815600
-2.659100 1.830900
-2.639100 1.855900
-2.619100 1.879100
-2.599000 1.894200
-2.579000 1.920000
-2.559000 1.949900
-2.539000 1.982300
-2.519000 2.029900
-2.499000 2.092900
-2.478900 2.158500
-2.458900 2.287700
-2.438900 2.491900
-2.418900 2.633000
-2.398900 2.486100
-2.378800 2.194000
-2.358800 1.877500
-2.338800 1.750700
-2.318800 1.640600
-2.298800 1.572500
-2.278700 1.523500
-2.258700 1.518800
-2.238700 1.498400
-2.218700 1.387800
-2.198700 1.316300
-2.178600 1.257000
-2.158600 1.204500
-2.138600 1.162100
-2.118600 1.134900
-2.098600 1.130300
-2.078600 1.129900
-2.058500 1.127000
-2.038500 1.124200
-2.018500 1.118100
-1.998500 1.113300
-1.978500 1.107600
-1.958400 1.077500
-1.938400 1.080700
-1.918400 1.069200
-1.898400 1.043500
-1.878400 0.994000
-1.858300 0.952000
-1.838300 0.917400
-1.818300 0.890700
-1.798300 0.871600
-1.778300 0.858300
-1.758200 0.850100
-1.738200 0.838000
-1.718200 0.831200
-1.698200 0.824000
-1.678200 0.818400
-1.658200 0.813700
-1.638100 0.809400
-1.618100 0.803600
-1.598100 0.796100
-1.578100 0.787400
-1.558100 0.780500
-1.538000 0.778600
-1.518000 0.778900
-1.498000 0.782700
-1.478000 0.791000
-1.458000 0.804000
-1.437900 0.821200
-1.417900 0.841400
-1.397900 0.855500
-1.377900 0.882300
-1.357900 0.928200
-1.337800 0.972000
-1.317800 1.004600
-1.297800 1.027400
-1.277800 1.048600
-1.257800 1.058200
-1.237800 1.069100
-1.217700 1.081500
-1.197700 1.095800
-1.177700 1.104000
-1.157700 1.114600
-1.137700 1.128100
-1.117600 1.146100
-1.097600 1.178200
-1.077600 1.213200
-1.057600 1.255400
-1.037600 1.318300
-1.017500 1.382500
-0.997500 1.491700
-0.977500 1.583200
-0.957500 1.679500
-0.937500 1.669500
-0.917400 1.559900
-0.897400 1.440600
-0.877400 1.360800
-0.857400 1.386900
-0.837400 1.375300
-0.817300 1.358500
-0.797300 1.347500
-0.777300 1.355600
-0.757300 1.307800
-0.737300 1.250100
-0.717300 1.159500
-0.697200 1.175700
-0.677200 1.157900
-0.657200 1.150600
-0.637200 1.145900
-0.617200 1.142700
-0.597100 1.141600
-0.577100 1.144800
-0.557100 1.151900
-0.537100 1.197800
-0.517100 1.209400
-0.497000 1.214400
-0.477000 1.202900
-0.457000 1.178600
-0.437000 1.193000
-0.417000 1.207800
-0.396900 1.225500
-0.376900 1.241400
-0.356900 1.262600
-0.336900 1.286800
-0.316900 1.315500
-0.296900 1.349700
-0.276800 1.400900
-0.256800 1.455000
-0.236800 1.535700
-0.216800 1.637700
-0.196800 1.735500
-0.176700 1.821800
-0.156700 1.855100
-0.136700 2.004500
-0.116700 1.448100
-0.096700 1.429400
-0.076600 1.420600
-0.056600 1.402200
-0.036600 1.369900
-0.016600 1.334400
0.003400 1.311700
0.023500 1.300100
0.043500 1.291700
0.063500 1.291900
0.083500 1.292600
0.103500 1.292700
0.123500 1.298100
0.143600 1.295900
0.163600 1.264200
0.183600 1.257200
0.203600 1.256200
0.223600 1.259000
0.243700 1.264100
0.263700 1.284900
0.283700 1.322100
0.303700 1.368500
0.323700 1.431900
0.343800 1.465600
0.363800 1.438300
0.383800 1.455900
0.403800 1.467400
0.423800 1.471200
0.443900 1.471400
0.463900 1.510500
0.483900 1.545800
0.503900 1.524000
0.523900 1.520700
0.543900 1.543400
0.564000 1.560500
0.584000 1.590200
0.604000 1.614700
0.624000 1.734800
0.644000 1.836600
0.664100 1.961200
0.684100 2.093000
0.704100 2.199600
0.724100 2.245300
0.744100 2.193900
0.764200 2.062200
0.784200 2.041000
0.804200 2.198600
0.824200 2.333400
0.844200 2.343700
0.864300 2.311100
0.884300 2.283300
0.904300 2.231000
0.924300 2.254500
0.944300 2.284200
0.964300 2.291900
0.984400 2.286000
1.004400 2.295100
1.024400 2.302800
1.044400 2.308900
1.064400 2.344000
1.084500 2.449000
1.104500 2.491200
1.124500 2.488000
1.144500 2.473100
1.164500 2.465800
1.184600 2.457400
1.204600 2.451500
1.224600 2.415900
1.244600 2.357100
1.264600 2.345400
1.284700 2.327600
1.304700 2.307400
1.324700 2.290300
1.344700 2.276300
1.364700 2.265200
1.384700 2.256100
1.404800 2.242800
1.424800 2.223900
1.444800 2.197000
1.464800 2.168400
1.484800 2.144300
1.504900 2.131400
1.524900 2.123200
1.544900 2.127200
1.564900 2.139000
1.584900 2.152700
1.605000 2.166600
1.625000 2.169700
1.645000 2.170800
1.665000 2.175400
1.685000 2.176700
1.705100 2.158700
1.725100 2.134300
1.745100 2.122700
1.765100 2.122900
1.785100 2.169300
1.805100 2.175400
1.825200 2.155600
1.845200 2.135100
1.865200 2.125300
1.885200 2.124400
1.905200 2.127000
1.925300 2.142400
1.945300 2.133000
1.965300 2.139800
1.985300 2.139300
2.005300 2.121300
2.025400 2.109000
2.045400 2.094800
2.065400 2.081800
2.085400 2.075800
2.105400 2.050300
2.125500 2.042800
2.145500 2.032600
2.165500 1.997100
2.185500 1.968300
2.205500 1.943300
2.225600 1.916500
2.245600 1.876100
2.265600 1.823800
2.285600 1.778200
2.305600 1.748800
2.325600 1.723300
2.345700 1.669100
2.365700 1.603000
2.385700 1.536400
2.405700 1.465900
2.425700 1.421300
2.445800 1.385200
2.465800 1.349700
2.485800 1.297800
2.505800 1.248100
2.525800 1.148700
2.545900 1.105600
2.565900 1.082600
2.585900 1.072900
2.605900 1.061400
2.625900 1.040700
2.646000 1.031400
2.666000 1.031700
2.686000 1.033100
2.706000 1.036200
2.726000 1.041100
2.746000 1.031100
2.766100 1.034800
2.786100 1.039700
2.806100 1.046400
2.826100 1.054600
2.846100 1.064900
2.866200 1.078600
2.886200 1.100300
2.906200 1.128400
2.926200 1.152700
2.946200 1.177700
2.966300 1.211500
2.986300 1.245900
3.006300 1.280000
3.026300 1.311000
3.046300 1.361400
3.066400 1.440700
3.086400 1.489600
3.106400 1.545000
3.126400 1.573400
3.146400 1.594100
3.166400 1.588400
3.186500 1.568100
3.206500 1.552300
3.226500 1.528700
3.246500 1.468300
3.266500 1.374600
3.286600 1.298600
3.306600 1.210200
3.326600 1.139900
3.346600 1.072400
3.366600 1.009500
3.386700 0.967800
3.406700 0.939400
3.426700 0.916600
3.446700 0.904400
3.466700 0.915000
3.486800 0.931400
3.506800 0.953300
3.526800 0.996400
3.546800 1.041500
3.566800 1.137700
3.586800 1.166800
3.606900 1.198700
3.626900 1.244200
3.646900 1.309700
3.666900 1.375300
3.686900 1.431900
3.707000 1.451500
3.727000 1.487800
3.747000 1.533800
3.767000 1.607800
3.787000 1.762300
3.807100 1.874400
3.827100 1.918600
3.847100 1.948000
3.867100 1.951300
3.887100 1.966100
3.907200 2.000800
3.927200 2.083800
3.947200 2.124800
3.967200 2.162600
3.987200 2.203300
4.007200 2.284100
4.027300 2.398900
4.047300 2.473100
4.067300 2.523000
4.087300 2.598700
4.107300 2.607900
4.127400 2.689600
4.147400 2.575200
4.167400 2.569700
4.187400 2.570300
4.207400 2.542100
4.227500 2.510100
4.247500 2.484600
4.267500 2.465100
4.287500 2.442100
4.307500 2.444800
4.327600 2.464200
4.347600 2.464000
4.367600 2.487100
4.387600 2.511200
4.407600 2.517700
4.427600 2.471600
4.447700 2.403700
4.467700 2.354500
4.487700 2.310300
4.507700 2.221900
4.527700 2.136700
4.547800 1.997400
4.567800 1.921200
4.587800 1.851400
4.607800 1.791700
4.627800 1.722600
4.647900 1.653700
4.667900 1.615100
4.687900 1.615600
4.707900 1.644000
4.727900 1.700500
4.748000 1.782600
4.768000 1.878500
4.788000 1.977800
4.808000 2.043900
4.828000 2.101900
4.848100 2.185100
4.868100 2.290700
4.888100 2.385300
4.908100 2.431000
4.928100 2.454200
4.948100 2.420700
4.968200 2.397800
4.988200 2.353800
5.008200 2.307100
5.028200 2.252200
5.048200 2.204600
5.068300 2.169800
5.088300 2.168600
5.108300 2.212100
5.128300 2.285600
5.148300 2.216100
5.168400 2.202600
5.188400 2.180000
5.208400 2.154600
5.228400 2.112100
5.248400 2.045300
5.268500 1.970400
5.288500 1.895000
5.308500 1.816400
5.328500 1.771100
5.348500 1.681500
5.368500 1.527300
5.388600 1.524800
5.408600 1.542300
5.428600 1.577100
5.448600 1.607800
5.468600 1.647500
5.488700 1.716100
5.508700 1.800700
5.528700 1.893100
5.548700 1.990400
5.568700 2.083100
5.588800 2.177100
5.608800 2.227000
5.628800 2.290300
5.648800 2.383700
5.668800 2.484500
5.688900 2.511100
5.708900 2.534800
5.728900 2.547400
5.748900 2.552600
5.768900 2.565300
5.788900 2.576300
5.809000 2.573400
5.829000 2.574600
5.849000 2.635600
5.869000 2.649200
5.889000 2.687900
5.909100 2.637700
5.929100 2.569900
5.949100 2.539900
5.969100 2.514200
5.989100 2.402800
6.009200 2.298600
6.029200 2.231400
6.049200 2.137400
6.069200 2.086300
6.089200 2.060500
6.109300 2.047500
6.129300 2.040000
6.149300 2.020300
6.169300 2.002200
6.189300 2.019800
6.209300 2.019200
6.229400 2.067500
6.249400 2.133400
6.269400 2.212600
6.289400 2.285400
6.309400 2.393100
6.329500 2.489500
6.349500 2.558600
6.369500 2.644700
6.389500 2.648400
6.409500 2.641600
6.429600 2.676300
6.449600 2.720900
6.469600 2.908000
6.489600 2.963700
6.509600 3.035500
6.529700 3.040900
6.549700 3.029600
6.569700 2.996300
6.589700 2.925100
6.609700 2.835400
6.629700 2.776500
6.649800 2.723200
6.669800 2.695900
6.689800 2.691500
6.709800 2.693100
6.729800 2.700900
6.749900 2.731300
6.769900 2.928700
6.789900 3.243700
6.809900 3.143200
6.829900 3.213100
6.850000 3.126200
6.870000 2.997100
6.890000 2.853100
6.910000 2.755500
6.930000 2.676800
6.950100 2.591600
6.970100 2.503000
6.990100 2.425300
7.010100 2.362500
7.030100 2.344300
7.050100 2.331800
7.070200 2.359200
7.090200 2.386500
7.110200 2.471400
7.130200 2.575500
7.150200 2.634300
7.170300 2.671700
7.190300 2.726600
7.210300 2.708000
7.230300 2.638000
7.250300 2.608600
7.270400 2.627000
7.290400 2.604100
7.310400 2.612700
7.330400 2.644900
7.350400 2.650400
7.370500 2.638000
7.390500 2.615900
7.410500 2.573800
7.430500 2.538700
7.450500 2.514700
7.470500 2.469700
7.490600 2.407300
7.510600 2.346800
7.530600 2.288600
7.550600 2.261400
7.570600 2.256700
7.590700 2.261700
7.610700 2.244900
7.630700 2.218100
7.650700 2.224800
7.670700 2.224000
7.690800 2.235900
7.710800 2.249100
7.730800 2.276100
7.750800 2.322300
7.770800 2.410500
7.790900 2.479500
7.810900 2.464600
7.830900 2.495000
7.850900 2.537700
7.870900 2.611500
7.891000 2.751700
7.911000 2.857100
7.931000 2.950900
7.951000 3.039100
7.971000 3.155600
7.991000 3.306100
8.011100 3.601500
8.031100 3.716100
8.051100 3.960600
8.071100 4.298200
8.091100 4.923000
8.111200 5.755800
8.131200 7.288400
8.151200 9.523500
8.171200 16.714100
8.191200 18.198600
8.211300 7.629300
8.231300 6.249800
8.251300 5.604400
8.271300 5.126300
8.291300 4.711900
8.311400 4.334000
8.331400 4.015200
8.351400 3.753300
8.371400 3.602300
8.391400 3.498600
8.411400 3.377700
8.431500 3.286800
8.451500 3.210100
8.471500 3.172700
8.491500 3.161600
8.511500 3.110300
8.531600 3.048500
8.551600 2.999100
8.571600 2.970900
8.591600 2.951400
8.611600 2.955800
8.631700 2.990600
8.651700 3.024700
8.671700 2.991200
8.691700 2.991700
8.711700 2.997000
8.731800 2.997900
8.751800 3.007500
8.771800 3.024700
8.791800 3.053600
8.811800 3.083300
8.831800 3.058800
8.851900 3.041200
8.871900 3.016900
8.891900 2.975900
8.911900 2.933000
8.931900 2.922800
8.952000 2.974900
8.972000 3.044500
8.992000 3.160300
9.012000 3.221000
9.032000 3.220900
9.052100 3.073400
9.072100 2.946900
9.092100 2.871700
9.112100 2.789700
9.132100 2.715200
9.152200 2.641900
9.172200 2.572100
9.192200 2.509300
9.212200 2.456300
9.232200 2.432600
9.252200 2.436600
9.272300 2.460300
9.292300 2.542600
9.312300 2.541000
9.332300 2.571000
9.352300 2.594900
9.372400 2.652000
9.392400 2.705500
9.412400 2.752400
9.432400 2.771700
9.452400 2.788600
9.472500 2.844600
9.492500 2.879800
9.512500 2.887400
9.532500 2.871800
9.552500 2.877100
9.572600 2.859400
9.592600 2.856900
9.612600 2.995000
9.632600 2.862800
9.652600 2.642100
9.672600 2.596000
9.692700 2.587900
9.712700 2.632300
9.732700 2.656300
9.752700 2.622300
9.772700 2.579700
9.792800 2.578300
9.812800 2.608900
9.832800 2.644500
9.852800 2.735400
9.872800 2.785500
9.892900 2.881200
9.912900 2.980800
9.932900 3.058400
9.952900 3.160300
9.972900 3.269000
9.993000 3.256400
10.013000 3.259100
10.033000 3.321100
10.053000 3.265900
10.073000 3.172300
10.093000 3.121500
10.113100 3.052200
10.133100 3.011100
10.153100 2.963100
10.173100 2.917400
10.193100 2.862600
10.213200 2.816500
10.233200 2.772800
10.253200 2.725100
10.273200 2.672400
10.293200 2.624200
10.313300 2.601000
10.333300 2.602200
10.353300 2.634700
10.373300 2.668500
10.393300 2.681700
10.413400 2.694300
10.433400 2.704700
10.453400 2.759200
10.473400 2.754800
10.493400 2.758300
10.513400 2.807600
10.533500 2.881500
10.553500 2.931800
10.573500 2.850700
10.593500 2.823000
10.613500 2.828500
10.633600 2.829800
10.653600 2.840400
10.673600 2.871800
10.693600 2.914400
10.713600 2.933700
10.733700 2.925100
10.753700 2.872300
10.773700 2.790200
10.793700 2.759300
10.813700 2.769100
10.833800 2.796900
10.853800 2.827000
10.873800 2.845100
10.893800 2.872700
10.913800 2.909200
10.933900 2.921800
10.953900 2.945200
10.973900 2.981300
10.993900 3.039700
11.013900 3.111800
11.033900 3.168200
11.054000 3.216000
11.074000 3.290900
11.094000 3.316000
11.114000 3.294900
11.134000 3.238300
11.154100 3.169700
11.174100 3.099000
11.194100 3.078100
11.214100 3.074500
11.234100 3.127400
11.254200 3.214600
11.274200 3.310800
11.294200 3.451000
11.314200 3.624900
11.334200 3.928300
11.354300 3.925700
11.374300 3.887300
11.394300 3.933900
11.414300 3.898900
11.434300 3.767800
11.454300 3.588900
11.474400 3.366500
11.494400 3.182500
11.514400 3.027300
11.534400 2.936700
11.554400 2.845500
11.574500 2.747200
11.594500 2.720300
11.614500 2.713300
11.634500 2.728800
11.654500 2.717400
11.674600 2.702400
11.694600 2.768200
11.714600 2.864700
11.734600 2.945400
11.754600 2.821500
11.774700 2.772300
11.794700 2.801700
11.814700 2.857400
11.834700 2.941000
11.854700 3.120800
11.874700 3.218800
11.894800 3.148100
11.914800 3.108900
11.934800 3.068700
11.954800 3.047400
11.974800 3.031100
11.994900 3.025700
12.014900 2.951400
12.034900 2.879700
12.054900 2.806500
12.074900 2.750000
12.095000 2.708000
12.115000 2.667400
12.135000 2.625100
12.155000 2.599200
12.175000 2.567500
12.195100 2.534500
12.215100 2.451300
12.235100 2.441400
12.255100 2.335500
12.275100 2.282100
12.295100 2.277000
12.315200 2.307400
12.335200 2.336100
12.355200 2.383800
12.375200 2.464700
12.395200 2.578600
12.415300 2.717000
12.435300 2.826100
12.455300 2.885200
12.475300 2.950900
12.495300 3.024000
12.515400 3.082700
12.535400 3.126900
12.555400 3.166700
12.575400 3.140900
12.595400 3.155700
12.615500 3.182800
12.635500 3.262700
12.655500 3.249200
12.675500 3.203800
12.695500 3.114000
12.715500 3.047500
12.735600 3.022700
12.755600 2.991300
12.775600 2.940300
12.795600 2.843300
12.815600 2.747200
12.835700 2.688200
12.855700 2.635400
12.875700 2.585800
12.895700 2.551500
12.915700 2.525500
12.935800 2.532100
12.955800 2.495200
12.975800 2.489400
12.995800 2.399100
13.015800 2.263700
13.035900 2.151200
13.055900 2.037400
13.075900 2.005100
13.095900 1.986500
13.115900 1.968900
13.135900 1.894000
13.156000 1.800800
13.176000 1.725800
13.196000 1.651600
13.216000 1.593900
13.236000 1.558400
13.256100 1.532700
13.276100 1.511400
13.296100 1.477600
13.316100 1.445200
13.336100 1.417500
13.356200 1.396100
13.376200 1.382400
13.396200 1.377600
13.416200 1.384700
13.436200 1.404400
13.456300 1.434600
13.476300 1.435000
13.496300 1.395600
13.516300 1.358700
13.536300 1.342100
13.556300 1.330700
13.576400 1.324200
13.596400 1.337900
13.616400 1.354100
13.636400 1.327400
13.656400 1.311300
13.676500 1.344900
13.696500 1.436900
13.716500 1.419800
13.736500 1.342600
13.756500 1.237600
13.776600 1.146900
13.796600 1.045200
13.816600 0.965500
13.836600 0.888300
13.856600 0.808500
13.876700 0.750900
13.896700 0.700600
13.916700 0.654100
13.936700 0.608100
13.956700 0.564600
13.976800 0.520700
13.996800 0.475200
14.016800 0.428900
14.036800 0.386800
14.056800 0.362600
14.076800 0.352200
14.096900 0.287700
14.116900 0.215800
14.136900 0.204200
14.156900 0.194300
14.176900 0.185700
14.197000 0.178500
14.217000 0.173500
14.237000 0.168500
14.257000 0.144700
14.277000 0.114000
14.297100 0.101100
14.317100 0.088600
14.337100 0.076300
14.357100 0.065000
14.377100 0.054800
14.397200 0.046800
14.417200 0.042300
14.437200 0.037900
14.457200 0.029100
14.477200 0.020600
14.497200 0.012200
14.517300 0.004200
14.537300 0.001900
14.557300 0.000500
14.577300 0.000000
14.597300 0.000000
14.617400 0.000000
14.637400 0.000000
14.657400 0.000000
14.677400 0.000000
14.697400 0.000000
14.717500 0.000000
14.737500 0.000000
14.757500 0.000000
14.777500 0.000000
14.797500 0.000000
14.817600 0.000000
14.837600 0.000000
14.857600 0.000000
14.877600 0.000000
14.897600 0.000000
14.917600 0.000000
14.937700 0.000000
14.957700 0.000000
14.977700 0.000000
14.997700 0.000000
15.017700 0.000000
15.037800 0.000000
15.057800 0.000000
15.077800 0.000000
15.097800 0.000000
15.117800 0.000000
15.137900 0.000000
15.157900 0.000000
15.177900 0.000000
15.197900 0.000000
15.217900 0.000000
15.238000 0.000000
15.258000 0.000000
15.278000 0.000000
15.298000 0.000000
15.318000 0.000000
15.338000 0.000000
15.358100 0.000000
15.378100 0.000000
15.398100 0.000000
15.418100 0.000000
15.438100 0.000000
15.458200 0.000000
15.478200 0.000000
15.498200 0.000000
15.518200 0.000000
15.538200 0.000000
15.558300 0.000000
15.578300 0.000000
15.598300 0.000000
15.618300 0.000000
15.638300 0.000000
15.658400 0.000000
15.678400 0.000000
15.698400 0.000000
15.718400 0.000000
15.738400 0.000000
15.758400 0.000000
15.778500 0.000000
15.798500 0.000000
15.818500 0.000000
15.838500 0.000000
15.858500 0.000000
15.878600 0.000000
15.898600 0.000000
15.918600 0.000000
15.938600 0.000000
15.958600 0.000000
15.978700 0.000000
15.998700 0.000000
16.018700 0.000000
16.038700 0.000000
16.058700 0.000000
16.078800 0.000000
16.098800 0.000000
16.118800 0.000000
16.138800 0.000000
16.158800 0.000000
16.178800 0.000000
16.198900 0.000000
16.218900 0.000000
16.238900 0.000000
16.258900 0.000000
16.278900 0.000000
16.299000 0.000000
16.319000 0.000000
16.339000 0.000000
16.359000 0.000000
16.379000 0.000000
16.399100 0.000000
e
