set title 'mp-560 - Density of States'
set xlabel 'Energy (eV)'
set ylabel 'DOS (states/eV)'
set grid
set xrange [-10:10]
set yrange [0:16.462]
set xzeroaxis lt -1
set terminal png size 800,600
set output 'mp-560_dos_gnuplot.png'
plot '-' using 1:2 with lines title 'DOS'
-22.772300 0.000000
-22.751800 0.000000
-22.731200 0.000000
-22.710700 0.000000
-22.690200 0.000000
-22.669600 0.000000
-22.649100 0.000000
-22.628500 0.000000
-22.608000 0.000000
-22.587500 0.000000
-22.566900 0.000000
-22.546400 0.000000
-22.525900 0.000000
-22.505300 0.000000
-22.484800 0.000000
-22.464300 0.000000
-22.443700 0.000000
-22.423200 0.000000
-22.402700 0.000000
-22.382100 0.000000
-22.361600 0.000000
-22.341000 0.000000
-22.320500 0.000000
-22.300000 0.000000
-22.279400 0.000000
-22.258900 0.000000
-22.238400 0.000000
-22.217800 0.000000
-22.197300 0.000000
-22.176800 0.000000
-22.156200 0.000000
-22.135700 0.000000
-22.115200 0.000000
-22.094600 0.000000
-22.074100 0.000000
-22.053500 0.000000
-22.033000 0.000000
-22.012500 0.000000
-21.991900 0.000000
-21.971400 0.000000
-21.950900 0.000000
-21.930300 0.000000
-21.909800 0.000000
-21.889300 0.000000
-21.868700 0.000000
-21.848200 0.000000
-21.827700 0.000000
-21.807100 0.000000
-21.786600 0.000000
-21.766000 0.000000
-21.745500 0.000000
-21.725000 0.000000
-21.704400 0.000000
-21.683900 0.000000
-21.663400 0.000000
-21.642800 0.000000
-21.622300 0.000000
-21.601800 0.000000
-21.581200 0.000000
-21.560700 0.000000
-21.540100 0.000000
-21.519600 0.000000
-21.499100 0.000000
-21.478500 0.000000
-21.458000 0.000000
-21.437500 0.000000
-21.416900 0.000000
-21.396400 0.000000
-21.375900 0.000000
-21.355300 0.000000
-21.334800 0.000000
-21.314300 0.000000
-21.293700 0.000000
-21.273200 0.000000
-21.252600 0.000000
-21.232100 0.000000
-21.211600 0.000000
-21.191000 0.000000
-21.170500 0.000000
-21.150000 0.000000
-21.129400 0.000000
-21.108900 0.000000
-21.088400 0.000000
-21.067800 0.000000
-21.047300 0.000000
-21.026800 0.000000
-21.006200 0.000000
-20.985700 0.000000
-20.965100 0.000000
-20.944600 0.000000
-20.924100 0.000000
-20.903500 17.826600
-20.883000 32.855700
-20.862500 19.164100
-20.841900 16.002400
-20.821400 14.453600
-20.800900 36.132200
-20.780300 80.622700
-20.759800 17.854900
-20.739300 23.994200
-20.718700 33.446400
-20.698200 0.000000
-20.677600 0.000000
-20.657100 0.000000
-20.636600 0.000000
-20.616000 0.000000
-20.595500 0.000000
-20.575000 0.000000
-20.554400 0.000000
-20.533900 0.000000
-20.513400 0.000000
-20.492800 0.000000
-20.472300 0.000000
-20.451800 0.000000
-20.431200 0.000000
-20.410700 0.000000
-20.390100 0.000000
-20.369600 0.000000
-20.349100 0.000000
-20.328500 0.000000
-20.308000 0.000000
-20.287500 0.000000
-20.266900 0.000000
-20.246400 0.000000
-20.225900 0.000000
-20.205300 0.000000
-20.184800 0.000000
-20.164300 0.000000
-20.143700 0.000000
-20.123200 0.000000
-20.102600 0.000000
-20.082100 0.000000
-20.061600 0.000000
-20.041000 0.000000
-20.020500 0.000000
-20.000000 0.000000
-19.979400 0.000000
-19.958900 0.000000
-19.938400 0.000000
-19.917800 0.000000
-19.897300 0.000000
-19.876800 0.000000
-19.856200 0.000000
-19.835700 0.000000
-19.815100 0.000000
-19.794600 0.000000
-19.774100 0.000000
-19.753500 0.000000
-19.733000 0.000000
-19.712500 0.000000
-19.691900 0.000000
-19.671400 0.000000
-19.650900 0.000000
-19.630300 0.000000
-19.609800 0.000000
-19.589200 0.000000
-19.568700 0.000000
-19.548200 0.000000
-19.527600 0.000000
-19.507100 0.000000
-19.486600 0.000000
-19.466000 0.000000
-19.445500 0.000000
-19.425000 0.000000
-19.404400 0.000000
-19.383900 0.000000
-19.363400 0.000000
-19.342800 0.000000
-19.322300 0.000000
-19.301700 0.000000
-19.281200 0.000000
-19.260700 0.000000
-19.240100 0.000000
-19.219600 0.000000
-19.199100 0.000000
-19.178500 0.000000
-19.158000 0.000000
-19.137500 0.000000
-19.116900 0.000000
-19.096400 0.000000
-19.075900 0.000000
-19.055300 0.000000
-19.034800 0.000000
-19.014200 0.000000
-18.993700 0.000000
-18.973200 0.000000
-18.952600 0.000000
-18.932100 0.000000
-18.911600 0.000000
-18.891000 0.000000
-18.870500 0.000000
-18.850000 0.000000
-18.829400 0.000000
-18.808900 0.000000
-18.788400 0.000000
-18.767800 0.000000
-18.747300 0.000000
-18.726700 0.000000
-18.706200 0.000000
-18.685700 0.000000
-18.665100 0.000000
-18.644600 0.000000
-18.624100 0.000000
-18.603500 0.000000
-18.583000 0.000000
-18.562500 0.000000
-18.541900 0.000000
-18.521400 0.000000
-18.500900 0.000000
-18.480300 0.000000
-18.459800 0.000000
-18.439200 0.000000
-18.418700 0.000000
-18.398200 0.000000
-18.377600 0.000000
-18.357100 0.000000
-18.336600 0.000000
-18.316000 0.000000
-18.295500 0.000000
-18.275000 0.000000
-18.254400 0.000000
-18.233900 0.000000
-18.213400 0.000000
-18.192800 0.000000
-18.172300 0.000000
-18.151700 0.000000
-18.131200 0.000000
-18.110700 0.000000
-18.090100 0.000000
-18.069600 0.000000
-18.049100 0.000000
-18.028500 0.000000
-18.008000 0.000000
-17.987500 0.000000
-17.966900 0.000000
-17.946400 0.000000
-17.925800 0.000000
-17.905300 0.000000
-17.884800 0.000000
-17.864200 0.000000
-17.843700 0.000000
-17.823200 0.000000
-17.802600 0.000000
-17.782100 0.000000
-17.761600 0.000000
-17.741000 0.000000
-17.720500 0.000000
-17.700000 0.000000
-17.679400 0.000000
-17.658900 0.000000
-17.638300 0.000000
-17.617800 0.000000
-17.597300 0.000000
-17.576700 0.000000
-17.556200 0.000000
-17.535700 0.000000
-17.515100 0.000000
-17.494600 0.000000
-17.474100 0.000000
-17.453500 0.000000
-17.433000 0.000000
-17.412500 0.000000
-17.391900 0.000000
-17.371400 0.000000
-17.350800 0.000000
-17.330300 0.000000
-17.309800 0.000000
-17.289200 0.000000
-17.268700 0.000000
-17.248200 0.000000
-17.227600 0.000000
-17.207100 0.000000
-17.186600 0.000000
-17.166000 0.000000
-17.145500 0.000000
-17.125000 0.000000
-17.104400 0.000000
-17.083900 0.000000
-17.063300 0.000000
-17.042800 0.000000
-17.022300 0.000000
-17.001700 0.000000
-16.981200 0.000000
-16.960700 0.000000
-16.940100 0.000000
-16.919600 0.000000
-16.899100 0.000000
-16.878500 0.000000
-16.858000 0.000000
-16.837500 0.000000
-16.816900 0.000000
-16.796400 0.000000
-16.775800 0.000000
-16.755300 0.000000
-16.734800 0.000000
-16.714200 0.000000
-16.693700 0.000000
-16.673200 0.000000
-16.652600 0.000000
-16.632100 0.000000
-16.611600 0.000000
-16.591000 0.000000
-16.570500 0.000000
-16.550000 0.000000
-16.529400 0.000000
-16.508900 0.000000
-16.488300 0.000000
-16.467800 0.000000
-16.447300 0.000000
-16.426700 0.000000
-16.406200 0.000000
-16.385700 0.000000
-16.365100 0.000000
-16.344600 0.000000
-16.324100 0.000000
-16.303500 0.000000
-16.283000 0.000000
-16.262500 0.000000
-16.241900 0.000000
-16.221400 0.000000
-16.200800 0.000000
-16.180300 0.000000
-16.159800 0.000000
-16.139200 0.000000
-16.118700 0.000000
-16.098200 0.000000
-16.077600 0.000000
-16.057100 0.000000
-16.036600 0.000000
-16.016000 0.000000
-15.995500 0.000000
-15.974900 0.000000
-15.954400 0.000000
-15.933900 0.000000
-15.913300 0.000000
-15.892800 0.000000
-15.872300 0.000000
-15.851700 0.000000
-15.831200 0.000000
-15.810700 0.000000
-15.790100 0.000000
-15.769600 0.000000
-15.749100 0.000000
-15.728500 0.000000
-15.708000 0.000000
-15.687400 0.000000
-15.666900 0.000000
-15.646400 0.000000
-15.625800 0.000000
-15.605300 0.000000
-15.584800 0.000000
-15.564200 0.000000
-15.543700 0.000000
-15.523200 0.000000
-15.502600 0.000000
-15.482100 0.000000
-15.461600 0.000000
-15.441000 0.000000
-15.420500 0.000000
-15.399900 0.000000
-15.379400 0.000000
-15.358900 0.000000
-15.338300 0.000000
-15.317800 0.000000
-15.297300 0.000000
-15.276700 0.000000
-15.256200 0.000000
-15.235700 0.000000
-15.215100 0.000000
-15.194600 0.000000
-15.174100 0.000000
-15.153500 0.000000
-15.133000 0.000000
-15.112400 0.000000
-15.091900 0.000000
-15.071400 0.000000
-15.050800 0.000000
-15.030300 0.000000
-15.009800 0.000000
-14.989200 0.000000
-14.968700 0.000000
-14.948200 0.000000
-14.927600 0.000000
-14.907100 0.000000
-14.886600 0.000000
-14.866000 0.000000
-14.845500 0.000000
-14.824900 0.000000
-14.804400 0.000000
-14.783900 0.000000
-14.763300 0.000000
-14.742800 0.000000
-14.722300 0.000000
-14.701700 0.000000
-14.681200 0.000000
-14.660700 0.000000
-14.640100 0.000000
-14.619600 0.000000
-14.599100 0.000000
-14.578500 0.000000
-14.558000 0.000000
-14.537400 0.000000
-14.516900 0.000000
-14.496400 0.000000
-14.475800 0.000000
-14.455300 0.000000
-14.434800 0.000000
-14.414200 0.000000
-14.393700 0.000000
-14.373200 0.000000
-14.352600 0.000000
-14.332100 0.000000
-14.311600 0.000000
-14.291000 0.000000
-14.270500 0.000000
-14.249900 0.000000
-14.229400 0.000000
-14.208900 0.000000
-14.188300 0.000000
-14.167800 0.000000
-14.147300 0.000000
-14.126700 0.000000
-14.106200 0.000000
-14.085700 0.000000
-14.065100 0.000000
-14.044600 0.000000
-14.024000 0.000000
-14.003500 0.000000
-13.983000 0.000000
-13.962400 0.000000
-13.941900 0.000000
-13.921400 0.000000
-13.900800 0.000000
-13.880300 0.000000
-13.859800 0.000000
-13.839200 0.000000
-13.818700 0.000000
-13.798200 0.000000
-13.777600 0.000000
-13.757100 0.000000
-13.736500 0.000000
-13.716000 0.000000
-13.695500 0.000000
-13.674900 0.000000
-13.654400 0.000000
-13.633900 0.000000
-13.613300 0.000000
-13.592800 0.000000
-13.572300 0.000000
-13.551700 0.000000
-13.531200 0.000000
-13.510700 0.000000
-13.490100 0.000000
-13.469600 0.000000
-13.449000 0.000000
-13.428500 0.000000
-13.408000 0.000000
-13.387400 0.000000
-13.366900 0.000000
-13.346400 0.000000
-13.325800 0.000000
-13.305300 0.000000
-13.284800 0.000000
-13.264200 0.000000
-13.243700 0.000000
-13.223200 0.000000
-13.202600 0.000000
-13.182100 0.000000
-13.161500 0.000000
-13.141000 0.000000
-13.120500 0.000000
-13.099900 0.000000
-13.079400 0.000000
-13.058900 0.000000
-13.038300 0.000000
-13.017800 0.000000
-12.997300 0.000000
-12.976700 0.000000
-12.956200 0.000000
-12.935700 0.000000
-12.915100 0.000000
-12.894600 0.000000
-12.874000 0.000000
-12.853500 0.000000
-12.833000 0.000000
-12.812400 0.000000
-12.791900 0.000000
-12.771400 0.000000
-12.750800 0.000000
-12.730300 0.000000
-12.709800 0.000000
-12.689200 0.000000
-12.668700 0.000000
-12.648200 0.000000
-12.627600 0.000000
-12.607100 0.000000
-12.586500 0.000000
-12.566000 0.000000
-12.545500 0.000000
-12.524900 0.000000
-12.504400 0.000000
-12.483900 0.000000
-12.463300 0.000000
-12.442800 0.000000
-12.422300 0.000000
-12.401700 0.000000
-12.381200 0.000000
-12.360600 0.000000
-12.340100 0.000000
-12.319600 0.000000
-12.299000 0.000000
-12.278500 0.000000
-12.258000 0.000000
-12.237400 0.000000
-12.216900 0.000000
-12.196400 0.000000
-12.175800 0.000000
-12.155300 0.000000
-12.134800 0.000000
-12.114200 0.000000
-12.093700 0.000000
-12.073100 0.000000
-12.052600 0.000000
-12.032100 0.000000
-12.011500 0.000000
-11.991000 0.000000
-11.970500 0.000000
-11.949900 0.000000
-11.929400 0.000000
-11.908900 0.000000
-11.888300 0.000000
-11.867800 0.000000
-11.847300 0.000000
-11.826700 0.000000
-11.806200 0.000000
-11.785600 0.000000
-11.765100 0.000000
-11.744600 0.000000
-11.724000 0.000000
-11.703500 0.000000
-11.683000 0.000000
-11.662400 0.000000
-11.641900 0.000000
-11.621400 0.000000
-11.600800 0.000000
-11.580300 0.000000
-11.559800 0.000000
-11.539200 0.000000
-11.518700 0.000000
-11.498100 0.000000
-11.477600 0.000000
-11.457100 0.000000
-11.436500 0.000000
-11.416000 0.000000
-11.395500 0.000000
-11.374900 0.000000
-11.354400 0.000000
-11.333900 0.000000
-11.313300 0.000000
-11.292800 0.000000
-11.272300 0.000000
-11.251700 0.000000
-11.231200 0.000000
-11.210600 0.000000
-11.190100 0.000000
-11.169600 0.000000
-11.149000 0.000000
-11.128500 0.000000
-11.108000 0.000000
-11.087400 0.000000
-11.066900 0.000000
-11.046400 0.000000
-11.025800 0.000000
-11.005300 0.000000
-10.984800 0.000000
-10.964200 0.000000
-10.943700 0.000000
-10.923100 0.000000
-10.902600 0.000000
-10.882100 0.000000
-10.861500 0.000000
-10.841000 0.000000
-10.820500 0.000000
-10.799900 0.000000
-10.779400 0.000000
-10.758900 0.000000
-10.738300 0.000000
-10.717800 0.000000
-10.697300 0.000000
-10.676700 0.000000
-10.656200 0.000000
-10.635600 0.000000
-10.615100 0.000000
-10.594600 0.000000
-10.574000 0.000000
-10.553500 0.000000
-10.533000 0.000000
-10.512400 0.000000
-10.491900 0.000000
-10.471400 0.000000
-10.450800 0.000000
-10.430300 0.000000
-10.409700 0.000000
-10.389200 0.000000
-10.368700 0.000000
-10.348100 0.000000
-10.327600 0.000000
-10.307100 0.000000
-10.286500 0.000000
-10.266000 0.000000
-10.245500 0.000000
-10.224900 0.000000
-10.204400 0.000000
-10.183900 0.000000
-10.163300 0.000000
-10.142800 0.000000
-10.122200 0.000000
-10.101700 0.000000
-10.081200 0.000000
-10.060600 0.000000
-10.040100 0.000000
-10.019600 0.000000
-9.999000 0.000000
-9.978500 0.000000
-9.958000 0.000000
-9.937400 0.000000
-9.916900 0.000000
-9.896400 0.000000
-9.875800 0.000000
-9.855300 0.000000
-9.834700 0.000000
-9.814200 0.000000
-9.793700 0.000000
-9.773100 0.000000
-9.752600 0.000000
-9.732100 0.000000
-9.711500 0.000000
-9.691000 0.000000
-9.670500 0.000000
-9.649900 0.000000
-9.629400 0.000000
-9.608900 0.000000
-9.588300 0.000000
-9.567800 0.000000
-9.547200 0.000000
-9.526700 0.000000
-9.506200 0.000000
-9.485600 0.000000
-9.465100 0.000000
-9.444600 0.000000
-9.424000 0.000000
-9.403500 0.000000
-9.383000 0.000000
-9.362400 0.000000
-9.341900 0.000000
-9.321400 0.000000
-9.300800 0.000000
-9.280300 0.000000
-9.259700 0.000000
-9.239200 0.000000
-9.218700 0.000000
-9.198100 0.000000
-9.177600 0.000000
-9.157100 0.000000
-9.136500 0.000000
-9.116000 0.000000
-9.095500 0.000000
-9.074900 0.000000
-9.054400 0.000000
-9.033900 0.000000
-9.013300 0.000000
-8.992800 0.000000
-8.972200 0.000000
-8.951700 0.000000
-8.931200 0.000000
-8.910600 0.000000
-8.890100 0.000000
-8.869600 0.000000
-8.849000 0.000000
-8.828500 0.000000
-8.808000 0.000000
-8.787400 0.000000
-8.766900 0.000000
-8.746300 0.000000
-8.725800 0.000000
-8.705300 0.000000
-8.684700 0.000000
-8.664200 0.000000
-8.643700 0.000000
-8.623100 0.000000
-8.602600 0.000000
-8.582100 0.000000
-8.561500 0.000000
-8.541000 0.000000
-8.520500 0.000000
-8.499900 0.000000
-8.479400 0.000000
-8.458800 0.000000
-8.438300 0.000000
-8.417800 0.000000
-8.397200 0.000000
-8.376700 0.000000
-8.356200 0.000000
-8.335600 0.000000
-8.315100 0.000000
-8.294600 0.000000
-8.274000 0.000000
-8.253500 0.000000
-8.233000 0.000000
-8.212400 0.000000
-8.191900 0.000000
-8.171300 0.000000
-8.150800 0.000000
-8.130300 0.000000
-8.109700 0.000000
-8.089200 0.000000
-8.068700 0.000000
-8.048100 0.000000
-8.027600 0.000000
-8.007100 0.000000
-7.986500 0.000000
-7.966000 0.000000
-7.945500 0.000000
-7.924900 0.000000
-7.904400 0.000000
-7.883800 0.000000
-7.863300 0.000000
-7.842800 0.000000
-7.822200 0.000000
-7.801700 0.000000
-7.781200 0.000000
-7.760600 0.000000
-7.740100 0.000000
-7.719600 0.000000
-7.699000 0.000000
-7.678500 0.000000
-7.658000 0.000000
-7.637400 0.000000
-7.616900 0.000000
-7.596300 0.000000
-7.575800 0.000000
-7.555300 0.000000
-7.534700 0.000000
-7.514200 0.000000
-7.493700 0.000000
-7.473100 0.000000
-7.452600 0.000000
-7.432100 0.000000
-7.411500 0.000000
-7.391000 0.000000
-7.370500 0.000000
-7.349900 0.000000
-7.329400 0.000000
-7.308800 0.000000
-7.288300 0.000000
-7.267800 0.000000
-7.247200 0.000000
-7.226700 0.000000
-7.206200 0.000000
-7.185600 0.000000
-7.165100 0.000000
-7.144600 0.000000
-7.124000 0.000000
-7.103500 0.000000
-7.083000 0.000000
-7.062400 0.000000
-7.041900 0.000000
-7.021300 0.000000
-7.000800 0.000000
-6.980300 0.000000
-6.959700 0.000000
-6.939200 0.000000
-6.918700 0.000000
-6.898100 0.000000
-6.877600 0.000000
-6.857100 0.000000
-6.836500 0.000000
-6.816000 0.000000
-6.795400 0.000000
-6.774900 0.000000
-6.754400 0.000000
-6.733800 0.000000
-6.713300 0.000000
-6.692800 0.000000
-6.672200 0.000000
-6.651700 0.000000
-6.631200 0.000000
-6.610600 0.000000
-6.590100 0.000000
-6.569600 0.000000
-6.549000 0.000000
-6.528500 0.000000
-6.507900 0.000000
-6.487400 0.000000
-6.466900 0.000000
-6.446300 0.000000
-6.425800 0.000000
-6.405300 0.000000
-6.384700 0.000000
-6.364200 0.000000
-6.343700 0.000000
-6.323100 0.000000
-6.302600 0.000000
-6.282100 0.000000
-6.261500 0.000000
-6.241000 0.000000
-6.220400 0.000000
-6.199900 0.000000
-6.179400 0.000000
-6.158800 0.000000
-6.138300 0.000000
-6.117800 0.000000
-6.097200 0.000000
-6.076700 0.000000
-6.056200 0.000000
-6.035600 0.000000
-6.015100 0.000000
-5.994600 0.000000
-5.974000 0.000000
-5.953500 0.000000
-5.932900 0.000000
-5.912400 0.000000
-5.891900 0.000000
-5.871300 0.000000
-5.850800 0.000000
-5.830300 0.000000
-5.809700 0.000000
-5.789200 0.000000
-5.768700 0.000000
-5.748100 0.000000
-5.727600 0.000000
-5.707100 0.000000
-5.686500 0.000000
-5.666000 0.000000
-5.645400 0.000000
-5.624900 0.000000
-5.604400 0.000000
-5.583800 0.000000
-5.563300 0.000000
-5.542800 0.000000
-5.522200 0.000000
-5.501700 0.000000
-5.481200 0.000000
-5.460600 0.000000
-5.440100 0.000000
-5.419600 0.000000
-5.399000 0.000000
-5.378500 0.000000
-5.357900 0.000000
-5.337400 0.000000
-5.316900 0.000000
-5.296300 0.000000
-5.275800 0.000000
-5.255300 0.000000
-5.234700 0.000000
-5.214200 0.000000
-5.193700 0.000000
-5.173100 0.000000
-5.152600 0.000000
-5.132000 0.000000
-5.111500 0.000000
-5.091000 0.000000
-5.070400 0.000000
-5.049900 0.000000
-5.029400 0.000000
-5.008800 0.000000
-4.988300 0.000000
-4.967800 0.000000
-4.947200 0.000000
-4.926700 0.000000
-4.906200 0.000000
-4.885600 0.000000
-4.865100 0.000000
-4.844500 0.000000
-4.824000 0.000000
-4.803500 0.000000
-4.782900 0.000000
-4.762400 0.000000
-4.741900 0.000000
-4.721300 0.000000
-4.700800 0.000000
-4.680300 0.000000
-4.659700 0.000000
-4.639200 0.000000
-4.618700 0.000000
-4.598100 0.000000
-4.577600 0.000000
-4.557000 0.000000
-4.536500 0.000000
-4.516000 0.000000
-4.495400 0.000000
-4.474900 0.000000
-4.454400 0.000000
-4.433800 0.000000
-4.413300 0.000000
-4.392800 0.000000
-4.372200 0.000000
-4.351700 0.000000
-4.331200 0.000000
-4.310600 0.000000
-4.290100 0.000000
-4.269500 0.000000
-4.249000 0.000000
-4.228500 0.000000
-4.207900 0.000000
-4.187400 0.000000
-4.166900 0.000000
-4.146300 0.000000
-4.125800 0.000000
-4.105300 0.000000
-4.084700 0.000000
-4.064200 0.000000
-4.043700 0.000000
-4.023100 0.000000
-4.002600 0.000000
-3.982000 0.000000
-3.961500 0.000000
-3.941000 0.000000
-3.920400 0.000000
-3.899900 0.000000
-3.879400 0.000000
-3.858800 0.000000
-3.838300 0.000000
-3.817800 0.000000
-3.797200 0.000000
-3.776700 0.000000
-3.756200 0.000000
-3.735600 0.000000
-3.715100 0.000000
-3.694500 0.000000
-3.674000 0.000000
-3.653500 0.005600
-3.632900 0.022800
-3.612400 0.051900
-3.591900 0.070600
-3.571300 0.070000
-3.550800 0.077500
-3.530300 0.086600
-3.509700 0.096700
-3.489200 0.107500
-3.468700 0.116700
-3.448100 0.124600
-3.427600 0.128100
-3.407000 0.132100
-3.386500 0.137600
-3.366000 0.142900
-3.345400 0.148700
-3.324900 0.155100
-3.304400 0.161600
-3.283800 0.168000
-3.263300 0.173100
-3.242800 0.178900
-3.222200 0.185100
-3.201700 0.191300
-3.181100 0.196500
-3.160600 0.200500
-3.140100 0.204700
-3.119500 0.209400
-3.099000 0.214100
-3.078500 0.219000
-3.057900 0.223900
-3.037400 0.229100
-3.016900 0.235200
-2.996300 0.240600
-2.975800 0.245800
-2.955300 0.250900
-2.934700 0.256300
-2.914200 0.262000
-2.893600 0.267700
-2.873100 0.273400
-2.852600 0.277800
-2.832000 0.282600
-2.811500 0.287600
-2.791000 0.292800
-2.770400 0.298400
-2.749900 0.304100
-2.729400 0.310000
-2.708800 0.315800
-2.688300 0.321600
-2.667800 0.327200
-2.647200 0.332900
-2.626700 0.338600
-2.606100 0.344400
-2.585600 0.350200
-2.565100 0.356100
-2.544500 0.363800
-2.524000 0.370700
-2.503500 0.377700
-2.482900 0.384800
-2.462400 0.391800
-2.441900 0.398700
-2.421300 0.405700
-2.400800 0.412800
-2.380300 0.420100
-2.359700 0.427500
-2.339200 0.435100
-2.318600 0.443300
-2.298100 0.452600
-2.277600 0.462500
-2.257000 0.472600
-2.236500 0.482500
-2.216000 0.492300
-2.195400 0.502300
-2.174900 0.512200
-2.154400 0.522300
-2.133800 0.532400
-2.113300 0.542700
-2.092800 0.557700
-2.072200 0.570500
-2.051700 0.583700
-2.031100 0.598000
-2.010600 0.613400
-1.990100 0.629100
-1.969500 0.645900
-1.949000 0.664500
-1.928500 0.686900
-1.907900 0.712300
-1.887400 0.739600
-1.866900 0.767500
-1.846300 0.797600
-1.825800 0.829600
-1.805300 0.879700
-1.784700 0.927100
-1.764200 0.977200
-1.743600 1.016900
-1.723100 1.066300
-1.702600 1.130800
-1.682000 1.255500
-1.661500 1.544900
-1.641000 1.561100
-1.620400 1.604700
-1.599900 1.638100
-1.579400 1.707300
-1.558800 1.730500
-1.538300 1.756400
-1.517700 1.793500
-1.497200 1.846700
-1.476700 1.921000
-1.456100 2.304700
-1.435600 2.958400
-1.415100 2.939500
-1.394500 3.188200
-1.374000 3.418100
-1.353500 3.366200
-1.332900 3.499900
-1.312400 3.673000
-1.291900 4.271200
-1.271300 4.779900
-1.250800 4.780400
-1.230200 5.134900
-1.209700 5.843100
-1.189200 6.980600
-1.168600 7.541300
-1.148100 7.457500
-1.127600 6.598900
-1.107000 5.735900
-1.086500 5.267100
-1.066000 5.496800
-1.045400 6.639900
-1.024900 6.506100
-1.004400 6.328700
-0.983800 6.371600
-0.963300 6.494900
-0.942700 6.498700
-0.922200 6.205100
-0.901700 6.211100
-0.881100 5.984600
-0.860600 5.961400
-0.840100 6.142500
-0.819500 7.183200
-0.799000 8.570200
-0.778500 8.519400
-0.757900 8.325700
-0.737400 9.042500
-0.716900 10.020900
-0.696300 11.625300
-0.675800 11.641200
-0.655200 11.607000
-0.634700 10.760900
-0.614200 9.170700
-0.593600 8.492500
-0.573100 7.755200
-0.552600 7.782200
-0.532000 8.123000
-0.511500 8.704800
-0.491000 10.275900
-0.470400 10.551100
-0.449900 10.030800
-0.429400 9.693200
-0.408800 9.934300
-0.388300 9.769200
-0.367700 9.773500
-0.347200 9.733900
-0.326700 9.543100
-0.306100 8.872000
-0.285600 8.406300
-0.265100 8.004900
-0.244500 7.170000
-0.224000 6.887900
-0.203500 6.009700
-0.182900 5.490400
-0.162400 4.861700
-0.141900 4.197400
-0.121300 4.084000
-0.100800 4.070300
-0.080200 4.044700
-0.059700 3.968500
-0.039200 3.930400
-0.018600 3.771100
0.001900 3.730800
0.022400 3.850300
0.043000 3.805300
0.063500 3.501100
0.084000 3.086200
0.104600 2.662500
0.125100 2.627500
0.145600 2.930500
0.166200 3.479100
0.186700 3.850900
0.207300 4.020800
0.227800 4.424000
0.248300 4.269500
0.268900 4.208500
0.289400 4.790300
0.309900 5.659000
0.330500 6.843900
0.351000 9.018400
0.371500 8.449100
0.392100 8.098600
0.412600 9.000000
0.433200 10.787100
0.453700 13.083400
0.474200 14.965300
0.494800 13.892100
0.515300 12.417700
0.535800 10.180100
0.556400 8.809100
0.576900 8.429700
0.597400 8.443500
0.618000 7.959600
0.638500 7.453900
0.659000 6.949900
0.679600 6.329700
0.700100 6.060900
0.720700 5.906100
0.741200 5.817400
0.761700 5.840200
0.782300 5.974600
0.802800 6.268000
0.823300 6.426100
0.843900 6.573400
0.864400 6.731100
0.884900 6.957100
0.905500 7.366500
0.926000 7.978400
0.946500 8.905400
0.967100 8.037800
0.987600 7.802300
1.008200 7.453900
1.028700 7.391700
1.049200 8.914100
1.069800 9.686900
1.090300 9.178700
1.110800 8.839100
1.131400 7.937600
1.151900 7.562300
1.172400 7.389900
1.193000 7.311200
1.213500 6.386000
1.234000 5.898600
1.254600 6.553000
1.275100 6.411600
1.295700 5.070300
1.316200 4.702000
1.336700 4.307300
1.357300 4.157600
1.377800 4.126400
1.398300 4.071900
1.418900 3.111900
1.439400 3.082200
1.459900 3.316900
1.480500 3.241200
1.501000 2.805200
1.521500 2.562700
1.542100 2.345000
1.562600 2.235900
1.583200 2.155100
1.603700 2.105100
1.624200 2.102700
1.644800 2.134400
1.665300 2.217200
1.685800 2.464200
1.706400 2.613800
1.726900 2.767800
1.747400 2.869000
1.768000 2.808800
1.788500 2.941300
1.809000 3.766900
1.829600 4.141900
1.850100 3.837000
1.870700 3.053800
1.891200 1.873600
1.911700 1.484200
1.932300 1.349900
1.952800 0.860300
1.973300 0.569600
1.993900 0.536600
2.014400 0.543000
2.034900 0.560300
2.055500 0.579100
2.076000 0.604700
2.096600 0.690900
2.117100 0.855900
2.137600 1.024200
2.158200 1.228600
2.178700 1.471900
2.199200 1.645800
2.219800 1.722400
2.240300 1.569400
2.260800 1.383400
2.281400 1.309600
2.301900 1.274600
2.322400 1.271500
2.343000 1.262400
2.363500 1.250300
2.384100 1.233200
2.404600 1.215400
2.425100 1.197400
2.445700 1.179000
2.466200 1.160300
2.486700 1.151500
2.507300 1.147400
2.527800 1.144500
2.548300 1.142500
2.568900 1.139100
2.589400 1.126000
2.609900 1.113000
2.630500 1.102300
2.651000 1.091900
2.671600 1.076000
2.692100 1.057200
2.712600 1.044700
2.733200 1.033500
2.753700 1.023900
2.774200 1.015300
2.794800 1.007500
2.815300 0.999300
2.835800 0.990600
2.856400 0.981600
2.876900 0.971000
2.897400 0.958200
2.918000 0.946400
2.938500 0.939800
2.959100 0.935400
2.979600 0.928000
3.000100 0.920300
3.020700 0.911900
3.041200 0.903500
3.061700 0.896600
3.082300 0.891100
3.102800 0.886300
3.123300 0.882800
3.143900 0.880400
3.164400 0.877300
3.184900 0.874400
3.205500 0.872200
3.226000 0.870400
3.246600 0.868400
3.267100 0.866300
3.287600 0.863900
3.308200 0.861000
3.328700 0.857600
3.349200 0.856500
3.369800 0.858500
3.390300 0.857700
3.410800 0.866000
3.431400 0.871900
3.451900 0.875900
3.472400 0.881500
3.493000 0.889300
3.513500 0.894900
3.534100 0.899100
3.554600 0.908100
3.575100 0.872200
3.595700 0.829700
3.616200 0.796200
3.636700 0.770200
3.657300 0.757000
3.677800 0.759600
3.698300 0.780600
3.718900 0.787800
3.739400 0.800600
3.759900 0.807500
3.780500 0.829900
3.801000 0.888500
3.821600 0.957500
3.842100 1.025000
3.862600 1.118600
3.883200 1.278900
3.903700 1.419500
3.924200 1.402700
3.944800 1.374300
3.965300 1.363200
3.985800 1.347900
4.006400 1.350200
4.026900 1.365100
4.047500 1.377500
4.068000 1.349900
4.088500 1.321900
4.109100 1.300500
4.129600 1.288000
4.150100 1.261600
4.170700 1.256800
4.191200 1.181600
4.211700 1.162700
4.232300 1.145800
4.252800 1.131700
4.273300 1.120500
4.293900 1.112000
4.314400 1.100200
4.335000 1.083800
4.355500 1.062000
4.376000 1.023600
4.396600 0.992900
4.417100 0.971600
4.437600 0.960000
4.458200 0.950700
4.478700 0.921800
4.499200 0.924100
4.519800 0.923400
4.540300 0.925300
4.560800 0.929200
4.581400 0.933000
4.601900 0.937100
4.622500 0.946900
4.643000 0.977200
4.663500 1.036300
4.684100 1.099400
4.704600 1.138500
4.725100 1.161700
4.745700 1.141400
4.766200 1.096400
4.786700 1.081300
4.807300 1.114900
4.827800 1.046000
4.848300 1.043000
4.868900 1.042200
4.889400 1.043500
4.910000 1.044200
4.930500 1.050100
4.951000 1.053500
4.971600 1.071500
4.992100 1.087300
5.012600 1.117800
5.033200 1.146700
5.053700 1.229000
5.074200 1.187700
5.094800 1.019900
5.115300 0.950900
5.135800 0.847500
5.156400 0.803400
5.176900 0.752200
5.197500 0.685300
5.218000 0.657700
5.238500 0.639800
5.259100 0.625300
5.279600 0.619900
5.300100 0.612700
5.320700 0.601200
5.341200 0.600800
5.361700 0.595500
5.382300 0.591000
5.402800 0.587300
5.423300 0.584100
5.443900 0.581700
5.464400 0.581600
5.485000 0.591200
5.505500 0.618000
5.526000 0.633200
5.546600 0.655600
5.567100 0.699700
5.587600 0.723500
5.608200 0.713700
5.628700 0.729900
5.649200 0.748400
5.669800 0.774900
5.690300 0.814400
5.710800 0.839800
5.731400 0.865300
5.751900 0.889600
5.772500 0.913600
5.793000 0.947200
5.813500 0.987300
5.834100 1.021200
5.854600 1.060200
5.875100 1.126700
5.895700 1.192800
5.916200 1.337300
5.936700 1.282300
5.957300 1.292300
5.977800 1.321800
5.998400 1.386400
6.018900 1.460800
6.039400 1.554100
6.060000 1.680500
6.080500 1.718700
6.101000 1.764500
6.121600 1.847200
6.142100 2.078400
6.162600 2.408300
6.183200 2.596800
6.203700 2.585000
6.224200 4.231300
6.244800 2.354400
6.265300 2.579500
6.285900 2.900800
6.306400 3.081900
6.326900 2.858500
6.347500 2.424800
6.368000 2.182900
6.388500 1.969000
6.409100 1.842200
6.429600 1.809000
6.450100 1.788100
6.470700 1.785400
6.491200 1.791700
6.511700 1.803900
6.532300 1.827600
6.552800 1.874000
6.573400 1.948400
6.593900 2.055900
6.614400 2.191500
6.635000 2.304000
6.655500 2.370100
6.676000 2.399000
6.696600 2.381200
6.717100 2.313900
6.737600 2.201000
6.758200 2.107000
6.778700 2.083700
6.799200 2.063600
6.819800 2.077000
6.840300 2.002600
6.860900 1.953400
6.881400 1.925200
6.901900 1.906900
6.922500 1.937600
6.943000 1.719000
6.963500 1.599200
6.984100 1.536300
7.004600 1.529900
7.025100 1.584800
7.045700 1.786000
7.066200 1.988500
7.086700 2.310100
7.107300 2.610600
7.127800 2.952700
7.148400 3.277700
7.168900 3.572600
7.189400 3.766900
7.210000 3.935100
7.230500 4.329900
7.251000 4.233700
7.271600 4.325100
7.292100 4.457800
7.312600 4.608100
7.333200 4.132700
7.353700 3.903400
7.374200 3.469300
7.394800 3.349100
7.415300 3.203400
7.435900 2.973100
7.456400 2.865400
7.476900 2.717300
7.497500 2.697300
7.518000 2.746500
7.538500 2.894600
7.559100 2.972900
7.579600 3.003500
7.600100 3.074000
7.620700 3.163600
7.641200 3.211900
7.661800 3.304500
7.682300 3.426200
7.702800 3.549600
7.723400 3.631900
7.743900 3.847400
7.764400 3.993200
7.785000 3.940600
7.805500 4.015500
7.826000 4.081700
7.846600 3.976900
7.867100 3.806400
7.887600 3.482500
7.908200 3.056400
7.928700 2.837300
7.949300 2.663600
7.969800 2.550700
7.990300 2.448600
8.010900 2.366800
8.031400 2.326800
8.051900 2.284700
8.072500 2.239300
8.093000 2.181600
8.113500 2.129600
8.134100 2.070800
8.154600 2.068100
8.175100 1.739600
8.195700 1.625800
8.216200 1.668400
8.236800 1.623400
8.257300 1.625100
8.277800 1.624400
8.298400 1.657000
8.318900 1.703900
8.339400 1.656000
8.360000 1.586300
8.380500 1.578000
8.401000 1.616500
8.421600 1.615600
8.442100 1.558100
8.462600 1.453700
8.483200 1.308700
8.503700 1.239200
8.524300 1.191200
8.544800 1.162900
8.565300 1.297400
8.585900 1.357900
8.606400 1.342900
8.626900 1.388500
8.647500 1.464000
8.668000 1.512300
8.688500 1.552700
8.709100 1.629500
8.729600 1.698200
8.750100 1.823600
8.770700 1.940600
8.791200 2.091400
8.811800 2.233900
8.832300 2.318400
8.852800 2.378400
8.873400 2.423900
8.893900 2.496000
8.914400 2.588200
8.935000 2.519700
8.955500 2.371100
8.976000 2.303400
8.996600 2.252800
9.017100 2.201300
9.037600 2.225200
9.058200 2.256300
9.078700 2.254400
9.099300 2.211200
9.119800 2.141700
9.140300 2.070400
9.160900 2.059400
9.181400 2.011300
9.201900 1.935200
9.222500 1.868400
9.243000 1.832500
9.263500 1.865800
9.284100 2.050300
9.304600 2.037600
9.325100 1.802700
9.345700 0.990900
9.366200 0.589200
9.386800 0.602500
9.407300 0.613100
9.427800 0.583900
9.448400 0.511000
9.468900 0.438600
9.489400 0.409800
9.510000 0.415300
9.530500 0.425900
9.551000 0.435400
9.571600 0.446000
9.592100 0.457000
9.612700 0.468300
9.633200 0.480500
9.653700 0.493500
9.674300 0.507500
9.694800 0.522700
9.715300 0.538200
9.735900 0.553100
9.756400 0.567600
9.776900 0.584200
9.797500 0.602900
9.818000 0.624900
9.838500 0.644700
9.859100 0.667000
9.879600 0.697800
9.900200 0.741900
9.920700 0.801800
9.941200 0.867100
9.961800 0.964400
9.982300 1.078200
10.002800 1.152000
10.023400 1.210400
10.043900 1.284200
10.064400 1.356600
10.085000 1.445600
10.105500 1.529300
10.126000 1.612500
10.146600 1.685200
10.167100 1.810400
10.187700 1.996800
10.208200 2.283500
10.228700 2.774300
10.249300 2.895000
10.269800 2.611700
10.290300 2.517400
10.310900 2.127900
10.331400 1.854800
10.351900 1.706700
10.372500 1.806500
10.393000 1.667400
10.413500 1.876100
10.434100 1.918400
10.454600 1.899400
10.475200 1.726300
10.495700 1.631000
10.516200 1.528100
10.536800 1.473800
10.557300 1.431200
10.577800 1.394100
10.598400 1.360000
10.618900 1.328300
10.639400 1.297000
10.660000 1.267500
10.680500 1.246400
10.701000 1.238300
10.721600 1.240800
10.742100 1.229600
10.762700 1.229900
10.783200 1.235500
10.803700 1.235200
10.824300 1.232500
10.844800 1.224900
10.865300 1.212700
10.885900 1.212000
10.906400 1.202600
10.926900 1.200500
10.947500 1.203700
10.968000 1.210500
10.988500 1.225500
11.009100 1.254200
11.029600 1.282300
11.050200 1.309500
11.070700 1.305800
11.091200 1.343700
11.111800 1.345100
11.132300 1.341300
11.152800 1.370100
11.173400 1.430700
11.193900 1.483600
11.214400 1.447700
11.235000 1.401500
11.255500 1.369000
11.276100 1.349800
11.296600 1.347800
11.317100 1.378700
11.337700 1.419200
11.358200 1.432000
11.378700 1.445500
11.399300 1.477800
11.419800 1.509900
11.440300 1.541600
11.460900 1.592800
11.481400 1.664500
11.501900 1.706900
11.522500 1.731700
11.543000 1.747400
11.563600 1.755700
11.584100 1.761400
11.604600 1.759000
11.625200 1.755600
11.645700 1.767200
11.666200 1.728200
11.686800 1.664600
11.707300 1.605200
11.727800 1.573800
11.748400 1.568300
11.768900 1.566300
11.789400 1.557000
11.810000 1.560500
11.830500 1.530300
11.851100 1.487400
11.871600 1.450300
11.892100 1.424800
11.912700 1.400400
11.933200 1.373700
11.953700 1.350100
11.974300 1.324400
11.994800 1.302400
12.015300 1.278200
12.035900 1.253500
12.056400 1.252300
12.076900 1.230600
12.097500 1.202800
12.118000 1.185300
12.138600 1.173600
12.159100 1.170000
12.179600 1.170200
12.200200 1.167900
12.220700 1.161200
12.241200 1.158300
12.261800 1.161200
12.282300 1.171300
12.302800 1.188900
12.323400 1.198100
12.343900 1.211400
12.364400 1.232200
12.385000 1.264500
12.405500 1.311400
12.426100 1.368500
12.446600 1.401200
12.467100 1.455400
12.487700 1.535800
12.508200 1.526100
12.528700 1.520800
12.549300 1.511700
12.569800 1.490500
12.590300 1.449500
12.610900 1.462300
12.631400 1.490100
12.651900 1.584300
12.672500 1.593100
12.693000 1.646000
12.713600 1.667800
12.734100 1.673500
12.754600 1.680000
12.775200 1.748200
12.795700 1.843200
12.816200 1.881700
12.836800 1.925500
12.857300 1.976600
12.877800 2.061500
12.898400 2.145300
12.918900 2.220200
12.939400 2.226800
12.960000 2.221300
12.980500 2.079500
13.001100 1.965600
13.021600 1.949700
13.042100 2.011600
13.062700 2.105600
13.083200 2.144300
13.103700 2.127600
13.124300 2.137600
13.144800 2.118700
13.165300 2.071500
13.185900 2.036600
13.206400 2.043000
13.227000 2.032800
13.247500 1.955100
13.268000 1.874900
13.288600 1.822800
13.309100 1.756200
13.329600 1.706800
13.350200 1.656300
13.370700 1.618200
13.391200 1.579900
13.411800 1.541600
13.432300 1.512700
13.452800 1.486200
13.473400 1.462700
13.493900 1.439800
13.514500 1.423400
13.535000 1.410400
13.555500 1.402900
13.576100 1.389400
13.596600 1.392900
13.617100 1.344700
13.637700 1.324300
13.658200 1.297000
13.678700 1.270700
13.699300 1.234900
13.719800 1.221000
13.740300 1.207300
13.760900 1.189800
13.781400 1.168800
13.802000 1.159200
13.822500 1.161500
13.843000 1.169200
13.863600 1.180700
13.884100 1.193200
13.904600 1.199700
13.925200 1.191400
13.945700 1.192000
13.966200 1.195400
13.986800 1.199300
14.007300 1.202300
14.027800 1.208100
14.048400 1.219500
14.068900 1.225200
14.089500 1.236300
14.110000 1.251700
14.130500 1.271100
14.151100 1.291200
14.171600 1.298300
14.192100 1.319000
14.212700 1.341700
14.233200 1.368000
14.253700 1.392300
14.274300 1.439700
14.294800 1.522100
14.315300 1.666800
14.335900 1.868300
14.356400 2.102900
14.377000 1.995600
14.397500 1.756600
14.418000 1.637500
14.438600 1.525500
14.459100 1.415300
14.479600 1.299500
14.500200 1.211600
14.520700 1.134700
14.541200 1.045100
14.561800 0.959500
14.582300 0.902400
14.602800 0.853600
14.623400 0.807700
14.643900 0.760300
14.664500 0.721400
14.685000 0.688500
14.705500 0.665200
14.726100 0.646300
14.746600 0.628900
14.767100 0.614700
14.787700 0.598400
14.808200 0.582000
14.828700 0.564800
14.849300 0.547900
14.869800 0.530000
14.890400 0.515100
14.910900 0.503900
14.931400 0.493500
14.952000 0.484500
14.972500 0.476400
14.993000 0.467200
15.013600 0.456500
15.034100 0.444500
15.054600 0.432500
15.075200 0.422700
15.095700 0.414900
15.116200 0.422900
15.136800 0.381500
15.157300 0.373600
15.177900 0.366100
15.198400 0.358900
15.218900 0.352300
15.239500 0.346100
15.260000 0.340000
15.280500 0.334000
15.301100 0.328100
15.321600 0.323200
15.342100 0.318900
15.362700 0.315000
15.383200 0.311300
15.403700 0.307800
15.424300 0.304700
15.444800 0.302500
15.465400 0.301800
15.485900 0.301600
15.506400 0.301800
15.527000 0.302600
15.547500 0.303900
15.568000 0.305800
15.588600 0.308900
15.609100 0.313500
15.629600 0.319400
15.650200 0.326000
15.670700 0.330200
15.691200 0.331800
15.711800 0.331500
15.732300 0.329500
15.752900 0.325000
15.773400 0.319700
15.793900 0.311400
15.814500 0.303100
15.835000 0.295100
15.855500 0.287800
15.876100 0.276000
15.896600 0.255400
15.917100 0.242300
15.937700 0.227700
15.958200 0.219800
15.978700 0.199500
15.999300 0.173400
16.019800 0.148500
16.040400 0.132100
16.060900 0.121700
16.081400 0.105200
16.102000 0.080800
16.122500 0.059500
16.143000 0.043700
16.163600 0.031200
16.184100 0.020900
16.204600 0.014100
16.225200 0.009700
16.245700 0.006600
16.266200 0.004700
16.286800 0.003400
16.307300 0.002500
16.327900 0.001700
16.348400 0.001100
16.368900 0.000600
16.389500 0.000300
16.410000 0.000100
16.430500 0.000000
16.451100 0.000000
16.471600 0.000000
16.492100 0.000000
16.512700 0.000000
16.533200 0.000000
16.553700 0.000000
16.574300 0.000000
16.594800 0.000000
16.615400 0.000000
16.635900 0.000000
16.656400 0.000000
16.677000 0.000000
16.697500 0.000000
16.718000 0.000000
16.738600 0.000000
16.759100 0.000000
16.779600 0.000000
16.800200 0.000000
16.820700 0.000000
16.841300 0.000000
16.861800 0.000000
16.882300 0.000000
16.902900 0.000000
16.923400 0.000000
16.943900 0.000000
16.964500 0.000000
16.985000 0.000000
17.005500 0.000000
17.026100 0.000000
17.046600 0.000000
17.067100 0.000000
17.087700 0.000000
17.108200 0.000000
17.128800 0.000000
17.149300 0.000000
17.169800 0.000000
17.190400 0.000000
17.210900 0.000000
17.231400 0.000000
17.252000 0.000000
17.272500 0.000000
17.293000 0.000000
17.313600 0.000000
17.334100 0.000000
17.354600 0.000000
17.375200 0.000000
17.395700 0.000000
17.416300 0.000000
17.436800 0.000000
17.457300 0.000000
17.477900 0.000000
17.498400 0.000000
17.518900 0.000000
17.539500 0.000000
17.560000 0.000000
17.580500 0.000000
17.601100 0.000000
17.621600 0.000000
17.642100 0.000000
17.662700 0.000000
17.683200 0.000000
17.703800 0.000000
17.724300 0.000000
17.744800 0.000000
17.765400 0.000000
17.785900 0.000000
17.806400 0.000000
17.827000 0.000000
17.847500 0.000000
17.868000 0.000000
17.888600 0.000000
17.909100 0.000000
17.929600 0.000000
17.950200 0.000000
17.970700 0.000000
17.991300 0.000000
18.011800 0.000000
18.032300 0.000000
18.052900 0.000000
18.073400 0.000000
18.093900 0.000000
18.114500 0.000000
18.135000 0.000000
18.155500 0.000000
18.176100 0.000000
18.196600 0.000000
18.217100 0.000000
18.237700 0.000000
18.258200 0.000000
18.278800 0.000000
18.299300 0.000000
e
