set title 'mp-7541 - Density of States'
set xlabel 'Energy (eV)'
set ylabel 'DOS (states/eV)'
set grid
set xrange [-10:10]
set yrange [0:8.752]
set xzeroaxis lt -1
set terminal png size 800,600
set output 'mp-7541_dos_gnuplot.png'
plot '-' using 1:2 with lines title 'DOS'
-16.486600 0.000000
-16.470400 0.000000
-16.454200 0.000000
-16.438000 0.000000
-16.421800 0.000000
-16.405600 0.000000
-16.389400 0.000000
-16.373200 0.000000
-16.357000 0.000000
-16.340800 0.000000
-16.324600 0.000000
-16.308400 0.000000
-16.292200 0.000000
-16.276000 0.000000
-16.259800 0.000000
-16.243600 0.000000
-16.227400 0.000000
-16.211200 0.000000
-16.195000 0.000000
-16.178800 0.000000
-16.162600 0.000000
-16.146400 0.000000
-16.130200 0.000000
-16.114000 0.000000
-16.097800 0.000000
-16.081600 0.000000
-16.065400 0.000000
-16.049200 0.000000
-16.033000 0.000000
-16.016800 0.000000
-16.000600 0.000000
-15.984300 0.000000
-15.968100 0.000000
-15.951900 0.000000
-15.935700 0.000000
-15.919500 0.000000
-15.903300 0.000000
-15.887100 0.000000
-15.870900 0.000000
-15.854700 0.000000
-15.838500 0.000000
-15.822300 0.000000
-15.806100 0.000000
-15.789900 0.000000
-15.773700 0.000000
-15.757500 0.000000
-15.741300 0.000000
-15.725100 0.000000
-15.708900 0.000000
-15.692700 0.000000
-15.676500 0.000000
-15.660300 0.000000
-15.644100 0.000000
-15.627900 0.000000
-15.611700 0.000000
-15.595500 0.000000
-15.579300 0.000000
-15.563100 0.000000
-15.546900 0.000000
-15.530700 0.000000
-15.514500 0.000000
-15.498300 0.000000
-15.482100 0.000000
-15.465900 0.000000
-15.449700 0.000000
-15.433500 0.000000
-15.417300 0.000000
-15.401100 0.000000
-15.384900 0.000000
-15.368700 0.000000
-15.352500 0.000000
-15.336300 0.000000
-15.320100 0.000000
-15.303900 0.000000
-15.287700 0.000000
-15.271500 0.000000
-15.255300 0.000000
-15.239100 0.000000
-15.222900 0.000000
-15.206700 0.000000
-15.190500 0.000000
-15.174300 0.000000
-15.158100 0.000000
-15.141900 0.000000
-15.125700 0.000000
-15.109500 0.000000
-15.093300 0.000000
-15.077100 0.000000
-15.060900 0.000000
-15.044700 0.000000
-15.028500 0.000000
-15.012300 247.655700
-14.996100 0.000000
-14.979900 1913.898600
-14.963700 0.000000
-14.947500 0.000000
-14.931300 0.000000
-14.915100 0.000000
-14.898900 0.000000
-14.882700 0.000000
-14.866500 0.000000
-14.850300 0.000000
-14.834100 0.000000
-14.817900 0.000000
-14.801700 0.000000
-14.785500 0.000000
-14.769300 0.000000
-14.753100 0.000000
-14.736900 0.000000
-14.720700 0.000000
-14.704500 0.000000
-14.688300 0.000000
-14.672100 0.000000
-14.655900 0.000000
-14.639700 0.000000
-14.623500 0.000000
-14.607300 0.000000
-14.591100 0.000000
-14.574900 0.000000
-14.558700 0.000000
-14.542500 0.000000
-14.526300 0.000000
-14.510100 0.000000
-14.493900 0.000000
-14.477700 0.000000
-14.461500 0.000000
-14.445300 0.000000
-14.429000 0.000000
-14.412800 0.000000
-14.396600 0.000000
-14.380400 0.000000
-14.364200 0.000000
-14.348000 0.000000
-14.331800 0.000000
-14.315600 0.000000
-14.299400 0.000000
-14.283200 0.000000
-14.267000 0.000000
-14.250800 0.000000
-14.234600 0.000000
-14.218400 0.000000
-14.202200 0.000000
-14.186000 0.000000
-14.169800 0.000000
-14.153600 0.000000
-14.137400 0.000000
-14.121200 0.000000
-14.105000 0.000000
-14.088800 0.000000
-14.072600 0.000000
-14.056400 0.000000
-14.040200 0.000000
-14.024000 0.000000
-14.007800 0.000000
-13.991600 0.000000
-13.975400 0.000000
-13.959200 0.000000
-13.943000 0.000000
-13.926800 0.000000
-13.910600 0.000000
-13.894400 0.000000
-13.878200 0.000000
-13.862000 0.000000
-13.845800 0.000000
-13.829600 0.000000
-13.813400 0.000000
-13.797200 0.000000
-13.781000 0.000000
-13.764800 0.000000
-13.748600 0.000000
-13.732400 0.000000
-13.716200 0.000000
-13.700000 0.000000
-13.683800 0.000000
-13.667600 0.000000
-13.651400 0.000000
-13.635200 0.000000
-13.619000 0.000000
-13.602800 0.000000
-13.586600 0.000000
-13.570400 0.000000
-13.554200 0.000000
-13.538000 0.000000
-13.521800 0.000000
-13.505600 0.000000
-13.489400 0.000000
-13.473200 0.000000
-13.457000 0.000000
-13.440800 0.000000
-13.424600 0.000000
-13.408400 0.000000
-13.392200 0.000000
-13.376000 0.000000
-13.359800 0.000000
-13.343600 0.000000
-13.327400 0.000000
-13.311200 0.000000
-13.295000 0.000000
-13.278800 0.000000
-13.262600 0.000000
-13.246400 0.000000
-13.230200 0.000000
-13.214000 0.000000
-13.197800 0.000000
-13.181600 0.000000
-13.165400 0.000000
-13.149200 0.000000
-13.133000 0.000000
-13.116800 0.000000
-13.100600 0.000000
-13.084400 0.000000
-13.068200 0.000000
-13.052000 0.000000
-13.035800 0.000000
-13.019600 0.000000
-13.003400 0.000000
-12.987200 0.000000
-12.971000 0.000000
-12.954800 0.000000
-12.938600 0.000000
-12.922400 0.000000
-12.906200 0.000000
-12.890000 0.000000
-12.873800 0.000000
-12.857500 0.000000
-12.841300 0.000000
-12.825100 0.000000
-12.808900 0.000000
-12.792700 0.000000
-12.776500 0.000000
-12.760300 0.000000
-12.744100 0.000000
-12.727900 0.000000
-12.711700 0.000000
-12.695500 0.000000
-12.679300 0.000000
-12.663100 0.000000
-12.646900 0.000000
-12.630700 0.000000
-12.614500 0.000000
-12.598300 0.000000
-12.582100 0.000000
-12.565900 0.000000
-12.549700 0.000000
-12.533500 0.000000
-12.517300 0.000000
-12.501100 0.000000
-12.484900 0.000000
-12.468700 0.000000
-12.452500 0.000000
-12.436300 0.000000
-12.420100 0.000000
-12.403900 0.000000
-12.387700 0.000000
-12.371500 0.000000
-12.355300 0.000000
-12.339100 0.000000
-12.322900 0.000000
-12.306700 0.000000
-12.290500 0.000000
-12.274300 0.000000
-12.258100 0.000000
-12.241900 0.000000
-12.225700 0.000000
-12.209500 0.000000
-12.193300 0.000000
-12.177100 0.000000
-12.160900 0.000000
-12.144700 0.000000
-12.128500 0.000000
-12.112300 0.000000
-12.096100 0.000000
-12.079900 0.000000
-12.063700 0.000000
-12.047500 0.000000
-12.031300 0.000000
-12.015100 0.000000
-11.998900 0.000000
-11.982700 0.000000
-11.966500 0.000000
-11.950300 0.000000
-11.934100 0.000000
-11.917900 0.000000
-11.901700 0.000000
-11.885500 0.000000
-11.869300 0.000000
-11.853100 0.000000
-11.836900 0.000000
-11.820700 0.000000
-11.804500 0.000000
-11.788300 0.000000
-11.772100 0.000000
-11.755900 0.000000
-11.739700 0.000000
-11.723500 0.000000
-11.707300 0.000000
-11.691100 0.000000
-11.674900 0.000000
-11.658700 0.000000
-11.642500 0.000000
-11.626300 0.000000
-11.610100 0.000000
-11.593900 0.000000
-11.577700 0.000000
-11.561500 0.000000
-11.545300 0.000000
-11.529100 0.000000
-11.512900 0.000000
-11.496700 0.000000
-11.480500 0.000000
-11.464300 0.000000
-11.448100 0.000000
-11.431900 0.000000
-11.415700 0.000000
-11.399500 0.000000
-11.383300 0.000000
-11.367100 0.000000
-11.350900 0.000000
-11.334700 0.000000
-11.318500 0.000000
-11.302200 0.000000
-11.286000 0.000000
-11.269800 0.000000
-11.253600 0.000000
-11.237400 0.000000
-11.221200 0.000000
-11.205000 0.000000
-11.188800 0.000000
-11.172600 0.000000
-11.156400 0.000000
-11.140200 0.000000
-11.124000 0.000000
-11.107800 0.000000
-11.091600 0.000000
-11.075400 0.000000
-11.059200 0.000000
-11.043000 0.000000
-11.026800 0.000000
-11.010600 0.000000
-10.994400 0.000000
-10.978200 0.000000
-10.962000 0.000000
-10.945800 0.000000
-10.929600 0.000000
-10.913400 0.000000
-10.897200 0.000000
-10.881000 0.000000
-10.864800 0.000000
-10.848600 0.000000
-10.832400 0.000000
-10.816200 0.000000
-10.800000 0.000000
-10.783800 0.000000
-10.767600 0.000000
-10.751400 0.000000
-10.735200 0.000000
-10.719000 0.000000
-10.702800 0.000000
-10.686600 0.000000
-10.670400 0.000000
-10.654200 0.000000
-10.638000 0.000000
-10.621800 0.000000
-10.605600 0.000000
-10.589400 0.000000
-10.573200 0.000000
-10.557000 0.000000
-10.540800 0.000000
-10.524600 0.000000
-10.508400 0.000000
-10.492200 0.000000
-10.476000 0.000000
-10.459800 0.000000
-10.443600 0.000000
-10.427400 0.000000
-10.411200 0.000000
-10.395000 0.000000
-10.378800 0.000000
-10.362600 0.000000
-10.346400 0.000000
-10.330200 0.000000
-10.314000 0.000000
-10.297800 0.000000
-10.281600 0.000000
-10.265400 0.000000
-10.249200 0.000000
-10.233000 0.000000
-10.216800 0.000000
-10.200600 0.000000
-10.184400 0.000000
-10.168200 0.000000
-10.152000 0.000000
-10.135800 0.000000
-10.119600 0.000000
-10.103400 0.000000
-10.087200 0.000000
-10.071000 0.000000
-10.054800 0.000000
-10.038600 0.000000
-10.022400 0.000000
-10.006200 0.000000
-9.990000 0.000000
-9.973800 0.000000
-9.957600 0.000000
-9.941400 0.000000
-9.925200 0.000000
-9.909000 0.000000
-9.892800 0.000000
-9.876600 0.000000
-9.860400 0.000000
-9.844200 0.000000
-9.828000 0.000000
-9.811800 0.000000
-9.795600 0.000000
-9.779400 0.000000
-9.763200 0.000000
-9.747000 0.000000
-9.730700 0.000000
-9.714500 0.000000
-9.698300 0.000000
-9.682100 0.000000
-9.665900 0.000000
-9.649700 0.000000
-9.633500 0.000000
-9.617300 0.000000
-9.601100 0.000000
-9.584900 0.000000
-9.568700 0.000000
-9.552500 0.000000
-9.536300 0.000000
-9.520100 0.000000
-9.503900 0.000000
-9.487700 0.000000
-9.471500 0.000000
-9.455300 0.000000
-9.439100 0.000000
-9.422900 0.000000
-9.406700 0.000000
-9.390500 0.000000
-9.374300 0.000000
-9.358100 0.000000
-9.341900 0.000000
-9.325700 0.000000
-9.309500 0.000000
-9.293300 0.000000
-9.277100 0.000000
-9.260900 0.000000
-9.244700 0.000000
-9.228500 0.000000
-9.212300 0.000000
-9.196100 0.000000
-9.179900 0.000000
-9.163700 0.000000
-9.147500 0.000000
-9.131300 0.000000
-9.115100 0.000000
-9.098900 0.000000
-9.082700 0.000000
-9.066500 0.000000
-9.050300 0.000000
-9.034100 0.000000
-9.017900 0.000000
-9.001700 0.000000
-8.985500 0.000000
-8.969300 0.000000
-8.953100 0.000000
-8.936900 0.000000
-8.920700 0.000000
-8.904500 0.000000
-8.888300 0.000000
-8.872100 0.000000
-8.855900 0.000000
-8.839700 0.000000
-8.823500 0.000000
-8.807300 0.000000
-8.791100 0.000000
-8.774900 0.000000
-8.758700 0.000000
-8.742500 0.000000
-8.726300 0.000000
-8.710100 0.000000
-8.693900 0.000000
-8.677700 0.000000
-8.661500 0.000000
-8.645300 0.000000
-8.629100 0.000000
-8.612900 0.000000
-8.596700 0.000000
-8.580500 0.000000
-8.564300 0.000000
-8.548100 0.000000
-8.531900 0.000000
-8.515700 0.000000
-8.499500 0.000000
-8.483300 0.000000
-8.467100 0.000000
-8.450900 0.000000
-8.434700 0.000000
-8.418500 0.000000
-8.402300 0.000000
-8.386100 0.000000
-8.369900 0.000000
-8.353700 0.000000
-8.337500 0.000000
-8.321300 0.000000
-8.305100 0.000000
-8.288900 0.000000
-8.272700 0.000000
-8.256500 0.000000
-8.240300 0.000000
-8.224100 0.000000
-8.207900 0.000000
-8.191700 0.000000
-8.175500 0.000000
-8.159200 0.000000
-8.143000 0.000000
-8.126800 0.000000
-8.110600 0.000000
-8.094400 0.000000
-8.078200 0.000000
-8.062000 0.000000
-8.045800 0.000000
-8.029600 0.000000
-8.013400 0.000000
-7.997200 0.000000
-7.981000 0.000000
-7.964800 0.000000
-7.948600 0.000000
-7.932400 0.000000
-7.916200 0.000000
-7.900000 0.000000
-7.883800 0.000000
-7.867600 0.000000
-7.851400 0.000000
-7.835200 0.000000
-7.819000 0.000000
-7.802800 0.065100
-7.786600 0.386000
-7.770400 0.510500
-7.754200 0.612000
-7.738000 0.734100
-7.721800 0.865300
-7.705600 0.942900
-7.689400 1.030100
-7.673200 1.110900
-7.657000 1.201900
-7.640800 1.301900
-7.624600 1.405600
-7.608400 1.498900
-7.592200 1.598000
-7.576000 1.700600
-7.559800 1.810400
-7.543600 1.925600
-7.527400 2.045000
-7.511200 2.168300
-7.495000 2.350500
-7.478800 2.551600
-7.462600 2.774100
-7.446400 3.014600
-7.430200 3.278500
-7.414000 4.130800
-7.397800 4.210000
-7.381600 4.217400
-7.365400 4.245200
-7.349200 4.187700
-7.333000 4.145800
-7.316800 4.168800
-7.300600 4.222100
-7.284400 4.226500
-7.268200 4.222200
-7.252000 4.236900
-7.235800 4.260700
-7.219600 4.318300
-7.203400 4.450600
-7.187200 4.545500
-7.171000 4.468900
-7.154800 4.476800
-7.138600 3.587700
-7.122400 2.910700
-7.106200 2.642700
-7.090000 2.380800
-7.073800 2.386000
-7.057600 0.000000
-7.041400 0.000000
-7.025200 0.000000
-7.009000 0.000000
-6.992800 0.000000
-6.976600 0.000000
-6.960400 0.000000
-6.944200 0.000000
-6.928000 0.000000
-6.911800 0.000000
-6.895600 0.000000
-6.879400 0.000000
-6.863200 0.000000
-6.847000 0.000000
-6.830800 0.000000
-6.814600 0.000000
-6.798400 0.000000
-6.782200 0.000000
-6.766000 0.000000
-6.749800 0.000000
-6.733600 0.000000
-6.717400 0.000000
-6.701200 0.000000
-6.685000 0.000000
-6.668800 0.000000
-6.652600 0.000000
-6.636400 0.000000
-6.620200 0.000000
-6.603900 0.000000
-6.587700 0.000000
-6.571500 0.000000
-6.555300 0.000000
-6.539100 0.000000
-6.522900 0.000000
-6.506700 0.000000
-6.490500 0.000000
-6.474300 0.000000
-6.458100 0.000000
-6.441900 0.000000
-6.425700 0.000000
-6.409500 0.000000
-6.393300 0.000000
-6.377100 0.000000
-6.360900 0.000000
-6.344700 0.000000
-6.328500 0.000000
-6.312300 0.000000
-6.296100 0.000000
-6.279900 0.000000
-6.263700 0.000000
-6.247500 0.000000
-6.231300 0.000000
-6.215100 0.000000
-6.198900 0.000000
-6.182700 0.000000
-6.166500 0.000000
-6.150300 1.072200
-6.134100 1.003600
-6.117900 1.385000
-6.101700 1.611200
-6.085500 1.930200
-6.069300 2.283200
-6.053100 2.663200
-6.036900 2.963800
-6.020700 3.355100
-6.004500 3.856100
-5.988300 4.644100
-5.972100 5.561500
-5.955900 5.857800
-5.939700 6.080100
-5.923500 5.927800
-5.907300 6.161600
-5.891100 6.988300
-5.874900 6.907000
-5.858700 6.561900
-5.842500 6.308000
-5.826300 5.097700
-5.810100 4.221600
-5.793900 3.701200
-5.777700 6.562000
-5.761500 7.889900
-5.745300 7.140200
-5.729100 6.908900
-5.712900 7.027100
-5.696700 7.193900
-5.680500 7.060700
-5.664300 7.705100
-5.648100 6.382500
-5.631900 6.191700
-5.615700 6.233100
-5.599500 5.894900
-5.583300 5.924300
-5.567100 5.925800
-5.550900 5.669600
-5.534700 5.644600
-5.518500 5.774900
-5.502300 5.648900
-5.486100 5.764100
-5.469900 5.994000
-5.453700 6.134700
-5.437500 4.674300
-5.421300 3.736500
-5.405100 3.044200
-5.388900 2.413100
-5.372700 2.107500
-5.356500 0.736400
-5.340300 0.000000
-5.324100 0.000000
-5.307900 0.000000
-5.291700 0.000000
-5.275500 0.000000
-5.259300 0.000000
-5.243100 0.000000
-5.226900 0.000000
-5.210700 0.000000
-5.194500 0.000000
-5.178300 0.000000
-5.162100 0.000000
-5.145900 0.000000
-5.129700 0.000000
-5.113500 0.000000
-5.097300 0.000000
-5.081100 0.000000
-5.064900 0.000000
-5.048700 0.000000
-5.032400 0.000000
-5.016200 0.000000
-5.000000 0.000000
-4.983800 0.000000
-4.967600 0.000000
-4.951400 0.000000
-4.935200 0.000000
-4.919000 0.000000
-4.902800 0.000000
-4.886600 0.000000
-4.870400 0.000000
-4.854200 0.000000
-4.838000 0.000000
-4.821800 0.000000
-4.805600 0.000000
-4.789400 0.000000
-4.773200 0.000000
-4.757000 0.000000
-4.740800 0.000000
-4.724600 0.000000
-4.708400 0.000000
-4.692200 0.000000
-4.676000 0.000000
-4.659800 0.000000
-4.643600 0.000000
-4.627400 0.000000
-4.611200 0.000000
-4.595000 0.000000
-4.578800 0.000000
-4.562600 0.000000
-4.546400 0.000000
-4.530200 0.000000
-4.514000 0.000000
-4.497800 0.000000
-4.481600 0.000000
-4.465400 0.000000
-4.449200 0.000000
-4.433000 0.000000
-4.416800 0.000000
-4.400600 0.000000
-4.384400 0.000000
-4.368200 0.000000
-4.352000 0.000000
-4.335800 0.000000
-4.319600 0.000000
-4.303400 0.000000
-4.287200 0.000000
-4.271000 0.000000
-4.254800 0.000000
-4.238600 0.000000
-4.222400 0.000000
-4.206200 0.000000
-4.190000 0.000000
-4.173800 0.000000
-4.157600 0.000000
-4.141400 0.000000
-4.125200 0.000000
-4.109000 0.000000
-4.092800 0.000000
-4.076600 0.000000
-4.060400 0.000000
-4.044200 0.000000
-4.028000 0.000000
-4.011800 0.000000
-3.995600 0.000000
-3.979400 0.000000
-3.963200 0.000000
-3.947000 0.000000
-3.930800 0.000000
-3.914600 0.000000
-3.898400 0.000000
-3.882200 0.000000
-3.866000 0.000000
-3.849800 0.000000
-3.833600 0.000000
-3.817400 0.000000
-3.801200 0.000000
-3.785000 0.000000
-3.768800 0.000000
-3.752600 0.000000
-3.736400 0.000000
-3.720200 0.000000
-3.704000 0.387700
-3.687800 0.589600
-3.671600 0.825700
-3.655400 0.993600
-3.639200 1.136700
-3.623000 1.217400
-3.606800 1.352600
-3.590600 1.495300
-3.574400 1.642500
-3.558200 1.790700
-3.542000 1.960800
-3.525800 2.150300
-3.509600 2.341400
-3.493400 2.586500
-3.477100 3.003800
-3.460900 3.077500
-3.444700 2.970900
-3.428500 3.041000
-3.412300 3.016400
-3.396100 2.941000
-3.379900 2.883000
-3.363700 2.932300
-3.347500 2.910700
-3.331300 2.927600
-3.315100 2.980300
-3.298900 3.012000
-3.282700 3.034200
-3.266500 2.966600
-3.250300 2.866700
-3.234100 2.799700
-3.217900 2.963400
-3.201700 2.997500
-3.185500 3.222000
-3.169300 3.441600
-3.153100 3.662500
-3.136900 3.804000
-3.120700 4.018600
-3.104500 4.301700
-3.088300 4.341500
-3.072100 4.055000
-3.055900 3.820500
-3.039700 4.008600
-3.023500 4.973600
-3.007300 2.841000
-2.991100 2.369300
-2.974900 2.207700
-2.958700 2.232400
-2.942500 2.496700
-2.926300 2.859900
-2.910100 3.258600
-2.893900 4.352800
-2.877700 4.924900
-2.861500 5.003300
-2.845300 4.699300
-2.829100 4.442400
-2.812900 4.299200
-2.796700 4.159900
-2.780500 4.095200
-2.764300 4.095800
-2.748100 4.082300
-2.731900 4.022900
-2.715700 3.973800
-2.699500 4.009200
-2.683300 4.022800
-2.667100 3.985000
-2.650900 3.889400
-2.634700 3.738100
-2.618500 3.590400
-2.602300 3.521800
-2.586100 3.427000
-2.569900 3.432000
-2.553700 3.307700
-2.537500 3.110600
-2.521300 2.945200
-2.505100 2.786700
-2.488900 2.591100
-2.472700 2.475300
-2.456500 2.357600
-2.440300 2.450500
-2.424100 2.409400
-2.407900 2.581800
-2.391700 1.091700
-2.375500 0.467300
-2.359300 0.508500
-2.343100 0.546000
-2.326900 0.587000
-2.310700 0.629300
-2.294500 0.671200
-2.278300 0.713400
-2.262100 0.755900
-2.245900 0.799900
-2.229700 0.845400
-2.213500 0.892400
-2.197300 0.945300
-2.181100 1.001200
-2.164900 1.060500
-2.148700 1.121800
-2.132500 1.185600
-2.116300 1.253400
-2.100100 1.325500
-2.083900 1.493700
-2.067700 1.531300
-2.051500 1.500800
-2.035300 1.532500
-2.019100 1.571400
-2.002900 1.623200
-1.986700 1.699400
-1.970500 1.790100
-1.954300 1.902600
-1.938100 1.961400
-1.921900 2.059100
-1.905600 2.182200
-1.889400 2.358300
-1.873200 2.467000
-1.857000 2.560500
-1.840800 2.754100
-1.824600 3.052200
-1.808400 3.241100
-1.792200 3.399700
-1.776000 3.538100
-1.759800 3.774400
-1.743600 4.130500
-1.727400 4.601000
-1.711200 5.182700
-1.695000 5.146800
-1.678800 5.191300
-1.662600 5.450500
-1.646400 5.545600
-1.630200 5.450800
-1.614000 4.717900
-1.597800 3.868200
-1.581600 3.401100
-1.565400 2.944300
-1.549200 2.474200
-1.533000 2.038300
-1.516800 1.690800
-1.500600 1.158300
-1.484400 0.620500
-1.468200 0.437200
-1.452000 0.453900
-1.435800 0.472100
-1.419600 0.487500
-1.403400 0.503900
-1.387200 0.521500
-1.371000 0.537700
-1.354800 0.552500
-1.338600 0.566600
-1.322400 0.580000
-1.306200 0.592700
-1.290000 0.604600
-1.273800 0.616200
-1.257600 0.631100
-1.241400 0.648600
-1.225200 0.664900
-1.209000 0.681900
-1.192800 0.698800
-1.176600 0.715500
-1.160400 0.732100
-1.144200 0.748700
-1.128000 0.765400
-1.111800 0.782200
-1.095600 0.798800
-1.079400 0.815900
-1.063200 0.834500
-1.047000 0.854700
-1.030800 0.876100
-1.014600 0.898400
-0.998400 0.921500
-0.982200 0.944800
-0.966000 0.969700
-0.949800 0.996200
-0.933600 1.022800
-0.917400 1.049400
-0.901200 1.076800
-0.885000 1.105000
-0.868800 1.134000
-0.852600 1.163900
-0.836400 1.194800
-0.820200 1.227000
-0.804000 1.260200
-0.787800 1.294300
-0.771600 1.328900
-0.755400 1.395400
-0.739200 1.590300
-0.723000 1.809200
-0.706800 1.796100
-0.690600 1.792600
-0.674400 1.840200
-0.658200 1.880300
-0.642000 1.923200
-0.625800 1.968500
-0.609600 2.015000
-0.593400 2.060700
-0.577200 2.150200
-0.561000 2.253300
-0.544800 2.362800
-0.528600 2.493800
-0.512400 2.643700
-0.496200 2.755700
-0.480000 2.830700
-0.463800 2.861000
-0.447600 2.806500
-0.431400 2.745300
-0.415200 2.701200
-0.399000 2.653800
-0.382800 2.635100
-0.366600 2.602000
-0.350300 2.526700
-0.334100 2.474500
-0.317900 2.444700
-0.301700 2.432900
-0.285500 2.436000
-0.269300 2.431100
-0.253100 2.420200
-0.236900 2.400900
-0.220700 2.395500
-0.204500 2.402200
-0.188300 2.459100
-0.172100 2.493400
-0.155900 2.453600
-0.139700 2.322800
-0.123500 2.260600
-0.107300 2.220000
-0.091100 2.095100
-0.074900 1.978500
-0.058700 1.929700
-0.042500 1.881400
-0.026300 1.833600
-0.010100 1.786500
0.006100 1.740000
0.022300 1.692000
0.038500 1.641900
0.054700 1.600500
0.070900 1.559200
0.087100 1.515400
0.103300 1.481100
0.119500 1.449200
0.135700 1.414500
0.151900 1.384900
0.168100 1.362100
0.184300 1.342100
0.200500 1.322500
0.216700 1.303300
0.232900 1.284400
0.249100 1.265900
0.265300 1.247800
0.281500 1.230400
0.297700 1.213900
0.313900 1.203800
0.330100 1.193600
0.346300 1.176900
0.362500 1.153600
0.378700 1.123700
0.394900 1.087800
0.411100 1.069600
0.427300 1.039300
0.443500 0.968900
0.459700 0.948600
0.475900 0.955100
0.492100 0.961700
0.508300 0.968500
0.524500 0.975800
0.540700 0.984100
0.556900 0.993500
0.573100 1.004400
0.589300 1.016700
0.605500 1.030500
0.621700 1.045500
0.637900 1.061600
0.654100 1.080600
0.670300 1.105600
0.686500 1.137400
0.702700 1.175900
0.718900 1.221500
0.735100 1.278700
0.751300 1.348200
0.767500 1.413800
0.783700 1.472800
0.799900 1.521300
0.816100 1.575300
0.832300 1.710800
0.848500 1.965100
0.864700 2.154600
0.880900 2.169100
0.897100 2.269600
0.913300 2.441000
0.929500 2.787300
0.945700 3.183300
0.961900 3.858700
0.978100 3.690500
0.994300 3.872800
1.010500 3.592500
1.026700 3.032500
1.042900 2.999500
1.059100 3.659700
1.075300 4.646100
1.091500 4.537000
1.107700 4.641300
1.123900 4.880000
1.140100 5.185200
1.156300 6.185900
1.172500 6.921700
1.188700 6.637700
1.204900 6.841400
1.221200 5.399800
1.237400 4.702200
1.253600 4.884300
1.269800 4.437100
1.286000 4.095200
1.302200 3.700800
1.318400 3.519700
1.334600 3.495100
1.350800 3.447000
1.367000 3.407200
1.383200 3.417900
1.399400 3.512100
1.415600 3.672300
1.431800 3.957800
1.448000 4.446500
1.464200 4.433600
1.480400 4.344500
1.496600 3.958000
1.512800 3.885000
1.529000 3.880600
1.545200 3.975500
1.561400 4.230400
1.577600 4.399800
1.593800 4.491900
1.610000 4.419600
1.626200 4.399000
1.642400 4.376500
1.658600 4.214600
1.674800 3.828200
1.691000 3.576000
1.707200 3.400800
1.723400 3.231900
1.739600 3.093900
1.755800 3.021300
1.772000 3.006900
1.788200 3.028000
1.804400 3.076800
1.820600 3.145800
1.836800 3.213900
1.853000 3.419500
1.869200 3.492100
1.885400 3.541300
1.901600 3.584200
1.917800 3.624300
1.934000 3.679900
1.950200 3.668600
1.966400 3.656200
1.982600 3.993500
1.998800 4.400400
2.015000 5.043600
2.031200 5.773300
2.047400 5.893700
2.063600 5.589700
2.079800 5.201700
2.096000 4.914400
2.112200 4.827800
2.128400 4.751400
2.144600 4.640800
2.160800 4.548500
2.177000 4.464000
2.193200 4.419400
2.209400 4.468400
2.225600 4.544400
2.241800 4.610100
2.258000 4.658800
2.274200 4.699500
2.290400 4.853100
2.306600 5.049100
2.322800 4.833600
2.339000 4.499900
2.355200 4.331400
2.371400 4.240300
2.387600 4.171300
2.403800 4.127000
2.420000 4.172600
2.436200 4.121000
2.452400 4.105200
2.468600 4.084300
2.484800 4.030300
2.501000 3.953700
2.517200 3.895400
2.533400 4.046300
2.549600 3.977200
2.565800 4.036000
2.582000 4.075300
2.598200 4.105400
2.614400 4.113400
2.630600 4.233300
2.646800 4.441500
2.663000 4.624500
2.679200 4.584200
2.695400 4.736800
2.711600 4.596500
2.727800 4.670000
2.744000 4.709900
2.760200 4.782200
2.776500 4.873000
2.792700 4.895000
2.808900 4.822900
2.825100 4.760300
2.841300 4.714500
2.857500 4.808100
2.873700 5.067000
2.889900 5.065200
2.906100 5.084500
2.922300 5.351300
2.938500 5.339400
2.954700 5.047500
2.970900 4.919000
2.987100 4.611900
3.003300 4.693500
3.019500 4.513900
3.035700 4.600700
3.051900 4.340300
3.068100 4.179000
3.084300 4.286600
3.100500 4.147800
3.116700 3.755100
3.132900 3.495200
3.149100 3.744700
3.165300 4.609500
3.181500 6.027200
3.197700 4.821600
3.213900 4.434500
3.230100 4.621800
3.246300 4.895500
3.262500 5.054900
3.278700 4.836600
3.294900 4.688700
3.311100 5.128100
3.327300 4.422000
3.343500 4.266200
3.359700 4.126200
3.375900 4.096900
3.392100 4.264200
3.408300 4.515000
3.424500 4.852100
3.440700 5.072500
3.456900 5.208100
3.473100 5.708000
3.489300 7.956400
3.505500 5.331300
3.521700 5.374000
3.537900 5.362200
3.554100 5.399800
3.570300 5.246600
3.586500 4.990000
3.602700 4.762200
3.618900 4.581600
3.635100 4.432400
3.651300 4.262900
3.667500 4.061900
3.683700 3.909500
3.699900 3.785500
3.716100 3.798200
3.732300 3.925300
3.748500 4.026100
3.764700 4.031900
3.780900 3.912700
3.797100 3.762400
3.813300 3.659600
3.829500 3.555400
3.845700 3.524300
3.861900 3.502100
3.878100 3.504100
3.894300 3.507800
3.910500 3.463300
3.926700 3.378500
3.942900 3.284700
3.959100 3.236200
3.975300 3.262300
3.991500 3.391700
4.007700 3.501800
4.023900 3.660900
4.040100 3.708000
4.056300 3.815700
4.072500 3.884300
4.088700 3.733800
4.104900 3.673500
4.121100 3.604000
4.137300 3.554500
4.153500 3.503800
4.169700 3.603900
4.185900 3.857100
4.202100 4.196800
4.218300 4.613900
4.234500 4.283000
4.250700 4.222400
4.266900 4.310300
4.283100 4.358600
4.299300 4.638100
4.315500 5.299000
4.331700 5.568100
4.348000 5.565800
4.364200 5.602000
4.380400 5.463900
4.396600 5.803000
4.412800 6.361700
4.429000 6.617700
4.445200 6.458500
4.461400 6.316800
4.477600 5.906400
4.493800 5.777900
4.510000 5.673200
4.526200 5.261300
4.542400 4.365600
4.558600 4.558200
4.574800 4.692300
4.591000 4.752200
4.607200 4.736500
4.623400 4.674100
4.639600 4.565100
4.655800 4.560500
4.672000 4.687100
4.688200 4.850800
4.704400 4.904100
4.720600 4.843000
4.736800 4.885200
4.753000 4.884500
4.769200 4.879500
4.785400 4.894300
4.801600 5.024400
4.817800 5.517700
4.834000 5.888100
4.850200 5.780300
4.866400 5.531700
4.882600 5.468600
4.898800 5.485900
4.915000 5.500600
4.931200 5.501500
4.947400 5.483900
4.963600 5.508100
4.979800 5.646200
4.996000 5.441500
5.012200 5.199300
5.028400 5.092900
5.044600 5.193500
5.060800 5.336300
5.077000 5.423400
5.093200 5.443900
5.109400 5.246700
5.125600 5.116300
5.141800 4.958700
5.158000 4.804200
5.174200 4.709700
5.190400 4.638700
5.206600 4.770900
5.222800 4.752200
5.239000 4.672500
5.255200 4.534300
5.271400 4.473200
5.287600 4.307900
5.303800 4.094500
5.320000 3.895500
5.336200 3.660000
5.352400 3.431600
5.368600 3.250800
5.384800 3.086700
5.401000 2.952100
5.417200 2.844900
5.433400 2.754800
5.449600 2.678600
5.465800 2.603700
5.482000 2.508700
5.498200 2.331200
5.514400 2.164700
5.530600 2.064100
5.546800 1.993200
5.563000 1.962400
5.579200 1.941100
5.595400 1.780700
5.611600 1.596200
5.627800 1.543400
5.644000 1.500200
5.660200 1.472300
5.676400 1.445500
5.692600 1.417700
5.708800 1.389400
5.725000 1.367600
5.741200 1.343100
5.757400 1.336800
5.773600 1.323500
5.789800 1.310700
5.806000 1.291100
5.822200 1.271400
5.838400 1.246900
5.854600 1.195200
5.870800 1.174700
5.887000 1.205200
5.903300 1.215700
5.919500 1.230100
5.935700 1.248200
5.951900 1.270100
5.968100 1.284100
5.984300 1.328900
6.000500 1.278900
6.016700 1.528100
6.032900 1.494800
6.049100 1.477800
6.065300 1.494000
6.081500 1.505500
6.097700 1.512800
6.113900 1.565900
6.130100 1.589400
6.146300 1.541800
6.162500 1.531800
6.178700 1.546700
6.194900 1.564800
6.211100 1.578400
6.227300 1.587400
6.243500 1.593200
6.259700 1.598100
6.275900 1.606400
6.292100 1.613700
6.308300 1.620000
6.324500 1.627300
6.340700 1.640600
6.356900 1.647900
6.373100 1.649200
6.389300 1.647000
6.405500 1.648900
6.421700 1.651300
6.437900 1.652900
6.454100 1.640000
6.470300 1.645500
6.486500 1.662700
6.502700 1.681800
6.518900 1.700000
6.535100 1.717200
6.551300 1.734200
6.567500 1.751600
6.583700 1.769500
6.599900 1.787100
6.616100 1.791800
6.632300 1.785000
6.648500 1.803100
6.664700 1.827100
6.680900 1.853900
6.697100 1.883100
6.713300 1.926200
6.729500 1.953000
6.745700 1.975100
6.761900 1.997100
6.778100 2.023900
6.794300 2.084300
6.810500 2.132800
6.826700 2.151200
6.842900 2.151000
6.859100 2.145400
6.875300 2.135100
6.891500 2.122000
6.907700 2.104300
6.923900 2.261600
6.940100 2.055600
6.956300 1.843000
6.972500 1.721400
6.988700 1.649000
7.004900 1.596800
7.021100 1.563100
7.037300 1.544500
7.053500 1.534900
7.069700 1.527500
7.085900 1.513300
7.102100 1.494700
7.118300 1.471600
7.134500 1.452800
7.150700 1.448200
7.166900 1.464300
7.183100 3.215600
7.199300 1.401900
7.215500 1.201800
7.231700 1.098500
7.247900 1.090600
7.264100 1.115600
7.280300 1.142000
7.296500 1.172100
7.312700 1.238100
7.328900 1.353800
7.345100 1.529100
7.361300 2.001100
7.377500 2.378500
7.393700 2.671200
7.409900 2.902200
7.426100 3.157200
7.442300 3.419700
7.458500 3.693200
7.474800 3.932100
7.491000 4.199100
7.507200 4.634800
7.523400 4.795500
7.539600 5.573300
7.555800 4.225700
7.572000 3.910200
7.588200 3.543600
7.604400 3.203700
7.620600 3.049000
7.636800 2.705600
7.653000 2.058300
7.669200 1.915600
7.685400 1.753900
7.701600 1.850300
7.717800 1.381700
7.734000 1.320200
7.750200 1.356500
7.766400 1.425200
7.782600 1.504000
7.798800 1.576100
7.815000 1.658200
7.831200 1.757400
7.847400 1.900700
7.863600 2.094200
7.879800 2.314700
7.896000 2.556900
7.912200 2.735900
7.928400 2.867300
7.944600 2.911700
7.960800 3.014200
7.977000 3.092000
7.993200 3.157300
8.009400 3.088000
8.025600 3.084200
8.041800 3.125700
8.058000 3.189400
8.074200 3.268100
8.090400 3.361900
8.106600 3.473600
8.122800 3.585700
8.139000 3.728200
8.155200 3.875800
8.171400 4.011000
8.187600 4.196300
8.203800 4.452600
8.220000 4.754300
8.236200 5.086600
8.252400 5.524200
8.268600 5.960000
8.284800 6.122700
8.301000 6.203400
8.317200 6.048000
8.333400 5.903000
8.349600 5.941300
8.365800 5.993000
8.382000 6.040400
8.398200 6.029800
8.414400 5.984900
8.430600 6.081300
8.446800 6.232900
8.463000 6.311700
8.479200 6.300100
8.495400 6.043600
8.511600 5.572700
8.527800 5.370600
8.544000 5.328100
8.560200 5.285900
8.576400 5.269200
8.592600 5.340500
8.608800 5.484600
8.625000 5.668000
8.641200 5.864800
8.657400 6.160000
8.673600 7.394500
8.689800 5.826200
8.706000 5.509500
8.722200 5.359000
8.738400 5.402200
8.754600 5.610500
8.770800 5.485100
8.787000 5.247900
8.803200 5.195200
8.819400 5.351200
8.835600 5.561300
8.851800 5.709900
8.868000 5.908900
8.884200 6.188500
8.900400 6.391300
8.916600 6.790100
8.932800 6.898900
8.949000 6.617900
8.965200 6.748900
8.981400 6.558200
8.997600 6.717300
9.013800 6.504100
9.030100 6.522400
9.046300 6.715600
9.062500 6.377800
9.078700 6.370800
9.094900 6.540200
9.111100 6.773600
9.127300 6.965800
9.143500 6.949700
9.159700 6.759600
9.175900 6.633300
9.192100 6.649100
9.208300 6.786100
9.224500 6.890400
9.240700 6.820900
9.256900 6.699700
9.273100 7.245700
9.289300 7.011700
9.305500 7.218000
9.321700 6.606300
9.337900 6.500700
9.354100 6.372200
9.370300 6.201100
9.386500 6.244300
9.402700 6.283500
9.418900 6.107500
9.435100 5.982200
9.451300 6.209600
9.467500 6.315800
9.483700 6.160000
9.499900 6.174200
9.516100 5.929100
9.532300 5.872600
9.548500 5.825800
9.564700 5.655900
9.580900 5.595200
9.597100 5.585300
9.613300 5.600700
9.629500 5.530000
9.645700 5.736100
9.661900 5.669000
9.678100 5.606600
9.694300 5.593300
9.710500 5.404400
9.726700 5.257500
9.742900 5.365300
9.759100 5.295900
9.775300 5.200600
9.791500 4.957700
9.807700 4.848100
9.823900 4.835900
9.840100 4.905500
9.856300 4.994900
9.872500 5.084500
9.888700 4.883000
9.904900 4.785900
9.921100 4.739300
9.937300 4.684600
9.953500 4.642500
9.969700 4.639300
9.985900 4.727200
10.002100 4.872900
10.018300 4.865800
10.034500 5.046600
10.050700 5.279900
10.066900 5.360600
10.083100 5.426900
10.099300 5.687900
10.115500 5.839300
10.131700 5.916500
10.147900 5.800100
10.164100 5.755300
10.180300 5.741500
10.196500 5.756000
10.212700 5.855500
10.228900 6.158500
10.245100 6.291800
10.261300 6.099300
10.277500 6.044400
10.293700 6.186800
10.309900 6.480100
10.326100 6.190800
10.342300 5.968600
10.358500 5.494200
10.374700 5.039100
10.390900 4.696300
10.407100 4.495800
10.423300 4.426700
10.439500 4.479300
10.455700 4.645500
10.471900 4.679700
10.488100 4.618400
10.504300 4.596700
10.520500 4.670200
10.536700 4.746500
10.552900 4.840600
10.569100 4.966500
10.585300 5.040300
10.601600 5.057200
10.617800 5.056400
10.634000 5.055300
10.650200 4.912200
10.666400 4.797400
10.682600 4.781100
10.698800 4.819000
10.715000 4.694900
10.731200 4.730000
10.747400 4.757500
10.763600 4.767400
10.779800 4.808700
10.796000 4.869800
10.812200 4.951600
10.828400 4.888500
10.844600 4.800200
10.860800 4.824000
10.877000 4.849900
10.893200 4.875700
10.909400 4.832600
10.925600 4.742500
10.941800 4.743900
10.958000 4.700700
10.974200 4.674700
10.990400 4.667200
11.006600 4.677500
11.022800 4.696100
11.039000 4.731900
11.055200 4.627400
11.071400 4.635200
11.087600 4.617900
11.103800 4.542100
11.120000 4.479100
11.136200 4.456100
11.152400 4.524200
11.168600 4.536400
11.184800 4.489100
11.201000 4.396200
11.217200 4.130300
11.233400 3.895400
11.249600 3.809600
11.265800 3.774700
11.282000 3.778200
11.298200 3.787800
11.314400 3.802900
11.330600 3.921800
11.346800 3.955100
11.363000 3.987100
11.379200 4.018100
11.395400 4.025300
11.411600 4.024500
11.427800 4.025700
11.444000 4.038500
11.460200 4.064500
11.476400 4.039600
11.492600 4.068200
11.508800 4.126500
11.525000 4.152700
11.541200 4.226500
11.557400 4.346400
11.573600 4.465600
11.589800 5.030300
11.606000 4.652300
11.622200 4.649100
11.638400 4.639200
11.654600 4.662400
11.670800 4.766500
11.687000 5.019700
11.703200 5.123200
11.719400 5.271700
11.735600 5.365500
11.751800 5.177900
11.768000 4.801200
11.784200 4.713900
11.800400 4.672100
11.816600 4.458800
11.832800 4.337300
11.849000 4.264100
11.865200 4.520300
11.881400 4.864500
11.897600 4.824300
11.913800 4.765600
11.930000 4.750800
11.946200 4.805900
11.962400 4.806100
11.978600 4.743100
11.994800 4.568200
12.011000 4.366700
12.027200 4.356100
12.043400 4.381700
12.059600 4.400700
12.075800 4.417200
12.092000 4.434800
12.108200 4.498800
12.124400 4.626700
12.140600 4.664100
12.156900 4.618400
12.173100 4.588100
12.189300 4.593200
12.205500 4.760700
12.221700 4.902000
12.237900 4.999800
12.254100 5.039600
12.270300 5.072100
12.286500 4.864500
12.302700 4.616600
12.318900 4.444000
12.335100 4.344900
12.351300 4.292300
12.367500 4.250700
12.383700 4.219400
12.399900 4.202900
12.416100 4.162700
12.432300 4.138300
12.448500 4.280900
12.464700 4.285200
12.480900 4.151300
12.497100 4.020000
12.513300 3.899400
12.529500 3.779400
12.545700 3.665500
12.561900 3.545500
12.578100 3.641200
12.594300 3.692000
12.610500 3.691500
12.626700 3.757900
12.642900 3.794900
12.659100 3.890200
12.675300 4.600100
12.691500 4.970100
12.707700 5.250900
12.723900 5.438300
12.740100 5.510100
12.756300 5.458500
12.772500 5.095900
12.788700 4.973400
12.804900 4.882100
12.821100 4.819400
12.837300 4.786300
12.853500 4.751600
12.869700 4.718700
12.885900 4.681300
12.902100 4.629100
12.918300 4.505700
12.934500 4.469800
12.950700 4.458100
12.966900 4.445400
12.983100 4.201800
12.999300 4.028100
13.015500 3.925500
13.031700 3.831200
13.047900 3.758200
13.064100 4.052700
13.080300 3.701600
13.096500 3.677000
13.112700 3.654700
13.128900 3.647900
13.145100 3.663300
13.161300 3.694400
13.177500 3.711600
13.193700 3.621300
13.209900 3.464100
13.226100 3.563200
13.242300 3.764300
13.258500 3.244400
13.274700 2.904800
13.290900 2.727500
13.307100 2.573000
13.323300 2.432800
13.339500 2.325500
13.355700 2.226400
13.371900 2.124700
13.388100 2.026000
13.404300 1.924000
13.420500 1.833500
13.436700 1.732300
13.452900 1.666700
13.469100 1.658300
13.485300 1.591000
13.501500 1.471800
13.517700 1.361600
13.533900 1.261800
13.550100 1.175400
13.566300 1.107700
13.582500 1.053100
13.598700 1.003500
13.614900 0.949400
13.631100 0.882900
13.647300 0.811800
13.663500 0.771100
13.679700 0.741700
13.695900 0.719900
13.712100 0.716200
13.728400 0.727300
13.744600 0.740500
13.760800 0.738500
13.777000 0.783100
13.793200 1.079000
13.809400 0.661600
13.825600 0.572300
13.841800 0.502900
13.858000 0.448600
13.874200 0.403400
13.890400 0.504200
13.906600 0.335600
13.922800 0.307200
13.939000 0.285900
13.955200 0.273700
13.971400 0.264200
13.987600 0.254600
14.003800 0.245100
14.020000 0.235700
14.036200 0.226300
14.052400 0.217000
14.068600 0.207700
14.084800 0.198500
14.101000 0.189300
14.117200 0.180200
14.133400 0.171100
14.149600 0.162100
14.165800 0.153200
14.182000 0.145700
14.198200 0.141100
14.214400 0.141300
14.230600 0.138700
14.246800 0.130900
14.263000 0.117800
14.279200 0.100700
14.295400 0.079500
14.311600 0.061900
14.327800 0.054900
14.344000 0.047600
14.360200 0.040200
14.376400 0.032600
14.392600 0.024900
14.408800 0.017000
14.425000 0.009000
14.441200 0.000800
14.457400 0.000000
14.473600 0.000000
14.489800 0.000000
14.506000 0.000000
14.522200 0.000000
14.538400 0.000000
14.554600 0.000000
14.570800 0.000000
14.587000 0.000000
14.603200 0.000000
14.619400 0.000000
14.635600 0.000000
14.651800 0.000000
14.668000 0.000000
14.684200 0.000000
14.700400 0.000000
14.716600 0.000000
14.732800 0.000000
14.749000 0.000000
14.765200 0.000000
14.781400 0.000000
14.797600 0.000000
14.813800 0.000000
14.830000 0.000000
14.846200 0.000000
14.862400 0.000000
14.878600 0.000000
14.894800 0.000000
14.911000 0.000000
14.927200 0.000000
14.943400 0.000000
14.959600 0.000000
14.975800 0.000000
14.992000 0.000000
15.008200 0.000000
15.024400 0.000000
15.040600 0.000000
15.056800 0.000000
15.073000 0.000000
15.089200 0.000000
15.105400 0.000000
15.121600 0.000000
15.137800 0.000000
15.154000 0.000000
15.170200 0.000000
15.186400 0.000000
15.202600 0.000000
15.218800 0.000000
15.235000 0.000000
15.251200 0.000000
15.267400 0.000000
15.283700 0.000000
15.299900 0.000000
15.316100 0.000000
15.332300 0.000000
15.348500 0.000000
15.364700 0.000000
15.380900 0.000000
15.397100 0.000000
15.413300 0.000000
15.429500 0.000000
15.445700 0.000000
15.461900 0.000000
15.478100 0.000000
15.494300 0.000000
15.510500 0.000000
15.526700 0.000000
15.542900 0.000000
15.559100 0.000000
15.575300 0.000000
15.591500 0.000000
15.607700 0.000000
15.623900 0.000000
15.640100 0.000000
15.656300 0.000000
15.672500 0.000000
15.688700 0.000000
15.704900 0.000000
15.721100 0.000000
15.737300 0.000000
15.753500 0.000000
15.769700 0.000000
15.785900 0.000000
15.802100 0.000000
15.818300 0.000000
15.834500 0.000000
15.850700 0.000000
15.866900 0.000000
15.883100 0.000000
15.899300 0.000000
15.915500 0.000000
e
