set title 'mp-1225560 - Density of States'
set xlabel 'Energy (eV)'
set ylabel 'DOS (states/eV)'
set grid
set xrange [-10:10]
set yrange [0:24.323]
set xzeroaxis lt -1
set terminal png size 800,600
set output 'mp-1225560_dos_gnuplot.png'
plot '-' using 1:2 with lines title 'DOS'
-23.790800 0.000000
-23.763300 0.000000
-23.735800 0.000000
-23.708300 0.000000
-23.680700 0.000000
-23.653200 0.000000
-23.625700 0.000000
-23.598200 0.000000
-23.570700 0.000000
-23.543200 0.000000
-23.515600 0.000000
-23.488100 0.000000
-23.460600 0.000000
-23.433100 0.000000
-23.405600 0.000000
-23.378100 0.000000
-23.350500 0.000000
-23.323000 0.000000
-23.295500 0.000000
-23.268000 0.000000
-23.240500 0.000000
-23.213000 0.000000
-23.185400 0.000000
-23.157900 0.000000
-23.130400 0.000000
-23.102900 0.000000
-23.075400 0.000000
-23.047900 0.000000
-23.020300 0.000000
-22.992800 0.000000
-22.965300 0.000000
-22.937800 0.000000
-22.910300 0.000000
-22.882800 0.000000
-22.855200 0.000000
-22.827700 0.000000
-22.800200 0.000000
-22.772700 0.000000
-22.745200 0.000000
-22.717700 0.000000
-22.690100 0.000000
-22.662600 0.000000
-22.635100 0.000000
-22.607600 0.000000
-22.580100 0.000000
-22.552600 0.000000
-22.525000 0.000000
-22.497500 0.000000
-22.470000 0.000000
-22.442500 0.000000
-22.415000 0.000000
-22.387500 0.000000
-22.359900 0.000000
-22.332400 0.000000
-22.304900 0.000000
-22.277400 0.000000
-22.249900 0.000000
-22.222400 0.000000
-22.194800 0.000000
-22.167300 0.000000
-22.139800 0.000000
-22.112300 0.000000
-22.084800 0.000000
-22.057300 0.000000
-22.029700 0.000000
-22.002200 0.000000
-21.974700 0.000000
-21.947200 0.000000
-21.919700 0.000000
-21.892200 0.000000
-21.864600 0.000000
-21.837100 0.000000
-21.809600 0.000000
-21.782100 0.000000
-21.754600 0.000000
-21.727000 0.000000
-21.699500 0.000000
-21.672000 0.000000
-21.644500 0.000000
-21.617000 0.000000
-21.589500 0.000000
-21.561900 0.000000
-21.534400 0.000000
-21.506900 0.000000
-21.479400 0.000000
-21.451900 0.000000
-21.424400 0.000000
-21.396800 0.000000
-21.369300 0.000000
-21.341800 0.000000
-21.314300 0.000000
-21.286800 0.105000
-21.259300 4.303900
-21.231700 24.583800
-21.204200 4.687700
-21.176700 4.345600
-21.149200 4.003700
-21.121700 3.661800
-21.094200 3.346200
-21.066600 3.143500
-21.039100 2.943200
-21.011600 2.743900
-20.984100 2.561700
-20.956600 3.380700
-20.929100 4.905100
-20.901500 7.879900
-20.874000 11.750900
-20.846500 12.867400
-20.819000 15.166000
-20.791500 8.096700
-20.764000 5.054300
-20.736400 3.084200
-20.708900 2.914900
-20.681400 2.746300
-20.653900 3.881800
-20.626400 6.229800
-20.598900 19.876800
-20.571300 32.572700
-20.543800 24.059400
-20.516300 17.507000
-20.488800 20.752800
-20.461300 17.681600
-20.433800 16.176500
-20.406200 14.903700
-20.378700 14.481300
-20.351200 9.395400
-20.323700 10.458300
-20.296200 20.049400
-20.268700 70.804900
-20.241100 15.412200
-20.213600 2.938100
-20.186100 0.000000
-20.158600 0.000000
-20.131100 0.000000
-20.103600 0.000000
-20.076000 0.000000
-20.048500 0.000000
-20.021000 0.000000
-19.993500 0.000000
-19.966000 0.000000
-19.938500 0.000000
-19.910900 0.000000
-19.883400 0.000000
-19.855900 0.000000
-19.828400 0.000000
-19.800900 0.000000
-19.773400 0.000000
-19.745800 0.000000
-19.718300 0.000000
-19.690800 0.000000
-19.663300 0.000000
-19.635800 0.000000
-19.608300 0.000000
-19.580700 0.000000
-19.553200 0.000000
-19.525700 0.000000
-19.498200 0.000000
-19.470700 0.000000
-19.443200 0.000000
-19.415600 0.000000
-19.388100 0.000000
-19.360600 0.000000
-19.333100 0.000000
-19.305600 0.000000
-19.278100 0.000000
-19.250500 0.000000
-19.223000 0.000000
-19.195500 0.000000
-19.168000 0.000000
-19.140500 0.000000
-19.113000 0.000000
-19.085400 0.000000
-19.057900 0.000000
-19.030400 0.000000
-19.002900 0.000000
-18.975400 0.000000
-18.947900 0.000000
-18.920300 0.000000
-18.892800 0.000000
-18.865300 0.000000
-18.837800 0.000000
-18.810300 0.000000
-18.782800 0.000000
-18.755200 0.000000
-18.727700 0.000000
-18.700200 0.000000
-18.672700 0.000000
-18.645200 0.000000
-18.617700 0.000000
-18.590100 0.000000
-18.562600 0.000000
-18.535100 0.000000
-18.507600 0.000000
-18.480100 0.000000
-18.452600 0.000000
-18.425000 0.000000
-18.397500 0.000000
-18.370000 0.000000
-18.342500 0.000000
-18.315000 0.000000
-18.287500 0.000000
-18.259900 0.000000
-18.232400 0.000000
-18.204900 0.000000
-18.177400 0.000000
-18.149900 0.000000
-18.122400 0.000000
-18.094800 0.000000
-18.067300 0.000000
-18.039800 0.000000
-18.012300 0.000000
-17.984800 0.000000
-17.957300 0.000000
-17.929700 0.000000
-17.902200 0.000000
-17.874700 0.000000
-17.847200 0.000000
-17.819700 0.000000
-17.792200 0.000000
-17.764600 0.000000
-17.737100 0.000000
-17.709600 0.000000
-17.682100 0.000000
-17.654600 0.000000
-17.627100 0.000000
-17.599500 0.000000
-17.572000 0.000000
-17.544500 0.000000
-17.517000 0.000000
-17.489500 0.000000
-17.462000 0.000000
-17.434400 0.000000
-17.406900 0.000000
-17.379400 0.000000
-17.351900 0.000000
-17.324400 0.000000
-17.296900 0.000000
-17.269300 0.000000
-17.241800 0.000000
-17.214300 0.000000
-17.186800 0.000000
-17.159300 0.000000
-17.131800 0.000000
-17.104200 0.000000
-17.076700 0.000000
-17.049200 0.000000
-17.021700 0.000000
-16.994200 0.000000
-16.966700 0.000000
-16.939100 0.000000
-16.911600 0.000000
-16.884100 0.000000
-16.856600 0.000000
-16.829100 0.000000
-16.801600 0.000000
-16.774000 0.000000
-16.746500 0.000000
-16.719000 0.000000
-16.691500 0.000000
-16.664000 0.000000
-16.636500 0.000000
-16.608900 0.000000
-16.581400 0.000000
-16.553900 0.000000
-16.526400 0.000000
-16.498900 0.000000
-16.471400 0.000000
-16.443800 0.000000
-16.416300 0.000000
-16.388800 0.000000
-16.361300 0.000000
-16.333800 0.000000
-16.306300 0.000000
-16.278700 0.000000
-16.251200 0.000000
-16.223700 0.000000
-16.196200 0.000000
-16.168700 0.000000
-16.141200 0.000000
-16.113600 0.000000
-16.086100 0.000000
-16.058600 0.000000
-16.031100 0.000000
-16.003600 0.000000
-15.976100 0.000000
-15.948500 0.000000
-15.921000 0.000000
-15.893500 0.000000
-15.866000 0.000000
-15.838500 0.000000
-15.811000 0.000000
-15.783400 0.000000
-15.755900 0.000000
-15.728400 0.000000
-15.700900 0.000000
-15.673400 0.000000
-15.645900 0.000000
-15.618300 0.000000
-15.590800 0.000000
-15.563300 0.000000
-15.535800 0.000000
-15.508300 0.000000
-15.480800 0.000000
-15.453200 0.000000
-15.425700 0.000000
-15.398200 0.000000
-15.370700 0.000000
-15.343200 0.000000
-15.315700 0.005300
-15.288100 0.047600
-15.260600 0.130600
-15.233100 0.219200
-15.205600 0.307900
-15.178100 0.396600
-15.150600 0.485400
-15.123000 0.574100
-15.095500 0.662900
-15.068000 0.751700
-15.040500 0.840400
-15.013000 0.929300
-14.985500 0.910600
-14.957900 0.795000
-14.930400 0.823100
-14.902900 0.851200
-14.875400 0.879300
-14.847900 0.907400
-14.820400 0.935500
-14.792800 0.963600
-14.765300 0.991700
-14.737800 1.019800
-14.710300 1.047900
-14.682800 1.076000
-14.655300 1.104100
-14.627700 1.132200
-14.600200 1.160300
-14.572700 1.188400
-14.545200 1.241900
-14.517700 1.412300
-14.490200 1.621800
-14.462600 1.846300
-14.435100 2.082800
-14.407600 2.333700
-14.380100 2.597500
-14.352600 2.869100
-14.325100 3.147600
-14.297500 3.432900
-14.270000 3.697400
-14.242500 3.952700
-14.215000 4.351400
-14.187500 5.484600
-14.160000 8.866300
-14.132400 4.881200
-14.104900 4.273000
-14.077400 3.851600
-14.049900 4.356100
-14.022400 4.698200
-13.994900 5.143100
-13.967300 6.074700
-13.939800 6.904900
-13.912300 7.048800
-13.884800 5.592900
-13.857300 4.867600
-13.829800 4.286800
-13.802200 3.904600
-13.774700 4.585700
-13.747200 2.835900
-13.719700 1.746300
-13.692200 0.787500
-13.664700 0.000000
-13.637100 0.000000
-13.609600 0.000000
-13.582100 0.339100
-13.554600 0.883900
-13.527100 1.276500
-13.499600 1.810500
-13.472000 4.092400
-13.444500 6.303700
-13.417000 6.072000
-13.389500 5.829100
-13.362000 8.845400
-13.334500 7.877200
-13.306900 6.949100
-13.279400 6.734900
-13.251900 5.610100
-13.224400 4.048100
-13.196900 2.877200
-13.169400 1.923400
-13.141800 1.166900
-13.114300 0.705300
-13.086800 0.326700
-13.059300 0.031300
-13.031800 0.000000
-13.004300 0.000000
-12.976700 0.000000
-12.949200 0.000000
-12.921700 0.000000
-12.894200 0.000000
-12.866700 0.000000
-12.839200 0.000000
-12.811600 0.000000
-12.784100 0.000000
-12.756600 0.000000
-12.729100 0.000000
-12.701600 0.000000
-12.674100 0.000000
-12.646500 0.000000
-12.619000 0.000000
-12.591500 0.000000
-12.564000 0.000000
-12.536500 0.000000
-12.509000 0.000000
-12.481400 0.000000
-12.453900 0.000000
-12.426400 0.000000
-12.398900 0.000000
-12.371400 0.000000
-12.343900 0.000000
-12.316300 0.000000
-12.288800 0.000000
-12.261300 0.000000
-12.233800 0.000000
-12.206300 0.000000
-12.178800 0.000000
-12.151200 0.000000
-12.123700 0.000000
-12.096200 0.000000
-12.068700 0.000000
-12.041200 0.000000
-12.013700 0.000000
-11.986100 0.000000
-11.958600 0.000000
-11.931100 0.000000
-11.903600 0.000000
-11.876100 0.000000
-11.848600 0.000000
-11.821000 0.000000
-11.793500 0.000000
-11.766000 0.000000
-11.738500 0.000000
-11.711000 0.000000
-11.683500 0.000000
-11.655900 0.000000
-11.628400 0.000000
-11.600900 0.000000
-11.573400 0.000000
-11.545900 0.000000
-11.518400 0.000000
-11.490800 0.000000
-11.463300 0.000000
-11.435800 0.000000
-11.408300 0.000000
-11.380800 0.000000
-11.353300 0.000000
-11.325700 0.000000
-11.298200 0.000000
-11.270700 0.000000
-11.243200 0.000000
-11.215700 0.000000
-11.188200 0.000000
-11.160600 0.000000
-11.133100 0.000000
-11.105600 0.000000
-11.078100 0.000000
-11.050600 0.000000
-11.023100 0.000000
-10.995500 0.000000
-10.968000 0.000000
-10.940500 0.000000
-10.913000 0.000000
-10.885500 0.000000
-10.858000 0.000000
-10.830400 0.000000
-10.802900 0.000000
-10.775400 0.000000
-10.747900 0.000000
-10.720400 0.000000
-10.692900 0.000000
-10.665300 0.000000
-10.637800 0.000000
-10.610300 0.000000
-10.582800 0.000000
-10.555300 0.000000
-10.527800 0.000000
-10.500200 0.000000
-10.472700 0.000000
-10.445200 0.000000
-10.417700 0.000000
-10.390200 0.000000
-10.362700 0.000000
-10.335100 0.000000
-10.307600 0.000000
-10.280100 0.000000
-10.252600 0.000000
-10.225100 0.000000
-10.197600 0.000000
-10.170000 0.000000
-10.142500 0.000000
-10.115000 0.000000
-10.087500 0.000000
-10.060000 0.000000
-10.032500 0.000000
-10.004900 0.000000
-9.977400 0.000000
-9.949900 0.000000
-9.922400 0.000000
-9.894900 0.000000
-9.867400 0.000000
-9.839800 0.000000
-9.812300 0.000000
-9.784800 0.000000
-9.757300 0.000000
-9.729800 0.000000
-9.702300 0.000000
-9.674700 0.000000
-9.647200 0.000000
-9.619700 0.000000
-9.592200 0.000000
-9.564700 0.000000
-9.537200 0.000000
-9.509600 0.000000
-9.482100 0.000000
-9.454600 0.000000
-9.427100 0.000000
-9.399600 0.000000
-9.372100 0.000000
-9.344500 0.000000
-9.317000 0.000000
-9.289500 0.000000
-9.262000 0.000000
-9.234500 0.000000
-9.207000 0.000000
-9.179400 0.000000
-9.151900 0.000000
-9.124400 0.000000
-9.096900 0.000000
-9.069400 0.000000
-9.041900 0.000000
-9.014300 0.000000
-8.986800 0.000000
-8.959300 0.000000
-8.931800 0.000000
-8.904300 0.000000
-8.876800 0.000000
-8.849200 0.000000
-8.821700 0.000000
-8.794200 0.000000
-8.766700 0.000000
-8.739200 0.000000
-8.711700 0.000000
-8.684100 0.000000
-8.656600 0.000000
-8.629100 0.000000
-8.601600 0.000000
-8.574100 0.000000
-8.546600 0.000000
-8.519000 0.000000
-8.491500 0.000000
-8.464000 0.000000
-8.436500 0.000000
-8.409000 0.000000
-8.381500 0.000000
-8.353900 0.000000
-8.326400 0.000000
-8.298900 0.000000
-8.271400 0.000000
-8.243900 0.000000
-8.216400 0.000000
-8.188800 0.000000
-8.161300 0.000000
-8.133800 0.000000
-8.106300 0.000000
-8.078800 0.000000
-8.051300 0.000000
-8.023700 0.000000
-7.996200 0.000000
-7.968700 0.000000
-7.941200 0.000000
-7.913700 0.000000
-7.886200 0.000000
-7.858600 0.000000
-7.831100 0.000000
-7.803600 0.000000
-7.776100 0.000000
-7.748600 0.000000
-7.721100 0.000000
-7.693500 0.000000
-7.666000 0.000000
-7.638500 0.000000
-7.611000 0.000000
-7.583500 0.000000
-7.556000 0.000000
-7.528400 0.000000
-7.500900 0.000000
-7.473400 0.000000
-7.445900 0.000000
-7.418400 0.000000
-7.390900 0.000000
-7.363300 0.000000
-7.335800 0.000000
-7.308300 0.000000
-7.280800 0.000000
-7.253300 0.000000
-7.225800 0.000000
-7.198200 0.000000
-7.170700 0.000000
-7.143200 0.000000
-7.115700 0.000000
-7.088200 0.000000
-7.060700 0.000000
-7.033100 0.000000
-7.005600 0.000000
-6.978100 0.000000
-6.950600 0.000000
-6.923100 0.000000
-6.895600 0.000000
-6.868000 0.000000
-6.840500 0.000000
-6.813000 0.000000
-6.785500 0.000000
-6.758000 0.000000
-6.730500 0.000000
-6.702900 0.000000
-6.675400 0.000000
-6.647900 0.000000
-6.620400 0.000000
-6.592900 0.000000
-6.565400 0.000000
-6.537800 0.000000
-6.510300 0.000000
-6.482800 0.000000
-6.455300 0.000000
-6.427800 0.000000
-6.400300 0.000000
-6.372700 0.000000
-6.345200 0.000000
-6.317700 0.000000
-6.290200 0.000000
-6.262700 0.000000
-6.235200 0.000000
-6.207600 0.000000
-6.180100 0.000000
-6.152600 0.000000
-6.125100 0.000000
-6.097600 0.000000
-6.070100 0.000000
-6.042500 0.000000
-6.015000 0.000000
-5.987500 0.000000
-5.960000 0.000000
-5.932500 0.000000
-5.904900 0.000000
-5.877400 0.000000
-5.849900 0.000000
-5.822400 0.000000
-5.794900 0.000000
-5.767400 0.000000
-5.739800 0.000000
-5.712300 0.000000
-5.684800 0.000000
-5.657300 0.000000
-5.629800 0.000000
-5.602300 0.000000
-5.574700 0.000000
-5.547200 0.000000
-5.519700 0.000000
-5.492200 0.000000
-5.464700 0.000000
-5.437200 0.000000
-5.409600 0.000000
-5.382100 0.000000
-5.354600 0.000000
-5.327100 0.000000
-5.299600 0.000000
-5.272100 0.000000
-5.244500 0.000000
-5.217000 0.000000
-5.189500 0.000000
-5.162000 0.000000
-5.134500 0.000000
-5.107000 0.000000
-5.079400 0.000000
-5.051900 0.000000
-5.024400 0.000000
-4.996900 0.000000
-4.969400 0.000000
-4.941900 0.000000
-4.914300 0.000000
-4.886800 0.000000
-4.859300 0.000000
-4.831800 0.000000
-4.804300 0.000000
-4.776800 0.000000
-4.749200 0.000000
-4.721700 0.000000
-4.694200 0.000000
-4.666700 0.000000
-4.639200 0.000000
-4.611700 0.000000
-4.584100 0.000000
-4.556600 0.000000
-4.529100 0.000000
-4.501600 0.000000
-4.474100 0.000000
-4.446600 0.000000
-4.419000 0.000000
-4.391500 0.000000
-4.364000 0.000000
-4.336500 0.000000
-4.309000 0.000000
-4.281500 0.000000
-4.253900 0.000000
-4.226400 0.000000
-4.198900 0.000000
-4.171400 0.000000
-4.143900 0.000000
-4.116400 0.000000
-4.088800 0.000000
-4.061300 0.000000
-4.033800 0.000000
-4.006300 0.000000
-3.978800 0.000000
-3.951300 0.000000
-3.923700 0.000000
-3.896200 0.000000
-3.868700 0.000000
-3.841200 0.000000
-3.813700 0.000000
-3.786200 0.000000
-3.758600 0.000000
-3.731100 0.000000
-3.703600 0.000000
-3.676100 0.000000
-3.648600 0.000000
-3.621100 0.000000
-3.593500 0.000000
-3.566000 0.000000
-3.538500 0.000000
-3.511000 0.000000
-3.483500 0.000000
-3.456000 0.000000
-3.428400 0.000000
-3.400900 0.000000
-3.373400 0.000000
-3.345900 0.000000
-3.318400 0.000000
-3.290900 0.000000
-3.263300 0.000000
-3.235800 0.000000
-3.208300 0.000000
-3.180800 0.000000
-3.153300 0.000000
-3.125800 0.000000
-3.098200 0.000000
-3.070700 0.000000
-3.043200 0.000000
-3.015700 0.000000
-2.988200 0.000000
-2.960700 0.000000
-2.933100 0.000000
-2.905600 0.000000
-2.878100 0.000000
-2.850600 0.000000
-2.823100 0.000000
-2.795600 0.000000
-2.768000 0.000000
-2.740500 0.000000
-2.713000 0.000000
-2.685500 0.000000
-2.658000 0.000000
-2.630500 0.000000
-2.602900 0.000000
-2.575400 0.000000
-2.547900 0.000000
-2.520400 0.000000
-2.492900 0.000000
-2.465400 0.000000
-2.437800 0.000000
-2.410300 0.000000
-2.382800 0.000000
-2.355300 0.000000
-2.327800 0.000000
-2.300300 0.000000
-2.272700 0.000000
-2.245200 0.000000
-2.217700 0.067300
-2.190200 0.194700
-2.162700 0.358300
-2.135200 0.558000
-2.107600 0.794100
-2.080100 1.078600
-2.052600 1.419700
-2.025100 1.898700
-1.997600 2.523500
-1.970100 3.283600
-1.942500 4.732200
-1.915000 6.654900
-1.887500 8.280000
-1.860000 10.259600
-1.832500 8.889000
-1.805000 5.348200
-1.777400 3.982100
-1.749900 2.654700
-1.722400 1.804400
-1.694900 1.324600
-1.667400 1.195000
-1.639900 1.062200
-1.612300 0.926400
-1.584800 0.822000
-1.557300 0.829100
-1.529800 1.076700
-1.502300 2.428200
-1.474800 5.579800
-1.447200 9.834200
-1.419700 6.861400
-1.392200 6.892500
-1.364700 8.937700
-1.337200 14.495500
-1.309700 8.310500
-1.282100 6.119100
-1.254600 4.697500
-1.227100 2.980800
-1.199600 1.407400
-1.172100 1.333200
-1.144600 1.385700
-1.117000 2.013800
-1.089500 2.783500
-1.062000 3.393200
-1.034500 4.056600
-1.007000 4.797400
-0.979500 5.926800
-0.951900 10.556000
-0.924400 10.375000
-0.896900 13.314000
-0.869400 13.746000
-0.841900 10.113400
-0.814400 6.974900
-0.786800 5.368000
-0.759300 5.345700
-0.731800 5.704100
-0.704300 7.659700
-0.676800 11.308800
-0.649300 9.988900
-0.621700 3.632200
-0.594200 1.264800
-0.566700 1.698500
-0.539200 1.883800
-0.511700 1.856600
-0.484200 1.808400
-0.456600 1.836100
-0.429100 1.932600
-0.401600 2.066600
-0.374100 2.249500
-0.346600 2.526900
-0.319100 2.931400
-0.291500 3.194400
-0.264000 3.472600
-0.236500 9.683600
-0.209000 7.896300
-0.181500 7.903700
-0.154000 7.698100
-0.126400 7.228300
-0.098900 6.765000
-0.071400 6.105400
-0.043900 6.304800
-0.016400 5.131700
0.011100 4.025100
0.038700 3.853900
0.066200 3.709000
0.093700 3.590300
0.121200 3.497900
0.148700 3.431700
0.176200 5.018000
0.203800 17.012800
0.231300 0.000000
0.258800 0.000000
0.286300 0.000000
0.313800 0.000000
0.341300 0.000000
0.368900 0.566600
0.396400 3.440700
0.423900 5.837300
0.451400 9.714500
0.478900 10.407200
0.506400 5.953500
0.534000 5.653400
0.561500 5.400600
0.589000 5.577800
0.616500 5.761900
0.644000 4.687000
0.671500 3.675600
0.699100 3.316500
0.726600 4.263900
0.754100 7.223200
0.781600 10.693200
0.809100 14.986100
0.836600 16.719300
0.864200 5.596700
0.891700 3.726400
0.919200 2.485900
0.946700 2.296500
0.974200 2.124100
1.001700 1.916700
1.029300 1.942600
1.056800 2.223700
1.084300 2.487800
1.111800 2.803900
1.139300 3.666600
1.166800 7.238200
1.194400 15.734500
1.221900 10.877000
1.249400 7.670800
1.276900 5.376700
1.304400 4.186000
1.331900 3.635100
1.359500 3.116100
1.387000 2.734800
1.414500 2.484600
1.442000 2.362300
1.469500 0.000000
1.497000 0.000000
1.524600 0.000000
1.552100 0.000000
1.579600 0.000000
1.607100 0.000000
1.634600 0.000000
1.662100 0.000000
1.689700 0.000000
1.717200 0.000000
1.744700 0.000000
1.772200 0.000000
1.799700 0.000000
1.827200 0.000000
1.854800 0.000000
1.882300 0.000000
1.909800 0.000000
1.937300 0.000000
1.964800 0.000000
1.992300 0.000000
2.019900 0.000000
2.047400 0.000000
2.074900 0.000000
2.102400 0.000000
2.129900 0.000000
2.157400 0.000000
2.185000 0.000000
2.212500 0.000000
2.240000 0.000000
2.267500 0.000000
2.295000 0.000000
2.322500 0.000000
2.350100 0.000000
2.377600 0.000000
2.405100 0.000000
2.432600 0.000000
2.460100 0.000000
2.487600 0.000000
2.515200 0.000000
2.542700 0.000000
2.570200 0.000000
2.597700 0.000000
2.625200 0.000000
2.652700 0.000000
2.680300 0.000000
2.707800 0.000000
2.735300 0.000000
2.762800 0.000000
2.790300 0.000000
2.817800 0.000000
2.845400 0.000000
2.872900 0.000000
2.900400 0.000000
2.927900 0.000000
2.955400 0.000000
2.982900 0.000000
3.010500 0.000000
3.038000 0.000000
3.065500 0.000000
3.093000 0.000000
3.120500 0.000000
3.148000 0.000000
3.175600 0.000000
3.203100 0.000000
3.230600 0.000000
3.258100 0.000000
3.285600 0.000000
3.313100 0.000000
3.340700 0.000000
3.368200 0.000000
3.395700 0.000000
3.423200 0.000000
3.450700 0.000000
3.478200 0.000000
3.505800 0.000000
3.533300 0.000000
3.560800 0.000000
3.588300 0.000000
3.615800 0.000000
3.643300 0.000000
3.670900 0.000000
3.698400 0.000000
3.725900 0.000000
3.753400 0.000000
3.780900 0.000000
3.808400 0.000000
3.836000 0.000000
3.863500 0.000000
3.891000 0.000000
3.918500 0.000000
3.946000 0.000000
3.973500 0.000000
4.001100 0.000000
4.028600 0.000000
4.056100 0.000000
4.083600 0.000000
4.111100 0.000000
4.138600 0.000000
4.166200 0.000000
4.193700 0.000000
4.221200 0.000000
4.248700 0.000000
4.276200 0.000000
4.303700 0.000000
4.331300 0.000000
4.358800 0.000000
4.386300 0.000000
4.413800 0.000000
4.441300 0.000000
4.468800 0.002000
4.496400 0.004700
4.523900 0.007900
4.551400 0.011500
4.578900 0.015500
4.606400 0.019900
4.633900 0.024700
4.661500 0.029900
4.689000 0.035500
4.716500 0.041600
4.744000 0.048000
4.771500 0.054900
4.799000 0.062300
4.826600 0.070100
4.854100 0.120300
4.881600 0.175300
4.909100 0.230700
4.936600 0.286600
4.964100 0.343000
4.991700 0.399900
5.019200 0.457200
5.046700 0.514900
5.074200 0.573200
5.101700 0.631900
5.129200 0.693900
5.156800 0.756400
5.184300 0.819100
5.211800 0.881900
5.239300 0.944800
5.266800 1.007700
5.294300 1.079900
5.321900 1.158300
5.349400 1.234400
5.376900 1.308900
5.404400 1.382400
5.431900 1.455100
5.459400 2.052200
5.487000 2.616700
5.514500 2.618700
5.542000 2.620800
5.569500 2.622900
5.597000 2.625200
5.624500 2.628600
5.652100 2.633400
5.679600 2.640000
5.707100 2.615600
5.734600 2.593900
5.762100 2.575700
5.789600 2.553300
5.817200 2.527000
5.844700 2.501400
5.872200 2.476600
5.899700 2.452500
5.927200 2.429300
5.954700 2.406700
5.982300 1.808400
6.009800 1.584300
6.037300 1.358500
6.064800 1.099500
6.092300 0.872100
6.119800 0.570400
6.147400 0.307200
6.174900 0.100000
6.202400 0.000000
6.229900 0.000000
6.257400 0.000000
6.284900 0.000000
6.312500 0.000000
6.340000 0.000000
6.367500 0.000000
6.395000 0.000000
6.422500 0.000000
6.450000 0.000000
6.477600 0.000000
6.505100 0.000000
6.532600 0.000000
6.560100 0.000000
6.587600 0.000000
6.615100 0.491500
6.642700 1.296700
6.670200 2.075300
6.697700 2.820200
6.725200 3.048300
6.752700 3.486100
6.780200 3.569900
6.807800 3.443200
6.835300 3.190000
6.862800 3.105000
6.890300 2.999900
6.917800 2.879500
6.945300 2.744200
6.972900 2.595600
7.000400 2.458100
7.027900 2.337700
7.055400 2.223800
7.082900 2.139600
7.110400 2.079700
7.138000 2.049800
7.165500 2.121400
7.193000 2.191900
7.220500 2.333200
7.248000 2.490800
7.275500 2.480600
7.303100 2.277700
7.330600 1.887200
7.358100 1.514600
7.385600 1.201300
7.413100 0.937100
7.440600 0.714000
7.468200 0.510800
7.495700 0.326400
7.523200 0.202800
7.550700 0.162700
7.578200 0.128600
7.605700 0.098100
7.633300 0.071400
7.660800 0.048400
7.688300 0.551400
7.715800 1.079000
7.743300 4.643600
7.770800 9.754500
7.798400 10.313100
7.825900 9.661100
7.853400 8.798800
7.880900 7.614000
7.908400 6.699400
7.935900 8.081400
7.963500 9.399300
7.991000 5.117600
8.018500 2.244100
8.046000 2.317800
8.073500 2.332700
8.101000 2.448800
8.128600 2.536000
8.156100 2.634500
8.183600 2.759300
8.211100 2.911300
8.238600 3.124500
8.266100 3.534500
8.293700 4.086000
8.321200 4.665400
8.348700 4.555100
8.376200 4.229600
8.403700 4.031800
8.431200 3.794800
8.458800 3.572600
8.486300 3.400900
8.513800 3.443600
8.541300 1.274000
8.568800 1.990000
8.596300 3.191100
8.623900 4.616700
8.651400 4.934800
8.678900 5.191800
8.706400 6.170600
8.733900 7.588800
8.761400 9.842900
8.789000 22.111400
8.816500 8.486600
8.844000 4.500700
8.871500 2.870300
8.899000 1.951400
8.926500 1.675700
8.954100 2.181000
8.981600 2.724500
9.009100 3.598600
9.036600 7.340500
9.064100 7.913300
9.091600 7.863900
9.119200 8.105700
9.146700 7.326200
9.174200 5.310000
9.201700 2.682300
9.229200 1.976500
9.256700 1.636800
9.284300 1.326300
9.311800 1.094800
9.339300 0.909600
9.366800 0.770700
9.394300 0.677600
9.421800 0.639000
9.449400 0.716000
9.476900 0.907100
9.504400 1.192500
9.531900 1.684300
9.559400 2.283100
9.586900 2.976500
9.614500 2.864300
9.642000 2.662700
9.669500 2.356400
9.697000 2.238700
9.724500 2.212400
9.752000 2.227200
9.779600 2.324600
9.807100 2.444600
9.834600 2.587200
9.862100 2.749300
9.889600 2.925700
9.917200 3.486100
9.944700 3.521500
9.972200 3.316500
9.999700 3.135100
10.027200 3.005600
10.054700 2.967900
10.082300 2.871000
10.109800 2.698600
10.137300 1.997100
10.164800 1.708800
10.192300 1.615500
10.219800 1.558600
10.247400 1.526800
10.274900 1.680000
10.302400 2.031200
10.329900 2.228500
10.357400 2.645500
10.384900 3.120400
10.412500 3.561000
10.440000 3.967300
10.467500 4.339400
10.495000 4.690800
10.522500 4.813800
10.550000 4.751000
10.577600 4.597300
10.605100 4.715400
10.632600 4.947900
10.660100 4.754300
10.687600 9.611400
10.715100 4.283400
10.742700 1.877700
10.770200 1.217200
10.797700 1.692800
10.825200 2.606200
10.852700 3.477300
10.880200 4.258700
10.907800 8.282200
10.935300 13.180500
10.962800 14.503300
10.990300 3.572100
11.017800 3.157200
11.045300 2.692600
11.072900 2.280300
11.100400 1.920000
11.127900 1.648800
11.155400 1.483100
11.182900 1.800600
11.210400 2.556300
11.238000 3.715500
11.265500 4.739000
11.293000 5.006200
11.320500 6.084900
11.348000 6.223200
11.375500 4.488100
11.403100 3.254400
11.430600 2.303500
11.458100 1.330400
11.485600 1.249000
11.513100 1.284900
11.540600 1.320900
11.568200 1.356900
11.595700 1.392900
11.623200 1.429100
11.650700 1.465200
11.678200 1.501500
11.705700 1.537700
11.733300 1.574100
11.760800 1.610500
11.788300 1.710200
11.815800 2.302300
11.843300 2.332200
11.870800 2.592100
11.898400 3.759700
11.925900 4.286600
11.953400 4.212700
11.980900 4.433500
12.008400 4.374900
12.035900 4.121800
12.063500 4.113500
12.091000 4.575000
12.118500 4.456800
12.146000 3.711400
12.173500 3.759300
12.201000 4.484300
12.228600 3.409900
12.256100 2.938300
12.283600 2.940300
12.311100 2.935300
12.338600 2.923400
12.366100 2.906400
12.393700 2.897800
12.421200 2.899800
12.448700 2.772600
12.476200 2.852600
12.503700 2.889700
12.531200 2.916400
12.558800 3.305700
12.586300 3.126800
12.613800 2.510200
12.641300 2.037200
12.668800 1.986500
12.696300 1.936800
12.723900 1.888100
12.751400 1.840500
12.778900 1.793900
12.806400 1.774400
12.833900 1.766100
12.861400 1.793100
12.889000 1.886400
12.916500 2.116900
12.944000 2.532200
12.971500 3.318000
12.999000 3.586200
13.026500 3.325900
13.054100 3.076600
13.081600 2.838200
13.109100 2.649200
13.136600 2.392900
13.164100 2.086900
13.191600 1.755700
13.219200 1.451400
13.246700 1.330000
13.274200 1.289500
13.301700 1.313200
13.329200 1.273400
13.356700 1.220200
13.384300 1.153700
13.411800 1.074000
13.439300 0.980900
13.466800 0.910300
13.494300 0.888100
13.521800 0.932100
13.549400 0.981900
13.576900 1.037500
13.604400 1.098800
13.631900 1.164500
13.659400 1.231800
13.686900 1.304800
13.714500 1.400000
13.742000 1.512000
13.769500 1.615800
13.797000 1.741800
13.824500 1.971800
13.852000 2.095400
13.879600 2.178400
13.907100 2.243400
13.934600 2.290200
13.962100 2.346000
13.989600 2.398600
14.017100 2.440500
14.044700 2.489000
14.072200 2.565000
14.099700 2.690400
14.127200 2.865300
14.154700 3.296200
14.182200 3.410500
14.209800 3.078900
14.237300 2.839800
14.264800 2.664400
14.292300 2.486000
14.319800 2.336700
14.347300 2.286100
14.374900 2.237900
14.402400 2.192400
14.429900 1.844200
14.457400 1.491400
14.484900 1.158500
14.512400 0.845500
14.540000 0.557600
14.567500 0.410900
14.595000 0.342600
14.622500 0.277800
14.650000 0.313500
14.677500 0.484200
14.705100 0.765400
14.732600 1.152900
14.760100 1.619300
14.787600 2.277900
14.815100 3.331400
14.842600 3.359300
14.870200 3.410000
14.897700 3.632400
14.925200 3.902500
14.952700 4.169900
14.980200 4.672100
15.007700 4.940500
15.035300 4.267900
15.062800 4.339400
15.090300 3.695100
15.117800 3.328400
15.145300 3.138600
15.172800 2.945800
15.200400 2.742400
15.227900 2.528400
15.255400 2.305300
15.282900 2.338000
15.310400 1.938500
15.337900 0.752900
15.365500 0.727200
15.393000 0.781300
15.420500 0.833100
15.448000 0.882700
15.475500 0.935600
15.503000 1.003700
15.530600 1.084500
15.558100 1.166500
15.585600 1.248200
15.613100 1.329800
15.640600 1.411300
15.668100 1.394900
15.695700 1.437300
15.723200 1.526400
15.750700 1.677700
15.778200 1.804000
15.805700 1.887200
15.833200 1.927400
15.860800 1.974600
15.888300 1.963500
15.915800 1.916000
15.943300 1.841900
15.970800 1.819500
15.998300 1.820000
16.025900 1.815500
16.053400 1.805700
16.080900 1.789300
16.108400 1.765900
16.135900 1.720500
16.163400 1.621400
16.191000 1.467400
16.218500 1.322400
16.246000 1.284400
16.273500 1.253700
16.301000 1.222300
16.328500 1.196500
16.356100 1.174300
16.383600 1.147800
16.411100 1.119600
16.438600 1.094300
16.466100 1.071800
16.493600 1.052100
16.521200 2.684800
16.548700 2.453900
16.576200 2.274400
16.603700 2.154600
16.631200 2.109400
16.658700 2.184500
16.686300 2.271900
16.713800 2.303300
16.741300 2.382800
16.768800 2.452400
16.796300 2.380700
16.823800 2.157800
16.851400 1.865000
16.878900 1.650600
16.906400 1.509400
16.933900 1.580800
16.961400 1.828000
16.988900 2.106400
17.016500 1.956200
17.044000 1.724200
17.071500 1.746500
17.099000 1.768100
17.126500 1.789000
17.154000 1.809200
17.181600 1.830900
17.209100 1.871400
17.236600 1.912900
17.264100 1.952300
17.291600 1.989600
17.319100 2.024700
17.346700 2.058300
17.374200 2.094800
17.401700 2.113400
17.429200 2.073900
17.456700 1.991400
17.484200 2.035100
17.511800 2.742600
17.539300 3.297900
17.566800 2.833700
17.594300 2.827900
17.621800 2.725400
17.649300 2.469800
17.676900 2.260300
17.704400 2.379200
17.731900 2.460600
17.759400 2.552700
17.786900 2.594100
17.814400 2.707300
17.842000 2.848600
17.869500 2.956000
17.897000 2.946100
17.924500 2.929300
17.952000 2.916400
17.979500 2.899300
18.007100 2.877200
18.034600 2.850200
18.062100 2.818300
18.089600 2.781300
18.117100 2.739500
18.144600 2.659500
18.172200 2.507800
18.199700 3.049500
18.227200 1.692200
18.254700 1.304500
18.282200 1.330000
18.309700 1.344400
18.337300 1.351700
18.364800 1.408200
18.392300 1.479900
18.419800 1.563600
18.447300 1.659300
18.474800 1.766900
18.502400 2.344600
18.529900 2.925900
18.557400 2.676200
18.584900 2.585600
18.612400 2.509600
18.639900 2.449100
18.667500 2.411300
18.695000 2.392500
18.722500 2.390800
18.750000 2.398200
18.777500 2.372000
18.805000 2.297400
18.832600 2.235000
18.860100 2.191800
18.887600 2.168400
18.915100 2.179500
18.942600 2.356300
18.970100 2.694800
18.997700 3.035200
19.025200 3.383500
19.052700 2.608800
19.080200 1.621600
19.107700 1.297800
19.135200 1.103700
19.162800 1.016700
19.190300 0.960400
19.217800 0.936100
19.245300 0.940800
19.272800 0.967100
19.300300 1.003600
19.327900 1.043100
19.355400 1.208200
19.382900 1.547500
19.410400 1.837300
19.437900 2.055900
19.465400 2.208000
19.493000 2.484300
19.520500 2.905900
19.548000 2.610800
19.575500 2.768500
19.603000 2.950300
19.630500 3.156300
19.658100 3.500000
19.685600 4.015400
19.713100 4.267900
19.740600 4.196000
19.768100 3.942000
19.795600 3.713900
19.823200 3.676500
19.850700 3.734900
19.878200 3.407900
19.905700 2.932200
19.933200 2.567800
19.960700 2.308700
19.988300 2.043300
20.015800 1.789700
20.043300 1.567800
20.070800 1.414000
20.098300 1.285600
20.125800 1.181900
20.153400 1.097300
20.180900 1.011900
20.208400 0.943400
20.235900 0.899100
20.263400 0.798000
20.290900 0.768900
20.318500 0.826500
20.346000 0.784400
20.373500 0.758000
20.401000 0.747500
20.428500 0.769100
20.456000 0.832300
20.483600 0.910200
20.511100 0.989400
20.538600 1.066000
20.566100 1.139900
20.593600 1.211000
20.621100 1.277700
20.648700 1.344400
20.676200 1.412500
20.703700 1.482000
20.731200 1.553000
20.758700 1.625300
20.786200 1.699100
20.813800 1.776700
20.841300 1.880300
20.868800 2.013800
20.896300 2.171900
20.923800 2.256400
20.951300 2.297900
20.978900 2.325100
21.006400 2.346100
21.033900 2.444800
21.061400 2.567200
21.088900 2.846600
21.116400 3.134800
21.144000 3.185500
21.171500 2.960300
21.199000 2.263200
21.226500 2.092200
21.254000 2.207400
21.281500 2.318300
21.309100 2.422100
21.336600 2.518800
21.364100 2.946300
21.391600 3.868600
21.419100 4.133500
21.446600 4.059700
21.474200 3.945600
21.501700 3.870600
21.529200 3.834800
21.556700 3.838100
21.584200 3.881800
21.611700 4.016300
21.639300 4.819400
21.666800 5.314200
21.694300 3.403600
21.721800 2.133000
21.749300 2.009800
21.776800 1.875900
21.804400 1.722400
21.831900 1.577900
21.859400 1.500700
21.886900 1.421000
21.914400 1.339700
21.941900 1.266900
21.969500 1.208800
21.997000 1.175300
22.024500 1.218500
22.052000 1.315800
22.079500 1.456500
22.107000 1.621900
22.134600 1.796000
22.162100 1.954000
22.189600 2.076000
22.217100 2.193600
22.244600 2.311600
22.272100 2.429900
22.299700 2.548600
22.327200 3.441100
22.354700 2.946700
22.382200 2.862100
22.409700 2.793000
22.437200 2.757600
22.464800 2.750900
22.492300 2.746000
22.519800 2.737400
22.547300 2.739600
22.574800 2.763400
22.602300 2.801900
22.629900 3.032000
22.657400 3.132100
22.684900 3.063200
22.712400 3.157900
22.739900 3.035000
22.767400 2.676800
22.795000 2.391800
22.822500 2.167100
22.850000 2.040700
22.877500 1.929600
22.905000 1.833900
22.932500 1.753500
22.960100 1.675600
22.987600 1.594400
23.015100 1.531900
23.042600 1.493200
23.070100 1.462700
23.097600 1.471200
23.125200 1.670700
23.152700 1.940800
23.180200 2.122800
23.207700 2.213000
23.235200 2.276000
23.262700 2.515700
23.290300 2.592300
23.317800 2.466000
23.345300 2.274200
23.372800 2.173400
23.400300 2.123400
23.427800 2.208400
23.455400 2.305700
23.482900 2.381600
23.510400 2.436100
23.537900 2.469200
23.565400 2.484800
23.592900 2.606300
23.620500 2.771800
23.648000 2.876600
23.675500 2.985900
23.703000 3.121800
23.730500 3.219900
23.758000 3.241400
23.785600 3.186400
23.813100 3.091300
23.840600 3.076100
23.868100 3.115400
23.895600 3.169800
23.923100 3.240100
23.950700 3.326500
23.978200 3.433600
24.005700 3.649500
24.033200 6.421300
24.060700 3.689600
24.088200 3.522200
24.115800 3.317500
24.143300 3.115900
24.170800 2.982100
24.198300 2.852700
24.225800 2.522000
24.253300 2.396400
24.280900 2.315300
24.308400 2.319700
24.335900 2.341800
24.363400 2.379200
24.390900 2.432000
24.418400 2.500100
24.446000 2.603600
24.473500 2.788800
24.501000 3.187200
24.528500 3.070000
24.556000 3.118300
24.583500 3.127300
24.611100 3.118900
24.638600 3.068500
24.666100 2.963100
24.693600 2.808700
24.721100 2.858300
24.748600 2.701000
24.776200 2.463100
24.803700 2.294900
24.831200 2.221000
24.858700 2.246500
24.886200 2.413500
24.913700 2.649200
24.941300 3.082400
24.968800 3.049500
24.996300 3.153100
25.023800 3.251100
25.051300 3.341900
25.078800 3.425500
25.106400 3.399400
25.133900 3.334100
25.161400 3.443700
25.188900 3.133000
25.216400 2.903200
25.243900 2.849600
25.271500 2.797900
25.299000 2.793800
25.326500 2.989100
25.354000 3.232500
25.381500 2.954700
25.409000 2.719800
25.436600 2.607000
25.464100 2.675600
25.491600 2.705500
25.519100 2.658700
25.546600 2.873500
25.574100 3.465700
25.601700 4.176600
25.629200 3.684500
25.656700 3.221600
25.684200 3.024500
25.711700 2.957600
25.739300 2.796300
25.766800 2.779400
25.794300 2.733200
25.821800 2.657600
25.849300 2.552600
25.876800 2.418300
25.904400 2.316800
25.931900 2.310400
25.959400 2.335900
25.986900 2.417600
26.014400 2.563500
26.041900 2.763700
26.069500 3.408300
26.097000 3.974600
26.124500 4.734600
26.152000 4.572400
26.179500 4.044800
26.207000 3.871200
26.234600 3.766600
26.262100 3.665600
26.289600 3.558200
26.317100 3.445200
26.344600 3.324400
26.372100 3.246100
26.399700 3.413200
26.427200 3.402300
26.454700 3.268500
26.482200 3.176900
26.509700 3.080100
26.537200 2.978300
26.564800 2.882600
26.592300 2.788500
26.619800 2.702500
26.647300 2.851400
26.674800 3.548700
26.702300 3.604800
26.729900 3.527000
26.757400 3.445100
26.784900 3.576400
26.812400 3.712600
26.839900 3.762900
26.867400 3.726000
26.895000 3.626500
26.922500 3.474900
26.950000 3.332600
26.977500 3.218100
27.005000 3.154800
27.032500 3.139500
27.060100 3.150500
27.087600 3.333400
27.115100 3.647300
27.142600 5.338500
27.170100 5.168000
27.197600 5.129200
27.225200 4.847600
27.252700 4.728600
27.280200 4.612800
27.307700 4.329400
27.335200 3.252700
27.362700 2.392600
27.390300 2.201900
27.417800 2.011300
27.445300 1.857700
27.472800 1.714600
27.500300 1.582900
27.527800 1.463300
27.555400 1.364100
27.582900 1.330300
27.610400 1.336800
27.637900 1.391000
27.665400 1.499100
27.692900 1.659700
27.720500 1.940200
27.748000 2.294400
27.775500 2.706400
27.803000 3.212500
27.830500 2.716500
27.858000 3.432900
27.885600 3.214600
27.913100 3.211900
27.940600 2.927900
27.968100 2.593600
27.995600 2.237400
28.023100 1.878500
28.050700 1.682700
28.078200 1.695500
28.105700 1.713400
28.133200 1.736200
28.160700 1.763900
28.188200 1.797000
28.215800 1.882200
28.243300 1.957100
28.270800 2.004800
28.298300 2.020700
28.325800 2.019200
28.353300 2.007400
28.380900 1.985300
28.408400 1.941000
28.435900 1.856000
28.463400 1.752200
28.490900 1.668100
28.518400 1.568600
28.546000 1.453700
28.573500 1.323400
28.601000 1.159600
28.628500 0.816100
28.656000 0.443800
28.683500 0.127500
28.711100 0.034700
28.738600 0.000200
28.766100 0.000000
28.793600 0.000000
28.821100 0.000000
28.848600 0.000000
28.876200 0.000000
28.903700 0.000000
28.931200 0.000000
28.958700 0.000000
28.986200 0.000000
29.013700 0.000000
29.041300 0.000000
29.068800 0.000000
29.096300 0.000000
29.123800 0.000000
29.151300 0.000000
29.178800 0.000000
29.206400 0.000000
29.233900 0.000000
29.261400 0.000000
29.288900 0.000000
29.316400 0.000000
29.343900 0.000000
29.371500 0.000000
29.399000 0.000000
29.426500 0.000000
29.454000 0.000000
29.481500 0.000000
29.509000 0.000000
29.536600 0.000000
29.564100 0.000000
29.591600 0.000000
29.619100 0.000000
29.646600 0.000000
29.674100 0.000000
29.701700 0.000000
29.729200 0.000000
29.756700 0.000000
29.784200 0.000000
29.811700 0.000000
29.839200 0.000000
29.866800 0.000000
29.894300 0.000000
29.921800 0.000000
29.949300 0.000000
29.976800 0.000000
30.004300 0.000000
30.031900 0.000000
30.059400 0.000000
30.086900 0.000000
30.114400 0.000000
30.141900 0.000000
30.169400 0.000000
30.197000 0.000000
30.224500 0.000000
30.252000 0.000000
30.279500 0.000000
30.307000 0.000000
30.334500 0.000000
30.362100 0.000000
30.389600 0.000000
30.417100 0.000000
30.444600 0.000000
30.472100 0.000000
30.499600 0.000000
30.527200 0.000000
30.554700 0.000000
30.582200 0.000000
30.609700 0.000000
30.637200 0.000000
30.664700 0.000000
30.692300 0.000000
30.719800 0.000000
30.747300 0.000000
30.774800 0.000000
30.802300 0.000000
30.829800 0.000000
30.857400 0.000000
30.884900 0.000000
30.912400 0.000000
30.939900 0.000000
30.967400 0.000000
30.994900 0.000000
31.022500 0.000000
31.050000 0.000000
31.077500 0.000000
31.105000 0.000000
31.132500 0.000000
31.160000 0.000000
31.187600 0.000000
31.215100 0.000000
31.242600 0.000000
e
