set title 'mp-1206747 - Density of States'
set xlabel 'Energy (eV)'
set ylabel 'DOS (states/eV)'
set grid
set xrange [-10:10]
set yrange [0:23.554]
set xzeroaxis lt -1
set terminal png size 800,600
set output 'mp-1206747_dos_gnuplot.png'
plot '-' using 1:2 with lines title 'DOS'
-24.385800 0.000000
-24.356500 0.000000
-24.327300 0.000000
-24.298000 0.000000
-24.268800 0.000000
-24.239500 0.000000
-24.210300 0.000000
-24.181000 0.000000
-24.151800 0.000000
-24.122500 0.000000
-24.093300 0.000000
-24.064000 0.000000
-24.034800 0.000000
-24.005600 0.000000
-23.976300 0.000000
-23.947100 0.000000
-23.917800 0.000000
-23.888600 0.000000
-23.859300 0.000000
-23.830100 0.000000
-23.800800 0.000000
-23.771600 0.000000
-23.742300 0.000000
-23.713100 0.000000
-23.683800 0.000000
-23.654600 0.000000
-23.625300 0.000000
-23.596100 0.000000
-23.566800 0.000000
-23.537600 0.000000
-23.508300 0.000000
-23.479100 0.000000
-23.449800 0.000000
-23.420600 0.000000
-23.391300 0.000000
-23.362100 0.000000
-23.332900 0.000000
-23.303600 0.000000
-23.274400 0.000000
-23.245100 0.000000
-23.215900 0.000000
-23.186600 0.000000
-23.157400 0.000000
-23.128100 0.000000
-23.098900 0.000000
-23.069600 0.000000
-23.040400 0.000000
-23.011100 0.000000
-22.981900 0.000000
-22.952600 0.000000
-22.923400 0.000000
-22.894100 0.000000
-22.864900 0.000000
-22.835600 0.000000
-22.806400 0.000000
-22.777100 0.000000
-22.747900 0.000000
-22.718600 0.000000
-22.689400 0.000000
-22.660200 0.000000
-22.630900 0.000000
-22.601700 0.000000
-22.572400 0.000000
-22.543200 0.000000
-22.513900 0.000000
-22.484700 0.000000
-22.455400 0.000000
-22.426200 0.000000
-22.396900 0.000000
-22.367700 0.000000
-22.338400 0.000000
-22.309200 0.000000
-22.279900 0.000000
-22.250700 0.000000
-22.221400 0.000000
-22.192200 0.000000
-22.162900 0.000000
-22.133700 0.000000
-22.104400 0.000000
-22.075200 0.000000
-22.045900 0.000000
-22.016700 0.000000
-21.987500 0.000000
-21.958200 0.000000
-21.929000 0.000000
-21.899700 0.000000
-21.870500 0.000000
-21.841200 0.000000
-21.812000 0.000000
-21.782700 0.000000
-21.753500 0.000000
-21.724200 1.216000
-21.695000 15.936500
-21.665700 7.325100
-21.636500 11.902000
-21.607200 27.647700
-21.578000 12.747400
-21.548700 5.830100
-21.519500 7.036700
-21.490200 13.840100
-21.461000 0.000000
-21.431700 0.000000
-21.402500 0.000000
-21.373200 0.000000
-21.344000 0.000000
-21.314800 0.000000
-21.285500 0.000000
-21.256300 0.000000
-21.227000 0.000000
-21.197800 0.000000
-21.168500 0.000000
-21.139300 0.000000
-21.110000 0.000000
-21.080800 0.000000
-21.051500 0.000000
-21.022300 0.000000
-20.993000 0.000000
-20.963800 0.000000
-20.934500 0.000000
-20.905300 0.000000
-20.876000 0.000000
-20.846800 0.000000
-20.817500 0.000000
-20.788300 0.000000
-20.759000 0.000000
-20.729800 0.000000
-20.700500 0.000000
-20.671300 0.000000
-20.642100 0.000000
-20.612800 0.000000
-20.583600 0.000000
-20.554300 0.000000
-20.525100 0.000000
-20.495800 0.000000
-20.466600 0.000000
-20.437300 0.000000
-20.408100 0.000000
-20.378800 0.000000
-20.349600 0.000000
-20.320300 0.000000
-20.291100 0.000000
-20.261800 0.000000
-20.232600 0.000000
-20.203300 0.000000
-20.174100 0.000000
-20.144800 0.000000
-20.115600 0.000000
-20.086300 0.000000
-20.057100 0.000000
-20.027800 0.000000
-19.998600 0.000000
-19.969400 0.000000
-19.940100 0.000000
-19.910900 0.000000
-19.881600 0.000000
-19.852400 0.000000
-19.823100 0.000000
-19.793900 0.000000
-19.764600 0.000000
-19.735400 0.000000
-19.706100 0.000000
-19.676900 0.000000
-19.647600 0.000000
-19.618400 0.000000
-19.589100 0.000000
-19.559900 0.000000
-19.530600 0.000000
-19.501400 0.000000
-19.472100 0.000000
-19.442900 0.000000
-19.413600 0.000000
-19.384400 0.000000
-19.355100 0.000000
-19.325900 0.000000
-19.296700 0.000000
-19.267400 0.000000
-19.238200 0.000000
-19.208900 0.000000
-19.179700 0.000000
-19.150400 0.000000
-19.121200 0.000000
-19.091900 0.000000
-19.062700 0.000000
-19.033400 0.000000
-19.004200 0.000000
-18.974900 0.000000
-18.945700 0.000000
-18.916400 0.000000
-18.887200 0.000000
-18.857900 0.000000
-18.828700 0.000000
-18.799400 0.000000
-18.770200 0.000000
-18.740900 0.000000
-18.711700 0.000000
-18.682400 0.000000
-18.653200 0.000000
-18.624000 0.000000
-18.594700 0.000000
-18.565500 0.000000
-18.536200 0.000000
-18.507000 0.000000
-18.477700 0.000000
-18.448500 0.000000
-18.419200 0.000000
-18.390000 0.000000
-18.360700 0.000000
-18.331500 0.000000
-18.302200 0.000000
-18.273000 0.000000
-18.243700 0.000000
-18.214500 0.000000
-18.185200 0.000000
-18.156000 0.000000
-18.126700 0.000000
-18.097500 0.000000
-18.068200 0.000000
-18.039000 0.000000
-18.009700 0.000000
-17.980500 0.000000
-17.951300 0.000000
-17.922000 0.000000
-17.892800 0.000000
-17.863500 0.000000
-17.834300 0.000000
-17.805000 0.000000
-17.775800 0.000000
-17.746500 0.000000
-17.717300 0.000000
-17.688000 0.000000
-17.658800 0.000000
-17.629500 0.000000
-17.600300 0.000000
-17.571000 0.000000
-17.541800 0.000000
-17.512500 0.000000
-17.483300 0.000000
-17.454000 0.000000
-17.424800 0.000000
-17.395500 0.000000
-17.366300 0.000000
-17.337000 0.000000
-17.307800 0.000000
-17.278600 0.000000
-17.249300 0.000000
-17.220100 0.000000
-17.190800 0.000000
-17.161600 0.000000
-17.132300 0.000000
-17.103100 0.000000
-17.073800 0.000000
-17.044600 0.000000
-17.015300 0.000000
-16.986100 0.000000
-16.956800 0.000000
-16.927600 0.000000
-16.898300 0.000000
-16.869100 0.000000
-16.839800 0.000000
-16.810600 0.000000
-16.781300 0.000000
-16.752100 0.000000
-16.722800 0.000000
-16.693600 0.000000
-16.664300 0.000000
-16.635100 0.000000
-16.605900 0.000000
-16.576600 0.000000
-16.547400 0.000000
-16.518100 0.000000
-16.488900 0.000000
-16.459600 0.000000
-16.430400 0.000000
-16.401100 0.000000
-16.371900 0.000000
-16.342600 0.000000
-16.313400 0.000000
-16.284100 0.000000
-16.254900 0.000000
-16.225600 0.000000
-16.196400 0.000000
-16.167100 0.000000
-16.137900 0.000000
-16.108600 0.000000
-16.079400 0.000000
-16.050100 0.000000
-16.020900 0.000000
-15.991600 0.000000
-15.962400 0.000000
-15.933200 0.000000
-15.903900 0.000000
-15.874700 0.000000
-15.845400 0.000000
-15.816200 0.000000
-15.786900 0.000000
-15.757700 0.000000
-15.728400 0.000000
-15.699200 0.000000
-15.669900 0.000000
-15.640700 0.000000
-15.611400 0.000000
-15.582200 0.000000
-15.552900 0.000000
-15.523700 0.000000
-15.494400 0.000000
-15.465200 0.000000
-15.435900 0.000000
-15.406700 0.000000
-15.377400 0.000000
-15.348200 0.000000
-15.318900 0.000000
-15.289700 0.000000
-15.260500 0.000000
-15.231200 0.000000
-15.202000 0.000000
-15.172700 0.000000
-15.143500 0.000000
-15.114200 0.000000
-15.085000 0.000000
-15.055700 0.000000
-15.026500 0.000000
-14.997200 0.000000
-14.968000 0.000000
-14.938700 0.000000
-14.909500 0.000000
-14.880200 0.000000
-14.851000 0.000000
-14.821700 0.000000
-14.792500 0.000000
-14.763200 0.000000
-14.734000 0.000000
-14.704700 0.000000
-14.675500 0.000000
-14.646200 0.000000
-14.617000 0.000000
-14.587800 0.000000
-14.558500 0.000000
-14.529300 0.000000
-14.500000 0.000000
-14.470800 0.000000
-14.441500 0.000000
-14.412300 0.000000
-14.383000 0.000000
-14.353800 0.000000
-14.324500 0.000000
-14.295300 0.000000
-14.266000 0.000000
-14.236800 0.000000
-14.207500 0.000000
-14.178300 0.000000
-14.149000 0.000000
-14.119800 0.000000
-14.090500 0.000000
-14.061300 0.000000
-14.032000 0.000000
-14.002800 0.000000
-13.973500 0.000000
-13.944300 0.000000
-13.915100 0.000000
-13.885800 0.000000
-13.856600 0.000000
-13.827300 0.000000
-13.798100 0.000000
-13.768800 0.000000
-13.739600 0.000000
-13.710300 0.000000
-13.681100 0.000000
-13.651800 0.000000
-13.622600 0.000000
-13.593300 0.000000
-13.564100 0.000000
-13.534800 0.000000
-13.505600 0.000000
-13.476300 0.000000
-13.447100 0.000000
-13.417800 0.000000
-13.388600 0.000000
-13.359300 0.000000
-13.330100 0.000000
-13.300800 0.000000
-13.271600 0.000000
-13.242400 0.000000
-13.213100 0.000000
-13.183900 0.000000
-13.154600 0.000000
-13.125400 0.000000
-13.096100 0.000000
-13.066900 0.000000
-13.037600 0.000000
-13.008400 0.000000
-12.979100 0.000000
-12.949900 0.000000
-12.920600 0.000000
-12.891400 0.000000
-12.862100 0.000000
-12.832900 0.000000
-12.803600 0.000000
-12.774400 0.000000
-12.745100 0.000000
-12.715900 0.000000
-12.686600 0.000000
-12.657400 0.000000
-12.628100 0.000000
-12.598900 0.000000
-12.569700 0.000000
-12.540400 0.000000
-12.511200 0.000000
-12.481900 0.000000
-12.452700 0.000000
-12.423400 0.000000
-12.394200 0.000000
-12.364900 0.000000
-12.335700 0.000000
-12.306400 0.000000
-12.277200 0.000000
-12.247900 0.000000
-12.218700 0.000000
-12.189400 0.000000
-12.160200 0.000000
-12.130900 0.000000
-12.101700 0.000000
-12.072400 0.000000
-12.043200 0.000000
-12.013900 0.000000
-11.984700 0.000000
-11.955400 0.000000
-11.926200 0.000000
-11.897000 0.000000
-11.867700 0.000000
-11.838500 0.000000
-11.809200 0.000000
-11.780000 0.000000
-11.750700 0.000000
-11.721500 0.000000
-11.692200 0.000000
-11.663000 0.000000
-11.633700 0.000000
-11.604500 0.000000
-11.575200 0.000000
-11.546000 0.000000
-11.516700 0.000000
-11.487500 0.000000
-11.458200 0.000000
-11.429000 0.000000
-11.399700 0.000000
-11.370500 0.000000
-11.341200 0.000000
-11.312000 0.000000
-11.282700 0.000000
-11.253500 0.000000
-11.224300 0.000000
-11.195000 0.000000
-11.165800 0.000000
-11.136500 0.000000
-11.107300 0.000000
-11.078000 0.000000
-11.048800 0.000000
-11.019500 0.000000
-10.990300 0.000000
-10.961000 0.000000
-10.931800 0.000000
-10.902500 0.000000
-10.873300 0.000000
-10.844000 0.000000
-10.814800 0.000000
-10.785500 0.000000
-10.756300 0.000000
-10.727000 0.000000
-10.697800 0.000000
-10.668500 0.000000
-10.639300 0.000000
-10.610000 0.000000
-10.580800 0.000000
-10.551600 0.000000
-10.522300 0.000000
-10.493100 0.000000
-10.463800 0.000000
-10.434600 0.000000
-10.405300 0.000000
-10.376100 0.000000
-10.346800 0.000000
-10.317600 0.000000
-10.288300 0.000000
-10.259100 0.000000
-10.229800 0.000000
-10.200600 0.000000
-10.171300 0.000000
-10.142100 0.000000
-10.112800 0.000000
-10.083600 0.000000
-10.054300 0.000000
-10.025100 0.000000
-9.995800 0.000000
-9.966600 0.000000
-9.937300 0.000000
-9.908100 0.000000
-9.878900 0.000000
-9.849600 0.000000
-9.820400 0.000000
-9.791100 0.000000
-9.761900 0.000000
-9.732600 0.000000
-9.703400 0.000000
-9.674100 0.000000
-9.644900 0.000000
-9.615600 0.000000
-9.586400 0.000000
-9.557100 0.000000
-9.527900 0.000000
-9.498600 0.000000
-9.469400 0.000000
-9.440100 0.000000
-9.410900 0.000000
-9.381600 0.000000
-9.352400 0.000000
-9.323100 0.000000
-9.293900 0.000000
-9.264600 0.000000
-9.235400 0.000000
-9.206200 0.000000
-9.176900 0.000000
-9.147700 0.000000
-9.118400 0.000000
-9.089200 0.000000
-9.059900 0.000000
-9.030700 0.000000
-9.001400 0.000000
-8.972200 0.000000
-8.942900 0.000000
-8.913700 0.000000
-8.884400 0.000000
-8.855200 0.000000
-8.825900 0.000000
-8.796700 0.000000
-8.767400 0.000000
-8.738200 0.000000
-8.708900 0.000000
-8.679700 0.000000
-8.650400 0.000000
-8.621200 0.000000
-8.591900 0.000000
-8.562700 0.000000
-8.533500 0.000000
-8.504200 0.000000
-8.475000 0.000000
-8.445700 0.000000
-8.416500 0.000000
-8.387200 0.000000
-8.358000 0.000000
-8.328700 0.000000
-8.299500 0.000000
-8.270200 0.000000
-8.241000 0.000000
-8.211700 0.000000
-8.182500 0.000000
-8.153200 0.000000
-8.124000 0.000000
-8.094700 0.000000
-8.065500 0.000000
-8.036200 0.000000
-8.007000 0.000000
-7.977700 0.000000
-7.948500 0.000000
-7.919200 0.000000
-7.890000 0.000000
-7.860800 0.000000
-7.831500 0.000000
-7.802300 0.000000
-7.773000 0.000000
-7.743800 0.000000
-7.714500 0.000000
-7.685300 0.000000
-7.656000 0.000000
-7.626800 0.000000
-7.597500 0.000000
-7.568300 0.000000
-7.539000 0.000000
-7.509800 0.000000
-7.480500 0.000000
-7.451300 0.000000
-7.422000 0.000000
-7.392800 0.000000
-7.363500 0.000000
-7.334300 0.000000
-7.305000 0.000000
-7.275800 0.000000
-7.246500 0.000000
-7.217300 0.000000
-7.188100 0.000000
-7.158800 0.000000
-7.129600 0.000000
-7.100300 0.000000
-7.071100 0.000000
-7.041800 0.000000
-7.012600 0.000000
-6.983300 0.000000
-6.954100 0.000000
-6.924800 0.000000
-6.895600 0.000000
-6.866300 0.000000
-6.837100 0.000000
-6.807800 0.000000
-6.778600 0.000000
-6.749300 0.000000
-6.720100 0.000000
-6.690800 0.000000
-6.661600 0.000000
-6.632300 0.000000
-6.603100 0.000000
-6.573800 0.000000
-6.544600 0.000000
-6.515400 0.000000
-6.486100 0.000000
-6.456900 0.000000
-6.427600 0.000000
-6.398400 0.000000
-6.369100 0.000000
-6.339900 0.000000
-6.310600 0.000000
-6.281400 0.000000
-6.252100 0.000000
-6.222900 0.000000
-6.193600 0.000000
-6.164400 0.000000
-6.135100 0.000000
-6.105900 0.000000
-6.076600 0.000000
-6.047400 1.122900
-6.018100 1.735200
-5.988900 2.437700
-5.959600 4.587300
-5.930400 8.740800
-5.901100 9.625600
-5.871900 15.283000
-5.842700 15.876900
-5.813400 10.777400
-5.784200 13.598500
-5.754900 10.304900
-5.725700 18.587700
-5.696400 21.413100
-5.667200 10.964100
-5.637900 6.033500
-5.608700 5.885500
-5.579400 4.282600
-5.550200 3.947700
-5.520900 3.355800
-5.491700 1.629200
-5.462400 1.155500
-5.433200 0.993100
-5.403900 0.786300
-5.374700 0.674800
-5.345400 0.000000
-5.316200 0.000000
-5.286900 0.000000
-5.257700 0.000000
-5.228400 0.000000
-5.199200 0.000000
-5.170000 0.000000
-5.140700 0.000000
-5.111500 0.000000
-5.082200 0.000000
-5.053000 0.000000
-5.023700 0.000000
-4.994500 0.000000
-4.965200 0.000000
-4.936000 0.000000
-4.906700 0.000000
-4.877500 0.000000
-4.848200 0.000000
-4.819000 0.000000
-4.789700 0.000000
-4.760500 0.000000
-4.731200 0.000000
-4.702000 0.000000
-4.672700 0.000000
-4.643500 0.000000
-4.614200 0.000000
-4.585000 0.000000
-4.555700 0.000000
-4.526500 0.000000
-4.497300 0.000000
-4.468000 0.000000
-4.438800 0.000000
-4.409500 0.000000
-4.380300 0.000000
-4.351000 0.000000
-4.321800 0.000000
-4.292500 0.000000
-4.263300 0.000000
-4.234000 0.000000
-4.204800 0.000000
-4.175500 0.000000
-4.146300 0.000000
-4.117000 0.000000
-4.087800 0.000000
-4.058500 0.000000
-4.029300 0.000000
-4.000000 0.000000
-3.970800 0.000000
-3.941500 0.000000
-3.912300 0.000000
-3.883000 0.000000
-3.853800 0.000000
-3.824600 0.000000
-3.795300 0.000000
-3.766100 0.000000
-3.736800 0.000000
-3.707600 0.000000
-3.678300 0.000000
-3.649100 0.000000
-3.619800 0.000000
-3.590600 0.003500
-3.561300 0.013800
-3.532100 0.030000
-3.502800 0.042400
-3.473600 0.048000
-3.444300 0.049000
-3.415100 0.052000
-3.385800 0.057300
-3.356600 0.063800
-3.327300 0.070600
-3.298100 0.077200
-3.268800 0.081800
-3.239600 0.083900
-3.210300 0.085200
-3.181100 0.087700
-3.151900 0.091300
-3.122600 0.094900
-3.093400 0.098600
-3.064100 0.102200
-3.034900 0.105800
-3.005600 0.109300
-2.976400 0.113200
-2.947100 0.117600
-2.917900 0.122000
-2.888600 0.125600
-2.859400 0.128200
-2.830100 0.130600
-2.800900 0.133400
-2.771600 0.136500
-2.742400 0.139500
-2.713100 0.142500
-2.683900 0.145400
-2.654600 0.148300
-2.625400 0.151800
-2.596100 0.155800
-2.566900 0.159700
-2.537600 0.163700
-2.508400 0.167700
-2.479200 0.171900
-2.449900 0.176100
-2.420700 0.180400
-2.391400 0.184800
-2.362200 0.188900
-2.332900 0.192900
-2.303700 0.197000
-2.274400 0.201800
-2.245200 0.207000
-2.215900 0.212400
-2.186700 0.217800
-2.157400 0.223200
-2.128200 0.228700
-2.098900 0.234400
-2.069700 0.240200
-2.040400 0.246000
-2.011200 0.277800
-1.981900 0.290500
-1.952700 0.280800
-1.923400 0.285600
-1.894200 0.291000
-1.864900 0.293600
-1.835700 0.290000
-1.806500 0.291200
-1.777200 0.293400
-1.748000 0.295100
-1.718700 0.296600
-1.689500 0.298000
-1.660200 0.298600
-1.631000 0.297800
-1.601700 0.299800
-1.572500 0.302200
-1.543200 0.304200
-1.514000 0.306200
-1.484700 0.308100
-1.455500 0.310300
-1.426200 0.312500
-1.397000 0.314600
-1.367700 0.316000
-1.338500 0.317800
-1.309200 0.320500
-1.280000 0.323500
-1.250700 0.326500
-1.221500 0.329600
-1.192200 0.332900
-1.163000 0.336500
-1.133800 0.340100
-1.104500 0.345300
-1.075300 0.355100
-1.046000 0.366000
-1.016800 0.377200
-0.987500 0.388900
-0.958300 0.401200
-0.929000 0.414500
-0.899800 0.428800
-0.870500 0.445500
-0.841300 0.463100
-0.812000 0.483100
-0.782800 0.509100
-0.753500 0.544500
-0.724300 0.564300
-0.695000 0.544500
-0.665800 0.516200
-0.636500 0.459300
-0.607300 0.409200
-0.578000 0.384300
-0.548800 0.364100
-0.519500 0.344800
-0.490300 0.326700
-0.461100 0.310100
-0.431800 0.296300
-0.402600 0.289000
-0.373300 0.281300
-0.344100 0.272900
-0.314800 0.264500
-0.285600 0.255800
-0.256300 0.246300
-0.227100 0.237100
-0.197800 0.228800
-0.168600 0.221000
-0.139300 0.214800
-0.110100 0.209800
-0.080800 0.205400
-0.051600 0.201900
-0.022300 0.197500
0.006900 0.193000
0.036200 0.188500
0.065400 0.183900
0.094700 0.179200
0.123900 0.174500
0.153200 0.169500
0.182400 0.164800
0.211600 0.160300
0.240900 0.156500
0.270100 0.153600
0.299400 0.151100
0.328600 0.149300
0.357900 0.147700
0.387100 0.141900
0.416400 0.131400
0.445600 0.119300
0.474900 0.108500
0.504100 0.100600
0.533400 0.094400
0.562600 0.088600
0.591900 0.083100
0.621100 0.078000
0.650400 0.072900
0.679600 0.068600
0.708900 0.070100
0.738100 0.072400
0.767400 0.075500
0.796600 0.075600
0.825900 0.072400
0.855100 0.069200
0.884300 0.066200
0.913600 0.065400
0.942800 0.064700
0.972100 0.064300
1.001300 0.064000
1.030600 0.064000
1.059800 0.064200
1.089100 0.064000
1.118300 0.063100
1.147600 0.062200
1.176800 0.061800
1.206100 0.062100
1.235300 0.062500
1.264600 0.063500
1.293800 0.065800
1.323100 0.069200
1.352300 0.073600
1.381600 0.077900
1.410800 0.081700
1.440100 0.084900
1.469300 0.088300
1.498600 0.091200
1.527800 0.095100
1.557000 0.099100
1.586300 0.103000
1.615500 0.107100
1.644800 0.111700
1.674000 0.116600
1.703300 0.121600
1.732500 0.126600
1.761800 0.131200
1.791000 0.135100
1.820300 0.138200
1.849500 0.141100
1.878800 0.144600
1.908000 0.148800
1.937300 0.152700
1.966500 0.156600
1.995800 0.160400
2.025000 0.164100
2.054300 0.167800
2.083500 0.171600
2.112800 0.176400
2.142000 0.182100
2.171300 0.188000
2.200500 0.193600
2.229700 0.198800
2.259000 0.203700
2.288200 0.208700
2.317500 0.213700
2.346700 0.218800
2.376000 0.223900
2.405200 0.228800
2.434500 0.233700
2.463700 0.238500
2.493000 0.243500
2.522200 0.249000
2.551500 0.255100
2.580700 0.261900
2.610000 0.269400
2.639200 0.277500
2.668500 0.285900
2.697700 0.294700
2.727000 0.303800
2.756200 0.313100
2.785500 0.323200
2.814700 0.332900
2.844000 0.343000
2.873200 0.353500
2.902400 0.367200
2.931700 0.385800
2.960900 0.406900
2.990200 0.445800
3.019400 0.455300
3.048700 0.454900
3.077900 0.443500
3.107200 0.441800
3.136400 0.440100
3.165700 0.439700
3.194900 0.441400
3.224200 0.445000
3.253400 0.449000
3.282700 0.452800
3.311900 0.457800
3.341200 0.462900
3.370400 0.468200
3.399700 0.474200
3.428900 0.483100
3.458200 0.521900
3.487400 0.613600
3.516700 0.790600
3.545900 0.873300
3.575100 0.860500
3.604400 0.784400
3.633600 0.733700
3.662900 0.678600
3.692100 0.599400
3.721400 0.593600
3.750600 0.615400
3.779900 0.609400
3.809100 0.585800
3.838400 0.573600
3.867600 0.573000
3.896900 0.582900
3.926100 0.603900
3.955400 0.599900
3.984600 0.600200
4.013900 0.602200
4.043100 0.601700
4.072400 0.598000
4.101600 0.607200
4.130900 0.607500
4.160100 0.596100
4.189400 0.593800
4.218600 0.623200
4.247800 0.660800
4.277100 0.659200
4.306300 0.641800
4.335600 0.636500
4.364800 0.594500
4.394100 0.569200
4.423300 0.565900
4.452600 0.564000
4.481800 0.559900
4.511100 0.545300
4.540300 0.542200
4.569600 0.543200
4.598800 0.542900
4.628100 0.542300
4.657300 0.543200
4.686600 0.544000
4.715800 0.647900
4.745100 0.588800
4.774300 0.591100
4.803600 0.599100
4.832800 0.604400
4.862100 0.611100
4.891300 0.614800
4.920500 0.618000
4.949800 0.617200
4.979000 0.608700
5.008300 0.602700
5.037500 0.596700
5.066800 0.592700
5.096000 0.599600
5.125300 0.632200
5.154500 0.673900
5.183800 0.721900
5.213000 0.685900
5.242300 0.678200
5.271500 0.674000
5.300800 0.670900
5.330000 0.670100
5.359300 0.669300
5.388500 0.668300
5.417800 0.674100
5.447000 0.675500
5.476300 0.670000
5.505500 0.658500
5.534800 0.656700
5.564000 0.760400
5.593200 0.943400
5.622500 1.256200
5.651700 1.069800
5.681000 0.797200
5.710200 0.702300
5.739500 0.631900
5.768700 0.583400
5.798000 0.574900
5.827200 0.584700
5.856500 0.603300
5.885700 0.567900
5.915000 0.627600
5.944200 0.814200
5.973500 0.914000
6.002700 0.953800
6.032000 0.943600
6.061200 0.907700
6.090500 0.949400
6.119700 0.998600
6.149000 0.998600
6.178200 1.013500
6.207500 1.036400
6.236700 1.058500
6.265900 1.094700
6.295200 1.101000
6.324400 1.109800
6.353700 1.133300
6.382900 1.141100
6.412200 1.088300
6.441400 1.019500
6.470700 0.983200
6.499900 0.946000
6.529200 0.895600
6.558400 0.841000
6.587700 0.732700
6.616900 0.659500
6.646200 0.610200
6.675400 0.558400
6.704700 0.502100
6.733900 0.454800
6.763200 0.410100
6.792400 0.592300
6.821700 0.303400
6.850900 0.258500
6.880200 0.258200
6.909400 0.262100
6.938600 0.272400
6.967900 0.291900
6.997100 0.329400
7.026400 0.417000
7.055600 0.533600
7.084900 0.657600
7.114100 0.756000
7.143400 0.823800
7.172600 0.892200
7.201900 0.955700
7.231100 1.027700
7.260400 1.049000
7.289600 1.030400
7.318900 1.047700
7.348100 1.156600
7.377400 1.072200
7.406600 0.984300
7.435900 0.935600
7.465100 0.891900
7.494400 0.930100
7.523600 0.942500
7.552900 0.919000
7.582100 0.869700
7.611300 0.826300
7.640600 0.756600
7.669800 0.719400
7.699100 0.704100
7.728300 0.719200
7.757600 0.744600
7.786800 0.744200
7.816100 0.751300
7.845300 0.765100
7.874600 0.785900
7.903800 0.891200
7.933100 0.913500
7.962300 0.985600
7.991600 1.082700
8.020800 1.176600
8.050100 1.220500
8.079300 1.126700
8.108600 1.126100
8.137800 1.087600
8.167100 1.076300
8.196300 1.066600
8.225600 1.042400
8.254800 1.016500
8.284000 1.003200
8.313300 0.973300
8.342500 0.952500
8.371800 0.940400
8.401000 0.944800
8.430300 0.957600
8.459500 0.973800
8.488800 0.994000
8.518000 1.029200
8.547300 1.092300
8.576500 1.179500
8.605800 1.238000
8.635000 1.413600
8.664300 1.317700
8.693500 1.298600
8.722800 1.315000
8.752000 1.324900
8.781300 1.368600
8.810500 1.348700
8.839800 1.304300
8.869000 1.226100
8.898300 1.191400
8.927500 1.203500
8.956700 1.115500
8.986000 1.064300
9.015200 1.182800
9.044500 1.131500
9.073700 1.107000
9.103000 1.077300
9.132200 1.055100
9.161500 1.065900
9.190700 1.119300
9.220000 1.154200
9.249200 1.139700
9.278500 1.104100
9.307700 1.100200
9.337000 1.136300
9.366200 1.101700
9.395500 1.054100
9.424700 1.025200
9.454000 1.016700
9.483200 1.003100
9.512500 0.970000
9.541700 0.923700
9.571000 0.860900
9.600200 0.871600
9.629400 0.927000
9.658700 0.946100
9.687900 0.949300
9.717200 0.946700
9.746400 0.957700
9.775700 0.954000
9.804900 0.939100
9.834200 0.920700
9.863400 0.930500
9.892700 0.873200
9.921900 0.809000
9.951200 0.759800
9.980400 0.721300
10.009700 0.695400
10.038900 0.677800
10.068200 0.666200
10.097400 0.665700
10.126700 0.686500
10.155900 0.712300
10.185200 0.734700
10.214400 0.747600
10.243700 0.763000
10.272900 0.783000
10.302100 0.776000
10.331400 0.766600
10.360600 0.758100
10.389900 0.744500
10.419100 0.743300
10.448400 0.747200
10.477600 0.736600
10.506900 0.708500
10.536100 0.674800
10.565400 0.662000
10.594600 0.661600
10.623900 0.661300
10.653100 0.659400
10.682400 0.646800
10.711600 0.662300
10.740900 0.697500
10.770100 0.694300
10.799400 0.689400
10.828600 0.680100
10.857900 0.660900
10.887100 0.649200
10.916400 0.643500
10.945600 0.658200
10.974800 0.665700
11.004100 0.657200
11.033300 0.634900
11.062600 0.607300
11.091800 0.587700
11.121100 0.577100
11.150300 0.577900
11.179600 0.579200
11.208800 0.578100
11.238100 0.572700
11.267300 0.564500
11.296600 0.554400
11.325800 0.540800
11.355100 0.519400
11.384300 0.482600
11.413600 0.449700
11.442800 0.434100
11.472100 0.420800
11.501300 0.426700
11.530600 0.449100
11.559800 0.427900
11.589100 0.459400
11.618300 0.480400
11.647500 0.480500
11.676800 0.476300
11.706000 0.500400
11.735300 0.544900
11.764500 0.598400
11.793800 0.697000
11.823000 0.845100
11.852300 1.076100
11.881500 1.366300
11.910800 1.411700
11.940000 1.255300
11.969300 1.239200
11.998500 1.199800
12.027800 1.088000
12.057000 1.002200
12.086300 0.942300
12.115500 0.880400
12.144800 0.808600
12.174000 0.770100
12.203300 0.733200
12.232500 0.700600
12.261800 0.675300
12.291000 0.654100
12.320200 0.632200
12.349500 0.613400
12.378700 0.597200
12.408000 0.582400
12.437200 0.565000
12.466500 0.561200
12.495700 0.550500
12.525000 0.552900
12.554200 0.556700
12.583500 0.563200
12.612700 0.575200
12.642000 0.588700
12.671200 0.604400
12.700500 0.624800
12.729700 0.656000
12.759000 0.671200
12.788200 0.688800
12.817500 0.691300
12.846700 0.690500
12.876000 0.689000
12.905200 0.699200
12.934500 0.693000
12.963700 0.676900
12.992900 0.672100
13.022200 0.668700
13.051400 0.674200
13.080700 0.675900
13.109900 0.667100
13.139200 0.724700
13.168400 0.780600
13.197700 0.913300
13.226900 1.122600
13.256200 1.224900
13.285400 1.228300
13.314700 1.185200
13.343900 1.192900
13.373200 1.144800
13.402400 1.078300
13.431700 1.123300
13.460900 0.934200
13.490200 0.909100
13.519400 0.889500
13.548700 0.882100
13.577900 0.868000
13.607200 0.877400
13.636400 0.873900
13.665600 0.853900
13.694900 0.869800
13.724100 0.869900
13.753400 0.839700
13.782600 0.837100
13.811900 0.834900
13.841100 0.823600
13.870400 0.812700
13.899600 0.805300
13.928900 0.797000
13.958100 0.788700
13.987400 0.779600
14.016600 0.772200
14.045900 0.763300
14.075100 0.750000
14.104400 0.721000
14.133600 0.688700
14.162900 0.663000
14.192100 0.645000
14.221400 0.636800
14.250600 0.630400
14.279900 0.622800
14.309100 0.620200
14.338300 0.614100
14.367600 0.617600
14.396800 0.614500
14.426100 0.609400
14.455300 0.606000
14.484600 0.597600
14.513800 0.596700
14.543100 0.590900
14.572300 0.590500
14.601600 0.605600
14.630800 0.605100
14.660100 0.605100
14.689300 0.606800
14.718600 0.611000
14.747800 0.619800
14.777100 0.630200
14.806300 0.637000
14.835600 0.638200
14.864800 0.640800
14.894100 0.648100
14.923300 0.661300
14.952600 0.671900
14.981800 0.682300
15.011100 0.703600
15.040300 0.728000
15.069500 0.762000
15.098800 0.776100
15.128000 0.784300
15.157300 0.789000
15.186500 0.824900
15.215800 0.876900
15.245000 0.913700
15.274300 0.954000
15.303500 0.940400
15.332800 0.913100
15.362000 0.919900
15.391300 0.929800
15.420500 0.936900
15.449800 0.944000
15.479000 0.961400
15.508300 0.950500
15.537500 0.944800
15.566800 0.945200
15.596000 0.930600
15.625300 0.918900
15.654500 0.921400
15.683800 0.914400
15.713000 0.906900
15.742200 0.915100
15.771500 0.934800
15.800700 0.960200
15.830000 0.965200
15.859200 0.939700
15.888500 0.896000
15.917700 0.872100
15.947000 0.843700
15.976200 0.810200
16.005500 0.773300
16.034700 0.728300
16.064000 0.697200
16.093200 0.671500
16.122500 0.647400
16.151700 0.676400
16.181000 0.634100
16.210200 0.611200
16.239500 0.607900
16.268700 0.601600
16.298000 0.595100
16.327200 0.591000
16.356500 0.586900
16.385700 0.638900
16.414900 0.644100
16.444200 0.642400
16.473400 0.650900
16.502700 0.682600
16.531900 0.677600
16.561200 0.702300
16.590400 0.737100
16.619700 0.697600
16.648900 0.662400
16.678200 0.652100
16.707400 0.649800
16.736700 0.645900
16.765900 0.630800
16.795200 0.617000
16.824400 0.608500
16.853700 0.597800
16.882900 0.580200
16.912200 0.559800
16.941400 0.552500
16.970700 0.553400
16.999900 0.566100
17.029200 0.555700
17.058400 0.548000
17.087600 0.550000
17.116900 0.555200
17.146100 0.579400
17.175400 0.606000
17.204600 0.634500
17.233900 0.657200
17.263100 0.671100
17.292400 0.694600
17.321600 0.729100
17.350900 0.766500
17.380100 0.759400
17.409400 0.786700
17.438600 0.816600
17.467900 0.826000
17.497100 0.830000
17.526400 0.841700
17.555600 0.839100
17.584900 0.836800
17.614100 0.835000
17.643400 0.830900
17.672600 0.819200
17.701900 0.813600
17.731100 0.811900
17.760300 0.812300
17.789600 0.819600
17.818800 0.815800
17.848100 0.820200
17.877300 0.822000
17.906600 0.820900
17.935800 0.813100
17.965100 0.768100
17.994300 0.702800
18.023600 0.663700
18.052800 0.624200
18.082100 0.586900
18.111300 0.549300
18.140600 0.515600
18.169800 0.491600
18.199100 0.470300
18.228300 0.488700
18.257600 0.508400
18.286800 0.515300
18.316100 0.527600
18.345300 0.539600
18.374600 0.523300
18.403800 0.513200
18.433000 0.539400
18.462300 0.588900
18.491500 0.668700
18.520800 0.760700
18.550000 0.793400
18.579300 0.815100
18.608500 0.839300
18.637800 0.866400
18.667000 0.917400
18.696300 0.964600
18.725500 1.003200
18.754800 1.002600
18.784000 0.959800
18.813300 0.964800
18.842500 0.943400
18.871800 0.917600
18.901000 0.900600
18.930300 0.878300
18.959500 0.854000
18.988800 0.836200
19.018000 0.822500
19.047300 0.809700
19.076500 0.809700
19.105700 0.834300
19.135000 0.853000
19.164200 0.872100
19.193500 0.895200
19.222700 0.920500
19.252000 0.939300
19.281200 0.954900
19.310500 1.016100
19.339700 1.093800
19.369000 1.059900
19.398200 1.008000
19.427500 0.959200
19.456700 0.979300
19.486000 0.990000
19.515200 0.996000
19.544500 1.001900
19.573700 1.012700
19.603000 1.028500
19.632200 0.978600
19.661500 0.975100
19.690700 0.988600
19.720000 0.958600
19.749200 0.938700
19.778400 0.921100
19.807700 0.897600
19.836900 0.877300
19.866200 0.877500
19.895400 0.779200
19.924700 0.772600
19.953900 0.766600
19.983200 0.770400
20.012400 0.748500
20.041700 0.741200
20.070900 0.735900
20.100200 0.732100
20.129400 0.766000
20.158700 0.746200
20.187900 0.685700
20.217200 0.702400
20.246400 0.696400
20.275700 0.670300
20.304900 0.637000
20.334200 0.601600
20.363400 0.566500
20.392700 0.533100
20.421900 0.506600
20.451100 0.491500
20.480400 0.482000
20.509600 0.478100
20.538900 0.477200
20.568100 0.478500
20.597400 0.486600
20.626600 0.500200
20.655900 0.525500
20.685100 0.562800
20.714400 0.618200
20.743600 0.667600
20.772900 0.690900
20.802100 0.703100
20.831400 0.715800
20.860600 0.744500
20.889900 0.776400
20.919100 0.817700
20.948400 0.878300
20.977600 0.885500
21.006900 0.926500
21.036100 0.912800
21.065400 0.919000
21.094600 0.921500
21.123800 0.926200
21.153100 0.927300
21.182300 0.996800
21.211600 1.004500
21.240800 0.991500
21.270100 0.855600
21.299300 0.782800
21.328600 0.745100
21.357800 0.715600
21.387100 0.705100
21.416300 0.707700
21.445600 0.716300
21.474800 0.734800
21.504100 0.761900
21.533300 0.785800
21.562600 0.808500
21.591800 0.813200
21.621100 0.862500
21.650300 0.916100
21.679600 0.930900
21.708800 0.942600
21.738100 0.936400
21.767300 0.955500
21.796500 0.972700
21.825800 0.997100
21.855000 0.993000
21.884300 0.990200
21.913500 1.014900
21.942800 1.030900
21.972000 1.017100
22.001300 1.026100
22.030500 1.061800
22.059800 1.102700
22.089000 1.098400
22.118300 1.105300
22.147500 1.105500
22.176800 1.115000
22.206000 1.074300
22.235300 1.045900
22.264500 0.992600
22.293800 0.925400
22.323000 0.866400
22.352300 0.832100
22.381500 0.802100
22.410800 0.786200
22.440000 0.776000
22.469200 0.767600
22.498500 0.760500
22.527700 0.753500
22.557000 0.748700
22.586200 0.751800
22.615500 0.746100
22.644700 0.744000
22.674000 0.746900
22.703200 0.756300
22.732500 0.771500
22.761700 0.789800
22.791000 0.804300
22.820200 0.815200
22.849500 0.826900
22.878700 0.861400
22.908000 0.938700
22.937200 0.910800
22.966500 0.956500
22.995700 1.001500
23.025000 1.022800
23.054200 1.057000
23.083500 1.040300
23.112700 0.985500
23.141900 0.898700
23.171200 0.846400
23.200400 0.827400
23.229700 0.833300
23.258900 0.850900
23.288200 0.876000
23.317400 0.900800
23.346700 0.952000
23.375900 0.955100
23.405200 0.951500
23.434400 0.947900
23.463700 0.942600
23.492900 0.934800
23.522200 0.898900
23.551400 0.874900
23.580700 0.865500
23.609900 0.868600
23.639200 0.809100
23.668400 0.812900
23.697700 0.807400
23.726900 0.749200
23.756200 0.726900
23.785400 0.719400
23.814600 0.715500
23.843900 0.715400
23.873100 0.718700
23.902400 0.728700
23.931600 0.744900
23.960900 0.773800
23.990100 0.802500
24.019400 0.844400
24.048600 0.878300
24.077900 0.912200
24.107100 0.944700
24.136400 0.979100
24.165600 0.985900
24.194900 1.063900
24.224100 1.121400
24.253400 1.174000
24.282600 1.217200
24.311900 1.229700
24.341100 1.239400
24.370400 1.196000
24.399600 1.107400
24.428900 1.037000
24.458100 0.979800
24.487300 0.925400
24.516600 0.874700
24.545800 0.829700
24.575100 0.797700
24.604300 0.782600
24.633600 0.782600
24.662800 0.778100
24.692100 0.778900
24.721300 0.814700
24.750600 0.836600
24.779800 0.857200
24.809100 0.883100
24.838300 0.906100
24.867600 0.915000
24.896800 0.881600
24.926100 0.884200
24.955300 0.912000
24.984600 0.955900
25.013800 1.000000
25.043100 1.065400
25.072300 1.144200
25.101600 1.270700
25.130800 1.349600
25.160000 1.398200
25.189300 1.379100
25.218500 1.308900
25.247800 1.168800
25.277000 1.111600
25.306300 1.067300
25.335500 1.050100
25.364800 1.037900
25.394000 1.055700
25.423300 1.141600
25.452500 0.997700
25.481800 1.028100
25.511000 1.055400
25.540300 1.081400
25.569500 1.092300
25.598800 1.106100
25.628000 1.131500
25.657300 1.153500
25.686500 1.155300
25.715800 1.150500
25.745000 1.144200
25.774300 1.133200
25.803500 1.145700
25.832700 1.141800
25.862000 1.113400
25.891200 1.027100
25.920500 0.981700
25.949700 0.965300
25.979000 0.952200
26.008200 0.942800
26.037500 0.934600
26.066700 0.938700
26.096000 0.948100
26.125200 0.982500
26.154500 1.022400
26.183700 1.067200
26.213000 1.099500
26.242200 1.128300
26.271500 1.159400
26.300700 1.178500
26.330000 1.186800
26.359200 1.186700
26.388500 1.190700
26.417700 1.202500
26.447000 1.220900
26.476200 1.199500
26.505400 1.165500
26.534700 1.167800
26.563900 1.130700
26.593200 1.023600
26.622400 0.964800
26.651700 0.919300
26.680900 0.879700
26.710200 0.850600
26.739400 0.864400
26.768700 0.892300
26.797900 0.859000
26.827200 0.850700
26.856400 0.852200
26.885700 0.849300
26.914900 0.800500
26.944200 0.780400
26.973400 0.752900
27.002700 0.724900
27.031900 0.717400
27.061200 0.712900
27.090400 0.711200
27.119700 0.708100
27.148900 0.717500
27.178100 0.759300
27.207400 0.794700
27.236600 0.897900
27.265900 0.888800
27.295100 0.872900
27.324400 0.874400
27.353600 0.896000
27.382900 0.922700
27.412100 0.957500
27.441400 0.974300
27.470600 0.990800
27.499900 1.034400
27.529100 1.093800
27.558400 1.127900
27.587600 1.204000
27.616900 1.277300
27.646100 1.371500
27.675400 1.403700
27.704600 1.435300
27.733900 1.460400
27.763100 1.472300
27.792400 1.477100
27.821600 1.470300
27.850800 1.463200
27.880100 1.421400
27.909300 1.339400
27.938600 1.267900
27.967800 1.225400
27.997100 1.208800
28.026300 1.221200
28.055600 1.250600
28.084800 1.217200
28.114100 1.147000
28.143300 1.125100
28.172600 1.132900
28.201800 1.179100
28.231100 1.098900
28.260300 1.101900
28.289600 1.121800
28.318800 1.113000
28.348100 1.086800
28.377300 1.066200
28.406600 1.046600
28.435800 1.027600
28.465100 1.027800
28.494300 1.029900
28.523500 1.023100
28.552800 1.020700
28.582000 1.013900
28.611300 0.987900
28.640500 0.949400
28.669800 0.910000
28.699000 0.891500
28.728300 0.921300
28.757500 1.019600
28.786800 0.949500
28.816000 0.970700
28.845300 0.974600
28.874500 0.978200
28.903800 0.989400
28.933000 1.007900
28.962300 1.071200
28.991500 1.151700
29.020800 1.210600
29.050000 1.232800
29.079300 1.244500
29.108500 1.253800
29.137800 1.317200
29.167000 1.296900
29.196200 1.261800
29.225500 1.236900
29.254700 1.176700
29.284000 1.122200
29.313200 1.076400
29.342500 1.038000
29.371700 1.008300
29.401000 0.981000
29.430200 0.951700
29.459500 0.926900
29.488700 0.909900
29.518000 0.880100
29.547200 0.842800
29.576500 0.801800
29.605700 0.762100
29.635000 0.726100
29.664200 0.698100
29.693500 0.669100
29.722700 0.641600
29.752000 0.616800
29.781200 0.596800
29.810500 0.565300
29.839700 0.531100
29.868900 0.506800
29.898200 0.479500
29.927400 0.446800
29.956700 0.415400
29.985900 0.385000
30.015200 0.355700
30.044400 0.327100
30.073700 0.297700
30.102900 0.270300
30.132200 0.243300
30.161400 0.219200
30.190700 0.196700
30.219900 0.176600
30.249200 0.160800
30.278400 0.148900
30.307700 0.137700
30.336900 0.129200
30.366200 0.122000
30.395400 0.114400
30.424700 0.109500
30.453900 0.105100
30.483200 0.101100
30.512400 0.099000
30.541600 0.089100
30.570900 0.078200
30.600100 0.070600
30.629400 0.065500
30.658600 0.062100
30.687900 0.058800
30.717100 0.055600
30.746400 0.052600
30.775600 0.049600
30.804900 0.047500
30.834100 0.048900
30.863400 0.051900
30.892600 0.055300
30.921900 0.057800
30.951100 0.059000
30.980400 0.060700
31.009600 0.063000
31.038900 0.063600
31.068100 0.060400
31.097400 0.055100
31.126600 0.049400
31.155900 0.043100
31.185100 0.035200
31.214300 0.025400
31.243600 0.016500
31.272800 0.008900
31.302100 0.003600
31.331300 0.000100
31.360600 0.000000
31.389800 0.000000
31.419100 0.000000
31.448300 0.000000
31.477600 0.000000
31.506800 0.000000
31.536100 0.000000
31.565300 0.000000
31.594600 0.000000
31.623800 0.000000
31.653100 0.000000
31.682300 0.000000
31.711600 0.000000
31.740800 0.000000
31.770100 0.000000
31.799300 0.000000
31.828600 0.000000
31.857800 0.000000
31.887000 0.000000
31.916300 0.000000
31.945500 0.000000
31.974800 0.000000
32.004000 0.000000
32.033300 0.000000
32.062500 0.000000
32.091800 0.000000
32.121000 0.000000
32.150300 0.000000
32.179500 0.000000
32.208800 0.000000
32.238000 0.000000
32.267300 0.000000
32.296500 0.000000
32.325800 0.000000
32.355000 0.000000
32.384300 0.000000
32.413500 0.000000
32.442800 0.000000
32.472000 0.000000
32.501300 0.000000
32.530500 0.000000
32.559700 0.000000
32.589000 0.000000
32.618200 0.000000
32.647500 0.000000
32.676700 0.000000
32.706000 0.000000
32.735200 0.000000
32.764500 0.000000
32.793700 0.000000
32.823000 0.000000
32.852200 0.000000
32.881500 0.000000
32.910700 0.000000
32.940000 0.000000
32.969200 0.000000
32.998500 0.000000
33.027700 0.000000
33.057000 0.000000
33.086200 0.000000
33.115500 0.000000
33.144700 0.000000
33.174000 0.000000
33.203200 0.000000
33.232400 0.000000
33.261700 0.000000
33.290900 0.000000
33.320200 0.000000
33.349400 0.000000
33.378700 0.000000
33.407900 0.000000
33.437200 0.000000
33.466400 0.000000
33.495700 0.000000
33.524900 0.000000
33.554200 0.000000
33.583400 0.000000
33.612700 0.000000
33.641900 0.000000
33.671200 0.000000
33.700400 0.000000
33.729700 0.000000
33.758900 0.000000
33.788200 0.000000
33.817400 0.000000
33.846700 0.000000
33.875900 0.000000
33.905100 0.000000
33.934400 0.000000
33.963600 0.000000
33.992900 0.000000
34.022100 0.000000
34.051400 0.000000
34.080600 0.000000
34.109900 0.000000
e
