set title 'mp-1184745 - Density of States'
set xlabel 'Energy (eV)'
set ylabel 'DOS (states/eV)'
set grid
set xrange [-10:10]
set yrange [0:7.891]
set xzeroaxis lt -1
set terminal png size 800,600
set output 'mp-1184745_dos_gnuplot.png'
plot '-' using 1:2 with lines title 'DOS'
-20.857700 0.000000
-20.832800 0.000000
-20.807800 0.000000
-20.782900 0.000000
-20.758000 0.000000
-20.733000 0.000000
-20.708100 0.000000
-20.683200 0.000000
-20.658200 0.000000
-20.633300 0.000000
-20.608400 0.000000
-20.583500 0.000000
-20.558500 0.000000
-20.533600 0.000000
-20.508700 0.000000
-20.483700 0.000000
-20.458800 0.000000
-20.433900 0.000000
-20.408900 0.000000
-20.384000 0.000000
-20.359100 0.000000
-20.334100 0.000000
-20.309200 0.000000
-20.284300 0.000000
-20.259300 0.000000
-20.234400 0.000000
-20.209500 0.000000
-20.184600 0.000000
-20.159600 0.000000
-20.134700 0.000000
-20.109800 0.000000
-20.084800 0.000000
-20.059900 0.000000
-20.035000 0.000000
-20.010000 0.000000
-19.985100 0.000000
-19.960200 0.000000
-19.935200 0.000000
-19.910300 0.000000
-19.885400 0.000000
-19.860400 0.000000
-19.835500 0.000000
-19.810600 0.000000
-19.785700 0.000000
-19.760700 0.000000
-19.735800 0.000000
-19.710900 0.000000
-19.685900 0.000000
-19.661000 0.000000
-19.636100 0.000000
-19.611100 0.000000
-19.586200 0.000000
-19.561300 0.000000
-19.536300 0.000000
-19.511400 0.000000
-19.486500 0.000000
-19.461600 0.000000
-19.436600 0.000000
-19.411700 0.000000
-19.386800 0.000000
-19.361800 0.000000
-19.336900 0.000000
-19.312000 0.000000
-19.287000 0.000000
-19.262100 0.000000
-19.237200 0.000000
-19.212200 0.000000
-19.187300 0.000000
-19.162400 0.000000
-19.137400 0.000000
-19.112500 0.000000
-19.087600 0.000000
-19.062700 0.000000
-19.037700 0.000000
-19.012800 0.000000
-18.987900 0.000000
-18.962900 0.000000
-18.938000 0.000000
-18.913100 0.000000
-18.888100 0.000000
-18.863200 0.000000
-18.838300 0.000000
-18.813300 0.000000
-18.788400 0.000000
-18.763500 0.000000
-18.738500 0.001200
-18.713600 0.022600
-18.688700 0.273000
-18.663800 2.062700
-18.638800 9.765200
-18.613900 29.056100
-18.589000 54.508400
-18.564000 64.651200
-18.539100 48.592400
-18.514200 23.179600
-18.489200 7.021800
-18.464300 1.350200
-18.439400 0.164600
-18.414400 0.012700
-18.389500 0.000600
-18.364600 0.000000
-18.339600 0.000000
-18.314700 0.000000
-18.289800 0.000000
-18.264900 0.000000
-18.239900 0.000000
-18.215000 0.000000
-18.190100 0.000000
-18.165100 0.000000
-18.140200 0.000000
-18.115300 0.000000
-18.090300 0.000000
-18.065400 0.000000
-18.040500 0.000000
-18.015500 0.000000
-17.990600 0.000000
-17.965700 0.000000
-17.940700 0.000000
-17.915800 0.000000
-17.890900 0.000000
-17.866000 0.000000
-17.841000 0.000000
-17.816100 0.000000
-17.791200 0.000000
-17.766200 0.000000
-17.741300 0.000000
-17.716400 0.000000
-17.691400 0.000000
-17.666500 0.000000
-17.641600 0.000000
-17.616600 0.000000
-17.591700 0.000000
-17.566800 0.000000
-17.541800 0.000000
-17.516900 0.000000
-17.492000 0.000000
-17.467100 0.000000
-17.442100 0.000000
-17.417200 0.000000
-17.392300 0.000000
-17.367300 0.000000
-17.342400 0.000000
-17.317500 0.000000
-17.292500 0.000000
-17.267600 0.000000
-17.242700 0.000000
-17.217700 0.000000
-17.192800 0.000000
-17.167900 0.000000
-17.143000 0.000000
-17.118000 0.000000
-17.093100 0.000000
-17.068200 0.000000
-17.043200 0.000000
-17.018300 0.000000
-16.993400 0.000000
-16.968400 0.000000
-16.943500 0.000000
-16.918600 0.000000
-16.893600 0.000000
-16.868700 0.000000
-16.843800 0.000000
-16.818800 0.000000
-16.793900 0.000000
-16.769000 0.000000
-16.744100 0.000000
-16.719100 0.000000
-16.694200 0.000000
-16.669300 0.000000
-16.644300 0.000000
-16.619400 0.000000
-16.594500 0.000000
-16.569500 0.000000
-16.544600 0.000000
-16.519700 0.000000
-16.494700 0.000000
-16.469800 0.000000
-16.444900 0.000000
-16.419900 0.000000
-16.395000 0.000000
-16.370100 0.000000
-16.345200 0.000000
-16.320200 0.000000
-16.295300 0.000000
-16.270400 0.000000
-16.245400 0.000000
-16.220500 0.000000
-16.195600 0.000000
-16.170600 0.000000
-16.145700 0.000000
-16.120800 0.000000
-16.095800 0.000000
-16.070900 0.000000
-16.046000 0.000000
-16.021000 0.000000
-15.996100 0.000000
-15.971200 0.000000
-15.946300 0.000000
-15.921300 0.000000
-15.896400 0.000000
-15.871500 0.000000
-15.846500 0.000000
-15.821600 0.000000
-15.796700 0.000000
-15.771700 0.000000
-15.746800 0.000000
-15.721900 0.000000
-15.696900 0.000000
-15.672000 0.000000
-15.647100 0.000000
-15.622100 0.000000
-15.597200 0.000000
-15.572300 0.000000
-15.547400 0.000000
-15.522400 0.000000
-15.497500 0.000000
-15.472600 0.000000
-15.447600 0.000000
-15.422700 0.000000
-15.397800 0.000000
-15.372800 0.000000
-15.347900 0.000000
-15.323000 0.000000
-15.298000 0.000000
-15.273100 0.000000
-15.248200 0.000000
-15.223200 0.000000
-15.198300 0.000000
-15.173400 0.000000
-15.148500 0.000000
-15.123500 0.000000
-15.098600 0.000000
-15.073700 0.000000
-15.048700 0.000000
-15.023800 0.000000
-14.998900 0.000000
-14.973900 0.000000
-14.949000 0.000000
-14.924100 0.000000
-14.899100 0.000000
-14.874200 0.000000
-14.849300 0.000000
-14.824300 0.000000
-14.799400 0.000000
-14.774500 0.000000
-14.749600 0.000000
-14.724600 0.000000
-14.699700 0.000000
-14.674800 0.000000
-14.649800 0.000000
-14.624900 0.000000
-14.600000 0.000000
-14.575000 0.000000
-14.550100 0.000000
-14.525200 0.000000
-14.500200 0.000000
-14.475300 0.000000
-14.450400 0.000000
-14.425500 0.000000
-14.400500 0.000000
-14.375600 0.000000
-14.350700 0.000000
-14.325700 0.000000
-14.300800 0.000000
-14.275900 0.000000
-14.250900 0.000000
-14.226000 0.000000
-14.201100 0.000000
-14.176100 0.000000
-14.151200 0.000000
-14.126300 0.000000
-14.101300 0.000000
-14.076400 0.000000
-14.051500 0.000000
-14.026600 0.000000
-14.001600 0.000000
-13.976700 0.000000
-13.951800 0.000000
-13.926800 0.000000
-13.901900 0.000000
-13.877000 0.000000
-13.852000 0.000000
-13.827100 0.000000
-13.802200 0.000000
-13.777200 0.000000
-13.752300 0.000000
-13.727400 0.000000
-13.702400 0.000000
-13.677500 0.000000
-13.652600 0.000000
-13.627700 0.000000
-13.602700 0.000000
-13.577800 0.000000
-13.552900 0.000000
-13.527900 0.000000
-13.503000 0.000000
-13.478100 0.000000
-13.453100 0.000000
-13.428200 0.000000
-13.403300 0.000000
-13.378300 0.000000
-13.353400 0.000000
-13.328500 0.000000
-13.303500 0.000000
-13.278600 0.000000
-13.253700 0.000000
-13.228800 0.000000
-13.203800 0.000000
-13.178900 0.000000
-13.154000 0.000000
-13.129000 0.000000
-13.104100 0.000000
-13.079200 0.000000
-13.054200 0.000000
-13.029300 0.000000
-13.004400 0.000000
-12.979400 0.000000
-12.954500 0.000000
-12.929600 0.000000
-12.904600 0.000000
-12.879700 0.000000
-12.854800 0.000000
-12.829900 0.000000
-12.804900 0.000000
-12.780000 0.000000
-12.755100 0.000000
-12.730100 0.000000
-12.705200 0.000000
-12.680300 0.000000
-12.655300 0.000000
-12.630400 0.000000
-12.605500 0.000000
-12.580500 0.000000
-12.555600 0.000000
-12.530700 0.000000
-12.505700 0.000000
-12.480800 0.000000
-12.455900 0.000000
-12.431000 0.000000
-12.406000 0.000000
-12.381100 0.000000
-12.356200 0.000000
-12.331200 0.000000
-12.306300 0.000000
-12.281400 0.000000
-12.256400 0.000000
-12.231500 0.000000
-12.206600 0.000000
-12.181600 0.000000
-12.156700 0.000000
-12.131800 0.000000
-12.106800 0.000000
-12.081900 0.000000
-12.057000 0.000000
-12.032100 0.000000
-12.007100 0.000000
-11.982200 0.000000
-11.957300 0.000000
-11.932300 0.000000
-11.907400 0.000000
-11.882500 0.000000
-11.857500 0.000000
-11.832600 0.000000
-11.807700 0.000000
-11.782700 0.000000
-11.757800 0.000000
-11.732900 0.000000
-11.708000 0.000000
-11.683000 0.000000
-11.658100 0.000000
-11.633200 0.000000
-11.608200 0.000000
-11.583300 0.000000
-11.558400 0.000000
-11.533400 0.000000
-11.508500 0.000000
-11.483600 0.000000
-11.458600 0.000000
-11.433700 0.000000
-11.408800 0.000000
-11.383800 0.000000
-11.358900 0.000000
-11.334000 0.000000
-11.309100 0.000000
-11.284100 0.000000
-11.259200 0.000000
-11.234300 0.000000
-11.209300 0.000000
-11.184400 0.000000
-11.159500 0.000000
-11.134500 0.000000
-11.109600 0.000000
-11.084700 0.000000
-11.059700 0.000000
-11.034800 0.000000
-11.009900 0.000000
-10.984900 0.000000
-10.960000 0.000000
-10.935100 0.000000
-10.910200 0.000000
-10.885200 0.000000
-10.860300 0.000000
-10.835400 0.000000
-10.810400 0.000000
-10.785500 0.000000
-10.760600 0.000000
-10.735600 0.000000
-10.710700 0.000000
-10.685800 0.000000
-10.660800 0.000000
-10.635900 0.000000
-10.611000 0.000000
-10.586000 0.000000
-10.561100 0.000000
-10.536200 0.000000
-10.511300 0.000000
-10.486300 0.000000
-10.461400 0.000000
-10.436500 0.000000
-10.411500 0.000000
-10.386600 0.000000
-10.361700 0.000000
-10.336700 0.000000
-10.311800 0.000000
-10.286900 0.000000
-10.261900 0.000000
-10.237000 0.000000
-10.212100 0.000000
-10.187100 0.000000
-10.162200 0.000000
-10.137300 0.000000
-10.112400 0.000000
-10.087400 0.000000
-10.062500 0.000000
-10.037600 0.000000
-10.012600 0.000000
-9.987700 0.000000
-9.962800 0.000000
-9.937800 0.000000
-9.912900 0.000000
-9.888000 0.000000
-9.863000 0.000000
-9.838100 0.000000
-9.813200 0.000000
-9.788200 0.000000
-9.763300 0.000000
-9.738400 0.000000
-9.713500 0.000000
-9.688500 0.000000
-9.663600 0.000000
-9.638700 0.000000
-9.613700 0.000000
-9.588800 0.000000
-9.563900 0.000000
-9.538900 0.000000
-9.514000 0.000000
-9.489100 0.000000
-9.464100 0.000000
-9.439200 0.000000
-9.414300 0.000000
-9.389400 0.000000
-9.364400 0.000000
-9.339500 0.000000
-9.314600 0.000000
-9.289600 0.000000
-9.264700 0.000000
-9.239800 0.000000
-9.214800 0.000000
-9.189900 0.000000
-9.165000 0.000000
-9.140000 0.000000
-9.115100 0.000000
-9.090200 0.000000
-9.065200 0.000000
-9.040300 0.000000
-9.015400 0.000000
-8.990500 0.000000
-8.965500 0.000000
-8.940600 0.000000
-8.915700 0.000000
-8.890700 0.000000
-8.865800 0.000000
-8.840900 0.000000
-8.815900 0.000000
-8.791000 0.000000
-8.766100 0.000000
-8.741100 0.000000
-8.716200 0.000000
-8.691300 0.000000
-8.666300 0.000000
-8.641400 0.000000
-8.616500 0.000000
-8.591600 0.000000
-8.566600 0.000000
-8.541700 0.000000
-8.516800 0.000000
-8.491800 0.000000
-8.466900 0.000000
-8.442000 0.000000
-8.417000 0.000000
-8.392100 0.000000
-8.367200 0.000000
-8.342200 0.000000
-8.317300 0.000000
-8.292400 0.000000
-8.267400 0.000000
-8.242500 0.000000
-8.217600 0.000000
-8.192700 0.000000
-8.167700 0.000000
-8.142800 0.000000
-8.117900 0.000000
-8.092900 0.000000
-8.068000 0.000000
-8.043100 0.000000
-8.018100 0.000000
-7.993200 0.000000
-7.968300 0.000000
-7.943300 0.000000
-7.918400 0.000000
-7.893500 0.000000
-7.868500 0.000000
-7.843600 0.000000
-7.818700 0.000000
-7.793800 0.000000
-7.768800 0.000000
-7.743900 0.000000
-7.719000 0.000000
-7.694000 0.000000
-7.669100 0.000000
-7.644200 0.000000
-7.619200 0.000000
-7.594300 0.000000
-7.569400 0.000000
-7.544400 0.000000
-7.519500 0.000000
-7.494600 0.000000
-7.469600 0.000000
-7.444700 0.000000
-7.419800 0.000000
-7.394900 0.000000
-7.369900 0.000000
-7.345000 0.000000
-7.320100 0.000000
-7.295100 0.000000
-7.270200 0.000000
-7.245300 0.000000
-7.220300 0.000000
-7.195400 0.000000
-7.170500 0.000000
-7.145500 0.000000
-7.120600 0.000000
-7.095700 0.000000
-7.070700 0.000000
-7.045800 0.000000
-7.020900 0.000000
-6.996000 0.000000
-6.971000 0.000400
-6.946100 0.002700
-6.921200 0.011200
-6.896200 0.031300
-6.871300 0.063800
-6.846400 0.113400
-6.821400 0.193900
-6.796500 0.297100
-6.771600 0.373500
-6.746600 0.379200
-6.721700 0.340600
-6.696800 0.349400
-6.671900 0.433600
-6.646900 0.490000
-6.622000 0.459500
-6.597100 0.437600
-6.572100 0.552000
-6.547200 0.798700
-6.522300 0.970700
-6.497300 0.873600
-6.472400 0.620100
-6.447500 0.495100
-6.422500 0.579000
-6.397600 0.703800
-6.372700 0.751800
-6.347700 0.774900
-6.322800 0.835400
-6.297900 0.962700
-6.273000 1.164400
-6.248000 1.331900
-6.223100 1.326800
-6.198200 1.205100
-6.173200 1.070900
-6.148300 0.903100
-6.123400 0.800400
-6.098400 0.938100
-6.073500 1.222200
-6.048600 1.401900
-6.023600 1.343900
-5.998700 1.086600
-5.973800 0.804300
-5.948800 0.647400
-5.923900 0.652600
-5.899000 0.831600
-5.874100 1.116800
-5.849100 1.361200
-5.824200 1.508700
-5.799300 1.522800
-5.774300 1.396400
-5.749400 1.288900
-5.724500 1.282800
-5.699500 1.271800
-5.674600 1.221200
-5.649700 1.198500
-5.624700 1.203100
-5.599800 1.170600
-5.574900 1.071500
-5.549900 0.924500
-5.525000 0.790600
-5.500100 0.730400
-5.475200 0.794100
-5.450200 1.049700
-5.425300 1.449500
-5.400400 1.832200
-5.375400 2.142200
-5.350500 2.274400
-5.325600 1.966400
-5.300600 1.324300
-5.275700 0.928600
-5.250800 1.105900
-5.225800 1.472700
-5.200900 1.433300
-5.176000 0.975900
-5.151000 0.580200
-5.126100 0.521500
-5.101200 0.685300
-5.076300 0.886000
-5.051300 1.112900
-5.026400 1.367000
-5.001500 1.459400
-4.976500 1.358500
-4.951600 1.356600
-4.926700 1.548000
-4.901700 1.682000
-4.876800 1.699700
-4.851900 1.864100
-4.826900 2.346500
-4.802000 2.920200
-4.777100 3.000800
-4.752100 2.417700
-4.727200 1.932200
-4.702300 2.197500
-4.677400 2.789800
-4.652400 2.897900
-4.627500 2.494500
-4.602600 2.216900
-4.577600 2.365200
-4.552700 2.706700
-4.527800 2.952100
-4.502800 2.935400
-4.477900 2.660800
-4.453000 2.390300
-4.428000 2.464400
-4.403100 2.829000
-4.378200 3.029700
-4.353300 2.892400
-4.328300 2.607100
-4.303400 2.332100
-4.278500 2.173200
-4.253500 2.015100
-4.228600 1.658700
-4.203700 1.344000
-4.178700 1.380800
-4.153800 1.652600
-4.128900 2.015000
-4.103900 2.517100
-4.079000 2.982100
-4.054100 3.074100
-4.029100 2.808700
-4.004200 2.523000
-3.979300 2.543600
-3.954400 2.969000
-3.929400 3.601400
-3.904500 4.193500
-3.879600 4.745600
-3.854600 5.274000
-3.829700 5.483500
-3.804800 5.214500
-3.779800 4.655300
-3.754900 3.937700
-3.730000 3.206800
-3.705000 2.630600
-3.680100 2.123800
-3.655200 1.531900
-3.630200 0.941700
-3.605300 0.593100
-3.580400 0.585700
-3.555500 0.739500
-3.530500 0.767900
-3.505600 0.572600
-3.480700 0.295300
-3.455700 0.104500
-3.430800 0.041000
-3.405900 0.100900
-3.380900 0.352600
-3.356000 0.852800
-3.331100 1.426900
-3.306100 1.720300
-3.281200 1.606000
-3.256300 1.311700
-3.231300 1.021800
-3.206400 0.698600
-3.181500 0.359400
-3.156600 0.126100
-3.131600 0.029200
-3.106700 0.008700
-3.081800 0.029000
-3.056800 0.116400
-3.031900 0.312600
-3.007000 0.572300
-2.982000 0.742100
-2.957100 0.714300
-2.932200 0.572700
-2.907200 0.521400
-2.882300 0.631300
-2.857400 0.745300
-2.832400 0.689500
-2.807500 0.472100
-2.782600 0.250700
-2.757700 0.151800
-2.732700 0.159100
-2.707800 0.183500
-2.682900 0.167000
-2.657900 0.111500
-2.633000 0.052300
-2.608100 0.016500
-2.583100 0.003400
-2.558200 0.000500
-2.533300 0.000000
-2.508300 0.000000
-2.483400 0.000000
-2.458500 0.000000
-2.433500 0.000000
-2.408600 0.000000
-2.383700 0.000000
-2.358800 0.000000
-2.333800 0.000000
-2.308900 0.000000
-2.284000 0.000000
-2.259000 0.000000
-2.234100 0.000000
-2.209200 0.000000
-2.184200 0.000000
-2.159300 0.000000
-2.134400 0.000000
-2.109400 0.000000
-2.084500 0.000000
-2.059600 0.000000
-2.034600 0.000000
-2.009700 0.000000
-1.984800 0.000000
-1.959900 0.000000
-1.934900 0.000000
-1.910000 0.000000
-1.885100 0.000000
-1.860100 0.000000
-1.835200 0.000000
-1.810300 0.000000
-1.785300 0.000000
-1.760400 0.000000
-1.735500 0.000000
-1.710500 0.000000
-1.685600 0.000000
-1.660700 0.000000
-1.635800 0.000000
-1.610800 0.000000
-1.585900 0.000000
-1.561000 0.000000
-1.536000 0.000000
-1.511100 0.000000
-1.486200 0.000000
-1.461200 0.000000
-1.436300 0.000000
-1.411400 0.000000
-1.386400 0.000000
-1.361500 0.000000
-1.336600 0.000000
-1.311600 0.000000
-1.286700 0.000000
-1.261800 0.000000
-1.236900 0.000000
-1.211900 0.000000
-1.187000 0.000000
-1.162100 0.000000
-1.137100 0.000000
-1.112200 0.000000
-1.087300 0.000000
-1.062300 0.000000
-1.037400 0.000000
-1.012500 0.000000
-0.987500 0.000000
-0.962600 0.000000
-0.937700 0.000000
-0.912700 0.000000
-0.887800 0.000000
-0.862900 0.000000
-0.838000 0.000000
-0.813000 0.000000
-0.788100 0.000000
-0.763200 0.000000
-0.738200 0.000000
-0.713300 0.000000
-0.688400 0.000000
-0.663400 0.000000
-0.638500 0.000000
-0.613600 0.000000
-0.588600 0.000000
-0.563700 0.000000
-0.538800 0.000000
-0.513800 0.000000
-0.488900 0.000000
-0.464000 0.000000
-0.439100 0.000000
-0.414100 0.000000
-0.389200 0.000000
-0.364300 0.000000
-0.339300 0.000000
-0.314400 0.000000
-0.289500 0.000000
-0.264500 0.000000
-0.239600 0.000000
-0.214700 0.000000
-0.189700 0.000000
-0.164800 0.000000
-0.139900 0.000000
-0.114900 0.000000
-0.090000 0.000000
-0.065100 0.000000
-0.040200 0.000000
-0.015200 0.000000
0.009700 0.000000
0.034600 0.000000
0.059600 0.000000
0.084500 0.000000
0.109400 0.000000
0.134400 0.000000
0.159300 0.000000
0.184200 0.000000
0.209200 0.000000
0.234100 0.000000
0.259000 0.000000
0.284000 0.000000
0.308900 0.000000
0.333800 0.000000
0.358700 0.000000
0.383700 0.000000
0.408600 0.000000
0.433500 0.000000
0.458500 0.000000
0.483400 0.000000
0.508300 0.000000
0.533300 0.000000
0.558200 0.000000
0.583100 0.000000
0.608100 0.000000
0.633000 0.000000
0.657900 0.000000
0.682800 0.000000
0.707800 0.000000
0.732700 0.000000
0.757600 0.000000
0.782600 0.000100
0.807500 0.001000
0.832400 0.005400
0.857400 0.018200
0.882300 0.040800
0.907200 0.066800
0.932200 0.090200
0.957100 0.102100
0.982000 0.086900
1.007000 0.056700
1.031900 0.061900
1.056800 0.157100
1.081700 0.330500
1.106700 0.450800
1.131600 0.431400
1.156500 0.430300
1.181500 0.623000
1.206400 0.855500
1.231300 0.852100
1.256300 0.682500
1.281200 0.600600
1.306100 0.576700
1.331100 0.458600
1.356000 0.338900
1.380900 0.390600
1.405900 0.605600
1.430800 0.893400
1.455700 1.194900
1.480600 1.397700
1.505600 1.398500
1.530500 1.290300
1.555400 1.274500
1.580400 1.395600
1.605300 1.571500
1.630200 1.759700
1.655200 1.842600
1.680100 1.762800
1.705000 1.777100
1.730000 2.045000
1.754900 2.320800
1.779800 2.446900
1.804800 2.594100
1.829700 2.795300
1.854600 2.866500
1.879500 2.772600
1.904500 2.718300
1.929400 3.057100
1.954300 3.823600
1.979300 4.450600
2.004200 4.517400
2.029100 4.165300
2.054100 3.596400
2.079000 2.941200
2.103900 2.368500
2.128900 1.988900
2.153800 1.857000
2.178700 1.991400
2.203700 2.248100
2.228600 2.346500
2.253500 2.181800
2.278400 1.984800
2.303400 1.973300
2.328300 2.026000
2.353200 1.950000
2.378200 1.895300
2.403100 2.157900
2.428000 2.635600
2.453000 2.841100
2.477900 2.621400
2.502800 2.351900
2.527800 2.185800
2.552700 2.001400
2.577600 1.944100
2.602600 2.178700
2.627500 2.551100
2.652400 2.784100
2.677300 2.702200
2.702300 2.421500
2.727200 2.290200
2.752100 2.360400
2.777100 2.290900
2.802000 1.955100
2.826900 1.616600
2.851900 1.541000
2.876800 1.856800
2.901700 2.448400
2.926700 2.936500
2.951600 3.165900
2.976500 3.336700
3.001500 3.518100
3.026400 3.520600
3.051300 3.222700
3.076200 2.810900
3.101200 2.528300
3.126100 2.386500
3.151000 2.327200
3.176000 2.374200
3.200900 2.504100
3.225800 2.553800
3.250800 2.480300
3.275700 2.485500
3.300600 2.668300
3.325600 2.937600
3.350500 3.304900
3.375400 3.778600
3.400300 4.087700
3.425300 4.040700
3.450200 3.854200
3.475100 3.647600
3.500100 3.225600
3.525000 2.635300
3.549900 2.204800
3.574900 2.043500
3.599800 1.992400
3.624700 1.944100
3.649700 1.964600
3.674600 2.145100
3.699500 2.481200
3.724500 2.853000
3.749400 3.082500
3.774300 3.064700
3.799200 2.810400
3.824200 2.395700
3.849100 2.053000
3.874000 2.057400
3.899000 2.301200
3.923900 2.497500
3.948800 2.625400
3.973800 2.681800
3.998700 2.504000
4.023600 2.093100
4.048600 1.708800
4.073500 1.530600
4.098400 1.534000
4.123400 1.687000
4.148300 1.995400
4.173200 2.361300
4.198100 2.591500
4.223100 2.640800
4.248000 2.604800
4.272900 2.561400
4.297900 2.561900
4.322800 2.629100
4.347700 2.744700
4.372700 2.859000
4.397600 2.897700
4.422500 2.783900
4.447500 2.511900
4.472400 2.152500
4.497300 1.813500
4.522300 1.603700
4.547200 1.578100
4.572100 1.732100
4.597000 1.929600
4.622000 1.969800
4.646900 1.886800
4.671800 1.972700
4.696800 2.346900
4.721700 2.767100
4.746600 2.967500
4.771600 2.905500
4.796500 2.721800
4.821400 2.643300
4.846400 2.807500
4.871300 3.150800
4.896200 3.534600
4.921200 3.804200
4.946100 3.788500
4.971000 3.501100
4.995900 3.187300
5.020900 3.034600
5.045800 3.020100
5.070700 2.974300
5.095700 2.702800
5.120600 2.208800
5.145500 1.761300
5.170500 1.614800
5.195400 1.661700
5.220300 1.670000
5.245300 1.698600
5.270200 1.842500
5.295100 1.991600
5.320100 2.066900
5.345000 2.177900
5.369900 2.525000
5.394800 3.119600
5.419800 3.665200
5.444700 3.790500
5.469600 3.323900
5.494600 2.439800
5.519500 1.595100
5.544400 1.181700
5.569400 1.233800
5.594300 1.534300
5.619200 1.863900
5.644200 2.037800
5.669100 1.971700
5.694000 1.917200
5.718900 2.213600
5.743900 2.684900
5.768800 2.824000
5.793700 2.515700
5.818700 2.191200
5.843600 2.300100
5.868500 2.758600
5.893500 3.085500
5.918400 3.048800
5.943300 2.834700
5.968300 2.563200
5.993200 2.218100
6.018100 2.031700
6.043100 2.194300
6.068000 2.396700
6.092900 2.312600
6.117800 2.127200
6.142800 2.186600
6.167700 2.497600
6.192600 2.822000
6.217600 2.966300
6.242500 2.951900
6.267400 3.018700
6.292400 3.169900
6.317300 3.116300
6.342200 2.870300
6.367200 2.685000
6.392100 2.604500
6.417000 2.563600
6.442000 2.529100
6.466900 2.554200
6.491800 2.800000
6.516700 3.134900
6.541700 3.129300
6.566600 2.736200
6.591500 2.342400
6.616500 2.207300
6.641400 2.333500
6.666300 2.608000
6.691300 2.745900
6.716200 2.480900
6.741100 2.003400
6.766100 1.638800
6.791000 1.341300
6.815900 1.078700
6.840900 1.042700
6.865800 1.237000
6.890700 1.423500
6.915600 1.421700
6.940600 1.311400
6.965500 1.342100
6.990400 1.616700
7.015400 1.994700
7.040300 2.350800
7.065200 2.665100
7.090200 2.823400
7.115100 2.696400
7.140000 2.405100
7.165000 2.225300
7.189900 2.247000
7.214800 2.364900
7.239800 2.455300
7.264700 2.408500
7.289600 2.220700
7.314500 2.101700
7.339500 2.228400
7.364400 2.489900
7.389300 2.695600
7.414300 2.876100
7.439200 3.096900
7.464100 3.144500
7.489100 2.825600
7.514000 2.323200
7.538900 1.829700
7.563900 1.349000
7.588800 1.040400
7.613700 1.103600
7.638700 1.441800
7.663600 1.890700
7.688500 2.418800
7.713400 3.009600
7.738400 3.606300
7.763300 3.944400
7.788200 3.772200
7.813200 3.347500
7.838100 3.122100
7.863000 3.241900
7.888000 3.599800
7.912900 3.961800
7.937800 4.073600
7.962800 3.919500
7.987700 3.731800
8.012600 3.670800
8.037600 3.825700
8.062500 4.267700
8.087400 4.658700
8.112300 4.596000
8.137300 4.328400
8.162200 4.240400
8.187100 4.235500
8.212100 4.059600
8.237000 3.697000
8.261900 3.407200
8.286900 3.450500
8.311800 3.776200
8.336700 4.048700
8.361700 4.090300
8.386600 4.101500
8.411500 4.220800
8.436400 4.320800
8.461400 4.362900
8.486300 4.443200
8.511200 4.514700
8.536200 4.509100
8.561100 4.609100
8.586000 5.015100
8.611000 5.524000
8.635900 5.727400
8.660800 5.717400
8.685800 5.984100
8.710700 6.442100
8.735600 6.453300
8.760600 5.830300
8.785500 4.952200
8.810400 4.146700
8.835300 3.593500
8.860300 3.515700
8.885200 4.047500
8.910100 5.013100
8.935100 6.037800
8.960000 6.805000
8.984900 7.173800
9.009900 7.138500
9.034800 6.801500
9.059700 6.425300
9.084700 6.266700
9.109600 6.305800
9.134500 6.315800
9.159500 6.235000
9.184400 6.218700
9.209300 6.313500
9.234200 6.286500
9.259200 5.807100
9.284100 5.039700
9.309000 4.680100
9.334000 4.902600
9.358900 5.137800
9.383800 5.051000
9.408800 4.856400
9.433700 4.795000
9.458600 4.776700
9.483600 4.654800
9.508500 4.624900
9.533400 4.927600
9.558400 5.416000
9.583300 5.608900
9.608200 5.092500
9.633100 3.990400
9.658100 2.898500
9.683000 2.424200
9.707900 2.862100
9.732900 3.872400
9.757800 4.666100
9.782700 4.833000
9.807700 4.584200
9.832600 4.333000
9.857500 4.354700
9.882500 4.673400
9.907400 5.011200
9.932300 4.902000
9.957300 4.322000
9.982200 3.882600
10.007100 3.990500
10.032000 4.280500
10.057000 4.223400
10.081900 3.955500
10.106800 3.971800
10.131800 4.198800
10.156700 4.100200
10.181600 3.622200
10.206600 3.295400
10.231500 3.465100
10.256400 3.875500
10.281400 4.020400
10.306300 3.823200
10.331200 3.641300
10.356200 3.513300
10.381100 3.120000
10.406000 2.517600
10.430900 2.159000
10.455900 2.272100
10.480800 2.663800
10.505700 3.034100
10.530700 3.141400
10.555600 2.852500
10.580500 2.348500
10.605500 1.985100
10.630400 1.848500
10.655300 1.689400
10.680300 1.381600
10.705200 1.136300
10.730100 1.097000
10.755000 1.175000
10.780000 1.329900
10.804900 1.624800
10.829800 2.043200
10.854800 2.485800
10.879700 2.875300
10.904600 3.085800
10.929600 2.962000
10.954500 2.526300
10.979400 1.958400
11.004400 1.418500
11.029300 1.020900
11.054200 0.824400
11.079200 0.886100
11.104100 1.294300
11.129000 1.960200
11.153900 2.537600
11.178900 2.756200
11.203800 2.721500
11.228700 2.684300
11.253700 2.755700
11.278600 2.897800
11.303500 2.834800
11.328500 2.308800
11.353400 1.572600
11.378300 1.118600
11.403300 1.108400
11.428200 1.337700
11.453100 1.555500
11.478100 1.725000
11.503000 1.885700
11.527900 1.938800
11.552800 1.858000
11.577800 1.874400
11.602700 2.106900
11.627600 2.346100
11.652600 2.467300
11.677500 2.534700
11.702400 2.504400
11.727400 2.279000
11.752300 1.878300
11.777200 1.461800
11.802200 1.297300
11.827100 1.531100
11.852000 1.973200
11.877000 2.305500
11.901900 2.392100
11.926800 2.207200
11.951700 1.812600
11.976700 1.546800
12.001600 1.726900
12.026500 2.143000
12.051500 2.263300
12.076400 1.961000
12.101300 1.633200
12.126300 1.554500
12.151200 1.566900
12.176100 1.473100
12.201100 1.410800
12.226000 1.609300
12.250900 1.957800
12.275900 2.155300
12.300800 2.127400
12.325700 2.072900
12.350600 2.229100
12.375600 2.568300
12.400500 2.804900
12.425400 2.877900
12.450400 2.898500
12.475300 2.744500
12.500200 2.404000
12.525200 2.222200
12.550100 2.380900
12.575000 2.506600
12.600000 2.139000
12.624900 1.456200
12.649800 0.976300
12.674800 0.839700
12.699700 0.952600
12.724600 1.301600
12.749500 1.711600
12.774500 1.843500
12.799400 1.635500
12.824300 1.337700
12.849300 1.157300
12.874200 1.100100
12.899100 1.175500
12.924100 1.493400
12.949000 1.952400
12.973900 2.184100
12.998900 1.985700
13.023800 1.590900
13.048700 1.403400
13.073700 1.554100
13.098600 1.822700
13.123500 1.883100
13.148400 1.615900
13.173400 1.267600
13.198300 1.110000
13.223200 1.027800
13.248200 0.824600
13.273100 0.614300
13.298000 0.585500
13.323000 0.768100
13.347900 1.077600
13.372800 1.422700
13.397800 1.828700
13.422700 2.345200
13.447600 2.794000
13.472500 2.943300
13.497500 2.810400
13.522400 2.497000
13.547300 2.184000
13.572300 2.168800
13.597200 2.444100
13.622100 2.623700
13.647100 2.455400
13.672000 2.075800
13.696900 1.818800
13.721900 1.918500
13.746800 2.257300
13.771700 2.471000
13.796700 2.431800
13.821600 2.343400
13.846500 2.350800
13.871400 2.395200
13.896400 2.389300
13.921300 2.304900
13.946200 2.211400
13.971200 2.256300
13.996100 2.444900
14.021000 2.650700
14.046000 2.829800
14.070900 2.915500
14.095800 2.869000
14.120800 2.847600
14.145700 2.865700
14.170600 2.689300
14.195600 2.382500
14.220500 2.427600
14.245400 2.930600
14.270300 3.337700
14.295300 3.371100
14.320200 3.405300
14.345100 3.656200
14.370100 3.912400
14.395000 4.121700
14.419900 4.451400
14.444900 4.856200
14.469800 5.015400
14.494700 4.713600
14.519700 4.220100
14.544600 4.071300
14.569500 4.425100
14.594500 4.939500
14.619400 5.379300
14.644300 5.766500
14.669200 5.998500
14.694200 5.978800
14.719100 5.748500
14.744000 5.312300
14.769000 4.773100
14.793900 4.456800
14.818800 4.612800
14.843800 5.075900
14.868700 5.501100
14.893600 5.738700
14.918600 5.549600
14.943500 4.774000
14.968400 3.962700
14.993400 3.743900
15.018300 4.092700
15.043200 4.766800
15.068100 5.511200
15.093100 5.815700
15.118000 5.387300
15.142900 4.655300
15.167900 4.242600
15.192800 4.303100
15.217700 4.639300
15.242700 5.016100
15.267600 5.175300
15.292500 4.947700
15.317500 4.557500
15.342400 4.310200
15.367300 4.069900
15.392300 3.684800
15.417200 3.475800
15.442100 3.758500
15.467000 4.239000
15.492000 4.398000
15.516900 4.296500
15.541800 4.393100
15.566800 4.731100
15.591700 5.049000
15.616600 5.280000
15.641600 5.383200
15.666500 5.280600
15.691400 4.927100
15.716400 4.267600
15.741300 3.515200
15.766200 2.986400
15.791100 2.713600
15.816100 2.613600
15.841000 2.680000
15.865900 3.004200
15.890900 3.627700
15.915800 4.326700
15.940700 4.714500
15.965700 4.535700
15.990600 3.921100
16.015500 3.204300
16.040500 2.615600
16.065400 2.290600
16.090300 2.117600
16.115300 1.855600
16.140200 1.595500
16.165100 1.671000
16.190000 2.141200
16.215000 2.727600
16.239900 3.196600
16.264800 3.412200
16.289800 3.303000
16.314700 3.041100
16.339600 2.871400
16.364600 2.934200
16.389500 3.293800
16.414400 3.803300
16.439400 4.185300
16.464300 4.332000
16.489200 4.330900
16.514200 4.261100
16.539100 4.040800
16.564000 3.586500
16.588900 3.089000
16.613900 2.895600
16.638800 3.100600
16.663700 3.331900
16.688700 3.211700
16.713600 2.944200
16.738500 2.978800
16.763500 3.443100
16.788400 4.124000
16.813300 4.634900
16.838300 4.751400
16.863200 4.678600
16.888100 4.690500
16.913100 4.743800
16.938000 4.777200
16.962900 4.984600
16.987800 5.440200
17.012800 5.731700
17.037700 5.483300
17.062600 4.956800
17.087600 4.554200
17.112500 4.337800
17.137400 4.172300
17.162400 3.869800
17.187300 3.557200
17.212200 3.687000
17.237200 4.340600
17.262100 4.872200
17.287000 4.571400
17.312000 3.677800
17.336900 3.119100
17.361800 3.223500
17.386700 3.487600
17.411700 3.566500
17.436600 3.590400
17.461500 3.562900
17.486500 3.456400
17.511400 3.533100
17.536300 3.937700
17.561300 4.463400
17.586200 4.757600
17.611100 4.702500
17.636100 4.640800
17.661000 4.901700
17.685900 5.342400
17.710900 5.564500
17.735800 5.295100
17.760700 4.667400
17.785600 4.198100
17.810600 4.202300
17.835500 4.462800
17.860400 4.664200
17.885400 4.641200
17.910300 4.318700
17.935200 3.779100
17.960200 3.338200
17.985100 3.440100
18.010000 4.140500
18.035000 4.961200
18.059900 5.315900
18.084800 4.851400
18.109800 3.855800
18.134700 3.103500
18.159600 3.091000
18.184500 3.652800
18.209500 4.158100
18.234400 4.173700
18.259300 3.937900
18.284300 3.848000
18.309200 3.838600
18.334100 3.606300
18.359100 3.155400
18.384000 2.901300
18.408900 3.144400
18.433900 3.702700
18.458800 4.209900
18.483700 4.434400
18.508600 4.240300
18.533600 3.652600
18.558500 3.003700
18.583400 2.678100
18.608400 2.823800
18.633300 3.349700
18.658200 3.928100
18.683200 4.260300
18.708100 4.385300
18.733000 4.404500
18.758000 4.286400
18.782900 4.035900
18.807800 3.758400
18.832800 3.587000
18.857700 3.420400
18.882600 3.015800
18.907500 2.587800
18.932500 2.642100
18.957400 3.129500
18.982300 3.414800
19.007300 3.154400
19.032200 2.704300
19.057100 2.612900
19.082100 3.004100
19.107000 3.409600
19.131900 3.397000
19.156900 3.210200
19.181800 3.287500
19.206700 3.549700
19.231700 3.554600
19.256600 3.147300
19.281500 2.717100
19.306400 2.673600
19.331400 2.888500
19.356300 2.937800
19.381200 2.794700
19.406200 2.985300
19.431100 3.744900
19.456000 4.369600
19.481000 4.271400
19.505900 3.916200
19.530800 3.885400
19.555800 4.106000
19.580700 4.194600
19.605600 3.970600
19.630600 3.710200
19.655500 3.854200
19.680400 4.339700
19.705300 4.556900
19.730300 4.209800
19.755200 3.732100
19.780100 3.605100
19.805100 3.842200
19.830000 4.325300
19.854900 5.078700
19.879900 5.904500
19.904800 6.186200
19.929700 5.515300
19.954700 4.354600
19.979600 3.566200
20.004500 3.372600
20.029500 3.440300
20.054400 3.575800
20.079300 3.771900
20.104200 4.180800
20.129200 4.842600
20.154100 5.092300
20.179000 4.387900
20.204000 3.474100
20.228900 3.400800
20.253800 4.058700
20.278800 4.589200
20.303700 4.602100
20.328600 4.363700
20.353600 4.296000
20.378500 4.738700
20.403400 5.694700
20.428400 6.580300
20.453300 6.648600
20.478200 5.782600
20.503100 4.689700
20.528100 4.173300
20.553000 4.236100
20.577900 4.312800
20.602900 4.300800
20.627800 4.561300
20.652700 4.991900
20.677700 5.027900
20.702600 4.756900
20.727500 4.924700
20.752500 5.498500
20.777400 5.568100
20.802300 4.878600
20.827200 4.228300
20.852200 4.319300
20.877100 4.940100
20.902000 5.300800
20.927000 5.035500
20.951900 4.614700
20.976800 4.592800
21.001800 4.956300
21.026700 5.449100
21.051600 5.897600
21.076600 6.072200
21.101500 5.726400
21.126400 4.893300
21.151400 4.063400
21.176300 3.971200
21.201200 4.771900
21.226100 5.745300
21.251100 6.210200
21.276000 6.126300
21.300900 5.733400
21.325900 5.153400
21.350800 4.508000
21.375700 4.182100
21.400700 4.445500
21.425600 4.970600
21.450500 5.191200
21.475500 4.983900
21.500400 4.752400
21.525300 4.899000
21.550300 5.380300
21.575200 5.735700
21.600100 5.671900
21.625000 5.431900
21.650000 5.280400
21.674900 5.259600
21.699800 5.471000
21.724800 5.775800
21.749700 5.743400
21.774600 5.415600
21.799600 5.281700
21.824500 5.472900
21.849400 5.749200
21.874400 5.781300
21.899300 5.355100
21.924200 4.711800
21.949200 4.306500
21.974100 4.264800
21.999000 4.488900
22.023900 4.985800
22.048900 5.695400
22.073800 6.354600
22.098700 6.642700
22.123700 6.457600
22.148600 6.110300
22.173500 5.952800
22.198500 5.902400
22.223400 5.649500
22.248300 5.322600
22.273300 5.447400
22.298200 5.855000
22.323100 5.654400
22.348100 4.820500
22.373000 4.417400
22.397900 4.857200
22.422800 5.383200
22.447800 5.456100
22.472700 5.392900
22.497600 5.413900
22.522600 5.180700
22.547500 4.666400
22.572400 4.436900
22.597400 4.907500
22.622300 5.870500
22.647200 6.564100
22.672200 6.394600
22.697100 5.590800
22.722000 4.824300
22.747000 4.606600
22.771900 4.984900
22.796800 5.374700
22.821700 5.205500
22.846700 4.802400
22.871600 4.758000
22.896500 4.896500
22.921500 4.880700
22.946400 4.865600
22.971300 4.895700
22.996300 4.795100
23.021200 4.642300
23.046100 4.619400
23.071100 4.752600
23.096000 4.925300
23.120900 4.969800
23.145900 4.795800
23.170800 4.501100
23.195700 4.376400
23.220600 4.506200
23.245600 4.632700
23.270500 4.519600
23.295400 4.151800
23.320400 3.737300
23.345300 3.497400
23.370200 3.442000
23.395200 3.546200
23.420100 4.094100
23.445000 5.319900
23.470000 6.649400
23.494900 7.366200
23.519800 7.639300
23.544700 7.763600
23.569700 7.553400
23.594600 6.962700
23.619500 6.253500
23.644500 5.783300
23.669400 5.814300
23.694300 6.082000
23.719300 6.030800
23.744200 5.737300
23.769100 5.679800
23.794100 5.575900
23.819000 4.902500
23.843900 4.032500
23.868900 3.673000
23.893800 4.059300
23.918700 5.035900
23.943600 6.203300
23.968600 6.914700
23.993500 6.616400
24.018400 5.631900
24.043400 4.950600
24.068300 4.855600
24.093200 4.867800
24.118200 4.852800
24.143100 4.930900
24.168000 4.939800
24.193000 4.854000
24.217900 4.865800
24.242800 4.899100
24.267800 4.765900
24.292700 4.593700
24.317600 4.690500
24.342500 5.133000
24.367500 5.558200
24.392400 5.415500
24.417300 4.659900
24.442300 3.952300
24.467200 3.796300
24.492100 4.017200
24.517100 4.289900
24.542000 4.409500
24.566900 4.217300
24.591900 3.840700
24.616800 3.604900
24.641700 3.593000
24.666700 3.699800
24.691600 3.799400
24.716500 3.677200
24.741400 3.279600
24.766400 2.960200
24.791300 3.055700
24.816200 3.458500
24.841200 3.773500
24.866100 3.653700
24.891000 3.141400
24.916000 2.732500
24.940900 2.696900
24.965800 2.647500
24.990800 2.261200
25.015700 1.806500
25.040600 1.584700
25.065600 1.501000
25.090500 1.369200
25.115400 1.207100
25.140300 1.163900
25.165300 1.285700
25.190200 1.398100
25.215100 1.401400
25.240100 1.448300
25.265000 1.561700
25.289900 1.535500
25.314900 1.296900
25.339800 1.015000
25.364700 0.894100
25.389700 0.948900
25.414600 1.013300
25.439500 0.963100
25.464500 0.885700
25.489400 0.950500
25.514300 1.082700
25.539200 1.037300
25.564200 0.781900
25.589100 0.496700
25.614000 0.321100
25.639000 0.253000
25.663900 0.228200
25.688800 0.227700
25.713800 0.244100
25.738700 0.261100
25.763600 0.286000
25.788600 0.306700
25.813500 0.289300
25.838400 0.247700
25.863300 0.266500
25.888300 0.390900
25.913200 0.508800
25.938100 0.490700
25.963100 0.392600
25.988000 0.334200
26.012900 0.316800
26.037900 0.302200
26.062800 0.298400
26.087700 0.291500
26.112700 0.240200
26.137600 0.150900
26.162500 0.069000
26.187500 0.022000
26.212400 0.004700
26.237300 0.000600
26.262200 0.000100
26.287200 0.000000
26.312100 0.000000
26.337000 0.000000
26.362000 0.000000
26.386900 0.000000
26.411800 0.000000
26.436800 0.000100
26.461700 0.001000
26.486600 0.006300
26.511600 0.025700
26.536500 0.066800
26.561400 0.115800
26.586400 0.141400
26.611300 0.128800
26.636200 0.089700
26.661100 0.047800
26.686100 0.025200
26.711000 0.028000
26.735900 0.041300
26.760900 0.042500
26.785800 0.027500
26.810700 0.011100
26.835700 0.002800
26.860600 0.000400
26.885500 0.000000
26.910500 0.000000
26.935400 0.000000
26.960300 0.000000
26.985300 0.000000
27.010200 0.000000
27.035100 0.000000
27.060000 0.000000
27.085000 0.000000
27.109900 0.000000
27.134800 0.000000
27.159800 0.000000
27.184700 0.000000
27.209600 0.000000
27.234600 0.000000
27.259500 0.000000
27.284400 0.000000
27.309400 0.000000
27.334300 0.000000
27.359200 0.000000
27.384200 0.000000
27.409100 0.000000
27.434000 0.000000
27.458900 0.000000
27.483900 0.000000
27.508800 0.000000
27.533700 0.000000
27.558700 0.000000
27.583600 0.000000
27.608500 0.000000
27.633500 0.000000
27.658400 0.000000
27.683300 0.000000
27.708300 0.000000
27.733200 0.000000
27.758100 0.000000
27.783100 0.000000
27.808000 0.000000
27.832900 0.000000
27.857800 0.000000
27.882800 0.000000
27.907700 0.000000
27.932600 0.000000
27.957600 0.000000
27.982500 0.000000
28.007400 0.000000
28.032400 0.000000
28.057300 0.000000
28.082200 0.000000
28.107200 0.000000
28.132100 0.000000
28.157000 0.000000
28.182000 0.000000
28.206900 0.000000
28.231800 0.000000
28.256700 0.000000
28.281700 0.000000
28.306600 0.000000
28.331500 0.000000
28.356500 0.000000
28.381400 0.000000
28.406300 0.000000
28.431300 0.000000
28.456200 0.000000
28.481100 0.000000
28.506100 0.000000
28.531000 0.000000
28.555900 0.000000
28.580800 0.000000
28.605800 0.000000
28.630700 0.000000
28.655600 0.000000
28.680600 0.000000
28.705500 0.000000
28.730400 0.000000
28.755400 0.000000
28.780300 0.000000
28.805200 0.000000
28.830200 0.000000
28.855100 0.000000
28.880000 0.000000
28.905000 0.000000
28.929900 0.000000
28.954800 0.000000
28.979700 0.000000
29.004700 0.000000
e
