set title 'mp-571037 - Density of States'
set xlabel 'Energy (eV)'
set ylabel 'DOS (states/eV)'
set grid
set xrange [-10:10]
set yrange [0:903.766]
set xzeroaxis lt -1
set terminal png size 800,600
set output 'mp-571037_dos_gnuplot.png'
plot '-' using 1:2 with lines title 'DOS'
-11.978500 0.000000
-11.965600 0.000000
-11.952600 0.000000
-11.939600 0.000000
-11.926700 0.000000
-11.913700 0.000000
-11.900800 0.000000
-11.887800 0.000000
-11.874800 0.000000
-11.861900 0.000000
-11.848900 0.000000
-11.835900 0.000000
-11.823000 0.000000
-11.810000 0.000000
-11.797000 0.000000
-11.784100 0.000000
-11.771100 0.000000
-11.758100 0.000000
-11.745200 0.000000
-11.732200 0.000000
-11.719300 0.000000
-11.706300 0.000000
-11.693300 0.000000
-11.680400 0.000000
-11.667400 0.000000
-11.654400 0.000000
-11.641500 0.000000
-11.628500 0.000000
-11.615500 0.000000
-11.602600 0.000000
-11.589600 0.000000
-11.576700 0.000000
-11.563700 0.000000
-11.550700 0.000000
-11.537800 0.000000
-11.524800 0.000000
-11.511800 0.000000
-11.498900 0.000000
-11.485900 0.000000
-11.472900 0.000000
-11.460000 0.000000
-11.447000 0.000000
-11.434100 0.000000
-11.421100 0.000000
-11.408100 0.000000
-11.395200 0.000000
-11.382200 0.000000
-11.369200 0.000000
-11.356300 0.000000
-11.343300 0.000000
-11.330300 0.000000
-11.317400 0.000000
-11.304400 0.000000
-11.291500 0.000000
-11.278500 0.000000
-11.265500 0.000000
-11.252600 0.000000
-11.239600 0.000000
-11.226600 0.000000
-11.213700 0.000000
-11.200700 0.000000
-11.187700 0.000000
-11.174800 0.000000
-11.161800 0.000000
-11.148900 0.000000
-11.135900 0.000000
-11.122900 0.000000
-11.110000 0.000000
-11.097000 0.000000
-11.084000 0.000000
-11.071100 0.000000
-11.058100 0.000000
-11.045100 0.000000
-11.032200 0.000000
-11.019200 0.000000
-11.006200 0.000000
-10.993300 0.000000
-10.980300 0.000000
-10.967400 0.000000
-10.954400 0.000000
-10.941400 0.000000
-10.928500 0.000000
-10.915500 0.000000
-10.902500 0.000000
-10.889600 0.000000
-10.876600 0.000000
-10.863600 0.000000
-10.850700 0.000000
-10.837700 0.000000
-10.824800 0.000000
-10.811800 0.000000
-10.798800 0.041100
-10.785900 0.687000
-10.772900 2.057900
-10.759900 3.623900
-10.747000 5.949400
-10.734000 8.592900
-10.721000 11.903400
-10.708100 13.736700
-10.695100 13.547800
-10.682200 15.678000
-10.669200 14.551100
-10.656200 13.220300
-10.643300 13.687900
-10.630300 14.155600
-10.617300 14.623200
-10.604400 15.090900
-10.591400 15.558500
-10.578400 16.026200
-10.565500 16.504600
-10.552500 17.035100
-10.539600 17.588400
-10.526600 18.207700
-10.513600 18.877900
-10.500700 19.592300
-10.487700 20.306300
-10.474700 21.014400
-10.461800 21.715900
-10.448800 22.403500
-10.435800 23.091100
-10.422900 23.778700
-10.409900 24.466400
-10.397000 25.154000
-10.384000 25.841600
-10.371000 26.529300
-10.358100 30.602800
-10.345100 40.449500
-10.332100 59.550700
-10.319200 64.174300
-10.306200 96.562500
-10.293200 102.821900
-10.280300 119.162800
-10.267300 128.661900
-10.254300 146.340800
-10.241400 250.105900
-10.228400 233.762300
-10.215500 208.936400
-10.202500 0.000000
-10.189500 0.000000
-10.176600 0.000000
-10.163600 0.000000
-10.150600 0.000000
-10.137700 0.000000
-10.124700 0.000000
-10.111700 0.000000
-10.098800 0.000000
-10.085800 0.000000
-10.072900 0.000000
-10.059900 0.000000
-10.046900 0.000000
-10.034000 0.000000
-10.021000 0.000000
-10.008000 0.000000
-9.995100 0.000000
-9.982100 0.000000
-9.969100 0.000000
-9.956200 0.000000
-9.943200 0.000000
-9.930300 0.000000
-9.917300 0.000000
-9.904300 0.000000
-9.891400 0.000000
-9.878400 0.000000
-9.865400 0.000000
-9.852500 0.000000
-9.839500 0.000000
-9.826500 0.000000
-9.813600 0.000000
-9.800600 0.000000
-9.787700 0.000000
-9.774700 0.000000
-9.761700 0.000000
-9.748800 0.000000
-9.735800 0.000000
-9.722800 0.000000
-9.709900 0.000000
-9.696900 0.000000
-9.683900 0.000000
-9.671000 0.000000
-9.658000 0.000000
-9.645100 0.000000
-9.632100 0.000000
-9.619100 0.000000
-9.606200 0.000000
-9.593200 0.000000
-9.580200 0.000000
-9.567300 0.000000
-9.554300 0.000000
-9.541300 0.000000
-9.528400 0.000000
-9.515400 0.000000
-9.502400 0.000000
-9.489500 0.000000
-9.476500 0.000000
-9.463600 0.000000
-9.450600 0.000000
-9.437600 0.000000
-9.424700 0.000000
-9.411700 0.000000
-9.398700 0.000000
-9.385800 0.000000
-9.372800 0.000000
-9.359800 0.000000
-9.346900 0.000000
-9.333900 0.000000
-9.321000 0.000000
-9.308000 0.000000
-9.295000 0.000000
-9.282100 0.000000
-9.269100 0.000000
-9.256100 0.000000
-9.243200 0.000000
-9.230200 0.000000
-9.217200 0.000000
-9.204300 0.000000
-9.191300 0.000000
-9.178400 0.000000
-9.165400 0.000000
-9.152400 0.000000
-9.139500 0.000000
-9.126500 0.000000
-9.113500 0.000000
-9.100600 0.000000
-9.087600 0.000000
-9.074600 0.000000
-9.061700 0.000000
-9.048700 0.000000
-9.035800 0.000000
-9.022800 0.000000
-9.009800 0.000000
-8.996900 0.000000
-8.983900 0.000000
-8.970900 0.000000
-8.958000 0.000000
-8.945000 0.000000
-8.932000 0.000000
-8.919100 0.000000
-8.906100 0.000000
-8.893200 0.000000
-8.880200 0.000000
-8.867200 0.000000
-8.854300 0.000000
-8.841300 0.000000
-8.828300 0.000000
-8.815400 0.000000
-8.802400 0.000000
-8.789400 0.000000
-8.776500 0.000000
-8.763500 0.000000
-8.750500 0.000000
-8.737600 0.000000
-8.724600 0.000000
-8.711700 0.000000
-8.698700 0.000000
-8.685700 0.000000
-8.672800 0.000000
-8.659800 0.000000
-8.646800 0.000000
-8.633900 0.000000
-8.620900 0.000000
-8.607900 0.000000
-8.595000 0.000000
-8.582000 0.000000
-8.569100 0.000000
-8.556100 0.000000
-8.543100 0.000000
-8.530200 0.000000
-8.517200 0.000000
-8.504200 0.000000
-8.491300 0.000000
-8.478300 0.000000
-8.465300 0.000000
-8.452400 0.000000
-8.439400 0.000000
-8.426500 0.000000
-8.413500 0.000000
-8.400500 0.000000
-8.387600 0.000000
-8.374600 0.000000
-8.361600 0.000000
-8.348700 0.000000
-8.335700 0.000000
-8.322700 0.000000
-8.309800 0.000000
-8.296800 0.000000
-8.283900 0.000000
-8.270900 0.000000
-8.257900 0.000000
-8.245000 0.000000
-8.232000 0.000000
-8.219000 0.000000
-8.206100 0.000000
-8.193100 0.000000
-8.180100 0.000000
-8.167200 0.000000
-8.154200 0.000000
-8.141300 0.000000
-8.128300 0.000000
-8.115300 0.000000
-8.102400 0.000000
-8.089400 0.000000
-8.076400 0.000000
-8.063500 0.000000
-8.050500 0.000000
-8.037500 0.000000
-8.024600 0.000000
-8.011600 0.000000
-7.998600 0.000000
-7.985700 0.000000
-7.972700 0.000000
-7.959800 0.000000
-7.946800 0.000000
-7.933800 0.000000
-7.920900 0.000000
-7.907900 0.000000
-7.894900 0.000000
-7.882000 0.000000
-7.869000 0.000000
-7.856000 0.000000
-7.843100 0.000000
-7.830100 0.000000
-7.817200 0.000000
-7.804200 0.000000
-7.791200 0.000000
-7.778300 0.000000
-7.765300 0.000000
-7.752300 0.000000
-7.739400 0.000000
-7.726400 0.000000
-7.713400 0.000000
-7.700500 0.000000
-7.687500 0.000000
-7.674600 0.000000
-7.661600 0.000000
-7.648600 0.000000
-7.635700 0.000000
-7.622700 0.000000
-7.609700 0.000000
-7.596800 0.000000
-7.583800 0.000000
-7.570800 0.000000
-7.557900 0.000000
-7.544900 0.000000
-7.532000 0.000000
-7.519000 0.000000
-7.506000 0.000000
-7.493100 0.000000
-7.480100 0.000000
-7.467100 0.000000
-7.454200 0.000000
-7.441200 0.000000
-7.428200 0.000000
-7.415300 0.000000
-7.402300 0.000000
-7.389400 0.000000
-7.376400 0.000000
-7.363400 0.000000
-7.350500 0.000000
-7.337500 0.000000
-7.324500 0.000000
-7.311600 0.000000
-7.298600 0.000000
-7.285600 0.000000
-7.272700 0.000000
-7.259700 0.000000
-7.246700 0.000000
-7.233800 0.000000
-7.220800 0.000000
-7.207900 0.000000
-7.194900 0.000000
-7.181900 0.000000
-7.169000 0.000000
-7.156000 0.000000
-7.143000 0.000000
-7.130100 0.000000
-7.117100 0.000000
-7.104100 0.000000
-7.091200 0.000000
-7.078200 0.000000
-7.065300 0.000000
-7.052300 0.000000
-7.039300 0.000000
-7.026400 0.000000
-7.013400 0.000000
-7.000400 0.000000
-6.987500 0.000000
-6.974500 0.000000
-6.961500 0.000000
-6.948600 0.000000
-6.935600 0.000000
-6.922700 0.000000
-6.909700 0.000000
-6.896700 0.000000
-6.883800 0.000000
-6.870800 0.000000
-6.857800 0.000000
-6.844900 0.000000
-6.831900 0.000000
-6.818900 0.000000
-6.806000 0.000000
-6.793000 0.000000
-6.780100 0.000000
-6.767100 0.000000
-6.754100 0.000000
-6.741200 0.000000
-6.728200 0.000000
-6.715200 0.000000
-6.702300 0.000000
-6.689300 0.000000
-6.676300 0.000000
-6.663400 0.000000
-6.650400 0.000000
-6.637500 0.000000
-6.624500 0.000000
-6.611500 0.000000
-6.598600 0.000000
-6.585600 0.000000
-6.572600 0.000000
-6.559700 0.000000
-6.546700 0.000000
-6.533700 0.000000
-6.520800 0.000000
-6.507800 4.116000
-6.494800 112.786300
-6.481900 193.857800
-6.468900 344.979900
-6.456000 245.465900
-6.443000 128.623900
-6.430000 110.090000
-6.417100 104.343100
-6.404100 189.556900
-6.391100 377.872000
-6.378200 271.790300
-6.365200 188.752200
-6.352200 95.070500
-6.339300 152.850900
-6.326300 821.605100
-6.313400 351.697800
-6.300400 223.702000
-6.287400 446.158500
-6.274500 77.122800
-6.261500 149.744600
-6.248500 104.936600
-6.235600 89.328500
-6.222600 73.720300
-6.209600 80.058000
-6.196700 0.000000
-6.183700 0.000000
-6.170800 0.000000
-6.157800 0.000000
-6.144800 0.000000
-6.131900 0.000000
-6.118900 0.000000
-6.105900 0.000000
-6.093000 0.000000
-6.080000 0.000000
-6.067000 0.000000
-6.054100 0.000000
-6.041100 0.000000
-6.028200 0.000000
-6.015200 0.000000
-6.002200 0.000000
-5.989300 0.000000
-5.976300 0.000000
-5.963300 0.000000
-5.950400 0.000000
-5.937400 0.000000
-5.924400 0.000000
-5.911500 0.000000
-5.898500 0.000000
-5.885600 0.000000
-5.872600 0.000000
-5.859600 0.000000
-5.846700 0.000000
-5.833700 0.000000
-5.820700 0.000000
-5.807800 0.000000
-5.794800 0.000000
-5.781800 0.000000
-5.768900 0.000000
-5.755900 0.000000
-5.742900 0.000000
-5.730000 0.000000
-5.717000 0.000000
-5.704100 0.000000
-5.691100 0.000000
-5.678100 0.000000
-5.665200 0.000000
-5.652200 0.000000
-5.639200 0.000000
-5.626300 0.000000
-5.613300 0.000000
-5.600300 0.000000
-5.587400 0.000000
-5.574400 0.000000
-5.561500 0.000000
-5.548500 0.000000
-5.535500 0.000000
-5.522600 0.000000
-5.509600 0.000000
-5.496600 0.000000
-5.483700 0.000000
-5.470700 0.000000
-5.457700 0.000000
-5.444800 0.000000
-5.431800 0.000000
-5.418900 0.000000
-5.405900 0.000000
-5.392900 0.000000
-5.380000 0.000000
-5.367000 0.000000
-5.354000 0.000000
-5.341100 0.000000
-5.328100 0.000000
-5.315100 0.000000
-5.302200 0.000000
-5.289200 0.000000
-5.276300 0.000000
-5.263300 0.000000
-5.250300 0.000000
-5.237400 0.000000
-5.224400 0.000000
-5.211400 0.000000
-5.198500 0.000000
-5.185500 0.000000
-5.172500 0.000000
-5.159600 0.000000
-5.146600 0.000000
-5.133700 0.000000
-5.120700 0.000000
-5.107700 0.000000
-5.094800 0.000000
-5.081800 0.000000
-5.068800 0.000000
-5.055900 0.000000
-5.042900 0.000000
-5.029900 0.000000
-5.017000 0.000000
-5.004000 0.000000
-4.991000 0.000000
-4.978100 0.000000
-4.965100 0.000000
-4.952200 0.000000
-4.939200 0.000000
-4.926200 0.000000
-4.913300 0.000000
-4.900300 0.000000
-4.887300 0.000000
-4.874400 0.000000
-4.861400 0.000000
-4.848400 0.000000
-4.835500 0.000000
-4.822500 0.000000
-4.809600 0.000000
-4.796600 0.000000
-4.783600 0.000000
-4.770700 0.000000
-4.757700 0.000000
-4.744700 0.000000
-4.731800 0.000000
-4.718800 0.000000
-4.705800 0.000000
-4.692900 0.000000
-4.679900 0.000000
-4.667000 0.000000
-4.654000 0.000000
-4.641000 0.000000
-4.628100 0.000000
-4.615100 0.000000
-4.602100 0.000000
-4.589200 0.000000
-4.576200 0.000000
-4.563200 0.000000
-4.550300 0.000000
-4.537300 0.000000
-4.524400 0.000000
-4.511400 0.000000
-4.498400 0.000000
-4.485500 0.000000
-4.472500 0.000000
-4.459500 0.000000
-4.446600 0.000000
-4.433600 0.000000
-4.420600 0.000000
-4.407700 0.000000
-4.394700 0.000000
-4.381800 0.000000
-4.368800 0.000000
-4.355800 0.000000
-4.342900 0.000000
-4.329900 0.000000
-4.316900 0.000000
-4.304000 0.000000
-4.291000 0.000000
-4.278000 0.000000
-4.265100 0.000000
-4.252100 0.000000
-4.239100 0.000000
-4.226200 0.000000
-4.213200 0.000000
-4.200300 0.000000
-4.187300 0.000000
-4.174300 0.000000
-4.161400 0.000000
-4.148400 0.000000
-4.135400 0.000000
-4.122500 0.000000
-4.109500 0.000000
-4.096500 0.000000
-4.083600 0.000000
-4.070600 0.000000
-4.057700 0.000000
-4.044700 0.000000
-4.031700 0.000000
-4.018800 0.000000
-4.005800 0.000000
-3.992800 0.000000
-3.979900 0.000000
-3.966900 0.000000
-3.953900 0.000000
-3.941000 0.000000
-3.928000 0.000000
-3.915100 0.000000
-3.902100 0.000000
-3.889100 0.000000
-3.876200 0.000000
-3.863200 0.000000
-3.850200 0.000000
-3.837300 0.000000
-3.824300 0.000000
-3.811300 0.000000
-3.798400 0.000000
-3.785400 0.000000
-3.772500 0.000000
-3.759500 0.000000
-3.746500 0.000000
-3.733600 0.000000
-3.720600 0.000000
-3.707600 0.000000
-3.694700 0.000000
-3.681700 0.000000
-3.668700 0.000000
-3.655800 0.000000
-3.642800 0.000000
-3.629900 0.000000
-3.616900 0.000000
-3.603900 0.000000
-3.591000 0.000000
-3.578000 0.000000
-3.565000 0.000000
-3.552100 0.000000
-3.539100 0.000000
-3.526100 0.000000
-3.513200 0.000000
-3.500200 0.000000
-3.487200 0.000000
-3.474300 0.000000
-3.461300 0.000000
-3.448400 0.000000
-3.435400 0.000000
-3.422400 0.000000
-3.409500 0.000000
-3.396500 0.000000
-3.383500 0.000000
-3.370600 0.000000
-3.357600 0.000000
-3.344600 0.000000
-3.331700 0.000000
-3.318700 0.000000
-3.305800 0.000000
-3.292800 0.000000
-3.279800 0.000000
-3.266900 0.000000
-3.253900 0.000000
-3.240900 0.000000
-3.228000 0.000000
-3.215000 0.000000
-3.202000 0.000000
-3.189100 0.000000
-3.176100 0.000000
-3.163200 0.000000
-3.150200 0.000000
-3.137200 0.000000
-3.124300 0.000000
-3.111300 0.000000
-3.098300 0.000000
-3.085400 0.000000
-3.072400 0.000000
-3.059400 0.000000
-3.046500 0.000000
-3.033500 0.000000
-3.020600 0.000000
-3.007600 0.000000
-2.994600 0.000000
-2.981700 0.000000
-2.968700 0.000000
-2.955700 0.000000
-2.942800 0.000000
-2.929800 0.000000
-2.916800 0.000000
-2.903900 0.000000
-2.890900 0.000000
-2.878000 0.000000
-2.865000 0.000000
-2.852000 0.000000
-2.839100 0.000000
-2.826100 0.000000
-2.813100 0.000000
-2.800200 0.000000
-2.787200 0.000000
-2.774200 0.000000
-2.761300 0.000000
-2.748300 0.000000
-2.735300 0.000000
-2.722400 0.000000
-2.709400 0.000000
-2.696500 0.000000
-2.683500 0.000000
-2.670500 0.000000
-2.657600 0.000000
-2.644600 0.000000
-2.631600 0.000000
-2.618700 0.000000
-2.605700 0.000000
-2.592700 0.000000
-2.579800 0.000000
-2.566800 10.693100
-2.553900 29.338800
-2.540900 32.555500
-2.527900 50.407700
-2.515000 40.387700
-2.502000 46.289100
-2.489000 48.959300
-2.476100 46.773500
-2.463100 42.532200
-2.450100 36.186400
-2.437200 35.443800
-2.424200 34.701200
-2.411300 29.058400
-2.398300 26.510900
-2.385300 23.927100
-2.372400 22.054200
-2.359400 18.809300
-2.346400 18.722500
-2.333500 18.635600
-2.320500 18.548800
-2.307500 18.914000
-2.294600 19.816200
-2.281600 20.718400
-2.268700 24.135300
-2.255700 31.901300
-2.242700 32.935600
-2.229800 34.736000
-2.216800 36.739400
-2.203800 34.977400
-2.190900 11.119200
-2.177900 11.396800
-2.164900 11.674400
-2.152000 11.758700
-2.139000 11.787000
-2.126100 11.814700
-2.113100 11.842400
-2.100100 94.852400
-2.087200 4.140400
-2.074200 4.058000
-2.061200 3.975600
-2.048300 3.893200
-2.035300 3.810800
-2.022300 3.728400
-2.009400 3.646000
-1.996400 3.563700
-1.983400 8.284200
-1.970500 4.806500
-1.957500 1.328700
-1.944600 0.000000
-1.931600 0.000000
-1.918600 0.000000
-1.905700 0.000000
-1.892700 0.000000
-1.879700 0.000000
-1.866800 0.000000
-1.853800 0.000000
-1.840800 0.000000
-1.827900 0.000000
-1.814900 0.000000
-1.802000 0.000000
-1.789000 0.000000
-1.776000 0.000000
-1.763100 0.000000
-1.750100 0.000000
-1.737100 0.000000
-1.724200 0.000000
-1.711200 0.000000
-1.698200 0.000000
-1.685300 0.000000
-1.672300 0.000000
-1.659400 0.000000
-1.646400 5.140800
-1.633400 3.818200
-1.620500 7.358900
-1.607500 11.017400
-1.594500 14.034900
-1.581600 10.747900
-1.568600 15.439800
-1.555600 13.281500
-1.542700 17.036600
-1.529700 20.626300
-1.516800 17.857900
-1.503800 16.383200
-1.490800 16.033700
-1.477900 16.677000
-1.464900 17.320400
-1.451900 17.963800
-1.439000 18.607200
-1.426000 19.250600
-1.413000 19.894000
-1.400100 20.537400
-1.387100 21.180800
-1.374200 21.824200
-1.361200 19.810900
-1.348200 17.345000
-1.335300 17.720200
-1.322300 32.300000
-1.309300 47.799100
-1.296400 13.378800
-1.283400 13.524100
-1.270400 13.669400
-1.257500 18.023400
-1.244500 23.181400
-1.231500 9.646400
-1.218600 14.174700
-1.205600 12.150400
-1.192700 10.126200
-1.179700 7.493500
-1.166700 7.401400
-1.153800 7.309300
-1.140800 7.217100
-1.127800 7.720300
-1.114900 8.244300
-1.101900 8.239700
-1.088900 8.832100
-1.076000 9.487500
-1.063000 10.813600
-1.050100 10.945700
-1.037100 11.714200
-1.024100 11.873800
-1.011200 12.033500
-0.998200 12.193000
-0.985200 12.352500
-0.972300 12.511900
-0.959300 12.667000
-0.946300 12.822200
-0.933400 12.974800
-0.920400 13.121400
-0.907500 13.260200
-0.894500 13.396000
-0.881500 13.531700
-0.868600 13.667400
-0.855600 13.803100
-0.842600 13.938900
-0.829700 14.074600
-0.816700 14.210300
-0.803700 14.346000
-0.790800 14.481700
-0.777800 14.617500
-0.764900 14.753200
-0.751900 15.374000
-0.738900 15.922300
-0.726000 16.470700
-0.713000 17.019000
-0.700000 18.473300
-0.687100 21.412600
-0.674100 22.782100
-0.661100 24.319200
-0.648200 25.978500
-0.635200 27.723700
-0.622300 28.823600
-0.609300 29.249500
-0.596300 32.986500
-0.583400 33.360000
-0.570400 35.062400
-0.557400 33.988700
-0.544500 34.566100
-0.531500 34.725300
-0.518500 34.859900
-0.505600 33.469600
-0.492600 33.447700
-0.479600 31.958700
-0.466700 31.764700
-0.453700 31.570700
-0.440800 31.479600
-0.427800 31.728500
-0.414800 32.234400
-0.401900 32.879100
-0.388900 33.503600
-0.375900 33.181700
-0.363000 32.950100
-0.350000 33.454200
-0.337000 34.227400
-0.324100 35.000600
-0.311100 35.773800
-0.298200 36.547000
-0.285200 36.599500
-0.272200 36.522900
-0.259300 32.715300
-0.246300 32.624400
-0.233300 32.624900
-0.220400 29.835800
-0.207400 29.372000
-0.194400 26.401400
-0.181500 25.527100
-0.168500 27.527800
-0.155600 29.120200
-0.142600 26.382600
-0.129600 23.750700
-0.116700 21.118700
-0.103700 20.616300
-0.090700 20.104900
-0.077800 20.013500
-0.064800 19.458800
-0.051800 18.904000
-0.038900 18.331200
-0.025900 17.769300
-0.013000 17.207300
0.000000 16.703900
0.013000 16.172700
0.025900 15.703400
0.038900 15.228200
0.051900 14.824700
0.064800 14.461100
0.077800 14.151100
0.090800 13.904500
0.103700 13.657900
0.116700 13.462800
0.129600 13.218900
0.142600 14.096900
0.155600 14.064000
0.168500 14.038000
0.181500 14.075300
0.194500 15.254100
0.207400 16.745500
0.220400 17.408100
0.233400 18.070700
0.246300 18.733300
0.259300 19.405500
0.272300 20.372300
0.285200 21.341000
0.298200 26.914400
0.311100 28.050800
0.324100 33.990100
0.337100 36.401300
0.350000 40.423600
0.363000 43.280000
0.376000 46.176000
0.388900 45.350000
0.401900 47.012900
0.414900 48.778000
0.427800 48.705500
0.440800 57.708000
0.453700 54.514600
0.466700 56.970100
0.479700 56.025900
0.492600 69.855800
0.505600 51.999500
0.518600 46.417300
0.531500 53.499000
0.544500 52.772200
0.557500 30.263500
0.570400 33.067800
0.583400 40.005400
0.596300 41.273300
0.609300 50.414200
0.622300 48.385000
0.635200 55.177100
0.648200 61.475900
0.661200 67.634500
0.674100 58.977900
0.687100 54.865000
0.700100 51.048700
0.713000 50.945800
0.726000 55.119000
0.738900 51.226400
0.751900 52.309600
0.764900 49.848800
0.777800 49.476300
0.790800 46.901500
0.803800 44.326800
0.816700 42.093900
0.829700 36.966500
0.842700 33.988900
0.855600 29.257400
0.868600 26.446500
0.881500 23.635700
0.894500 20.824900
0.907500 23.419400
0.920400 23.138200
0.933400 27.119100
0.946400 18.177000
0.959300 31.424900
0.972300 9.423200
0.985300 0.000000
0.998200 0.000000
1.011200 0.000000
1.024200 0.000000
1.037100 0.000000
1.050100 0.000000
1.063000 0.000000
1.076000 0.000000
1.089000 0.000000
1.101900 0.000000
1.114900 0.000000
1.127900 0.000000
1.140800 0.000000
1.153800 0.000000
1.166800 0.000000
1.179700 0.000000
1.192700 0.000000
1.205600 0.000000
1.218600 0.000000
1.231600 0.000000
1.244500 0.000000
1.257500 0.000000
1.270500 0.000000
1.283400 0.000000
1.296400 0.000000
1.309400 0.000000
1.322300 0.000000
1.335300 0.000000
1.348200 0.000000
1.361200 0.000000
1.374200 0.000000
1.387100 0.000000
1.400100 0.000000
1.413100 0.000000
1.426000 0.000000
1.439000 0.000000
1.452000 0.000000
1.464900 0.000000
1.477900 0.000000
1.490800 0.000000
1.503800 0.000000
1.516800 0.000000
1.529700 0.000000
1.542700 0.000000
1.555700 0.000000
1.568600 0.000000
1.581600 0.000000
1.594600 0.000000
1.607500 0.000000
1.620500 0.000000
1.633400 0.000000
1.646400 0.000000
1.659400 0.000000
1.672300 0.000000
1.685300 0.000000
1.698300 0.000000
1.711200 0.000000
1.724200 0.000000
1.737200 0.000000
1.750100 0.000000
1.763100 0.000000
1.776100 0.000000
1.789000 0.000000
1.802000 0.000000
1.814900 0.000000
1.827900 0.000000
1.840900 0.000000
1.853800 0.000000
1.866800 0.000000
1.879800 0.000000
1.892700 0.000000
1.905700 0.000000
1.918700 0.000000
1.931600 0.000000
1.944600 0.000000
1.957500 0.000000
1.970500 0.000000
1.983500 0.000000
1.996400 0.000000
2.009400 0.000000
2.022400 0.000000
2.035300 0.000000
2.048300 0.000000
2.061300 0.000000
2.074200 0.000000
2.087200 0.000000
2.100100 0.000000
2.113100 0.000000
2.126100 0.000000
2.139000 0.000000
2.152000 0.000000
2.165000 0.000000
2.177900 0.000000
2.190900 0.000000
2.203900 0.000000
2.216800 0.000000
2.229800 0.000000
2.242700 0.000000
2.255700 0.000000
2.268700 0.000000
2.281600 0.000000
2.294600 0.000000
2.307600 0.000000
2.320500 0.000000
2.333500 0.000000
2.346500 0.000000
2.359400 0.000000
2.372400 0.000000
2.385300 0.000000
2.398300 0.000000
2.411300 0.000000
2.424200 0.000000
2.437200 0.000000
2.450200 0.000000
2.463100 0.000000
2.476100 0.000000
2.489100 0.000000
2.502000 0.000000
2.515000 0.000000
2.528000 0.000000
2.540900 0.000000
2.553900 0.000000
2.566800 0.000000
2.579800 0.000000
2.592800 0.000000
2.605700 0.000000
2.618700 0.000000
2.631700 0.000000
2.644600 0.000000
2.657600 0.000000
2.670600 0.000000
2.683500 0.000000
2.696500 0.000000
2.709400 0.000000
2.722400 0.000000
2.735400 0.000000
2.748300 0.000000
2.761300 0.000000
2.774300 0.000000
2.787200 0.000000
2.800200 0.000000
2.813200 0.000000
2.826100 0.000000
2.839100 0.000000
2.852000 0.000000
2.865000 0.000000
2.878000 0.000000
2.890900 0.000000
2.903900 0.000000
2.916900 0.000000
2.929800 0.000000
2.942800 0.000000
2.955800 0.000000
2.968700 0.000000
2.981700 0.000000
2.994600 0.000000
3.007600 0.000000
3.020600 0.000000
3.033500 0.000000
3.046500 0.000000
3.059500 0.000000
3.072400 0.000000
3.085400 0.000000
3.098400 0.000000
3.111300 0.000000
3.124300 0.000000
3.137200 0.000000
3.150200 0.000000
3.163200 0.000000
3.176100 0.000000
3.189100 0.000000
3.202100 0.000000
3.215000 0.000000
3.228000 0.000000
3.241000 0.000000
3.253900 0.000000
3.266900 0.000000
3.279900 0.000000
3.292800 0.000000
3.305800 0.000000
3.318700 0.000000
3.331700 0.000000
3.344700 0.000000
3.357600 0.000000
3.370600 0.000000
3.383600 0.000000
3.396500 0.000000
3.409500 0.009100
3.422500 0.923800
3.435400 1.861900
3.448400 1.940400
3.461300 2.019000
3.474300 2.097500
3.487300 3.171300
3.500200 3.285000
3.513200 4.377200
3.526200 4.524500
3.539100 4.671700
3.552100 4.818900
3.565100 4.970800
3.578000 6.341400
3.591000 7.674100
3.603900 7.903400
3.616900 9.355200
3.629900 9.607600
3.642800 9.860100
3.655800 10.112500
3.668800 10.364900
3.681700 10.617300
3.694700 10.896200
3.707700 11.243600
3.720600 11.657700
3.733600 12.075200
3.746500 12.565800
3.759500 13.056500
3.772500 13.620600
3.785400 14.237100
3.798400 14.904600
3.811400 15.639900
3.824300 16.469100
3.837300 17.298300
3.850300 18.127500
3.863200 18.956800
3.876200 19.786000
3.889100 20.977100
3.902100 25.300700
3.915100 28.128900
3.928000 27.420300
3.941000 30.584100
3.954000 28.473300
3.966900 28.073300
3.979900 32.539400
3.992900 30.565300
4.005800 28.437800
4.018800 30.433000
4.031800 26.048900
4.044700 28.563500
4.057700 30.412200
4.070600 25.690800
4.083600 24.027600
4.096600 22.313900
4.109500 20.345700
4.122500 18.675200
4.135500 17.882500
4.148400 17.089800
4.161400 16.297000
4.174400 15.710300
4.187300 15.167800
4.200300 14.625300
4.213200 16.125600
4.226200 16.147600
4.239200 12.550400
4.252100 9.330900
4.265100 7.149000
4.278100 6.266900
4.291000 8.214000
4.304000 10.981400
4.317000 13.748900
4.329900 0.000000
4.342900 0.000000
4.355800 0.000000
4.368800 0.000000
4.381800 0.000000
4.394700 0.000000
4.407700 0.000000
4.420700 0.000000
4.433600 0.000000
4.446600 0.000000
4.459600 0.000000
4.472500 0.000000
4.485500 0.000000
4.498400 0.000000
4.511400 0.000000
4.524400 0.000000
4.537300 0.000000
4.550300 0.000000
4.563300 0.000000
4.576200 0.000000
4.589200 0.000000
4.602200 0.000000
4.615100 0.000000
4.628100 0.000000
4.641000 0.000000
4.654000 0.000000
4.667000 0.000000
4.679900 0.000000
4.692900 0.000000
4.705900 0.000000
4.718800 0.000000
4.731800 0.000000
4.744800 0.000000
4.757700 0.000000
4.770700 0.000000
4.783700 0.000000
4.796600 0.000000
4.809600 0.000000
4.822500 0.000000
4.835500 0.000000
4.848500 0.000000
4.861400 0.000000
4.874400 0.000000
4.887400 0.000000
4.900300 0.000000
4.913300 0.000000
4.926300 0.000000
4.939200 0.000000
4.952200 0.000000
4.965100 0.000000
4.978100 0.000000
4.991100 0.000000
5.004000 0.000000
5.017000 0.000000
5.030000 0.000000
5.042900 0.000000
5.055900 0.000000
5.068900 0.000000
5.081800 0.000000
5.094800 0.000000
5.107700 0.000000
5.120700 0.000000
5.133700 0.000000
5.146600 0.000000
5.159600 0.000000
5.172600 0.000000
5.185500 0.000000
5.198500 0.000000
5.211500 0.000000
5.224400 0.000000
5.237400 0.000000
5.250300 0.000000
5.263300 0.000000
5.276300 0.000000
5.289200 0.000000
5.302200 0.000000
5.315200 0.000000
5.328100 0.000000
5.341100 0.000000
5.354100 0.000000
5.367000 0.000000
5.380000 0.000000
5.392900 0.000000
5.405900 0.000000
5.418900 0.000000
5.431800 0.000000
5.444800 0.000000
5.457800 0.000000
5.470700 0.000000
5.483700 0.000000
5.496700 0.012500
5.509600 0.072400
5.522600 0.137300
5.535600 0.202200
5.548500 0.267100
5.561500 0.332000
5.574400 0.396900
5.587400 0.461800
5.600400 0.526700
5.613300 0.591500
5.626300 0.656400
5.639300 0.721300
5.652200 0.786200
5.665200 0.851100
5.678200 0.916000
5.691100 0.980900
5.704100 1.045800
5.717000 1.110700
5.730000 1.175600
5.743000 1.240500
5.755900 1.305400
5.768900 1.370200
5.781900 1.435100
5.794800 1.500000
5.807800 1.564900
5.820800 1.629800
5.833700 1.694700
5.846700 1.759600
5.859600 1.824500
5.872600 1.889400
5.885600 1.954300
5.898500 2.019200
5.911500 2.084100
5.924500 2.149000
5.937400 2.213800
5.950400 2.278700
5.963400 2.343600
5.976300 4.157100
5.989300 4.403700
6.002200 5.367300
6.015200 6.101600
6.028200 6.854300
6.041100 8.184800
6.054100 8.867100
6.067100 9.462700
6.080000 10.352300
6.093000 10.654300
6.106000 11.292900
6.118900 11.451100
6.131900 11.685100
6.144800 11.872900
6.157800 12.545300
6.170800 12.819600
6.183700 13.093900
6.196700 13.368200
6.209700 13.642600
6.222600 13.916900
6.235600 14.177000
6.248600 14.852200
6.261500 14.987700
6.274500 15.672500
6.287500 15.863900
6.300400 16.055200
6.313400 16.186400
6.326300 16.225500
6.339300 16.264600
6.352300 16.303700
6.365200 16.342800
6.378200 16.381900
6.391200 16.421000
6.404100 16.460200
6.417100 16.499300
6.430100 20.941000
6.443000 20.518800
6.456000 24.915100
6.468900 24.163300
6.481900 22.930900
6.494900 21.209000
6.507800 19.901800
6.520800 18.594600
6.533800 17.700900
6.546700 17.486600
6.559700 17.272300
6.572700 16.866100
6.585600 17.251300
6.598600 21.881800
6.611500 17.128100
6.624500 11.803900
6.637500 11.857400
6.650400 11.910900
6.663400 11.964500
6.676400 12.135900
6.689300 12.420200
6.702300 12.762200
6.715300 10.748200
6.728200 12.935300
6.741200 12.747100
6.754100 12.573100
6.767100 12.399000
6.780100 17.141600
6.793000 16.710400
6.806000 16.279200
6.819000 13.666100
6.831900 12.123600
6.844900 11.633500
6.857900 11.143400
6.870800 10.766100
6.883800 10.450300
6.896700 9.952400
6.909700 13.093900
6.922700 16.131400
6.935600 15.429600
6.948600 14.727800
6.961600 14.026000
6.974500 13.324200
6.987500 12.622400
7.000500 11.920600
7.013400 10.687800
7.026400 10.538900
7.039400 10.444400
7.052300 9.685000
7.065300 9.694700
7.078200 9.704500
7.091200 9.714300
7.104200 21.192000
7.117100 31.281400
7.130100 28.749800
7.143100 30.200300
7.156000 34.607900
7.169000 36.554800
7.182000 35.410400
7.194900 29.934100
7.207900 26.396000
7.220800 40.513300
7.233800 20.331800
7.246800 35.457500
7.259700 32.045800
7.272700 26.602200
7.285700 19.089200
7.298600 20.682500
7.311600 22.386900
7.324600 29.056100
7.337500 35.230200
7.350500 19.303200
7.363400 20.252400
7.376400 21.664900
7.389400 23.156400
7.402300 20.626300
7.415300 22.257700
7.428300 24.243000
7.441200 28.693300
7.454200 35.123200
7.467200 32.231400
7.480100 30.779600
7.493100 24.966100
7.506000 23.547100
7.519000 22.127300
7.532000 20.743200
7.544900 20.144000
7.557900 25.059300
7.570900 24.181200
7.583800 23.303100
7.596800 23.515000
7.609800 25.393200
7.622700 27.900000
7.635700 30.506100
7.648600 27.718600
7.661600 28.172700
7.674600 30.741800
7.687500 30.941200
7.700500 34.698700
7.713500 38.603600
7.726400 43.129700
7.739400 48.015200
7.752400 40.456400
7.765300 35.488100
7.778300 31.035000
7.791300 28.971100
7.804200 35.187800
7.817200 32.125600
7.830100 30.318700
7.843100 37.120800
7.856100 34.093300
7.869000 30.495300
7.882000 28.458600
7.895000 27.291000
7.907900 28.097900
7.920900 28.507200
7.933900 26.979100
7.946800 25.451100
7.959800 24.209600
7.972700 23.513600
7.985700 24.419900
7.998700 24.059500
8.011600 23.664800
8.024600 23.253800
8.037600 22.842700
8.050500 21.927500
8.063500 28.454600
8.076500 27.641900
8.089400 26.829200
8.102400 26.016500
8.115300 25.708400
8.128300 25.433700
8.141300 26.913600
8.154200 26.868500
8.167200 26.414600
8.180200 25.895500
8.193100 25.339800
8.206100 26.955400
8.219100 27.196900
8.232000 26.463200
8.245000 31.748000
8.257900 24.025200
8.270900 25.348200
8.283900 24.859600
8.296800 27.819700
8.309800 28.344000
8.322800 23.518500
8.335700 19.882000
8.348700 16.449700
8.361700 13.253600
8.374600 11.993300
8.387600 11.775200
8.400500 11.110200
8.413500 10.923900
8.426500 10.737700
8.439400 10.551400
8.452400 10.365200
8.465400 10.178900
8.478300 9.992700
8.491300 9.806400
8.504300 9.620200
8.517200 9.433900
8.530200 9.467000
8.543200 9.131500
8.556100 9.382300
8.569100 8.875400
8.582000 8.007900
8.595000 7.643300
8.608000 7.337500
8.620900 7.031600
8.633900 6.725800
8.646900 6.060300
8.659800 5.777800
8.672800 5.522800
8.685800 5.206600
8.698700 5.502000
8.711700 6.774600
8.724600 9.630300
8.737600 12.883600
8.750600 9.267200
8.763500 11.064900
8.776500 7.231600
8.789500 8.036800
8.802400 8.822500
8.815400 5.884800
8.828400 6.180300
8.841300 6.122000
8.854300 6.439700
8.867200 10.378600
8.880200 10.985300
8.893200 11.081700
8.906100 11.178200
8.919100 11.880200
8.932100 11.888200
8.945000 12.030700
8.958000 12.173200
8.971000 12.315700
8.983900 12.458200
8.996900 13.847500
9.009800 14.416100
9.022800 14.984700
9.035800 15.553400
9.048700 15.793700
9.061700 15.712700
9.074700 19.972500
9.087600 20.155600
9.100600 17.703700
9.113600 20.264600
9.126500 19.156600
9.139500 17.798700
9.152400 16.766000
9.165400 19.365200
9.178400 22.979000
9.191300 27.153000
9.204300 24.266800
9.217300 24.931600
9.230200 37.914200
9.243200 26.262900
9.256200 24.420700
9.269100 22.042400
9.282100 19.608100
9.295100 18.732700
9.308000 17.857300
9.321000 17.836300
9.333900 18.610600
9.346900 19.814200
9.359900 21.087700
9.372800 31.564500
9.385800 24.173100
9.398800 21.236000
9.411700 20.619300
9.424700 38.434800
9.437700 25.732400
9.450600 26.768100
9.463600 28.208300
9.476500 24.797700
9.489500 24.013900
9.502500 23.318700
9.515400 22.769300
9.528400 22.234600
9.541400 21.699900
9.554300 21.165200
9.567300 20.630500
9.580300 20.095800
9.593200 19.996600
9.606200 30.179300
9.619100 25.012100
9.632100 25.213900
9.645100 28.946000
9.658000 24.379600
9.671000 22.937000
9.684000 23.517600
9.696900 24.007000
9.709900 21.388700
9.722900 22.198400
9.735800 23.696100
9.748800 25.019300
9.761700 26.148500
9.774700 23.861500
9.787700 24.821000
9.800600 27.596400
9.813600 19.803800
9.826600 20.133100
9.839500 20.519700
9.852500 21.072800
9.865500 19.252200
9.878400 19.793800
9.891400 20.570100
9.904300 21.480500
9.917300 22.320600
9.930300 21.993700
9.943200 20.821100
9.956200 20.634200
9.969200 21.993600
9.982100 18.481500
9.995100 19.707700
10.008100 17.325300
10.021000 18.176600
10.034000 19.028000
10.047000 19.879300
10.059900 16.368100
10.072900 27.664600
10.085800 28.075600
10.098800 18.465100
10.111800 18.266900
10.124700 18.068800
10.137700 17.141500
10.150700 18.197100
10.163600 22.797400
10.176600 22.881100
10.189600 19.287200
10.202500 21.305100
10.215500 15.138000
10.228400 15.128200
10.241400 15.118500
10.254400 16.424700
10.267300 16.594400
10.280300 16.769200
10.293300 16.979700
10.306200 17.190300
10.319200 18.437700
10.332200 18.829100
10.345100 16.980100
10.358100 17.150300
10.371000 17.320400
10.384000 18.348100
10.397000 18.896700
10.409900 19.125200
10.422900 16.972000
10.435900 16.935100
10.448800 16.898200
10.461800 16.861200
10.474800 17.243400
10.487700 16.015200
10.500700 16.027400
10.513600 16.057100
10.526600 16.086800
10.539600 16.116400
10.552500 14.934900
10.565500 14.945100
10.578500 14.955200
10.591400 14.991700
10.604400 15.037200
10.617400 15.086500
10.630300 15.142200
10.643300 15.197900
10.656200 15.283400
10.669200 15.387700
10.682200 15.492000
10.695100 15.596300
10.708100 14.280300
10.721100 14.205700
10.734000 14.157500
10.747000 13.306900
10.760000 14.868300
10.772900 15.130700
10.785900 14.513900
10.798900 14.854300
10.811800 15.477800
10.824800 15.840700
10.837700 16.132800
10.850700 16.424800
10.863700 14.245100
10.876600 14.349400
10.889600 14.420100
10.902600 14.490700
10.915500 14.561300
10.928500 14.618400
10.941500 14.610700
10.954400 16.102100
10.967400 16.200500
10.980300 16.237700
10.993300 16.274900
11.006300 16.302700
11.019200 16.232000
11.032200 16.161300
11.045200 16.121200
11.058100 16.273500
11.071100 17.929200
11.084100 17.829700
11.097000 19.172400
11.110000 19.092800
11.122900 19.056300
11.135900 20.283500
11.148900 19.787100
11.161800 20.774900
11.174800 20.298900
11.187800 19.823300
11.200700 19.347800
11.213700 18.872200
11.226700 18.396600
11.239600 17.921100
11.252600 17.445500
11.265500 16.969900
11.278500 17.105400
11.291500 16.690900
11.304400 16.946500
11.317400 16.685000
11.330400 16.427800
11.343300 16.188100
11.356300 15.948400
11.369300 15.722100
11.382200 15.131500
11.395200 14.550600
11.408100 17.003600
11.421100 17.806900
11.434100 19.967500
11.447000 19.502200
11.460000 19.067100
11.473000 19.240900
11.485900 18.815100
11.498900 18.383500
11.511900 17.951800
11.524800 17.520200
11.537800 16.768000
11.550800 23.022400
11.563700 27.476500
11.576700 19.919100
11.589600 16.939600
11.602600 16.265500
11.615600 16.139900
11.628500 16.016200
11.641500 15.849400
11.654500 18.131300
11.667400 23.645700
11.680400 16.564200
11.693400 16.210100
11.706300 15.856000
11.719300 15.501900
11.732200 15.315500
11.745200 15.198700
11.758200 15.155200
11.771100 15.111800
11.784100 15.068400
11.797100 15.024900
11.810000 14.981500
11.823000 15.443000
11.836000 17.212800
11.848900 15.440000
11.861900 16.541800
11.874800 18.528800
11.887800 16.571600
11.900800 11.084600
11.913700 11.748400
11.926700 12.180000
11.939700 12.611600
11.952600 13.117700
11.965600 13.635700
11.978600 14.153700
11.991500 14.675100
12.004500 12.161200
12.017400 12.765800
12.030400 11.569000
12.043400 11.833200
12.056300 12.097400
12.069300 12.361500
12.082300 12.625700
12.095200 12.889900
12.108200 11.676200
12.121200 11.904200
12.134100 12.180600
12.147100 13.505400
12.160000 12.500300
12.173000 13.227000
12.186000 12.646000
12.198900 13.361100
12.211900 10.823200
12.224900 11.740400
12.237800 12.178700
12.250800 12.617000
12.263800 12.960000
12.276700 13.622400
12.289700 13.061700
12.302700 13.029300
12.315600 13.230900
12.328600 12.458700
12.341500 11.686500
12.354500 10.914300
12.367500 10.588400
12.380400 10.404400
12.393400 10.220400
12.406400 10.036300
12.419300 9.852300
12.432300 10.924900
12.445300 11.167900
12.458200 12.344100
12.471200 12.324900
12.484100 11.760500
12.497100 11.196100
12.510100 10.631700
12.523000 10.226300
12.536000 9.841700
12.549000 9.457000
12.561900 9.072300
12.574900 8.687700
12.587900 8.303000
12.600800 7.951300
12.613800 7.724900
12.626700 7.498500
12.639700 7.272200
12.652700 7.353700
12.665600 7.466200
12.678600 6.185100
12.691600 5.317300
12.704500 3.394500
12.717500 2.250100
12.730500 1.700100
12.743400 1.150000
12.756400 0.600000
12.769300 0.050000
12.782300 0.000000
12.795300 0.000000
12.808200 0.000000
12.821200 0.000000
12.834200 0.000000
12.847100 0.000000
12.860100 0.000000
12.873100 0.000000
12.886000 0.000000
12.899000 0.000000
12.911900 0.000000
12.924900 0.000000
12.937900 0.000000
12.950800 0.000000
12.963800 0.000000
12.976800 0.000000
12.989700 0.000000
13.002700 0.000000
13.015700 0.000000
13.028600 0.000000
13.041600 0.000000
13.054600 0.000000
13.067500 0.000000
13.080500 0.000000
13.093400 0.000000
13.106400 0.000000
13.119400 0.000000
13.132300 0.000000
13.145300 0.000000
13.158300 0.000000
13.171200 0.000000
13.184200 0.000000
13.197200 0.000000
13.210100 0.000000
13.223100 0.000000
13.236000 0.000000
13.249000 0.000000
13.262000 0.000000
13.274900 0.000000
13.287900 0.000000
13.300900 0.000000
13.313800 0.000000
13.326800 0.000000
13.339800 0.000000
13.352700 0.000000
13.365700 0.000000
13.378600 0.000000
13.391600 0.000000
13.404600 0.000000
13.417500 0.000000
13.430500 0.000000
13.443500 0.000000
13.456400 0.000000
13.469400 0.000000
13.482400 0.000000
13.495300 0.000000
13.508300 0.000000
13.521200 0.000000
13.534200 0.000000
13.547200 0.000000
13.560100 0.000000
13.573100 0.000000
13.586100 0.000000
13.599000 0.000000
13.612000 0.000000
13.625000 0.000000
13.637900 0.000000
13.650900 0.000000
13.663800 0.000000
13.676800 0.000000
13.689800 0.000000
13.702700 0.000000
13.715700 0.000000
13.728700 0.000000
13.741600 0.000000
13.754600 0.000000
13.767600 0.000000
13.780500 0.000000
13.793500 0.000000
13.806500 0.000000
13.819400 0.000000
13.832400 0.000000
13.845300 0.000000
13.858300 0.000000
13.871300 0.000000
13.884200 0.000000
13.897200 0.000000
13.910200 0.000000
13.923100 0.000000
13.936100 0.000000
13.949100 0.000000
e
