set title 'mp-695850 - Density of States'
set xlabel 'Energy (eV)'
set ylabel 'DOS (states/eV)'
set grid
set xrange [-10:10]
set yrange [0:74.975]
set xzeroaxis lt -1
set terminal png size 800,600
set output 'mp-695850_dos_gnuplot.png'
plot '-' using 1:2 with lines title 'DOS'
-16.930900 0.000000
-16.905700 0.000000
-16.880600 0.000000
-16.855500 0.000000
-16.830400 0.000000
-16.805300 0.000000
-16.780200 0.000000
-16.755100 0.000000
-16.730000 0.000000
-16.704900 0.000000
-16.679800 0.000000
-16.654700 0.000000
-16.629600 0.000000
-16.604500 0.000000
-16.579400 0.000000
-16.554200 0.000000
-16.529100 0.000000
-16.504000 0.000000
-16.478900 0.000000
-16.453800 0.000000
-16.428700 0.000000
-16.403600 0.000000
-16.378500 0.000000
-16.353400 0.000000
-16.328300 0.000000
-16.303200 0.000000
-16.278100 0.000000
-16.253000 0.000000
-16.227900 0.000000
-16.202700 0.000000
-16.177600 0.000000
-16.152500 0.000000
-16.127400 0.000000
-16.102300 0.000000
-16.077200 0.000000
-16.052100 0.000000
-16.027000 0.000000
-16.001900 0.000000
-15.976800 0.000000
-15.951700 0.000000
-15.926600 0.000000
-15.901500 0.000000
-15.876400 0.000000
-15.851300 0.000000
-15.826100 0.000000
-15.801000 0.000000
-15.775900 0.000000
-15.750800 0.000000
-15.725700 0.000000
-15.700600 0.000000
-15.675500 0.000000
-15.650400 0.000000
-15.625300 0.000000
-15.600200 0.000000
-15.575100 0.000000
-15.550000 0.000000
-15.524900 0.000000
-15.499800 0.000000
-15.474600 0.000000
-15.449500 0.000000
-15.424400 0.000000
-15.399300 0.000000
-15.374200 0.000000
-15.349100 0.000000
-15.324000 0.000000
-15.298900 0.000000
-15.273800 0.000000
-15.248700 0.000000
-15.223600 0.000000
-15.198500 0.000000
-15.173400 0.000000
-15.148300 0.000000
-15.123100 0.000000
-15.098000 0.000000
-15.072900 0.000000
-15.047800 0.000000
-15.022700 0.000000
-14.997600 0.000000
-14.972500 0.000000
-14.947400 0.000000
-14.922300 0.000000
-14.897200 0.000000
-14.872100 0.000000
-14.847000 0.000000
-14.821900 0.000000
-14.796800 0.000000
-14.771600 0.000000
-14.746500 0.000000
-14.721400 0.000000
-14.696300 0.000000
-14.671200 0.000000
-14.646100 0.001900
-14.621000 0.278300
-14.595900 0.987100
-14.570800 1.969900
-14.545700 2.307600
-14.520600 2.333900
-14.495500 2.302800
-14.470400 2.474400
-14.445300 2.646600
-14.420100 2.843200
-14.395000 3.080900
-14.369900 3.344700
-14.344800 3.593600
-14.319700 3.828500
-14.294600 4.065400
-14.269500 4.432900
-14.244400 5.707300
-14.219300 7.849800
-14.194200 11.802500
-14.169100 7.941100
-14.144000 2.997400
-14.118900 55.551400
-14.093800 22.033900
-14.068700 0.166400
-14.043500 0.000000
-14.018400 0.000000
-13.993300 0.000000
-13.968200 0.000000
-13.943100 0.000000
-13.918000 0.000000
-13.892900 0.000000
-13.867800 0.000000
-13.842700 0.000000
-13.817600 0.000000
-13.792500 0.000000
-13.767400 0.000000
-13.742300 0.000000
-13.717200 0.000000
-13.692000 0.000000
-13.666900 0.000000
-13.641800 0.000000
-13.616700 0.000000
-13.591600 0.000000
-13.566500 0.000000
-13.541400 0.000000
-13.516300 0.000000
-13.491200 0.000000
-13.466100 0.000000
-13.441000 0.000000
-13.415900 0.000000
-13.390800 0.000000
-13.365700 0.000000
-13.340500 0.000000
-13.315400 0.000000
-13.290300 0.000000
-13.265200 0.000000
-13.240100 0.000000
-13.215000 0.000000
-13.189900 0.000000
-13.164800 0.000000
-13.139700 0.000000
-13.114600 0.000000
-13.089500 0.000000
-13.064400 0.000000
-13.039300 0.000000
-13.014200 0.000000
-12.989000 0.000000
-12.963900 0.000000
-12.938800 0.000000
-12.913700 0.000000
-12.888600 0.000000
-12.863500 0.000000
-12.838400 0.000000
-12.813300 0.000000
-12.788200 0.000000
-12.763100 0.000000
-12.738000 0.000000
-12.712900 0.000000
-12.687800 0.000000
-12.662700 0.000000
-12.637600 0.000000
-12.612400 0.000000
-12.587300 0.000000
-12.562200 0.000000
-12.537100 0.000000
-12.512000 0.000000
-12.486900 0.000000
-12.461800 0.000000
-12.436700 0.000000
-12.411600 0.000000
-12.386500 0.000000
-12.361400 0.000000
-12.336300 0.000000
-12.311200 0.000000
-12.286100 0.000000
-12.260900 0.000000
-12.235800 0.000000
-12.210700 0.000000
-12.185600 0.000000
-12.160500 0.000000
-12.135400 0.000000
-12.110300 0.000000
-12.085200 0.000000
-12.060100 0.000000
-12.035000 0.000000
-12.009900 0.000000
-11.984800 0.000000
-11.959700 0.000000
-11.934600 0.000000
-11.909400 0.000000
-11.884300 0.000000
-11.859200 0.000000
-11.834100 0.000000
-11.809000 0.000000
-11.783900 0.000000
-11.758800 0.000000
-11.733700 0.000000
-11.708600 0.000000
-11.683500 0.000000
-11.658400 0.000000
-11.633300 0.000000
-11.608200 0.000000
-11.583100 0.000000
-11.557900 0.000000
-11.532800 0.000000
-11.507700 0.000000
-11.482600 0.000000
-11.457500 0.000000
-11.432400 0.000000
-11.407300 0.000000
-11.382200 0.000000
-11.357100 0.000000
-11.332000 0.000000
-11.306900 0.000000
-11.281800 0.000000
-11.256700 0.000000
-11.231600 0.000000
-11.206400 0.000000
-11.181300 0.000000
-11.156200 0.000000
-11.131100 0.000000
-11.106000 0.000000
-11.080900 0.000000
-11.055800 0.000000
-11.030700 0.000000
-11.005600 0.000000
-10.980500 0.000000
-10.955400 0.000000
-10.930300 0.000000
-10.905200 0.000000
-10.880100 0.000000
-10.855000 0.000000
-10.829800 0.000000
-10.804700 0.000000
-10.779600 0.000000
-10.754500 0.000000
-10.729400 0.000000
-10.704300 0.000000
-10.679200 0.000000
-10.654100 0.000000
-10.629000 0.000000
-10.603900 0.000000
-10.578800 0.000000
-10.553700 0.000000
-10.528600 0.000000
-10.503500 0.000000
-10.478300 0.000000
-10.453200 0.000000
-10.428100 0.000000
-10.403000 0.000000
-10.377900 0.000000
-10.352800 0.000000
-10.327700 0.000000
-10.302600 0.000000
-10.277500 0.000000
-10.252400 0.000000
-10.227300 0.000000
-10.202200 0.000000
-10.177100 0.000000
-10.152000 0.000000
-10.126800 0.000000
-10.101700 0.000000
-10.076600 0.000000
-10.051500 0.000000
-10.026400 0.000000
-10.001300 0.000000
-9.976200 0.000000
-9.951100 0.000000
-9.926000 0.000000
-9.900900 0.000000
-9.875800 0.000000
-9.850700 0.000000
-9.825600 0.000000
-9.800500 0.000000
-9.775300 0.000000
-9.750200 0.000000
-9.725100 0.000000
-9.700000 0.000000
-9.674900 0.000000
-9.649800 0.000000
-9.624700 0.000000
-9.599600 0.000000
-9.574500 0.000000
-9.549400 0.000000
-9.524300 0.000000
-9.499200 0.000000
-9.474100 0.000000
-9.449000 0.000000
-9.423900 0.000000
-9.398700 0.000000
-9.373600 0.000000
-9.348500 0.000000
-9.323400 0.000000
-9.298300 0.000000
-9.273200 0.000000
-9.248100 0.000000
-9.223000 0.000000
-9.197900 0.000000
-9.172800 0.000000
-9.147700 0.000000
-9.122600 0.000000
-9.097500 0.000000
-9.072400 0.000000
-9.047200 0.000000
-9.022100 0.000000
-8.997000 0.000000
-8.971900 0.000000
-8.946800 0.000000
-8.921700 0.000000
-8.896600 0.000000
-8.871500 0.000000
-8.846400 0.000000
-8.821300 0.000000
-8.796200 0.000000
-8.771100 0.000000
-8.746000 0.000000
-8.720900 0.000000
-8.695700 0.000000
-8.670600 0.000000
-8.645500 0.000000
-8.620400 0.000000
-8.595300 0.000000
-8.570200 0.000000
-8.545100 0.000000
-8.520000 0.000000
-8.494900 0.000000
-8.469800 0.000000
-8.444700 0.000000
-8.419600 0.000000
-8.394500 0.000000
-8.369400 0.000000
-8.344200 0.000000
-8.319100 0.000000
-8.294000 0.000000
-8.268900 0.000000
-8.243800 0.000000
-8.218700 0.000000
-8.193600 0.000000
-8.168500 0.000000
-8.143400 0.000000
-8.118300 0.000000
-8.093200 0.000000
-8.068100 0.000000
-8.043000 0.000000
-8.017900 0.000000
-7.992800 0.000000
-7.967600 0.000000
-7.942500 0.000000
-7.917400 0.000000
-7.892300 0.000000
-7.867200 0.000000
-7.842100 0.000000
-7.817000 0.000000
-7.791900 0.000000
-7.766800 0.000000
-7.741700 0.000000
-7.716600 0.000000
-7.691500 0.000000
-7.666400 0.000000
-7.641300 0.000000
-7.616100 3.312100
-7.591000 8.923500
-7.565900 11.355200
-7.540800 22.088600
-7.515700 27.203600
-7.490600 13.406200
-7.465500 14.468700
-7.440400 24.525800
-7.415300 18.013300
-7.390200 14.482500
-7.365100 9.932500
-7.340000 4.968800
-7.314900 7.679800
-7.289800 11.681400
-7.264600 68.159200
-7.239500 43.860200
-7.214400 21.394200
-7.189300 18.365100
-7.164200 29.455600
-7.139100 17.646600
-7.114000 0.000000
-7.088900 0.000000
-7.063800 0.000000
-7.038700 0.000000
-7.013600 0.000000
-6.988500 0.000000
-6.963400 0.000000
-6.938300 0.000000
-6.913100 0.000000
-6.888000 0.000000
-6.862900 0.000000
-6.837800 0.000000
-6.812700 0.000000
-6.787600 0.000000
-6.762500 0.000000
-6.737400 0.000000
-6.712300 0.000000
-6.687200 0.000000
-6.662100 0.000000
-6.637000 0.000000
-6.611900 0.000000
-6.586800 0.000000
-6.561600 0.000000
-6.536500 0.000000
-6.511400 0.000000
-6.486300 0.000000
-6.461200 0.000000
-6.436100 0.000000
-6.411000 0.000000
-6.385900 0.000000
-6.360800 0.000000
-6.335700 0.000000
-6.310600 0.000000
-6.285500 0.000000
-6.260400 0.000000
-6.235300 0.000000
-6.210200 0.000000
-6.185000 0.000000
-6.159900 0.000000
-6.134800 0.000000
-6.109700 0.000000
-6.084600 0.000000
-6.059500 0.000000
-6.034400 0.000000
-6.009300 0.000000
-5.984200 0.000000
-5.959100 0.000000
-5.934000 0.000000
-5.908900 0.000000
-5.883800 0.000000
-5.858700 0.000000
-5.833500 0.000000
-5.808400 0.000000
-5.783300 0.000000
-5.758200 0.000000
-5.733100 0.000000
-5.708000 0.000000
-5.682900 0.000000
-5.657800 0.000000
-5.632700 0.000000
-5.607600 0.000000
-5.582500 0.000000
-5.557400 0.000000
-5.532300 0.000000
-5.507200 0.000000
-5.482000 0.000000
-5.456900 0.000000
-5.431800 0.000000
-5.406700 0.000000
-5.381600 0.000000
-5.356500 0.000000
-5.331400 0.000000
-5.306300 0.000000
-5.281200 0.000000
-5.256100 0.000000
-5.231000 0.000000
-5.205900 0.000000
-5.180800 0.000000
-5.155700 0.000000
-5.130500 0.000000
-5.105400 0.000000
-5.080300 0.000000
-5.055200 0.000000
-5.030100 0.000000
-5.005000 0.000000
-4.979900 0.000000
-4.954800 0.000000
-4.929700 0.000000
-4.904600 0.000000
-4.879500 0.000000
-4.854400 0.000000
-4.829300 0.000000
-4.804200 0.000000
-4.779100 0.000000
-4.753900 0.000000
-4.728800 0.000000
-4.703700 0.000000
-4.678600 0.000000
-4.653500 0.000000
-4.628400 0.000000
-4.603300 0.000000
-4.578200 0.000000
-4.553100 0.000000
-4.528000 0.000000
-4.502900 0.000000
-4.477800 0.000000
-4.452700 0.000000
-4.427600 0.000000
-4.402400 0.000000
-4.377300 0.000000
-4.352200 0.000000
-4.327100 0.000000
-4.302000 0.651200
-4.276900 6.366800
-4.251800 9.031600
-4.226700 9.292200
-4.201600 7.101000
-4.176500 5.036800
-4.151400 3.755800
-4.126300 3.119200
-4.101200 2.872000
-4.076100 2.740700
-4.050900 2.644000
-4.025800 2.560100
-4.000700 2.456800
-3.975600 2.334200
-3.950500 2.416500
-3.925400 2.411500
-3.900300 2.289200
-3.875200 2.364300
-3.850100 2.227200
-3.825000 1.758300
-3.799900 1.375700
-3.774800 1.145900
-3.749700 0.969900
-3.724600 0.802000
-3.699400 0.665900
-3.674300 0.528900
-3.649200 0.382600
-3.624100 0.849500
-3.599000 0.730600
-3.573900 0.776200
-3.548800 1.297500
-3.523700 1.802800
-3.498600 1.979700
-3.473500 1.999200
-3.448400 2.345400
-3.423300 2.440900
-3.398200 2.432600
-3.373100 2.563900
-3.348000 2.734800
-3.322800 2.909300
-3.297700 3.787800
-3.272600 3.925800
-3.247500 3.410500
-3.222400 3.076800
-3.197300 2.989100
-3.172200 2.539600
-3.147100 1.705300
-3.122000 1.691200
-3.096900 1.655000
-3.071800 1.773200
-3.046700 1.981300
-3.021600 2.266700
-2.996500 2.251000
-2.971300 2.325700
-2.946200 2.401200
-2.921100 2.476400
-2.896000 2.550900
-2.870900 2.624400
-2.845800 2.697400
-2.820700 2.772200
-2.795600 2.915200
-2.770500 3.139500
-2.745400 3.338100
-2.720300 3.471400
-2.695200 3.604900
-2.670100 3.994000
-2.645000 4.277900
-2.619800 4.405000
-2.594700 4.546600
-2.569600 5.117200
-2.544500 4.908700
-2.519400 4.551200
-2.494300 4.513600
-2.469200 4.885000
-2.444100 5.068000
-2.419000 5.216400
-2.393900 5.371500
-2.368800 5.375500
-2.343700 5.401800
-2.318600 5.441000
-2.293500 5.416100
-2.268300 4.989200
-2.243200 4.686000
-2.218100 4.615500
-2.193000 4.398900
-2.167900 4.130100
-2.142800 3.579500
-2.117700 3.284700
-2.092600 3.058100
-2.067500 2.834100
-2.042400 2.639500
-2.017300 2.477300
-1.992200 2.344900
-1.967100 2.283500
-1.942000 2.440400
-1.916800 2.894100
-1.891700 2.883100
-1.866600 2.681400
-1.841500 2.357800
-1.816400 2.027400
-1.791300 1.733200
-1.766200 1.687200
-1.741100 1.547500
-1.716000 1.505100
-1.690900 1.608700
-1.665800 2.347700
-1.640700 4.870700
-1.615600 8.319000
-1.590500 8.265600
-1.565400 8.609900
-1.540200 8.594600
-1.515100 8.393300
-1.490000 8.197300
-1.464900 7.669400
-1.439800 7.759100
-1.414700 6.410200
-1.389600 9.479000
-1.364500 12.499200
-1.339400 15.824800
-1.314300 18.613600
-1.289200 19.912300
-1.264100 5.802800
-1.239000 0.988000
-1.213900 0.000000
-1.188700 0.000000
-1.163600 0.000000
-1.138500 0.000000
-1.113400 0.000000
-1.088300 0.000000
-1.063200 0.000000
-1.038100 0.000000
-1.013000 0.000000
-0.987900 0.000000
-0.962800 0.000000
-0.937700 0.000000
-0.912600 0.000000
-0.887500 0.000000
-0.862400 0.000000
-0.837200 0.000000
-0.812100 0.000000
-0.787000 0.000000
-0.761900 0.000000
-0.736800 0.000000
-0.711700 0.000000
-0.686600 0.000000
-0.661500 0.000000
-0.636400 0.000000
-0.611300 0.000000
-0.586200 0.000000
-0.561100 0.000000
-0.536000 0.000000
-0.510900 0.000000
-0.485700 0.000000
-0.460600 0.000000
-0.435500 0.000000
-0.410400 0.000000
-0.385300 0.000000
-0.360200 0.000000
-0.335100 0.000000
-0.310000 0.000000
-0.284900 0.000000
-0.259800 0.000000
-0.234700 0.000000
-0.209600 0.000000
-0.184500 0.000000
-0.159400 0.000000
-0.134300 0.000000
-0.109100 0.000000
-0.084000 0.000000
-0.058900 0.000000
-0.033800 0.000000
-0.008700 0.000000
0.016400 0.000000
0.041500 0.000000
0.066600 0.000000
0.091700 0.000000
0.116800 0.000000
0.141900 0.000000
0.167000 0.000000
0.192100 0.000000
0.217200 0.000000
0.242400 0.000000
0.267500 0.000000
0.292600 0.000000
0.317700 0.000000
0.342800 0.000000
0.367900 0.000000
0.393000 0.000000
0.418100 0.000000
0.443200 0.000000
0.468300 0.000000
0.493400 0.000000
0.518500 0.000000
0.543600 0.000000
0.568700 0.000000
0.593900 0.000000
0.619000 0.000000
0.644100 0.000000
0.669200 0.000000
0.694300 0.000000
0.719400 0.000000
0.744500 0.000000
0.769600 0.000000
0.794700 0.000000
0.819800 0.000000
0.844900 0.000000
0.870000 0.000000
0.895100 0.000000
0.920200 0.000000
0.945400 0.000000
0.970500 0.000000
0.995600 0.000000
1.020700 0.000000
1.045800 0.000000
1.070900 0.000000
1.096000 0.000000
1.121100 0.000000
1.146200 0.000000
1.171300 0.000000
1.196400 0.000000
1.221500 0.000000
1.246600 0.000000
1.271700 0.000000
1.296900 0.000000
1.322000 0.000000
1.347100 0.000000
1.372200 0.000000
1.397300 0.000000
1.422400 0.000000
1.447500 0.000000
1.472600 0.000000
1.497700 0.000000
1.522800 0.000000
1.547900 0.000000
1.573000 0.000000
1.598100 0.000000
1.623200 0.000000
1.648300 0.000000
1.673500 0.000000
1.698600 0.000000
1.723700 0.000000
1.748800 0.000000
1.773900 0.000000
1.799000 0.000000
1.824100 0.000000
1.849200 0.000000
1.874300 0.000000
1.899400 0.000000
1.924500 0.000000
1.949600 0.000000
1.974700 0.000000
1.999800 0.000000
2.025000 0.000000
2.050100 0.000000
2.075200 0.000000
2.100300 0.000000
2.125400 0.000000
2.150500 0.000000
2.175600 0.000000
2.200700 0.000000
2.225800 0.000000
2.250900 0.000000
2.276000 0.000000
2.301100 0.000000
2.326200 0.000700
2.351300 0.002100
2.376500 0.004300
2.401600 0.007300
2.426700 0.011100
2.451800 0.015600
2.476900 0.021000
2.502000 0.027100
2.527100 0.034000
2.552200 0.041700
2.577300 0.050200
2.602400 0.059400
2.627500 0.069400
2.652600 0.080300
2.677700 0.092000
2.702800 0.105500
2.728000 0.120600
2.753100 0.137500
2.778200 0.156100
2.803300 0.176400
2.828400 0.198500
2.853500 0.222200
2.878600 0.242700
2.903700 0.262300
2.928800 0.282600
2.953900 0.303500
2.979000 0.325100
3.004100 0.347300
3.029200 0.370200
3.054300 0.394000
3.079400 0.423400
3.104600 0.460400
3.129700 0.499800
3.154800 0.536000
3.179900 0.569000
3.205000 0.599700
3.230100 0.628800
3.255200 0.656400
3.280300 0.682400
3.305400 0.706800
3.330500 0.729600
3.355600 0.755800
3.380700 0.788200
3.405800 0.823000
3.430900 0.875400
3.456100 1.027300
3.481200 1.247400
3.506300 1.620500
3.531400 2.307300
3.556500 3.076900
3.581600 3.850300
3.606700 4.357500
3.631800 4.863900
3.656900 5.067800
3.682000 4.922600
3.707100 4.617600
3.732200 4.375500
3.757300 4.009200
3.782400 3.605500
3.807600 3.226400
3.832700 2.890300
3.857800 2.638500
3.882900 2.255100
3.908000 1.924800
3.933100 1.689700
3.958200 1.214000
3.983300 0.769900
4.008400 0.258900
4.033500 0.000000
4.058600 0.000000
4.083700 0.000000
4.108800 0.000000
4.133900 0.000000
4.159100 0.000000
4.184200 0.000000
4.209300 0.000000
4.234400 0.000000
4.259500 0.000000
4.284600 0.000000
4.309700 0.000000
4.334800 0.000000
4.359900 0.000000
4.385000 0.000000
4.410100 0.000000
4.435200 0.000000
4.460300 0.000000
4.485400 0.000000
4.510500 0.000000
4.535700 0.000000
4.560800 0.000000
4.585900 0.000000
4.611000 0.000000
4.636100 0.000000
4.661200 0.000000
4.686300 0.000000
4.711400 0.000000
4.736500 0.000000
4.761600 0.000000
4.786700 0.000000
4.811800 0.000000
4.836900 0.000000
4.862000 0.000000
4.887200 0.000000
4.912300 0.000000
4.937400 0.000200
4.962500 0.001900
4.987600 0.005600
5.012700 0.011100
5.037800 0.018600
5.062900 0.028300
5.088000 0.041100
5.113100 0.057100
5.138200 0.075400
5.163300 0.093800
5.188400 0.112200
5.213500 0.130600
5.238700 0.149000
5.263800 0.167400
5.288900 0.185800
5.314000 0.204100
5.339100 0.222500
5.364200 0.240800
5.389300 0.259100
5.414400 0.277500
5.439500 0.295800
5.464600 0.314100
5.489700 0.332400
5.514800 0.344900
5.539900 0.350900
5.565000 0.358600
5.590200 0.370500
5.615300 0.388500
5.640400 0.415300
5.665500 0.450900
5.690600 0.516200
5.715700 0.738800
5.740800 0.822100
5.765900 0.933200
5.791000 1.075500
5.816100 1.189900
5.841200 1.279900
5.866300 1.359900
5.891400 1.436500
5.916500 1.509500
5.941700 1.579700
5.966800 1.647500
5.991900 1.712800
6.017000 1.869900
6.042100 1.923900
6.067200 1.978500
6.092300 2.042800
6.117400 2.110800
6.142500 2.135900
6.167600 2.149200
6.192700 2.164700
6.217800 2.179400
6.242900 2.241500
6.268000 2.285800
6.293100 2.293400
6.318300 2.314700
6.343400 2.304200
6.368500 2.264100
6.393600 2.126800
6.418700 1.910800
6.443800 1.684200
6.468900 1.478200
6.494000 1.325200
6.519100 1.193200
6.544200 1.079300
6.569300 0.983100
6.594400 0.906700
6.619500 0.861100
6.644600 0.827800
6.669800 0.802000
6.694900 0.783000
6.720000 0.770400
6.745100 0.764000
6.770200 0.764100
6.795300 0.770500
6.820400 0.782800
6.845500 0.800600
6.870600 0.823700
6.895700 0.851800
6.920800 0.884800
6.945900 0.922700
6.971000 0.965500
6.996100 1.125200
7.021300 1.511200
7.046400 1.244600
7.071500 1.142000
7.096600 1.189700
7.121700 1.241600
7.146800 1.298700
7.171900 1.362300
7.197000 1.425400
7.222100 1.477500
7.247200 1.484800
7.272300 1.537200
7.297400 1.614800
7.322500 1.686900
7.347600 1.750800
7.372800 1.813700
7.397900 1.881100
7.423000 1.936300
7.448100 1.977800
7.473200 2.004200
7.498300 2.029100
7.523400 2.055600
7.548500 2.069200
7.573600 2.070100
7.598700 2.071700
7.623800 2.092400
7.648900 2.125100
7.674000 2.182300
7.699100 2.215400
7.724200 2.214400
7.749400 2.189100
7.774500 2.149300
7.799600 2.202300
7.824700 2.329200
7.849800 2.218000
7.874900 2.022400
7.900000 1.885800
7.925100 1.744100
7.950200 1.584800
7.975300 1.418100
8.000400 1.364400
8.025500 1.475400
8.050600 1.840400
8.075700 2.314000
8.100900 2.679400
8.126000 3.009600
8.151100 3.444500
8.176200 3.919700
8.201300 4.821900
8.226400 6.299700
8.251500 7.275400
8.276600 7.407300
8.301700 7.121500
8.326800 6.647900
8.351900 6.752500
8.377000 6.094200
8.402100 5.162000
8.427200 4.129700
8.452400 2.836400
8.477500 1.861600
8.502600 1.219900
8.527700 0.829500
8.552800 1.072700
8.577900 1.718600
8.603000 2.450700
8.628100 3.351300
8.653200 4.459100
8.678300 5.275100
8.703400 5.244200
8.728500 4.958500
8.753600 4.746000
8.778700 4.484400
8.803900 4.363000
8.829000 4.259700
8.854100 4.172200
8.879200 4.073400
8.904300 4.035900
8.929400 3.910500
8.954500 3.774400
8.979600 3.601100
9.004700 3.543500
9.029800 3.444600
9.054900 3.360900
9.080000 3.237700
9.105100 2.866400
9.130200 2.508900
9.155300 2.316300
9.180500 2.359000
9.205600 2.476900
9.230700 2.493200
9.255800 2.348600
9.280900 2.384300
9.306000 2.444300
9.331100 2.524200
9.356200 2.618800
9.381300 2.638600
9.406400 2.595900
9.431500 2.562000
9.456600 2.524000
9.481700 2.478600
9.506800 2.467300
9.532000 2.474500
9.557100 2.346000
9.582200 2.372900
9.607300 2.355600
9.632400 2.253400
9.657500 2.097500
9.682600 1.894600
9.707700 1.811000
9.732800 1.903900
9.757900 2.123400
9.783000 2.194700
9.808100 2.337600
9.833200 2.469700
9.858300 2.608700
9.883500 2.712600
9.908600 2.843800
9.933700 3.124200
9.958800 3.511100
9.983900 3.750000
10.009000 3.721500
10.034100 3.413200
10.059200 2.965100
10.084300 2.547300
10.109400 2.227100
10.134500 2.031700
10.159600 1.912500
10.184700 1.776800
10.209800 1.629100
10.235000 1.468000
10.260100 1.291700
10.285200 1.228300
10.310300 1.199500
10.335400 1.173400
10.360500 1.152600
10.385600 1.133600
10.410700 1.116700
10.435800 1.102400
10.460900 1.089500
10.486000 1.079200
10.511100 1.076700
10.536200 1.083100
10.561300 1.098600
10.586500 1.122900
10.611600 1.156200
10.636700 1.198500
10.661800 1.241300
10.686900 1.271800
10.712000 1.322000
10.737100 1.399300
10.762200 1.485200
10.787300 1.562800
10.812400 1.389700
10.837500 1.223700
10.862600 1.208200
10.887700 1.199500
10.912800 1.212600
10.937900 1.246500
10.963100 1.301100
10.988200 1.380500
11.013300 1.498000
11.038400 1.641100
11.063500 1.795200
11.088600 1.962400
11.113700 2.106700
11.138800 2.132600
11.163900 2.118800
11.189000 2.043200
11.214100 1.950400
11.239200 1.907800
11.264300 1.869100
11.289400 1.819800
11.314600 1.758500
11.339700 1.787400
11.364800 1.806700
11.389900 1.527600
11.415000 1.442500
11.440100 1.414700
11.465200 1.395000
11.490300 1.366500
11.515400 1.370800
11.540500 1.389900
11.565600 1.355100
11.590700 1.346600
11.615800 1.326200
11.640900 1.293800
11.666100 1.247100
11.691200 1.207000
11.716300 1.181000
11.741400 1.165000
11.766500 1.154700
11.791600 1.148200
11.816700 1.150700
11.841800 1.161100
11.866900 1.174100
11.892000 1.189000
11.917100 1.207500
11.942200 1.231200
11.967300 1.260400
11.992400 1.294900
12.017600 1.334800
12.042700 1.320900
12.067800 1.373000
12.092900 1.433700
12.118000 1.501900
12.143100 1.577300
12.168200 1.660100
12.193300 1.744100
12.218400 1.764600
12.243500 1.982200
12.268600 1.747900
12.293700 1.807700
12.318800 1.884000
12.343900 1.981800
12.369000 2.068400
12.394200 2.108100
12.419300 2.156600
12.444400 2.220500
12.469500 2.296600
12.494600 2.409100
12.519700 2.602500
12.544800 2.795900
12.569900 2.781100
12.595000 2.731200
12.620100 2.777100
12.645200 2.789400
12.670300 2.780800
12.695400 2.771700
12.720500 2.754100
12.745700 2.735900
12.770800 2.743300
12.795900 2.761700
12.821000 2.785800
12.846100 2.779100
12.871200 2.731800
12.896300 2.604600
12.921400 2.509200
12.946500 2.502900
12.971600 2.865500
12.996700 2.767800
13.021800 2.685400
13.046900 2.609300
13.072000 2.527400
13.097200 2.443300
13.122300 2.369100
13.147400 2.330100
13.172500 2.328200
13.197600 2.333800
13.222700 2.303600
13.247800 2.204300
13.272900 2.106400
13.298000 2.048700
13.323100 1.995000
13.348200 1.854100
13.373300 1.719900
13.398400 1.632200
13.423500 1.596100
13.448700 1.609000
13.473800 1.658300
13.498900 1.723700
13.524000 1.793000
13.549100 1.868200
13.574200 1.948200
13.599300 2.033000
13.624400 2.100400
13.649500 2.143400
13.674600 2.218500
13.699700 2.281400
13.724800 2.376500
13.749900 2.545000
13.775000 2.691700
13.800200 2.778200
13.825300 2.753500
13.850400 2.710200
13.875500 2.751300
13.900600 2.788400
13.925700 2.725400
13.950800 2.646000
13.975900 2.641900
14.001000 2.618600
14.026100 2.611800
14.051200 2.626000
14.076300 2.657800
14.101400 2.692100
14.126500 2.743400
14.151600 2.793300
14.176800 2.843200
14.201900 2.903600
14.227000 2.976900
14.252100 3.053900
14.277200 3.141000
14.302300 3.367300
14.327400 3.398300
14.352500 3.376900
14.377600 3.331500
14.402700 3.320500
14.427800 3.329600
14.452900 3.338100
14.478000 3.343600
14.503100 3.346600
14.528300 3.349100
14.553400 3.349600
14.578500 3.353500
14.603600 3.370800
14.628700 3.351600
14.653800 3.222700
14.678900 3.049000
14.704000 2.773900
14.729100 2.374000
14.754200 1.995200
14.779300 1.740700
14.804400 1.562300
14.829500 1.506200
14.854600 1.554800
14.879800 1.656200
14.904900 1.778100
14.930000 1.914500
14.955100 2.066200
14.980200 2.222500
15.005300 2.378500
15.030400 2.533400
15.055500 2.713800
15.080600 2.944100
15.105700 3.233100
15.130800 3.447700
15.155900 3.580000
15.181000 3.682600
15.206100 3.758600
15.231300 3.829500
15.256400 3.860300
15.281500 3.853300
15.306600 3.824000
15.331700 3.683100
15.356800 3.533000
15.381900 3.417900
15.407000 3.297000
15.432100 3.190300
15.457200 3.066100
15.482300 2.961100
15.507400 2.851200
15.532500 2.716500
15.557600 2.556700
15.582700 2.404800
15.607900 2.304800
15.633000 2.218800
15.658100 2.192400
15.683200 2.257500
15.708300 2.409200
15.733400 2.619900
15.758500 2.887000
15.783600 3.143700
15.808700 3.219900
15.833800 3.251400
15.858900 3.317100
15.884000 3.247300
15.909100 3.156900
15.934200 3.035600
15.959400 2.924300
15.984500 2.861100
16.009600 2.808400
16.034700 2.750500
16.059800 2.473000
16.084900 2.256900
16.110000 2.109700
16.135100 2.027500
16.160200 2.003100
16.185300 1.979400
16.210400 1.928300
16.235500 1.902500
16.260600 1.899200
16.285700 1.917600
16.310900 1.946600
16.336000 2.310300
16.361100 2.223000
16.386200 2.501700
16.411300 2.940700
16.436400 3.256900
16.461500 3.470300
16.486600 3.574500
16.511700 3.601300
16.536800 3.537900
16.561900 3.615600
16.587000 3.586700
16.612100 3.613100
16.637200 3.600700
16.662400 3.553300
16.687500 3.496400
16.712600 3.436300
16.737700 3.376500
16.762800 3.321700
16.787900 3.275500
16.813000 3.245600
16.838100 3.218400
16.863200 3.167100
16.888300 3.073600
16.913400 3.081100
16.938500 3.121400
16.963600 3.191200
16.988700 3.233700
17.013800 3.129900
17.039000 3.026900
17.064100 2.927800
17.089200 2.885100
17.114300 2.815900
17.139400 2.791400
17.164500 2.786300
17.189600 2.813100
17.214700 2.857300
17.239800 2.916700
17.264900 3.003000
17.290000 3.119000
17.315100 3.385800
17.340200 3.665500
17.365300 3.729200
17.390500 3.725200
17.415600 3.647300
17.440700 3.481300
17.465800 3.289500
17.490900 3.141500
17.516000 3.113100
17.541100 2.918800
17.566200 2.860500
17.591300 2.850600
17.616400 2.886200
17.641500 2.919700
17.666600 2.969900
17.691700 3.063500
17.716800 3.201700
17.742000 3.369400
17.767100 3.444200
17.792200 3.447100
17.817300 3.354300
17.842400 3.291500
17.867500 3.292200
17.892600 3.278700
17.917700 3.236700
17.942800 3.173800
17.967900 3.080300
17.993000 2.963800
18.018100 2.840800
18.043200 2.737700
18.068300 2.632000
18.093500 2.519800
18.118600 2.410400
18.143700 2.306000
18.168800 2.233200
18.193900 2.162700
18.219000 2.095000
18.244100 2.050600
18.269200 2.013300
18.294300 1.992700
18.319400 1.993100
18.344500 2.018200
18.369600 2.068300
18.394700 2.140100
18.419800 2.222900
18.445000 2.291800
18.470100 2.350300
18.495200 2.421900
18.520300 2.508400
18.545400 2.604900
18.570500 2.712500
18.595600 2.932900
18.620700 3.202700
18.645800 3.394700
18.670900 3.539700
18.696000 3.540800
18.721100 3.417800
18.746200 3.392100
18.771300 3.423800
18.796400 3.478600
18.821600 3.570500
18.846700 3.679400
18.871800 3.689900
18.896900 3.669400
18.922000 3.634300
18.947100 3.570900
18.972200 3.458700
18.997300 3.306500
19.022400 3.197900
19.047500 3.132600
19.072600 3.072500
19.097700 3.018600
19.122800 2.959400
19.147900 2.907700
19.173100 2.807600
19.198200 2.716300
19.223300 2.665900
19.248400 2.604800
19.273500 2.485700
19.298600 2.464100
19.323700 2.498500
19.348800 2.583000
19.373900 2.690500
19.399000 2.814800
19.424100 2.726200
19.449200 2.760300
19.474300 2.823800
19.499400 2.587500
19.524600 2.343900
19.549700 2.173200
19.574800 2.105400
19.599900 2.121900
19.625000 2.182600
19.650100 2.267000
19.675200 2.381300
19.700300 2.510200
19.725400 2.650200
19.750500 2.786100
19.775600 2.962200
19.800700 3.206200
19.825800 3.574900
19.850900 3.591900
19.876100 3.623900
19.901200 3.693700
19.926300 3.757000
19.951400 3.788600
19.976500 3.741100
20.001600 3.653000
20.026700 3.516800
20.051800 3.365400
20.076900 2.989000
20.102000 2.873300
20.127100 2.835100
20.152200 2.790000
20.177300 2.747300
20.202400 2.769800
20.227500 2.772500
20.252700 2.741000
20.277800 2.682900
20.302900 2.610100
20.328000 2.595100
20.353100 2.648400
20.378200 2.737500
20.403300 2.887700
20.428400 3.040300
20.453500 3.181300
20.478600 3.275200
20.503700 3.320600
20.528800 3.318100
20.553900 3.184200
20.579000 3.159700
20.604200 3.144900
20.629300 3.131600
20.654400 3.121300
20.679500 3.126200
20.704600 3.216400
20.729700 3.442100
20.754800 3.332100
20.779900 3.115200
20.805000 2.949600
20.830100 2.761700
20.855200 2.584000
20.880300 2.467600
20.905400 2.359900
20.930500 2.266100
20.955700 2.196700
20.980800 2.174200
21.005900 2.228800
21.031000 2.383600
21.056100 2.384300
21.081200 2.397300
21.106300 2.418200
21.131400 2.451300
21.156500 2.522000
21.181600 2.608900
21.206700 2.675600
21.231800 2.737600
21.256900 2.680500
21.282000 2.496300
21.307200 2.518800
21.332300 2.553500
21.357400 2.602300
21.382500 2.659100
21.407600 2.711600
21.432700 2.765700
21.457800 2.829500
21.482900 2.884100
21.508000 2.920500
21.533100 2.967200
21.558200 3.012400
21.583300 2.932200
21.608400 2.909300
21.633500 2.913500
21.658600 2.969800
21.683800 2.976500
21.708900 2.914400
21.734000 2.850000
21.759100 2.798100
21.784200 2.744500
21.809300 2.687700
21.834400 2.629700
21.859500 2.575600
21.884600 2.533900
21.909700 2.506300
21.934800 2.494500
21.959900 2.503600
21.985000 2.544100
22.010100 2.740300
22.035300 2.806500
22.060400 2.884100
22.085500 3.090300
22.110600 3.192500
22.135700 3.275600
22.160800 3.333700
22.185900 3.407300
22.211000 3.474900
22.236100 3.524900
22.261200 3.549800
22.286300 3.519200
22.311400 3.534300
22.336500 3.534000
22.361600 3.495000
22.386800 3.396600
22.411900 3.222000
22.437000 3.064300
22.462100 2.910900
22.487200 2.731300
22.512300 2.548900
22.537400 2.370400
22.562500 2.212300
22.587600 2.085200
22.612700 1.994600
22.637800 1.967100
22.662900 2.006600
22.688000 2.054400
22.713100 2.056500
22.738300 2.027600
22.763400 2.050500
22.788500 2.108200
22.813600 2.150200
22.838700 2.195300
22.863800 2.242600
22.888900 2.266800
22.914000 2.298900
22.939100 2.353300
22.964200 2.418400
22.989300 2.488800
23.014400 2.608100
23.039500 2.819500
23.064600 2.894400
23.089800 3.178100
23.114900 3.579000
23.140000 3.356800
23.165100 3.346100
23.190200 3.332500
23.215300 3.294800
23.240400 3.225700
23.265500 3.137500
23.290600 3.113400
23.315700 3.149500
23.340800 3.223400
23.365900 3.299300
23.391000 3.378700
23.416100 3.499800
23.441200 3.655500
23.466400 3.719100
23.491500 3.744600
23.516600 3.706100
23.541700 3.672500
23.566800 3.630800
23.591900 3.579400
23.617000 3.520600
23.642100 3.432800
23.667200 3.256100
23.692300 3.128600
23.717400 3.012800
23.742500 2.913000
23.767600 2.839000
23.792700 2.737800
23.817900 2.667500
23.843000 2.653800
23.868100 2.646900
23.893200 2.719800
23.918300 2.863100
23.943400 3.113400
23.968500 3.295700
23.993600 3.509100
24.018700 3.709500
24.043800 3.883200
24.068900 4.037200
24.094000 3.842100
24.119100 3.640000
24.144200 3.544300
24.169400 3.464900
24.194500 3.403600
24.219600 3.360800
24.244700 3.321700
24.269800 3.063200
24.294900 2.883400
24.320000 2.723200
24.345100 2.607700
24.370200 2.659300
24.395300 2.797400
24.420400 2.960400
24.445500 3.203000
24.470600 3.474000
24.495700 3.719200
24.520900 3.813200
24.546000 3.755400
24.571100 3.677300
24.596200 3.668600
24.621300 3.707300
24.646400 3.737000
24.671500 3.738600
24.696600 3.741500
24.721700 3.777900
24.746800 3.634900
24.771900 3.356500
24.797000 3.112600
24.822100 2.725700
24.847200 2.488000
24.872300 2.307500
24.897500 2.171500
24.922600 2.094400
24.947700 2.128900
24.972800 2.298400
24.997900 2.595100
25.023000 2.952900
25.048100 3.264200
25.073200 3.515200
25.098300 3.737500
25.123400 3.944700
25.148500 4.130300
25.173600 4.289300
25.198700 4.388500
25.223800 4.424800
25.249000 4.218900
25.274100 3.963000
25.299200 3.686000
25.324300 3.363000
25.349400 3.135300
25.374500 2.951800
25.399600 2.775800
25.424700 2.519800
25.449800 2.213600
25.474900 1.909100
25.500000 1.744700
25.525100 1.707000
25.550200 1.830600
25.575300 2.241700
25.600500 1.752200
25.625600 1.965500
25.650700 2.260500
25.675800 2.584400
25.700900 2.945400
25.726000 3.438700
25.751100 4.118300
25.776200 4.679100
25.801300 4.635700
25.826400 4.314300
25.851500 4.025100
25.876600 3.784700
25.901700 3.562700
25.926800 3.387500
25.952000 3.208500
25.977100 3.047300
26.002200 2.893000
26.027300 2.748100
26.052400 2.614600
26.077500 2.533600
26.102600 2.488100
26.127700 2.484800
26.152800 2.523100
26.177900 2.680300
26.203000 2.865300
26.228100 3.220800
26.253200 3.520100
26.278300 3.736500
26.303500 3.892200
26.328600 3.979000
26.353700 4.296300
26.378800 4.295800
26.403900 4.033600
26.429000 3.863900
26.454100 3.628300
26.479200 3.827000
26.504300 3.918300
26.529400 3.999700
26.554500 4.138700
26.579600 4.285300
26.604700 4.409300
26.629800 4.472100
26.654900 4.403000
26.680100 4.297900
26.705200 4.172500
26.730300 4.174000
26.755400 3.686100
26.780500 3.441100
26.805600 3.418900
26.830700 3.590700
26.855800 3.605900
26.880900 3.590400
26.906000 3.423800
26.931100 3.259400
26.956200 3.157900
26.981300 3.247200
27.006400 3.187300
27.031600 3.053500
27.056700 2.815000
27.081800 2.584200
27.106900 2.414200
27.132000 2.281500
27.157100 2.188200
27.182200 2.120100
27.207300 2.097100
27.232400 2.147500
27.257500 2.257200
27.282600 2.397000
27.307700 2.561400
27.332800 2.768700
27.357900 3.044100
27.383100 3.329200
27.408200 3.490700
27.433300 3.557500
27.458400 3.506600
27.483500 3.418600
27.508600 3.313900
27.533700 3.200300
27.558800 3.115900
27.583900 3.110700
27.609000 3.107800
27.634100 2.894200
27.659200 2.865000
27.684300 2.871600
27.709400 2.885300
27.734600 2.941400
27.759700 3.016000
27.784800 3.066500
27.809900 3.131200
27.835000 3.192900
27.860100 3.265500
27.885200 3.351800
27.910300 3.444600
27.935400 3.532500
27.960500 3.614500
27.985600 3.687300
28.010700 3.731800
28.035800 3.728300
28.060900 3.748400
28.086000 3.738600
28.111200 3.662900
28.136300 3.558000
28.161400 3.449600
28.186500 3.308300
28.211600 3.175500
28.236700 3.039400
28.261800 2.889900
28.286900 2.731700
28.312000 2.611100
28.337100 2.508400
28.362200 2.445700
28.387300 2.435000
28.412400 2.468200
28.437500 2.530700
28.462700 2.639300
28.487800 2.768400
28.512900 3.042000
28.538000 3.294200
28.563100 3.386500
28.588200 3.342100
28.613300 3.139200
28.638400 3.140700
28.663500 3.153600
28.688600 3.170700
28.713700 3.189300
28.738800 3.207600
28.763900 3.217300
28.789000 3.211300
28.814200 3.224300
28.839300 3.237400
28.864400 3.209000
28.889500 3.175500
28.914600 3.201600
28.939700 3.293900
28.964800 3.405800
28.989900 3.552800
29.015000 3.709500
29.040100 3.772600
29.065200 3.854200
29.090300 4.050800
29.115400 4.180700
29.140500 4.230800
29.165700 4.282700
29.190800 4.310600
29.215900 4.305400
29.241000 4.474800
29.266100 4.421300
29.291200 4.106400
29.316300 4.078100
29.341400 4.036000
29.366500 3.926200
29.391600 3.567000
29.416700 3.340900
29.441800 3.279800
29.466900 3.309700
29.492000 3.230800
29.517100 3.258700
29.542300 3.271400
29.567400 3.449700
29.592500 3.458600
29.617600 3.446100
29.642700 3.433600
29.667800 3.430700
29.692900 3.418800
29.718000 3.369100
29.743100 3.183800
29.768200 2.941300
29.793300 2.875300
29.818400 2.802400
29.843500 2.765300
29.868600 2.763100
29.893800 2.801500
29.918900 2.867400
29.944000 2.762000
29.969100 2.650000
29.994200 2.598900
30.019300 2.608400
30.044400 2.700300
30.069500 2.986000
30.094600 3.473000
30.119700 3.503900
30.144800 3.232400
30.169900 3.050500
30.195000 2.892000
30.220100 2.822200
30.245300 2.759400
30.270400 2.694900
30.295500 2.633600
30.320600 2.698300
30.345700 2.415800
30.370800 2.164200
30.395900 1.796800
30.421000 1.456000
30.446100 1.346500
30.471200 1.255800
30.496300 1.164600
30.521400 1.034000
30.546500 0.854900
30.571600 0.685200
30.596800 0.575100
30.621900 0.475500
30.647000 0.386100
30.672100 0.307000
30.697200 0.238200
30.722300 0.190000
30.747400 0.153400
30.772500 0.124900
30.797600 0.099800
30.822700 0.078100
30.847800 0.058500
30.872900 0.041000
30.898000 0.026500
30.923100 0.015100
30.948300 0.006900
30.973400 0.001900
30.998500 0.000000
31.023600 0.000000
31.048700 0.000000
31.073800 0.000000
31.098900 0.000000
31.124000 0.000000
31.149100 0.000000
31.174200 0.000000
31.199300 0.000000
31.224400 0.000000
31.249500 0.000000
31.274600 0.000000
31.299700 0.000000
31.324900 0.000000
31.350000 0.000000
31.375100 0.000000
31.400200 0.000000
31.425300 0.000000
31.450400 0.000000
31.475500 0.000000
31.500600 0.000000
31.525700 0.000000
31.550800 0.000000
31.575900 0.000000
31.601000 0.000000
31.626100 0.000000
31.651200 0.000000
31.676400 0.000000
31.701500 0.000000
31.726600 0.000000
31.751700 0.000000
31.776800 0.000000
31.801900 0.000000
31.827000 0.000000
31.852100 0.000000
31.877200 0.000000
31.902300 0.000000
31.927400 0.000000
31.952500 0.000000
31.977600 0.000000
32.002700 0.000000
32.027900 0.000000
32.053000 0.000000
32.078100 0.000000
32.103200 0.000000
32.128300 0.000000
32.153400 0.000000
32.178500 0.000000
32.203600 0.000000
32.228700 0.000000
32.253800 0.000000
32.278900 0.000000
32.304000 0.000000
32.329100 0.000000
32.354200 0.000000
32.379400 0.000000
32.404500 0.000000
32.429600 0.000000
32.454700 0.000000
32.479800 0.000000
32.504900 0.000000
32.530000 0.000000
32.555100 0.000000
32.580200 0.000000
32.605300 0.000000
32.630400 0.000000
32.655500 0.000000
32.680600 0.000000
32.705700 0.000000
32.730800 0.000000
32.756000 0.000000
32.781100 0.000000
32.806200 0.000000
32.831300 0.000000
32.856400 0.000000
32.881500 0.000000
32.906600 0.000000
32.931700 0.000000
32.956800 0.000000
32.981900 0.000000
33.007000 0.000000
33.032100 0.000000
33.057200 0.000000
33.082300 0.000000
33.107500 0.000000
33.132600 0.000000
33.157700 0.000000
33.182800 0.000000
33.207900 0.000000
33.233000 0.000000
33.258100 0.000000
33.283200 0.000000
e
