set title 'mp-571297 - Density of States'
set xlabel 'Energy (eV)'
set ylabel 'DOS (states/eV)'
set grid
set xrange [-10:10]
set yrange [0:30.243]
set xzeroaxis lt -1
set terminal png size 800,600
set output 'mp-571297_dos_gnuplot.png'
plot '-' using 1:2 with lines title 'DOS'
-24.275500 0.000000
-24.244000 0.000000
-24.212500 0.000000
-24.181000 0.000000
-24.149500 0.000000
-24.118000 0.000000
-24.086500 0.000000
-24.055000 0.000000
-24.023500 0.000000
-23.992000 0.000000
-23.960500 0.000000
-23.929000 0.000000
-23.897500 0.000000
-23.866000 0.000000
-23.834500 0.000000
-23.803000 0.000000
-23.771500 0.000000
-23.740000 0.000000
-23.708500 0.000000
-23.677000 0.000000
-23.645500 0.000000
-23.614000 0.000000
-23.582500 0.000000
-23.551000 0.000000
-23.519500 0.000000
-23.488000 0.000000
-23.456500 0.000000
-23.425000 0.000000
-23.393500 0.000000
-23.362000 0.000000
-23.330500 0.000000
-23.299000 0.000000
-23.267500 0.000000
-23.235900 0.000000
-23.204400 0.000000
-23.172900 0.000000
-23.141400 0.000000
-23.109900 0.000000
-23.078400 0.000000
-23.046900 0.000000
-23.015400 0.000000
-22.983900 0.000000
-22.952400 0.000000
-22.920900 0.000000
-22.889400 0.000000
-22.857900 0.000000
-22.826400 0.000000
-22.794900 0.000000
-22.763400 0.000000
-22.731900 0.000000
-22.700400 0.000000
-22.668900 0.000000
-22.637400 0.000000
-22.605900 0.000000
-22.574400 0.000000
-22.542900 0.000000
-22.511400 0.000000
-22.479900 0.000000
-22.448400 0.000000
-22.416900 0.000000
-22.385400 0.000000
-22.353900 0.000000
-22.322400 0.000000
-22.290900 0.000000
-22.259400 0.000000
-22.227900 0.000000
-22.196300 0.000000
-22.164800 0.000000
-22.133300 0.000000
-22.101800 0.000000
-22.070300 0.000000
-22.038800 0.000000
-22.007300 0.000000
-21.975800 0.000000
-21.944300 0.000000
-21.912800 0.000000
-21.881300 0.000000
-21.849800 0.000000
-21.818300 0.000000
-21.786800 0.000000
-21.755300 0.000000
-21.723800 0.000000
-21.692300 0.000000
-21.660800 0.000000
-21.629300 0.000000
-21.597800 0.000000
-21.566300 0.000000
-21.534800 0.000400
-21.503300 0.010100
-21.471800 0.118900
-21.440300 0.771100
-21.408800 2.948100
-21.377300 7.188100
-21.345800 11.966200
-21.314300 14.513000
-21.282800 14.204000
-21.251300 13.097000
-21.219800 13.072600
-21.188300 14.237200
-21.156700 14.571300
-21.125200 11.558900
-21.093700 6.199900
-21.062200 2.066800
-21.030700 0.402400
-20.999200 0.043400
-20.967700 0.002500
-20.936200 0.000100
-20.904700 0.000000
-20.873200 0.000000
-20.841700 0.000000
-20.810200 0.000000
-20.778700 0.000000
-20.747200 0.000000
-20.715700 0.000000
-20.684200 0.000000
-20.652700 0.000000
-20.621200 0.000000
-20.589700 0.000000
-20.558200 0.000000
-20.526700 0.000000
-20.495200 0.000000
-20.463700 0.000000
-20.432200 0.000000
-20.400700 0.000000
-20.369200 0.000000
-20.337700 0.000000
-20.306200 0.000000
-20.274700 0.000000
-20.243200 0.000000
-20.211700 0.000000
-20.180200 0.000000
-20.148700 0.000000
-20.117100 0.000000
-20.085600 0.000000
-20.054100 0.000000
-20.022600 0.000000
-19.991100 0.000000
-19.959600 0.000000
-19.928100 0.000000
-19.896600 0.000000
-19.865100 0.000000
-19.833600 0.000000
-19.802100 0.000000
-19.770600 0.000000
-19.739100 0.000000
-19.707600 0.000000
-19.676100 0.000000
-19.644600 0.000000
-19.613100 0.000000
-19.581600 0.000000
-19.550100 0.000000
-19.518600 0.000000
-19.487100 0.000000
-19.455600 0.000000
-19.424100 0.000000
-19.392600 0.000000
-19.361100 0.000000
-19.329600 0.000000
-19.298100 0.000000
-19.266600 0.000000
-19.235100 0.000000
-19.203600 0.000000
-19.172100 0.000000
-19.140600 0.000000
-19.109100 0.000000
-19.077600 0.000000
-19.046000 0.000000
-19.014500 0.000000
-18.983000 0.000000
-18.951500 0.000000
-18.920000 0.000000
-18.888500 0.000000
-18.857000 0.000000
-18.825500 0.000000
-18.794000 0.000000
-18.762500 0.000000
-18.731000 0.000000
-18.699500 0.000000
-18.668000 0.000000
-18.636500 0.000000
-18.605000 0.000000
-18.573500 0.000000
-18.542000 0.000000
-18.510500 0.000000
-18.479000 0.000000
-18.447500 0.000000
-18.416000 0.000000
-18.384500 0.000000
-18.353000 0.000000
-18.321500 0.000000
-18.290000 0.000000
-18.258500 0.000000
-18.227000 0.000000
-18.195500 0.000000
-18.164000 0.000000
-18.132500 0.000000
-18.101000 0.000000
-18.069500 0.000000
-18.038000 0.000000
-18.006400 0.000000
-17.974900 0.000000
-17.943400 0.000000
-17.911900 0.000000
-17.880400 0.000000
-17.848900 0.000000
-17.817400 0.000000
-17.785900 0.000000
-17.754400 0.000000
-17.722900 0.000000
-17.691400 0.000000
-17.659900 0.000000
-17.628400 0.000000
-17.596900 0.000000
-17.565400 0.000000
-17.533900 0.000000
-17.502400 0.000000
-17.470900 0.000000
-17.439400 0.000000
-17.407900 0.000000
-17.376400 0.000000
-17.344900 0.000000
-17.313400 0.000000
-17.281900 0.000000
-17.250400 0.000000
-17.218900 0.001500
-17.187400 0.048500
-17.155900 0.758600
-17.124400 5.805200
-17.092900 21.842100
-17.061400 40.536000
-17.029900 37.126400
-16.998400 16.739600
-16.966800 3.696100
-16.935300 0.396800
-16.903800 0.020500
-16.872300 0.000500
-16.840800 0.000000
-16.809300 0.000000
-16.777800 0.000000
-16.746300 0.000000
-16.714800 0.000000
-16.683300 0.000000
-16.651800 0.000000
-16.620300 0.000000
-16.588800 0.000000
-16.557300 0.000000
-16.525800 0.000000
-16.494300 0.000000
-16.462800 0.000000
-16.431300 0.000000
-16.399800 0.000000
-16.368300 0.000000
-16.336800 0.000000
-16.305300 0.000000
-16.273800 0.000000
-16.242300 0.000000
-16.210800 0.000000
-16.179300 0.000000
-16.147800 0.000000
-16.116300 0.000000
-16.084800 0.000000
-16.053300 0.000000
-16.021800 0.000000
-15.990300 0.000000
-15.958800 0.000000
-15.927200 0.000000
-15.895700 0.000000
-15.864200 0.000000
-15.832700 0.000000
-15.801200 0.000000
-15.769700 0.000000
-15.738200 0.000000
-15.706700 0.000000
-15.675200 0.000000
-15.643700 0.000000
-15.612200 0.000000
-15.580700 0.000000
-15.549200 0.000000
-15.517700 0.000000
-15.486200 0.000000
-15.454700 0.000000
-15.423200 0.000000
-15.391700 0.000000
-15.360200 0.000000
-15.328700 0.000000
-15.297200 0.000000
-15.265700 0.000000
-15.234200 0.000000
-15.202700 0.000000
-15.171200 0.000000
-15.139700 0.000000
-15.108200 0.000000
-15.076700 0.000000
-15.045200 0.000000
-15.013700 0.000000
-14.982200 0.000000
-14.950700 0.000000
-14.919200 0.000000
-14.887600 0.000000
-14.856100 0.000000
-14.824600 0.000000
-14.793100 0.000000
-14.761600 0.000000
-14.730100 0.000000
-14.698600 0.000000
-14.667100 0.000000
-14.635600 0.000000
-14.604100 0.000000
-14.572600 0.000000
-14.541100 0.000000
-14.509600 0.000000
-14.478100 0.000000
-14.446600 0.000000
-14.415100 0.000000
-14.383600 0.000000
-14.352100 0.000000
-14.320600 0.000000
-14.289100 0.000000
-14.257600 0.000000
-14.226100 0.000000
-14.194600 0.000000
-14.163100 0.000000
-14.131600 0.000000
-14.100100 0.000000
-14.068600 0.000000
-14.037100 0.000000
-14.005600 0.000000
-13.974100 0.000000
-13.942600 0.000000
-13.911100 0.000000
-13.879600 0.000000
-13.848000 0.000000
-13.816500 0.000000
-13.785000 0.000000
-13.753500 0.000000
-13.722000 0.000000
-13.690500 0.000000
-13.659000 0.000000
-13.627500 0.000000
-13.596000 0.000000
-13.564500 0.000000
-13.533000 0.000000
-13.501500 0.000000
-13.470000 0.000000
-13.438500 0.000000
-13.407000 0.000000
-13.375500 0.000000
-13.344000 0.000000
-13.312500 0.000000
-13.281000 0.000000
-13.249500 0.000000
-13.218000 0.000000
-13.186500 0.000000
-13.155000 0.000000
-13.123500 0.000000
-13.092000 0.000000
-13.060500 0.000000
-13.029000 0.000000
-12.997500 0.000000
-12.966000 0.000000
-12.934500 0.000000
-12.903000 0.000000
-12.871500 0.000000
-12.840000 0.000000
-12.808400 0.000000
-12.776900 0.000000
-12.745400 0.000000
-12.713900 0.000000
-12.682400 0.000000
-12.650900 0.000000
-12.619400 0.000000
-12.587900 0.000000
-12.556400 0.000000
-12.524900 0.000000
-12.493400 0.000000
-12.461900 0.000000
-12.430400 0.000000
-12.398900 0.000000
-12.367400 0.000000
-12.335900 0.000000
-12.304400 0.000000
-12.272900 0.000000
-12.241400 0.000000
-12.209900 0.000000
-12.178400 0.000000
-12.146900 0.000000
-12.115400 0.000000
-12.083900 0.000000
-12.052400 0.000000
-12.020900 0.000000
-11.989400 0.000000
-11.957900 0.000000
-11.926400 0.000000
-11.894900 0.000000
-11.863400 0.000000
-11.831900 0.000000
-11.800400 0.000000
-11.768800 0.000000
-11.737300 0.000000
-11.705800 0.000000
-11.674300 0.000000
-11.642800 0.000000
-11.611300 0.000000
-11.579800 0.000000
-11.548300 0.000000
-11.516800 0.000000
-11.485300 0.000000
-11.453800 0.000000
-11.422300 0.000000
-11.390800 0.000000
-11.359300 0.000000
-11.327800 0.000000
-11.296300 0.000000
-11.264800 0.000000
-11.233300 0.000000
-11.201800 0.000000
-11.170300 0.000000
-11.138800 0.000000
-11.107300 0.000000
-11.075800 0.000000
-11.044300 0.000000
-11.012800 0.000000
-10.981300 0.000000
-10.949800 0.000000
-10.918300 0.000000
-10.886800 0.000000
-10.855300 0.000000
-10.823800 0.000000
-10.792300 0.000000
-10.760800 0.000000
-10.729200 0.000000
-10.697700 0.000000
-10.666200 0.000000
-10.634700 0.000000
-10.603200 0.000000
-10.571700 0.000000
-10.540200 0.000000
-10.508700 0.000000
-10.477200 0.000000
-10.445700 0.000000
-10.414200 0.000000
-10.382700 0.000000
-10.351200 0.000000
-10.319700 0.000000
-10.288200 0.000000
-10.256700 0.000000
-10.225200 0.000000
-10.193700 0.000000
-10.162200 0.000000
-10.130700 0.000000
-10.099200 0.000000
-10.067700 0.000000
-10.036200 0.000000
-10.004700 0.000000
-9.973200 0.000000
-9.941700 0.000000
-9.910200 0.000000
-9.878700 0.000000
-9.847200 0.000000
-9.815700 0.000000
-9.784200 0.000000
-9.752700 0.000000
-9.721200 0.000000
-9.689700 0.000000
-9.658100 0.000000
-9.626600 0.000000
-9.595100 0.000000
-9.563600 0.000000
-9.532100 0.000000
-9.500600 0.000000
-9.469100 0.000000
-9.437600 0.000000
-9.406100 0.000000
-9.374600 0.000000
-9.343100 0.000000
-9.311600 0.000000
-9.280100 0.000000
-9.248600 0.000000
-9.217100 0.000000
-9.185600 0.000000
-9.154100 0.000000
-9.122600 0.000000
-9.091100 0.000000
-9.059600 0.000000
-9.028100 0.000000
-8.996600 0.000000
-8.965100 0.000000
-8.933600 0.000000
-8.902100 0.000000
-8.870600 0.000000
-8.839100 0.000000
-8.807600 0.000000
-8.776100 0.000000
-8.744600 0.000000
-8.713100 0.000000
-8.681600 0.000000
-8.650100 0.000000
-8.618500 0.000000
-8.587000 0.000000
-8.555500 0.000000
-8.524000 0.000000
-8.492500 0.000000
-8.461000 0.000000
-8.429500 0.000000
-8.398000 0.000000
-8.366500 0.000000
-8.335000 0.000000
-8.303500 0.000000
-8.272000 0.000000
-8.240500 0.000000
-8.209000 0.000000
-8.177500 0.000000
-8.146000 0.000000
-8.114500 0.000000
-8.083000 0.000000
-8.051500 0.000000
-8.020000 0.000000
-7.988500 0.000000
-7.957000 0.000000
-7.925500 0.000000
-7.894000 0.000000
-7.862500 0.000000
-7.831000 0.000000
-7.799500 0.000000
-7.768000 0.000000
-7.736500 0.000000
-7.705000 0.000000
-7.673500 0.000000
-7.642000 0.000000
-7.610500 0.000000
-7.578900 0.000000
-7.547400 0.000000
-7.515900 0.000000
-7.484400 0.000000
-7.452900 0.000000
-7.421400 0.000000
-7.389900 0.000000
-7.358400 0.000000
-7.326900 0.000000
-7.295400 0.000000
-7.263900 0.000000
-7.232400 0.000000
-7.200900 0.000000
-7.169400 0.000000
-7.137900 0.000000
-7.106400 0.000000
-7.074900 0.000000
-7.043400 0.000000
-7.011900 0.000000
-6.980400 0.000000
-6.948900 0.000000
-6.917400 0.000000
-6.885900 0.000000
-6.854400 0.000000
-6.822900 0.000000
-6.791400 0.000000
-6.759900 0.000000
-6.728400 0.000000
-6.696900 0.000000
-6.665400 0.000100
-6.633900 0.001700
-6.602400 0.021000
-6.570900 0.123000
-6.539300 0.373700
-6.507800 0.738900
-6.476300 1.424700
-6.444800 3.021400
-6.413300 5.639000
-6.381800 7.811900
-6.350300 7.812600
-6.318800 6.803000
-6.287300 8.194700
-6.255800 11.900100
-6.224300 13.505900
-6.192800 11.538400
-6.161300 9.418300
-6.129800 9.525000
-6.098300 10.229600
-6.066800 9.467800
-6.035300 8.513300
-6.003800 9.093600
-5.972300 9.610800
-5.940800 8.908300
-5.909300 7.604400
-5.877800 6.079700
-5.846300 4.972600
-5.814800 4.780500
-5.783300 4.157000
-5.751800 2.646600
-5.720300 1.667300
-5.688800 1.581100
-5.657300 2.117400
-5.625800 3.057800
-5.594300 3.837800
-5.562800 4.074700
-5.531300 3.909800
-5.499700 3.683600
-5.468200 3.673900
-5.436700 3.784700
-5.405200 4.116800
-5.373700 5.236300
-5.342200 6.163400
-5.310700 5.479200
-5.279200 4.310000
-5.247700 4.563200
-5.216200 6.331500
-5.184700 6.822700
-5.153200 5.193900
-5.121700 4.631400
-5.090200 6.684700
-5.058700 8.535000
-5.027200 7.837800
-4.995700 6.340800
-4.964200 5.979600
-4.932700 6.441500
-4.901200 6.026200
-4.869700 4.613100
-4.838200 4.872900
-4.806700 9.383200
-4.775200 14.672700
-4.743700 13.203000
-4.712200 7.279300
-4.680700 4.382500
-4.649200 3.678500
-4.617700 2.104500
-4.586200 0.625400
-4.554700 0.093400
-4.523200 0.007000
-4.491700 0.000300
-4.460100 0.000000
-4.428600 0.000000
-4.397100 0.000700
-4.365600 0.012400
-4.334100 0.105500
-4.302600 0.440100
-4.271100 1.006000
-4.239600 1.610300
-4.208100 2.241300
-4.176600 2.987600
-4.145100 4.292100
-4.113600 5.653700
-4.082100 6.295000
-4.050600 6.977300
-4.019100 8.123800
-3.987600 8.384100
-3.956100 7.048900
-3.924600 6.519500
-3.893100 8.515100
-3.861600 10.611500
-3.830100 10.362800
-3.798600 9.143700
-3.767100 8.438100
-3.735600 6.873800
-3.704100 3.950600
-3.672600 1.711000
-3.641100 1.390800
-3.609600 1.750500
-3.578100 1.459200
-3.546600 0.759700
-3.515100 0.252100
-3.483600 0.049200
-3.452100 0.005000
-3.420500 0.000300
-3.389000 0.000000
-3.357500 0.000000
-3.326000 0.000000
-3.294500 0.000000
-3.263000 0.000000
-3.231500 0.000000
-3.200000 0.000000
-3.168500 0.000000
-3.137000 0.000000
-3.105500 0.000000
-3.074000 0.000000
-3.042500 0.000000
-3.011000 0.000000
-2.979500 0.000000
-2.948000 0.000000
-2.916500 0.000000
-2.885000 0.000000
-2.853500 0.000000
-2.822000 0.000000
-2.790500 0.000000
-2.759000 0.000200
-2.727500 0.002900
-2.696000 0.025200
-2.664500 0.103200
-2.633000 0.218600
-2.601500 0.310800
-2.570000 0.410700
-2.538500 0.407400
-2.507000 0.219400
-2.475500 0.057600
-2.444000 0.008100
-2.412500 0.016300
-2.380900 0.123300
-2.349400 0.453300
-2.317900 0.792100
-2.286400 0.677200
-2.254900 0.409600
-2.223400 0.554600
-2.191900 0.819800
-2.160400 0.724900
-2.128900 0.798800
-2.097400 1.453800
-2.065900 1.809000
-2.034400 1.501200
-2.002900 1.233700
-1.971400 1.017600
-1.939900 0.856800
-1.908400 1.419400
-1.876900 2.655300
-1.845400 4.089400
-1.813900 5.277300
-1.782400 5.141500
-1.750900 4.357400
-1.719400 5.056100
-1.687900 6.604500
-1.656400 6.891200
-1.624900 6.814100
-1.593400 7.762200
-1.561900 8.385200
-1.530400 7.816200
-1.498900 7.178000
-1.467400 7.080700
-1.435900 6.977300
-1.404400 6.537500
-1.372900 6.115900
-1.341300 6.582100
-1.309800 7.649500
-1.278300 9.061700
-1.246800 11.532600
-1.215300 13.183500
-1.183800 11.943800
-1.152300 10.029600
-1.120800 10.038700
-1.089300 11.255700
-1.057800 10.568600
-1.026300 8.127400
-0.994800 7.484000
-0.963300 10.409400
-0.931800 13.517700
-0.900300 12.582400
-0.868800 8.991500
-0.837300 6.507000
-0.805800 7.149100
-0.774300 9.335200
-0.742800 9.569100
-0.711300 7.845300
-0.679800 6.648300
-0.648300 7.169500
-0.616800 9.502700
-0.585300 12.709300
-0.553800 16.829000
-0.522300 21.682400
-0.490800 24.829700
-0.459300 25.928200
-0.427800 27.137300
-0.396300 27.063700
-0.364800 24.929800
-0.333300 24.897300
-0.301800 27.493400
-0.270200 27.007800
-0.238700 20.561900
-0.207200 11.370000
-0.175700 4.529400
-0.144200 1.592900
-0.112700 1.034200
-0.081200 1.848200
-0.049700 2.934800
-0.018200 2.704900
0.013300 1.624900
0.044800 1.454700
0.076300 2.180900
0.107800 2.363000
0.139300 1.709900
0.170800 1.203100
0.202300 1.578400
0.233800 2.594900
0.265300 2.942300
0.296800 2.560300
0.328300 2.754000
0.359800 2.855000
0.391300 2.320700
0.422800 2.146900
0.454300 2.499300
0.485800 3.551000
0.517300 4.425700
0.548800 3.880200
0.580300 3.538800
0.611800 5.761700
0.643300 11.098300
0.674800 16.327300
0.706300 16.170200
0.737800 10.949700
0.769400 5.916600
0.800900 4.310100
0.832400 6.255200
0.863900 9.183700
0.895400 9.653400
0.926900 7.381000
0.958400 4.915600
0.989900 4.048700
1.021400 4.749100
1.052900 5.702400
1.084400 5.726700
1.115900 4.536500
1.147400 2.790700
1.178900 1.795600
1.210400 2.019400
1.241900 2.597500
1.273400 3.246700
1.304900 4.098300
1.336400 4.533900
1.367900 5.483900
1.399400 6.546400
1.430900 5.377400
1.462400 3.391200
1.493900 2.354300
1.525400 1.517700
1.556900 0.664100
1.588400 0.378600
1.619900 0.782400
1.651400 1.384900
1.682900 1.511900
1.714400 1.042900
1.745900 0.598200
1.777400 0.462700
1.809000 0.300000
1.840500 0.102600
1.872000 0.016800
1.903500 0.001300
1.935000 0.000000
1.966500 0.000000
1.998000 0.000000
2.029500 0.000000
2.061000 0.000000
2.092500 0.000000
2.124000 0.000000
2.155500 0.000000
2.187000 0.000000
2.218500 0.000000
2.250000 0.000000
2.281500 0.000000
2.313000 0.000000
2.344500 0.000000
2.376000 0.000000
2.407500 0.000000
2.439000 0.000000
2.470500 0.000000
2.502000 0.000000
2.533500 0.000000
2.565000 0.000000
2.596500 0.000000
2.628000 0.000000
2.659500 0.000000
2.691000 0.000000
2.722500 0.000000
2.754000 0.000000
2.785500 0.000000
2.817000 0.000000
2.848600 0.000000
2.880100 0.000000
2.911600 0.000000
2.943100 0.000000
2.974600 0.000000
3.006100 0.000000
3.037600 0.000000
3.069100 0.000000
3.100600 0.000000
3.132100 0.000000
3.163600 0.000000
3.195100 0.000000
3.226600 0.000000
3.258100 0.000000
3.289600 0.000000
3.321100 0.000000
3.352600 0.000000
3.384100 0.000000
3.415600 0.000100
3.447100 0.002100
3.478600 0.023800
3.510100 0.128700
3.541600 0.337300
3.573100 0.489100
3.604600 0.617000
3.636100 0.854100
3.667600 0.915300
3.699100 0.894900
3.730600 0.880500
3.762100 0.616200
3.793600 0.608200
3.825100 1.315500
3.856600 1.972600
3.888200 2.201400
3.919700 3.329300
3.951200 5.078300
3.982700 5.146200
4.014200 3.492200
4.045700 2.363700
4.077200 2.198800
4.108700 1.624100
4.140200 0.773500
4.171700 0.700500
4.203200 1.502000
4.234700 2.724300
4.266200 3.529100
4.297700 2.881200
4.329200 1.550100
4.360700 1.249000
4.392200 1.629800
4.423700 1.284400
4.455200 0.540200
4.486700 0.452000
4.518200 1.305000
4.549700 2.627900
4.581200 3.670300
4.612700 4.010000
4.644200 3.158700
4.675700 1.714000
4.707200 0.804400
4.738700 0.910600
4.770200 1.522300
4.801700 1.476400
4.833200 0.997000
4.864700 1.146300
4.896200 1.709200
4.927800 1.984300
4.959300 2.034900
4.990800 1.884700
5.022300 1.159800
5.053800 0.563800
5.085300 0.988600
5.116800 2.173300
5.148300 2.636000
5.179800 1.748200
5.211300 0.936600
5.242800 0.980700
5.274300 1.546100
5.305800 2.965400
5.337300 4.402900
5.368800 4.028000
5.400300 2.725500
5.431800 2.185400
5.463300 2.191900
5.494800 1.932300
5.526300 1.677200
5.557800 1.980700
5.589300 3.000700
5.620800 4.084300
5.652300 4.755400
5.683800 5.482200
5.715300 5.684200
5.746800 4.846200
5.778300 4.120000
5.809800 4.317700
5.841300 4.935600
5.872800 5.609500
5.904300 5.609100
5.935800 4.411400
5.967400 4.063100
5.998900 5.549600
6.030400 6.384400
6.061900 5.469600
6.093400 4.211300
6.124900 3.530900
6.156400 3.644800
6.187900 4.650300
6.219400 5.871800
6.250900 5.857700
6.282400 4.665600
6.313900 3.495900
6.345400 2.717800
6.376900 2.298900
6.408400 2.203500
6.439900 2.047900
6.471400 1.421000
6.502900 0.838600
6.534400 0.650900
6.565900 0.650800
6.597400 1.129500
6.628900 2.069600
6.660400 2.414800
6.691900 1.699500
6.723400 0.835700
6.754900 0.769800
6.786400 1.232000
6.817900 1.390500
6.849400 1.334500
6.880900 1.237700
6.912400 0.806400
6.943900 0.552900
6.975400 1.125300
7.007000 2.017600
7.038500 2.315600
7.070000 2.316500
7.101500 2.150500
7.133000 1.605700
7.164500 1.474100
7.196000 2.174800
7.227500 3.037300
7.259000 3.223300
7.290500 2.463700
7.322000 1.872600
7.353500 1.756100
7.385000 1.136800
7.416500 0.473100
7.448000 0.869600
7.479500 3.187300
7.511000 6.494700
7.542500 7.059500
7.574000 4.476100
7.605500 2.807900
7.637000 3.330500
7.668500 4.166200
7.700000 3.674900
7.731500 2.101900
7.763000 1.034100
7.794500 1.217300
7.826000 2.691500
7.857500 4.508000
7.889000 5.009100
7.920500 3.791100
7.952000 2.572000
7.983500 2.653600
8.015000 2.817300
8.046600 2.473700
8.078100 3.102500
8.109600 4.137000
8.141100 3.590600
8.172600 2.133900
8.204100 1.143800
8.235600 0.598700
8.267100 0.582600
8.298600 1.225900
8.330100 2.029400
8.361600 1.957000
8.393100 1.012900
8.424600 0.411300
8.456100 0.594100
8.487600 1.068100
8.519100 1.258800
8.550600 1.002600
8.582100 0.487000
8.613600 0.135500
8.645100 0.129000
8.676600 0.572700
8.708100 1.367600
8.739600 1.555100
8.771100 0.846600
8.802600 0.286500
8.834100 0.439800
8.865600 1.177000
8.897100 1.706700
8.928600 1.656900
8.960100 2.094400
8.991600 3.275300
9.023100 3.921500
9.054600 2.949000
9.086100 1.239500
9.117700 0.277900
9.149200 0.114900
9.180700 0.478300
9.212200 1.267600
9.243700 1.642100
9.275200 1.158800
9.306700 0.670900
9.338200 0.496600
9.369700 0.593400
9.401200 0.965900
9.432700 1.268200
9.464200 1.369500
9.495700 1.099200
9.527200 0.524900
9.558700 0.242400
9.590200 0.761200
9.621700 2.579400
9.653200 5.029400
9.684700 5.775200
9.716200 4.533500
9.747700 3.308900
9.779200 2.637800
9.810700 2.585600
9.842200 2.847900
9.873700 2.783200
9.905200 3.036400
9.936700 3.909400
9.968200 3.638600
9.999700 1.854100
10.031200 0.789200
10.062700 1.595600
10.094200 3.803500
10.125700 5.645200
10.157300 5.651200
10.188800 4.043800
10.220300 2.361800
10.251800 1.780400
10.283300 1.735900
10.314800 1.452400
10.346300 1.061200
10.377800 1.182300
10.409300 1.830100
10.440800 2.358100
10.472300 2.619900
10.503800 2.944600
10.535300 2.788100
10.566800 1.846900
10.598300 0.928600
10.629800 0.391700
10.661300 0.298100
10.692800 0.877600
10.724300 1.797000
10.755800 1.828300
10.787300 0.922600
10.818800 0.325300
10.850300 0.549800
10.881800 1.469400
10.913300 2.569200
10.944800 3.401300
10.976300 4.057500
11.007800 4.054100
11.039300 2.984100
11.070800 2.235900
11.102300 2.803500
11.133800 4.059400
11.165300 4.999400
11.196900 5.155700
11.228400 4.828400
11.259900 3.954600
11.291400 2.285700
11.322900 1.561200
11.354400 2.963600
11.385900 5.624000
11.417400 7.417000
11.448900 6.504600
11.480400 4.193300
11.511900 2.683600
11.543400 2.399200
11.574900 3.309800
11.606400 4.832400
11.637900 5.319500
11.669400 3.610800
11.700900 1.764900
11.732400 1.400000
11.763900 2.225000
11.795400 4.177500
11.826900 6.121000
11.858400 6.570600
11.889900 5.901500
11.921400 5.140200
11.952900 4.594400
11.984400 4.507200
12.015900 4.878800
12.047400 5.314000
12.078900 5.293400
12.110400 5.162600
12.141900 4.948800
12.173400 4.092500
12.204900 3.694200
12.236500 4.879000
12.268000 6.469000
12.299500 6.581700
12.331000 5.137000
12.362500 3.507100
12.394000 3.351000
12.425500 5.225700
12.457000 6.490000
12.488500 6.281500
12.520000 7.086000
12.551500 8.300100
12.583000 7.505000
12.614500 4.958300
12.646000 3.009700
12.677500 3.112500
12.709000 4.470700
12.740500 4.506800
12.772000 2.941300
12.803500 2.142200
12.835000 2.968700
12.866500 4.366400
12.898000 4.744000
12.929500 4.364600
12.961000 4.864500
12.992500 6.595300
13.024000 7.719400
13.055500 6.403100
13.087000 3.814000
13.118500 2.538700
13.150000 2.949900
13.181500 3.626200
13.213000 3.893600
13.244500 4.092300
13.276100 4.250200
13.307600 4.089400
13.339100 3.555300
13.370600 2.963900
13.402100 2.801900
13.433600 2.439100
13.465100 1.818500
13.496600 1.571600
13.528100 2.059800
13.559600 2.589500
13.591100 2.123700
13.622600 1.769600
13.654100 2.273700
13.685600 2.545700
13.717100 2.126800
13.748600 1.871700
13.780100 1.549900
13.811600 0.794500
13.843100 0.420900
13.874600 0.931400
13.906100 1.839400
13.937600 2.232000
13.969100 2.218600
14.000600 1.876800
14.032100 1.061300
14.063600 0.538000
14.095100 0.438100
14.126600 0.283700
14.158100 0.126500
14.189600 0.280100
14.221100 0.977300
14.252600 1.767600
14.284100 1.666800
14.315700 0.990500
14.347200 0.923300
14.378700 1.678600
14.410200 2.053400
14.441700 1.738900
14.473200 2.079300
14.504700 2.932900
14.536200 3.197600
14.567700 2.851700
14.599200 1.993900
14.630700 1.363500
14.662200 1.578700
14.693700 1.521000
14.725200 0.754600
14.756700 0.215800
14.788200 0.288100
14.819700 0.922100
14.851200 1.592300
14.882700 1.631600
14.914200 1.832400
14.945700 2.834500
14.977200 3.778900
15.008700 4.125800
15.040200 3.810000
15.071700 3.156200
15.103200 3.110700
15.134700 3.614700
15.166200 3.532400
15.197700 3.388800
15.229200 3.699200
15.260700 3.681000
15.292200 2.550000
15.323700 1.008800
15.355300 0.304300
15.386800 0.721800
15.418300 2.380900
15.449800 4.220100
15.481300 4.235400
15.512800 2.819400
15.544300 1.666700
15.575800 1.140200
15.607300 0.733800
15.638800 0.651300
15.670300 1.711400
15.701800 3.969700
15.733300 5.841200
15.764800 5.669600
15.796300 3.916900
15.827800 2.465800
15.859300 2.488100
15.890800 2.710600
15.922300 2.072900
15.953800 1.418200
15.985300 1.146200
16.016800 0.881000
16.048300 0.456100
16.079800 0.430300
16.111300 1.649800
16.142800 4.253800
16.174300 6.047600
16.205800 5.133000
16.237300 3.042300
16.268800 1.743400
16.300300 1.481400
16.331800 1.809000
16.363300 2.049800
16.394900 1.655500
16.426400 1.160900
16.457900 1.416900
16.489400 2.387900
16.520900 2.973900
16.552400 2.332600
16.583900 1.231800
16.615400 0.772200
16.646900 1.262300
16.678400 2.075000
16.709900 2.180000
16.741400 1.889100
16.772900 2.670800
16.804400 4.060900
16.835900 3.888400
16.867400 2.584600
16.898900 1.861800
16.930400 1.846000
16.961900 2.343000
16.993400 3.067500
17.024900 3.104200
17.056400 2.620500
17.087900 2.520000
17.119400 2.757900
17.150900 3.004900
17.182400 2.466400
17.213900 1.555900
17.245400 1.347500
17.276900 1.325900
17.308400 0.941000
17.339900 0.454700
17.371400 0.186700
17.402900 0.275600
17.434400 0.687800
17.466000 1.193700
17.497500 1.331500
17.529000 0.893200
17.560500 0.593700
17.592000 1.083500
17.623500 1.816300
17.655000 2.072600
17.686500 2.078700
17.718000 1.917500
17.749500 2.203800
17.781000 3.233600
17.812500 3.655000
17.844000 3.149500
17.875500 3.174900
17.907000 3.939300
17.938500 4.697700
17.970000 5.055700
18.001500 4.845700
18.033000 4.865700
18.064500 4.723900
18.096000 3.680800
18.127500 3.070000
18.159000 2.889100
18.190500 2.313500
18.222000 2.336100
18.253500 2.902600
18.285000 2.822600
18.316500 2.405300
18.348000 2.618600
18.379500 3.433700
18.411000 4.063900
18.442500 4.852900
18.474000 5.745500
18.505600 5.468100
18.537100 3.801600
18.568600 2.230700
18.600100 1.886900
18.631600 2.107300
18.663100 2.005500
18.694600 1.831500
18.726100 1.973500
18.757600 2.394200
18.789100 3.437500
18.820600 5.030300
18.852100 5.355800
18.883600 3.341000
18.915100 1.114800
18.946600 0.220700
18.978100 0.236500
19.009600 0.825900
19.041100 1.769400
19.072600 2.339300
19.104100 2.212200
19.135600 2.030200
19.167100 2.044600
19.198600 2.388900
19.230100 2.820700
19.261600 2.449300
19.293100 1.702600
19.324600 1.339100
19.356100 1.527000
19.387600 2.203100
19.419100 2.850900
19.450600 2.946600
19.482100 2.787300
19.513600 2.917100
19.545200 3.147400
19.576700 3.347700
19.608200 2.703700
19.639700 1.264600
19.671200 0.368800
19.702700 0.406200
19.734200 1.053100
19.765700 1.688700
19.797200 1.784000
19.828700 1.846100
19.860200 3.097800
19.891700 5.190200
19.923200 5.807000
19.954700 4.890100
19.986200 3.967300
20.017700 3.574100
20.049200 3.679100
20.080700 3.748800
20.112200 3.909100
20.143700 3.599300
20.175200 2.593900
20.206700 2.354800
20.238200 2.722500
20.269700 2.318800
20.301200 2.267100
20.332700 4.063100
20.364200 5.837300
20.395700 4.982600
20.427200 2.823200
20.458700 1.622600
20.490200 1.632400
20.521700 2.445600
20.553200 3.646300
20.584800 3.899900
20.616300 3.094900
20.647800 3.182200
20.679300 4.453100
20.710800 5.243000
20.742300 5.297200
20.773800 5.064300
20.805300 4.270000
20.836800 3.823000
20.868300 4.344900
20.899800 5.115600
20.931300 4.954400
20.962800 3.150300
20.994300 1.491700
21.025800 1.423400
21.057300 1.686300
21.088800 1.457600
21.120300 1.901800
21.151800 3.369400
21.183300 4.749100
21.214800 4.631300
21.246300 3.265900
21.277800 2.390800
21.309300 1.964800
21.340800 1.689800
21.372300 1.900700
21.403800 2.526400
21.435300 3.228400
21.466800 4.270100
21.498300 5.572700
21.529800 6.278200
21.561300 5.526800
21.592800 3.423300
21.624400 2.322100
21.655900 3.562500
21.687400 5.315200
21.718900 5.356500
21.750400 3.923200
21.781900 2.621800
21.813400 2.839600
21.844900 3.897900
21.876400 3.821700
21.907900 2.978500
21.939400 2.930700
21.970900 3.839300
22.002400 4.873800
22.033900 4.471000
22.065400 3.094300
22.096900 2.514800
22.128400 2.996700
22.159900 4.477700
22.191400 6.737900
22.222900 8.132200
22.254400 7.128400
22.285900 4.952500
22.317400 4.018700
22.348900 4.422400
22.380400 4.629700
22.411900 3.890800
22.443400 2.823000
22.474900 2.102200
22.506400 1.824600
22.537900 2.654800
22.569400 4.518900
22.600900 5.217000
22.632400 4.104000
22.664000 3.003700
22.695500 2.657300
22.727000 2.412500
22.758500 3.224000
22.790000 5.210300
22.821500 5.606900
22.853000 4.142800
22.884500 3.255700
22.916000 3.105600
22.947500 2.491600
22.979000 1.869000
23.010500 1.696700
23.042000 1.398700
23.073500 1.422700
23.105000 2.648200
23.136500 3.814800
23.168000 3.419300
23.199500 2.173400
23.231000 1.301000
23.262500 1.337200
23.294000 1.742800
23.325500 2.064100
23.357000 2.531700
23.388500 3.006800
23.420000 3.521500
23.451500 3.583000
23.483000 2.549600
23.514500 1.596300
23.546000 2.334800
23.577500 3.976500
23.609000 4.032000
23.640500 2.891500
23.672000 3.135200
23.703600 4.844500
23.735100 6.147600
23.766600 6.502800
23.798100 6.996300
23.829600 7.350700
23.861100 6.433500
23.892600 5.207900
23.924100 5.226100
23.955600 5.215500
23.987100 3.640800
24.018600 2.053400
24.050100 2.410100
24.081600 4.032800
24.113100 4.965100
24.144600 4.004500
24.176100 2.465700
24.207600 2.408100
24.239100 4.327800
24.270600 6.499000
24.302100 6.515100
24.333600 4.946200
24.365100 3.793200
24.396600 4.105600
24.428100 4.480100
24.459600 3.086800
24.491100 1.217200
24.522600 0.751800
24.554100 1.815800
24.585600 3.308300
24.617100 3.643000
24.648600 3.278900
24.680100 3.927300
24.711600 4.934800
24.743200 4.680800
24.774700 3.487300
24.806200 2.593900
24.837700 1.873900
24.869200 1.086300
24.900700 1.387100
24.932200 3.638300
24.963700 6.655300
24.995200 7.448000
25.026700 5.072000
25.058200 2.276200
25.089700 1.052800
25.121200 1.075600
25.152700 1.163000
25.184200 1.106600
25.215700 2.261900
25.247200 4.902200
25.278700 6.348100
25.310200 5.311700
25.341700 4.160600
25.373200 4.368100
25.404700 4.970800
25.436200 4.610000
25.467700 3.488900
25.499200 2.593600
25.530700 2.412300
25.562200 2.242200
25.593700 2.122000
25.625200 3.244700
25.656700 4.503200
25.688200 4.115300
25.719700 3.734300
25.751200 4.278800
25.782800 4.029000
25.814300 3.397800
25.845800 3.902800
25.877300 5.069400
25.908800 6.225200
25.940300 6.403900
25.971800 5.014400
26.003300 3.394600
26.034800 2.267200
26.066300 1.757100
26.097800 2.131600
26.129300 3.001300
26.160800 3.541300
26.192300 3.998100
26.223800 4.230200
26.255300 3.367100
26.286800 2.480800
26.318300 2.632400
26.349800 3.290600
26.381300 3.597200
26.412800 3.810400
26.444300 4.013200
26.475800 3.743900
26.507300 3.472100
26.538800 3.568300
26.570300 3.949000
26.601800 4.633700
26.633300 5.874800
26.664800 7.721500
26.696300 8.256000
26.727800 6.156100
26.759300 4.203800
26.790800 4.621000
26.822300 5.673700
26.853900 5.321000
26.885400 4.391200
26.916900 3.962300
26.948400 3.272900
26.979900 2.264600
27.011400 2.651300
27.042900 4.959400
27.074400 6.870100
27.105900 7.039500
27.137400 6.874700
27.168900 6.940500
27.200400 6.110900
27.231900 4.391700
27.263400 3.155900
27.294900 3.454600
27.326400 4.663700
27.357900 4.954100
27.389400 4.223500
27.420900 3.658800
27.452400 4.231500
27.483900 5.270900
27.515400 5.840300
27.546900 6.606100
27.578400 7.299800
27.609900 7.709600
27.641400 7.725400
27.672900 5.790800
27.704400 2.910700
27.735900 1.595800
27.767400 1.740700
27.798900 2.520900
27.830400 3.649300
27.861900 4.326300
27.893500 5.055100
27.925000 6.155200
27.956500 6.279700
27.988000 6.404200
28.019500 7.839400
28.051000 8.763100
28.082500 8.279200
28.114000 7.867000
28.145500 7.540300
28.177000 6.681600
28.208500 6.316900
28.240000 5.737500
28.271500 3.764800
28.303000 2.682200
28.334500 3.915600
28.366000 5.535600
28.397500 5.608000
28.429000 4.328500
28.460500 4.460600
28.492000 6.754500
28.523500 8.411100
28.555000 8.971200
28.586500 9.349100
28.618000 8.999800
28.649500 8.087400
28.681000 6.042700
28.712500 3.801600
28.744000 2.947500
28.775500 3.677900
28.807000 6.415900
28.838500 9.400200
28.870000 9.910800
28.901500 8.805400
28.933100 7.340100
28.964600 6.565100
28.996100 7.288200
29.027600 7.493800
29.059100 6.023400
29.090600 4.473000
29.122100 4.066000
29.153600 4.886100
29.185100 5.677900
29.216600 5.181100
29.248100 3.901200
29.279600 3.463300
29.311100 4.106200
29.342600 4.764800
29.374100 4.706200
29.405600 4.185600
29.437100 3.479800
29.468600 2.684900
29.500100 2.472200
29.531600 3.633300
29.563100 4.519000
29.594600 3.425600
29.626100 1.989500
29.657600 2.030500
29.689100 3.593500
29.720600 5.584000
29.752100 5.644100
29.783600 4.161900
29.815100 3.707600
29.846600 4.104600
29.878100 4.574300
29.909600 4.877700
29.941100 3.892300
29.972700 2.184900
30.004200 1.792000
30.035700 3.054600
30.067200 4.679900
30.098700 5.547500
30.130200 4.955000
30.161700 3.408900
30.193200 3.490800
30.224700 5.237500
30.256200 5.300800
30.287700 3.861800
30.319200 3.324100
30.350700 3.023600
30.382200 2.404700
30.413700 2.058000
30.445200 1.600600
30.476700 1.623400
30.508200 3.339400
30.539700 5.257200
30.571200 5.244500
30.602700 4.041200
30.634200 3.454200
30.665700 3.926600
30.697200 4.689800
30.728700 5.044400
30.760200 4.498700
30.791700 3.731900
30.823200 3.335600
30.854700 2.870400
30.886200 2.832500
30.917700 4.064500
30.949200 5.556000
30.980700 6.052600
31.012300 5.970800
31.043800 6.156400
31.075300 5.852600
31.106800 4.842400
31.138300 4.027100
31.169800 3.215500
31.201300 2.153400
31.232800 1.121000
31.264300 0.402900
31.295800 0.262500
31.327300 0.785000
31.358800 1.948700
31.390300 3.475700
31.421800 4.478500
31.453300 4.922300
31.484800 6.473000
31.516300 7.557000
31.547800 5.954200
31.579300 4.009900
31.610800 4.562500
31.642300 7.090700
31.673800 7.780700
31.705300 5.665900
31.736800 3.361600
31.768300 2.876300
31.799800 3.688900
31.831300 3.644700
31.862800 3.137400
31.894300 3.159800
31.925800 2.727600
31.957300 1.956200
31.988800 1.517900
32.020300 1.563000
32.051900 2.601700
32.083400 4.484100
32.114900 5.829700
32.146400 5.595900
32.177900 4.858300
32.209400 5.076200
32.240900 5.579500
32.272400 5.321400
32.303900 4.847900
32.335400 4.564900
32.366900 3.662600
32.398400 2.344400
32.429900 2.113900
32.461400 3.575200
32.492900 4.698900
32.524400 4.101900
32.555900 3.419500
32.587400 3.424600
32.618900 3.738800
32.650400 4.427100
32.681900 5.951900
32.713400 8.170800
32.744900 8.597400
32.776400 5.567300
32.807900 2.163000
32.839400 1.259300
32.870900 2.556000
32.902400 4.699000
32.933900 6.871300
32.965400 8.369200
32.996900 7.405000
33.028400 4.328600
33.059900 2.278900
33.091500 2.407000
33.123000 3.145900
33.154500 3.476600
33.186000 3.726300
33.217500 4.300700
33.249000 5.297000
33.280500 5.025700
33.312000 3.717000
33.343500 4.231700
33.375000 5.526200
33.406500 4.688100
33.438000 3.547100
33.469500 4.034100
33.501000 5.285800
33.532500 7.049100
33.564000 8.181900
33.595500 7.600500
33.627000 6.566800
33.658500 5.932000
33.690000 5.719800
33.721500 5.950600
33.753000 6.426300
33.784500 6.324200
33.816000 5.246600
33.847500 4.122600
33.879000 4.085500
33.910500 4.379000
33.942000 3.927000
33.973500 4.445300
34.005000 5.767300
34.036500 5.522100
34.068000 4.184900
34.099500 3.652900
34.131100 4.258700
34.162600 4.500500
34.194100 3.694600
34.225600 3.426300
34.257100 4.157700
34.288600 4.606600
34.320100 4.534800
34.351600 4.154300
34.383100 3.618900
34.414600 3.627600
34.446100 3.652700
34.477600 3.700700
34.509100 4.767100
34.540600 5.190200
34.572100 3.799600
34.603600 2.808200
34.635100 3.111300
34.666600 3.857600
34.698100 4.579500
34.729600 5.240000
34.761100 6.400700
34.792600 7.016000
34.824100 5.615100
34.855600 4.132400
34.887100 4.067300
34.918600 4.387100
34.950100 4.682000
34.981600 4.974200
35.013100 4.318900
35.044600 2.955700
35.076100 2.053900
35.107600 1.801700
35.139100 1.468900
35.170700 1.271800
35.202200 2.348200
35.233700 4.162500
35.265200 4.722900
35.296700 3.854500
35.328200 3.475100
35.359700 3.699200
35.391200 3.132200
35.422700 2.452300
35.454200 2.457900
35.485700 2.101600
35.517200 1.326400
35.548700 1.308500
35.580200 2.158800
35.611700 2.660800
35.643200 1.991000
35.674700 1.060500
35.706200 0.684900
35.737700 0.764900
35.769200 0.795200
35.800700 0.494700
35.832200 0.228400
35.863700 0.201300
35.895200 0.191900
35.926700 0.096800
35.958200 0.023300
35.989700 0.002700
36.021200 0.000100
36.052700 0.000000
36.084200 0.000000
36.115700 0.000000
36.147200 0.000000
36.178700 0.000000
36.210200 0.000000
36.241800 0.000000
36.273300 0.000000
36.304800 0.000000
36.336300 0.000000
36.367800 0.000000
36.399300 0.000000
36.430800 0.000000
36.462300 0.000000
36.493800 0.000000
36.525300 0.000000
36.556800 0.000000
36.588300 0.000000
36.619800 0.000000
36.651300 0.000000
36.682800 0.000000
36.714300 0.000000
36.745800 0.000000
36.777300 0.000000
36.808800 0.000000
36.840300 0.000000
36.871800 0.000000
36.903300 0.000000
36.934800 0.000000
36.966300 0.000000
36.997800 0.000000
37.029300 0.000000
37.060800 0.000000
37.092300 0.000000
37.123800 0.000000
37.155300 0.000000
37.186800 0.000000
37.218300 0.000000
37.249800 0.000000
37.281400 0.000000
37.312900 0.000000
37.344400 0.000000
37.375900 0.000000
37.407400 0.000000
37.438900 0.000000
37.470400 0.000000
37.501900 0.000000
37.533400 0.000000
37.564900 0.000000
37.596400 0.000000
37.627900 0.000000
37.659400 0.000000
37.690900 0.000000
37.722400 0.000000
37.753900 0.000000
37.785400 0.000000
37.816900 0.000000
37.848400 0.000000
37.879900 0.000000
37.911400 0.000000
37.942900 0.000000
37.974400 0.000000
38.005900 0.000000
38.037400 0.000000
38.068900 0.000000
38.100400 0.000000
38.131900 0.000000
38.163400 0.000000
38.194900 0.000000
38.226400 0.000000
38.257900 0.000000
38.289400 0.000000
38.321000 0.000000
38.352500 0.000000
38.384000 0.000000
38.415500 0.000000
38.447000 0.000000
38.478500 0.000000
38.510000 0.000000
38.541500 0.000000
38.573000 0.000000
38.604500 0.000000
38.636000 0.000000
38.667500 0.000000
38.699000 0.000000
38.730500 0.000000
e
