set title 'mp-1105406 - Density of States'
set xlabel 'Energy (eV)'
set ylabel 'DOS (states/eV)'
set grid
set xrange [-10:10]
set yrange [0:157.450]
set xzeroaxis lt -1
set terminal png size 800,600
set output 'mp-1105406_dos_gnuplot.png'
plot '-' using 1:2 with lines title 'DOS'
-25.533300 0.000000
-25.510600 0.000000
-25.487900 0.000000
-25.465100 0.000000
-25.442400 0.000000
-25.419700 0.000000
-25.397000 0.000000
-25.374300 0.000000
-25.351600 0.000000
-25.328900 0.000000
-25.306200 0.000000
-25.283500 0.000000
-25.260800 0.000000
-25.238100 0.000000
-25.215300 0.000000
-25.192600 0.000000
-25.169900 0.000000
-25.147200 0.000000
-25.124500 0.000000
-25.101800 0.000000
-25.079100 0.000000
-25.056400 0.000000
-25.033700 0.000000
-25.011000 0.000000
-24.988300 0.000000
-24.965600 0.000000
-24.942800 0.000000
-24.920100 0.000000
-24.897400 0.000000
-24.874700 0.000000
-24.852000 0.000000
-24.829300 0.000000
-24.806600 0.000000
-24.783900 0.000000
-24.761200 0.000000
-24.738500 0.000000
-24.715800 0.000000
-24.693100 0.000000
-24.670300 0.000000
-24.647600 0.000000
-24.624900 0.000000
-24.602200 0.000000
-24.579500 0.000000
-24.556800 0.000000
-24.534100 0.000000
-24.511400 0.000000
-24.488700 0.000000
-24.466000 0.000000
-24.443300 0.000000
-24.420600 0.000000
-24.397800 0.000000
-24.375100 0.000000
-24.352400 0.000000
-24.329700 0.000000
-24.307000 0.000000
-24.284300 0.000000
-24.261600 0.000000
-24.238900 0.000000
-24.216200 0.000000
-24.193500 0.000000
-24.170800 0.000000
-24.148000 0.000000
-24.125300 0.000000
-24.102600 0.000000
-24.079900 0.000000
-24.057200 0.000000
-24.034500 0.000000
-24.011800 0.000000
-23.989100 0.000000
-23.966400 0.000000
-23.943700 0.000000
-23.921000 0.000000
-23.898300 0.000000
-23.875500 0.000000
-23.852800 0.000000
-23.830100 0.000000
-23.807400 0.000000
-23.784700 0.000000
-23.762000 0.000000
-23.739300 0.000000
-23.716600 0.000000
-23.693900 0.000000
-23.671200 0.000000
-23.648500 0.000000
-23.625800 0.000000
-23.603000 0.000000
-23.580300 0.000000
-23.557600 0.000000
-23.534900 0.000000
-23.512200 0.000000
-23.489500 0.000000
-23.466800 50.462300
-23.444100 0.000000
-23.421400 0.000000
-23.398700 0.000000
-23.376000 0.000000
-23.353300 0.000000
-23.330500 0.000000
-23.307800 0.000000
-23.285100 0.000000
-23.262400 0.000000
-23.239700 0.000000
-23.217000 0.000000
-23.194300 0.000000
-23.171600 0.000000
-23.148900 0.000000
-23.126200 0.000000
-23.103500 0.000000
-23.080700 0.000000
-23.058000 0.000000
-23.035300 0.000000
-23.012600 0.000000
-22.989900 0.000000
-22.967200 0.000000
-22.944500 0.000000
-22.921800 0.000000
-22.899100 0.000000
-22.876400 0.000000
-22.853700 0.000000
-22.831000 0.000000
-22.808200 0.000000
-22.785500 0.000000
-22.762800 0.000000
-22.740100 0.000000
-22.717400 0.000000
-22.694700 0.000000
-22.672000 0.000000
-22.649300 0.000000
-22.626600 0.000000
-22.603900 0.000000
-22.581200 0.000000
-22.558500 0.000000
-22.535700 0.000000
-22.513000 0.000000
-22.490300 0.000000
-22.467600 0.000000
-22.444900 0.000000
-22.422200 0.000000
-22.399500 0.000000
-22.376800 0.000000
-22.354100 0.000000
-22.331400 0.000000
-22.308700 0.000000
-22.286000 0.000000
-22.263200 0.000000
-22.240500 0.000000
-22.217800 0.000000
-22.195100 0.000000
-22.172400 0.000000
-22.149700 0.000000
-22.127000 0.000000
-22.104300 0.000000
-22.081600 0.000000
-22.058900 0.000000
-22.036200 0.000000
-22.013400 0.000000
-21.990700 0.000000
-21.968000 0.000000
-21.945300 0.000000
-21.922600 0.000000
-21.899900 0.000000
-21.877200 0.000000
-21.854500 0.000000
-21.831800 0.000000
-21.809100 0.000000
-21.786400 0.000000
-21.763700 0.000000
-21.740900 0.000000
-21.718200 0.000000
-21.695500 0.000000
-21.672800 0.000000
-21.650100 0.000000
-21.627400 0.000000
-21.604700 0.000000
-21.582000 0.000000
-21.559300 0.000000
-21.536600 0.000000
-21.513900 0.000000
-21.491200 0.000000
-21.468400 0.000000
-21.445700 0.000000
-21.423000 0.000000
-21.400300 0.000000
-21.377600 0.000000
-21.354900 0.000000
-21.332200 0.000000
-21.309500 0.000000
-21.286800 0.000000
-21.264100 0.000000
-21.241400 0.000000
-21.218700 0.000000
-21.195900 0.000000
-21.173200 0.000000
-21.150500 0.000000
-21.127800 0.000000
-21.105100 0.000000
-21.082400 0.000000
-21.059700 0.000000
-21.037000 0.000000
-21.014300 0.000000
-20.991600 0.000000
-20.968900 0.000000
-20.946100 0.000000
-20.923400 0.000000
-20.900700 0.000000
-20.878000 0.000000
-20.855300 0.000000
-20.832600 0.000000
-20.809900 0.000000
-20.787200 0.000000
-20.764500 0.000000
-20.741800 0.000000
-20.719100 0.000000
-20.696400 0.000000
-20.673600 0.000000
-20.650900 0.000000
-20.628200 0.000000
-20.605500 0.000000
-20.582800 0.000000
-20.560100 0.000000
-20.537400 0.000000
-20.514700 0.000000
-20.492000 0.000000
-20.469300 0.000000
-20.446600 0.000000
-20.423900 0.000000
-20.401100 0.000000
-20.378400 0.000000
-20.355700 0.000000
-20.333000 0.000000
-20.310300 0.000000
-20.287600 0.000000
-20.264900 0.000000
-20.242200 0.000000
-20.219500 0.000000
-20.196800 0.000000
-20.174100 0.000000
-20.151400 0.000000
-20.128600 0.000000
-20.105900 0.000000
-20.083200 0.000000
-20.060500 0.000000
-20.037800 0.000000
-20.015100 0.000000
-19.992400 0.000000
-19.969700 0.000000
-19.947000 0.000000
-19.924300 0.000000
-19.901600 0.000000
-19.878800 0.000000
-19.856100 0.000000
-19.833400 0.000000
-19.810700 0.000000
-19.788000 0.000000
-19.765300 0.000000
-19.742600 0.000000
-19.719900 0.000000
-19.697200 0.000000
-19.674500 0.000000
-19.651800 0.000000
-19.629100 0.000000
-19.606300 0.000000
-19.583600 0.000000
-19.560900 0.000000
-19.538200 0.000000
-19.515500 0.000000
-19.492800 0.000000
-19.470100 0.000000
-19.447400 0.000000
-19.424700 0.000000
-19.402000 0.000000
-19.379300 0.000000
-19.356600 0.000000
-19.333800 0.000000
-19.311100 0.000000
-19.288400 0.000000
-19.265700 0.000000
-19.243000 0.000000
-19.220300 0.000000
-19.197600 0.000000
-19.174900 0.000000
-19.152200 0.000000
-19.129500 0.000000
-19.106800 0.000000
-19.084100 0.000000
-19.061300 0.000000
-19.038600 0.000000
-19.015900 0.000000
-18.993200 0.000000
-18.970500 0.000000
-18.947800 0.000000
-18.925100 0.000000
-18.902400 0.000000
-18.879700 0.000000
-18.857000 0.000000
-18.834300 0.000000
-18.811500 0.000000
-18.788800 0.000000
-18.766100 0.000000
-18.743400 0.000000
-18.720700 0.000000
-18.698000 0.000000
-18.675300 0.000000
-18.652600 0.000000
-18.629900 0.000000
-18.607200 0.000000
-18.584500 0.000000
-18.561800 0.000000
-18.539000 0.000000
-18.516300 0.000000
-18.493600 0.000000
-18.470900 0.000000
-18.448200 0.000000
-18.425500 0.000000
-18.402800 0.000000
-18.380100 0.000000
-18.357400 0.000000
-18.334700 0.000000
-18.312000 0.000000
-18.289300 0.000000
-18.266500 0.000000
-18.243800 0.000000
-18.221100 0.000000
-18.198400 0.000000
-18.175700 0.000000
-18.153000 0.000000
-18.130300 0.000000
-18.107600 0.000000
-18.084900 0.000000
-18.062200 0.000000
-18.039500 0.000000
-18.016800 0.000000
-17.994000 0.000000
-17.971300 0.000000
-17.948600 0.000000
-17.925900 0.000000
-17.903200 0.000000
-17.880500 0.000000
-17.857800 0.000000
-17.835100 0.000000
-17.812400 0.000000
-17.789700 0.000000
-17.767000 0.000000
-17.744200 0.000000
-17.721500 0.000000
-17.698800 0.000000
-17.676100 0.000000
-17.653400 0.000000
-17.630700 0.000000
-17.608000 0.000000
-17.585300 0.000000
-17.562600 0.000000
-17.539900 0.000000
-17.517200 0.000000
-17.494500 0.000000
-17.471700 0.000000
-17.449000 0.000000
-17.426300 0.000000
-17.403600 0.000000
-17.380900 0.000000
-17.358200 0.000000
-17.335500 0.000000
-17.312800 0.000000
-17.290100 0.000000
-17.267400 0.000000
-17.244700 0.000000
-17.222000 0.000000
-17.199200 0.000000
-17.176500 0.000000
-17.153800 0.000000
-17.131100 0.000000
-17.108400 0.000000
-17.085700 0.000000
-17.063000 0.000000
-17.040300 0.000000
-17.017600 0.000000
-16.994900 0.000000
-16.972200 0.000000
-16.949500 0.000000
-16.926700 0.000000
-16.904000 0.000000
-16.881300 0.000000
-16.858600 0.000000
-16.835900 0.000000
-16.813200 0.000000
-16.790500 0.000000
-16.767800 0.000000
-16.745100 0.000000
-16.722400 0.000000
-16.699700 0.000000
-16.676900 0.000000
-16.654200 0.000000
-16.631500 0.000000
-16.608800 0.000000
-16.586100 0.000000
-16.563400 0.000000
-16.540700 0.000000
-16.518000 0.000000
-16.495300 0.000000
-16.472600 0.000000
-16.449900 0.000000
-16.427200 0.000000
-16.404400 0.000000
-16.381700 0.000000
-16.359000 0.000000
-16.336300 0.000000
-16.313600 0.000000
-16.290900 0.000000
-16.268200 0.000000
-16.245500 0.000000
-16.222800 0.000000
-16.200100 0.000000
-16.177400 0.000000
-16.154700 0.000000
-16.131900 0.000000
-16.109200 0.000000
-16.086500 0.000000
-16.063800 0.000000
-16.041100 0.000000
-16.018400 0.000000
-15.995700 0.000000
-15.973000 0.000000
-15.950300 0.000000
-15.927600 0.000000
-15.904900 0.000000
-15.882200 0.000000
-15.859400 0.000000
-15.836700 0.000000
-15.814000 0.000000
-15.791300 0.000000
-15.768600 0.000000
-15.745900 0.000000
-15.723200 0.000000
-15.700500 0.000000
-15.677800 0.000000
-15.655100 0.000000
-15.632400 0.000000
-15.609600 0.000000
-15.586900 0.000000
-15.564200 0.000000
-15.541500 0.000000
-15.518800 0.000000
-15.496100 0.000000
-15.473400 0.000000
-15.450700 0.000000
-15.428000 0.000000
-15.405300 0.000000
-15.382600 0.000000
-15.359900 0.000000
-15.337100 0.000000
-15.314400 0.000000
-15.291700 0.000000
-15.269000 0.000000
-15.246300 0.000000
-15.223600 0.000000
-15.200900 0.000000
-15.178200 0.000000
-15.155500 0.000000
-15.132800 0.000000
-15.110100 0.000000
-15.087400 0.000000
-15.064600 0.000000
-15.041900 0.000000
-15.019200 0.000000
-14.996500 0.000000
-14.973800 0.000000
-14.951100 0.000000
-14.928400 0.000000
-14.905700 0.000000
-14.883000 0.000000
-14.860300 0.000000
-14.837600 0.000000
-14.814900 0.000000
-14.792100 0.000000
-14.769400 0.000000
-14.746700 0.000000
-14.724000 0.000000
-14.701300 0.000000
-14.678600 0.000000
-14.655900 0.000000
-14.633200 0.000000
-14.610500 0.000000
-14.587800 0.000000
-14.565100 0.000000
-14.542300 0.000000
-14.519600 0.000000
-14.496900 0.000000
-14.474200 0.000000
-14.451500 0.000000
-14.428800 0.000000
-14.406100 0.000000
-14.383400 0.000000
-14.360700 0.000000
-14.338000 0.000000
-14.315300 0.000000
-14.292600 0.000000
-14.269800 0.000000
-14.247100 0.000000
-14.224400 0.000000
-14.201700 0.000000
-14.179000 0.000000
-14.156300 0.000000
-14.133600 0.000000
-14.110900 0.000000
-14.088200 0.000000
-14.065500 0.000000
-14.042800 0.000000
-14.020100 0.000000
-13.997300 0.000000
-13.974600 0.000000
-13.951900 0.000000
-13.929200 0.000000
-13.906500 0.000000
-13.883800 0.000000
-13.861100 0.000000
-13.838400 0.000000
-13.815700 0.000000
-13.793000 0.000000
-13.770300 0.000000
-13.747600 0.000000
-13.724800 0.000000
-13.702100 0.000000
-13.679400 0.000000
-13.656700 0.000000
-13.634000 0.000000
-13.611300 0.000000
-13.588600 0.000000
-13.565900 0.000000
-13.543200 0.000000
-13.520500 0.000000
-13.497800 0.000000
-13.475000 0.000000
-13.452300 0.000000
-13.429600 0.000000
-13.406900 0.000000
-13.384200 0.000000
-13.361500 0.000000
-13.338800 0.000000
-13.316100 0.000000
-13.293400 0.000000
-13.270700 0.000000
-13.248000 0.000000
-13.225300 0.000000
-13.202500 0.000000
-13.179800 0.000000
-13.157100 0.000000
-13.134400 0.000000
-13.111700 0.000000
-13.089000 0.000000
-13.066300 0.000000
-13.043600 0.000000
-13.020900 0.000000
-12.998200 0.000000
-12.975500 0.000000
-12.952800 0.000000
-12.930000 0.000000
-12.907300 0.000000
-12.884600 0.000000
-12.861900 0.000000
-12.839200 0.000000
-12.816500 0.000000
-12.793800 0.000000
-12.771100 0.000000
-12.748400 0.000000
-12.725700 0.000000
-12.703000 0.000000
-12.680300 0.000000
-12.657500 0.000000
-12.634800 0.000000
-12.612100 0.000000
-12.589400 0.000000
-12.566700 0.000000
-12.544000 0.000000
-12.521300 0.000000
-12.498600 0.000000
-12.475900 0.000000
-12.453200 0.000000
-12.430500 0.000000
-12.407700 0.000000
-12.385000 0.000000
-12.362300 0.000000
-12.339600 0.000000
-12.316900 0.000000
-12.294200 0.000000
-12.271500 0.000000
-12.248800 0.000000
-12.226100 0.000000
-12.203400 0.000000
-12.180700 0.000000
-12.158000 0.000000
-12.135200 0.000000
-12.112500 0.000000
-12.089800 0.000000
-12.067100 0.000000
-12.044400 0.000000
-12.021700 0.000000
-11.999000 0.000000
-11.976300 0.000000
-11.953600 0.000000
-11.930900 0.000000
-11.908200 0.000000
-11.885500 0.000000
-11.862700 0.000000
-11.840000 0.000000
-11.817300 0.000000
-11.794600 0.000000
-11.771900 0.000000
-11.749200 0.000000
-11.726500 0.000000
-11.703800 0.000000
-11.681100 0.000000
-11.658400 0.000000
-11.635700 0.000000
-11.613000 0.000000
-11.590200 0.000000
-11.567500 0.000000
-11.544800 0.000000
-11.522100 0.000000
-11.499400 0.000000
-11.476700 0.000000
-11.454000 0.000000
-11.431300 0.000000
-11.408600 0.000000
-11.385900 0.000000
-11.363200 0.000000
-11.340400 0.000000
-11.317700 0.000000
-11.295000 0.000000
-11.272300 0.000000
-11.249600 0.000000
-11.226900 0.000000
-11.204200 0.000000
-11.181500 0.000000
-11.158800 0.000000
-11.136100 0.000000
-11.113400 0.000000
-11.090700 0.000000
-11.067900 0.000000
-11.045200 0.000000
-11.022500 0.000000
-10.999800 0.000000
-10.977100 0.000000
-10.954400 0.000000
-10.931700 0.000000
-10.909000 0.000000
-10.886300 0.000000
-10.863600 0.000000
-10.840900 0.000000
-10.818200 0.000000
-10.795400 0.000000
-10.772700 0.000000
-10.750000 0.000000
-10.727300 0.000000
-10.704600 0.000000
-10.681900 0.000000
-10.659200 0.000000
-10.636500 0.000000
-10.613800 0.000000
-10.591100 0.000000
-10.568400 0.000000
-10.545700 0.000000
-10.522900 0.000000
-10.500200 0.000000
-10.477500 0.000000
-10.454800 0.000000
-10.432100 0.000000
-10.409400 0.000000
-10.386700 0.000000
-10.364000 0.000000
-10.341300 0.000000
-10.318600 0.000000
-10.295900 0.000000
-10.273100 0.000000
-10.250400 0.000000
-10.227700 0.000000
-10.205000 0.000000
-10.182300 0.000000
-10.159600 0.000000
-10.136900 0.000000
-10.114200 0.000000
-10.091500 0.000000
-10.068800 0.000000
-10.046100 0.000000
-10.023400 0.000000
-10.000600 0.000000
-9.977900 0.049800
-9.955200 0.398100
-9.932500 1.078900
-9.909800 2.501800
-9.887100 4.050200
-9.864400 6.296800
-9.841700 8.941900
-9.819000 8.879600
-9.796300 8.568400
-9.773600 8.038200
-9.750900 7.343800
-9.728100 6.956000
-9.705400 10.726100
-9.682700 13.124900
-9.660000 13.886100
-9.637300 12.353400
-9.614600 9.219700
-9.591900 9.958700
-9.569200 10.278600
-9.546500 9.172200
-9.523800 7.530700
-9.501100 5.096000
-9.478400 3.335500
-9.455600 2.785900
-9.432900 2.237500
-9.410200 1.690300
-9.387500 1.144300
-9.364800 0.601700
-9.342100 0.180900
-9.319400 0.827100
-9.296700 4.471500
-9.274000 8.256700
-9.251300 10.302700
-9.228600 11.034800
-9.205800 15.542200
-9.183100 20.788500
-9.160400 23.218300
-9.137700 20.225700
-9.115000 16.733000
-9.092300 12.940700
-9.069600 11.750800
-9.046900 11.646600
-9.024200 8.771100
-9.001500 0.864500
-8.978800 3.873300
-8.956100 42.600300
-8.933300 39.706500
-8.910600 49.265500
-8.887900 28.853200
-8.865200 1.202300
-8.842500 63.030200
-8.819800 50.072700
-8.797100 75.958600
-8.774400 143.136400
-8.751700 97.270000
-8.729000 123.014800
-8.706300 115.351700
-8.683600 0.165800
-8.660800 0.646800
-8.638100 1.443100
-8.615400 3.154400
-8.592700 5.068900
-8.570000 9.643700
-8.547300 12.836900
-8.524600 21.147000
-8.501900 23.955000
-8.479200 24.296300
-8.456500 24.322000
-8.433800 22.397700
-8.411100 14.593800
-8.388300 13.050600
-8.365600 1.098100
-8.342900 0.000000
-8.320200 0.000000
-8.297500 0.000000
-8.274800 0.002400
-8.252100 0.125700
-8.229400 0.528600
-8.206700 0.995300
-8.184000 1.448900
-8.161300 1.889500
-8.138500 2.317200
-8.115800 3.252300
-8.093100 3.632800
-8.070400 4.009600
-8.047700 4.400400
-8.025000 4.807300
-8.002300 5.256300
-7.979600 5.701800
-7.956900 6.131900
-7.934200 7.544500
-7.911500 8.394600
-7.888800 8.815400
-7.866000 9.135600
-7.843300 9.048200
-7.820600 8.284700
-7.797900 7.247800
-7.775200 6.281900
-7.752500 3.723000
-7.729800 4.109700
-7.707100 4.540000
-7.684400 5.013900
-7.661700 5.531400
-7.639000 5.314600
-7.616300 4.858600
-7.593500 4.129500
-7.570800 3.691100
-7.548100 3.641300
-7.525400 3.440300
-7.502700 3.197000
-7.480000 2.953000
-7.457300 2.708200
-7.434600 2.462600
-7.411900 2.216300
-7.389200 1.966600
-7.366500 1.658800
-7.343800 1.109900
-7.321000 1.136800
-7.298300 1.555400
-7.275600 2.157000
-7.252900 2.873700
-7.230200 3.638400
-7.207500 4.427800
-7.184800 5.125600
-7.162100 5.791000
-7.139400 6.109000
-7.116700 6.228000
-7.094000 7.018000
-7.071200 7.584900
-7.048500 7.916500
-7.025800 8.259300
-7.003100 10.325800
-6.980400 7.594800
-6.957700 7.301300
-6.935000 7.140700
-6.912300 6.785000
-6.889600 6.345800
-6.866900 2.319700
-6.844200 2.318600
-6.821500 2.317400
-6.798700 2.316000
-6.776000 2.314500
-6.753300 2.312800
-6.730600 2.310900
-6.707900 2.308900
-6.685200 4.370600
-6.662500 4.263000
-6.639800 4.148600
-6.617100 2.753700
-6.594400 2.622000
-6.571700 2.493600
-6.549000 2.368500
-6.526200 2.246900
-6.503500 2.128600
-6.480800 2.013700
-6.458100 1.902100
-6.435400 1.793900
-6.412700 1.687700
-6.390000 1.538400
-6.367300 1.325100
-6.344600 1.047800
-6.321900 0.627600
-6.299200 0.280400
-6.276500 0.097200
-6.253700 0.008800
-6.231000 0.000000
-6.208300 0.038900
-6.185600 0.273900
-6.162900 0.689200
-6.140200 1.224400
-6.117500 1.512000
-6.094800 1.662800
-6.072100 1.814500
-6.049400 1.967300
-6.026700 2.121000
-6.003900 2.275800
-5.981200 2.431500
-5.958500 2.588300
-5.935800 2.746100
-5.913100 2.904900
-5.890400 3.064800
-5.867700 3.225300
-5.845000 3.458800
-5.822300 5.424800
-5.799600 7.122500
-5.776900 5.349700
-5.754200 3.215800
-5.731400 2.498200
-5.708700 2.413800
-5.686000 2.329300
-5.663300 2.244900
-5.640600 2.160300
-5.617900 2.075800
-5.595200 1.991200
-5.572500 1.906600
-5.549800 1.822000
-5.527100 1.737300
-5.504400 1.652600
-5.481700 1.567900
-5.458900 1.483100
-5.436200 1.398300
-5.413500 1.313500
-5.390800 2.474700
-5.368100 5.465500
-5.345400 6.397700
-5.322700 4.505300
-5.300000 3.127200
-5.277300 3.022600
-5.254600 3.158300
-5.231900 3.295100
-5.209200 3.432900
-5.186400 3.571900
-5.163700 3.711900
-5.141000 2.861500
-5.118300 1.809600
-5.095600 1.807400
-5.072900 1.809500
-5.050200 1.811600
-5.027500 1.813700
-5.004800 1.815900
-4.982100 1.818000
-4.959400 1.820100
-4.936600 1.822200
-4.913900 1.824300
-4.891200 1.826400
-4.868500 1.828500
-4.845800 1.830700
-4.823100 1.832800
-4.800400 1.834900
-4.777700 1.837000
-4.755000 1.839100
-4.732300 1.841300
-4.709600 1.843400
-4.686900 1.845500
-4.664100 1.847600
-4.641400 1.849700
-4.618700 1.851900
-4.596000 1.854000
-4.573300 1.335300
-4.550600 0.836000
-4.527900 0.471600
-4.505200 0.194000
-4.482500 0.000200
-4.459800 0.000000
-4.437100 0.000000
-4.414400 0.839300
-4.391600 1.165300
-4.368900 1.406400
-4.346200 1.646900
-4.323500 1.887000
-4.300800 2.126600
-4.278100 2.365700
-4.255400 2.759600
-4.232700 3.496400
-4.210000 3.854400
-4.187300 4.209400
-4.164600 4.730900
-4.141900 5.468300
-4.119100 6.297500
-4.096400 6.896700
-4.073700 7.287700
-4.051000 7.162600
-4.028300 6.802300
-4.005600 6.432700
-3.982900 6.053700
-3.960200 5.667200
-3.937500 8.043000
-3.914800 7.048800
-3.892100 6.072000
-3.869300 2.390700
-3.846600 1.808500
-3.823900 1.811700
-3.801200 1.814900
-3.778500 1.818100
-3.755800 1.821300
-3.733100 1.824400
-3.710400 1.827600
-3.687700 1.830700
-3.665000 1.833800
-3.642300 1.836900
-3.619600 1.840000
-3.596800 1.843100
-3.574100 1.846200
-3.551400 1.849300
-3.528700 1.852300
-3.506000 1.855400
-3.483300 3.485900
-3.460600 9.124400
-3.437900 12.607000
-3.415200 3.279700
-3.392500 2.553100
-3.369800 1.925500
-3.347100 1.396900
-3.324300 0.967300
-3.301600 0.125200
-3.278900 0.000000
-3.256200 0.000000
-3.233500 0.000000
-3.210800 0.000000
-3.188100 0.000000
-3.165400 0.000000
-3.142700 0.000000
-3.120000 0.000000
-3.097300 0.000000
-3.074600 0.502200
-3.051800 5.551500
-3.029100 6.342600
-3.006400 6.867500
-2.983700 8.114600
-2.961000 10.843800
-2.938300 9.354600
-2.915600 7.113900
-2.892900 4.954900
-2.870200 4.629100
-2.847500 4.264400
-2.824800 3.894200
-2.802000 3.520900
-2.779300 3.144400
-2.756600 2.764700
-2.733900 2.381900
-2.711200 1.995800
-2.688500 1.240300
-2.665800 0.021100
-2.643100 0.000000
-2.620400 0.000000
-2.597700 0.000000
-2.575000 0.000000
-2.552300 0.245100
-2.529500 13.928200
-2.506800 3.451200
-2.484100 3.702600
-2.461400 3.953800
-2.438700 4.204700
-2.416000 4.455500
-2.393300 4.706000
-2.370600 4.956200
-2.347900 5.206300
-2.325200 5.456100
-2.302500 5.705700
-2.279800 5.929900
-2.257000 5.686800
-2.234300 3.314700
-2.211600 2.745200
-2.188900 2.465200
-2.166200 2.186700
-2.143500 1.909600
-2.120800 1.634000
-2.098100 1.359900
-2.075400 1.087200
-2.052700 0.816000
-2.030000 0.552700
-2.007300 0.339100
-1.984500 0.182400
-1.961800 0.078100
-1.939100 0.017500
-1.916400 0.000000
-1.893700 0.000000
-1.871000 0.000000
-1.848300 0.000000
-1.825600 0.000000
-1.802900 0.000000
-1.780200 0.000000
-1.757500 0.000000
-1.734700 0.000000
-1.712000 0.000000
-1.689300 0.000000
-1.666600 0.000000
-1.643900 0.000000
-1.621200 0.000000
-1.598500 0.000000
-1.575800 0.000000
-1.553100 0.000000
-1.530400 0.000000
-1.507700 0.000000
-1.485000 0.000000
-1.462200 0.000000
-1.439500 0.000000
-1.416800 0.000000
-1.394100 0.000000
-1.371400 0.004500
-1.348700 0.021400
-1.326000 0.051000
-1.303300 0.093300
-1.280600 0.148200
-1.257900 0.215700
-1.235200 0.295800
-1.212500 0.388600
-1.189700 0.494100
-1.167000 0.616400
-1.144300 0.763500
-1.121600 0.935500
-1.098900 1.260700
-1.076200 1.597700
-1.053500 1.953200
-1.030800 2.369000
-1.008100 2.851200
-0.985400 3.399800
-0.962700 4.019600
-0.940000 4.818600
-0.917200 5.790200
-0.894500 8.278000
-0.871800 11.502600
-0.849100 11.693400
-0.826400 11.829300
-0.803700 12.129800
-0.781000 12.255000
-0.758300 11.046300
-0.735600 10.072000
-0.712900 10.170600
-0.690200 9.478000
-0.667400 10.706000
-0.644700 16.419900
-0.622000 13.093500
-0.599300 10.121800
-0.576600 4.515200
-0.553900 5.792200
-0.531200 6.393900
-0.508500 6.444800
-0.485800 6.662300
-0.463100 9.522300
-0.440400 11.644100
-0.417700 16.523400
-0.394900 5.380100
-0.372200 2.765000
-0.349500 0.558900
-0.326800 0.000000
-0.304100 3.011600
-0.281400 6.864000
-0.258700 9.513400
-0.236000 13.880200
-0.213300 13.449800
-0.190600 13.218300
-0.167900 7.879000
-0.145200 6.645900
-0.122400 5.748500
-0.099700 7.556200
-0.077000 14.207400
-0.054300 18.863300
-0.031600 17.333900
-0.008900 13.887400
0.013800 11.064300
0.036500 8.723800
0.059200 1.163100
0.081900 0.872400
0.104600 2.338000
0.127300 4.255000
0.150100 7.940500
0.172800 9.103600
0.195500 16.504100
0.218200 8.699300
0.240900 8.699100
0.263600 8.783300
0.286300 8.379700
0.309000 7.690200
0.331700 7.579400
0.354400 8.503300
0.377100 5.207100
0.399900 5.268500
0.422600 8.376100
0.445300 8.104800
0.468000 8.758400
0.490700 10.242100
0.513400 14.647700
0.536100 15.247200
0.558800 20.633700
0.581500 16.106500
0.604200 13.119900
0.626900 9.553500
0.649600 8.415100
0.672400 7.060200
0.695100 4.720200
0.717800 3.996200
0.740500 3.542100
0.763200 4.732600
0.785900 4.996000
0.808600 4.151100
0.831300 3.671800
0.854000 3.493800
0.876700 3.682400
0.899400 4.102300
0.922100 4.672700
0.944900 6.104000
0.967600 6.826400
0.990300 9.208100
1.013000 9.420500
1.035700 9.486600
1.058400 9.709300
1.081100 9.284200
1.103800 9.612100
1.126500 9.908000
1.149200 10.150300
1.171900 10.320800
1.194600 9.183500
1.217400 8.949800
1.240100 8.089800
1.262800 7.046600
1.285500 4.987400
1.308200 4.340200
1.330900 3.759500
1.353600 2.104000
1.376300 0.725900
1.399000 0.201600
1.421700 1.617100
1.444400 2.262500
1.467200 5.719700
1.489900 7.442400
1.512600 5.542700
1.535300 5.823700
1.558000 6.445500
1.580700 7.286800
1.603400 8.146600
1.626100 8.767000
1.648800 10.530500
1.671500 18.066700
1.694200 14.012900
1.716900 14.249500
1.739700 8.114100
1.762400 6.207900
1.785100 5.769100
1.807800 5.757800
1.830500 5.685800
1.853200 3.541100
1.875900 3.180800
1.898600 2.845000
1.921300 2.533800
1.944000 2.247100
1.966700 1.985000
1.989400 1.746400
2.012200 1.457500
2.034900 1.089200
2.057600 0.798700
2.080300 0.625500
2.103000 0.511000
2.125700 0.403500
2.148400 0.308100
2.171100 0.728100
2.193800 2.660900
2.216500 6.061800
2.239200 9.290200
2.261900 11.950300
2.284700 12.389100
2.307400 11.778000
2.330100 11.298400
2.352800 11.463800
2.375500 12.324700
2.398200 18.516800
2.420900 21.469000
2.443600 18.267900
2.466300 15.527000
2.489000 15.350500
2.511700 14.804700
2.534500 14.421200
2.557200 14.026500
2.579900 13.439800
2.602600 14.276600
2.625300 19.792600
2.648000 16.918400
2.670700 14.170800
2.693400 16.481500
2.716100 12.827500
2.738800 10.952900
2.761500 7.975100
2.784200 6.126000
2.807000 0.896600
2.829700 16.458400
2.852400 21.138900
2.875100 17.382800
2.897800 10.182600
2.920500 8.161000
2.943200 7.260800
2.965900 9.722500
2.988600 6.505000
3.011300 6.572200
3.034000 7.602200
3.056700 9.967000
3.079500 10.700900
3.102200 10.658600
3.124900 8.437700
3.147600 6.312900
3.170300 5.266300
3.193000 4.840400
3.215700 4.421600
3.238400 3.987900
3.261100 3.548200
3.283800 10.572000
3.306500 13.455300
3.329200 14.317300
3.352000 14.396900
3.374700 12.277700
3.397400 16.930300
3.420100 19.173600
3.442800 14.018100
3.465500 13.544800
3.488200 11.824900
3.510900 9.405300
3.533600 6.722700
3.556300 4.849200
3.579000 4.353900
3.601800 4.149500
3.624500 4.352500
3.647200 5.586200
3.669900 7.030400
3.692600 8.189600
3.715300 14.613800
3.738000 13.939900
3.760700 7.655600
3.783400 6.833300
3.806100 6.873700
3.828800 8.540600
3.851500 13.233800
3.874300 14.098900
3.897000 12.817300
3.919700 14.327100
3.942400 9.001100
3.965100 6.547900
3.987800 4.236800
4.010500 2.352400
4.033200 0.815700
4.055900 0.095000
4.078600 0.000000
4.101300 0.000000
4.124000 0.000000
4.146800 0.000000
4.169500 0.000000
4.192200 0.000000
4.214900 0.000000
4.237600 0.000000
4.260300 0.000000
4.283000 0.000000
4.305700 0.000000
4.328400 0.000000
4.351100 0.000000
4.373800 0.000000
4.396500 0.000000
4.419300 0.000000
4.442000 0.000000
4.464700 0.000000
4.487400 0.000000
4.510100 0.000000
4.532800 0.000000
4.555500 0.000000
4.578200 0.000000
4.600900 0.000000
4.623600 0.000000
4.646300 0.000000
4.669100 0.000000
4.691800 0.000000
4.714500 0.000000
4.737200 0.000000
4.759900 0.000000
4.782600 0.000000
4.805300 0.000000
4.828000 0.000000
4.850700 0.000000
4.873400 0.000000
4.896100 0.000000
4.918800 0.000000
4.941600 0.000000
4.964300 0.000000
4.987000 0.000000
5.009700 0.000000
5.032400 0.000000
5.055100 0.000000
5.077800 0.000000
5.100500 0.000000
5.123200 0.000000
5.145900 0.000000
5.168600 0.000000
5.191300 0.000000
5.214100 0.000000
5.236800 0.000000
5.259500 0.000000
5.282200 0.000000
5.304900 0.000000
5.327600 0.000000
5.350300 0.000000
5.373000 0.000000
5.395700 0.000000
5.418400 0.000000
5.441100 0.000000
5.463800 0.000000
5.486600 0.000000
5.509300 3.435300
5.532000 9.531900
5.554700 11.713800
5.577400 11.621400
5.600100 13.740200
5.622800 23.283300
5.645500 14.184600
5.668200 7.368500
5.690900 6.077600
5.713600 6.769200
5.736400 7.589200
5.759100 11.353000
5.781800 13.366800
5.804500 16.762400
5.827200 13.327100
5.849900 10.034400
5.872600 6.723300
5.895300 4.560100
5.918000 6.021700
5.940700 14.984400
5.963400 24.306300
5.986100 16.089700
6.008900 24.129000
6.031600 23.296800
6.054300 19.074400
6.077000 14.339000
6.099700 10.913200
6.122400 9.168400
6.145100 9.477300
6.167800 20.597600
6.190500 17.542700
6.213200 18.328300
6.235900 20.449900
6.258600 17.023000
6.281400 16.676600
6.304100 15.452600
6.326800 13.532400
6.349500 10.989800
6.372200 8.449100
6.394900 6.707500
6.417600 4.741200
6.440300 5.255300
6.463000 7.242700
6.485700 10.287900
6.508400 11.795600
6.531100 13.050400
6.553900 13.912300
6.576600 19.349200
6.599300 17.588300
6.622000 16.413800
6.644700 19.004100
6.667400 15.311100
6.690100 16.889300
6.712800 10.946100
6.735500 11.507100
6.758200 14.663200
6.780900 16.964400
6.803700 13.085800
6.826400 12.392000
6.849100 15.203900
6.871800 17.244400
6.894500 18.462000
6.917200 21.520800
6.939900 11.023600
6.962600 6.486500
6.985300 4.964000
7.008000 3.812600
7.030700 4.102400
7.053400 7.054800
7.076200 9.440100
7.098900 12.788900
7.121600 17.538200
7.144300 22.324700
7.167000 15.110700
7.189700 14.767200
7.212400 14.246500
7.235100 13.919700
7.257800 23.257100
7.280500 7.336700
7.303200 7.204600
7.325900 21.514300
7.348700 19.890600
7.371400 13.126100
7.394100 9.740100
7.416800 7.479400
7.439500 5.290200
7.462200 4.370800
7.484900 4.465400
7.507600 4.890200
7.530300 10.962200
7.553000 15.329200
7.575700 18.936500
7.598400 19.062100
7.621200 13.230600
7.643900 8.285500
7.666600 6.002900
7.689300 7.558500
7.712000 11.317000
7.734700 12.401300
7.757400 13.223000
7.780100 14.153300
7.802800 11.302400
7.825500 15.298400
7.848200 23.368400
7.871000 19.198000
7.893700 13.798700
7.916400 11.238500
7.939100 9.621700
7.961800 9.476500
7.984500 13.505900
8.007200 14.523700
8.029900 11.611600
8.052600 12.715700
8.075300 13.213300
8.098000 14.824300
8.120700 11.620300
8.143500 11.489400
8.166200 14.341800
8.188900 17.540500
8.211600 16.881300
8.234300 11.094300
8.257000 13.967100
8.279700 17.189900
8.302400 16.044600
8.325100 15.048700
8.347800 19.165100
8.370500 11.338400
8.393200 9.460400
8.416000 10.019200
8.438700 11.980900
8.461400 14.459700
8.484100 14.688200
8.506800 13.722400
8.529500 13.307400
8.552200 12.196400
8.574900 11.110200
8.597600 9.428000
8.620300 9.908400
8.643000 10.531000
8.665700 10.012300
8.688500 9.098100
8.711200 8.599900
8.733900 8.822100
8.756600 10.618700
8.779300 17.250900
8.802000 17.793900
8.824700 19.386400
8.847400 16.853600
8.870100 14.923900
8.892800 15.262100
8.915500 15.258500
8.938300 16.133200
8.961000 11.409000
8.983700 10.710900
9.006400 10.890000
9.029100 15.132800
9.051800 19.830200
9.074500 23.921800
9.097200 22.756800
9.119900 20.777900
9.142600 19.903600
9.165300 15.653900
9.188000 12.313000
9.210800 19.783400
9.233500 14.953500
9.256200 13.290900
9.278900 14.486700
9.301600 15.005000
9.324300 17.683800
9.347000 13.939100
9.369700 13.173800
9.392400 11.866100
9.415100 10.797200
9.437800 16.437000
9.460500 16.221600
9.483300 15.901500
9.506000 13.717400
9.528700 12.440300
9.551400 12.553900
9.574100 13.036800
9.596800 13.331200
9.619500 10.555400
9.642200 12.465800
9.664900 14.209000
9.687600 14.600700
9.710300 15.434300
9.733000 16.740100
9.755800 16.422600
9.778500 14.067700
9.801200 14.081900
9.823900 12.007900
9.846600 10.943500
9.869300 10.032900
9.892000 11.228800
9.914700 14.435200
9.937400 14.106900
9.960100 37.774100
9.982800 9.795800
10.005600 10.179200
10.028300 10.294900
10.051000 16.579800
10.073700 15.525000
10.096400 14.588000
10.119100 15.362400
10.141800 15.192000
10.164500 11.389900
10.187200 10.880500
10.209900 11.646600
10.232600 13.443500
10.255300 13.179600
10.278100 12.855900
10.300800 10.632100
10.323500 11.396000
10.346200 12.804100
10.368900 19.533800
10.391600 17.170700
10.414300 12.020300
10.437000 10.987600
10.459700 10.600700
10.482400 11.077700
10.505100 12.821000
10.527800 12.830100
10.550600 13.013500
10.573300 17.217400
10.596000 8.185100
10.618700 8.061000
10.641400 8.393400
10.664100 10.127400
10.686800 12.496300
10.709500 12.761100
10.732200 14.930500
10.754900 12.265500
10.777600 11.087500
10.800300 13.691100
10.823100 13.523800
10.845800 14.113800
10.868500 12.898100
10.891200 12.092000
10.913900 18.568700
10.936600 11.789200
10.959300 7.025400
10.982000 6.768000
11.004700 8.244400
11.027400 10.579500
11.050100 12.781400
11.072900 14.644300
11.095600 14.438800
11.118300 13.467500
11.141000 11.893100
11.163700 10.717500
11.186400 11.572000
11.209100 16.839300
11.231800 16.978400
11.254500 12.908100
11.277200 11.513900
11.299900 12.195500
11.322600 13.113900
11.345400 12.304700
11.368100 10.131000
11.390800 10.594300
11.413500 11.254700
11.436200 11.448500
11.458900 8.972900
11.481600 6.390700
11.504300 16.452700
11.527000 11.622700
11.549700 18.295500
11.572400 14.387600
11.595100 12.373600
11.617900 10.377900
11.640600 8.792800
11.663300 10.565100
11.686000 14.641300
11.708700 20.818200
11.731400 26.619100
11.754100 8.812800
11.776800 4.572700
11.799500 5.311300
11.822200 11.028600
11.844900 29.771700
11.867600 25.178600
11.890400 12.342600
11.913100 10.252800
11.935800 8.941100
11.958500 9.836800
11.981200 10.798700
12.003900 12.399400
12.026600 14.088600
12.049300 18.486000
12.072000 9.405400
12.094700 9.778400
12.117400 10.867400
12.140200 14.448200
12.162900 18.744000
12.185600 15.210900
12.208300 12.412200
12.231000 12.543700
12.253700 19.473000
12.276400 19.046400
12.299100 17.344900
12.321800 16.856500
12.344500 14.023300
12.367200 12.153300
12.389900 14.312400
12.412700 13.660400
12.435400 12.417500
12.458100 10.023700
12.480800 7.701100
12.503500 5.581700
12.526200 4.739800
12.548900 5.388200
12.571600 10.359400
12.594300 16.819100
12.617000 22.489100
12.639700 19.973600
12.662400 10.588000
12.685200 8.762100
12.707900 12.335300
12.730600 12.916200
12.753300 13.266300
12.776000 13.280100
12.798700 12.862800
12.821400 12.683900
12.844100 13.221500
12.866800 11.803200
12.889500 10.019800
12.912200 12.932500
12.934900 12.918900
12.957700 11.556300
12.980400 8.367900
13.003100 8.182300
13.025800 9.856400
13.048500 10.029200
13.071200 10.207400
13.093900 11.565800
13.116600 13.335000
13.139300 11.313000
13.162000 11.849600
13.184700 12.705600
13.207500 12.021300
13.230200 11.449200
13.252900 11.201000
13.275600 11.001500
13.298300 10.816800
13.321000 13.080100
13.343700 14.368500
13.366400 14.861400
13.389100 16.898800
13.411800 15.864300
13.434500 14.502500
13.457200 13.574700
13.480000 13.246700
13.502700 12.794400
13.525400 12.313500
13.548100 11.801900
13.570800 9.085700
13.593500 8.865300
13.616200 10.308100
13.638900 10.632600
13.661600 11.198600
13.684300 11.527300
13.707000 11.602500
13.729700 10.461500
13.752500 9.330400
13.775200 8.227100
13.797900 8.132600
13.820600 8.204800
13.843300 8.856700
13.866000 10.828500
13.888700 10.284500
13.911400 9.492400
13.934100 8.926000
13.956800 9.070800
13.979500 9.088200
14.002200 8.961900
14.025000 8.999900
14.047700 9.264700
14.070400 9.607200
14.093100 10.239700
14.115800 10.743300
14.138500 10.752500
14.161200 9.727100
14.183900 11.632600
14.206600 16.305200
14.229300 9.097000
14.252000 9.227400
14.274800 9.539600
14.297500 9.651300
14.320200 8.005500
14.342900 8.673500
14.365600 10.250000
14.388300 11.280400
14.411000 12.106600
14.433700 13.373100
14.456400 5.894600
14.479100 5.074200
14.501800 8.209800
14.524500 14.361300
14.547300 20.859700
14.570000 13.624100
14.592700 12.007500
14.615400 14.726600
14.638100 16.803100
14.660800 11.411300
14.683500 11.062500
14.706200 11.163000
14.728900 12.233900
14.751600 9.290900
14.774300 10.619000
14.797000 11.565300
14.819800 12.563700
14.842500 13.513800
14.865200 15.422500
14.887900 15.197200
14.910600 10.507000
14.933300 7.732200
14.956000 8.731400
14.978700 11.231600
15.001400 27.761200
15.024100 12.384600
15.046800 10.951900
15.069500 9.505300
15.092300 9.144900
15.115000 8.782600
15.137700 10.246300
15.160400 7.760900
15.183100 9.559500
15.205800 11.088200
15.228500 12.768100
15.251200 11.270000
15.273900 9.481600
15.296600 10.106700
15.319300 10.707700
15.342100 8.562300
15.364800 8.546600
15.387500 9.971000
15.410200 11.123100
15.432900 11.941200
15.455600 14.464800
15.478300 14.107800
15.501000 12.507900
15.523700 13.359700
15.546400 41.091500
15.569100 17.405000
15.591800 10.210500
15.614600 6.724000
15.637300 6.467800
15.660000 8.927800
15.682700 9.936400
15.705400 11.351400
15.728100 12.143500
15.750800 13.280800
15.773500 13.964000
15.796200 15.033100
15.818900 14.121600
15.841600 11.247800
15.864300 15.599700
15.887100 22.288200
15.909800 21.587800
15.932500 8.233900
15.955200 9.230900
15.977900 11.557700
16.000600 12.189600
16.023300 11.621900
16.046000 10.906800
16.068700 10.508000
16.091400 9.916300
16.114100 12.418600
16.136800 13.535600
16.159600 14.815400
16.182300 11.362900
16.205000 8.615900
16.227700 10.238000
16.250400 11.856900
16.273100 11.970600
16.295800 15.721800
16.318500 11.951200
16.341200 11.876000
16.363900 11.011800
16.386600 13.016400
16.409400 13.002300
16.432100 11.357600
16.454800 9.457100
16.477500 7.766000
16.500200 8.524200
16.522900 10.279900
16.545600 11.410900
16.568300 12.790100
16.591000 13.648500
16.613700 12.697200
16.636400 11.584900
16.659100 13.250900
16.681900 13.319500
16.704600 9.960200
16.727300 8.237700
16.750000 8.219800
16.772700 8.604400
16.795400 9.752400
16.818100 10.625700
16.840800 12.418600
16.863500 21.627400
16.886200 21.191300
16.908900 15.364100
16.931600 10.340400
16.954400 8.976800
16.977100 10.283900
16.999800 14.999900
17.022500 20.018000
17.045200 13.315000
17.067900 12.918900
17.090600 16.377100
17.113300 15.416200
17.136000 13.522100
17.158700 11.934500
17.181400 12.377400
17.204100 13.033700
17.226900 13.640500
17.249600 13.312600
17.272300 13.440500
17.295000 14.600600
17.317700 13.034900
17.340400 11.623200
17.363100 11.654300
17.385800 13.100900
17.408500 14.688900
17.431200 15.686400
17.453900 15.222000
17.476700 15.292900
17.499400 16.184700
17.522100 13.634800
17.544800 11.817700
17.567500 10.603100
17.590200 11.063700
17.612900 14.666400
17.635600 12.683300
17.658300 7.441300
17.681000 2.330100
17.703700 0.973000
17.726400 0.474800
17.749200 0.271000
17.771900 0.124000
17.794600 0.033800
17.817300 0.000200
17.840000 0.000000
17.862700 0.000000
17.885400 0.000000
17.908100 0.000000
17.930800 0.000000
17.953500 0.000000
17.976200 0.000000
17.998900 0.000000
18.021700 0.000000
18.044400 0.000000
18.067100 0.000000
18.089800 0.000000
18.112500 0.000000
18.135200 0.000000
18.157900 0.000000
18.180600 0.000000
18.203300 0.000000
18.226000 0.000000
18.248700 0.000000
18.271400 0.000000
18.294200 0.000000
18.316900 0.000000
18.339600 0.000000
18.362300 0.000000
18.385000 0.000000
18.407700 0.000000
18.430400 0.000000
18.453100 0.000000
18.475800 0.000000
18.498500 0.000000
18.521200 0.000000
18.544000 0.000000
18.566700 0.000000
18.589400 0.000000
18.612100 0.000000
18.634800 0.000000
18.657500 0.000000
18.680200 0.000000
18.702900 0.000000
18.725600 0.000000
18.748300 0.000000
18.771000 0.000000
18.793700 0.000000
18.816500 0.000000
18.839200 0.000000
18.861900 0.000000
18.884600 0.000000
18.907300 0.000000
18.930000 0.000000
18.952700 0.000000
18.975400 0.000000
18.998100 0.000000
19.020800 0.000000
19.043500 0.000000
19.066200 0.000000
19.089000 0.000000
19.111700 0.000000
19.134400 0.000000
19.157100 0.000000
19.179800 0.000000
19.202500 0.000000
19.225200 0.000000
19.247900 0.000000
19.270600 0.000000
19.293300 0.000000
19.316000 0.000000
19.338700 0.000000
19.361500 0.000000
19.384200 0.000000
19.406900 0.000000
19.429600 0.000000
19.452300 0.000000
19.475000 0.000000
19.497700 0.000000
19.520400 0.000000
19.543100 0.000000
19.565800 0.000000
19.588500 0.000000
19.611300 0.000000
19.634000 0.000000
19.656700 0.000000
19.679400 0.000000
19.702100 0.000000
19.724800 0.000000
19.747500 0.000000
19.770200 0.000000
19.792900 0.000000
19.815600 0.000000
19.838300 0.000000
19.861000 0.000000
19.883800 0.000000
e
