set title 'mp-554355 - Density of States'
set xlabel 'Energy (eV)'
set ylabel 'DOS (states/eV)'
set grid
set xrange [-10:10]
set yrange [0:8.811]
set xzeroaxis lt -1
set terminal png size 800,600
set output 'mp-554355_dos_gnuplot.png'
plot '-' using 1:2 with lines title 'DOS'
-42.270500 0.000000
-42.222700 0.000000
-42.174800 0.000000
-42.127000 0.000000
-42.079200 0.000000
-42.031300 0.000000
-41.983500 0.000000
-41.935700 0.000000
-41.887900 0.000000
-41.840000 0.000000
-41.792200 0.000000
-41.744400 0.000000
-41.696500 0.000000
-41.648700 0.000000
-41.600900 0.000000
-41.553000 0.000000
-41.505200 0.000000
-41.457400 0.000000
-41.409600 0.000000
-41.361700 0.000000
-41.313900 0.000000
-41.266100 0.000000
-41.218200 0.000000
-41.170400 0.000000
-41.122600 0.000000
-41.074800 0.000000
-41.026900 0.000000
-40.979100 0.000000
-40.931300 0.000000
-40.883400 0.000000
-40.835600 0.000000
-40.787800 0.000000
-40.739900 0.000000
-40.692100 0.000000
-40.644300 0.000000
-40.596500 0.000000
-40.548600 0.000000
-40.500800 0.000000
-40.453000 0.000000
-40.405100 0.000000
-40.357300 0.000000
-40.309500 0.000000
-40.261700 0.000000
-40.213800 0.000000
-40.166000 0.000000
-40.118200 0.000000
-40.070300 0.000000
-40.022500 0.000000
-39.974700 0.000000
-39.926900 0.000000
-39.879000 0.000000
-39.831200 0.000000
-39.783400 0.000000
-39.735500 0.000000
-39.687700 0.000000
-39.639900 0.000000
-39.592000 0.000000
-39.544200 0.000000
-39.496400 0.000000
-39.448600 0.000000
-39.400700 0.000000
-39.352900 0.000000
-39.305100 0.000000
-39.257200 0.000000
-39.209400 0.000000
-39.161600 0.000000
-39.113800 0.000000
-39.065900 0.000000
-39.018100 0.000000
-38.970300 0.000000
-38.922400 0.000000
-38.874600 0.000000
-38.826800 0.000000
-38.779000 0.000000
-38.731100 0.000000
-38.683300 0.000000
-38.635500 0.000000
-38.587600 0.000000
-38.539800 0.000000
-38.492000 0.000000
-38.444100 0.000000
-38.396300 0.000000
-38.348500 0.000000
-38.300700 0.000000
-38.252800 0.000000
-38.205000 0.000000
-38.157200 0.000000
-38.109300 0.000000
-38.061500 0.000000
-38.013700 0.000000
-37.965900 0.000000
-37.918000 2.901400
-37.870200 13.504900
-37.822400 16.289800
-37.774500 0.000000
-37.726700 0.000000
-37.678900 0.000000
-37.631000 0.000000
-37.583200 0.000000
-37.535400 0.000000
-37.487600 0.000000
-37.439700 0.000000
-37.391900 0.000000
-37.344100 0.000000
-37.296200 0.000000
-37.248400 0.000000
-37.200600 0.000000
-37.152800 0.000000
-37.104900 0.000000
-37.057100 0.000000
-37.009300 0.000000
-36.961400 0.000000
-36.913600 0.000000
-36.865800 0.000000
-36.818000 0.000000
-36.770100 0.000000
-36.722300 0.000000
-36.674500 0.000000
-36.626600 0.000000
-36.578800 0.000000
-36.531000 0.000000
-36.483100 0.000000
-36.435300 0.000000
-36.387500 0.000000
-36.339700 0.000000
-36.291800 0.000000
-36.244000 0.000000
-36.196200 0.000000
-36.148300 0.000000
-36.100500 0.000000
-36.052700 0.000000
-36.004900 0.000000
-35.957000 0.000000
-35.909200 0.000000
-35.861400 0.000000
-35.813500 0.000000
-35.765700 0.000000
-35.717900 0.000000
-35.670100 0.000000
-35.622200 0.000000
-35.574400 0.000000
-35.526600 0.000000
-35.478700 0.000000
-35.430900 0.000000
-35.383100 0.000000
-35.335200 0.000000
-35.287400 0.000000
-35.239600 0.000000
-35.191800 0.000000
-35.143900 0.000000
-35.096100 0.000000
-35.048300 0.000000
-35.000400 0.000000
-34.952600 0.000000
-34.904800 0.000000
-34.857000 0.000000
-34.809100 0.000000
-34.761300 0.000000
-34.713500 0.000000
-34.665600 0.000000
-34.617800 0.000000
-34.570000 0.000000
-34.522100 0.000000
-34.474300 0.000000
-34.426500 0.000000
-34.378700 0.000000
-34.330800 0.000000
-34.283000 0.000000
-34.235200 0.000000
-34.187300 0.000000
-34.139500 0.000000
-34.091700 0.000000
-34.043900 0.000000
-33.996000 0.000000
-33.948200 0.000000
-33.900400 0.000000
-33.852500 0.000000
-33.804700 0.000000
-33.756900 0.000000
-33.709100 0.000000
-33.661200 0.000000
-33.613400 0.000000
-33.565600 0.000000
-33.517700 0.000000
-33.469900 0.000000
-33.422100 0.000000
-33.374200 0.000000
-33.326400 0.000000
-33.278600 0.000000
-33.230800 0.000000
-33.182900 0.000000
-33.135100 0.000000
-33.087300 0.000000
-33.039400 0.000000
-32.991600 0.000000
-32.943800 0.000000
-32.896000 0.000000
-32.848100 0.000000
-32.800300 0.000000
-32.752500 0.000000
-32.704600 0.000000
-32.656800 0.000000
-32.609000 0.000000
-32.561200 0.000000
-32.513300 0.000000
-32.465500 0.000000
-32.417700 0.000000
-32.369800 0.000000
-32.322000 0.000000
-32.274200 0.000000
-32.226300 0.000000
-32.178500 0.000000
-32.130700 0.000000
-32.082900 0.000000
-32.035000 0.000000
-31.987200 0.000000
-31.939400 0.000000
-31.891500 0.000000
-31.843700 0.000000
-31.795900 0.000000
-31.748100 0.000000
-31.700200 0.000000
-31.652400 0.000000
-31.604600 0.000000
-31.556700 0.000000
-31.508900 0.000000
-31.461100 0.000000
-31.413200 0.000000
-31.365400 0.000000
-31.317600 0.000000
-31.269800 0.000000
-31.221900 0.000000
-31.174100 0.000000
-31.126300 0.000000
-31.078400 0.000000
-31.030600 0.000000
-30.982800 0.000000
-30.935000 0.000000
-30.887100 0.000000
-30.839300 0.000000
-30.791500 0.000000
-30.743600 0.000000
-30.695800 0.000000
-30.648000 0.000000
-30.600200 0.000000
-30.552300 0.000000
-30.504500 0.000000
-30.456700 0.000000
-30.408800 0.000000
-30.361000 0.000000
-30.313200 0.000000
-30.265300 0.000000
-30.217500 0.000000
-30.169700 0.000000
-30.121900 0.000000
-30.074000 0.000000
-30.026200 0.000000
-29.978400 0.000000
-29.930500 0.000000
-29.882700 0.000000
-29.834900 0.000000
-29.787100 0.000000
-29.739200 0.000000
-29.691400 0.000000
-29.643600 0.000000
-29.595700 0.000000
-29.547900 0.000000
-29.500100 0.000000
-29.452300 0.000000
-29.404400 0.000000
-29.356600 0.000000
-29.308800 0.000000
-29.260900 0.000000
-29.213100 0.000000
-29.165300 0.000000
-29.117400 0.000000
-29.069600 0.000000
-29.021800 0.000000
-28.974000 0.000000
-28.926100 0.000000
-28.878300 0.000000
-28.830500 0.000000
-28.782600 0.000000
-28.734800 0.000000
-28.687000 0.000000
-28.639200 0.000000
-28.591300 0.000000
-28.543500 0.000000
-28.495700 0.000000
-28.447800 0.000000
-28.400000 0.000000
-28.352200 0.000000
-28.304300 0.000000
-28.256500 0.000000
-28.208700 0.000000
-28.160900 0.000000
-28.113000 0.000000
-28.065200 0.000000
-28.017400 0.000000
-27.969500 0.000000
-27.921700 0.000000
-27.873900 0.000000
-27.826100 0.000000
-27.778200 0.000000
-27.730400 0.000000
-27.682600 0.000000
-27.634700 0.000000
-27.586900 0.000000
-27.539100 0.000000
-27.491300 0.000000
-27.443400 0.000000
-27.395600 0.000000
-27.347800 0.000000
-27.299900 0.000000
-27.252100 0.000000
-27.204300 0.000000
-27.156400 0.000000
-27.108600 0.000000
-27.060800 0.000000
-27.013000 0.000000
-26.965100 0.000000
-26.917300 0.000000
-26.869500 0.000000
-26.821600 0.000000
-26.773800 0.000000
-26.726000 0.000000
-26.678200 0.000000
-26.630300 0.000000
-26.582500 0.000000
-26.534700 0.000000
-26.486800 0.000000
-26.439000 0.000000
-26.391200 0.000000
-26.343400 0.000000
-26.295500 0.000000
-26.247700 0.000000
-26.199900 0.000000
-26.152000 0.000000
-26.104200 0.000000
-26.056400 0.000000
-26.008500 0.000000
-25.960700 0.000000
-25.912900 0.000000
-25.865100 0.000000
-25.817200 0.000000
-25.769400 0.000000
-25.721600 0.000000
-25.673700 0.000000
-25.625900 0.000000
-25.578100 0.000000
-25.530300 0.000000
-25.482400 0.000000
-25.434600 0.000000
-25.386800 0.000000
-25.338900 0.000000
-25.291100 0.000000
-25.243300 0.000000
-25.195400 0.000000
-25.147600 0.000000
-25.099800 0.000000
-25.052000 0.000000
-25.004100 0.000000
-24.956300 0.000000
-24.908500 0.000000
-24.860600 0.000000
-24.812800 0.000000
-24.765000 0.000000
-24.717200 0.000000
-24.669300 0.000000
-24.621500 0.000000
-24.573700 0.000000
-24.525800 0.000000
-24.478000 0.000000
-24.430200 0.000000
-24.382400 0.000000
-24.334500 0.000000
-24.286700 0.000000
-24.238900 0.000000
-24.191000 0.000000
-24.143200 0.000000
-24.095400 0.000000
-24.047500 0.000000
-23.999700 0.000000
-23.951900 0.000000
-23.904100 0.000000
-23.856200 0.000000
-23.808400 0.000000
-23.760600 0.000000
-23.712700 0.000000
-23.664900 0.000000
-23.617100 0.000000
-23.569300 0.000000
-23.521400 0.000000
-23.473600 0.000000
-23.425800 0.000000
-23.377900 0.000000
-23.330100 0.000000
-23.282300 0.000000
-23.234500 0.000000
-23.186600 0.000000
-23.138800 0.000000
-23.091000 0.000000
-23.043100 0.000000
-22.995300 0.000000
-22.947500 0.000000
-22.899600 0.000000
-22.851800 0.000000
-22.804000 0.000000
-22.756200 0.000000
-22.708300 0.000000
-22.660500 0.000000
-22.612700 0.000000
-22.564800 0.000000
-22.517000 0.000000
-22.469200 0.000000
-22.421400 0.000000
-22.373500 0.000000
-22.325700 0.000000
-22.277900 0.000000
-22.230000 0.000000
-22.182200 0.000000
-22.134400 0.000000
-22.086500 0.000000
-22.038700 0.000000
-21.990900 0.000000
-21.943100 0.000000
-21.895200 0.000000
-21.847400 0.000000
-21.799600 0.000000
-21.751700 0.000000
-21.703900 0.000000
-21.656100 0.000000
-21.608300 0.062000
-21.560400 0.347500
-21.512600 0.518200
-21.464800 0.674500
-21.416900 0.823000
-21.369100 1.029800
-21.321300 1.268200
-21.273500 1.495200
-21.225600 4.909900
-21.177800 7.151300
-21.130000 9.369300
-21.082100 6.350600
-21.034300 5.044100
-20.986500 2.843900
-20.938600 2.486800
-20.890800 2.408300
-20.843000 2.492800
-20.795200 3.543400
-20.747300 4.086000
-20.699500 3.926700
-20.651700 3.500500
-20.603800 3.237500
-20.556000 3.135900
-20.508200 2.779300
-20.460400 2.464700
-20.412500 2.231900
-20.364700 1.862800
-20.316900 1.385800
-20.269000 1.056100
-20.221200 0.375300
-20.173400 0.000000
-20.125600 0.000000
-20.077700 0.000000
-20.029900 0.000000
-19.982100 0.000000
-19.934200 0.000000
-19.886400 0.000000
-19.838600 0.000000
-19.790700 0.000000
-19.742900 0.000000
-19.695100 0.000000
-19.647300 0.000000
-19.599400 0.000000
-19.551600 0.000000
-19.503800 0.000000
-19.455900 0.000000
-19.408100 0.000000
-19.360300 0.000000
-19.312500 0.238500
-19.264600 0.363700
-19.216800 0.481800
-19.169000 0.707200
-19.121100 1.010100
-19.073300 1.424000
-19.025500 1.944400
-18.977700 2.624200
-18.929800 5.094000
-18.882000 13.245900
-18.834200 12.055800
-18.786300 16.193300
-18.738500 9.578300
-18.690700 8.610900
-18.642800 11.256800
-18.595000 6.335000
-18.547200 6.831600
-18.499400 9.054300
-18.451500 6.989500
-18.403700 3.725600
-18.355900 3.107100
-18.308000 2.470400
-18.260200 3.004200
-18.212400 0.000000
-18.164600 0.000000
-18.116700 0.000000
-18.068900 0.000000
-18.021100 0.000000
-17.973200 0.000000
-17.925400 0.000000
-17.877600 0.000000
-17.829700 0.000000
-17.781900 0.000000
-17.734100 0.000000
-17.686300 0.000000
-17.638400 0.000000
-17.590600 0.000000
-17.542800 0.000000
-17.494900 0.000000
-17.447100 0.000000
-17.399300 0.000000
-17.351500 0.000000
-17.303600 0.000000
-17.255800 0.000000
-17.208000 0.000000
-17.160100 0.000000
-17.112300 0.000000
-17.064500 0.000000
-17.016700 0.000000
-16.968800 0.000000
-16.921000 0.000000
-16.873200 0.000000
-16.825300 0.000000
-16.777500 0.000000
-16.729700 0.000000
-16.681800 0.000000
-16.634000 0.000000
-16.586200 0.000000
-16.538400 0.000000
-16.490500 0.000000
-16.442700 0.000000
-16.394900 0.000000
-16.347000 0.000000
-16.299200 0.000000
-16.251400 0.000000
-16.203600 0.000000
-16.155700 0.000000
-16.107900 0.000000
-16.060100 0.000000
-16.012200 0.000000
-15.964400 0.000000
-15.916600 0.000000
-15.868800 0.000000
-15.820900 0.000000
-15.773100 0.000000
-15.725300 0.000000
-15.677400 0.000000
-15.629600 0.000000
-15.581800 0.000000
-15.533900 0.000000
-15.486100 0.000000
-15.438300 0.000000
-15.390500 0.000000
-15.342600 0.000000
-15.294800 0.000000
-15.247000 0.000000
-15.199100 0.000000
-15.151300 0.000000
-15.103500 0.000000
-15.055700 0.000000
-15.007800 0.000000
-14.960000 0.000000
-14.912200 0.000000
-14.864300 0.000000
-14.816500 0.000000
-14.768700 0.000000
-14.720800 0.000000
-14.673000 0.000000
-14.625200 0.000000
-14.577400 0.000000
-14.529500 0.000000
-14.481700 0.000000
-14.433900 0.000000
-14.386000 0.000000
-14.338200 0.000000
-14.290400 0.000000
-14.242600 0.000000
-14.194700 0.000000
-14.146900 0.000000
-14.099100 0.000000
-14.051200 0.000000
-14.003400 0.000000
-13.955600 0.000000
-13.907800 0.000000
-13.859900 0.000000
-13.812100 0.000000
-13.764300 0.000000
-13.716400 0.000000
-13.668600 0.000000
-13.620800 0.000000
-13.572900 0.000000
-13.525100 0.000000
-13.477300 0.000000
-13.429500 0.000000
-13.381600 0.000000
-13.333800 0.000000
-13.286000 0.000000
-13.238100 0.000000
-13.190300 0.000000
-13.142500 0.000000
-13.094700 0.000000
-13.046800 0.000000
-12.999000 0.000000
-12.951200 0.000000
-12.903300 0.000000
-12.855500 0.000000
-12.807700 0.000000
-12.759900 0.000000
-12.712000 0.000000
-12.664200 0.000000
-12.616400 0.000000
-12.568500 0.000000
-12.520700 0.000000
-12.472900 0.000000
-12.425000 0.000000
-12.377200 0.000000
-12.329400 0.000000
-12.281600 0.000000
-12.233700 0.000000
-12.185900 0.000000
-12.138100 0.000000
-12.090200 0.000000
-12.042400 0.000000
-11.994600 0.000000
-11.946800 0.000000
-11.898900 0.000000
-11.851100 0.000000
-11.803300 0.000000
-11.755400 0.000000
-11.707600 0.000000
-11.659800 0.000000
-11.611900 0.000000
-11.564100 0.000000
-11.516300 0.000000
-11.468500 0.000000
-11.420600 0.000000
-11.372800 0.000000
-11.325000 0.000000
-11.277100 0.000000
-11.229300 0.000000
-11.181500 0.000000
-11.133700 0.000000
-11.085800 0.000000
-11.038000 0.000000
-10.990200 0.000000
-10.942300 0.000000
-10.894500 0.000000
-10.846700 0.000000
-10.798900 0.000000
-10.751000 0.000000
-10.703200 0.000000
-10.655400 0.000000
-10.607500 0.000000
-10.559700 0.000000
-10.511900 0.000000
-10.464000 0.000000
-10.416200 0.000000
-10.368400 0.000000
-10.320600 0.000000
-10.272700 0.000000
-10.224900 0.000000
-10.177100 0.000000
-10.129200 0.000000
-10.081400 0.000000
-10.033600 0.000000
-9.985800 0.000000
-9.937900 0.000000
-9.890100 0.000000
-9.842300 0.000000
-9.794400 0.000000
-9.746600 0.000000
-9.698800 0.000000
-9.651000 0.000000
-9.603100 0.000000
-9.555300 0.000000
-9.507500 0.000000
-9.459600 0.000000
-9.411800 0.000000
-9.364000 0.000000
-9.316100 0.000000
-9.268300 0.000000
-9.220500 0.000000
-9.172700 0.000000
-9.124800 0.000000
-9.077000 0.000000
-9.029200 0.000000
-8.981300 0.000000
-8.933500 0.000000
-8.885700 0.000000
-8.837900 0.000000
-8.790000 0.000000
-8.742200 0.000000
-8.694400 0.000000
-8.646500 0.000000
-8.598700 0.000000
-8.550900 0.000000
-8.503000 0.000000
-8.455200 0.000000
-8.407400 0.000000
-8.359600 0.000000
-8.311700 0.000000
-8.263900 0.000000
-8.216100 0.000000
-8.168200 0.000000
-8.120400 0.000000
-8.072600 0.000000
-8.024800 0.000000
-7.976900 0.000000
-7.929100 0.000000
-7.881300 0.000000
-7.833400 0.000000
-7.785600 0.000000
-7.737800 0.000000
-7.690000 0.000000
-7.642100 0.000000
-7.594300 0.000000
-7.546500 0.000000
-7.498600 0.000000
-7.450800 0.000000
-7.403000 0.000000
-7.355100 0.000000
-7.307300 0.000000
-7.259500 0.000000
-7.211700 0.000000
-7.163800 0.000000
-7.116000 0.000000
-7.068200 0.000000
-7.020300 0.000000
-6.972500 0.000000
-6.924700 0.000000
-6.876900 0.000000
-6.829000 0.000000
-6.781200 0.000000
-6.733400 0.000000
-6.685500 0.000000
-6.637700 0.000000
-6.589900 0.000000
-6.542100 0.000000
-6.494200 0.000000
-6.446400 0.000000
-6.398600 0.000000
-6.350700 0.000000
-6.302900 0.000000
-6.255100 0.000000
-6.207200 0.000000
-6.159400 0.000000
-6.111600 0.000000
-6.063800 0.000000
-6.015900 0.000000
-5.968100 0.000000
-5.920300 0.000000
-5.872400 0.000000
-5.824600 0.000000
-5.776800 0.000000
-5.729000 0.000000
-5.681100 0.000000
-5.633300 0.000000
-5.585500 0.000000
-5.537600 0.000000
-5.489800 0.000000
-5.442000 0.000000
-5.394100 0.000000
-5.346300 0.000000
-5.298500 0.000000
-5.250700 0.000000
-5.202800 0.000000
-5.155000 0.000000
-5.107200 0.000000
-5.059300 0.000000
-5.011500 0.000000
-4.963700 0.000000
-4.915900 0.000000
-4.868000 0.000000
-4.820200 0.000000
-4.772400 0.000000
-4.724500 0.000000
-4.676700 0.000000
-4.628900 0.000000
-4.581100 0.000000
-4.533200 0.000000
-4.485400 0.000000
-4.437600 0.000000
-4.389700 0.000000
-4.341900 0.000000
-4.294100 0.000000
-4.246200 0.000000
-4.198400 0.000000
-4.150600 0.000000
-4.102800 0.000000
-4.054900 0.088000
-4.007100 0.145100
-3.959300 0.211500
-3.911400 0.226900
-3.863600 0.284600
-3.815800 0.348800
-3.768000 0.417000
-3.720100 0.470000
-3.672300 0.534500
-3.624500 0.627100
-3.576600 0.802000
-3.528800 1.070100
-3.481000 1.291400
-3.433200 1.592000
-3.385300 2.191200
-3.337500 3.482900
-3.289700 5.095400
-3.241800 5.449300
-3.194000 6.051600
-3.146200 6.121600
-3.098300 4.331700
-3.050500 4.425400
-3.002700 4.499000
-2.954900 4.488200
-2.907000 4.306200
-2.859200 4.723200
-2.811400 4.901900
-2.763500 4.940100
-2.715700 4.776700
-2.667900 4.859400
-2.620100 6.344600
-2.572200 5.758700
-2.524400 6.065600
-2.476600 6.153900
-2.428700 5.652600
-2.380900 5.470200
-2.333100 5.464400
-2.285200 5.854900
-2.237400 4.342400
-2.189600 3.600600
-2.141800 4.796100
-2.093900 6.505700
-2.046100 7.250400
-1.998300 4.940900
-1.950400 4.490500
-1.902600 3.778600
-1.854800 4.641300
-1.807000 5.167500
-1.759100 5.265600
-1.711300 3.948500
-1.663500 3.465500
-1.615600 2.941800
-1.567800 2.583500
-1.520000 2.183900
-1.472200 2.157500
-1.424300 2.135200
-1.376500 2.247600
-1.328700 2.141200
-1.280800 2.306600
-1.233000 2.498900
-1.185200 2.737900
-1.137300 3.466900
-1.089500 4.216100
-1.041700 4.618600
-0.993900 3.541200
-0.946000 3.164800
-0.898200 2.081200
-0.850400 1.837100
-0.802500 1.894100
-0.754700 1.789000
-0.706900 1.545200
-0.659100 1.317700
-0.611200 1.089800
-0.563400 0.998700
-0.515600 0.679200
-0.467700 0.000000
-0.419900 0.000000
-0.372100 0.000000
-0.324300 0.000000
-0.276400 0.000000
-0.228600 0.000000
-0.180800 0.000000
-0.132900 0.000000
-0.085100 0.000000
-0.037300 0.000000
0.010600 0.000000
0.058400 0.000000
0.106200 0.000000
0.154000 0.000000
0.201900 0.000000
0.249700 0.000000
0.297500 0.000000
0.345400 0.000000
0.393200 0.000000
0.441000 0.000000
0.488800 0.000000
0.536700 0.000000
0.584500 0.000000
0.632300 0.000000
0.680200 0.000000
0.728000 0.000000
0.775800 0.000000
0.823700 0.000000
0.871500 0.000000
0.919300 0.000000
0.967100 0.000000
1.015000 0.000000
1.062800 0.000000
1.110600 0.000000
1.158500 0.000000
1.206300 0.000000
1.254100 0.000000
1.301900 0.000000
1.349800 0.000000
1.397600 0.000000
1.445400 0.000000
1.493300 0.000000
1.541100 0.000000
1.588900 0.000000
1.636700 0.000000
1.684600 0.000000
1.732400 0.000000
1.780200 0.000000
1.828100 0.000000
1.875900 0.000000
1.923700 0.000000
1.971600 0.000000
2.019400 0.000000
2.067200 0.000000
2.115000 0.000000
2.162900 0.000000
2.210700 0.000000
2.258500 0.000000
2.306400 0.000000
2.354200 0.000000
2.402000 0.000000
2.449800 0.000000
2.497700 0.000000
2.545500 0.000000
2.593300 0.000000
2.641200 0.000000
2.689000 0.000000
2.736800 0.000000
2.784600 0.000000
2.832500 0.000000
2.880300 0.000000
2.928100 0.000000
2.976000 0.000000
3.023800 0.000000
3.071600 0.000000
3.119500 0.000000
3.167300 0.000000
3.215100 0.000000
3.262900 0.000000
3.310800 0.000000
3.358600 0.000000
3.406400 0.000000
3.454300 0.000000
3.502100 0.000000
3.549900 0.000000
3.597700 0.000000
3.645600 0.000000
3.693400 0.000000
3.741200 0.000000
3.789100 0.000000
3.836900 0.000000
3.884700 0.000000
3.932600 0.000000
3.980400 0.000000
4.028200 0.000000
4.076000 0.000000
4.123900 0.000000
4.171700 0.000000
4.219500 0.000000
4.267400 0.000000
4.315200 0.000000
4.363000 0.000000
4.410800 0.000000
4.458700 0.000000
4.506500 0.000000
4.554300 0.000000
4.602200 0.000000
4.650000 0.000000
4.697800 0.000000
4.745600 0.003700
4.793500 0.013700
4.841300 0.030200
4.889100 0.053200
4.937000 0.078900
4.984800 0.103600
5.032600 0.127300
5.080500 0.149600
5.128300 0.168400
5.176100 0.183900
5.223900 0.196000
5.271800 0.206100
5.319600 0.218700
5.367400 0.234300
5.415300 0.252800
5.463100 0.273100
5.510900 0.294100
5.558700 0.316500
5.606600 0.340000
5.654400 0.364400
5.702200 0.389700
5.750100 0.416300
5.797900 0.461100
5.845700 0.518700
5.893500 0.567500
5.941400 0.601000
5.989200 0.618200
6.037000 0.632000
6.084900 0.643000
6.132700 0.709300
6.180500 0.722600
6.228400 0.742800
6.276200 0.786700
6.324000 0.835000
6.371800 0.886600
6.419700 0.931300
6.467500 0.990000
6.515300 1.050100
6.563200 1.087500
6.611000 1.171600
6.658800 1.213200
6.706600 1.259700
6.754500 1.330400
6.802300 1.432600
6.850100 1.679400
6.898000 1.473600
6.945800 1.459700
6.993600 1.428300
7.041500 1.330700
7.089300 1.189700
7.137100 1.182900
7.184900 1.358300
7.232800 1.613800
7.280600 1.943900
7.328400 2.298100
7.376300 3.200500
7.424100 3.729500
7.471900 4.005500
7.519700 4.005000
7.567600 3.906600
7.615400 3.376700
7.663200 3.318800
7.711100 4.007500
7.758900 4.852000
7.806700 5.399500
7.854500 5.500400
7.902400 5.323100
7.950200 4.987200
7.998000 5.640400
8.045900 6.546400
8.093700 5.197800
8.141500 4.073600
8.189400 3.354300
8.237200 3.045500
8.285000 2.811600
8.332800 2.623300
8.380700 5.175900
8.428500 3.117500
8.476300 3.121400
8.524200 3.108600
8.572000 3.076000
8.619800 3.614800
8.667600 4.263300
8.715500 4.771700
8.763300 4.777400
8.811100 4.020000
8.859000 3.763000
8.906800 3.810700
8.954600 5.164800
9.002400 7.590700
9.050300 8.009900
9.098100 5.854600
9.145900 3.741800
9.193800 2.909500
9.241600 2.070800
9.289400 1.687700
9.337300 1.521600
9.385100 1.322300
9.432900 1.297000
9.480700 1.639500
9.528600 1.119000
9.576400 0.867500
9.624200 0.790300
9.672100 0.706600
9.719900 0.684200
9.767700 0.663400
9.815500 0.644300
9.863400 0.626900
9.911200 0.611000
9.959000 0.596400
10.006900 0.583200
10.054700 0.571200
10.102500 0.559000
10.150400 0.546000
10.198200 0.534800
10.246000 0.527700
10.293800 0.521800
10.341700 0.518300
10.389500 0.517100
10.437300 0.516000
10.485200 0.515200
10.533000 0.514600
10.580800 0.514200
10.628600 0.514000
10.676500 0.513900
10.724300 0.543100
10.772100 0.541300
10.820000 0.539700
10.867800 0.537700
10.915600 0.552600
10.963400 0.546200
11.011300 0.542000
11.059100 0.545200
11.106900 0.547500
11.154800 0.548900
11.202600 0.549300
11.250400 0.549000
11.298300 0.658100
11.346100 0.634600
11.393900 0.587800
11.441700 0.542700
11.489600 0.499300
11.537400 0.798000
11.585200 0.909600
11.633100 0.906300
11.680900 0.695100
11.728700 0.687800
11.776500 0.680000
11.824400 0.671800
11.872200 0.667100
11.920000 0.672700
11.967900 0.745200
12.015700 0.851800
12.063500 0.834000
12.111300 0.789300
12.159200 0.777700
12.207000 0.766900
12.254800 0.756100
12.302700 0.744900
12.350500 0.733200
12.398300 0.721000
12.446200 0.694800
12.494000 0.661800
12.541800 0.658300
12.589600 0.661900
12.637500 0.665600
12.685300 0.669300
12.733100 0.673000
12.781000 0.676800
12.828800 0.681000
12.876600 0.685800
12.924400 0.690600
12.972300 0.697000
13.020100 0.700800
13.067900 0.748300
13.115800 0.771600
13.163600 0.810800
13.211400 1.081000
13.259300 1.211400
13.307100 1.187800
13.354900 1.153300
13.402700 1.228600
13.450600 1.206400
13.498400 1.176300
13.546200 1.136600
13.594100 1.087300
13.641900 0.956500
13.689700 0.850600
13.737500 0.816200
13.785400 1.029600
13.833200 0.974500
13.881000 0.835500
13.928900 0.815800
13.976700 0.791100
14.024500 0.765000
14.072300 0.746600
14.120200 0.778800
14.168000 0.809400
14.215800 0.800600
14.263700 0.725400
14.311500 0.699600
14.359300 0.669600
14.407200 0.639800
14.455000 0.624800
14.502800 0.524200
14.550600 0.504600
14.598500 0.487100
14.646300 0.471800
14.694100 0.417800
14.742000 0.450600
14.789800 0.529800
14.837600 1.116200
14.885400 0.783000
14.933300 0.829400
14.981100 0.894900
15.028900 1.043900
15.076800 1.080900
15.124600 1.113700
15.172400 1.246600
15.220200 1.238800
15.268100 1.216100
15.315900 1.186400
15.363700 1.093300
15.411600 1.094500
15.459400 1.106900
15.507200 1.124800
15.555100 1.144700
15.602900 1.169200
15.650700 1.195100
15.698500 1.230400
15.746400 1.677900
15.794200 1.630500
15.842000 1.744800
15.889900 1.853000
15.937700 1.963800
15.985500 2.117400
16.033300 1.879200
16.081200 1.927200
16.129000 1.918200
16.176800 1.518800
16.224700 1.407000
16.272500 1.379800
16.320300 1.337300
16.368200 1.333000
16.416000 1.337200
16.463800 1.335300
16.511600 1.704000
16.559500 1.789500
16.607300 1.536600
16.655100 1.525900
16.703000 1.493200
16.750800 1.504500
16.798600 1.454400
16.846400 1.454100
16.894300 1.447500
16.942100 1.421200
16.989900 1.367300
17.037800 1.335600
17.085600 1.317100
17.133400 1.289000
17.181200 1.265000
17.229100 1.243500
17.276900 1.215200
17.324700 1.171600
17.372600 1.079400
17.420400 1.012500
17.468200 1.042400
17.516100 1.086900
17.563900 1.133300
17.611700 1.135900
17.659500 1.116900
17.707400 1.120000
17.755200 1.112600
17.803000 1.116200
17.850900 1.120400
17.898700 1.173500
17.946500 1.213900
17.994300 1.204400
18.042200 1.199000
18.090000 1.198100
18.137800 1.188300
18.185700 1.169500
18.233500 1.147700
18.281300 1.132400
18.329100 1.119400
18.377000 1.101600
18.424800 1.061600
18.472600 1.010000
18.520500 0.931200
18.568300 0.846900
18.616100 0.775000
18.664000 0.717600
18.711800 0.676200
18.759600 0.663800
18.807400 0.666000
18.855300 0.672000
18.903100 0.677300
18.950900 0.681900
18.998800 0.698700
19.046600 0.701500
19.094400 0.686900
19.142200 0.674600
19.190100 0.654400
19.237900 0.658500
19.285700 0.663500
19.333600 0.669300
19.381400 0.676400
19.429200 0.688100
19.477100 0.708100
19.524900 0.723200
19.572700 0.737900
19.620500 0.754300
19.668400 0.773300
19.716200 0.923900
19.764000 1.537000
19.811900 1.447400
19.859700 1.166400
19.907500 1.193600
19.955300 1.239200
20.003200 1.300000
20.051000 1.426700
20.098800 1.456300
20.146700 1.499300
20.194500 1.529500
20.242300 1.518000
20.290100 1.502900
20.338000 1.437400
20.385800 1.417700
20.433600 1.397900
20.481500 1.381600
20.529300 1.323400
20.577100 1.341500
20.625000 1.350000
20.672800 1.413000
20.720600 1.526700
20.768400 1.693800
20.816300 1.819000
20.864100 2.030400
20.911900 2.520300
20.959800 2.504300
21.007600 2.364300
21.055400 2.584000
21.103200 3.186000
21.151100 4.034800
21.198900 4.108500
21.246700 3.983100
21.294600 3.300000
21.342400 2.512200
21.390200 2.272400
21.438000 2.043100
21.485900 1.928400
21.533700 1.814800
21.581500 1.637700
21.629400 1.501800
21.677200 1.393000
21.725000 1.253400
21.772900 1.168100
21.820700 1.149400
21.868500 1.112900
21.916300 1.097800
21.964200 1.090800
22.012000 1.075400
22.059800 1.048300
22.107700 1.008600
22.155500 0.941000
22.203300 0.948400
22.251100 1.022900
22.299000 1.194600
22.346800 1.424300
22.394600 1.640800
22.442500 1.843900
22.490300 1.998300
22.538100 2.193500
22.586000 2.268400
22.633800 2.222100
22.681600 2.241900
22.729400 2.297800
22.777300 2.438000
22.825100 2.318700
22.872900 2.202800
22.920800 2.032200
22.968600 1.926500
23.016400 1.863100
23.064200 1.777500
23.112100 1.690900
23.159900 1.541700
23.207700 1.360900
23.255600 1.004700
23.303400 0.956000
23.351200 0.909100
23.399000 1.283300
23.446900 1.287900
23.494700 1.347000
23.542500 1.390700
23.590400 1.433300
23.638200 1.613700
23.686000 1.747800
23.733900 1.784900
23.781700 1.742700
23.829500 1.663200
23.877300 1.548900
23.925200 1.421300
23.973000 1.294300
24.020800 1.223400
24.068700 1.214100
24.116500 1.263200
24.164300 1.326300
24.212100 1.406800
24.260000 1.535800
24.307800 1.716400
24.355600 2.347900
24.403500 2.001500
24.451300 2.075900
24.499100 2.120600
24.546900 2.127000
24.594800 2.116100
24.642600 2.105800
24.690400 2.098000
24.738300 2.096500
24.786100 1.984900
24.833900 1.951700
24.881800 1.933800
24.929600 1.875700
24.977400 1.735300
25.025200 1.573200
25.073100 1.508900
25.120900 1.405200
25.168700 1.278400
25.216600 1.173400
25.264400 1.075500
25.312200 1.065000
25.360000 1.054200
25.407900 1.057200
25.455700 1.079600
25.503500 1.137800
25.551400 1.198000
25.599200 1.277800
25.647000 1.547100
25.694900 1.528900
25.742700 1.503900
25.790500 1.473600
25.838300 1.466200
25.886200 1.461900
25.934000 1.460300
25.981800 1.457700
26.029700 1.510000
26.077500 1.581700
26.125300 1.646400
26.173100 1.657900
26.221000 1.678200
26.268800 1.764900
26.316600 1.855900
26.364500 1.899100
26.412300 1.859600
26.460100 1.888500
26.507900 2.009600
26.555800 1.849300
26.603600 1.576900
26.651400 1.458700
26.699300 1.343800
26.747100 1.313500
26.794900 1.360300
26.842800 1.341900
26.890600 1.265300
26.938400 1.259600
26.986200 1.254600
27.034100 1.256900
27.081900 1.303500
27.129700 1.312400
27.177600 1.333200
27.225400 1.365200
27.273200 1.436300
27.321000 1.261800
27.368900 1.273600
27.416700 1.227700
27.464500 1.201300
27.512400 1.220600
27.560200 1.272700
27.608000 1.305700
27.655800 1.333300
27.703700 1.355900
27.751500 1.405400
27.799300 1.385500
27.847200 1.324400
27.895000 1.224900
27.942800 1.092300
27.990700 1.016900
28.038500 0.977800
28.086300 0.940900
28.134100 0.903200
28.182000 0.870000
28.229800 0.844700
28.277600 0.843700
28.325500 0.851900
28.373300 0.948100
28.421100 0.985100
28.468900 1.032600
28.516800 1.004100
28.564600 0.957200
28.612400 0.940900
28.660300 0.942300
28.708100 0.959900
28.755900 1.003200
28.803800 1.125000
28.851600 1.259200
28.899400 1.474300
28.947200 1.911900
28.995100 2.008900
29.042900 2.193600
29.090700 2.245300
29.138600 2.278000
29.186400 2.267900
29.234200 2.190300
29.282000 1.985900
29.329900 1.819300
29.377700 1.567800
29.425500 1.255000
29.473400 1.155800
29.521200 1.093200
29.569000 1.035700
29.616800 0.981600
29.664700 0.964500
29.712500 0.959500
29.760300 0.876800
29.808200 0.896900
29.856000 0.983800
29.903800 1.052900
29.951700 1.211100
29.999500 1.396900
30.047300 1.555300
30.095100 1.456200
30.143000 1.709600
30.190800 1.762100
30.238600 1.807900
30.286500 1.882300
30.334300 1.871700
30.382100 1.641400
30.429900 1.561700
30.477800 1.698600
30.525600 1.816000
30.573400 1.988700
30.621300 2.211000
30.669100 2.291700
30.716900 2.245000
30.764700 2.194200
30.812600 2.109900
30.860400 2.006100
30.908200 1.941600
30.956100 1.818900
31.003900 1.931300
31.051700 2.046400
31.099600 2.009300
31.147400 2.006100
31.195200 1.990400
31.243000 1.967000
31.290900 1.927200
31.338700 1.920100
31.386500 1.921800
31.434400 1.916400
31.482200 1.934100
31.530000 1.931400
31.577800 1.901600
31.625700 1.902700
31.673500 2.081000
31.721300 2.074200
31.769200 2.209900
31.817000 1.972400
31.864800 1.784500
31.912700 1.814000
31.960500 1.903200
32.008300 2.165500
32.056100 2.328100
32.104000 2.523400
32.151800 2.611600
32.199600 2.993300
32.247500 2.893900
32.295300 2.765500
32.343100 2.563400
32.390900 2.286000
32.438800 2.485700
32.486600 2.682900
32.534400 2.734700
32.582300 2.668300
32.630100 2.566400
32.677900 2.321000
32.725700 2.175600
32.773600 2.097300
32.821400 2.042100
32.869200 2.141600
32.917100 2.218200
32.964900 2.422700
33.012700 2.505600
33.060600 2.433300
33.108400 2.184100
33.156200 2.003600
33.204000 2.009300
33.251900 2.108200
33.299700 2.195000
33.347500 2.211500
33.395400 2.148600
33.443200 2.079500
33.491000 1.973100
33.538800 1.875300
33.586700 2.104200
33.634500 1.957700
33.682300 1.878400
33.730200 2.113800
33.778000 2.142800
33.825800 1.986400
33.873600 1.820400
33.921500 1.731000
33.969300 1.689500
34.017100 1.709400
34.065000 1.768700
34.112800 1.722900
34.160600 1.603800
34.208500 1.553300
34.256300 1.555300
34.304100 1.972200
34.351900 1.988700
34.399800 1.787800
34.447600 1.816000
34.495400 1.850900
34.543300 1.879900
34.591100 1.908300
34.638900 1.856200
34.686700 1.783700
34.734600 1.721100
34.782400 1.665500
34.830200 1.557700
34.878100 1.521000
34.925900 1.482600
34.973700 1.950500
35.021600 1.396700
35.069400 1.370500
35.117200 1.369300
35.165000 1.347700
35.212900 1.349200
35.260700 1.347200
35.308500 1.357900
35.356400 1.533700
35.404200 1.251600
35.452000 1.234400
35.499800 1.254000
35.547700 1.266700
35.595500 1.289000
35.643300 1.320700
35.691200 1.384800
35.739000 1.467500
35.786800 1.549800
35.834600 1.630100
35.882500 1.690700
35.930300 1.740300
35.978100 1.796500
36.026000 1.852200
36.073800 1.825700
36.121600 1.779100
36.169500 1.927400
36.217300 1.989500
36.265100 1.794500
36.312900 1.772000
36.360800 1.767400
36.408600 1.854700
36.456400 1.953600
36.504300 2.035400
36.552100 2.178000
36.599900 2.380900
36.647700 2.535400
36.695600 2.429300
36.743400 2.263800
36.791200 2.025700
36.839100 1.761600
36.886900 1.673200
36.934700 2.009000
36.982500 2.292000
37.030400 2.481000
37.078200 2.783000
37.126000 2.417100
37.173900 2.420900
37.221700 2.427200
37.269500 2.397200
37.317400 2.354600
37.365200 2.331400
37.413000 2.241900
37.460800 2.157700
37.508700 1.982300
37.556500 1.949400
37.604300 1.964200
37.652200 2.114300
37.700000 2.320400
37.747800 2.402500
37.795600 2.487100
37.843500 2.324500
37.891300 2.285600
37.939100 2.257400
37.987000 2.240200
38.034800 2.233400
38.082600 2.196800
38.130500 2.150300
38.178300 2.090700
38.226100 2.001200
38.273900 1.922300
38.321800 1.806300
38.369600 1.809600
38.417400 1.838300
38.465300 1.871100
38.513100 1.942500
38.560900 1.951700
38.608700 1.967900
38.656600 2.098300
38.704400 2.305200
38.752200 2.103100
38.800100 1.902400
38.847900 1.792100
38.895700 1.772400
38.943500 1.752700
38.991400 1.697500
39.039200 1.675000
39.087000 1.674900
39.134900 1.689800
39.182700 1.737300
39.230500 1.949400
39.278400 4.965000
39.326200 1.753700
39.374000 1.771100
39.421800 1.817300
39.469700 1.866600
39.517500 1.948900
39.565300 2.032900
39.613200 2.116900
39.661000 2.175900
39.708800 2.237800
39.756600 2.223200
39.804500 2.195300
39.852300 2.246000
39.900100 2.385800
39.948000 2.427400
39.995800 2.477400
40.043600 2.522000
40.091400 2.586300
40.139300 2.666600
40.187100 2.474200
40.234900 2.347600
40.282800 2.429200
40.330600 2.378200
40.378400 2.400900
40.426300 2.225800
40.474100 2.216500
40.521900 2.213700
40.569700 2.216600
40.617600 2.238900
40.665400 2.427500
40.713200 2.406600
40.761100 2.362100
40.808900 2.232600
40.856700 2.094800
40.904500 1.946000
40.952400 1.870100
41.000200 1.862300
41.048000 2.207900
41.095900 2.668500
41.143700 3.101300
41.191500 3.299800
41.239400 2.725300
41.287200 2.461200
41.335000 2.286800
41.382800 2.281500
41.430700 2.194900
41.478500 2.054800
41.526300 1.765400
41.574200 1.627600
41.622000 1.521300
41.669800 1.455100
41.717600 1.442200
41.765500 1.507000
41.813300 1.653200
41.861100 1.902800
41.909000 2.218000
41.956800 2.654000
42.004600 2.909700
42.052400 2.929300
42.100300 2.814800
42.148100 2.641900
42.195900 2.441800
42.243800 2.222300
42.291600 2.102100
42.339400 1.922100
42.387300 1.884700
42.435100 1.650400
42.482900 1.436200
42.530700 1.343000
42.578600 1.269500
42.626400 1.236500
42.674200 1.210200
42.722100 1.208100
42.769900 1.235300
42.817700 1.274400
42.865500 1.324400
42.913400 1.603200
42.961200 1.614000
43.009000 1.647200
43.056900 1.546600
43.104700 1.605300
43.152500 1.630400
43.200300 1.694200
43.248200 1.740300
43.296000 1.792400
43.343800 1.850400
43.391700 1.922000
43.439500 1.998900
43.487300 2.081400
43.535200 2.134700
43.583000 2.339400
43.630800 2.483500
43.678600 2.542300
43.726500 2.702000
43.774300 2.662800
43.822100 2.406500
43.870000 2.288600
43.917800 2.222900
43.965600 2.197500
44.013400 2.136200
44.061300 2.123000
44.109100 2.047900
44.156900 2.069400
44.204800 2.069100
44.252600 2.033500
44.300400 1.984500
44.348300 1.970700
44.396100 2.042100
44.443900 2.134600
44.491700 1.952300
44.539600 1.897300
44.587400 1.834300
44.635200 1.788800
44.683100 1.750800
44.730900 1.716000
44.778700 1.671300
44.826500 1.646800
44.874400 1.622000
44.922200 1.620500
44.970000 1.623400
45.017900 1.632400
45.065700 1.705700
45.113500 1.815100
45.161300 1.785800
45.209200 1.635500
45.257000 1.607300
45.304800 1.565600
45.352700 1.532700
45.400500 1.510000
45.448300 1.506100
45.496200 1.507800
45.544000 1.517400
45.591800 1.554200
45.639600 1.546000
45.687500 1.489800
45.735300 1.509700
45.783100 1.518800
45.831000 1.520800
45.878800 1.718800
45.926600 2.014300
45.974400 2.127700
46.022300 2.092200
46.070100 2.067600
46.117900 2.319700
46.165800 1.909300
46.213600 2.082600
46.261400 2.166300
46.309200 2.355000
46.357100 2.394500
46.404900 2.405800
46.452700 2.427100
46.500600 2.392300
46.548400 2.549200
46.596200 2.541300
46.644100 2.064900
46.691900 1.998500
46.739700 2.002000
46.787500 1.995800
46.835400 1.884000
46.883200 1.797800
46.931000 1.765200
46.978900 1.635400
47.026700 1.535800
47.074500 1.500100
47.122300 1.477900
47.170200 1.467700
47.218000 1.111700
47.265800 1.118300
47.313700 1.129500
47.361500 1.145400
47.409300 1.177800
47.457200 1.195600
47.505000 1.218100
47.552800 1.236000
47.600600 1.284400
47.648500 1.337700
47.696300 1.416700
47.744100 1.468200
47.792000 1.576600
47.839800 1.712500
47.887600 1.843600
47.935400 1.965800
47.983300 2.274700
48.031100 2.365800
48.078900 2.255500
48.126800 2.072200
48.174600 1.725600
48.222400 1.514700
48.270200 1.312200
48.318100 1.116400
48.365900 0.960700
48.413700 0.837300
48.461600 0.729700
48.509400 0.630100
48.557200 0.550500
48.605100 0.436200
48.652900 0.286300
48.700700 0.149600
48.748500 0.080600
48.796400 0.049100
48.844200 0.074800
48.892000 0.066200
48.939900 0.058300
48.987700 0.051200
49.035500 0.044800
49.083300 0.000000
49.131200 0.000000
49.179000 0.000000
49.226800 0.000000
49.274700 0.000000
49.322500 0.000000
49.370300 0.000000
49.418100 0.000000
49.466000 0.000000
49.513800 0.000000
49.561600 0.000000
49.609500 0.000000
49.657300 0.000000
49.705100 0.000000
49.753000 0.000000
49.800800 0.000000
49.848600 0.000000
49.896400 0.000000
49.944300 0.000000
49.992100 0.000000
50.039900 0.000000
50.087800 0.000000
50.135600 0.000000
50.183400 0.000000
50.231200 0.000000
50.279100 0.000000
50.326900 0.000000
50.374700 0.000000
50.422600 0.000000
50.470400 0.000000
50.518200 0.000000
50.566100 0.000000
50.613900 0.000000
50.661700 0.000000
50.709500 0.000000
50.757400 0.000000
50.805200 0.000000
50.853000 0.000000
50.900900 0.000000
50.948700 0.000000
50.996500 0.000000
51.044300 0.000000
51.092200 0.000000
51.140000 0.000000
51.187800 0.000000
51.235700 0.000000
51.283500 0.000000
51.331300 0.000000
51.379100 0.000000
51.427000 0.000000
51.474800 0.000000
51.522600 0.000000
51.570500 0.000000
51.618300 0.000000
51.666100 0.000000
51.714000 0.000000
51.761800 0.000000
51.809600 0.000000
51.857400 0.000000
51.905300 0.000000
51.953100 0.000000
52.000900 0.000000
52.048800 0.000000
52.096600 0.000000
52.144400 0.000000
52.192200 0.000000
52.240100 0.000000
52.287900 0.000000
52.335700 0.000000
52.383600 0.000000
52.431400 0.000000
52.479200 0.000000
52.527000 0.000000
52.574900 0.000000
52.622700 0.000000
52.670500 0.000000
52.718400 0.000000
52.766200 0.000000
52.814000 0.000000
52.861900 0.000000
52.909700 0.000000
52.957500 0.000000
53.005300 0.000000
53.053200 0.000000
53.101000 0.000000
53.148800 0.000000
53.196700 0.000000
53.244500 0.000000
53.292300 0.000000
53.340100 0.000000
53.388000 0.000000
e
