set title 'mp-21405 - Density of States'
set xlabel 'Energy (eV)'
set ylabel 'DOS (states/eV)'
set grid
set xrange [-10:10]
set yrange [0:10.168]
set xzeroaxis lt -1
set terminal png size 800,600
set output 'mp-21405_dos_gnuplot.png'
plot '-' using 1:2 with lines title 'DOS'
-12.714200 0.000000
-12.694600 0.000000
-12.675000 0.000000
-12.655400 0.000000
-12.635800 0.000000
-12.616200 0.000000
-12.596700 0.000000
-12.577100 0.000000
-12.557500 0.000000
-12.537900 0.000000
-12.518300 0.000000
-12.498700 0.000000
-12.479100 0.000000
-12.459500 0.000000
-12.439900 0.000000
-12.420400 0.000000
-12.400800 0.000000
-12.381200 0.000000
-12.361600 0.000000
-12.342000 0.000000
-12.322400 0.000000
-12.302800 0.000000
-12.283200 0.000000
-12.263700 0.000000
-12.244100 0.000000
-12.224500 0.000000
-12.204900 0.000000
-12.185300 0.000000
-12.165700 0.000000
-12.146100 0.000000
-12.126500 0.000000
-12.106900 0.000000
-12.087400 0.000000
-12.067800 0.000000
-12.048200 0.000000
-12.028600 0.000000
-12.009000 0.000000
-11.989400 0.000000
-11.969800 0.000000
-11.950200 0.000000
-11.930700 0.000000
-11.911100 0.000000
-11.891500 0.000000
-11.871900 0.000000
-11.852300 0.000000
-11.832700 0.000000
-11.813100 0.000000
-11.793500 0.000000
-11.773900 0.000000
-11.754400 0.000000
-11.734800 0.000000
-11.715200 0.000000
-11.695600 0.000000
-11.676000 0.000000
-11.656400 0.000000
-11.636800 0.000000
-11.617200 0.000000
-11.597700 0.000000
-11.578100 0.000000
-11.558500 0.000000
-11.538900 0.000000
-11.519300 0.000000
-11.499700 0.000000
-11.480100 0.000000
-11.460500 0.000000
-11.440900 0.000000
-11.421400 0.000000
-11.401800 0.000000
-11.382200 0.000000
-11.362600 0.000000
-11.343000 0.000000
-11.323400 0.000000
-11.303800 0.000000
-11.284200 0.000000
-11.264700 0.000000
-11.245100 0.000000
-11.225500 0.000000
-11.205900 0.000000
-11.186300 0.000000
-11.166700 0.000000
-11.147100 0.000000
-11.127500 0.000000
-11.107900 0.000000
-11.088400 0.000000
-11.068800 0.000000
-11.049200 0.000000
-11.029600 0.000000
-11.010000 0.000000
-10.990400 0.000000
-10.970800 0.000000
-10.951200 0.000000
-10.931700 11.772900
-10.912100 55.706200
-10.892500 0.030000
-10.872900 3.124600
-10.853300 24.122100
-10.833700 36.454400
-10.814100 94.947200
-10.794500 11.012600
-10.774900 10.945100
-10.755400 10.820500
-10.735800 13.845400
-10.716200 14.135600
-10.696600 6.677200
-10.677000 59.231000
-10.657400 29.082700
-10.637800 45.991300
-10.618200 76.843800
-10.598700 112.415200
-10.579100 118.901500
-10.559500 1.639500
-10.539900 0.000000
-10.520300 152.087700
-10.500700 0.000000
-10.481100 41.134900
-10.461500 47.798800
-10.441900 10.676100
-10.422400 0.000000
-10.402800 0.000000
-10.383200 0.000000
-10.363600 0.000000
-10.344000 58.839600
-10.324400 45.610200
-10.304800 0.000000
-10.285200 0.000000
-10.265700 0.000000
-10.246100 0.000000
-10.226500 0.000000
-10.206900 0.000000
-10.187300 0.000000
-10.167700 0.000000
-10.148100 0.000000
-10.128500 0.000000
-10.108900 0.000000
-10.089400 0.000000
-10.069800 0.000000
-10.050200 0.000000
-10.030600 0.000000
-10.011000 0.000000
-9.991400 0.000000
-9.971800 0.000000
-9.952200 0.000000
-9.932700 0.000000
-9.913100 0.000000
-9.893500 0.000000
-9.873900 0.000000
-9.854300 0.000000
-9.834700 0.000000
-9.815100 0.000000
-9.795500 0.000000
-9.776000 0.000000
-9.756400 0.000000
-9.736800 0.000000
-9.717200 0.000000
-9.697600 0.000000
-9.678000 0.000000
-9.658400 0.000000
-9.638800 0.000000
-9.619200 0.000000
-9.599700 0.000000
-9.580100 0.000000
-9.560500 0.000000
-9.540900 0.000000
-9.521300 0.000000
-9.501700 0.000000
-9.482100 0.000000
-9.462500 0.000000
-9.443000 0.000000
-9.423400 0.000000
-9.403800 0.000000
-9.384200 0.002400
-9.364600 0.036900
-9.345000 0.112500
-9.325400 0.229200
-9.305800 0.360900
-9.286200 0.463000
-9.266700 0.571600
-9.247100 0.686700
-9.227500 0.808400
-9.207900 0.936700
-9.188300 1.072000
-9.168700 1.248500
-9.149100 1.455400
-9.129500 1.655000
-9.110000 1.840900
-9.090400 1.981500
-9.070800 2.127100
-9.051200 2.284100
-9.031600 2.393100
-9.012000 2.500900
-8.992400 2.593200
-8.972800 2.661000
-8.953200 2.678800
-8.933700 2.661200
-8.914100 2.607900
-8.894500 2.517600
-8.874900 2.360100
-8.855300 2.269300
-8.835700 2.169500
-8.816100 2.054700
-8.796500 1.954400
-8.777000 1.869900
-8.757400 1.787900
-8.737800 1.710100
-8.718200 1.651700
-8.698600 1.621500
-8.679000 1.621500
-8.659400 1.621600
-8.639800 1.621700
-8.620200 1.621900
-8.600700 1.622000
-8.581100 1.622200
-8.561500 1.653800
-8.541900 1.773300
-8.522300 2.058100
-8.502700 2.578400
-8.483100 2.910600
-8.463500 3.054900
-8.444000 3.013400
-8.424400 3.075100
-8.404800 2.973800
-8.385200 3.060000
-8.365600 3.113800
-8.346000 3.017700
-8.326400 2.887600
-8.306800 1.893000
-8.287200 1.734200
-8.267700 1.767600
-8.248100 1.959300
-8.228500 2.330100
-8.208900 2.887600
-8.189300 3.662500
-8.169700 4.745500
-8.150100 6.547600
-8.130500 6.831300
-8.111000 6.632900
-8.091400 7.733400
-8.071800 8.347000
-8.052200 9.243300
-8.032600 8.696600
-8.013000 7.495900
-7.993400 5.578700
-7.973800 4.438900
-7.954200 3.775900
-7.934700 2.866900
-7.915100 1.799300
-7.895500 0.401300
-7.875900 0.000000
-7.856300 0.000000
-7.836700 0.000000
-7.817100 0.000000
-7.797500 0.000000
-7.778000 0.000000
-7.758400 0.000000
-7.738800 0.000000
-7.719200 0.000000
-7.699600 0.000000
-7.680000 0.000000
-7.660400 0.000000
-7.640800 0.000000
-7.621200 0.000000
-7.601700 0.000000
-7.582100 0.000000
-7.562500 0.000000
-7.542900 0.000000
-7.523300 0.000000
-7.503700 0.000000
-7.484100 0.000000
-7.464500 0.000000
-7.445000 0.000000
-7.425400 0.000000
-7.405800 0.000000
-7.386200 0.000000
-7.366600 0.000000
-7.347000 0.000000
-7.327400 0.000000
-7.307800 0.000000
-7.288200 0.000000
-7.268700 0.000000
-7.249100 0.000000
-7.229500 0.000000
-7.209900 0.000000
-7.190300 0.000000
-7.170700 0.000000
-7.151100 0.000000
-7.131500 0.000000
-7.112000 0.000000
-7.092400 0.000000
-7.072800 0.000000
-7.053200 0.000000
-7.033600 0.000000
-7.014000 0.000000
-6.994400 0.000000
-6.974800 0.000000
-6.955200 0.000000
-6.935700 0.000000
-6.916100 0.000000
-6.896500 0.000000
-6.876900 0.000000
-6.857300 0.000000
-6.837700 0.000000
-6.818100 0.000000
-6.798500 0.000000
-6.779000 0.000000
-6.759400 0.000000
-6.739800 0.000000
-6.720200 0.000000
-6.700600 0.000000
-6.681000 0.000000
-6.661400 0.000000
-6.641800 0.000000
-6.622200 0.000000
-6.602700 0.000000
-6.583100 0.000000
-6.563500 0.000000
-6.543900 0.000000
-6.524300 0.000000
-6.504700 0.000000
-6.485100 0.000000
-6.465500 0.000000
-6.446000 0.000000
-6.426400 0.000000
-6.406800 0.000000
-6.387200 0.000000
-6.367600 0.000000
-6.348000 0.000000
-6.328400 0.000000
-6.308800 0.000000
-6.289200 0.000000
-6.269700 0.000000
-6.250100 0.000000
-6.230500 0.000000
-6.210900 0.000000
-6.191300 0.000000
-6.171700 0.000000
-6.152100 0.000000
-6.132500 0.000000
-6.113000 0.000000
-6.093400 0.000000
-6.073800 0.000000
-6.054200 0.000000
-6.034600 0.000000
-6.015000 0.000000
-5.995400 0.000000
-5.975800 0.000000
-5.956200 0.000000
-5.936700 0.000000
-5.917100 0.000000
-5.897500 0.000000
-5.877900 0.000000
-5.858300 0.000000
-5.838700 0.000000
-5.819100 0.000000
-5.799500 0.000000
-5.780000 0.000000
-5.760400 0.000000
-5.740800 0.000000
-5.721200 0.000000
-5.701600 0.000000
-5.682000 0.000000
-5.662400 0.000000
-5.642800 0.000000
-5.623200 0.000000
-5.603700 0.000000
-5.584100 0.000000
-5.564500 0.000000
-5.544900 0.000000
-5.525300 0.000000
-5.505700 0.000000
-5.486100 0.000000
-5.466500 0.000000
-5.447000 0.000000
-5.427400 0.000000
-5.407800 0.000000
-5.388200 0.000000
-5.368600 0.000000
-5.349000 0.000000
-5.329400 0.000000
-5.309800 0.000000
-5.290200 0.000000
-5.270700 0.000000
-5.251100 0.000000
-5.231500 0.000000
-5.211900 0.000000
-5.192300 0.000000
-5.172700 0.000000
-5.153100 0.000000
-5.133500 0.000000
-5.114000 0.000000
-5.094400 0.000000
-5.074800 0.000000
-5.055200 0.000000
-5.035600 0.000000
-5.016000 0.000000
-4.996400 0.000000
-4.976800 0.000000
-4.957300 0.000000
-4.937700 0.000000
-4.918100 0.000000
-4.898500 0.000000
-4.878900 0.000000
-4.859300 0.000000
-4.839700 0.000000
-4.820100 0.000000
-4.800500 0.000000
-4.781000 0.000000
-4.761400 0.000000
-4.741800 0.000000
-4.722200 0.000000
-4.702600 0.000000
-4.683000 0.000000
-4.663400 0.000000
-4.643800 0.000000
-4.624300 0.000000
-4.604700 0.000000
-4.585100 0.000000
-4.565500 0.000000
-4.545900 0.000000
-4.526300 0.000000
-4.506700 0.000000
-4.487100 0.000000
-4.467500 0.000000
-4.448000 0.000000
-4.428400 0.000000
-4.408800 0.000000
-4.389200 0.000000
-4.369600 0.000000
-4.350000 0.000000
-4.330400 0.000000
-4.310800 0.000000
-4.291300 0.000000
-4.271700 0.000000
-4.252100 0.000000
-4.232500 0.000000
-4.212900 0.000000
-4.193300 0.000000
-4.173700 0.000000
-4.154100 0.000000
-4.134500 0.000000
-4.115000 0.000000
-4.095400 0.000000
-4.075800 0.000000
-4.056200 0.000000
-4.036600 0.000000
-4.017000 0.000000
-3.997400 0.000000
-3.977800 0.000000
-3.958300 0.000000
-3.938700 0.000000
-3.919100 0.000000
-3.899500 0.000000
-3.879900 0.000000
-3.860300 0.000000
-3.840700 0.000000
-3.821100 0.000000
-3.801500 0.000000
-3.782000 0.000000
-3.762400 0.000000
-3.742800 0.000000
-3.723200 0.000000
-3.703600 0.000000
-3.684000 0.000000
-3.664400 0.000000
-3.644800 0.000000
-3.625300 0.000000
-3.605700 0.000000
-3.586100 0.000000
-3.566500 0.000000
-3.546900 0.000000
-3.527300 0.000000
-3.507700 0.000000
-3.488100 0.000000
-3.468500 0.000000
-3.449000 0.000000
-3.429400 0.000000
-3.409800 0.000000
-3.390200 0.000000
-3.370600 0.000000
-3.351000 0.000000
-3.331400 0.000000
-3.311800 0.000000
-3.292300 0.000000
-3.272700 0.000000
-3.253100 0.000000
-3.233500 0.000000
-3.213900 0.000000
-3.194300 0.000000
-3.174700 0.000000
-3.155100 0.000000
-3.135500 0.000000
-3.116000 0.000000
-3.096400 0.000000
-3.076800 0.000000
-3.057200 0.000000
-3.037600 0.000000
-3.018000 0.000000
-2.998400 0.000000
-2.978800 0.000000
-2.959300 0.000000
-2.939700 0.000000
-2.920100 0.000000
-2.900500 0.000000
-2.880900 0.000000
-2.861300 0.000000
-2.841700 0.000000
-2.822100 0.000000
-2.802500 0.000000
-2.783000 0.000000
-2.763400 0.000000
-2.743800 0.000000
-2.724200 0.000000
-2.704600 0.000000
-2.685000 0.000000
-2.665400 0.000000
-2.645800 0.000000
-2.626300 0.000000
-2.606700 0.000000
-2.587100 0.000000
-2.567500 0.000000
-2.547900 0.000000
-2.528300 0.000000
-2.508700 0.000000
-2.489100 0.000000
-2.469500 0.000000
-2.450000 0.000000
-2.430400 0.000000
-2.410800 0.000000
-2.391200 0.103000
-2.371600 0.255200
-2.352000 0.434200
-2.332400 0.640200
-2.312800 0.875400
-2.293300 1.147800
-2.273700 1.459500
-2.254100 1.783200
-2.234500 2.138800
-2.214900 2.852800
-2.195300 3.450800
-2.175700 3.853200
-2.156100 4.023700
-2.136500 3.661700
-2.117000 3.507800
-2.097400 3.456200
-2.077800 3.443700
-2.058200 3.484900
-2.038600 3.586600
-2.019000 3.723800
-1.999400 3.866700
-1.979800 3.923300
-1.960300 3.975500
-1.940700 3.962100
-1.921100 3.883400
-1.901500 4.051700
-1.881900 3.785100
-1.862300 3.693900
-1.842700 2.176400
-1.823100 1.704500
-1.803500 1.573700
-1.784000 1.451300
-1.764400 1.336000
-1.744800 1.227800
-1.725200 1.126600
-1.705600 1.031500
-1.686000 0.941400
-1.666400 0.867200
-1.646800 0.809600
-1.627300 0.768300
-1.607700 0.733400
-1.588100 0.699900
-1.568500 0.667800
-1.548900 0.637000
-1.529300 0.607500
-1.509700 0.579300
-1.490100 0.551000
-1.470500 0.531000
-1.451000 0.528400
-1.431400 0.625300
-1.411800 1.157100
-1.392200 1.895400
-1.372600 1.952100
-1.353000 1.993800
-1.333400 1.878600
-1.313800 1.855600
-1.294300 1.888100
-1.274700 1.926700
-1.255100 2.515900
-1.235500 2.682000
-1.215900 2.663700
-1.196300 2.743700
-1.176700 2.693400
-1.157100 2.448200
-1.137500 2.230000
-1.118000 2.036000
-1.098400 1.871700
-1.078800 1.791000
-1.059200 1.807700
-1.039600 2.004800
-1.020000 2.082300
-1.000400 1.998000
-0.980800 2.001900
-0.961300 2.018600
-0.941700 2.037900
-0.922100 2.017200
-0.902500 1.964600
-0.882900 1.919000
-0.863300 1.883600
-0.843700 1.896900
-0.824100 1.994100
-0.804500 2.183400
-0.785000 2.440000
-0.765400 2.572300
-0.745800 2.731600
-0.726200 2.821600
-0.706600 2.810700
-0.687000 2.739000
-0.667400 2.617800
-0.647800 2.359500
-0.628300 2.136500
-0.608700 2.057000
-0.589100 1.980000
-0.569500 1.809000
-0.549900 1.616900
-0.530300 1.411300
-0.510700 1.217900
-0.491100 1.136400
-0.471500 0.924100
-0.452000 0.731300
-0.432400 0.556100
-0.412800 0.393700
-0.393200 0.266200
-0.373600 0.178700
-0.354000 0.118200
-0.334400 0.084700
-0.314800 0.072400
-0.295300 0.062400
-0.275700 0.053100
-0.256100 0.044500
-0.236500 0.036700
-0.216900 0.029700
-0.197300 0.023400
-0.177700 0.017900
-0.158100 0.013100
-0.138600 0.009000
-0.119000 0.022600
-0.099400 0.047400
-0.079800 0.078200
-0.060200 0.115000
-0.040600 0.157800
-0.021000 0.206300
-0.001400 0.261200
0.018200 0.323000
0.037700 0.386200
0.057300 0.439400
0.076900 0.497500
0.096500 0.560700
0.116100 0.629100
0.135700 0.702700
0.155300 0.781500
0.174900 0.865500
0.194400 0.954700
0.214000 1.049000
0.233600 1.148500
0.253200 1.253200
0.272800 1.347400
0.292400 1.415900
0.312000 1.494200
0.331600 1.670500
0.351200 1.881400
0.370700 2.049400
0.390300 2.189100
0.409900 2.339000
0.429500 2.533700
0.449100 2.765900
0.468700 2.974800
0.488300 3.103400
0.507900 3.123300
0.527400 3.048800
0.547000 2.989700
0.566600 3.158100
0.586200 3.082400
0.605800 3.209400
0.625400 3.232700
0.645000 3.235600
0.664600 3.207200
0.684200 3.176800
0.703700 3.159000
0.723300 3.164900
0.742900 3.180100
0.762500 3.203900
0.782100 3.212900
0.801700 3.170000
0.821300 3.100100
0.840900 3.048900
0.860400 3.017300
0.880000 2.972700
0.899600 2.883200
0.919200 2.808600
0.938800 2.710300
0.958400 2.583200
0.978000 2.432700
0.997600 2.278100
1.017200 2.150400
1.036700 2.172000
1.056300 2.215100
1.075900 2.256900
1.095500 2.297300
1.115100 2.337800
1.134700 2.378500
1.154300 2.359000
1.173900 2.303400
1.193400 2.357200
1.213000 2.496100
1.232600 2.718700
1.252200 3.097000
1.271800 3.824000
1.291400 4.198900
1.311000 4.137500
1.330600 3.718100
1.350200 3.323100
1.369700 3.162100
1.389300 3.047800
1.408900 2.979400
1.428500 2.952200
1.448100 2.921900
1.467700 2.909400
1.487300 2.923600
1.506900 2.967300
1.526400 3.040400
1.546000 3.153400
1.565600 3.408600
1.585200 3.778200
1.604800 4.100200
1.624400 4.369000
1.644000 4.593700
1.663600 4.760300
1.683200 4.867600
1.702700 5.087100
1.722300 5.086100
1.741900 4.730600
1.761500 4.354000
1.781100 4.000400
1.800700 3.698100
1.820300 3.561300
1.839900 3.484600
1.859400 3.385700
1.879000 3.363500
1.898600 3.449400
1.918200 3.566300
1.937800 3.693900
1.957400 3.759800
1.977000 3.729800
1.996600 3.639900
2.016200 3.573600
2.035700 3.574000
2.055300 3.589300
2.074900 3.672700
2.094500 3.825800
2.114100 4.051700
2.133700 4.381200
2.153300 4.304600
2.172900 3.962000
2.192400 3.627700
2.212000 3.381000
2.231600 3.259600
2.251200 3.256800
2.270800 3.255600
2.290400 3.313700
2.310000 3.568000
2.329600 4.083600
2.349200 4.197800
2.368700 4.460900
2.388300 4.732400
2.407900 5.087800
2.427500 5.472500
2.447100 5.877500
2.466700 6.323300
2.486300 6.890200
2.505900 7.254300
2.525400 6.630200
2.545000 6.063900
2.564600 5.619400
2.584200 5.228700
2.603800 4.896500
2.623400 4.653900
2.643000 4.374600
2.662600 4.161000
2.682200 4.007900
2.701700 3.883400
2.721300 3.761000
2.740900 3.634800
2.760500 3.502600
2.780100 3.523800
2.799700 3.566700
2.819300 3.386100
2.838900 3.147000
2.858400 2.704800
2.878000 2.246200
2.897600 2.033800
2.917200 1.857700
2.936800 1.717500
2.956400 1.619800
2.976000 1.583000
2.995600 1.569300
3.015200 1.548900
3.034700 1.518700
3.054300 1.475700
3.073900 1.419200
3.093500 1.350000
3.113100 1.272700
3.132700 1.217200
3.152300 1.197300
3.171900 1.168200
3.191400 1.128600
3.211000 1.078500
3.230600 1.019300
3.250200 0.958300
3.269800 0.850300
3.289400 0.699500
3.309000 0.550100
3.328600 0.403700
3.348200 0.327900
3.367700 0.264500
3.387300 0.207900
3.406900 0.158100
3.426500 0.115000
3.446100 0.078800
3.465700 0.049300
3.485300 0.026700
3.504900 0.011000
3.524400 0.002100
3.544000 0.000000
3.563600 0.000000
3.583200 0.000000
3.602800 0.000000
3.622400 0.000000
3.642000 0.000000
3.661600 0.000000
3.681200 0.000000
3.700700 0.000000
3.720300 0.000000
3.739900 0.000000
3.759500 0.000000
3.779100 0.000000
3.798700 0.000000
3.818300 0.000000
3.837900 0.000000
3.857400 0.000000
3.877000 0.000000
3.896600 0.000000
3.916200 0.000000
3.935800 0.000000
3.955400 0.000000
3.975000 0.000000
3.994600 0.000000
4.014200 0.000000
4.033700 0.000000
4.053300 0.000000
4.072900 0.000000
4.092500 0.000000
4.112100 0.000000
4.131700 0.000000
4.151300 0.000000
4.170900 0.000000
4.190400 0.000000
4.210000 0.000000
4.229600 0.000000
4.249200 0.000000
4.268800 0.000000
4.288400 0.000000
4.308000 0.000000
4.327600 0.000000
4.347200 0.000000
4.366700 0.000000
4.386300 0.000000
4.405900 0.000000
4.425500 0.000000
4.445100 0.000000
4.464700 0.000000
4.484300 0.000000
4.503900 0.000000
4.523400 0.000000
4.543000 0.000000
4.562600 0.000000
4.582200 0.000000
4.601800 0.000000
4.621400 0.000000
4.641000 0.000500
4.660600 0.001500
4.680100 0.003200
4.699700 0.006300
4.719300 0.011000
4.738900 0.017100
4.758500 0.024800
4.778100 0.034100
4.797700 0.044900
4.817300 0.057200
4.836900 0.071800
4.856400 0.089500
4.876000 0.110300
4.895600 0.134500
4.915200 0.164200
4.934800 0.198100
4.954400 0.236200
4.974000 0.278300
4.993600 0.323900
5.013100 0.366500
5.032700 0.416600
5.052300 0.478300
5.071900 0.551500
5.091500 0.626100
5.111100 0.696600
5.130700 0.762900
5.150300 0.825000
5.169900 0.883000
5.189400 0.938800
5.209000 1.090200
5.228600 1.366500
5.248200 1.680400
5.267800 1.994700
5.287400 2.296700
5.307000 2.586300
5.326600 2.841100
5.346100 3.066600
5.365700 3.274800
5.385300 3.524500
5.404900 3.682500
5.424500 3.714500
5.444100 3.862000
5.463700 3.944900
5.483300 4.015200
5.502900 4.103900
5.522400 4.187000
5.542000 3.843300
5.561600 3.693600
5.581200 3.525000
5.600800 3.320400
5.620400 3.131000
5.640000 2.961500
5.659600 2.807100
5.679100 2.635500
5.698700 2.442100
5.718300 2.225400
5.737900 2.066200
5.757500 1.974400
5.777100 1.940100
5.796700 1.935500
5.816300 1.937900
5.835900 1.938100
5.855400 1.895500
5.875000 1.866600
5.894600 1.846500
5.914200 1.833200
5.933800 1.792500
5.953400 1.742900
5.973000 1.699900
5.992600 1.684000
6.012100 1.709100
6.031700 1.736000
6.051300 1.726000
6.070900 1.697500
6.090500 1.682900
6.110100 1.680500
6.129700 1.687400
6.149300 1.702000
6.168900 1.704900
6.188400 1.690800
6.208000 1.685000
6.227600 1.681600
6.247200 1.672500
6.266800 1.665400
6.286400 1.659900
6.306000 1.655900
6.325600 1.653500
6.345100 1.652300
6.364700 1.651500
6.384300 1.653800
6.403900 1.657900
6.423500 1.662000
6.443100 1.665900
6.462700 1.669700
6.482300 1.704800
6.501900 1.775700
6.521400 1.796100
6.541000 1.789600
6.560600 1.792300
6.580200 1.800000
6.599800 1.805900
6.619400 1.809900
6.639000 1.812100
6.658600 1.812400
6.678100 1.807900
6.697700 1.808000
6.717300 1.802900
6.736900 1.793200
6.756500 1.788400
6.776100 1.786900
6.795700 1.818000
6.815300 1.873200
6.834900 1.943500
6.854400 2.040700
6.874000 2.187200
6.893600 2.366800
6.913200 2.556300
6.932800 2.756500
6.952400 2.984700
6.972000 3.286100
6.991600 3.656400
7.011100 4.073400
7.030700 4.523200
7.050300 4.946100
7.069900 5.183800
7.089500 5.437200
7.109100 5.584500
7.128700 5.437300
7.148300 5.165200
7.167900 5.099300
7.187400 5.117100
7.207000 4.927900
7.226600 4.686700
7.246200 4.334000
7.265800 3.859000
7.285400 3.488300
7.305000 3.223100
7.324600 2.945000
7.344100 2.618800
7.363700 2.250100
7.383300 1.927100
7.402900 1.672600
7.422500 1.475400
7.442100 1.301000
7.461700 1.182100
7.481300 1.043700
7.500900 0.924800
7.520400 0.820800
7.540000 0.730000
7.559600 0.652000
7.579200 0.608600
7.598800 0.598500
7.618400 0.606900
7.638000 0.669200
7.657600 0.771300
7.677100 0.898200
7.696700 1.042300
7.716300 1.193000
7.735900 1.358300
7.755500 1.527800
7.775100 1.703800
7.794700 1.860100
7.814300 1.991400
7.833900 2.098000
7.853400 2.180800
7.873000 2.240100
7.892600 2.288000
7.912200 2.357000
7.931800 2.447000
7.951400 2.548100
7.971000 2.656100
7.990600 2.768500
8.010100 2.871700
8.029700 3.046100
8.049300 3.262500
8.068900 3.318700
8.088500 3.250600
8.108100 3.182000
8.127700 3.227900
8.147300 3.166100
8.166900 2.793400
8.186400 2.756700
8.206000 2.744500
8.225600 2.736500
8.245200 2.721300
8.264800 2.688000
8.284400 2.626500
8.304000 2.555600
8.323600 2.498500
8.343100 2.434100
8.362700 2.351900
8.382300 2.251900
8.401900 2.134300
8.421500 2.012500
8.441100 1.951600
8.460700 1.890700
8.480300 1.826200
8.499900 1.756700
8.519400 1.727700
8.539000 1.731700
8.558600 1.744400
8.578200 1.762000
8.597800 1.785000
8.617400 1.812500
8.637000 1.842700
8.656600 1.875500
8.676100 1.911000
8.695700 1.949100
8.715300 1.989900
8.734900 2.033400
8.754500 2.079900
8.774100 2.177300
8.793700 2.280200
8.813300 2.387500
8.832900 2.468900
8.852400 2.508900
8.872000 2.571100
8.891600 2.651800
8.911200 2.737200
8.930800 2.830500
8.950400 2.931200
8.970000 3.052000
8.989600 3.168100
9.009100 3.275100
9.028700 3.273400
9.048300 3.244700
9.067900 3.217600
9.087500 3.192200
9.107100 3.168200
9.126700 3.141500
9.146300 3.104300
9.165900 3.023800
9.185400 2.896500
9.205000 2.795200
9.224600 2.778100
9.244200 2.850100
9.263800 2.953100
9.283400 3.128400
9.303000 3.321300
9.322600 3.504200
9.342100 3.677200
9.361700 3.760400
9.381300 4.115300
9.400900 5.344600
9.420500 4.797900
9.440100 4.248000
9.459700 3.873500
9.479300 3.671500
9.498800 3.495900
9.518400 3.328200
9.538000 3.168200
9.557600 3.015700
9.577200 2.872600
9.596800 2.747600
9.616400 2.641900
9.636000 2.538500
9.655600 2.390800
9.675100 2.253400
9.694700 2.222800
9.714300 2.259300
9.733900 2.349600
9.753500 2.425200
9.773100 2.555200
9.792700 2.665500
9.812300 2.709800
9.831800 2.726000
9.851400 2.782500
9.871000 2.915900
9.890600 3.127500
9.910200 2.862900
9.929800 2.451600
9.949400 2.442100
9.969000 2.475300
9.988600 2.512200
10.008100 2.587300
10.027700 2.927500
10.047300 3.561500
10.066900 3.840700
10.086500 3.555800
10.106100 3.761000
10.125700 3.946100
10.145300 4.046600
10.164800 4.173200
10.184400 4.308600
10.204000 4.268900
10.223600 4.192800
10.243200 4.078900
10.262800 3.960000
10.282400 4.035900
10.302000 3.298100
10.321600 2.919800
10.341100 2.340100
10.360700 2.034400
10.380300 1.869000
10.399900 1.797200
10.419500 1.730300
10.439100 1.668400
10.458700 1.611500
10.478300 1.559400
10.497800 1.511600
10.517400 1.550600
10.537000 1.554600
10.556600 1.310300
10.576200 1.059000
10.595800 1.030300
10.615400 1.003100
10.635000 0.977500
10.654600 0.954000
10.674100 0.932300
10.693700 0.912100
10.713300 0.891100
10.732900 0.870000
10.752500 0.848900
10.772100 0.829100
10.791700 0.813500
10.811300 0.802400
10.830800 0.797400
10.850400 0.799600
10.870000 0.808800
10.889600 0.825600
10.909200 0.850100
10.928800 0.882200
10.948400 0.934400
10.968000 1.036600
10.987600 1.136700
11.007100 1.202900
11.026700 1.243700
11.046300 1.276600
11.065900 1.319900
11.085500 1.389700
11.105100 1.472400
11.124700 1.560300
11.144300 1.653100
11.163800 1.750900
11.183400 1.853700
11.203000 1.961400
11.222600 2.074300
11.242200 2.106700
11.261800 2.130400
11.281400 2.161000
11.301000 2.198500
11.320600 2.237700
11.340100 2.271400
11.359700 2.305700
11.379300 2.354800
11.398900 2.423000
11.418500 2.511700
11.438100 2.654200
11.457700 2.867000
11.477300 3.150200
11.496800 3.461100
11.516400 3.623800
11.536000 3.705100
11.555600 3.737900
11.575200 3.764300
11.594800 3.823900
11.614400 4.376100
11.634000 4.084300
11.653600 3.906500
11.673100 3.680100
11.692700 3.555100
11.712300 3.395000
11.731900 3.140600
11.751500 2.803100
11.771100 2.357100
11.790700 1.861000
11.810300 1.537000
11.829800 1.361500
11.849400 1.337700
11.869000 1.412500
11.888600 1.498800
11.908200 1.548900
11.927800 1.584200
11.947400 1.646000
11.967000 1.795100
11.986600 2.181900
12.006100 2.524100
12.025700 2.741900
12.045300 2.766400
12.064900 2.777000
12.084500 2.915100
12.104100 3.041200
12.123700 3.171400
12.143300 3.343600
12.162800 3.574600
12.182400 3.654500
12.202000 3.669500
12.221600 3.680200
12.241200 3.791600
12.260800 3.966500
12.280400 3.932100
12.300000 3.649700
12.319600 3.068200
12.339100 2.688300
12.358700 2.610800
12.378300 2.530900
12.397900 2.463300
12.417500 2.406500
12.437100 2.353800
12.456700 2.320000
12.476300 2.316700
12.495800 2.369000
12.515400 2.498600
12.535000 2.740200
12.554600 3.138700
12.574200 3.779400
12.593800 4.199000
12.613400 4.582000
12.633000 4.901700
12.652600 4.992600
12.672100 4.951100
12.691700 4.778500
12.711300 4.485000
12.730900 3.964600
12.750500 3.866700
12.770100 3.883600
12.789700 3.901700
12.809300 3.848600
12.828800 3.761700
12.848400 3.676900
12.868000 3.589900
12.887600 3.522500
12.907200 3.475400
12.926800 3.243900
12.946400 2.968300
12.966000 3.009600
12.985600 3.114100
13.005100 3.238600
13.024700 3.359700
13.044300 3.478000
13.063900 3.531500
13.083500 3.433000
13.103100 3.312500
13.122700 3.268300
13.142300 3.180700
13.161800 3.042100
13.181400 2.862800
13.201000 2.838500
13.220600 2.825500
13.240200 2.866200
13.259800 2.925700
13.279400 2.973400
13.299000 3.062900
13.318600 3.249400
13.338100 3.451900
13.357700 3.579800
13.377300 3.666700
13.396900 3.721000
13.416500 3.747700
13.436100 3.750800
13.455700 3.730000
13.475300 3.688500
13.494800 3.629200
13.514400 3.553700
13.534000 3.461500
13.553600 3.353300
13.573200 3.247500
13.592800 3.144700
13.612400 3.050800
13.632000 2.964100
13.651600 2.882400
13.671100 2.800200
13.690700 2.717600
13.710300 2.797500
13.729900 3.045500
13.749500 2.900900
13.769100 2.841600
13.788700 2.828200
13.808300 2.793100
13.827800 2.793200
13.847400 2.816700
13.867000 2.858000
13.886600 2.913000
13.906200 2.964000
13.925800 3.012600
13.945400 3.060200
13.965000 3.107200
13.984600 3.154100
14.004100 3.210400
14.023700 3.242500
14.043300 3.290100
14.062900 3.690400
14.082500 4.251300
14.102100 3.932800
14.121700 4.019600
14.141300 4.051500
14.160800 4.025800
14.180400 3.957600
14.200000 3.897000
14.219600 3.784900
14.239200 3.615100
14.258800 3.446000
14.278400 3.326000
14.298000 3.273700
14.317500 3.209300
14.337100 3.152500
14.356700 3.112400
14.376300 3.089100
14.395900 3.114400
14.415500 3.241800
14.435100 3.481300
14.454700 3.486200
14.474300 3.463100
14.493800 3.680100
14.513400 3.912000
14.533000 4.196600
14.552600 4.532500
14.572200 4.643900
14.591800 4.646700
14.611400 4.567600
14.631000 4.477700
14.650500 4.209800
14.670100 3.841500
14.689700 3.538200
14.709300 3.339400
14.728900 3.156100
14.748500 2.991000
14.768100 2.844100
14.787700 2.715400
14.807300 2.610400
14.826800 2.552900
14.846400 2.545100
14.866000 2.561000
14.885600 2.598700
14.905200 2.623900
14.924800 2.663800
14.944400 2.754300
14.964000 2.805200
14.983500 2.955500
15.003100 3.149100
15.022700 3.237500
15.042300 3.273700
15.061900 3.278900
15.081500 3.253300
15.101100 3.216300
15.120700 3.179200
15.140300 3.142800
15.159800 3.115000
15.179400 3.236900
15.199000 3.824900
15.218600 3.253700
15.238200 3.153200
15.257800 3.076200
15.277400 3.030700
15.297000 3.033500
15.316500 2.866800
15.336100 2.843000
15.355700 2.919400
15.375300 3.089000
15.394900 3.359100
15.414500 3.624000
15.434100 3.972700
15.453700 4.203500
15.473300 4.318500
15.492800 4.496700
15.512400 4.521000
15.532000 4.027800
15.551600 3.897800
15.571200 3.781600
15.590800 3.682600
15.610400 3.594000
15.630000 3.505300
15.649500 3.414900
15.669100 3.325100
15.688700 3.250600
15.708300 3.205300
15.727900 3.176800
15.747500 3.157500
15.767100 3.165900
15.786700 3.216600
15.806300 3.335300
15.825800 3.578500
15.845400 3.154400
15.865000 3.020000
15.884600 2.919800
15.904200 2.857200
15.923800 2.832700
15.943400 2.845000
15.963000 2.891400
15.982500 2.973900
16.002100 3.086900
16.021700 3.187300
16.041300 3.277900
16.060900 3.399500
16.080500 3.557900
16.100100 3.638100
16.119700 3.547100
16.139300 3.441500
16.158800 3.328400
16.178400 3.208400
16.198000 3.110600
16.217600 3.076800
16.237200 3.057600
16.256800 3.046700
16.276400 3.040300
16.296000 3.037500
16.315500 3.035000
16.335100 3.026800
16.354700 3.024800
16.374300 3.027000
16.393900 3.025900
16.413500 3.041400
16.433100 3.064600
16.452700 3.088500
16.472300 3.133700
16.491800 3.213100
16.511400 3.288300
16.531000 3.530700
16.550600 3.775900
16.570200 3.532600
16.589800 3.582300
16.609400 3.667100
16.629000 3.780100
16.648500 3.823900
16.668100 3.702200
16.687700 3.787800
16.707300 3.941200
16.726900 4.265700
16.746500 3.958500
16.766100 4.014600
16.785700 4.107100
16.805300 4.173600
16.824800 4.159800
16.844400 4.107500
16.864000 4.084800
16.883600 4.098200
16.903200 4.148600
16.922800 4.266700
16.942400 4.309800
16.962000 4.288700
16.981500 4.229400
17.001100 4.152600
17.020700 4.058600
17.040300 3.947700
17.059900 3.824900
17.079500 3.659300
17.099100 3.520800
17.118700 3.431000
17.138300 3.330900
17.157800 3.225900
17.177400 3.152700
17.197000 3.132700
17.216600 3.145700
17.236200 3.194600
17.255800 3.279700
17.275400 3.398200
17.295000 3.547700
17.314500 3.582200
17.334100 3.662000
17.353700 3.724100
17.373300 3.791300
17.392900 3.846800
17.412500 3.876500
17.432100 3.884400
17.451700 3.847400
17.471300 3.835000
17.490800 3.833700
17.510400 3.837400
17.530000 3.915500
17.549600 3.962100
17.569200 3.983600
17.588800 3.965700
17.608400 3.979000
17.628000 4.035200
17.647500 4.097400
17.667100 4.178700
17.686700 4.229700
17.706300 4.186100
17.725900 4.114300
17.745500 4.031800
17.765100 3.961900
17.784700 3.900300
17.804300 3.846800
17.823800 3.807100
17.843400 3.832600
17.863000 3.821000
17.882600 3.276900
17.902200 3.252700
17.921800 3.233400
17.941400 3.252500
17.961000 3.275300
17.980500 3.540700
18.000100 3.520700
18.019700 3.499000
18.039300 3.475900
18.058900 3.452400
18.078500 3.428600
18.098100 3.395400
18.117700 3.320400
18.137300 3.632500
18.156800 3.535400
18.176400 3.438900
18.196000 3.345400
18.215600 3.255600
18.235200 3.173500
18.254800 3.102800
18.274400 3.069700
18.294000 3.084800
18.313500 3.156700
18.333100 3.095500
18.352700 3.149200
18.372300 3.214700
18.391900 3.293600
18.411500 3.380100
18.431100 3.465800
18.450700 3.553300
18.470300 3.644300
18.489800 3.727300
18.509400 3.786900
18.529000 3.842400
18.548600 3.903600
18.568200 4.004700
18.587800 4.153800
18.607400 4.319100
18.627000 4.449100
18.646500 4.376900
18.666100 4.365800
18.685700 4.357900
18.705300 4.352600
18.724900 4.258100
18.744500 4.116600
18.764100 3.957200
18.783700 3.834700
18.803300 3.760800
18.822800 3.732100
18.842400 3.746800
18.862000 3.804700
18.881600 3.837600
18.901200 3.830400
18.920800 3.849300
18.940400 3.896000
18.960000 3.962100
18.979500 4.030400
18.999100 4.095800
19.018700 4.157300
19.038300 4.212400
19.057900 4.253700
19.077500 4.277500
19.097100 4.283700
19.116700 4.279800
19.136200 4.258000
19.155800 4.213500
19.175400 4.159000
19.195000 4.097700
19.214600 4.031600
19.234200 3.974800
19.253800 3.982000
19.273400 4.103100
19.293000 4.217700
19.312500 4.313600
19.332100 4.414200
19.351700 4.557300
19.371300 4.715900
19.390900 4.822000
19.410500 4.878800
19.430100 4.902200
19.449700 4.891700
19.469200 4.729600
19.488800 4.504400
19.508400 4.340600
19.528000 4.237300
19.547600 4.072100
19.567200 3.892900
19.586800 3.790200
19.606400 3.748500
19.626000 3.689300
19.645500 3.629600
19.665100 3.545200
19.684700 3.461500
19.704300 3.433000
19.723900 3.410700
19.743500 3.392600
19.763100 3.375300
19.782700 3.344800
19.802200 3.381400
19.821800 3.408100
19.841400 3.437500
19.861000 3.467700
19.880600 3.516400
19.900200 3.589600
19.919800 3.683500
19.939400 3.784000
19.959000 3.888300
19.978500 4.003000
19.998100 4.147200
20.017700 4.320700
20.037300 4.516200
20.056900 4.732000
20.076500 5.000300
20.096100 5.180900
20.115700 5.214300
20.135200 5.171300
20.154800 5.043700
20.174400 4.852600
20.194000 4.642200
20.213600 4.432800
20.233200 4.280600
20.252800 4.212000
20.272400 4.183500
20.292000 4.156200
20.311500 4.126700
20.331100 4.090100
20.350700 4.047000
20.370300 4.056600
20.389900 4.194200
20.409500 4.292200
20.429100 4.327600
20.448700 4.273100
20.468200 4.175300
20.487800 4.051400
20.507400 3.932500
20.527000 3.848000
20.546600 3.781400
20.566200 3.721500
20.585800 3.669900
20.605400 3.626400
20.625000 3.588300
20.644500 3.554300
20.664100 3.523100
20.683700 3.491100
20.703300 3.459800
20.722900 3.476200
20.742500 3.498400
20.762100 3.512200
20.781700 3.518500
20.801200 3.494900
20.820800 3.443600
20.840400 3.484000
20.860000 3.559100
20.879600 3.682700
20.899200 3.912700
20.918800 4.116200
20.938400 4.270900
20.958000 4.419300
20.977500 4.543800
20.997100 4.568800
21.016700 4.597900
21.036300 4.591600
21.055900 4.530000
21.075500 4.451400
21.095100 4.373200
21.114700 4.280700
21.134200 4.168000
21.153800 4.029200
21.173400 3.837700
21.193000 3.733700
21.212600 3.794500
21.232200 3.967500
21.251800 4.104500
21.271400 4.254300
21.291000 4.421400
21.310500 4.606700
21.330100 4.840400
21.349700 5.167000
21.369300 5.441300
21.388900 5.462300
21.408500 5.235700
21.428100 5.135500
21.447700 5.213200
21.467200 4.984900
21.486800 3.991900
21.506400 3.779500
21.526000 3.652700
21.545600 3.624700
21.565200 3.641000
21.584800 3.733700
21.604400 3.857600
21.624000 4.008000
21.643500 4.150300
21.663100 4.281200
21.682700 4.389200
21.702300 4.260800
21.721900 3.979700
21.741500 4.005300
21.761100 4.056100
21.780700 4.202700
21.800200 4.200400
21.819800 4.245000
21.839400 4.364000
21.859000 4.477000
21.878600 4.551600
21.898200 4.590900
21.917800 4.633900
21.937400 4.810100
21.957000 4.884700
21.976500 4.577600
21.996100 4.293400
22.015700 3.997300
22.035300 3.609000
22.054900 3.323400
22.074500 3.067000
22.094100 2.839700
22.113700 2.641500
22.133200 2.472300
22.152800 2.335200
22.172400 2.260800
22.192000 2.230400
22.211600 2.226300
22.231200 2.261900
22.250800 2.529300
22.270400 3.321200
22.290000 3.548200
22.309500 3.804200
22.329100 3.968900
22.348700 4.036700
22.368300 4.058300
22.387900 4.113400
22.407500 4.168300
22.427100 4.208300
22.446700 4.221900
22.466200 4.215000
22.485800 4.208200
22.505400 4.254300
22.525000 4.438700
22.544600 4.469500
22.564200 4.375600
22.583800 4.246300
22.603400 4.109500
22.623000 3.967800
22.642500 3.650500
22.662100 3.323400
22.681700 3.119300
22.701300 3.001200
22.720900 2.910100
22.740500 2.860700
22.760100 2.886300
22.779700 3.184800
22.799200 2.987100
22.818800 2.847000
22.838400 2.824700
22.858000 2.860100
22.877600 2.880300
22.897200 2.888200
22.916800 2.894300
22.936400 2.901600
22.956000 2.921500
22.975500 2.971700
22.995100 3.041200
23.014700 3.122600
23.034300 3.217500
23.053900 3.327300
23.073500 3.449000
23.093100 3.582200
23.112700 3.708800
23.132200 3.773500
23.151800 3.650200
23.171400 3.586400
23.191000 3.304700
23.210600 2.974700
23.230200 2.643800
23.249800 2.353800
23.269400 2.115600
23.289000 1.870900
23.308500 1.639200
23.328100 1.462800
23.347700 1.306400
23.367300 1.168500
23.386900 1.048900
23.406500 0.936000
23.426100 0.816600
23.445700 0.710200
23.465200 0.625700
23.484800 0.548200
23.504400 0.477600
23.524000 0.414000
23.543600 0.357200
23.563200 0.307200
23.582800 0.261500
23.602400 0.219300
23.622000 0.180600
23.641500 0.145400
23.661100 0.113700
23.680700 0.085600
23.700300 0.060900
23.719900 0.045200
23.739500 0.039500
23.759100 0.037300
23.778700 0.035700
23.798200 0.034200
23.817800 0.032700
23.837400 0.031200
23.857000 0.029800
23.876600 0.028400
23.896200 0.027000
23.915800 0.025700
23.935400 0.024400
23.954900 0.023100
23.974500 0.021900
23.994100 0.020700
24.013700 0.019600
24.033300 0.018400
24.052900 0.017300
24.072500 0.016300
24.092100 0.015200
24.111700 0.014200
24.131200 0.013300
24.150800 0.012300
24.170400 0.011500
24.190000 0.010600
24.209600 0.009800
24.229200 0.009000
24.248800 0.008200
24.268400 0.007500
24.287900 0.006800
24.307500 0.006100
24.327100 0.005500
24.346700 0.004900
24.366300 0.004400
24.385900 0.003800
24.405500 0.003300
24.425100 0.002900
24.444700 0.002500
24.464200 0.002100
24.483800 0.001700
24.503400 0.001400
24.523000 0.001100
24.542600 0.000800
24.562200 0.000600
24.581800 0.000400
24.601400 0.000300
24.620900 0.000200
24.640500 0.000100
24.660100 0.000000
24.679700 0.000000
24.699300 0.000000
24.718900 0.000000
24.738500 0.000000
24.758100 0.000000
24.777700 0.000000
24.797200 0.000000
24.816800 0.000000
24.836400 0.000000
24.856000 0.000000
24.875600 0.000000
24.895200 0.000000
24.914800 0.000000
24.934400 0.000000
24.953900 0.000000
24.973500 0.000000
24.993100 0.000000
25.012700 0.000000
25.032300 0.000000
25.051900 0.000000
25.071500 0.000000
25.091100 0.000000
25.110700 0.000000
25.130200 0.000000
25.149800 0.000000
25.169400 0.000000
25.189000 0.000000
25.208600 0.000000
25.228200 0.000000
25.247800 0.000000
25.267400 0.000000
25.286900 0.000000
25.306500 0.000000
25.326100 0.000000
25.345700 0.000000
25.365300 0.000000
25.384900 0.000000
25.404500 0.000000
25.424100 0.000000
25.443700 0.000000
25.463200 0.000000
25.482800 0.000000
25.502400 0.000000
25.522000 0.000000
25.541600 0.000000
25.561200 0.000000
25.580800 0.000000
25.600400 0.000000
25.619900 0.000000
25.639500 0.000000
25.659100 0.000000
25.678700 0.000000
25.698300 0.000000
25.717900 0.000000
25.737500 0.000000
25.757100 0.000000
25.776700 0.000000
25.796200 0.000000
25.815800 0.000000
25.835400 0.000000
25.855000 0.000000
25.874600 0.000000
25.894200 0.000000
25.913800 0.000000
25.933400 0.000000
25.952900 0.000000
25.972500 0.000000
25.992100 0.000000
26.011700 0.000000
26.031300 0.000000
26.050900 0.000000
26.070500 0.000000
26.090100 0.000000
26.109700 0.000000
26.129200 0.000000
26.148800 0.000000
26.168400 0.000000
26.188000 0.000000
26.207600 0.000000
26.227200 0.000000
26.246800 0.000000
26.266400 0.000000
26.285900 0.000000
26.305500 0.000000
26.325100 0.000000
26.344700 0.000000
26.364300 0.000000
26.383900 0.000000
26.403500 0.000000
26.423100 0.000000
26.442700 0.000000
26.462200 0.000000
e
