set title 'mp-979413 - Density of States'
set xlabel 'Energy (eV)'
set ylabel 'DOS (states/eV)'
set grid
set xrange [-10:10]
set yrange [0:7.024]
set xzeroaxis lt -1
set terminal png size 800,600
set output 'mp-979413_dos_gnuplot.png'
plot '-' using 1:2 with lines title 'DOS'
-35.335000 0.000000
-35.298600 0.000000
-35.262100 0.000000
-35.225700 0.000000
-35.189200 0.000000
-35.152800 0.000000
-35.116300 0.000000
-35.079800 0.000000
-35.043400 0.000000
-35.006900 0.000000
-34.970500 0.000000
-34.934000 0.000000
-34.897600 0.000000
-34.861100 0.000000
-34.824700 0.000000
-34.788200 0.000000
-34.751800 0.000000
-34.715300 0.000000
-34.678800 0.000000
-34.642400 0.000000
-34.605900 0.000000
-34.569500 0.000000
-34.533000 0.000000
-34.496600 0.000000
-34.460100 0.000000
-34.423700 0.000000
-34.387200 0.000000
-34.350700 0.000000
-34.314300 0.000000
-34.277800 0.000000
-34.241400 0.000000
-34.204900 0.000000
-34.168500 0.000000
-34.132000 0.000000
-34.095600 0.000000
-34.059100 0.000000
-34.022700 0.000000
-33.986200 0.000000
-33.949700 0.000000
-33.913300 0.000000
-33.876800 0.000000
-33.840400 0.000000
-33.803900 0.000000
-33.767500 0.000000
-33.731000 0.000000
-33.694600 0.000000
-33.658100 0.000000
-33.621700 0.000000
-33.585200 0.000000
-33.548700 0.000000
-33.512300 0.000000
-33.475800 0.000000
-33.439400 0.000000
-33.402900 0.000000
-33.366500 0.000000
-33.330000 0.000000
-33.293600 0.000000
-33.257100 0.000000
-33.220600 0.000000
-33.184200 0.000000
-33.147700 0.000000
-33.111300 0.000000
-33.074800 0.000000
-33.038400 0.000000
-33.001900 0.000000
-32.965500 0.000000
-32.929000 0.000000
-32.892600 0.000000
-32.856100 0.000000
-32.819600 0.000000
-32.783200 0.000000
-32.746700 0.000000
-32.710300 0.000000
-32.673800 0.000000
-32.637400 0.000000
-32.600900 0.000000
-32.564500 0.000000
-32.528000 0.000000
-32.491600 0.000000
-32.455100 0.000000
-32.418600 0.000000
-32.382200 0.000000
-32.345700 0.000000
-32.309300 0.000000
-32.272800 0.000000
-32.236400 0.000000
-32.199900 0.000000
-32.163500 0.000000
-32.127000 0.000000
-32.090500 0.000000
-32.054100 0.000000
-32.017600 0.529100
-31.981200 2.183800
-31.944700 2.004300
-31.908300 3.762300
-31.871800 4.181400
-31.835400 4.526500
-31.798900 4.861300
-31.762500 6.114600
-31.726000 7.513500
-31.689500 8.741200
-31.653100 9.128900
-31.616600 14.476600
-31.580200 23.129600
-31.543700 35.110900
-31.507300 26.762500
-31.470800 12.726400
-31.434400 9.674300
-31.397900 9.731600
-31.361500 8.430600
-31.325000 9.093200
-31.288500 9.992000
-31.252100 6.410600
-31.215600 4.197100
-31.179200 4.392700
-31.142700 5.956900
-31.106300 10.572200
-31.069800 5.547200
-31.033400 4.820400
-30.996900 4.962000
-30.960400 5.299500
-30.924000 5.545700
-30.887500 4.460700
-30.851100 3.157800
-30.814600 5.957800
-30.778200 9.984400
-30.741700 17.203900
-30.705300 13.788700
-30.668800 24.573600
-30.632400 16.194400
-30.595900 16.084400
-30.559400 12.815000
-30.523000 3.809800
-30.486500 3.590400
-30.450100 3.330500
-30.413600 3.133900
-30.377200 3.015900
-30.340700 3.001600
-30.304300 3.029800
-30.267800 3.074300
-30.231400 3.134000
-30.194900 3.218800
-30.158400 3.366000
-30.122000 3.521700
-30.085500 3.704800
-30.049100 3.873500
-30.012600 4.158200
-29.976200 4.772900
-29.939700 5.523700
-29.903300 7.842300
-29.866800 5.688700
-29.830300 4.866200
-29.793900 4.389400
-29.757400 3.644900
-29.721000 2.674800
-29.684500 0.000000
-29.648100 0.000000
-29.611600 0.000000
-29.575200 0.000000
-29.538700 0.000000
-29.502300 0.000000
-29.465800 0.000000
-29.429300 0.000000
-29.392900 0.000000
-29.356400 0.000000
-29.320000 0.000000
-29.283500 0.000000
-29.247100 0.000000
-29.210600 0.000000
-29.174200 0.000000
-29.137700 0.000000
-29.101300 0.000000
-29.064800 0.000000
-29.028300 0.000000
-28.991900 0.000000
-28.955400 0.000000
-28.919000 0.000000
-28.882500 0.000000
-28.846100 0.000000
-28.809600 0.000000
-28.773200 0.000000
-28.736700 0.000000
-28.700200 0.000000
-28.663800 0.000000
-28.627300 0.000000
-28.590900 0.000000
-28.554400 0.000000
-28.518000 0.000000
-28.481500 0.000000
-28.445100 0.000000
-28.408600 0.000000
-28.372200 0.000000
-28.335700 0.000000
-28.299200 0.000000
-28.262800 0.000000
-28.226300 0.000000
-28.189900 0.000000
-28.153400 0.000000
-28.117000 0.000000
-28.080500 0.000000
-28.044100 0.000000
-28.007600 0.000000
-27.971200 0.000000
-27.934700 0.000000
-27.898200 0.000000
-27.861800 0.000000
-27.825300 0.000000
-27.788900 0.000000
-27.752400 0.000000
-27.716000 0.000000
-27.679500 0.000000
-27.643100 0.000000
-27.606600 0.000000
-27.570100 0.000000
-27.533700 0.000000
-27.497200 0.000000
-27.460800 0.000000
-27.424300 0.000000
-27.387900 0.000000
-27.351400 0.000000
-27.315000 0.000000
-27.278500 0.000000
-27.242100 0.000000
-27.205600 0.000000
-27.169100 0.000000
-27.132700 0.000000
-27.096200 0.000000
-27.059800 0.000000
-27.023300 0.000000
-26.986900 0.000000
-26.950400 0.000000
-26.914000 0.000000
-26.877500 0.000000
-26.841100 0.000000
-26.804600 0.000000
-26.768100 0.000000
-26.731700 0.000000
-26.695200 0.000000
-26.658800 0.000000
-26.622300 0.000000
-26.585900 0.000000
-26.549400 0.000000
-26.513000 0.000000
-26.476500 0.000000
-26.440000 0.000000
-26.403600 0.000000
-26.367100 0.000000
-26.330700 0.000000
-26.294200 0.000000
-26.257800 0.000000
-26.221300 0.000000
-26.184900 0.000000
-26.148400 0.000000
-26.112000 0.000000
-26.075500 0.000000
-26.039000 0.000000
-26.002600 0.000000
-25.966100 0.000000
-25.929700 0.000000
-25.893200 0.000000
-25.856800 0.000000
-25.820300 0.000000
-25.783900 0.000000
-25.747400 0.000000
-25.711000 0.000000
-25.674500 0.000000
-25.638000 0.000000
-25.601600 0.000000
-25.565100 0.000000
-25.528700 0.000000
-25.492200 0.000000
-25.455800 0.000000
-25.419300 0.000000
-25.382900 0.000000
-25.346400 0.000000
-25.309900 0.000000
-25.273500 0.000000
-25.237000 0.000000
-25.200600 0.000000
-25.164100 0.000000
-25.127700 0.000000
-25.091200 0.000000
-25.054800 0.000000
-25.018300 0.000000
-24.981900 0.000000
-24.945400 0.000000
-24.908900 0.000000
-24.872500 0.000000
-24.836000 0.000000
-24.799600 0.000000
-24.763100 0.000000
-24.726700 0.000000
-24.690200 0.000000
-24.653800 0.000000
-24.617300 0.000000
-24.580900 0.000000
-24.544400 0.000000
-24.507900 0.000000
-24.471500 0.000000
-24.435000 0.000000
-24.398600 0.000000
-24.362100 0.000000
-24.325700 0.000000
-24.289200 0.000000
-24.252800 0.000000
-24.216300 0.000000
-24.179800 0.000000
-24.143400 0.000000
-24.106900 0.000000
-24.070500 0.000000
-24.034000 0.000000
-23.997600 0.000000
-23.961100 0.000000
-23.924700 0.000000
-23.888200 0.000000
-23.851800 0.000000
-23.815300 0.000000
-23.778800 0.000000
-23.742400 0.000000
-23.705900 0.000000
-23.669500 0.000000
-23.633000 0.000000
-23.596600 0.000000
-23.560100 0.000000
-23.523700 0.000000
-23.487200 0.000000
-23.450800 0.000000
-23.414300 0.000000
-23.377800 0.000000
-23.341400 0.000000
-23.304900 0.000000
-23.268500 0.000000
-23.232000 0.000000
-23.195600 0.000000
-23.159100 0.000000
-23.122700 0.000000
-23.086200 0.000000
-23.049700 0.000000
-23.013300 0.000000
-22.976800 0.000000
-22.940400 0.000000
-22.903900 0.000000
-22.867500 0.000000
-22.831000 0.000000
-22.794600 0.000000
-22.758100 0.000000
-22.721700 0.000000
-22.685200 0.000000
-22.648700 0.000000
-22.612300 0.000000
-22.575800 0.000000
-22.539400 0.000000
-22.502900 0.000000
-22.466500 0.000000
-22.430000 0.000000
-22.393600 0.000000
-22.357100 0.000000
-22.320700 0.000000
-22.284200 0.000000
-22.247700 0.000000
-22.211300 0.000000
-22.174800 0.000000
-22.138400 0.000000
-22.101900 0.000000
-22.065500 0.000000
-22.029000 0.000000
-21.992600 0.000000
-21.956100 0.000000
-21.919600 0.000000
-21.883200 0.000000
-21.846700 0.000000
-21.810300 0.000000
-21.773800 0.000000
-21.737400 0.000000
-21.700900 0.000000
-21.664500 0.000000
-21.628000 0.000000
-21.591600 0.000000
-21.555100 0.000000
-21.518600 0.000000
-21.482200 0.000000
-21.445700 0.000000
-21.409300 0.000000
-21.372800 0.000000
-21.336400 0.000000
-21.299900 0.000000
-21.263500 0.000000
-21.227000 0.000000
-21.190600 0.000000
-21.154100 0.000000
-21.117600 0.000000
-21.081200 0.000000
-21.044700 0.000000
-21.008300 0.000000
-20.971800 0.000000
-20.935400 0.000000
-20.898900 0.000000
-20.862500 0.000000
-20.826000 0.000000
-20.789500 0.000000
-20.753100 0.000000
-20.716600 0.000000
-20.680200 0.000000
-20.643700 0.000000
-20.607300 0.000000
-20.570800 0.000000
-20.534400 0.000000
-20.497900 0.000000
-20.461500 0.000000
-20.425000 0.000000
-20.388500 0.000000
-20.352100 0.000000
-20.315600 0.000000
-20.279200 0.000000
-20.242700 0.000000
-20.206300 0.000000
-20.169800 0.000000
-20.133400 0.000000
-20.096900 0.000000
-20.060500 0.000000
-20.024000 0.000000
-19.987500 0.000000
-19.951100 0.000000
-19.914600 0.000000
-19.878200 0.000000
-19.841700 0.000000
-19.805300 0.000000
-19.768800 0.000000
-19.732400 0.000000
-19.695900 0.000000
-19.659500 0.000000
-19.623000 0.000000
-19.586500 0.000000
-19.550100 0.000000
-19.513600 0.000000
-19.477200 0.000000
-19.440700 0.000000
-19.404300 0.000000
-19.367800 0.000000
-19.331400 0.000000
-19.294900 0.000000
-19.258400 0.000000
-19.222000 0.000000
-19.185500 0.000000
-19.149100 0.000000
-19.112600 0.000000
-19.076200 0.000000
-19.039700 0.000000
-19.003300 0.000000
-18.966800 0.000000
-18.930400 0.000000
-18.893900 0.000000
-18.857400 0.000000
-18.821000 0.000000
-18.784500 0.000000
-18.748100 0.000000
-18.711600 0.000000
-18.675200 0.000000
-18.638700 0.000000
-18.602300 0.000000
-18.565800 0.000000
-18.529400 0.000000
-18.492900 0.000000
-18.456400 0.000000
-18.420000 0.000000
-18.383500 0.000000
-18.347100 0.000000
-18.310600 0.000000
-18.274200 0.000000
-18.237700 0.000000
-18.201300 0.000000
-18.164800 0.000000
-18.128300 0.000000
-18.091900 0.000000
-18.055400 0.000000
-18.019000 0.000000
-17.982500 0.000000
-17.946100 0.000000
-17.909600 0.000000
-17.873200 0.000000
-17.836700 0.000000
-17.800300 0.000000
-17.763800 0.000000
-17.727300 0.000000
-17.690900 0.000000
-17.654400 0.000000
-17.618000 0.000000
-17.581500 0.000000
-17.545100 0.000000
-17.508600 0.000000
-17.472200 0.000000
-17.435700 0.000000
-17.399300 0.000000
-17.362800 0.000000
-17.326300 0.000000
-17.289900 0.000000
-17.253400 0.000000
-17.217000 0.000000
-17.180500 0.000000
-17.144100 0.000000
-17.107600 0.000000
-17.071200 0.000000
-17.034700 0.000000
-16.998200 0.000000
-16.961800 0.000000
-16.925300 0.000000
-16.888900 0.000000
-16.852400 0.000000
-16.816000 0.000000
-16.779500 0.000000
-16.743100 0.000000
-16.706600 0.000000
-16.670200 0.000000
-16.633700 0.000000
-16.597200 0.000000
-16.560800 0.000000
-16.524300 0.000000
-16.487900 0.000000
-16.451400 0.000000
-16.415000 0.000000
-16.378500 0.000000
-16.342100 0.000000
-16.305600 0.000000
-16.269200 0.000000
-16.232700 0.000000
-16.196200 0.000000
-16.159800 0.000000
-16.123300 0.000000
-16.086900 0.000000
-16.050400 0.000000
-16.014000 0.000000
-15.977500 0.000000
-15.941100 0.000000
-15.904600 0.000000
-15.868100 0.000000
-15.831700 0.000000
-15.795200 0.000000
-15.758800 0.000000
-15.722300 0.000000
-15.685900 0.000000
-15.649400 0.000000
-15.613000 0.000000
-15.576500 0.000000
-15.540100 0.000000
-15.503600 0.000000
-15.467100 0.000000
-15.430700 0.000000
-15.394200 0.000000
-15.357800 0.000000
-15.321300 0.000000
-15.284900 0.000000
-15.248400 0.000000
-15.212000 0.000000
-15.175500 0.000000
-15.139100 0.000000
-15.102600 0.000000
-15.066100 0.000000
-15.029700 0.000000
-14.993200 0.000000
-14.956800 0.000000
-14.920300 0.000000
-14.883900 0.000000
-14.847400 0.000000
-14.811000 0.000000
-14.774500 0.000000
-14.738000 0.000000
-14.701600 0.000000
-14.665100 0.000000
-14.628700 0.000000
-14.592200 0.000000
-14.555800 0.000000
-14.519300 0.000000
-14.482900 0.000000
-14.446400 0.000000
-14.410000 0.000000
-14.373500 0.000000
-14.337000 0.000000
-14.300600 0.000000
-14.264100 0.000000
-14.227700 0.000000
-14.191200 0.000000
-14.154800 0.000000
-14.118300 0.000000
-14.081900 0.000000
-14.045400 0.000000
-14.009000 0.000000
-13.972500 0.000000
-13.936000 0.000000
-13.899600 0.000000
-13.863100 0.000000
-13.826700 0.000000
-13.790200 0.000000
-13.753800 0.000000
-13.717300 0.000000
-13.680900 0.000000
-13.644400 0.000000
-13.607900 0.000000
-13.571500 0.000000
-13.535000 0.000000
-13.498600 0.000000
-13.462100 0.000000
-13.425700 0.000000
-13.389200 0.000000
-13.352800 0.000000
-13.316300 0.000000
-13.279900 0.000000
-13.243400 0.000000
-13.206900 0.000000
-13.170500 0.000000
-13.134000 0.000000
-13.097600 0.000000
-13.061100 0.000000
-13.024700 0.000000
-12.988200 0.000000
-12.951800 0.000000
-12.915300 0.000000
-12.878900 0.000000
-12.842400 0.000000
-12.805900 0.000000
-12.769500 0.000000
-12.733000 0.000000
-12.696600 0.000000
-12.660100 0.000000
-12.623700 0.000000
-12.587200 0.000000
-12.550800 0.000000
-12.514300 0.000000
-12.477800 0.000000
-12.441400 0.000000
-12.404900 0.000000
-12.368500 0.000000
-12.332000 0.000000
-12.295600 0.000000
-12.259100 0.000000
-12.222700 0.000000
-12.186200 0.000000
-12.149800 0.000000
-12.113300 0.000000
-12.076800 0.000000
-12.040400 0.000000
-12.003900 0.000000
-11.967500 0.000000
-11.931000 0.000000
-11.894600 0.000000
-11.858100 0.000000
-11.821700 0.000000
-11.785200 0.000000
-11.748800 0.000000
-11.712300 0.000000
-11.675800 0.000000
-11.639400 0.000000
-11.602900 0.000000
-11.566500 0.000000
-11.530000 0.000000
-11.493600 0.000000
-11.457100 0.000000
-11.420700 0.000000
-11.384200 0.000000
-11.347700 0.000000
-11.311300 0.000000
-11.274800 0.000000
-11.238400 0.000000
-11.201900 0.000000
-11.165500 0.000000
-11.129000 0.000000
-11.092600 0.000000
-11.056100 0.000000
-11.019700 0.000000
-10.983200 0.000000
-10.946700 0.000000
-10.910300 0.000000
-10.873800 0.000000
-10.837400 0.000000
-10.800900 0.000000
-10.764500 0.000000
-10.728000 0.000000
-10.691600 0.000000
-10.655100 0.000000
-10.618700 0.000000
-10.582200 0.000000
-10.545700 0.000000
-10.509300 0.000000
-10.472800 0.000000
-10.436400 0.000000
-10.399900 0.000000
-10.363500 0.000000
-10.327000 0.000000
-10.290600 0.000000
-10.254100 0.000000
-10.217600 0.000000
-10.181200 0.000000
-10.144700 0.000000
-10.108300 0.000000
-10.071800 0.000000
-10.035400 0.000000
-9.998900 0.000000
-9.962500 0.000000
-9.926000 0.000000
-9.889600 0.000000
-9.853100 0.000000
-9.816600 0.000000
-9.780200 0.000000
-9.743700 0.000000
-9.707300 0.000000
-9.670800 0.000000
-9.634400 0.000000
-9.597900 0.000000
-9.561500 0.000000
-9.525000 0.000000
-9.488600 0.000000
-9.452100 0.000000
-9.415600 0.000000
-9.379200 0.000000
-9.342700 0.000000
-9.306300 0.000000
-9.269800 0.000000
-9.233400 0.000000
-9.196900 0.000000
-9.160500 0.000000
-9.124000 0.000000
-9.087500 0.000000
-9.051100 0.000000
-9.014600 0.000000
-8.978200 0.000000
-8.941700 0.000000
-8.905300 0.000000
-8.868800 0.000000
-8.832400 0.000000
-8.795900 0.000000
-8.759500 0.000000
-8.723000 0.000000
-8.686500 0.000000
-8.650100 0.000000
-8.613600 0.000000
-8.577200 0.000000
-8.540700 0.000000
-8.504300 0.000000
-8.467800 0.000000
-8.431400 0.000000
-8.394900 0.000000
-8.358500 0.000000
-8.322000 0.000000
-8.285500 0.000000
-8.249100 0.000000
-8.212600 0.000000
-8.176200 0.000000
-8.139700 0.000000
-8.103300 0.000000
-8.066800 0.000000
-8.030400 0.000000
-7.993900 0.000000
-7.957400 0.000000
-7.921000 0.000000
-7.884500 0.000000
-7.848100 0.000000
-7.811600 0.000000
-7.775200 0.000000
-7.738700 0.000000
-7.702300 0.000000
-7.665800 0.000000
-7.629400 0.000000
-7.592900 0.000000
-7.556400 0.000000
-7.520000 0.000000
-7.483500 0.000000
-7.447100 0.000000
-7.410600 0.000000
-7.374200 0.000000
-7.337700 0.000000
-7.301300 0.000000
-7.264800 0.000000
-7.228400 0.000000
-7.191900 0.000000
-7.155400 0.000000
-7.119000 0.000000
-7.082500 0.000000
-7.046100 0.000000
-7.009600 0.000000
-6.973200 0.000000
-6.936700 0.000000
-6.900300 0.000000
-6.863800 0.000000
-6.827300 0.000000
-6.790900 0.000000
-6.754400 0.000000
-6.718000 0.000000
-6.681500 0.000000
-6.645100 0.000000
-6.608600 0.000000
-6.572200 0.000000
-6.535700 0.000000
-6.499300 0.000000
-6.462800 0.000000
-6.426300 0.000000
-6.389900 0.000000
-6.353400 0.000000
-6.317000 0.000000
-6.280500 0.000000
-6.244100 0.000000
-6.207600 0.000000
-6.171200 0.000000
-6.134700 0.000000
-6.098300 0.000000
-6.061800 0.000000
-6.025300 0.000000
-5.988900 0.000000
-5.952400 0.000000
-5.916000 0.000000
-5.879500 0.000000
-5.843100 0.000000
-5.806600 0.000000
-5.770200 0.000000
-5.733700 0.000000
-5.697200 0.000000
-5.660800 0.000000
-5.624300 0.000000
-5.587900 0.000000
-5.551400 0.000000
-5.515000 0.000000
-5.478500 0.000000
-5.442100 0.000000
-5.405600 0.000000
-5.369200 0.000000
-5.332700 0.000000
-5.296200 0.000000
-5.259800 0.000000
-5.223300 0.015900
-5.186900 0.070000
-5.150400 0.121300
-5.114000 0.146600
-5.077500 0.157500
-5.041100 0.182800
-5.004600 0.210600
-4.968200 0.239800
-4.931700 0.262500
-4.895200 0.277100
-4.858800 0.298300
-4.822300 0.319300
-4.785900 0.343100
-4.749400 0.367800
-4.713000 0.393400
-4.676500 0.421400
-4.640100 0.452800
-4.603600 0.492000
-4.567100 0.529000
-4.530700 0.569800
-4.494200 0.655400
-4.457800 0.692400
-4.421300 0.694500
-4.384900 0.711600
-4.348400 0.735300
-4.312000 0.756600
-4.275500 0.766100
-4.239100 0.784200
-4.202600 0.807900
-4.166100 0.834900
-4.129700 0.866800
-4.093200 0.904400
-4.056800 0.939000
-4.020300 0.972900
-3.983900 1.013100
-3.947400 1.067100
-3.911000 1.143200
-3.874500 1.221300
-3.838100 1.310300
-3.801600 1.431800
-3.765100 1.663900
-3.728700 3.663700
-3.692200 5.345500
-3.655800 4.789000
-3.619300 3.391500
-3.582900 2.674600
-3.546400 2.360400
-3.510000 1.984400
-3.473500 1.931400
-3.437100 1.747600
-3.400600 0.775800
-3.364100 0.000000
-3.327700 0.000000
-3.291200 0.000000
-3.254800 0.000000
-3.218300 0.000000
-3.181900 0.000000
-3.145400 0.000000
-3.109000 0.000000
-3.072500 0.000000
-3.036000 0.000000
-2.999600 0.000000
-2.963100 0.000000
-2.926700 0.000000
-2.890200 0.000000
-2.853800 0.000000
-2.817300 0.000000
-2.780900 0.000000
-2.744400 0.000000
-2.708000 0.000000
-2.671500 0.000000
-2.635000 0.000000
-2.598600 0.000000
-2.562100 0.000000
-2.525700 0.000000
-2.489200 0.000000
-2.452800 0.000000
-2.416300 0.000000
-2.379900 0.000000
-2.343400 0.000000
-2.307000 0.000000
-2.270500 0.000000
-2.234000 0.000000
-2.197600 0.000000
-2.161100 0.000000
-2.124700 0.000000
-2.088200 0.000000
-2.051800 0.000000
-2.015300 0.000000
-1.978900 0.000000
-1.942400 0.000000
-1.905900 0.000000
-1.869500 0.000000
-1.833000 0.000000
-1.796600 0.000000
-1.760100 0.000000
-1.723700 0.000000
-1.687200 0.000000
-1.650800 0.000000
-1.614300 0.000000
-1.577900 0.000000
-1.541400 0.000000
-1.504900 0.000000
-1.468500 0.000000
-1.432000 0.000000
-1.395600 0.000000
-1.359100 0.000000
-1.322700 0.000000
-1.286200 0.000000
-1.249800 0.000000
-1.213300 0.000000
-1.176900 0.000000
-1.140400 0.000000
-1.103900 0.000000
-1.067500 0.000000
-1.031000 0.000000
-0.994600 0.000000
-0.958100 0.000000
-0.921700 0.000000
-0.885200 0.000000
-0.848800 0.000000
-0.812300 0.000000
-0.775800 0.000000
-0.739400 0.000000
-0.702900 0.000000
-0.666500 0.021700
-0.630000 0.064800
-0.593600 0.116900
-0.557100 0.149500
-0.520700 0.158000
-0.484200 0.161700
-0.447800 0.178700
-0.411300 0.197700
-0.374800 0.212800
-0.338400 0.232900
-0.301900 0.253700
-0.265500 0.265400
-0.229000 0.276000
-0.192600 0.289900
-0.156100 0.303900
-0.119700 0.318300
-0.083200 0.332900
-0.046800 0.347900
-0.010300 0.365500
0.026200 0.387700
0.062600 0.411700
0.099100 0.438200
0.135500 0.466000
0.172000 0.495700
0.208400 0.773200
0.244900 1.014200
0.281300 1.224700
0.317800 1.308100
0.354300 1.347900
0.390700 1.427000
0.427200 1.535300
0.463600 1.778100
0.500100 2.494900
0.536500 2.632700
0.573000 3.061600
0.609400 3.252500
0.645900 3.261500
0.682300 3.004600
0.718800 2.366300
0.755300 1.874800
0.791700 1.618000
0.828200 1.424600
0.864600 1.279600
0.901100 1.092700
0.937500 1.030500
0.974000 1.030200
1.010400 1.018400
1.046900 1.053900
1.083300 1.102900
1.119800 1.164100
1.156300 1.221400
1.192700 1.269900
1.229200 1.379300
1.265600 1.483500
1.302100 1.582000
1.338500 1.652900
1.375000 1.846100
1.411400 2.078600
1.447900 1.963100
1.484400 1.956600
1.520800 1.989500
1.557300 2.218100
1.593700 2.733300
1.630200 2.717000
1.666600 2.916100
1.703100 3.292400
1.739500 3.580800
1.776000 3.212400
1.812400 2.790600
1.848900 2.620700
1.885400 2.619500
1.921800 2.648700
1.958300 2.105300
1.994700 1.684100
2.031200 1.187100
2.067600 1.005700
2.104100 0.952700
2.140500 0.896100
2.177000 1.334500
2.213400 1.639000
2.249900 1.672000
2.286400 1.834700
2.322800 2.086100
2.359300 2.334300
2.395700 2.782400
2.432200 2.879000
2.468600 3.160900
2.505100 3.704600
2.541500 4.552500
2.578000 5.436200
2.614500 4.693000
2.650900 4.698100
2.687400 5.315800
2.723800 4.863400
2.760300 4.049600
2.796700 3.676500
2.833200 3.993600
2.869600 6.385600
2.906100 6.012900
2.942500 5.235300
2.979000 5.009000
3.015500 4.711400
3.051900 4.406400
3.088400 4.123000
3.124800 3.892200
3.161300 3.976200
3.197700 4.296700
3.234200 4.896800
3.270600 4.234200
3.307100 3.695200
3.343500 3.355800
3.380000 3.204400
3.416500 3.200600
3.452900 3.274200
3.489400 3.519800
3.525800 3.408200
3.562300 3.091300
3.598700 2.709700
3.635200 2.941700
3.671600 2.974800
3.708100 2.966400
3.744600 3.185000
3.781000 3.413300
3.817500 3.516000
3.853900 3.417200
3.890400 3.255800
3.926800 3.256600
3.963300 3.131900
3.999700 4.018500
4.036200 3.147200
4.072600 2.884100
4.109100 2.594100
4.145600 2.417900
4.182000 2.259600
4.218500 2.239900
4.254900 2.352700
4.291400 2.449300
4.327800 2.664200
4.364300 2.721800
4.400700 2.646000
4.437200 2.827200
4.473600 2.928300
4.510100 2.890200
4.546600 2.920600
4.583000 3.129000
4.619500 3.106300
4.655900 3.249400
4.692400 3.188600
4.728800 3.087400
4.765300 2.998400
4.801700 3.149600
4.838200 3.218800
4.874700 3.001200
4.911100 2.700100
4.947600 2.445400
4.984000 2.353000
5.020500 2.206700
5.056900 2.094700
5.093400 2.165900
5.129800 3.066700
5.166300 4.129300
5.202700 5.131200
5.239200 5.244600
5.275700 4.227400
5.312100 3.857600
5.348600 3.733400
5.385000 3.632000
5.421500 3.805100
5.457900 4.091700
5.494400 3.812100
5.530800 3.552300
5.567300 3.570900
5.603700 3.766100
5.640200 4.082300
5.676700 3.666400
5.713100 3.512700
5.749600 4.058400
5.786000 4.674900
5.822500 4.768300
5.858900 5.070700
5.895400 4.642100
5.931800 3.908100
5.968300 3.629100
6.004800 3.368000
6.041200 2.417700
6.077700 2.179600
6.114100 1.858100
6.150600 1.782500
6.187000 2.102600
6.223500 2.172200
6.259900 2.028700
6.296400 2.065000
6.332800 2.297200
6.369300 2.360400
6.405800 2.161200
6.442200 1.787300
6.478700 1.551500
6.515100 1.524300
6.551600 1.620600
6.588000 1.774500
6.624500 1.930400
6.660900 2.142900
6.697400 2.459100
6.733800 2.961500
6.770300 3.093300
6.806800 3.138500
6.843200 3.030600
6.879700 2.875500
6.916100 2.637800
6.952600 2.387200
6.989000 2.231300
7.025500 2.363200
7.061900 2.142800
7.098400 1.726500
7.134900 1.313500
7.171300 1.028800
7.207800 0.961300
7.244200 1.017700
7.280700 1.719800
7.317100 1.480200
7.353600 1.821300
7.390000 2.153800
7.426500 2.416100
7.462900 2.286700
7.499400 1.879000
7.535900 1.838000
7.572300 1.872400
7.608800 1.963200
7.645200 2.091300
7.681700 2.375400
7.718100 2.768800
7.754600 2.872300
7.791000 2.842900
7.827500 2.868600
7.863900 2.942700
7.900400 2.980900
7.936900 3.023100
7.973300 2.955300
8.009800 3.020800
8.046200 3.066100
8.082700 3.100300
8.119100 3.177300
8.155600 3.267800
8.192000 3.543600
8.228500 3.647400
8.265000 3.069500
8.301400 2.798000
8.337900 2.543500
8.374300 2.457800
8.410800 2.454000
8.447200 2.478900
8.483700 2.492700
8.520100 2.515900
8.556600 2.613600
8.593000 2.671000
8.629500 2.991100
8.666000 3.799700
8.702400 3.726300
8.738900 3.708100
8.775300 3.659700
8.811800 3.585800
8.848200 3.644000
8.884700 3.820800
8.921100 3.378200
8.957600 3.455800
8.994000 3.346900
9.030500 3.460400
9.067000 3.721900
9.103400 3.897400
9.139900 3.616200
9.176300 3.433900
9.212800 3.105700
9.249200 2.857700
9.285700 2.754100
9.322100 3.034100
9.358600 3.128100
9.395100 3.199500
9.431500 3.275400
9.468000 3.365600
9.504400 3.408900
9.540900 3.533200
9.577300 3.706100
9.613800 3.957700
9.650200 3.858300
9.686700 4.013000
9.723100 3.773700
9.759600 3.846800
9.796100 4.041800
9.832500 4.153300
9.869000 4.578800
9.905400 4.740400
9.941900 4.763300
9.978300 4.692300
10.014800 4.223200
10.051200 3.983400
10.087700 3.916300
10.124100 3.720000
10.160600 3.881500
10.197100 3.676700
10.233500 3.996100
10.270000 4.604400
10.306400 4.279600
10.342900 4.128000
10.379300 4.500700
10.415800 5.188600
10.452200 5.196900
10.488700 4.853700
10.525200 4.405700
10.561600 4.248900
10.598100 4.097100
10.634500 4.075600
10.671000 4.331200
10.707400 4.660900
10.743900 4.841100
10.780300 4.874200
10.816800 5.461800
10.853200 6.090300
10.889700 6.120700
10.926200 5.618000
10.962600 5.041100
10.999100 4.598100
11.035500 4.741800
11.072000 5.241100
11.108400 4.924600
11.144900 4.627500
11.181300 4.727600
11.217800 4.637800
11.254200 4.521700
11.290700 4.203600
11.327200 3.885700
11.363600 3.935300
11.400100 3.774000
11.436500 2.954400
11.473000 2.351100
11.509400 2.114800
11.545900 2.025600
11.582300 2.173700
11.618800 3.069000
11.655300 4.263800
11.691700 4.983700
11.728200 4.624600
11.764600 4.003900
11.801100 3.634700
11.837500 3.231700
11.874000 3.061500
11.910400 2.854700
11.946900 2.607300
11.983300 2.337200
12.019800 2.183300
12.056300 2.109500
12.092700 2.030700
12.129200 1.967200
12.165600 1.914800
12.202100 1.898600
12.238500 1.917500
12.275000 1.998300
12.311400 2.106200
12.347900 2.231900
12.384300 2.402800
12.420800 2.498700
12.457300 2.304200
12.493700 1.996400
12.530200 1.871400
12.566600 1.828000
12.603100 1.755100
12.639500 1.767000
12.676000 1.816800
12.712400 1.799000
12.748900 1.730000
12.785300 1.722800
12.821800 1.773700
12.858300 1.785600
12.894700 1.767700
12.931200 1.785200
12.967600 1.792200
13.004100 1.809600
13.040500 1.831100
13.077000 1.864800
13.113400 1.883900
13.149900 1.816500
13.186400 1.715400
13.222800 1.618100
13.259300 1.537000
13.295700 1.447600
13.332200 1.352200
13.368600 1.247500
13.405100 1.149100
13.441500 1.033600
13.478000 0.976700
13.514400 0.924900
13.550900 0.887800
13.587400 0.851000
13.623800 0.814000
13.660300 0.775400
13.696700 0.757200
13.733200 0.818500
13.769600 0.881500
13.806100 0.793200
13.842500 0.766700
13.879000 0.732700
13.915400 0.707400
13.951900 0.662500
13.988400 0.633500
14.024800 0.576700
14.061300 0.505800
14.097700 0.466000
14.134200 0.480900
14.170600 0.495500
14.207100 0.509800
14.243500 0.525100
14.280000 0.541300
14.316500 0.557600
14.352900 0.573900
14.389400 0.590300
14.425800 0.616400
14.462300 0.671000
14.498700 0.683700
14.535200 0.699800
14.571600 0.713600
14.608100 0.725800
14.644500 0.744200
14.681000 0.770900
14.717500 0.803700
14.753900 0.811800
14.790400 0.826200
14.826800 0.833600
14.863300 0.930500
14.899700 0.811600
14.936200 0.799200
14.972600 0.798900
15.009100 0.822300
15.045500 0.851800
15.082000 0.878100
15.118500 0.898000
15.154900 0.948100
15.191400 0.968800
15.227800 0.965500
15.264300 0.961600
15.300700 0.966600
15.337200 0.976000
15.373600 0.978000
15.410100 0.978100
15.446600 0.997200
15.483000 0.995500
15.519500 0.988300
15.555900 0.985400
15.592400 0.986000
15.628800 0.990200
15.665300 1.006000
15.701700 1.019000
15.738200 1.022400
15.774600 1.021400
15.811100 1.016000
15.847600 1.024800
15.884000 1.144100
15.920500 1.176700
15.956900 1.183200
15.993400 1.186500
16.029800 1.180600
16.066300 1.172300
16.102700 1.162100
16.139200 1.140300
16.175600 1.128100
16.212100 1.129400
16.248600 1.103300
16.285000 0.836400
16.321500 0.817100
16.357900 0.853500
16.394400 0.985100
16.430800 0.969300
16.467300 1.199900
16.503700 1.249400
16.540200 1.386800
16.576700 1.490800
16.613100 1.531600
16.649600 1.615900
16.686000 1.682600
16.722500 1.727700
16.758900 1.701600
16.795400 1.666500
16.831800 1.600600
16.868300 1.421400
16.904700 1.296200
16.941200 1.190000
16.977700 1.110600
17.014100 1.062300
17.050600 1.031600
17.087000 0.975600
17.123500 0.924800
17.159900 0.888900
17.196400 0.873100
17.232800 0.856600
17.269300 0.846200
17.305700 0.810700
17.342200 0.776200
17.378700 0.762400
17.415100 0.759900
17.451600 0.777800
17.488000 0.801700
17.524500 0.826900
17.560900 0.850200
17.597400 0.877900
17.633800 0.910000
17.670300 0.929100
17.706800 0.943500
17.743200 0.961900
17.779700 0.983000
17.816100 1.039900
17.852600 1.088100
17.889000 1.188100
17.925500 1.299300
17.961900 1.478700
17.998400 1.400300
18.034800 1.363000
18.071300 1.335500
18.107800 1.345700
18.144200 1.342200
18.180700 1.334100
18.217100 1.335000
18.253600 1.322600
18.290000 1.314900
18.326500 1.313100
18.362900 1.320900
18.399400 1.334200
18.435800 1.343200
18.472300 1.360300
18.508800 1.378900
18.545200 1.404400
18.581700 1.434700
18.618100 1.506500
18.654600 1.559900
18.691000 1.747200
18.727500 1.881100
18.763900 1.959200
18.800400 1.968200
18.836900 1.844100
18.873300 1.859500
18.909800 1.929200
18.946200 2.229900
18.982700 2.520900
19.019100 2.572800
19.055600 2.228500
19.092000 2.131900
19.128500 2.020100
19.164900 1.976200
19.201400 1.976500
19.237900 2.332700
19.274300 2.297900
19.310800 2.645300
19.347200 2.198200
19.383700 2.411000
19.420100 2.236100
19.456600 2.202000
19.493000 2.158100
19.529500 2.221600
19.565900 2.288200
19.602400 2.444600
19.638900 3.072500
19.675300 3.052100
19.711800 3.239300
19.748200 3.302300
19.784700 3.135200
19.821100 2.872800
19.857600 2.815200
19.894000 2.697700
19.930500 2.578100
19.967000 2.342000
20.003400 2.264600
20.039900 2.058100
20.076300 1.663900
20.112800 1.316000
20.149200 1.248600
20.185700 1.183900
20.222100 1.124300
20.258600 1.065200
20.295000 1.028300
20.331500 0.986500
20.368000 0.963600
20.404400 0.933300
20.440900 0.916900
20.477300 0.910600
20.513800 0.884800
20.550200 0.809000
20.586700 0.759600
20.623100 0.725200
20.659600 0.700100
20.696000 0.687400
20.732500 0.684200
20.769000 0.682300
20.805400 0.677700
20.841900 0.670400
20.878300 0.664500
20.914800 0.658100
20.951200 0.660700
20.987700 0.674200
21.024100 0.704800
21.060600 0.738900
21.097100 0.774000
21.133500 0.847200
21.170000 0.888400
21.206400 0.968000
21.242900 1.021500
21.279300 1.028000
21.315800 1.038400
21.352200 1.065900
21.388700 1.089600
21.425100 1.123200
21.461600 1.150100
21.498100 1.167400
21.534500 1.189500
21.571000 1.214200
21.607400 1.240600
21.643900 1.288600
21.680300 1.360100
21.716800 1.450600
21.753200 1.487400
21.789700 1.516000
21.826100 1.600700
21.862600 1.712900
21.899100 1.916000
21.935500 1.986700
21.972000 2.040900
22.008400 2.022200
22.044900 1.841300
22.081300 1.604000
22.117800 1.610300
22.154200 1.455600
22.190700 1.319400
22.227200 1.325100
22.263600 1.330000
22.300100 1.325700
22.336500 1.338400
22.373000 1.357600
22.409400 1.346100
22.445900 1.359300
22.482300 1.557900
22.518800 1.524900
22.555200 1.812900
22.591700 1.663600
22.628200 1.648200
22.664600 1.640700
22.701100 1.686500
22.737500 1.666900
22.774000 1.664600
22.810400 1.696500
22.846900 1.658900
22.883300 1.622500
22.919800 1.602100
22.956200 1.591700
22.992700 1.604600
23.029200 1.642500
23.065600 1.691400
23.102100 1.688300
23.138500 1.714900
23.175000 1.749300
23.211400 1.799400
23.247900 1.824900
23.284300 1.847300
23.320800 1.875500
23.357300 1.912100
23.393700 1.941800
23.430200 2.027600
23.466600 2.236300
23.503100 2.251200
23.539500 2.062000
23.576000 1.951200
23.612400 1.924500
23.648900 2.024200
23.685300 2.156100
23.721800 2.255800
23.758300 2.376200
23.794700 2.456700
23.831200 2.434100
23.867600 2.444300
23.904100 2.483100
23.940500 2.531700
23.977000 2.573500
24.013400 2.641700
24.049900 2.748900
24.086300 2.898000
24.122800 2.665500
24.159300 2.536800
24.195700 2.507600
24.232200 2.591900
24.268600 2.597000
24.305100 2.571200
24.341500 2.602000
24.378000 2.634100
24.414400 2.839700
24.450900 2.518400
24.487400 2.347900
24.523800 2.260400
24.560300 2.052300
24.596700 1.870100
24.633200 1.757500
24.669600 1.773100
24.706100 1.714500
24.742500 1.779900
24.779000 1.763400
24.815400 1.776700
24.851900 1.924400
24.888400 1.993200
24.924800 1.922900
24.961300 1.772800
24.997700 1.710600
25.034200 1.671200
25.070600 1.584300
25.107100 1.718300
25.143500 1.696100
25.180000 1.894200
25.216400 2.292500
25.252900 2.902600
25.289400 3.435900
25.325800 3.669800
25.362300 3.741800
25.398700 3.738000
25.435200 3.701300
25.471600 3.779100
25.508100 3.507100
25.544500 3.202800
25.581000 2.988100
25.617500 2.933100
25.653900 2.508400
25.690400 2.344300
25.726800 2.122900
25.763300 2.032100
25.799700 2.151300
25.836200 2.443500
25.872600 2.261300
25.909100 2.217900
25.945500 2.232200
25.982000 2.264500
26.018500 2.417100
26.054900 2.915900
26.091400 3.466800
26.127800 3.699800
26.164300 3.435800
26.200700 3.170900
26.237200 3.233400
26.273600 2.735000
26.310100 2.121800
26.346500 2.011100
26.383000 2.079900
26.419500 1.934400
26.455900 1.885000
26.492400 1.655100
26.528800 1.608200
26.565300 1.630400
26.601700 1.792600
26.638200 1.932800
26.674600 2.121100
26.711100 2.280900
26.747600 2.483800
26.784000 2.430200
26.820500 2.409000
26.856900 2.419100
26.893400 2.351800
26.929800 2.327000
26.966300 2.295100
27.002700 2.253700
27.039200 2.133600
27.075600 2.031800
27.112100 1.959100
27.148600 1.869300
27.185000 1.729200
27.221500 1.543500
27.257900 1.478200
27.294400 1.606400
27.330800 1.922300
27.367300 2.258300
27.403700 2.581200
27.440200 2.576500
27.476600 2.575400
27.513100 2.723300
27.549600 2.791400
27.586000 2.675700
27.622500 2.619300
27.658900 2.580700
27.695400 2.521800
27.731800 2.288300
27.768300 2.440700
27.804700 2.528900
27.841200 2.532600
27.877700 2.497300
27.914100 2.402200
27.950600 2.321900
27.987000 2.279600
28.023500 2.242000
28.059900 2.108500
28.096400 2.051800
28.132800 2.017800
28.169300 2.152200
28.205700 2.255000
28.242200 2.358100
28.278700 2.585000
28.315100 2.755000
28.351600 2.467000
28.388000 2.342100
28.424500 2.268300
28.460900 2.320500
28.497400 2.458900
28.533800 2.487300
28.570300 2.501500
28.606700 2.542700
28.643200 2.674700
28.679700 2.826700
28.716100 2.975900
28.752600 3.014600
28.789000 3.334500
28.825500 3.297000
28.861900 3.301800
28.898400 3.209300
28.934800 3.104300
28.971300 3.073800
29.007700 3.079100
29.044200 3.132900
29.080700 3.148900
29.117100 3.196100
29.153600 3.285200
29.190000 3.041900
29.226500 2.964100
29.262900 2.933400
29.299400 3.047800
29.335800 3.244300
29.372300 3.153100
29.408800 2.923100
29.445200 2.542600
29.481700 2.346000
29.518100 2.224400
29.554600 2.273400
29.591000 2.376700
29.627500 2.459000
29.663900 2.509000
29.700400 2.576400
29.736800 2.504300
29.773300 2.338400
29.809800 2.222000
29.846200 2.213300
29.882700 2.234900
29.919100 2.122700
29.955600 1.893200
29.992000 1.868400
30.028500 1.855600
30.064900 1.839400
30.101400 1.842800
30.137800 2.020900
30.174300 2.036600
30.210800 1.869000
30.247200 1.860600
30.283700 1.877400
30.320100 1.991800
30.356600 2.017000
30.393000 2.044800
30.429500 2.143500
30.465900 2.123300
30.502400 2.113300
30.538900 2.059300
30.575300 2.053900
30.611800 2.109200
30.648200 2.068200
30.684700 2.014500
30.721100 1.972300
30.757600 1.942600
30.794000 1.972500
30.830500 2.047800
30.866900 2.162600
30.903400 2.292300
30.939900 2.690200
30.976300 3.064500
31.012800 3.458700
31.049200 3.172700
31.085700 3.069400
31.122100 3.113300
31.158600 3.054200
31.195000 3.019900
31.231500 2.969300
31.267900 2.924400
31.304400 2.851700
31.340900 2.815900
31.377300 2.774400
31.413800 2.680200
31.450200 2.617900
31.486700 2.575800
31.523100 2.402900
31.559600 2.477800
31.596000 2.069400
31.632500 2.016200
31.669000 2.054500
31.705400 2.268900
31.741900 2.475000
31.778300 2.523200
31.814800 2.436200
31.851200 2.330900
31.887700 2.334300
31.924100 2.271100
31.960600 2.120500
31.997000 1.935700
32.033500 1.835200
32.070000 1.831200
32.106400 1.800600
32.142900 1.743000
32.179300 1.703600
32.215800 1.737000
32.252200 1.780500
32.288700 1.993000
32.325100 2.017000
32.361600 2.053600
32.398000 2.148000
32.434500 2.299900
32.471000 2.391900
32.507400 2.482100
32.543900 2.549100
32.580300 2.507000
32.616800 2.091900
32.653200 1.955700
32.689700 1.850300
32.726100 1.767700
32.762600 1.693500
32.799100 1.632500
32.835500 1.593500
32.872000 1.573100
32.908400 1.678600
32.944900 1.783400
32.981300 1.897000
33.017800 1.821300
33.054200 1.632300
33.090700 1.487100
33.127100 1.328900
33.163600 1.217500
33.200100 1.128600
33.236500 1.049600
33.273000 0.978300
33.309400 0.903800
33.345900 0.850400
33.382300 0.799400
33.418800 0.738100
33.455200 0.694800
33.491700 0.648700
33.528100 0.567700
33.564600 0.529700
33.601100 0.495000
33.637500 0.463300
33.674000 0.430200
33.710400 0.402100
33.746900 0.375500
33.783300 0.350300
33.819800 0.327000
33.856200 0.306500
33.892700 0.287600
33.929200 0.289900
33.965600 0.245900
34.002100 0.202000
34.038500 0.169700
34.075000 0.131300
34.111400 0.076600
34.147900 0.043600
34.184300 0.018400
34.220800 0.001000
34.257200 0.000000
34.293700 0.000000
34.330200 0.000000
34.366600 0.000000
34.403100 0.000000
34.439500 0.000000
34.476000 0.000000
34.512400 0.000000
34.548900 0.000000
34.585300 0.000000
34.621800 0.000000
34.658200 0.000000
34.694700 0.000000
34.731200 0.000000
34.767600 0.000000
34.804100 0.000000
34.840500 0.000000
34.877000 0.000000
34.913400 0.000000
34.949900 0.000000
34.986300 0.000000
35.022800 0.000000
35.059300 0.000000
35.095700 0.000000
35.132200 0.000000
35.168600 0.000000
35.205100 0.000000
35.241500 0.000000
35.278000 0.000000
35.314400 0.000000
35.350900 0.000000
35.387300 0.000000
35.423800 0.000000
35.460300 0.000000
35.496700 0.000000
35.533200 0.000000
35.569600 0.000000
35.606100 0.000000
35.642500 0.000000
35.679000 0.000000
35.715400 0.000000
35.751900 0.000000
35.788300 0.000000
35.824800 0.000000
35.861300 0.000000
35.897700 0.000000
35.934200 0.000000
35.970600 0.000000
36.007100 0.000000
36.043500 0.000000
36.080000 0.000000
36.116400 0.000000
36.152900 0.000000
36.189400 0.000000
36.225800 0.000000
36.262300 0.000000
36.298700 0.000000
36.335200 0.000000
36.371600 0.000000
36.408100 0.000000
36.444500 0.000000
36.481000 0.000000
36.517400 0.000000
36.553900 0.000000
36.590400 0.000000
36.626800 0.000000
36.663300 0.000000
36.699700 0.000000
36.736200 0.000000
36.772600 0.000000
36.809100 0.000000
36.845500 0.000000
36.882000 0.000000
36.918400 0.000000
36.954900 0.000000
36.991400 0.000000
37.027800 0.000000
37.064300 0.000000
37.100700 0.000000
37.137200 0.000000
37.173600 0.000000
37.210100 0.000000
37.246500 0.000000
37.283000 0.000000
37.319500 0.000000
37.355900 0.000000
37.392400 0.000000
37.428800 0.000000
37.465300 0.000000
37.501700 0.000000
37.538200 0.000000
37.574600 0.000000
e
