set title 'mp-1220052 - Density of States'
set xlabel 'Energy (eV)'
set ylabel 'DOS (states/eV)'
set grid
set xrange [-10:10]
set yrange [0:3.569]
set xzeroaxis lt -1
set terminal png size 800,600
set output 'mp-1220052_dos_gnuplot.png'
plot '-' using 1:2 with lines title 'DOS'
-61.778300 0.000000
-61.712400 0.000000
-61.646400 0.000000
-61.580500 0.000000
-61.514500 0.000000
-61.448600 0.000000
-61.382600 0.000000
-61.316700 0.000000
-61.250700 0.000000
-61.184800 0.000000
-61.118900 0.000000
-61.052900 0.000000
-60.987000 0.000000
-60.921000 0.000000
-60.855100 0.000000
-60.789100 0.000000
-60.723200 0.000000
-60.657200 0.000000
-60.591300 0.000000
-60.525300 0.000000
-60.459400 0.000000
-60.393500 0.000000
-60.327500 0.000000
-60.261600 0.000000
-60.195600 0.000000
-60.129700 0.000000
-60.063700 0.000000
-59.997800 0.000000
-59.931800 0.000000
-59.865900 0.000000
-59.799900 0.000000
-59.734000 0.000000
-59.668100 0.000000
-59.602100 0.000000
-59.536200 0.000000
-59.470200 0.000000
-59.404300 0.000000
-59.338300 0.000000
-59.272400 0.000000
-59.206400 0.000000
-59.140500 0.000000
-59.074600 0.000000
-59.008600 0.000000
-58.942700 0.000000
-58.876700 0.000000
-58.810800 0.000000
-58.744800 0.000000
-58.678900 0.000000
-58.612900 0.000000
-58.547000 0.000000
-58.481000 0.000000
-58.415100 0.000000
-58.349200 0.000000
-58.283200 0.000000
-58.217300 0.000000
-58.151300 0.000000
-58.085400 0.000000
-58.019400 0.000000
-57.953500 0.000000
-57.887500 0.000000
-57.821600 0.000000
-57.755700 0.000000
-57.689700 0.000000
-57.623800 0.000000
-57.557800 0.000000
-57.491900 0.000000
-57.425900 0.000000
-57.360000 0.000000
-57.294000 0.000000
-57.228100 0.000000
-57.162100 0.000000
-57.096200 0.000000
-57.030300 0.000000
-56.964300 0.000000
-56.898400 0.000000
-56.832400 0.000000
-56.766500 0.000000
-56.700500 0.000000
-56.634600 0.000000
-56.568600 0.000000
-56.502700 0.000000
-56.436800 0.000000
-56.370800 0.000000
-56.304900 0.000000
-56.238900 0.000000
-56.173000 0.000000
-56.107000 0.000000
-56.041100 0.000000
-55.975100 0.000000
-55.909200 0.000000
-55.843200 0.000000
-55.777300 0.000000
-55.711400 0.000000
-55.645400 0.000000
-55.579500 19.269300
-55.513500 0.000000
-55.447600 0.000000
-55.381600 0.000000
-55.315700 0.000000
-55.249700 0.000000
-55.183800 0.000000
-55.117800 0.000000
-55.051900 0.000000
-54.986000 0.000000
-54.920000 0.000000
-54.854100 0.000000
-54.788100 0.000000
-54.722200 0.000000
-54.656200 0.000000
-54.590300 0.000000
-54.524300 0.000000
-54.458400 0.000000
-54.392500 0.000000
-54.326500 0.000000
-54.260600 0.000000
-54.194600 0.000000
-54.128700 0.000000
-54.062700 0.000000
-53.996800 0.000000
-53.930800 0.000000
-53.864900 0.000000
-53.798900 0.000000
-53.733000 0.000000
-53.667100 0.000000
-53.601100 0.000000
-53.535200 0.000000
-53.469200 0.000000
-53.403300 0.000000
-53.337300 0.000000
-53.271400 0.000000
-53.205400 0.000000
-53.139500 0.000000
-53.073600 0.000000
-53.007600 0.000000
-52.941700 0.000000
-52.875700 0.000000
-52.809800 0.000000
-52.743800 0.000000
-52.677900 0.000000
-52.611900 0.000000
-52.546000 0.000000
-52.480000 0.000000
-52.414100 0.000000
-52.348200 0.000000
-52.282200 0.000000
-52.216300 0.000000
-52.150300 0.000000
-52.084400 0.000000
-52.018400 0.000000
-51.952500 0.000000
-51.886500 0.000000
-51.820600 0.000000
-51.754600 0.000000
-51.688700 0.000000
-51.622800 0.000000
-51.556800 0.000000
-51.490900 0.000000
-51.424900 0.000000
-51.359000 0.000000
-51.293000 0.000000
-51.227100 0.000000
-51.161100 0.000000
-51.095200 0.000000
-51.029300 0.000000
-50.963300 0.000000
-50.897400 0.000000
-50.831400 0.000000
-50.765500 0.000000
-50.699500 0.000000
-50.633600 0.000000
-50.567600 0.000000
-50.501700 0.000000
-50.435700 0.000000
-50.369800 0.000000
-50.303900 0.000000
-50.237900 0.000000
-50.172000 0.000000
-50.106000 0.000000
-50.040100 0.000000
-49.974100 0.000000
-49.908200 0.000000
-49.842200 0.000000
-49.776300 0.000000
-49.710400 0.000000
-49.644400 0.000000
-49.578500 0.000000
-49.512500 0.000000
-49.446600 0.000000
-49.380600 0.000000
-49.314700 0.000000
-49.248700 0.000000
-49.182800 0.000000
-49.116800 0.000000
-49.050900 0.000000
-48.985000 0.000000
-48.919000 0.000000
-48.853100 0.000000
-48.787100 0.000000
-48.721200 0.000000
-48.655200 0.000000
-48.589300 0.000000
-48.523300 0.000000
-48.457400 0.000000
-48.391400 0.000000
-48.325500 0.000000
-48.259600 0.000000
-48.193600 0.000000
-48.127700 0.000000
-48.061700 0.000000
-47.995800 0.000000
-47.929800 0.000000
-47.863900 0.000000
-47.797900 0.000000
-47.732000 0.000000
-47.666100 0.000000
-47.600100 0.000000
-47.534200 0.000000
-47.468200 0.000000
-47.402300 0.000000
-47.336300 0.000000
-47.270400 0.000000
-47.204400 0.000000
-47.138500 0.000000
-47.072500 0.000000
-47.006600 0.000000
-46.940700 0.000000
-46.874700 0.000000
-46.808800 0.000000
-46.742800 0.000000
-46.676900 0.000000
-46.610900 0.000000
-46.545000 0.000000
-46.479000 0.000000
-46.413100 0.000000
-46.347200 0.000000
-46.281200 0.000000
-46.215300 0.000000
-46.149300 0.000000
-46.083400 0.000000
-46.017400 0.000000
-45.951500 0.000000
-45.885500 0.000000
-45.819600 0.000000
-45.753600 0.000000
-45.687700 0.000000
-45.621800 0.000000
-45.555800 0.000000
-45.489900 0.000000
-45.423900 0.000000
-45.358000 0.000000
-45.292000 0.000000
-45.226100 0.000000
-45.160100 0.000000
-45.094200 0.000000
-45.028300 0.000000
-44.962300 0.000000
-44.896400 0.000000
-44.830400 0.000000
-44.764500 0.000000
-44.698500 0.000000
-44.632600 0.000000
-44.566600 0.000000
-44.500700 0.000000
-44.434700 0.000000
-44.368800 0.000000
-44.302900 0.000000
-44.236900 0.000000
-44.171000 0.000000
-44.105000 0.000000
-44.039100 0.000000
-43.973100 0.000000
-43.907200 0.000000
-43.841200 0.000000
-43.775300 0.000000
-43.709300 0.000000
-43.643400 0.000000
-43.577500 0.000000
-43.511500 0.000000
-43.445600 0.000000
-43.379600 0.000000
-43.313700 0.000000
-43.247700 0.000000
-43.181800 0.000000
-43.115800 0.000000
-43.049900 0.000000
-42.984000 0.000000
-42.918000 0.000000
-42.852100 0.000000
-42.786100 0.000000
-42.720200 0.000000
-42.654200 0.000000
-42.588300 0.000000
-42.522300 0.000000
-42.456400 0.000000
-42.390400 0.000000
-42.324500 0.000000
-42.258600 0.000000
-42.192600 0.000000
-42.126700 0.000000
-42.060700 0.000000
-41.994800 0.000000
-41.928800 0.000000
-41.862900 0.000000
-41.796900 0.000000
-41.731000 0.000000
-41.665100 0.000000
-41.599100 0.000000
-41.533200 0.000000
-41.467200 0.000000
-41.401300 0.000000
-41.335300 0.000000
-41.269400 0.000000
-41.203400 0.000000
-41.137500 0.000000
-41.071500 0.000000
-41.005600 0.000000
-40.939700 0.000000
-40.873700 0.000000
-40.807800 0.000000
-40.741800 0.000000
-40.675900 0.000000
-40.609900 0.000000
-40.544000 0.000000
-40.478000 0.000000
-40.412100 0.000000
-40.346100 0.000000
-40.280200 0.000000
-40.214300 0.000000
-40.148300 0.000000
-40.082400 0.000000
-40.016400 0.000000
-39.950500 0.000000
-39.884500 0.000000
-39.818600 0.000000
-39.752600 0.000000
-39.686700 0.000000
-39.620800 0.000000
-39.554800 0.000000
-39.488900 0.000000
-39.422900 0.000000
-39.357000 0.000000
-39.291000 0.000000
-39.225100 0.000000
-39.159100 0.000000
-39.093200 0.000000
-39.027200 0.000000
-38.961300 0.000000
-38.895400 0.000000
-38.829400 0.000000
-38.763500 0.000000
-38.697500 0.000000
-38.631600 0.000000
-38.565600 0.000000
-38.499700 0.000000
-38.433700 0.000000
-38.367800 0.000000
-38.301900 0.000000
-38.235900 0.000000
-38.170000 0.000000
-38.104000 0.000000
-38.038100 0.000000
-37.972100 0.000000
-37.906200 0.000000
-37.840200 0.000000
-37.774300 0.000000
-37.708300 0.000000
-37.642400 0.000000
-37.576500 0.000000
-37.510500 0.000000
-37.444600 0.000000
-37.378600 0.000000
-37.312700 0.000000
-37.246700 0.000000
-37.180800 0.000000
-37.114800 0.000000
-37.048900 0.000000
-36.982900 0.000000
-36.917000 0.000000
-36.851100 0.000000
-36.785100 0.000000
-36.719200 0.000000
-36.653200 0.000000
-36.587300 0.000000
-36.521300 0.000000
-36.455400 0.000000
-36.389400 0.000000
-36.323500 0.000000
-36.257600 0.000000
-36.191600 0.000000
-36.125700 0.000000
-36.059700 0.000000
-35.993800 0.000000
-35.927800 0.000000
-35.861900 0.000000
-35.795900 0.000000
-35.730000 0.000000
-35.664000 0.000000
-35.598100 0.000000
-35.532200 0.000000
-35.466200 0.000000
-35.400300 0.000000
-35.334300 0.000000
-35.268400 0.000000
-35.202400 0.000000
-35.136500 0.000000
-35.070500 0.000000
-35.004600 0.000000
-34.938700 0.000000
-34.872700 0.000000
-34.806800 0.000000
-34.740800 0.000000
-34.674900 0.000000
-34.608900 0.000000
-34.543000 0.000000
-34.477000 0.000000
-34.411100 0.000000
-34.345100 0.000000
-34.279200 0.000000
-34.213300 0.000000
-34.147300 0.000000
-34.081400 0.000000
-34.015400 0.000000
-33.949500 0.000000
-33.883500 0.000000
-33.817600 0.000000
-33.751600 0.000000
-33.685700 0.000000
-33.619800 0.000000
-33.553800 0.000000
-33.487900 0.000000
-33.421900 0.000000
-33.356000 0.000000
-33.290000 0.000000
-33.224100 0.000000
-33.158100 0.000000
-33.092200 0.000000
-33.026200 0.000000
-32.960300 0.000000
-32.894400 0.000000
-32.828400 0.000000
-32.762500 0.000000
-32.696500 0.000000
-32.630600 0.000000
-32.564600 0.000000
-32.498700 0.000000
-32.432700 0.000000
-32.366800 0.000000
-32.300800 0.000000
-32.234900 0.000000
-32.169000 0.000000
-32.103000 0.000000
-32.037100 0.000000
-31.971100 0.000000
-31.905200 0.000000
-31.839200 0.000000
-31.773300 0.000000
-31.707300 0.000000
-31.641400 0.000000
-31.575500 0.000000
-31.509500 0.000000
-31.443600 0.000000
-31.377600 0.000000
-31.311700 0.000000
-31.245700 0.000000
-31.179800 0.000000
-31.113800 0.000000
-31.047900 0.000000
-30.981900 0.000000
-30.916000 0.000000
-30.850100 0.000000
-30.784100 0.000000
-30.718200 0.000000
-30.652200 0.000000
-30.586300 0.000000
-30.520300 0.000000
-30.454400 0.000000
-30.388400 0.000000
-30.322500 0.000000
-30.256600 0.000000
-30.190600 0.000000
-30.124700 0.000000
-30.058700 0.000000
-29.992800 0.000000
-29.926800 0.000000
-29.860900 0.000000
-29.794900 0.000000
-29.729000 0.000000
-29.663000 0.000000
-29.597100 0.000000
-29.531200 0.000000
-29.465200 0.000000
-29.399300 0.000000
-29.333300 0.000000
-29.267400 0.000000
-29.201400 0.000000
-29.135500 0.000000
-29.069500 0.000000
-29.003600 0.000000
-28.937600 0.000000
-28.871700 0.000000
-28.805800 0.000000
-28.739800 0.000000
-28.673900 0.000000
-28.607900 0.000000
-28.542000 0.000000
-28.476000 0.000000
-28.410100 0.000000
-28.344100 0.000000
-28.278200 0.000000
-28.212300 0.000000
-28.146300 0.000000
-28.080400 0.000000
-28.014400 0.000000
-27.948500 0.000000
-27.882500 0.000000
-27.816600 0.000000
-27.750600 0.000000
-27.684700 0.000000
-27.618700 0.000000
-27.552800 0.000000
-27.486900 0.000000
-27.420900 0.000000
-27.355000 0.000000
-27.289000 0.000000
-27.223100 0.000000
-27.157100 0.000000
-27.091200 0.000000
-27.025200 0.000000
-26.959300 0.000000
-26.893400 0.000000
-26.827400 0.000000
-26.761500 0.000000
-26.695500 0.000000
-26.629600 0.000000
-26.563600 0.000000
-26.497700 0.000000
-26.431700 0.000000
-26.365800 0.000000
-26.299800 0.000000
-26.233900 0.000000
-26.168000 0.000000
-26.102000 0.000000
-26.036100 0.000000
-25.970100 0.000000
-25.904200 0.000000
-25.838200 0.000000
-25.772300 0.000000
-25.706300 0.000000
-25.640400 0.000000
-25.574400 0.000000
-25.508500 0.000000
-25.442600 0.000000
-25.376600 0.000000
-25.310700 0.000000
-25.244700 0.000000
-25.178800 0.000000
-25.112800 0.000000
-25.046900 0.000000
-24.980900 0.000000
-24.915000 0.000000
-24.849100 0.000000
-24.783100 0.000000
-24.717200 0.000000
-24.651200 0.000000
-24.585300 0.000000
-24.519300 0.000000
-24.453400 0.000000
-24.387400 0.000000
-24.321500 0.000000
-24.255500 0.000000
-24.189600 0.000000
-24.123700 0.000000
-24.057700 0.000000
-23.991800 0.000000
-23.925800 0.000000
-23.859900 0.000000
-23.793900 0.000000
-23.728000 0.000000
-23.662000 0.000000
-23.596100 0.000000
-23.530200 0.000000
-23.464200 0.000000
-23.398300 0.000000
-23.332300 0.000000
-23.266400 0.000000
-23.200400 0.000000
-23.134500 0.000000
-23.068500 0.000000
-23.002600 0.000000
-22.936600 0.000000
-22.870700 0.000000
-22.804800 0.000000
-22.738800 0.000000
-22.672900 0.000000
-22.606900 0.000000
-22.541000 0.000000
-22.475000 0.000000
-22.409100 0.000000
-22.343100 0.000000
-22.277200 0.000000
-22.211300 0.000000
-22.145300 0.000000
-22.079400 0.000000
-22.013400 0.000000
-21.947500 0.000000
-21.881500 0.000000
-21.815600 0.000000
-21.749600 0.000000
-21.683700 0.000000
-21.617700 0.000000
-21.551800 0.000000
-21.485900 0.000000
-21.419900 0.000000
-21.354000 0.000000
-21.288000 0.000000
-21.222100 0.000000
-21.156100 0.000000
-21.090200 0.000000
-21.024200 0.000000
-20.958300 0.000000
-20.892300 0.000000
-20.826400 0.000000
-20.760500 0.000000
-20.694500 0.000000
-20.628600 0.000000
-20.562600 0.000000
-20.496700 0.000000
-20.430700 0.000000
-20.364800 0.000000
-20.298800 0.000000
-20.232900 0.000000
-20.167000 0.000000
-20.101000 0.000000
-20.035100 0.000000
-19.969100 0.000000
-19.903200 0.000000
-19.837200 0.000000
-19.771300 0.000000
-19.705300 0.000000
-19.639400 0.000000
-19.573400 0.000000
-19.507500 0.000000
-19.441600 0.000000
-19.375600 0.000000
-19.309700 0.000000
-19.243700 0.000000
-19.177800 0.000000
-19.111800 0.000000
-19.045900 0.000000
-18.979900 0.000000
-18.914000 0.000000
-18.848100 0.000000
-18.782100 0.000000
-18.716200 0.000000
-18.650200 0.000000
-18.584300 0.000000
-18.518300 0.000000
-18.452400 0.000000
-18.386400 0.000000
-18.320500 0.000000
-18.254500 0.000000
-18.188600 0.000000
-18.122700 0.000000
-18.056700 0.000000
-17.990800 0.000000
-17.924800 0.000000
-17.858900 0.000000
-17.792900 0.000000
-17.727000 0.000000
-17.661000 0.000000
-17.595100 0.000000
-17.529100 0.000000
-17.463200 0.000000
-17.397300 0.000000
-17.331300 0.000000
-17.265400 0.000000
-17.199400 0.000000
-17.133500 0.000000
-17.067500 0.000000
-17.001600 0.000000
-16.935600 0.000000
-16.869700 0.000000
-16.803800 0.000000
-16.737800 0.000000
-16.671900 0.000000
-16.605900 0.000000
-16.540000 0.000000
-16.474000 0.000000
-16.408100 0.000000
-16.342100 0.000000
-16.276200 0.000000
-16.210200 0.000000
-16.144300 0.000000
-16.078400 0.000000
-16.012400 0.000000
-15.946500 0.000000
-15.880500 0.000000
-15.814600 0.000000
-15.748600 0.000000
-15.682700 0.000000
-15.616700 0.000000
-15.550800 0.000000
-15.484900 0.000000
-15.418900 0.000000
-15.353000 0.000000
-15.287000 0.000000
-15.221100 0.000000
-15.155100 0.000000
-15.089200 0.000000
-15.023200 0.000000
-14.957300 0.000000
-14.891300 0.000000
-14.825400 0.000000
-14.759500 0.000000
-14.693500 0.000000
-14.627600 0.000000
-14.561600 0.000000
-14.495700 0.000000
-14.429700 0.000000
-14.363800 0.000000
-14.297800 0.000000
-14.231900 0.000000
-14.165900 0.000000
-14.100000 0.000000
-14.034100 0.000000
-13.968100 0.000000
-13.902200 0.000000
-13.836200 0.000000
-13.770300 0.000000
-13.704300 0.000000
-13.638400 0.000000
-13.572400 0.000000
-13.506500 0.000000
-13.440600 0.000000
-13.374600 0.000000
-13.308700 0.000000
-13.242700 0.000000
-13.176800 0.000000
-13.110800 0.000000
-13.044900 0.000000
-12.978900 0.000000
-12.913000 0.000000
-12.847000 0.000000
-12.781100 0.000000
-12.715200 0.000000
-12.649200 0.000000
-12.583300 0.000000
-12.517300 0.000000
-12.451400 0.000000
-12.385400 0.000000
-12.319500 0.000000
-12.253500 0.000000
-12.187600 0.000000
-12.121700 0.000000
-12.055700 0.000000
-11.989800 0.000000
-11.923800 0.000000
-11.857900 0.000000
-11.791900 0.000000
-11.726000 0.000000
-11.660000 0.000000
-11.594100 0.000000
-11.528100 0.000000
-11.462200 0.000000
-11.396300 0.000000
-11.330300 0.000000
-11.264400 0.000000
-11.198400 0.000000
-11.132500 0.000000
-11.066500 0.000000
-11.000600 0.000000
-10.934600 0.000000
-10.868700 0.000000
-10.802800 0.000000
-10.736800 0.000000
-10.670900 0.000000
-10.604900 0.000000
-10.539000 0.000000
-10.473000 0.000000
-10.407100 0.000000
-10.341100 0.000000
-10.275200 0.000000
-10.209200 0.000000
-10.143300 0.000000
-10.077400 0.000000
-10.011400 0.000000
-9.945500 0.000000
-9.879500 0.000000
-9.813600 0.000000
-9.747600 0.000000
-9.681700 0.000000
-9.615700 0.000000
-9.549800 0.000000
-9.483800 0.000000
-9.417900 0.000000
-9.352000 0.000000
-9.286000 0.000000
-9.220100 0.000000
-9.154100 0.000000
-9.088200 0.000000
-9.022200 0.000000
-8.956300 0.000000
-8.890300 0.000000
-8.824400 0.000000
-8.758500 0.000000
-8.692500 0.000000
-8.626600 0.000000
-8.560600 0.000000
-8.494700 0.000000
-8.428700 0.000000
-8.362800 0.000000
-8.296800 0.000000
-8.230900 0.000000
-8.164900 0.000000
-8.099000 0.000000
-8.033100 0.000000
-7.967100 0.000000
-7.901200 0.000000
-7.835200 0.000000
-7.769300 0.000000
-7.703300 0.000000
-7.637400 0.000000
-7.571400 0.000000
-7.505500 0.000000
-7.439600 0.000000
-7.373600 0.000000
-7.307700 0.000000
-7.241700 0.000000
-7.175800 0.000000
-7.109800 0.000000
-7.043900 0.000000
-6.977900 0.000000
-6.912000 0.000000
-6.846000 0.000000
-6.780100 0.000000
-6.714200 0.000000
-6.648200 0.000000
-6.582300 0.000000
-6.516300 0.000000
-6.450400 0.000000
-6.384400 0.000000
-6.318500 0.000000
-6.252500 0.000000
-6.186600 0.000000
-6.120600 0.000000
-6.054700 0.000000
-5.988800 0.000000
-5.922800 0.000000
-5.856900 0.000000
-5.790900 0.000000
-5.725000 0.000000
-5.659000 0.000000
-5.593100 0.000000
-5.527100 0.000000
-5.461200 0.000000
-5.395300 0.000000
-5.329300 0.000000
-5.263400 0.000000
-5.197400 0.000000
-5.131500 0.000000
-5.065500 0.000000
-4.999600 0.000000
-4.933600 0.000000
-4.867700 0.000000
-4.801700 0.000000
-4.735800 0.000000
-4.669900 0.000000
-4.603900 0.000000
-4.538000 0.000000
-4.472000 0.000000
-4.406100 0.000000
-4.340100 0.000000
-4.274200 0.000000
-4.208200 0.000000
-4.142300 0.000000
-4.076400 0.000000
-4.010400 0.000000
-3.944500 0.000000
-3.878500 0.000000
-3.812600 0.000000
-3.746600 0.000000
-3.680700 0.000000
-3.614700 0.000000
-3.548800 0.000000
-3.482800 0.000000
-3.416900 0.000000
-3.351000 0.000000
-3.285000 0.000000
-3.219100 0.000000
-3.153100 0.000000
-3.087200 0.000000
-3.021200 0.000000
-2.955300 0.000000
-2.889300 0.000000
-2.823400 0.000000
-2.757400 0.000000
-2.691500 0.000000
-2.625600 0.000000
-2.559600 0.000000
-2.493700 0.000000
-2.427700 0.000000
-2.361800 0.000000
-2.295800 0.000000
-2.229900 0.000000
-2.163900 0.003500
-2.098000 0.017200
-2.032100 0.025400
-1.966100 0.030400
-1.900200 0.035200
-1.834200 0.041000
-1.768300 0.046400
-1.702300 0.050500
-1.636400 0.053800
-1.570400 0.057500
-1.504500 0.061600
-1.438500 0.066000
-1.372600 0.070500
-1.306700 0.075500
-1.240700 0.080500
-1.174800 0.084900
-1.108800 0.091300
-1.042900 0.099700
-0.976900 0.108000
-0.911000 0.106400
-0.845000 0.108200
-0.779100 0.110800
-0.713200 0.113200
-0.647200 0.115200
-0.581300 0.116400
-0.515300 0.117300
-0.449400 0.119300
-0.383400 0.122000
-0.317500 0.124900
-0.251500 0.127800
-0.185600 0.131000
-0.119600 0.134600
-0.053700 0.138000
0.012200 0.142100
0.078200 0.146700
0.144100 0.151700
0.210100 0.158000
0.276000 0.167300
0.342000 0.179200
0.407900 0.195500
0.473900 0.218100
0.539800 0.403200
0.605700 0.590700
0.671700 0.614600
0.737600 0.701000
0.803600 0.725200
0.869500 0.678000
0.935500 0.606700
1.001400 0.520800
1.067400 0.442800
1.133300 0.419600
1.199300 0.396700
1.265200 0.417500
1.331100 0.434700
1.397100 0.617000
1.463000 0.727500
1.529000 0.875200
1.594900 1.006000
1.660900 1.197900
1.726800 1.250100
1.792800 1.567200
1.858700 1.372700
1.924700 1.301400
1.990600 1.302000
2.056500 1.358800
2.122500 1.348300
2.188400 1.159900
2.254400 1.059800
2.320300 0.984200
2.386300 0.959100
2.452200 0.406300
2.518200 0.272300
2.584100 0.351500
2.650000 0.509900
2.716000 0.803900
2.781900 1.016000
2.847900 1.181700
2.913800 1.273300
2.979800 1.375600
3.045700 1.584400
3.111700 1.752200
3.177600 1.580000
3.243600 1.264500
3.309500 1.125500
3.375400 1.735400
3.441400 2.110000
3.507300 1.999200
3.573300 1.477300
3.639200 1.316900
3.705200 1.167900
3.771100 1.114400
3.837100 1.035800
3.903000 0.992100
3.968900 1.049000
4.034900 1.118000
4.100800 0.837800
4.166800 0.809300
4.232700 0.875700
4.298700 0.926600
4.364600 1.112500
4.430600 1.332800
4.496500 1.247300
4.562500 1.110300
4.628400 1.108000
4.694300 1.166300
4.760300 1.255800
4.826200 1.113400
4.892200 1.364900
4.958100 1.123300
5.024100 0.988800
5.090000 1.337400
5.156000 2.142900
5.221900 1.539000
5.287900 1.330600
5.353800 1.613400
5.419700 1.770900
5.485700 1.648200
5.551600 1.584200
5.617600 1.803100
5.683500 1.902000
5.749500 1.770100
5.815400 1.516100
5.881400 1.727700
5.947300 2.892400
6.013200 2.811100
6.079200 2.336500
6.145100 1.881600
6.211100 2.057300
6.277000 1.764300
6.343000 2.168700
6.408900 2.295700
6.474900 2.790400
6.540800 2.371200
6.606800 2.143700
6.672700 2.243500
6.738600 2.151700
6.804600 2.094200
6.870500 2.011500
6.936500 2.068000
7.002400 2.143500
7.068400 2.401200
7.134300 2.456100
7.200300 2.744900
7.266200 3.244900
7.332100 3.098500
7.398100 2.627500
7.464000 2.370200
7.530000 2.303300
7.595900 1.975700
7.661900 0.731300
7.727800 0.480500
7.793800 0.373200
7.859700 0.361800
7.925700 0.352400
7.991600 0.345700
8.057500 0.343000
8.123500 0.336400
8.189400 0.327300
8.255400 0.321600
8.321300 0.321700
8.387300 0.320500
8.453200 0.320300
8.519200 0.319300
8.585100 0.318900
8.651100 0.319900
8.717000 0.319600
8.782900 0.318600
8.848900 0.317900
8.914800 0.317100
8.980800 0.317200
9.046700 0.317100
9.112700 0.318500
9.178600 0.326300
9.244600 0.312500
9.310500 0.290500
9.376400 0.290400
9.442400 0.289400
9.508300 0.289500
9.574300 0.289000
9.640200 0.286600
9.706200 0.284300
9.772100 0.281700
9.838100 0.277900
9.904000 0.274300
9.970000 0.270300
10.035900 0.267000
10.101800 0.270400
10.167800 0.275800
10.233700 0.263600
10.299700 0.254500
10.365600 0.251100
10.431600 0.249300
10.497500 0.248600
10.563500 0.248300
10.629400 0.245900
10.695300 0.248600
10.761300 0.251000
10.827200 0.252200
10.893200 0.247700
10.959100 0.250700
11.025100 0.261800
11.091000 0.278400
11.157000 0.260000
11.222900 0.249300
11.288900 0.237100
11.354800 0.223100
11.420700 0.219000
11.486700 0.220600
11.552600 0.224800
11.618600 0.216200
11.684500 0.204700
11.750500 0.199100
11.816400 0.195500
11.882400 0.195500
11.948300 0.199900
12.014200 0.203300
12.080200 0.217000
12.146100 0.243400
12.212100 0.249400
12.278000 0.242200
12.344000 0.230300
12.409900 0.216700
12.475900 0.205000
12.541800 0.188800
12.607800 0.172400
12.673700 0.160800
12.739600 0.152500
12.805600 0.146900
12.871500 0.159900
12.937500 0.181700
13.003400 0.255700
13.069400 0.331700
13.135300 0.376100
13.201300 0.369200
13.267200 0.337500
13.333200 0.314800
13.399100 0.298700
13.465000 0.285200
13.531000 0.269300
13.596900 0.261500
13.662900 0.259500
13.728800 0.269100
13.794800 0.245300
13.860700 0.230200
13.926700 0.220600
13.992600 0.214100
14.058500 0.245100
14.124500 0.270600
14.190400 0.284900
14.256400 0.269600
14.322300 0.265500
14.388300 0.265600
14.454200 0.272300
14.520200 0.283600
14.586100 0.288800
14.652100 0.294500
14.718000 0.296200
14.783900 0.298300
14.849900 0.299600
14.915800 0.299100
14.981800 0.290400
15.047700 0.285800
15.113700 0.284800
15.179600 0.285600
15.245600 0.285900
15.311500 0.287300
15.377400 0.284400
15.443400 0.273800
15.509300 0.266500
15.575300 0.252600
15.641200 0.246400
15.707200 0.237700
15.773100 0.228700
15.839100 0.222800
15.905000 0.215900
15.971000 0.208300
16.036900 0.204100
16.102800 0.202500
16.168800 0.203700
16.234700 0.206800
16.300700 0.224000
16.366600 0.243700
16.432600 0.267500
16.498500 0.325600
16.564500 0.391800
16.630400 0.425600
16.696400 0.444600
16.762300 0.413300
16.828200 0.399100
16.894200 0.388900
16.960100 0.384800
17.026100 0.402000
17.092000 0.402700
17.158000 0.389000
17.223900 0.384400
17.289900 0.386400
17.355800 0.379800
17.421700 0.373400
17.487700 0.377000
17.553600 0.380400
17.619600 0.381800
17.685500 0.383400
17.751500 0.391000
17.817400 0.398100
17.883400 0.404400
17.949300 0.408900
18.015300 0.409500
18.081200 0.405200
18.147100 0.405100
18.213100 0.404200
18.279000 0.395300
18.345000 0.402300
18.410900 0.394100
18.476900 0.388600
18.542800 0.388200
18.608800 0.390800
18.674700 0.396900
18.740600 0.404000
18.806600 0.410700
18.872500 0.417300
18.938500 0.423800
19.004400 0.436300
19.070400 0.439100
19.136300 0.436200
19.202300 0.437300
19.268200 0.442100
19.334200 0.449500
19.400100 0.456400
19.466000 0.463900
19.532000 0.464900
19.597900 0.463700
19.663900 0.461200
19.729800 0.459600
19.795800 0.459800
19.861700 0.464600
19.927700 0.474700
19.993600 0.484800
20.059600 0.534900
20.125500 0.481700
20.191400 0.473200
20.257400 0.471700
20.323300 0.475600
20.389300 0.473100
20.455200 0.474800
20.521200 0.484400
20.587100 0.486400
20.653100 0.487100
20.719000 0.487900
20.784900 0.488700
20.850900 0.491100
20.916800 0.487600
20.982800 0.506800
21.048700 0.491800
21.114700 0.485500
21.180600 0.480600
21.246600 0.475600
21.312500 0.470000
21.378500 0.461100
21.444400 0.452800
21.510300 0.445900
21.576300 0.443600
21.642200 0.443900
21.708200 0.442800
21.774100 0.442000
21.840100 0.441100
21.906000 0.447700
21.972000 0.440500
22.037900 0.436200
22.103800 0.434400
22.169800 0.433000
22.235700 0.433000
22.301700 0.432300
22.367600 0.433200
22.433600 0.432900
22.499500 0.426400
22.565500 0.418300
22.631400 0.404700
22.697400 0.398100
22.763300 0.393900
22.829200 0.390300
22.895200 0.386300
22.961100 0.381300
23.027100 0.376500
23.093000 0.372800
23.159000 0.374500
23.224900 0.375100
23.290900 0.373800
23.356800 0.375100
23.422700 0.383500
23.488700 0.388400
23.554600 0.408500
23.620600 0.419600
23.686500 0.443500
23.752500 0.449100
23.818400 0.461000
23.884400 0.525700
23.950300 0.537100
24.016300 0.582300
24.082200 0.526700
24.148100 0.503200
24.214100 0.537400
24.280000 0.508500
24.346000 0.505200
24.411900 0.509500
24.477900 0.508500
24.543800 0.508800
24.609800 0.510300
24.675700 0.513300
24.741700 0.505000
24.807600 0.501600
24.873500 0.502800
24.939500 0.504500
25.005400 0.510200
25.071400 0.517700
25.137300 0.525200
25.203300 0.535300
25.269200 0.557100
25.335200 0.520000
25.401100 0.491200
25.467000 0.475300
25.533000 0.464000
25.598900 0.455800
25.664900 0.448400
25.730800 0.440500
25.796800 0.432300
25.862700 0.425400
25.928700 0.421600
25.994600 0.420100
26.060600 0.419800
26.126500 0.423000
26.192400 0.423500
26.258400 0.417900
26.324300 0.413900
26.390300 0.411200
26.456200 0.409200
26.522200 0.404700
26.588100 0.390000
26.654100 0.392900
26.720000 0.403100
26.785900 0.422500
26.851900 0.444400
26.917800 0.468500
26.983800 0.504000
27.049700 0.558700
27.115700 0.604100
27.181600 0.642800
27.247600 0.684000
27.313500 0.650400
27.379500 0.591500
27.445400 0.542800
27.511300 0.514400
27.577300 0.491400
27.643200 0.425000
27.709200 0.396000
27.775100 0.403800
27.841100 0.425800
27.907000 0.473100
27.973000 0.526500
28.038900 0.547400
28.104900 0.552100
28.170800 0.569000
28.236700 0.606300
28.302700 0.649600
28.368600 0.677500
28.434600 0.656200
28.500500 0.664000
28.566500 0.670800
28.632400 0.664500
28.698400 0.646400
28.764300 0.640100
28.830200 0.639300
28.896200 0.630300
28.962100 0.613800
29.028100 0.607200
29.094000 0.661300
29.160000 0.613600
29.225900 0.593900
29.291900 0.592600
29.357800 0.593200
29.423800 0.593000
29.489700 0.591000
29.555600 0.592800
29.621600 0.594300
29.687500 0.603600
29.753500 0.624200
29.819400 0.652000
29.885400 0.659300
29.951300 0.646200
30.017300 0.612600
30.083200 0.587100
30.149100 0.570200
30.215100 0.556300
30.281000 0.546300
30.347000 0.544800
30.412900 0.554300
30.478900 0.524400
30.544800 0.492300
30.610800 0.470100
30.676700 0.449200
30.742700 0.428200
30.808600 0.408800
30.874500 0.400100
30.940500 0.393400
31.006400 0.392500
31.072400 0.393700
31.138300 0.397900
31.204300 0.421200
31.270200 0.396500
31.336200 0.400200
31.402100 0.401000
31.468100 0.402600
31.534000 0.410000
31.599900 0.419200
31.665900 0.444800
31.731800 0.471500
31.797800 0.446100
31.863700 0.391600
31.929700 0.382100
31.995600 0.363100
32.061600 0.336700
32.127500 0.310400
32.193400 0.294000
32.259400 0.279700
32.325300 0.260800
32.391300 0.252600
32.457200 0.251300
32.523200 0.255100
32.589100 0.262300
32.655100 0.270600
32.721000 0.276900
32.787000 0.286600
32.852900 0.332100
32.918800 0.344600
32.984800 0.364800
33.050700 0.404100
33.116700 0.446300
33.182600 0.491300
33.248600 0.482900
33.314500 0.502700
33.380500 0.528300
33.446400 0.553100
33.512300 0.550500
33.578300 0.527500
33.644200 0.486300
33.710200 0.464700
33.776100 0.453300
33.842100 0.454100
33.908000 0.459100
33.974000 0.490200
34.039900 0.516500
34.105900 0.543700
34.171800 0.595300
34.237700 0.621800
34.303700 0.643300
34.369600 0.648100
34.435600 0.663500
34.501500 0.684900
34.567500 0.710100
34.633400 0.737900
34.699400 0.745700
34.765300 0.754900
34.831200 0.731800
34.897200 0.745700
34.963100 0.755100
35.029100 0.702700
35.095000 0.659100
35.161000 0.627100
35.226900 0.586900
35.292900 0.553300
35.358800 0.525300
35.424800 0.509800
35.490700 0.495900
35.556600 0.492500
35.622600 0.497500
35.688500 0.508000
35.754500 0.518200
35.820400 0.533400
35.886400 0.567300
35.952300 0.583700
36.018300 0.592100
36.084200 0.615400
36.150200 0.612600
36.216100 0.607600
36.282000 0.593300
36.348000 0.582600
36.413900 0.598800
36.479900 0.548700
36.545800 0.530000
36.611800 0.523700
36.677700 0.537700
36.743700 0.582900
36.809600 0.611100
36.875500 0.622000
36.941500 0.630600
37.007400 0.634500
37.073400 0.605600
37.139300 0.584700
37.205300 0.594300
37.271200 0.615700
37.337200 0.634300
37.403100 0.660300
37.469100 0.678000
37.535000 0.687500
37.600900 0.695500
37.666900 0.701200
37.732800 0.684800
37.798800 0.714600
37.864700 0.727100
37.930700 0.672600
37.996600 0.659900
38.062600 0.652700
38.128500 0.616300
38.194400 0.609200
38.260400 0.594200
38.326300 0.577600
38.392300 0.583200
38.458200 0.600300
38.524200 0.651900
38.590100 0.643900
38.656100 0.676500
38.722000 0.723000
38.788000 0.742800
38.853900 0.774900
38.919800 0.821700
38.985800 0.935600
39.051700 0.985300
39.117700 1.019700
39.183600 1.074800
39.249600 1.118800
39.315500 1.217800
39.381500 1.347600
39.447400 1.737100
39.513400 2.309500
39.579300 4.226800
39.645200 10.071900
39.711200 7.593000
39.777100 4.789900
39.843100 5.056600
39.909000 3.590500
39.975000 2.016200
40.040900 1.442800
40.106900 1.174500
40.172800 0.974300
40.238700 0.935800
40.304700 0.824400
40.370600 0.783100
40.436600 0.765300
40.502500 0.756700
40.568500 0.766100
40.634400 0.768500
40.700400 0.735400
40.766300 0.694300
40.832300 0.662200
40.898200 0.644100
40.964100 0.638500
41.030100 0.657300
41.096000 0.645900
41.162000 0.633400
41.227900 0.637800
41.293900 0.643600
41.359800 0.640500
41.425800 0.645200
41.491700 0.650400
41.557600 0.670900
41.623600 0.667800
41.689500 0.649800
41.755500 0.639400
41.821400 0.644200
41.887400 0.670100
41.953300 0.652300
42.019300 0.657900
42.085200 0.651400
42.151200 0.642000
42.217100 0.627300
42.283000 0.606500
42.349000 0.597300
42.414900 0.595500
42.480900 0.586700
42.546800 0.567400
42.612800 0.555800
42.678700 0.547500
42.744700 0.540900
42.810600 0.538400
42.876600 0.535200
42.942500 0.539100
43.008400 0.550600
43.074400 0.555300
43.140300 0.573300
43.206300 0.618000
43.272200 0.675700
43.338200 0.680400
43.404100 0.685800
43.470100 0.698300
43.536000 0.721900
43.601900 0.724400
43.667900 0.745400
43.733800 0.741500
43.799800 0.732300
43.865700 0.712600
43.931700 0.698300
43.997600 0.688900
44.063600 0.682700
44.129500 0.678900
44.195500 0.678100
44.261400 0.685000
44.327300 0.709100
44.393300 0.731000
44.459200 0.739800
44.525200 0.759500
44.591100 0.795400
44.657100 0.836500
44.723000 0.890200
44.789000 1.007800
44.854900 1.017800
44.920800 1.055600
44.986800 1.127200
45.052700 1.207700
45.118700 1.304700
45.184600 1.432400
45.250600 1.633600
45.316500 2.084100
45.382500 1.578600
45.448400 1.403900
45.514400 1.756600
45.580300 1.570400
45.646200 1.472800
45.712200 1.303500
45.778100 1.127100
45.844100 1.008800
45.910000 0.981000
45.976000 0.945800
46.041900 0.951000
46.107900 0.968200
46.173800 0.959200
46.239700 0.957800
46.305700 0.961700
46.371600 0.962100
46.437600 0.951900
46.503500 0.948200
46.569500 0.957400
46.635400 0.947000
46.701400 0.886200
46.767300 0.804600
46.833300 0.768700
46.899200 0.749400
46.965100 0.725500
47.031100 0.705500
47.097000 0.709200
47.163000 0.709100
47.228900 0.701000
47.294900 0.708200
47.360800 0.731900
47.426800 0.772400
47.492700 0.820500
47.558700 0.825700
47.624600 0.826100
47.690500 0.827200
47.756500 0.827300
47.822400 0.806200
47.888400 0.770700
47.954300 0.738300
48.020300 0.714700
48.086200 0.688500
48.152200 0.673700
48.218100 0.673500
48.284000 0.655000
48.350000 0.648800
48.415900 0.654100
48.481900 0.655200
48.547800 0.660100
48.613800 0.689800
48.679700 0.671600
48.745700 0.670500
48.811600 0.677000
48.877600 0.687100
48.943500 0.705700
49.009400 0.739700
49.075400 0.776900
49.141300 0.778700
49.207300 0.790400
49.273200 0.763800
49.339200 0.743200
49.405100 0.745900
49.471100 0.717400
49.537000 0.732300
49.602900 0.798400
49.668900 0.748100
49.734800 0.732500
49.800800 0.689900
49.866700 0.643600
49.932700 0.614200
49.998600 0.606400
50.064600 0.617000
50.130500 0.623000
50.196500 0.623500
50.262400 0.644800
50.328300 0.671300
50.394300 0.650100
50.460200 0.636300
50.526200 0.644900
50.592100 0.675000
50.658100 0.678600
50.724000 0.674800
50.790000 0.684100
50.855900 0.681800
50.921900 0.672800
50.987800 0.677200
51.053700 0.673300
51.119700 0.682600
51.185600 0.685000
51.251600 0.689000
51.317500 0.677800
51.383500 0.673600
51.449400 0.665300
51.515400 0.647000
51.581300 0.655000
51.647200 0.679800
51.713200 0.698300
51.779100 0.678300
51.845100 0.647500
51.911000 0.629400
51.977000 0.609300
52.042900 0.577100
52.108900 0.563100
52.174800 0.570500
52.240800 0.580000
52.306700 0.590400
52.372600 0.586900
52.438600 0.618200
52.504500 0.613000
52.570500 0.624400
52.636400 0.621300
52.702400 0.629500
52.768300 0.629300
52.834300 0.632200
52.900200 0.638100
52.966100 0.644600
53.032100 0.641500
53.098000 0.657700
53.164000 0.658700
53.229900 0.687600
53.295900 0.720800
53.361800 0.723300
53.427800 0.713100
53.493700 0.712300
53.559700 0.699600
53.625600 0.687900
53.691500 0.682500
53.757500 0.689300
53.823400 0.680600
53.889400 0.672500
53.955300 0.672300
54.021300 0.666900
54.087200 0.662600
54.153200 0.690400
54.219100 0.727800
54.285100 0.719900
54.351000 0.712400
54.416900 0.720500
54.482900 0.730900
54.548800 0.717700
54.614800 0.699700
54.680700 0.724400
54.746700 0.748200
54.812600 0.785400
54.878600 0.792800
54.944500 0.774400
55.010400 0.741100
55.076400 0.739700
55.142300 0.736500
55.208300 0.745900
55.274200 0.718900
55.340200 0.727200
55.406100 0.777700
55.472100 0.822000
55.538000 0.853300
55.604000 0.852600
55.669900 0.874400
55.735800 0.860100
55.801800 0.829400
55.867700 0.769500
55.933700 0.720300
55.999600 0.699300
56.065600 0.693400
56.131500 0.706400
56.197500 0.709400
56.263400 0.707000
56.329300 0.722100
56.395300 0.735400
56.461200 0.742300
56.527200 0.752300
56.593100 0.806900
56.659100 0.862800
56.725000 0.849700
56.791000 0.825000
56.856900 0.851100
56.922900 0.855600
56.988800 0.852500
57.054700 0.842700
57.120700 0.834500
57.186600 0.834800
57.252600 0.785700
57.318500 0.766800
57.384500 0.762500
57.450400 0.761400
57.516400 0.788400
57.582300 0.839500
57.648200 0.861200
57.714200 0.867900
57.780100 0.885500
57.846100 0.891800
57.912000 0.927600
57.978000 0.967400
58.043900 1.040300
58.109900 1.053500
58.175800 1.102000
58.241800 1.119900
58.307700 1.202500
58.373600 1.247100
58.439600 1.279000
58.505500 1.239200
58.571500 1.094000
58.637400 1.037300
58.703400 1.059100
58.769300 1.113400
58.835300 1.144700
58.901200 1.162600
58.967200 1.095800
59.033100 1.082900
59.099000 1.118400
59.165000 1.203900
59.230900 1.183200
59.296900 1.194200
59.362800 1.216700
59.428800 1.138200
59.494700 0.996900
59.560700 0.933700
59.626600 0.931900
59.692500 0.935700
59.758500 0.919700
59.824400 0.854300
59.890400 0.826600
59.956300 0.789400
60.022300 0.778000
60.088200 0.788200
60.154200 0.822800
60.220100 0.837600
60.286100 0.839000
60.352000 0.836600
60.417900 0.856500
60.483900 0.789600
60.549800 0.740900
60.615800 0.687200
60.681700 0.622200
60.747700 0.577200
60.813600 0.573000
60.879600 0.538500
60.945500 0.498100
61.011400 0.483100
61.077400 0.484600
61.143300 0.489200
61.209300 0.514300
61.275200 0.590200
61.341200 0.612900
61.407100 0.681100
61.473100 0.681200
61.539000 0.651900
61.605000 0.630400
61.670900 0.599000
61.736800 0.568700
61.802800 0.545800
61.868700 0.602000
61.934700 0.537800
62.000600 0.510200
62.066600 0.476500
62.132500 0.442400
62.198500 0.413100
62.264400 0.386000
62.330400 0.364000
62.396300 0.339400
62.462200 0.327100
62.528200 0.325500
62.594100 0.344800
62.660100 0.343600
62.726000 0.292200
62.792000 0.284600
62.857900 0.260100
62.923900 0.246800
62.989800 0.232800
63.055700 0.195600
63.121700 0.163600
63.187600 0.151800
63.253600 0.144100
63.319500 0.137600
63.385500 0.117800
63.451400 0.094600
63.517400 0.071500
63.583300 0.050200
63.649300 0.030300
63.715200 0.018400
63.781100 0.012900
63.847100 0.009400
63.913000 0.006300
63.979000 0.003700
64.044900 0.001600
64.110900 0.000000
64.176800 0.000000
64.242800 0.000000
64.308700 0.000000
64.374600 0.000000
64.440600 0.000000
64.506500 0.000000
64.572500 0.000000
64.638400 0.000000
64.704400 0.000000
64.770300 0.000000
64.836300 0.000000
64.902200 0.000000
64.968200 0.000000
65.034100 0.000000
65.100000 0.000000
65.166000 0.000000
65.231900 0.000000
65.297900 0.000000
65.363800 0.000000
65.429800 0.000000
65.495700 0.000000
65.561700 0.000000
65.627600 0.000000
65.693600 0.000000
65.759500 0.000000
65.825400 0.000000
65.891400 0.000000
65.957300 0.000000
66.023300 0.000000
66.089200 0.000000
66.155200 0.000000
66.221100 0.000000
66.287100 0.000000
66.353000 0.000000
66.418900 0.000000
66.484900 0.000000
66.550800 0.000000
66.616800 0.000000
66.682700 0.000000
66.748700 0.000000
66.814600 0.000000
66.880600 0.000000
66.946500 0.000000
67.012500 0.000000
67.078400 0.000000
67.144300 0.000000
67.210300 0.000000
67.276200 0.000000
67.342200 0.000000
67.408100 0.000000
67.474100 0.000000
67.540000 0.000000
67.606000 0.000000
67.671900 0.000000
67.737800 0.000000
67.803800 0.000000
67.869700 0.000000
67.935700 0.000000
68.001600 0.000000
68.067600 0.000000
68.133500 0.000000
68.199500 0.000000
68.265400 0.000000
68.331400 0.000000
68.397300 0.000000
68.463200 0.000000
68.529200 0.000000
68.595100 0.000000
68.661100 0.000000
68.727000 0.000000
68.793000 0.000000
68.858900 0.000000
68.924900 0.000000
68.990800 0.000000
69.056700 0.000000
69.122700 0.000000
69.188600 0.000000
69.254600 0.000000
69.320500 0.000000
69.386500 0.000000
69.452400 0.000000
69.518400 0.000000
69.584300 0.000000
69.650300 0.000000
69.716200 0.000000
69.782100 0.000000
69.848100 0.000000
69.914000 0.000000
69.980000 0.000000
70.045900 0.000000
70.111900 0.000000
e
