set title 'mp-24726 - Density of States'
set xlabel 'Energy (eV)'
set ylabel 'DOS (states/eV)'
set grid
set xrange [-10:10]
set yrange [0:4.099]
set xzeroaxis lt -1
set terminal png size 800,600
set output 'mp-24726_dos_gnuplot.png'
plot '-' using 1:2 with lines title 'DOS'
-30.719800 0.000000
-30.689200 0.000000
-30.658600 0.000000
-30.628100 0.000000
-30.597500 0.000000
-30.567000 0.000000
-30.536400 0.000000
-30.505800 0.000000
-30.475300 0.000000
-30.444700 0.000000
-30.414200 0.000000
-30.383600 0.000000
-30.353000 0.000000
-30.322500 0.000000
-30.291900 0.000000
-30.261400 0.000000
-30.230800 0.000000
-30.200300 0.000000
-30.169700 0.000000
-30.139100 0.000000
-30.108600 0.000000
-30.078000 0.000000
-30.047500 0.000000
-30.016900 0.000000
-29.986300 0.000000
-29.955800 0.000000
-29.925200 0.000000
-29.894700 0.000000
-29.864100 0.000000
-29.833500 0.000000
-29.803000 0.000000
-29.772400 0.000000
-29.741900 0.000000
-29.711300 0.000000
-29.680800 0.000000
-29.650200 0.000000
-29.619600 0.000000
-29.589100 0.000000
-29.558500 0.000000
-29.528000 0.000000
-29.497400 0.000000
-29.466800 0.000000
-29.436300 0.000000
-29.405700 0.000000
-29.375200 0.000000
-29.344600 0.000000
-29.314000 0.000000
-29.283500 0.000000
-29.252900 0.000000
-29.222400 0.000000
-29.191800 0.000000
-29.161300 0.000000
-29.130700 0.000000
-29.100100 0.000000
-29.069600 0.000000
-29.039000 0.000000
-29.008500 0.000000
-28.977900 0.000000
-28.947300 0.000000
-28.916800 0.000000
-28.886200 0.000000
-28.855700 0.000000
-28.825100 0.000000
-28.794500 0.000000
-28.764000 0.000000
-28.733400 0.000000
-28.702900 0.000000
-28.672300 0.000000
-28.641800 0.000000
-28.611200 0.000000
-28.580600 0.000000
-28.550100 0.000000
-28.519500 0.000000
-28.489000 0.000000
-28.458400 0.000000
-28.427800 0.000000
-28.397300 0.000000
-28.366700 0.000000
-28.336200 0.000000
-28.305600 0.000000
-28.275000 0.000000
-28.244500 0.000000
-28.213900 0.000000
-28.183400 0.000000
-28.152800 0.000000
-28.122200 0.000000
-28.091700 0.000000
-28.061100 0.000400
-28.030600 0.008200
-28.000000 0.096700
-27.969500 0.640000
-27.938900 2.547300
-27.908300 6.547700
-27.877800 11.426800
-27.847200 13.867900
-27.816700 12.378100
-27.786100 9.926100
-27.755500 9.566000
-27.725000 11.349300
-27.694400 14.769200
-27.663900 19.564000
-27.633300 23.759900
-27.602700 24.031700
-27.572200 19.054900
-27.541600 11.129300
-27.511100 4.411100
-27.480500 1.094500
-27.450000 0.159700
-27.419400 0.013100
-27.388800 0.000600
-27.358300 0.000000
-27.327700 0.000000
-27.297200 0.000000
-27.266600 0.000000
-27.236000 0.000000
-27.205500 0.000000
-27.174900 0.000000
-27.144400 0.000000
-27.113800 0.000000
-27.083200 0.000000
-27.052700 0.000000
-27.022100 0.000000
-26.991600 0.000000
-26.961000 0.000000
-26.930500 0.000000
-26.899900 0.000000
-26.869300 0.000000
-26.838800 0.000000
-26.808200 0.000000
-26.777700 0.000000
-26.747100 0.000000
-26.716500 0.000000
-26.686000 0.000000
-26.655400 0.000000
-26.624900 0.000000
-26.594300 0.000000
-26.563700 0.000000
-26.533200 0.000000
-26.502600 0.000000
-26.472100 0.000000
-26.441500 0.000000
-26.411000 0.000000
-26.380400 0.000000
-26.349800 0.000000
-26.319300 0.000000
-26.288700 0.000000
-26.258200 0.000000
-26.227600 0.000000
-26.197000 0.000000
-26.166500 0.000000
-26.135900 0.000000
-26.105400 0.000000
-26.074800 0.000000
-26.044200 0.000000
-26.013700 0.000000
-25.983100 0.000000
-25.952600 0.000000
-25.922000 0.000000
-25.891500 0.000000
-25.860900 0.000000
-25.830300 0.000000
-25.799800 0.000000
-25.769200 0.000000
-25.738700 0.000000
-25.708100 0.000000
-25.677500 0.000000
-25.647000 0.000000
-25.616400 0.000000
-25.585900 0.000000
-25.555300 0.000000
-25.524700 0.000000
-25.494200 0.000000
-25.463600 0.000000
-25.433100 0.000000
-25.402500 0.000000
-25.372000 0.000000
-25.341400 0.000000
-25.310800 0.000000
-25.280300 0.000000
-25.249700 0.000000
-25.219200 0.000000
-25.188600 0.000000
-25.158000 0.000000
-25.127500 0.000000
-25.096900 0.000000
-25.066400 0.000000
-25.035800 0.000000
-25.005200 0.000000
-24.974700 0.000000
-24.944100 0.000000
-24.913600 0.000000
-24.883000 0.000000
-24.852500 0.000000
-24.821900 0.000000
-24.791300 0.000000
-24.760800 0.000000
-24.730200 0.000000
-24.699700 0.000000
-24.669100 0.000000
-24.638500 0.000000
-24.608000 0.000000
-24.577400 0.000000
-24.546900 0.000000
-24.516300 0.000000
-24.485700 0.000000
-24.455200 0.000000
-24.424600 0.000000
-24.394100 0.000000
-24.363500 0.000000
-24.333000 0.000000
-24.302400 0.000000
-24.271800 0.000000
-24.241300 0.000000
-24.210700 0.000000
-24.180200 0.000000
-24.149600 0.000000
-24.119000 0.000000
-24.088500 0.000000
-24.057900 0.000000
-24.027400 0.000000
-23.996800 0.000000
-23.966200 0.000000
-23.935700 0.000000
-23.905100 0.000000
-23.874600 0.000000
-23.844000 0.000000
-23.813500 0.000000
-23.782900 0.000000
-23.752300 0.000000
-23.721800 0.000000
-23.691200 0.000000
-23.660700 0.000000
-23.630100 0.000000
-23.599500 0.000000
-23.569000 0.000000
-23.538400 0.000000
-23.507900 0.000000
-23.477300 0.000000
-23.446700 0.000000
-23.416200 0.000000
-23.385600 0.000000
-23.355100 0.000000
-23.324500 0.000000
-23.294000 0.000000
-23.263400 0.000000
-23.232800 0.000000
-23.202300 0.000000
-23.171700 0.000000
-23.141200 0.000000
-23.110600 0.000000
-23.080000 0.000000
-23.049500 0.000000
-23.018900 0.000000
-22.988400 0.000000
-22.957800 0.000000
-22.927200 0.000000
-22.896700 0.000000
-22.866100 0.000000
-22.835600 0.000000
-22.805000 0.000000
-22.774500 0.000000
-22.743900 0.000000
-22.713300 0.000000
-22.682800 0.000000
-22.652200 0.000000
-22.621700 0.000000
-22.591100 0.000000
-22.560500 0.000000
-22.530000 0.000000
-22.499400 0.000000
-22.468900 0.000000
-22.438300 0.000000
-22.407700 0.000000
-22.377200 0.000000
-22.346600 0.000000
-22.316100 0.000000
-22.285500 0.000000
-22.255000 0.000000
-22.224400 0.000000
-22.193800 0.000000
-22.163300 0.000000
-22.132700 0.000000
-22.102200 0.000000
-22.071600 0.000000
-22.041000 0.000000
-22.010500 0.000000
-21.979900 0.000000
-21.949400 0.000000
-21.918800 0.000000
-21.888200 0.000000
-21.857700 0.000000
-21.827100 0.000000
-21.796600 0.000000
-21.766000 0.000000
-21.735500 0.000000
-21.704900 0.000000
-21.674300 0.000000
-21.643800 0.000000
-21.613200 0.000000
-21.582700 0.000000
-21.552100 0.000000
-21.521500 0.000000
-21.491000 0.000000
-21.460400 0.000000
-21.429900 0.000000
-21.399300 0.000000
-21.368700 0.000000
-21.338200 0.000000
-21.307600 0.000000
-21.277100 0.000000
-21.246500 0.000000
-21.216000 0.000000
-21.185400 0.000000
-21.154800 0.000000
-21.124300 0.000000
-21.093700 0.000000
-21.063200 0.000000
-21.032600 0.000000
-21.002000 0.000000
-20.971500 0.000000
-20.940900 0.000000
-20.910400 0.000000
-20.879800 0.000000
-20.849200 0.000000
-20.818700 0.000000
-20.788100 0.000000
-20.757600 0.000000
-20.727000 0.000000
-20.696400 0.000000
-20.665900 0.000000
-20.635300 0.000000
-20.604800 0.000000
-20.574200 0.000000
-20.543700 0.000000
-20.513100 0.000000
-20.482500 0.000000
-20.452000 0.000000
-20.421400 0.000000
-20.390900 0.000000
-20.360300 0.000000
-20.329700 0.000000
-20.299200 0.000000
-20.268600 0.000000
-20.238100 0.000000
-20.207500 0.000000
-20.176900 0.000000
-20.146400 0.000000
-20.115800 0.000000
-20.085300 0.000000
-20.054700 0.000000
-20.024200 0.000000
-19.993600 0.000000
-19.963000 0.000000
-19.932500 0.000000
-19.901900 0.000000
-19.871400 0.000000
-19.840800 0.000000
-19.810200 0.000000
-19.779700 0.000000
-19.749100 0.000000
-19.718600 0.000000
-19.688000 0.000000
-19.657400 0.000000
-19.626900 0.000000
-19.596300 0.000000
-19.565800 0.000000
-19.535200 0.000000
-19.504700 0.000000
-19.474100 0.000000
-19.443500 0.000000
-19.413000 0.000000
-19.382400 0.000000
-19.351900 0.000000
-19.321300 0.000000
-19.290700 0.000000
-19.260200 0.000000
-19.229600 0.000000
-19.199100 0.000000
-19.168500 0.000000
-19.137900 0.000000
-19.107400 0.000000
-19.076800 0.000000
-19.046300 0.000000
-19.015700 0.000000
-18.985200 0.000000
-18.954600 0.000000
-18.924000 0.000000
-18.893500 0.000000
-18.862900 0.000000
-18.832400 0.000000
-18.801800 0.000000
-18.771200 0.000000
-18.740700 0.000000
-18.710100 0.000000
-18.679600 0.000000
-18.649000 0.000000
-18.618400 0.000000
-18.587900 0.000000
-18.557300 0.000000
-18.526800 0.000000
-18.496200 0.000000
-18.465700 0.000000
-18.435100 0.000000
-18.404500 0.000000
-18.374000 0.000000
-18.343400 0.000000
-18.312900 0.000000
-18.282300 0.000000
-18.251700 0.000000
-18.221200 0.000000
-18.190600 0.000000
-18.160100 0.000000
-18.129500 0.000000
-18.098900 0.000000
-18.068400 0.000000
-18.037800 0.000000
-18.007300 0.000000
-17.976700 0.000000
-17.946200 0.000000
-17.915600 0.000000
-17.885000 0.000000
-17.854500 0.000000
-17.823900 0.000000
-17.793400 0.000000
-17.762800 0.000000
-17.732200 0.000000
-17.701700 0.000000
-17.671100 0.000000
-17.640600 0.000000
-17.610000 0.000000
-17.579400 0.000000
-17.548900 0.000000
-17.518300 0.000000
-17.487800 0.000000
-17.457200 0.000000
-17.426700 0.000000
-17.396100 0.000000
-17.365500 0.000000
-17.335000 0.000000
-17.304400 0.000000
-17.273900 0.000000
-17.243300 0.000000
-17.212700 0.000000
-17.182200 0.000000
-17.151600 0.000000
-17.121100 0.000000
-17.090500 0.000000
-17.059900 0.000000
-17.029400 0.000000
-16.998800 0.000000
-16.968300 0.000000
-16.937700 0.000000
-16.907200 0.000000
-16.876600 0.000000
-16.846000 0.000000
-16.815500 0.000000
-16.784900 0.000000
-16.754400 0.000000
-16.723800 0.000000
-16.693200 0.000000
-16.662700 0.000000
-16.632100 0.000000
-16.601600 0.000000
-16.571000 0.000000
-16.540400 0.000000
-16.509900 0.000000
-16.479300 0.000000
-16.448800 0.000000
-16.418200 0.000000
-16.387700 0.000000
-16.357100 0.000000
-16.326500 0.000000
-16.296000 0.000000
-16.265400 0.000000
-16.234900 0.000000
-16.204300 0.000000
-16.173700 0.000000
-16.143200 0.000000
-16.112600 0.000000
-16.082100 0.000000
-16.051500 0.000000
-16.020900 0.000000
-15.990400 0.000000
-15.959800 0.000000
-15.929300 0.000000
-15.898700 0.000000
-15.868200 0.000000
-15.837600 0.000000
-15.807000 0.000000
-15.776500 0.000000
-15.745900 0.000000
-15.715400 0.000000
-15.684800 0.000000
-15.654200 0.000000
-15.623700 0.000000
-15.593100 0.000000
-15.562600 0.000000
-15.532000 0.000000
-15.501400 0.000000
-15.470900 0.000000
-15.440300 0.000000
-15.409800 0.000000
-15.379200 0.000000
-15.348700 0.000000
-15.318100 0.000000
-15.287500 0.000000
-15.257000 0.000000
-15.226400 0.000000
-15.195900 0.000000
-15.165300 0.000000
-15.134700 0.000000
-15.104200 0.000000
-15.073600 0.000000
-15.043100 0.000000
-15.012500 0.000000
-14.981900 0.000000
-14.951400 0.000000
-14.920800 0.000000
-14.890300 0.000000
-14.859700 0.000000
-14.829200 0.000000
-14.798600 0.000000
-14.768000 0.000000
-14.737500 0.000000
-14.706900 0.000000
-14.676400 0.000000
-14.645800 0.000000
-14.615200 0.000000
-14.584700 0.000000
-14.554100 0.000000
-14.523600 0.000000
-14.493000 0.000000
-14.462400 0.000000
-14.431900 0.000000
-14.401300 0.000000
-14.370800 0.000000
-14.340200 0.000000
-14.309700 0.000000
-14.279100 0.000000
-14.248500 0.000000
-14.218000 0.000000
-14.187400 0.000000
-14.156900 0.000000
-14.126300 0.000000
-14.095700 0.000000
-14.065200 0.000000
-14.034600 0.000000
-14.004100 0.000000
-13.973500 0.000000
-13.942900 0.000000
-13.912400 0.000000
-13.881800 0.000000
-13.851300 0.000000
-13.820700 0.000000
-13.790100 0.000000
-13.759600 0.000000
-13.729000 0.000000
-13.698500 0.000000
-13.667900 0.000000
-13.637400 0.000000
-13.606800 0.000000
-13.576200 0.000000
-13.545700 0.000000
-13.515100 0.000000
-13.484600 0.000000
-13.454000 0.000000
-13.423400 0.000000
-13.392900 0.000000
-13.362300 0.000000
-13.331800 0.000000
-13.301200 0.000000
-13.270600 0.000000
-13.240100 0.000000
-13.209500 0.000000
-13.179000 0.000000
-13.148400 0.000000
-13.117900 0.000000
-13.087300 0.000000
-13.056700 0.000000
-13.026200 0.000000
-12.995600 0.000000
-12.965100 0.000000
-12.934500 0.000000
-12.903900 0.000000
-12.873400 0.000000
-12.842800 0.000000
-12.812300 0.000000
-12.781700 0.000000
-12.751100 0.000000
-12.720600 0.000000
-12.690000 0.000000
-12.659500 0.000000
-12.628900 0.000000
-12.598400 0.000000
-12.567800 0.000000
-12.537200 0.000000
-12.506700 0.000000
-12.476100 0.000000
-12.445600 0.000000
-12.415000 0.000000
-12.384400 0.000000
-12.353900 0.000000
-12.323300 0.000000
-12.292800 0.000000
-12.262200 0.000000
-12.231600 0.000000
-12.201100 0.000000
-12.170500 0.000000
-12.140000 0.000000
-12.109400 0.000000
-12.078900 0.000000
-12.048300 0.000000
-12.017700 0.000000
-11.987200 0.000000
-11.956600 0.000000
-11.926100 0.000000
-11.895500 0.000000
-11.864900 0.000000
-11.834400 0.000000
-11.803800 0.000000
-11.773300 0.000000
-11.742700 0.000000
-11.712100 0.000000
-11.681600 0.000000
-11.651000 0.000000
-11.620500 0.000000
-11.589900 0.000000
-11.559400 0.000000
-11.528800 0.000000
-11.498200 0.000000
-11.467700 0.000000
-11.437100 0.000000
-11.406600 0.000000
-11.376000 0.000000
-11.345400 0.000000
-11.314900 0.000000
-11.284300 0.000000
-11.253800 0.000000
-11.223200 0.000000
-11.192600 0.000000
-11.162100 0.000000
-11.131500 0.000000
-11.101000 0.000000
-11.070400 0.000000
-11.039900 0.000000
-11.009300 0.000000
-10.978700 0.000000
-10.948200 0.000000
-10.917600 0.000000
-10.887100 0.000000
-10.856500 0.000000
-10.825900 0.000000
-10.795400 0.000000
-10.764800 0.000000
-10.734300 0.000000
-10.703700 0.000000
-10.673100 0.000000
-10.642600 0.000000
-10.612000 0.000000
-10.581500 0.000000
-10.550900 0.000000
-10.520400 0.000000
-10.489800 0.000000
-10.459200 0.000000
-10.428700 0.000000
-10.398100 0.000000
-10.367600 0.000000
-10.337000 0.000000
-10.306400 0.000000
-10.275900 0.000000
-10.245300 0.000000
-10.214800 0.000000
-10.184200 0.000000
-10.153600 0.000000
-10.123100 0.000000
-10.092500 0.000000
-10.062000 0.000000
-10.031400 0.000000
-10.000900 0.000000
-9.970300 0.000000
-9.939700 0.000000
-9.909200 0.000000
-9.878600 0.000000
-9.848100 0.000000
-9.817500 0.000000
-9.786900 0.000000
-9.756400 0.000000
-9.725800 0.000000
-9.695300 0.000000
-9.664700 0.000000
-9.634100 0.000000
-9.603600 0.000000
-9.573000 0.000000
-9.542500 0.000000
-9.511900 0.000000
-9.481400 0.000000
-9.450800 0.000000
-9.420200 0.000000
-9.389700 0.000000
-9.359100 0.000000
-9.328600 0.000000
-9.298000 0.000000
-9.267400 0.000000
-9.236900 0.000000
-9.206300 0.000000
-9.175800 0.000000
-9.145200 0.000000
-9.114600 0.000000
-9.084100 0.000000
-9.053500 0.000000
-9.023000 0.000000
-8.992400 0.000000
-8.961900 0.000000
-8.931300 0.000000
-8.900700 0.000000
-8.870200 0.000000
-8.839600 0.000000
-8.809100 0.000000
-8.778500 0.000000
-8.747900 0.000000
-8.717400 0.000000
-8.686800 0.000000
-8.656300 0.000000
-8.625700 0.000000
-8.595100 0.000000
-8.564600 0.000000
-8.534000 0.000000
-8.503500 0.000000
-8.472900 0.000000
-8.442400 0.000000
-8.411800 0.000000
-8.381200 0.000000
-8.350700 0.000000
-8.320100 0.000000
-8.289600 0.000000
-8.259000 0.000000
-8.228400 0.000000
-8.197900 0.000000
-8.167300 0.000000
-8.136800 0.000000
-8.106200 0.000000
-8.075600 0.000000
-8.045100 0.000000
-8.014500 0.000000
-7.984000 0.000000
-7.953400 0.000000
-7.922900 0.000000
-7.892300 0.000000
-7.861700 0.000000
-7.831200 0.000000
-7.800600 0.000000
-7.770100 0.000000
-7.739500 0.000000
-7.708900 0.000000
-7.678400 0.000000
-7.647800 0.000000
-7.617300 0.000000
-7.586700 0.000000
-7.556100 0.000000
-7.525600 0.000000
-7.495000 0.000000
-7.464500 0.000000
-7.433900 0.000000
-7.403400 0.000000
-7.372800 0.000000
-7.342200 0.000000
-7.311700 0.000000
-7.281100 0.000000
-7.250600 0.000000
-7.220000 0.000000
-7.189400 0.000000
-7.158900 0.000000
-7.128300 0.000000
-7.097800 0.000000
-7.067200 0.000000
-7.036600 0.000000
-7.006100 0.000000
-6.975500 0.000000
-6.945000 0.000000
-6.914400 0.000000
-6.883900 0.000000
-6.853300 0.000000
-6.822700 0.000000
-6.792200 0.000000
-6.761600 0.000000
-6.731100 0.000000
-6.700500 0.000000
-6.669900 0.000000
-6.639400 0.000000
-6.608800 0.000000
-6.578300 0.000000
-6.547700 0.000000
-6.517100 0.000000
-6.486600 0.000000
-6.456000 0.000000
-6.425500 0.000000
-6.394900 0.000000
-6.364300 0.000000
-6.333800 0.000000
-6.303200 0.000000
-6.272700 0.000000
-6.242100 0.000000
-6.211600 0.000000
-6.181000 0.000000
-6.150400 0.000000
-6.119900 0.000000
-6.089300 0.000000
-6.058800 0.000000
-6.028200 0.000000
-5.997600 0.000000
-5.967100 0.000000
-5.936500 0.000000
-5.906000 0.000000
-5.875400 0.000000
-5.844800 0.000000
-5.814300 0.000000
-5.783700 0.000000
-5.753200 0.000000
-5.722600 0.000000
-5.692100 0.000000
-5.661500 0.000000
-5.630900 0.000000
-5.600400 0.000000
-5.569800 0.000000
-5.539300 0.000000
-5.508700 0.000000
-5.478100 0.000000
-5.447600 0.000000
-5.417000 0.000000
-5.386500 0.000000
-5.355900 0.000000
-5.325300 0.000000
-5.294800 0.000000
-5.264200 0.000000
-5.233700 0.000000
-5.203100 0.000000
-5.172600 0.000000
-5.142000 0.000000
-5.111400 0.000000
-5.080900 0.000000
-5.050300 0.000000
-5.019800 0.000000
-4.989200 0.000000
-4.958600 0.000000
-4.928100 0.000000
-4.897500 0.000000
-4.867000 0.000000
-4.836400 0.000100
-4.805800 0.001000
-4.775300 0.004700
-4.744700 0.012100
-4.714200 0.021400
-4.683600 0.032400
-4.653100 0.043100
-4.622500 0.049100
-4.591900 0.049800
-4.561400 0.050300
-4.530800 0.061600
-4.500300 0.073400
-4.469700 0.078000
-4.439100 0.082500
-4.408600 0.080300
-4.378000 0.066900
-4.347500 0.066200
-4.316900 0.089500
-4.286300 0.114800
-4.255800 0.120800
-4.225200 0.107800
-4.194700 0.097200
-4.164100 0.098000
-4.133600 0.099700
-4.103000 0.105800
-4.072400 0.116500
-4.041900 0.114200
-4.011300 0.112600
-3.980800 0.141100
-3.950200 0.176000
-3.919600 0.169300
-3.889100 0.129400
-3.858500 0.102500
-3.828000 0.109600
-3.797400 0.129800
-3.766800 0.141900
-3.736300 0.157300
-3.705700 0.174100
-3.675200 0.165100
-3.644600 0.155300
-3.614100 0.181000
-3.583500 0.211900
-3.552900 0.208200
-3.522400 0.173400
-3.491800 0.133900
-3.461300 0.114300
-3.430700 0.133500
-3.400100 0.188300
-3.369600 0.220000
-3.339000 0.210600
-3.308500 0.214700
-3.277900 0.228800
-3.247300 0.217600
-3.216800 0.194400
-3.186200 0.208400
-3.155700 0.253500
-3.125100 0.258200
-3.094600 0.213700
-3.064000 0.162100
-3.033400 0.135300
-3.002900 0.158800
-2.972300 0.225600
-2.941800 0.276100
-2.911200 0.282900
-2.880600 0.300700
-2.850100 0.332300
-2.819500 0.319200
-2.789000 0.249600
-2.758400 0.195000
-2.727800 0.223500
-2.697300 0.284100
-2.666700 0.275000
-2.636200 0.233400
-2.605600 0.220600
-2.575100 0.218800
-2.544500 0.246500
-2.513900 0.322700
-2.483400 0.394100
-2.452800 0.412000
-2.422300 0.397700
-2.391700 0.370500
-2.361100 0.316900
-2.330600 0.239900
-2.300000 0.218200
-2.269500 0.309300
-2.238900 0.392800
-2.208300 0.364700
-2.177800 0.304400
-2.147200 0.278300
-2.116700 0.302100
-2.086100 0.389500
-2.055600 0.481000
-2.025000 0.505300
-1.994400 0.495900
-1.963900 0.458500
-1.933300 0.375600
-1.902800 0.333300
-1.872200 0.389700
-1.841600 0.473900
-1.811100 0.469300
-1.780500 0.387400
-1.750000 0.350800
-1.719400 0.398600
-1.688800 0.487500
-1.658300 0.594600
-1.627700 0.676000
-1.597200 0.703000
-1.566600 0.697200
-1.536100 0.662700
-1.505500 0.596000
-1.474900 0.532400
-1.444400 0.529600
-1.413800 0.601200
-1.383300 0.705700
-1.352700 0.758800
-1.322100 0.737100
-1.291600 0.718600
-1.261000 0.742800
-1.230500 0.727400
-1.199900 0.675500
-1.169300 0.673900
-1.138800 0.687000
-1.108200 0.684200
-1.077700 0.655600
-1.047100 0.629800
-1.016600 0.663200
-0.986000 0.732600
-0.955400 0.757500
-0.924900 0.718000
-0.894300 0.683900
-0.863800 0.668300
-0.833200 0.658600
-0.802600 0.673500
-0.772100 0.710500
-0.741500 0.750000
-0.711000 0.772500
-0.680400 0.771700
-0.649800 0.735700
-0.619300 0.668700
-0.588700 0.624900
-0.558200 0.681500
-0.527600 0.898000
-0.497100 1.168700
-0.466500 1.264300
-0.435900 1.148900
-0.405400 0.987500
-0.374800 0.904500
-0.344300 0.926200
-0.313700 0.989500
-0.283100 0.999300
-0.252600 0.950600
-0.222000 0.897300
-0.191500 0.812300
-0.160900 0.702100
-0.130300 0.634900
-0.099800 0.603000
-0.069200 0.604400
-0.038700 0.653900
-0.008100 0.766400
0.022400 0.930600
0.053000 1.037600
0.083600 1.059600
0.114100 1.193600
0.144700 1.640800
0.175200 2.199200
0.205800 2.372400
0.236400 2.140100
0.266900 1.888900
0.297500 1.789900
0.328000 1.831000
0.358600 1.906200
0.389200 1.908100
0.419700 1.830900
0.450300 1.813200
0.480800 1.912600
0.511400 1.975700
0.541900 1.929600
0.572500 1.809300
0.603100 1.696900
0.633600 1.632600
0.664200 1.604600
0.694700 1.594000
0.725300 1.538800
0.755900 1.368900
0.786400 1.183300
0.817000 1.143300
0.847500 1.163900
0.878100 1.069600
0.908700 0.919500
0.939200 0.861800
0.969800 0.816500
1.000300 0.732800
1.030900 0.677500
1.061500 0.633800
1.092000 0.561300
1.122600 0.501200
1.153100 0.488600
1.183700 0.518900
1.214200 0.541600
1.244800 0.509400
1.275400 0.454500
1.305900 0.407900
1.336500 0.354500
1.367000 0.310900
1.397600 0.299800
1.428200 0.317200
1.458700 0.334800
1.489300 0.346000
1.519800 0.368300
1.550400 0.347300
1.581000 0.287700
1.611500 0.279000
1.642100 0.296100
1.672600 0.274600
1.703200 0.234100
1.733700 0.202200
1.764300 0.182200
1.794900 0.193600
1.825400 0.235300
1.856000 0.257800
1.886500 0.236300
1.917100 0.192700
1.947700 0.164800
1.978200 0.179500
2.008800 0.209200
2.039300 0.216100
2.069900 0.209400
2.100500 0.214000
2.131000 0.190900
2.161600 0.116800
2.192100 0.053300
2.222700 0.050800
2.253200 0.110500
2.283800 0.178000
2.314400 0.196200
2.344900 0.175400
2.375500 0.129500
2.406000 0.097000
2.436600 0.125400
2.467200 0.170900
2.497700 0.163400
2.528300 0.112600
2.558800 0.074000
2.589400 0.074800
2.620000 0.095200
2.650500 0.098300
2.681100 0.079300
2.711600 0.062500
2.742200 0.057700
2.772700 0.065000
2.803300 0.112500
2.833900 0.189900
2.864400 0.218400
2.895000 0.188500
2.925500 0.166800
2.956100 0.177500
2.986700 0.197700
3.017200 0.208300
3.047800 0.203600
3.078300 0.201200
3.108900 0.232300
3.139500 0.275600
3.170000 0.285500
3.200600 0.261100
3.231100 0.251000
3.261700 0.274400
3.292200 0.313300
3.322800 0.346600
3.353400 0.353800
3.383900 0.356300
3.414500 0.386000
3.445000 0.425100
3.475600 0.414300
3.506200 0.391900
3.536700 0.477200
3.567300 0.602400
3.597800 0.598900
3.628400 0.544600
3.659000 0.544500
3.689500 0.545500
3.720100 0.563500
3.750600 0.687300
3.781200 0.850900
3.811700 0.896300
3.842300 0.827600
3.872900 0.744800
3.903400 0.701400
3.934000 0.713500
3.964500 0.753400
3.995100 0.768100
4.025700 0.754100
4.056200 0.767800
4.086800 0.845200
4.117300 0.886800
4.147900 0.815800
4.178500 0.737500
4.209000 0.700200
4.239600 0.686700
4.270100 0.717200
4.300700 0.769600
4.331200 0.820900
4.361800 0.851100
4.392400 0.842900
4.422900 0.804000
4.453500 0.732700
4.484000 0.665500
4.514600 0.649100
4.545200 0.692100
4.575700 0.833100
4.606300 0.954100
4.636800 0.887400
4.667400 0.724600
4.698000 0.637600
4.728500 0.662200
4.759100 0.712900
4.789600 0.747900
4.820200 0.824700
4.850700 0.901900
4.881300 0.877500
4.911900 0.769000
4.942400 0.675700
4.973000 0.655400
5.003500 0.708100
5.034100 0.772000
5.064700 0.804700
5.095200 0.822400
5.125800 0.832000
5.156300 0.812900
5.186900 0.786100
5.217500 0.793700
5.248000 0.808900
5.278600 0.822000
5.309100 0.851000
5.339700 0.888000
5.370200 0.935700
5.400800 0.987800
5.431400 1.033900
5.461900 1.055600
5.492500 1.038400
5.523000 1.006000
5.553600 1.032800
5.584200 1.187800
5.614700 1.380000
5.645300 1.469500
5.675800 1.442500
5.706400 1.350600
5.737000 1.226400
5.767500 1.142100
5.798100 1.154100
5.828600 1.204200
5.859200 1.272200
5.889700 1.426400
5.920300 1.629700
5.950900 1.758200
5.981400 1.787000
6.012000 1.751600
6.042500 1.721200
6.073100 1.680400
6.103700 1.525100
6.134200 1.332800
6.164800 1.257600
6.195300 1.295300
6.225900 1.386300
6.256500 1.441100
6.287000 1.382100
6.317600 1.264600
6.348100 1.222100
6.378700 1.314300
6.409200 1.442600
6.439800 1.480300
6.470400 1.464000
6.500900 1.540800
6.531500 1.700200
6.562000 1.830000
6.592600 1.914500
6.623200 1.958000
6.653700 2.041700
6.684300 2.171400
6.714800 2.197300
6.745400 2.209300
6.776000 2.305900
6.806500 2.268700
6.837100 2.031800
6.867600 1.918300
6.898200 2.043700
6.928700 2.114600
6.959300 1.966100
6.989900 1.773500
7.020400 1.757100
7.051000 1.789500
7.081500 1.721400
7.112100 1.674500
7.142700 1.668200
7.173200 1.592800
7.203800 1.476200
7.234300 1.444300
7.264900 1.503500
7.295500 1.618500
7.326000 1.748500
7.356600 1.812200
7.387100 1.896600
7.417700 2.123500
7.448200 2.343400
7.478800 2.329500
7.509400 2.183300
7.539900 2.134800
7.570500 2.108000
7.601000 2.032700
7.631600 2.049300
7.662200 2.206200
7.692700 2.490300
7.723300 2.765000
7.753800 2.891200
7.784400 3.028900
7.815000 3.270300
7.845500 3.389400
7.876100 3.408400
7.906600 3.539600
7.937200 3.726100
7.967800 3.719200
7.998300 3.301900
8.028900 2.703900
8.059400 2.495400
8.090000 2.641400
8.120500 2.617000
8.151100 2.372100
8.181700 2.125500
8.212200 1.909600
8.242800 1.653900
8.273300 1.378400
8.303900 1.250500
8.334500 1.286400
8.365000 1.319100
8.395600 1.332800
8.426100 1.392800
8.456700 1.443300
8.487300 1.388200
8.517800 1.215800
8.548400 1.030600
8.578900 0.940900
8.609500 0.934800
8.640000 0.986300
8.670600 1.130200
8.701200 1.276200
8.731700 1.212600
8.762300 0.960500
8.792800 0.817000
8.823400 0.859300
8.854000 0.915300
8.884500 0.891300
8.915100 0.870300
8.945600 0.858900
8.976200 0.774000
9.006800 0.690600
9.037300 0.695100
9.067900 0.717200
9.098400 0.691500
9.129000 0.673800
9.159500 0.658500
9.190100 0.587100
9.220700 0.522800
9.251200 0.502800
9.281800 0.476300
9.312300 0.462300
9.342900 0.487400
9.373500 0.475200
9.404000 0.414900
9.434600 0.347500
9.465100 0.271500
9.495700 0.225500
9.526300 0.246100
9.556800 0.299200
9.587400 0.305100
9.617900 0.235100
9.648500 0.155000
9.679000 0.119900
9.709600 0.139400
9.740200 0.203000
9.770700 0.257300
9.801300 0.266800
9.831800 0.261400
9.862400 0.254100
9.893000 0.259800
9.923500 0.335900
9.954100 0.492600
9.984600 0.643000
10.015200 0.722400
10.045800 0.727100
10.076300 0.701700
10.106900 0.682000
10.137400 0.668200
10.168000 0.699400
10.198500 0.747200
10.229100 0.809900
10.259700 0.974000
10.290200 1.106100
10.320800 1.029400
10.351300 0.918400
10.381900 0.966400
10.412500 1.143300
10.443000 1.276100
10.473600 1.223600
10.504100 1.136300
10.534700 1.162300
10.565300 1.221500
10.595800 1.256800
10.626400 1.287900
10.656900 1.283700
10.687500 1.240800
10.718000 1.200400
10.748600 1.101200
10.779200 1.009500
10.809700 0.998000
10.840300 0.998000
10.870800 1.071300
10.901400 1.227500
10.932000 1.317800
10.962500 1.271100
10.993100 1.219300
11.023600 1.259500
11.054200 1.256700
11.084800 1.155200
11.115300 1.102800
11.145900 1.109500
11.176400 1.083800
11.207000 1.131900
11.237500 1.242300
11.268100 1.209300
11.298700 1.029700
11.329200 0.831200
11.359800 0.669300
11.390300 0.584000
11.420900 0.567300
11.451500 0.556400
11.482000 0.518300
11.512600 0.483600
11.543100 0.484900
11.573700 0.488800
11.604300 0.463900
11.634800 0.408700
11.665400 0.349300
11.695900 0.334400
11.726500 0.353000
11.757000 0.338300
11.787600 0.292200
11.818200 0.275000
11.848700 0.289700
11.879300 0.328100
11.909800 0.368600
11.940400 0.373300
11.971000 0.381500
12.001500 0.372400
12.032100 0.299000
12.062600 0.218900
12.093200 0.186400
12.123800 0.217900
12.154300 0.296200
12.184900 0.374600
12.215400 0.398900
12.246000 0.373000
12.276500 0.343100
12.307100 0.332400
12.337700 0.355200
12.368200 0.419900
12.398800 0.517800
12.429300 0.612600
12.459900 0.674200
12.490500 0.693400
12.521000 0.724000
12.551600 0.806200
12.582100 0.860100
12.612700 0.839000
12.643300 0.777700
12.673800 0.689500
12.704400 0.627500
12.734900 0.572500
12.765500 0.496700
12.796000 0.509000
12.826600 0.687900
12.857200 0.860400
12.887700 0.817000
12.918300 0.660500
12.948800 0.562200
12.979400 0.510300
13.010000 0.470100
13.040500 0.530400
13.071100 0.745800
13.101600 0.932900
13.132200 0.915800
13.162800 0.754300
13.193300 0.615600
13.223900 0.620000
13.254400 0.742100
13.285000 0.868200
13.315500 0.931600
13.346100 0.945500
13.376700 0.969000
13.407200 1.094300
13.437800 1.290500
13.468300 1.352800
13.498900 1.178000
13.529500 0.948200
13.560000 0.905800
13.590600 1.088100
13.621100 1.296400
13.651700 1.295200
13.682300 1.200500
13.712800 1.257400
13.743400 1.387500
13.773900 1.445700
13.804500 1.452500
13.835000 1.405000
13.865600 1.289100
13.896200 1.203600
13.926700 1.217600
13.957300 1.271800
13.987800 1.343900
14.018400 1.364600
14.049000 1.216100
14.079500 1.026100
14.110100 0.932600
14.140600 0.895300
14.171200 0.935600
14.201800 1.126300
14.232300 1.340000
14.262900 1.354500
14.293400 1.302800
14.324000 1.381800
14.354500 1.423700
14.385100 1.310100
14.415700 1.139600
14.446200 0.979500
14.476800 0.896900
14.507300 0.887200
14.537900 0.855400
14.568500 0.826200
14.599000 0.826100
14.629600 0.858900
14.660100 0.990900
14.690700 1.169200
14.721300 1.238600
14.751800 1.172900
14.782400 1.033500
14.812900 0.871000
14.843500 0.808100
14.874000 0.930000
14.904600 1.078300
14.935200 1.094200
14.965700 1.018100
14.996300 0.992800
15.026800 1.018700
15.057400 1.009700
15.088000 1.015800
15.118500 1.067600
15.149100 1.055700
15.179600 0.936100
15.210200 0.843900
15.240800 0.823600
15.271300 0.842100
15.301900 0.953600
15.332400 1.080100
15.363000 1.108500
15.393600 1.080000
15.424100 1.038900
15.454700 0.968500
15.485200 0.830800
15.515800 0.651400
15.546300 0.545400
15.576900 0.565400
15.607500 0.656500
15.638000 0.755400
15.668600 0.795200
15.699100 0.736400
15.729700 0.640300
15.760300 0.621300
15.790800 0.672000
15.821400 0.676300
15.851900 0.639000
15.882500 0.648600
15.913100 0.679200
15.943600 0.655900
15.974200 0.621300
16.004700 0.586200
16.035300 0.514800
16.065800 0.493200
16.096400 0.582400
16.127000 0.702500
16.157500 0.730000
16.188100 0.642300
16.218600 0.621700
16.249200 0.694600
16.279800 0.698600
16.310300 0.631600
16.340900 0.576400
16.371400 0.554500
16.402000 0.561100
16.432600 0.603900
16.463100 0.639300
16.493700 0.609000
16.524200 0.530400
16.554800 0.492100
16.585300 0.517600
16.615900 0.523400
16.646500 0.513500
16.677000 0.554800
16.707600 0.603900
16.738100 0.599800
16.768700 0.566900
16.799300 0.558100
16.829800 0.577600
16.860400 0.590500
16.890900 0.580300
16.921500 0.575200
16.952100 0.629600
16.982600 0.695300
17.013200 0.668900
17.043700 0.593600
17.074300 0.578900
17.104800 0.644900
17.135400 0.722200
17.166000 0.692300
17.196500 0.577800
17.227100 0.523100
17.257600 0.551600
17.288200 0.562000
17.318800 0.525600
17.349300 0.526100
17.379900 0.584400
17.410400 0.600600
17.441000 0.564200
17.471600 0.559300
17.502100 0.581000
17.532700 0.556900
17.563200 0.503800
17.593800 0.485800
17.624300 0.534300
17.654900 0.671800
17.685500 0.818500
17.716000 0.877800
17.746600 0.866200
17.777100 0.794400
17.807700 0.662700
17.838300 0.540900
17.868800 0.466700
17.899400 0.451700
17.929900 0.487200
17.960500 0.547900
17.991100 0.650400
18.021600 0.734700
18.052200 0.717900
18.082700 0.707900
18.113300 0.791300
18.143800 0.896300
18.174400 0.963300
18.205000 0.974500
18.235500 0.924000
18.266100 0.807900
18.296600 0.674500
18.327200 0.612200
18.357800 0.587900
18.388300 0.520500
18.418900 0.447200
18.449400 0.452200
18.480000 0.528700
18.510600 0.637500
18.541100 0.805900
18.571700 0.941800
18.602200 0.901200
18.632800 0.778900
18.663300 0.729600
18.693900 0.749100
18.724500 0.764800
18.755000 0.729300
18.785600 0.690100
18.816100 0.690600
18.846700 0.747300
18.877300 0.868300
18.907800 0.933500
18.938400 0.875900
18.968900 0.762800
18.999500 0.648500
19.030100 0.577500
19.060600 0.581900
19.091200 0.615000
19.121700 0.583900
19.152300 0.506800
19.182800 0.475100
19.213400 0.492400
19.244000 0.544600
19.274500 0.652000
19.305100 0.741000
19.335600 0.714900
19.366200 0.649800
19.396800 0.630400
19.427300 0.643500
19.457900 0.647700
19.488400 0.631400
19.519000 0.585900
19.549600 0.518800
19.580100 0.478700
19.610700 0.486000
19.641200 0.493900
19.671800 0.476100
19.702300 0.493300
19.732900 0.579600
19.763500 0.611100
19.794000 0.530100
19.824600 0.461300
19.855100 0.447900
19.885700 0.409000
19.916300 0.338300
19.946800 0.329300
19.977400 0.392200
20.007900 0.452800
20.038500 0.452800
20.069100 0.372200
20.099600 0.311900
20.130200 0.338500
20.160700 0.387800
20.191300 0.429900
20.221800 0.483500
20.252400 0.534100
20.283000 0.543000
20.313500 0.510500
20.344100 0.520900
20.374600 0.609000
20.405200 0.686600
20.435800 0.675500
20.466300 0.621700
20.496900 0.569900
20.527400 0.512700
20.558000 0.534900
20.588600 0.678300
20.619100 0.815700
20.649700 0.833000
20.680200 0.732900
20.710800 0.619700
20.741300 0.539300
20.771900 0.507200
20.802500 0.583400
20.833000 0.715300
20.863600 0.749600
20.894100 0.646800
20.924700 0.563400
20.955300 0.643000
20.985800 0.789000
21.016400 0.833500
21.046900 0.806600
21.077500 0.793600
21.108100 0.750900
21.138600 0.693800
21.169200 0.663700
21.199700 0.584000
21.230300 0.508500
21.260800 0.506500
21.291400 0.528500
21.322000 0.577100
21.352500 0.676300
21.383100 0.793300
21.413600 0.864400
21.444200 0.879500
21.474800 0.852600
21.505300 0.783100
21.535900 0.660200
21.566400 0.577800
21.597000 0.609900
21.627600 0.650900
21.658100 0.624200
21.688700 0.534400
21.719200 0.404400
21.749800 0.385300
21.780300 0.553300
21.810900 0.704200
21.841500 0.685400
21.872000 0.638300
21.902600 0.702500
21.933100 0.807200
21.963700 0.801300
21.994300 0.714900
22.024800 0.690500
22.055400 0.707100
22.085900 0.690900
22.116500 0.651000
22.147100 0.615300
22.177600 0.593600
22.208200 0.565300
22.238700 0.527800
22.269300 0.501300
22.299800 0.500200
22.330400 0.551800
22.361000 0.601000
22.391500 0.610800
22.422100 0.665900
22.452600 0.715600
22.483200 0.650200
22.513800 0.594800
22.544300 0.652400
22.574900 0.736400
22.605400 0.762500
22.636000 0.722700
22.666600 0.632500
22.697100 0.553200
22.727700 0.574900
22.758200 0.673400
22.788800 0.757400
22.819400 0.800400
22.849900 0.796600
22.880500 0.741800
22.911000 0.660600
22.941600 0.549300
22.972100 0.436500
23.002700 0.412700
23.033300 0.471200
23.063800 0.490800
23.094400 0.467900
23.124900 0.494600
23.155500 0.554700
23.186100 0.647100
23.216600 0.767700
23.247200 0.793700
23.277700 0.767200
23.308300 0.788700
23.338900 0.767800
23.369400 0.695200
23.400000 0.630100
23.430500 0.555100
23.461100 0.495400
23.491600 0.438700
23.522200 0.354700
23.552800 0.310600
23.583300 0.371300
23.613900 0.490600
23.644400 0.559700
23.675000 0.546200
23.705600 0.492700
23.736100 0.423200
23.766700 0.416800
23.797200 0.523100
23.827800 0.627700
23.858400 0.624500
23.888900 0.592300
23.919500 0.625900
23.950000 0.640700
23.980600 0.597100
24.011100 0.580000
24.041700 0.581300
24.072300 0.598200
24.102800 0.669500
24.133400 0.738700
24.163900 0.758700
24.194500 0.769900
24.225100 0.769900
24.255600 0.726300
24.286200 0.645800
24.316700 0.593900
24.347300 0.615800
24.377900 0.630600
24.408400 0.634400
24.439000 0.689300
24.469500 0.768600
24.500100 0.891700
24.530600 1.007700
24.561200 1.010500
24.591800 0.946700
24.622300 0.944400
24.652900 1.004800
24.683400 1.049200
24.714000 1.054900
24.744600 0.970300
24.775100 0.791000
24.805700 0.668900
24.836200 0.706400
24.866800 0.858200
24.897400 1.010600
24.927900 1.136600
24.958500 1.261200
24.989000 1.286200
25.019600 1.152000
25.050100 1.013400
25.080700 0.964600
25.111300 0.950800
25.141800 0.911000
25.172400 0.873000
25.202900 0.894800
25.233500 0.978800
25.264100 1.030600
25.294600 0.995200
25.325200 0.971200
25.355700 0.958600
25.386300 0.860800
25.416900 0.751100
25.447400 0.749300
25.478000 0.811300
25.508500 0.879500
25.539100 0.942500
25.569600 1.006800
25.600200 1.079800
25.630800 1.098900
25.661300 1.036700
25.691900 0.975600
25.722400 0.997800
25.753000 1.083700
25.783600 1.092300
25.814100 0.970400
25.844700 0.850500
25.875200 0.798200
25.905800 0.754200
25.936400 0.678000
25.966900 0.610700
25.997500 0.616600
26.028000 0.713500
26.058600 0.901700
26.089100 1.068600
26.119700 1.023000
26.150300 0.839300
26.180800 0.766300
26.211400 0.794800
26.241900 0.808400
26.272500 0.800900
26.303100 0.757800
26.333600 0.681600
26.364200 0.660400
26.394700 0.738600
26.425300 0.822100
26.455900 0.819200
26.486400 0.775000
26.517000 0.771100
26.547500 0.807600
26.578100 0.877000
26.608600 0.923600
26.639200 0.870200
26.669800 0.775200
26.700300 0.691200
26.730900 0.601000
26.761400 0.574700
26.792000 0.645600
26.822600 0.715000
26.853100 0.691700
26.883700 0.623400
26.914200 0.627300
26.944800 0.683900
26.975400 0.714300
27.005900 0.738600
27.036500 0.727200
27.067000 0.671200
27.097600 0.647600
27.128100 0.601800
27.158700 0.518200
27.189300 0.455600
27.219800 0.410700
27.250400 0.405400
27.280900 0.452700
27.311500 0.479200
27.342100 0.439400
27.372600 0.395300
27.403200 0.429200
27.433700 0.518800
27.464300 0.550900
27.494900 0.524900
27.525400 0.682900
27.556000 1.858500
27.586500 5.343300
27.617100 9.165100
27.647600 8.131400
27.678200 3.616300
27.708800 0.798000
27.739300 0.086800
27.769900 0.004600
27.800400 0.000100
27.831000 0.000000
27.861600 0.000000
27.892100 0.000000
27.922700 0.000000
27.953200 0.000000
27.983800 0.000000
28.014400 0.000000
28.044900 0.000000
28.075500 0.000000
28.106000 0.000000
28.136600 0.000000
28.167100 0.000000
28.197700 0.000000
28.228300 0.000000
28.258800 0.000000
28.289400 0.000000
28.319900 0.000000
28.350500 0.000000
28.381100 0.000000
28.411600 0.000000
28.442200 0.000000
28.472700 0.000000
28.503300 0.000000
28.533900 0.000000
28.564400 0.000000
28.595000 0.000000
28.625500 0.000000
28.656100 0.000000
28.686600 0.000000
28.717200 0.000000
28.747800 0.000000
28.778300 0.000000
28.808900 0.000000
28.839400 0.000000
28.870000 0.000000
28.900600 0.000000
28.931100 0.000000
28.961700 0.000000
28.992200 0.000000
29.022800 0.000000
29.053400 0.000000
29.083900 0.000000
29.114500 0.000000
29.145000 0.000000
29.175600 0.000000
29.206100 0.000000
29.236700 0.000000
29.267300 0.000000
29.297800 0.000000
29.328400 0.000000
29.358900 0.000000
29.389500 0.000000
29.420100 0.000000
29.450600 0.000000
29.481200 0.000000
29.511700 0.000000
29.542300 0.000000
29.572900 0.000000
29.603400 0.000000
29.634000 0.000000
29.664500 0.000000
29.695100 0.000000
29.725700 0.000000
29.756200 0.000000
29.786800 0.000000
29.817300 0.000000
29.847900 0.000000
29.878400 0.000000
29.909000 0.000000
29.939600 0.000000
29.970100 0.000000
30.000700 0.000000
30.031200 0.000000
30.061800 0.000000
30.092400 0.000000
30.122900 0.000000
30.153500 0.000000
30.184000 0.000000
30.214600 0.000000
30.245200 0.000000
30.275700 0.000000
30.306300 0.000000
30.336800 0.000000
30.367400 0.000000
30.397900 0.000000
e
