set title 'mp-20689 - Density of States'
set xlabel 'Energy (eV)'
set ylabel 'DOS (states/eV)'
set grid
set xrange [-10:10]
set yrange [0:21.720]
set xzeroaxis lt -1
set terminal png size 800,600
set output 'mp-20689_dos_gnuplot.png'
plot '-' using 1:2 with lines title 'DOS'
-27.825300 0.000000
-27.798300 0.000000
-27.771300 0.000000
-27.744300 0.000000
-27.717400 0.000000
-27.690400 0.000000
-27.663400 0.000000
-27.636400 0.000000
-27.609400 0.000000
-27.582400 0.000000
-27.555500 0.000000
-27.528500 0.000000
-27.501500 0.000000
-27.474500 0.000000
-27.447500 0.000000
-27.420600 0.000000
-27.393600 0.000000
-27.366600 0.000000
-27.339600 0.000000
-27.312600 0.000000
-27.285600 0.000000
-27.258700 0.000000
-27.231700 0.000000
-27.204700 0.000000
-27.177700 0.000000
-27.150700 0.000000
-27.123800 0.000000
-27.096800 0.000000
-27.069800 0.000000
-27.042800 0.000000
-27.015800 0.000000
-26.988900 0.000000
-26.961900 0.000000
-26.934900 0.000000
-26.907900 0.000000
-26.880900 0.000000
-26.853900 0.000000
-26.827000 0.000000
-26.800000 0.000000
-26.773000 0.000000
-26.746000 0.000000
-26.719000 0.000000
-26.692100 0.000000
-26.665100 0.000000
-26.638100 0.000000
-26.611100 0.000000
-26.584100 0.000000
-26.557200 0.000000
-26.530200 0.000000
-26.503200 0.000000
-26.476200 0.000000
-26.449200 0.000000
-26.422200 0.000000
-26.395300 0.000000
-26.368300 0.000000
-26.341300 0.000000
-26.314300 0.000000
-26.287300 0.000000
-26.260400 0.000000
-26.233400 0.000000
-26.206400 0.000000
-26.179400 0.000000
-26.152400 0.000000
-26.125500 0.000000
-26.098500 0.000000
-26.071500 0.000000
-26.044500 0.000000
-26.017500 0.000000
-25.990500 0.000000
-25.963600 0.000000
-25.936600 0.000000
-25.909600 0.000000
-25.882600 0.000000
-25.855600 0.000000
-25.828700 0.000000
-25.801700 0.000000
-25.774700 0.000000
-25.747700 0.000000
-25.720700 0.000000
-25.693700 0.000000
-25.666800 0.000000
-25.639800 0.000000
-25.612800 0.000000
-25.585800 0.000000
-25.558800 0.000000
-25.531900 0.000000
-25.504900 0.000000
-25.477900 0.000000
-25.450900 0.000000
-25.423900 0.000000
-25.397000 0.000000
-25.370000 0.117300
-25.343000 1.511900
-25.316000 2.758300
-25.289000 4.755000
-25.262000 15.916900
-25.235100 20.005600
-25.208100 31.914800
-25.181100 49.811600
-25.154100 35.812900
-25.127100 15.411300
-25.100200 22.761700
-25.073200 29.791200
-25.046200 19.736900
-25.019200 25.577900
-24.992200 23.839000
-24.965300 18.723700
-24.938300 28.627100
-24.911300 31.291300
-24.884300 35.830000
-24.857300 40.328100
-24.830300 34.622700
-24.803400 34.358000
-24.776400 31.573500
-24.749400 33.694000
-24.722400 50.995500
-24.695400 33.517800
-24.668500 30.370800
-24.641500 49.497200
-24.614500 34.406700
-24.587500 40.787400
-24.560500 28.633900
-24.533500 19.195300
-24.506600 8.022100
-24.479600 0.000000
-24.452600 4.651900
-24.425600 5.010100
-24.398600 9.730000
-24.371700 22.413400
-24.344700 26.535500
-24.317700 27.989100
-24.290700 25.934800
-24.263700 22.124100
-24.236800 28.530200
-24.209800 23.546000
-24.182800 37.241500
-24.155800 17.465500
-24.128800 38.002800
-24.101800 22.618500
-24.074900 20.466300
-24.047900 36.659100
-24.020900 40.057800
-23.993900 18.548300
-23.966900 3.199900
-23.940000 1.328300
-23.913000 0.000000
-23.886000 0.000000
-23.859000 0.000000
-23.832000 0.000000
-23.805100 0.000000
-23.778100 0.000000
-23.751100 0.000000
-23.724100 0.000000
-23.697100 0.000000
-23.670100 0.000000
-23.643200 0.000000
-23.616200 0.000000
-23.589200 0.000000
-23.562200 0.000000
-23.535200 0.000000
-23.508300 0.000000
-23.481300 0.000000
-23.454300 0.000000
-23.427300 0.000000
-23.400300 0.000000
-23.373300 0.000000
-23.346400 0.000000
-23.319400 0.000000
-23.292400 0.000000
-23.265400 0.000000
-23.238400 0.000000
-23.211500 0.000000
-23.184500 0.000000
-23.157500 0.000000
-23.130500 0.000000
-23.103500 0.000000
-23.076600 0.000000
-23.049600 0.000000
-23.022600 0.000000
-22.995600 0.000000
-22.968600 0.000000
-22.941600 0.000000
-22.914700 0.000000
-22.887700 0.000000
-22.860700 0.000000
-22.833700 0.000000
-22.806700 0.000000
-22.779800 0.000000
-22.752800 0.000000
-22.725800 0.000000
-22.698800 0.000000
-22.671800 0.000000
-22.644900 0.000000
-22.617900 0.000000
-22.590900 0.000000
-22.563900 0.000000
-22.536900 0.000000
-22.509900 0.000000
-22.483000 0.000000
-22.456000 0.000000
-22.429000 0.000000
-22.402000 0.000000
-22.375000 0.000000
-22.348100 0.000000
-22.321100 0.000000
-22.294100 0.000000
-22.267100 0.000000
-22.240100 0.000000
-22.213200 0.000000
-22.186200 0.000000
-22.159200 0.000000
-22.132200 0.000000
-22.105200 0.000000
-22.078200 0.000000
-22.051300 0.000000
-22.024300 0.000000
-21.997300 0.000000
-21.970300 0.000000
-21.943300 0.000000
-21.916400 0.000000
-21.889400 0.000000
-21.862400 0.000000
-21.835400 0.000000
-21.808400 0.000000
-21.781400 0.000000
-21.754500 0.000000
-21.727500 0.000000
-21.700500 0.000000
-21.673500 0.000000
-21.646500 0.000000
-21.619600 0.000000
-21.592600 0.000000
-21.565600 0.000000
-21.538600 0.000000
-21.511600 0.000000
-21.484700 0.000000
-21.457700 0.000000
-21.430700 0.000000
-21.403700 0.000000
-21.376700 0.000000
-21.349700 0.000000
-21.322800 0.000000
-21.295800 0.000000
-21.268800 0.000000
-21.241800 0.000000
-21.214800 0.000000
-21.187900 0.000000
-21.160900 0.000000
-21.133900 0.000000
-21.106900 0.000000
-21.079900 0.000000
-21.053000 0.000000
-21.026000 0.000000
-20.999000 0.000000
-20.972000 0.000000
-20.945000 0.000000
-20.918000 0.000000
-20.891100 0.000000
-20.864100 0.000000
-20.837100 0.000000
-20.810100 0.000000
-20.783100 0.000000
-20.756200 0.000000
-20.729200 0.000000
-20.702200 0.000000
-20.675200 0.000000
-20.648200 0.000000
-20.621200 0.000000
-20.594300 0.000000
-20.567300 0.000000
-20.540300 0.000000
-20.513300 0.000000
-20.486300 0.000000
-20.459400 0.000000
-20.432400 0.000000
-20.405400 0.000000
-20.378400 0.000000
-20.351400 0.000000
-20.324500 0.000000
-20.297500 0.000000
-20.270500 0.000000
-20.243500 0.000000
-20.216500 0.000000
-20.189500 0.000000
-20.162600 0.000000
-20.135600 0.000000
-20.108600 0.000000
-20.081600 0.000000
-20.054600 0.000000
-20.027700 0.000000
-20.000700 0.000000
-19.973700 0.000000
-19.946700 0.000000
-19.919700 0.000000
-19.892800 0.000000
-19.865800 0.000000
-19.838800 0.000000
-19.811800 0.000000
-19.784800 0.000000
-19.757800 0.000000
-19.730900 0.000000
-19.703900 0.000000
-19.676900 0.000000
-19.649900 0.000000
-19.622900 0.000000
-19.596000 0.000000
-19.569000 0.000000
-19.542000 0.000000
-19.515000 0.000000
-19.488000 0.000000
-19.461000 0.000000
-19.434100 0.000000
-19.407100 0.000000
-19.380100 0.000000
-19.353100 0.000000
-19.326100 0.000000
-19.299200 0.000000
-19.272200 0.000000
-19.245200 0.000000
-19.218200 0.000000
-19.191200 0.000000
-19.164300 0.000000
-19.137300 0.000000
-19.110300 0.000000
-19.083300 0.000000
-19.056300 0.000000
-19.029300 0.000000
-19.002400 0.000000
-18.975400 0.000000
-18.948400 0.000000
-18.921400 0.000000
-18.894400 0.000000
-18.867500 0.000000
-18.840500 0.000000
-18.813500 0.000000
-18.786500 0.000000
-18.759500 0.000000
-18.732600 0.000000
-18.705600 0.000000
-18.678600 0.000000
-18.651600 0.000000
-18.624600 0.000000
-18.597600 0.000000
-18.570700 0.000000
-18.543700 0.000000
-18.516700 0.000000
-18.489700 0.000000
-18.462700 0.000000
-18.435800 0.000000
-18.408800 0.000000
-18.381800 0.000000
-18.354800 0.000000
-18.327800 0.000000
-18.300900 0.000000
-18.273900 0.000000
-18.246900 0.000000
-18.219900 0.000000
-18.192900 0.000000
-18.165900 0.000000
-18.139000 0.000000
-18.112000 0.000000
-18.085000 0.000000
-18.058000 0.000000
-18.031000 0.000000
-18.004100 0.000000
-17.977100 0.000000
-17.950100 0.000000
-17.923100 0.000000
-17.896100 0.000000
-17.869100 0.000000
-17.842200 0.000000
-17.815200 0.000000
-17.788200 0.000000
-17.761200 0.000000
-17.734200 0.000000
-17.707300 0.000000
-17.680300 0.000000
-17.653300 0.000000
-17.626300 0.000000
-17.599300 0.000000
-17.572400 0.000000
-17.545400 0.000000
-17.518400 0.000000
-17.491400 0.000000
-17.464400 0.000000
-17.437400 0.000000
-17.410500 0.000000
-17.383500 0.000000
-17.356500 0.000000
-17.329500 0.000000
-17.302500 0.000000
-17.275600 0.000000
-17.248600 0.000000
-17.221600 0.000000
-17.194600 0.000000
-17.167600 0.000000
-17.140700 0.000000
-17.113700 0.000000
-17.086700 0.000000
-17.059700 0.000000
-17.032700 0.000000
-17.005700 0.000000
-16.978800 0.000000
-16.951800 0.000000
-16.924800 0.000000
-16.897800 0.000000
-16.870800 0.000000
-16.843900 0.000000
-16.816900 0.000000
-16.789900 0.000000
-16.762900 0.000000
-16.735900 0.000000
-16.708900 0.000000
-16.682000 0.000000
-16.655000 0.000000
-16.628000 0.000000
-16.601000 0.000000
-16.574000 0.000000
-16.547100 0.000000
-16.520100 0.000000
-16.493100 0.000000
-16.466100 0.000000
-16.439100 0.000000
-16.412200 0.000000
-16.385200 0.000000
-16.358200 0.000000
-16.331200 0.000000
-16.304200 0.000000
-16.277200 0.000000
-16.250300 0.000000
-16.223300 0.000000
-16.196300 0.000000
-16.169300 0.000000
-16.142300 0.000000
-16.115400 0.000000
-16.088400 0.000000
-16.061400 0.000000
-16.034400 0.000000
-16.007400 0.000000
-15.980500 0.000000
-15.953500 0.000000
-15.926500 0.000000
-15.899500 0.000000
-15.872500 0.000000
-15.845500 0.000000
-15.818600 0.000000
-15.791600 0.000000
-15.764600 0.000000
-15.737600 0.000000
-15.710600 0.000000
-15.683700 0.000000
-15.656700 0.000000
-15.629700 0.000000
-15.602700 0.000000
-15.575700 0.000000
-15.548700 0.000000
-15.521800 0.000000
-15.494800 0.000000
-15.467800 0.000000
-15.440800 0.000000
-15.413800 0.000000
-15.386900 0.000000
-15.359900 0.000000
-15.332900 0.000000
-15.305900 0.000000
-15.278900 0.000000
-15.252000 0.000000
-15.225000 0.000000
-15.198000 0.000000
-15.171000 0.000000
-15.144000 0.000000
-15.117000 0.000000
-15.090100 0.000000
-15.063100 0.000000
-15.036100 0.000000
-15.009100 0.000000
-14.982100 0.000000
-14.955200 0.000000
-14.928200 0.000000
-14.901200 0.000000
-14.874200 0.000000
-14.847200 0.000000
-14.820300 0.000000
-14.793300 0.000000
-14.766300 0.000000
-14.739300 0.000000
-14.712300 0.000000
-14.685300 0.000000
-14.658400 0.000000
-14.631400 0.000000
-14.604400 0.000000
-14.577400 0.000000
-14.550400 0.000000
-14.523500 0.000000
-14.496500 0.000000
-14.469500 0.000000
-14.442500 0.000000
-14.415500 0.000000
-14.388600 0.000000
-14.361600 0.000000
-14.334600 0.000000
-14.307600 0.000000
-14.280600 0.000000
-14.253600 0.000000
-14.226700 0.000000
-14.199700 0.000000
-14.172700 0.000000
-14.145700 0.000000
-14.118700 0.000000
-14.091800 0.000000
-14.064800 0.000000
-14.037800 0.000000
-14.010800 0.000000
-13.983800 0.000000
-13.956800 0.000000
-13.929900 0.000000
-13.902900 0.000000
-13.875900 0.000000
-13.848900 0.000000
-13.821900 0.000000
-13.795000 0.000000
-13.768000 0.000000
-13.741000 0.000000
-13.714000 0.000000
-13.687000 0.000000
-13.660100 0.000000
-13.633100 0.000000
-13.606100 0.000000
-13.579100 0.000000
-13.552100 0.000000
-13.525100 0.000000
-13.498200 0.000000
-13.471200 0.000000
-13.444200 0.000000
-13.417200 0.000000
-13.390200 0.000000
-13.363300 0.000000
-13.336300 0.000000
-13.309300 0.000000
-13.282300 0.000000
-13.255300 0.000000
-13.228400 0.000000
-13.201400 0.000000
-13.174400 0.000000
-13.147400 0.000000
-13.120400 0.000000
-13.093400 0.000000
-13.066500 0.000000
-13.039500 0.000000
-13.012500 0.000000
-12.985500 0.000000
-12.958500 0.000000
-12.931600 0.000000
-12.904600 0.000000
-12.877600 0.000000
-12.850600 0.000000
-12.823600 0.000000
-12.796600 0.000000
-12.769700 0.000000
-12.742700 0.000000
-12.715700 0.000000
-12.688700 0.000000
-12.661700 0.000000
-12.634800 0.000000
-12.607800 0.000000
-12.580800 0.000000
-12.553800 0.000000
-12.526800 0.000000
-12.499900 0.000000
-12.472900 0.000000
-12.445900 0.000000
-12.418900 0.000000
-12.391900 0.000000
-12.364900 0.000000
-12.338000 0.000000
-12.311000 0.000000
-12.284000 0.000000
-12.257000 0.000000
-12.230000 0.000000
-12.203100 0.000000
-12.176100 0.000000
-12.149100 0.000000
-12.122100 0.000000
-12.095100 0.000000
-12.068200 0.000000
-12.041200 0.000000
-12.014200 0.000000
-11.987200 0.000000
-11.960200 0.000000
-11.933200 0.000000
-11.906300 0.000000
-11.879300 0.000000
-11.852300 0.000000
-11.825300 0.000000
-11.798300 0.000000
-11.771400 0.000000
-11.744400 0.000000
-11.717400 0.000000
-11.690400 0.000000
-11.663400 0.000000
-11.636400 0.000000
-11.609500 0.000000
-11.582500 0.000000
-11.555500 0.000000
-11.528500 0.000000
-11.501500 0.000000
-11.474600 0.000000
-11.447600 0.000000
-11.420600 0.000000
-11.393600 0.000000
-11.366600 0.000000
-11.339700 0.000000
-11.312700 0.000000
-11.285700 0.000000
-11.258700 0.000000
-11.231700 0.000000
-11.204700 0.000000
-11.177800 0.000000
-11.150800 0.000000
-11.123800 0.000000
-11.096800 0.000000
-11.069800 0.000000
-11.042900 0.000000
-11.015900 0.000000
-10.988900 0.000000
-10.961900 0.000000
-10.934900 0.000000
-10.908000 0.000000
-10.881000 0.000000
-10.854000 0.000000
-10.827000 0.000000
-10.800000 0.000000
-10.773000 0.000000
-10.746100 0.000000
-10.719100 0.000000
-10.692100 0.000000
-10.665100 0.000000
-10.638100 0.000000
-10.611200 0.000000
-10.584200 0.000000
-10.557200 0.000000
-10.530200 0.000000
-10.503200 0.000000
-10.476300 0.000000
-10.449300 0.000000
-10.422300 0.000000
-10.395300 0.000000
-10.368300 0.000000
-10.341300 0.000000
-10.314400 0.000000
-10.287400 0.000000
-10.260400 0.000000
-10.233400 0.000000
-10.206400 0.000000
-10.179500 0.000000
-10.152500 0.000000
-10.125500 0.000000
-10.098500 0.000000
-10.071500 0.000000
-10.044500 0.000000
-10.017600 0.000000
-9.990600 0.000000
-9.963600 0.000000
-9.936600 0.000000
-9.909600 0.000000
-9.882700 0.000000
-9.855700 0.000000
-9.828700 0.000000
-9.801700 0.000000
-9.774700 0.000000
-9.747800 0.000000
-9.720800 0.000000
-9.693800 0.000000
-9.666800 0.000000
-9.639800 0.000000
-9.612800 0.000000
-9.585900 0.000000
-9.558900 0.000000
-9.531900 0.000000
-9.504900 0.000000
-9.477900 0.000000
-9.451000 0.000000
-9.424000 0.000000
-9.397000 0.000000
-9.370000 0.000000
-9.343000 0.000000
-9.316100 0.000000
-9.289100 0.000000
-9.262100 0.000000
-9.235100 0.000000
-9.208100 0.000000
-9.181100 0.000000
-9.154200 0.000000
-9.127200 0.000000
-9.100200 0.000000
-9.073200 0.000000
-9.046200 0.000000
-9.019300 0.000000
-8.992300 0.000000
-8.965300 0.000000
-8.938300 0.000000
-8.911300 0.000000
-8.884300 0.000000
-8.857400 0.000000
-8.830400 0.000000
-8.803400 0.000000
-8.776400 0.000000
-8.749400 0.000000
-8.722500 0.000000
-8.695500 0.000000
-8.668500 0.000000
-8.641500 0.000000
-8.614500 0.000000
-8.587600 0.000000
-8.560600 0.000000
-8.533600 0.000000
-8.506600 0.000000
-8.479600 0.000000
-8.452600 0.000000
-8.425700 0.000000
-8.398700 0.000000
-8.371700 0.000000
-8.344700 0.000000
-8.317700 0.000000
-8.290800 0.000000
-8.263800 0.000000
-8.236800 0.000000
-8.209800 0.000000
-8.182800 0.000000
-8.155900 0.000000
-8.128900 0.000000
-8.101900 0.000000
-8.074900 0.000000
-8.047900 0.000000
-8.020900 0.000000
-7.994000 0.000000
-7.967000 0.000000
-7.940000 0.000000
-7.913000 0.000000
-7.886000 0.000000
-7.859100 0.000000
-7.832100 0.000000
-7.805100 0.000000
-7.778100 0.000000
-7.751100 0.000000
-7.724100 0.000000
-7.697200 0.000000
-7.670200 0.000000
-7.643200 0.000000
-7.616200 0.000000
-7.589200 0.000000
-7.562300 0.000000
-7.535300 0.000000
-7.508300 0.000000
-7.481300 0.000000
-7.454300 0.000000
-7.427400 0.000000
-7.400400 0.000000
-7.373400 0.000000
-7.346400 0.000000
-7.319400 0.000000
-7.292400 0.000000
-7.265500 0.000000
-7.238500 0.000000
-7.211500 0.000000
-7.184500 0.000000
-7.157500 0.000000
-7.130600 0.000000
-7.103600 0.000000
-7.076600 0.000000
-7.049600 0.000000
-7.022600 0.000000
-6.995700 0.000000
-6.968700 0.000000
-6.941700 0.000000
-6.914700 0.000000
-6.887700 0.000000
-6.860700 0.000000
-6.833800 0.000000
-6.806800 0.000000
-6.779800 0.000000
-6.752800 0.000000
-6.725800 0.000000
-6.698900 0.000000
-6.671900 0.000000
-6.644900 0.000000
-6.617900 0.000000
-6.590900 0.000000
-6.564000 0.000000
-6.537000 0.000000
-6.510000 0.000000
-6.483000 0.000000
-6.456000 0.000000
-6.429000 0.000000
-6.402100 0.000000
-6.375100 0.000000
-6.348100 0.000000
-6.321100 0.000000
-6.294100 0.000000
-6.267200 0.000000
-6.240200 0.000000
-6.213200 0.000000
-6.186200 0.000000
-6.159200 0.000000
-6.132200 0.000000
-6.105300 0.000000
-6.078300 0.000000
-6.051300 0.000000
-6.024300 0.000000
-5.997300 0.000000
-5.970400 0.000000
-5.943400 0.000000
-5.916400 0.000000
-5.889400 0.000000
-5.862400 0.000000
-5.835500 0.000000
-5.808500 0.000000
-5.781500 0.000000
-5.754500 0.000000
-5.727500 0.000000
-5.700500 0.000000
-5.673600 0.000000
-5.646600 0.000000
-5.619600 0.000000
-5.592600 0.000000
-5.565600 0.000000
-5.538700 0.000000
-5.511700 0.000000
-5.484700 0.000000
-5.457700 0.000000
-5.430700 0.000000
-5.403800 0.000000
-5.376800 0.000000
-5.349800 0.000000
-5.322800 0.000000
-5.295800 0.000000
-5.268800 0.000000
-5.241900 0.000000
-5.214900 0.000000
-5.187900 0.000000
-5.160900 0.000000
-5.133900 0.000000
-5.107000 0.000000
-5.080000 0.000000
-5.053000 0.000000
-5.026000 0.000000
-4.999000 0.000000
-4.972000 0.000000
-4.945100 0.000000
-4.918100 0.000000
-4.891100 0.000000
-4.864100 0.000000
-4.837100 0.000000
-4.810200 0.000000
-4.783200 0.000000
-4.756200 0.000000
-4.729200 0.000000
-4.702200 0.000000
-4.675300 0.000000
-4.648300 0.000000
-4.621300 0.000000
-4.594300 0.000000
-4.567300 0.000000
-4.540300 0.000000
-4.513400 0.000000
-4.486400 0.000000
-4.459400 0.000000
-4.432400 0.000000
-4.405400 0.000000
-4.378500 0.000000
-4.351500 0.000000
-4.324500 0.000000
-4.297500 0.000000
-4.270500 0.005400
-4.243600 0.046000
-4.216600 0.126400
-4.189600 0.224200
-4.162600 0.286800
-4.135600 0.309900
-4.108600 0.322400
-4.081700 0.349900
-4.054700 0.391500
-4.027700 0.437300
-4.000700 0.482400
-3.973700 0.522800
-3.946800 0.550300
-3.919800 0.570000
-3.892800 0.591900
-3.865800 0.621800
-3.838800 0.654000
-3.811800 0.685800
-3.784900 0.717600
-3.757900 0.749400
-3.730900 0.782400
-3.703900 0.818900
-3.676900 0.858700
-3.650000 0.899800
-3.623000 1.108100
-3.596000 1.315700
-3.569000 1.272900
-3.542000 1.199100
-3.515100 1.215200
-3.488100 1.230300
-3.461100 1.243500
-3.434100 1.240000
-3.407100 1.225000
-3.380100 1.229000
-3.353200 1.228500
-3.326200 1.225900
-3.299200 1.221400
-3.272200 1.214600
-3.245200 1.583900
-3.218300 1.873600
-3.191300 1.880000
-3.164300 2.089900
-3.137300 3.117300
-3.110300 2.566400
-3.083400 2.786000
-3.056400 3.129700
-3.029400 3.356100
-3.002400 3.458500
-2.975400 3.661100
-2.948400 4.001500
-2.921500 4.268200
-2.894500 4.594700
-2.867500 5.221400
-2.840500 6.245500
-2.813500 9.516100
-2.786600 7.182200
-2.759600 5.596300
-2.732600 5.050300
-2.705600 4.870300
-2.678600 4.340400
-2.651600 3.096500
-2.624700 2.625800
-2.597700 2.313700
-2.570700 2.143000
-2.543700 2.143400
-2.516700 2.187600
-2.489800 2.493700
-2.462800 2.363600
-2.435800 2.210800
-2.408800 2.437800
-2.381800 1.206700
-2.354900 0.936100
-2.327900 0.947100
-2.300900 0.686900
-2.273900 0.462200
-2.246900 0.229700
-2.219900 0.000000
-2.193000 0.000000
-2.166000 0.000000
-2.139000 0.000000
-2.112000 0.000000
-2.085000 0.000000
-2.058100 0.000000
-2.031100 0.000000
-2.004100 0.000000
-1.977100 0.000000
-1.950100 0.000000
-1.923200 0.000000
-1.896200 0.000000
-1.869200 0.000000
-1.842200 0.000000
-1.815200 0.000000
-1.788200 0.000000
-1.761300 0.000000
-1.734300 0.000000
-1.707300 0.000000
-1.680300 0.000000
-1.653300 0.000000
-1.626400 0.000000
-1.599400 0.000000
-1.572400 0.000000
-1.545400 0.000000
-1.518400 0.000000
-1.491500 0.000000
-1.464500 0.000000
-1.437500 0.000000
-1.410500 0.000000
-1.383500 0.000000
-1.356500 0.000000
-1.329600 0.000000
-1.302600 0.000000
-1.275600 0.000000
-1.248600 0.000000
-1.221600 0.000000
-1.194700 0.000000
-1.167700 0.000000
-1.140700 0.000000
-1.113700 0.000000
-1.086700 0.000000
-1.059700 0.000000
-1.032800 0.000000
-1.005800 0.000000
-0.978800 0.000000
-0.951800 0.134800
-0.924800 0.211500
-0.897900 0.198000
-0.870900 0.399100
-0.843900 0.510600
-0.816900 0.520100
-0.789900 0.605700
-0.763000 0.708900
-0.736000 0.856000
-0.709000 0.934800
-0.682000 0.985100
-0.655000 1.072100
-0.628000 1.188600
-0.601100 1.317400
-0.574100 1.457200
-0.547100 1.600300
-0.520100 1.752300
-0.493100 1.964000
-0.466200 2.211200
-0.439200 2.519400
-0.412200 2.849000
-0.385200 3.267700
-0.358200 3.838500
-0.331300 4.569400
-0.304300 5.474800
-0.277300 6.403700
-0.250300 6.447100
-0.223300 6.707000
-0.196300 6.782000
-0.169400 6.284500
-0.142400 6.135200
-0.115400 6.346100
-0.088400 6.772600
-0.061400 8.352700
-0.034500 5.020000
-0.007500 4.477200
0.019500 3.996500
0.046500 3.623300
0.073500 3.335100
0.100500 3.147500
0.127400 2.745800
0.154400 2.502800
0.181400 2.137500
0.208400 1.926100
0.235400 1.737000
0.262300 1.592300
0.289300 1.473400
0.316300 1.367100
0.343300 1.282700
0.370300 1.194600
0.397200 1.082100
0.424200 0.938600
0.451200 1.020000
0.478200 0.815000
0.505200 0.505900
0.532200 0.430700
0.559100 0.361900
0.586100 0.298000
0.613100 0.239400
0.640100 0.190600
0.667100 0.473800
0.694000 0.524000
0.721000 0.712300
0.748000 1.580900
0.775000 2.038500
0.802000 2.220900
0.828900 2.127100
0.855900 2.156900
0.882900 2.251900
0.909900 2.355000
0.936900 2.352100
0.963900 2.367000
0.990800 2.661900
1.017800 3.002900
1.044800 3.544300
1.071800 3.418400
1.098800 3.202000
1.125700 3.302000
1.152700 3.401100
1.179700 3.443300
1.206700 3.352700
1.233700 3.291800
1.260700 3.403400
1.287600 3.823300
1.314600 4.028900
1.341600 4.349300
1.368600 5.076900
1.395600 5.029100
1.422500 5.194400
1.449500 5.511100
1.476500 5.538800
1.503500 5.089600
1.530500 4.582900
1.557400 3.976100
1.584400 3.627200
1.611400 3.419900
1.638400 3.339300
1.665400 3.129500
1.692400 2.788800
1.719300 2.530800
1.746300 2.427100
1.773300 2.357400
1.800300 2.300400
1.827300 2.346500
1.854200 2.388900
1.881200 2.305500
1.908200 2.118700
1.935200 1.644100
1.962200 1.622400
1.989100 1.954900
2.016100 2.324800
2.043100 2.581700
2.070100 3.283600
2.097100 4.178400
2.124100 5.343300
2.151000 6.317200
2.178000 6.692800
2.205000 6.431200
2.232000 5.753900
2.259000 5.726400
2.285900 5.915700
2.312900 6.201300
2.339900 6.298200
2.366900 6.836300
2.393900 6.533000
2.420800 6.726700
2.447800 6.869900
2.474800 6.947000
2.501800 6.915600
2.528800 7.029800
2.555800 5.061600
2.582700 4.657600
2.609700 4.383200
2.636700 5.230100
2.663700 6.375100
2.690700 6.466200
2.717600 7.252200
2.744600 7.828000
2.771600 6.956100
2.798600 6.848100
2.825600 5.762800
2.852600 5.013400
2.879500 4.918300
2.906500 5.460800
2.933500 10.816900
2.960500 9.275300
2.987500 8.049900
3.014400 7.105300
3.041400 6.390000
3.068400 5.513800
3.095400 5.564600
3.122400 5.785200
3.149300 6.689100
3.176300 8.616000
3.203300 10.382600
3.230300 11.131400
3.257300 10.193700
3.284300 10.879200
3.311200 10.023000
3.338200 8.598000
3.365200 9.113800
3.392200 12.148600
3.419200 14.937700
3.446100 13.387200
3.473100 11.658100
3.500100 10.926000
3.527100 12.222100
3.554100 11.327700
3.581000 8.009900
3.608000 9.461000
3.635000 14.669200
3.662000 13.597500
3.689000 10.247400
3.716000 12.110900
3.742900 11.480000
3.769900 10.849900
3.796900 10.344400
3.823900 9.431900
3.850900 9.841900
3.877800 12.999600
3.904800 14.951300
3.931800 12.690000
3.958800 13.188900
3.985800 11.195200
4.012800 11.982400
4.039700 11.511600
4.066700 12.744800
4.093700 10.235600
4.120700 8.517600
4.147700 7.230100
4.174600 6.134400
4.201600 19.745100
4.228600 7.270400
4.255600 6.610300
4.282600 7.022500
4.309500 7.382300
4.336500 7.957400
4.363500 8.188500
4.390500 7.307500
4.417500 7.342800
4.444500 7.775700
4.471400 7.795500
4.498400 7.629100
4.525400 7.970000
4.552400 8.000600
4.579400 8.381500
4.606300 9.293300
4.633300 10.385100
4.660300 12.485200
4.687300 11.082600
4.714300 11.902500
4.741200 11.528000
4.768200 10.425500
4.795200 9.591100
4.822200 7.605700
4.849200 7.636000
4.876200 7.479600
4.903100 7.671600
4.930100 7.167600
4.957100 6.760100
4.984100 6.355500
5.011100 6.196100
5.038000 6.613100
5.065000 6.465900
5.092000 7.545900
5.119000 7.810100
5.146000 7.408000
5.173000 6.787100
5.199900 6.425100
5.226900 6.214600
5.253900 6.038400
5.280900 5.829300
5.307900 5.701600
5.334800 5.590000
5.361800 5.434700
5.388800 5.358200
5.415800 5.233500
5.442800 5.152100
5.469700 5.124400
5.496700 5.073500
5.523700 5.104300
5.550700 4.829800
5.577700 4.426100
5.604700 4.048500
5.631600 3.765100
5.658600 3.569300
5.685600 3.553600
5.712600 3.499000
5.739600 3.442900
5.766500 3.405900
5.793500 4.297200
5.820500 3.273900
5.847500 3.189800
5.874500 3.201300
5.901400 3.251200
5.928400 3.163700
5.955400 2.950200
5.982400 2.619300
6.009400 2.364100
6.036400 2.269600
6.063300 2.322500
6.090300 2.405300
6.117300 2.515100
6.144300 2.644300
6.171300 2.900600
6.198200 3.216800
6.225200 3.321800
6.252200 3.437400
6.279200 3.422900
6.306200 3.121500
6.333100 2.977000
6.360100 2.879200
6.387100 2.799100
6.414100 2.746900
6.441100 2.738800
6.468100 2.771600
6.495000 2.728500
6.522000 2.726600
6.549000 2.654900
6.576000 2.618800
6.603000 2.659300
6.629900 2.606200
6.656900 2.595100
6.683900 2.575700
6.710900 2.476600
6.737900 2.558600
6.764900 2.722900
6.791800 3.149500
6.818800 3.156900
6.845800 3.276600
6.872800 3.479700
6.899800 3.761200
6.926700 3.979500
6.953700 4.196400
6.980700 4.774500
7.007700 5.095900
7.034700 5.423100
7.061600 5.203800
7.088600 5.266200
7.115600 5.014100
7.142600 4.883400
7.169600 4.594000
7.196600 4.571600
7.223500 4.584800
7.250500 4.628400
7.277500 4.313000
7.304500 4.809200
7.331500 5.585500
7.358400 5.755800
7.385400 5.320400
7.412400 4.532200
7.439400 4.495500
7.466400 4.625900
7.493300 4.843800
7.520300 4.732500
7.547300 4.792600
7.574300 4.854000
7.601300 5.055100
7.628300 5.141000
7.655200 5.290200
7.682200 5.394100
7.709200 5.429900
7.736200 5.391200
7.763200 5.269200
7.790100 5.179200
7.817100 5.921300
7.844100 6.910100
7.871100 7.184500
7.898100 7.207100
7.925100 6.756400
7.952000 6.411700
7.979000 6.001300
8.006000 6.094200
8.033000 5.959900
8.060000 6.270600
8.086900 6.154300
8.113900 6.056600
8.140900 6.253800
8.167900 6.782600
8.194900 6.647200
8.221800 7.146400
8.248800 6.866800
8.275800 6.997900
8.302800 7.718500
8.329800 7.696300
8.356800 6.895200
8.383700 6.348500
8.410700 6.131500
8.437700 6.432700
8.464700 5.752500
8.491700 6.826800
8.518600 6.672900
8.545600 6.271600
8.572600 6.344100
8.599600 6.249500
8.626600 6.322400
8.653500 6.811100
8.680500 6.744800
8.707500 6.683000
8.734500 6.724300
8.761500 6.979100
8.788500 7.673300
8.815400 8.768500
8.842400 7.494600
8.869400 7.433700
8.896400 7.704900
8.923400 8.278300
8.950300 9.012300
8.977300 9.845200
9.004300 8.751600
9.031300 8.592000
9.058300 11.517600
9.085300 9.116300
9.112200 8.727400
9.139200 10.042100
9.166200 8.632600
9.193200 8.817200
9.220200 9.320200
9.247100 10.459900
9.274100 9.287200
9.301100 8.707400
9.328100 9.280500
9.355100 9.059800
9.382000 11.469300
9.409000 10.547500
9.436000 10.210100
9.463000 9.281400
9.490000 9.514400
9.517000 9.788500
9.543900 11.667000
9.570900 12.290700
9.597900 17.258600
9.624900 14.283600
9.651900 11.851500
9.678800 10.538200
9.705800 13.652600
9.732800 11.835700
9.759800 11.454700
9.786800 9.139900
9.813700 7.649000
9.840700 13.008400
9.867700 11.765600
9.894700 11.807400
9.921700 10.481600
9.948700 10.200500
9.975600 11.253600
10.002600 11.394900
10.029600 11.223300
10.056600 9.791400
10.083600 8.667800
10.110500 9.819600
10.137500 7.591700
10.164500 7.362900
10.191500 6.239700
10.218500 5.443500
10.245400 5.144000
10.272400 4.526500
10.299400 4.241200
10.326400 4.144200
10.353400 4.141300
10.380400 4.301600
10.407300 4.577200
10.434300 4.595900
10.461300 4.629200
10.488300 4.527400
10.515300 4.205000
10.542200 3.726000
10.569200 3.517800
10.596200 3.393600
10.623200 3.270300
10.650200 3.317400
10.677200 3.399700
10.704100 4.417100
10.731100 5.887700
10.758100 6.165800
10.785100 5.947800
10.812100 5.855900
10.839000 5.623700
10.866000 5.521700
10.893000 4.949900
10.920000 4.772200
10.947000 4.116100
10.973900 4.292400
11.000900 4.995000
11.027900 5.308500
11.054900 5.437100
11.081900 6.027500
11.108900 6.566400
11.135800 7.158800
11.162800 6.131200
11.189800 5.735600
11.216800 5.664000
11.243800 5.556300
11.270700 5.505600
11.297700 5.536900
11.324700 5.703200
11.351700 5.662500
11.378700 5.985000
11.405600 5.650000
11.432600 5.313100
11.459600 5.288200
11.486600 5.276800
11.513600 5.376000
11.540600 5.615200
11.567500 5.815200
11.594500 5.318400
11.621500 4.886700
11.648500 4.758800
11.675500 4.766900
11.702400 4.667600
11.729400 4.773800
11.756400 5.512600
11.783400 4.739400
11.810400 4.987200
11.837400 5.215400
11.864300 5.697500
11.891300 6.044200
11.918300 6.189200
11.945300 5.917200
11.972300 5.468300
11.999200 5.461500
12.026200 5.676800
12.053200 5.535100
12.080200 5.814800
12.107200 5.564900
12.134100 4.699200
12.161100 4.372500
12.188100 4.265600
12.215100 4.279800
12.242100 4.152700
12.269100 3.972400
12.296000 3.933700
12.323000 3.879400
12.350000 3.943300
12.377000 4.132100
12.404000 3.929300
12.430900 3.617000
12.457900 3.430100
12.484900 3.728500
12.511900 3.913400
12.538900 4.089300
12.565800 4.389600
12.592800 4.805400
12.619800 5.973800
12.646800 6.257600
12.673800 5.309200
12.700800 4.862400
12.727700 4.590600
12.754700 4.412500
12.781700 4.487900
12.808700 4.115000
12.835700 3.988800
12.862600 3.900400
12.889600 4.719600
12.916600 3.798800
12.943600 3.626000
12.970600 3.873800
12.997600 3.954000
13.024500 3.975700
13.051500 4.019900
13.078500 3.997800
13.105500 4.045800
13.132500 4.160100
13.159400 4.279300
13.186400 4.435300
13.213400 4.510500
13.240400 4.593500
13.267400 4.648800
13.294300 5.162300
13.321300 6.088900
13.348300 5.213600
13.375300 5.156500
13.402300 5.077000
13.429300 4.978100
13.456200 4.839600
13.483200 4.406200
13.510200 4.244400
13.537200 4.050900
13.564200 4.005300
13.591100 3.707600
13.618100 3.485800
13.645100 3.331100
13.672100 3.190700
13.699100 3.531400
13.726000 4.041200
13.753000 4.552100
13.780000 5.111300
13.807000 5.156100
13.834000 4.979000
13.861000 4.223800
13.887900 3.272900
13.914900 2.794700
13.941900 2.617500
13.968900 2.597600
13.995900 3.985400
14.022800 2.455100
14.049800 2.299500
14.076800 2.712200
14.103800 2.945600
14.130800 2.987700
14.157700 3.171600
14.184700 3.243300
14.211700 3.299900
14.238700 3.402600
14.265700 4.236400
14.292700 4.395500
14.319600 4.301100
14.346600 4.440400
14.373600 4.468300
14.400600 4.368200
14.427600 4.777600
14.454500 5.305100
14.481500 6.572300
14.508500 6.715400
14.535500 5.582300
14.562500 4.853100
14.589500 4.350100
14.616400 4.164100
14.643400 4.047700
14.670400 3.901000
14.697400 3.745100
14.724400 3.571500
14.751300 3.476500
14.778300 4.786400
14.805300 3.522900
14.832300 3.355500
14.859300 3.385500
14.886200 3.538500
14.913200 3.462700
14.940200 3.584500
14.967200 3.533200
14.994200 3.624800
15.021200 3.667500
15.048100 3.745000
15.075100 3.823500
15.102100 4.000700
15.129100 4.111100
15.156100 4.122600
15.183000 4.170000
15.210000 4.122800
15.237000 4.340100
15.264000 4.365700
15.291000 4.311400
15.317900 4.400500
15.344900 4.533100
15.371900 4.461500
15.398900 4.760400
15.425900 4.754600
15.452900 4.408600
15.479800 4.333500
15.506800 4.490700
15.533800 4.207000
15.560800 4.196700
15.587800 4.232200
15.614700 4.299300
15.641700 4.396100
15.668700 4.499100
15.695700 4.792900
15.722700 5.149400
15.749700 5.367600
15.776600 5.620900
15.803600 5.493100
15.830600 5.574900
15.857600 5.366200
15.884600 6.046500
15.911500 5.620300
15.938500 4.483600
15.965500 4.121300
15.992500 3.715000
16.019500 3.157400
16.046400 2.886600
16.073400 2.845900
16.100400 2.859900
16.127400 2.921700
16.154400 3.779800
16.181400 3.395600
16.208300 3.499400
16.235300 3.889500
16.262300 3.286900
16.289300 3.287400
16.316300 3.310600
16.343200 3.742400
16.370200 3.673000
16.397200 3.770300
16.424200 3.869000
16.451200 4.041300
16.478100 3.989400
16.505100 3.983500
16.532100 4.052100
16.559100 3.941900
16.586100 3.959500
16.613100 4.298300
16.640000 4.450500
16.667000 4.315400
16.694000 3.907100
16.721000 4.678500
16.748000 4.326100
16.774900 4.149500
16.801900 3.802100
16.828900 3.713700
16.855900 3.782600
16.882900 3.859700
16.909900 3.690200
16.936800 4.121300
16.963800 4.560500
16.990800 4.419500
17.017800 4.357600
17.044800 4.324200
17.071700 4.335500
17.098700 4.296200
17.125700 4.100700
17.152700 3.921600
17.179700 3.747600
17.206600 3.462800
17.233600 3.355300
17.260600 3.231700
17.287600 3.130700
17.314600 3.095500
17.341600 3.238400
17.368500 3.338800
17.395500 3.638400
17.422500 3.406000
17.449500 3.417500
17.476500 3.151500
17.503400 3.051700
17.530400 3.067200
17.557400 3.070300
17.584400 3.155300
17.611400 3.262400
17.638300 3.387100
17.665300 3.238600
17.692300 3.302100
17.719300 3.374200
17.746300 3.436500
17.773300 3.560200
17.800200 3.698300
17.827200 4.066900
17.854200 4.425600
17.881200 5.225200
17.908200 7.477800
17.935100 4.432200
17.962100 4.027400
17.989100 3.955200
18.016100 4.160700
18.043100 3.751500
18.070000 3.567200
18.097000 3.364500
18.124000 3.271000
18.151000 3.242000
18.178000 3.271500
18.205000 3.421400
18.231900 3.628200
18.258900 3.927600
18.285900 4.172800
18.312900 4.115200
18.339900 4.071800
18.366800 4.250000
18.393800 4.085100
18.420800 4.084900
18.447800 4.171500
18.474800 4.260400
18.501800 4.334800
18.528700 4.410800
18.555700 4.527100
18.582700 4.717100
18.609700 4.770100
18.636700 4.766300
18.663600 4.878200
18.690600 4.999200
18.717600 5.116600
18.744600 5.497300
18.771600 5.589900
18.798500 5.298800
18.825500 5.490000
18.852500 5.725000
18.879500 5.701400
18.906500 5.242400
18.933500 5.020800
18.960400 4.805500
18.987400 4.560300
19.014400 4.546200
19.041400 4.493000
19.068400 4.685600
19.095300 4.492300
19.122300 4.700000
19.149300 4.992900
19.176300 5.139600
19.203300 5.382600
19.230200 5.514400
19.257200 5.682700
19.284200 5.209400
19.311200 4.782800
19.338200 4.452200
19.365200 4.869400
19.392100 5.044300
19.419100 4.638700
19.446100 4.967000
19.473100 5.668400
19.500100 5.634200
19.527000 5.652200
19.554000 5.607500
19.581000 4.076700
19.608000 3.549700
19.635000 2.983900
19.662000 2.729700
19.688900 3.357900
19.715900 3.882000
19.742900 4.740700
19.769900 5.561200
19.796900 5.232100
19.823800 4.971900
19.850800 4.826900
19.877800 5.102100
19.904800 5.170400
19.931800 4.888800
19.958700 4.745500
19.985700 4.608200
20.012700 4.549100
20.039700 4.408300
20.066700 4.297000
20.093700 4.405300
20.120600 4.548300
20.147600 5.041400
20.174600 6.043200
20.201600 6.696000
20.228600 5.513400
20.255500 4.840100
20.282500 4.413800
20.309500 4.314500
20.336500 4.330000
20.363500 5.251300
20.390400 4.690900
20.417400 4.807200
20.444400 5.041200
20.471400 5.135100
20.498400 5.383900
20.525400 5.299900
20.552300 5.053100
20.579300 4.804600
20.606300 5.024100
20.633300 5.094200
20.660300 4.944200
20.687200 4.930400
20.714200 4.646800
20.741200 4.434000
20.768200 4.431300
20.795200 4.261700
20.822200 4.279900
20.849100 4.244000
20.876100 4.649500
20.903100 4.116400
20.930100 4.422400
20.957100 5.284500
20.984000 5.042800
21.011000 4.915900
21.038000 4.589300
21.065000 4.537100
21.092000 4.677500
21.118900 4.780900
21.145900 4.855000
21.172900 4.743300
21.199900 4.946900
21.226900 4.869200
21.253900 4.790300
21.280800 4.707400
21.307800 4.640700
21.334800 4.678200
21.361800 4.916800
21.388800 4.718200
21.415700 4.479600
21.442700 4.814800
21.469700 4.217500
21.496700 4.082900
21.523700 4.054800
21.550600 4.022000
21.577600 4.033300
21.604600 3.975000
21.631600 3.943100
21.658600 4.003600
21.685600 4.015900
21.712500 3.979400
21.739500 4.049500
21.766500 4.014900
21.793500 4.071600
21.820500 3.739800
21.847400 3.624000
21.874400 3.496700
21.901400 3.397200
21.928400 3.238000
21.955400 3.019300
21.982300 2.822800
22.009300 2.687000
22.036300 2.538400
22.063300 2.380900
22.090300 2.253200
22.117300 2.170100
22.144200 2.192600
22.171200 2.181300
22.198200 2.141900
22.225200 2.111100
22.252200 2.051900
22.279100 1.976500
22.306100 1.899300
22.333100 1.821900
22.360100 1.686900
22.387100 1.574100
22.414100 1.681600
22.441000 1.555100
22.468000 1.404200
22.495000 1.285500
22.522000 1.250000
22.549000 1.174600
22.575900 1.097800
22.602900 1.091300
22.629900 1.074100
22.656900 1.073500
22.683900 1.068500
22.710800 1.069700
22.737800 1.068200
22.764800 1.199700
22.791800 1.003000
22.818800 1.004700
22.845800 1.004800
22.872700 1.007300
22.899700 1.006700
22.926700 1.000800
22.953700 0.996500
22.980700 0.993200
23.007600 0.979800
23.034600 0.884800
23.061600 0.846000
23.088600 0.827100
23.115600 0.824800
23.142500 0.847400
23.169500 1.116800
23.196500 1.302300
23.223500 0.940900
23.250500 0.559700
23.277500 0.492500
23.304400 0.442500
23.331400 0.400800
23.358400 0.372300
23.385400 0.354000
23.412400 0.343200
23.439300 0.340000
23.466300 0.421500
23.493300 0.469100
23.520300 0.446700
23.547300 0.368700
23.574300 0.322500
23.601200 0.267400
23.628200 0.217000
23.655200 0.146100
23.682200 0.001100
23.709200 0.000000
23.736100 0.000000
23.763100 0.000000
23.790100 0.000000
23.817100 0.000000
23.844100 0.000000
23.871000 0.000000
23.898000 0.000000
23.925000 0.000000
23.952000 0.000000
23.979000 0.000000
24.006000 0.000000
24.032900 0.000000
24.059900 0.000000
24.086900 0.000000
24.113900 0.000000
24.140900 0.000000
24.167800 0.000000
24.194800 0.000000
24.221800 0.000000
24.248800 0.000000
24.275800 0.000000
24.302700 0.000000
24.329700 0.000000
24.356700 0.000000
24.383700 0.000000
24.410700 0.000000
24.437700 0.000000
24.464600 0.000000
24.491600 0.000000
24.518600 0.000000
24.545600 0.000000
24.572600 0.000000
24.599500 0.000000
24.626500 0.000000
24.653500 0.000000
24.680500 0.000000
24.707500 0.000000
24.734500 0.000000
24.761400 0.000000
24.788400 0.000000
24.815400 0.000000
24.842400 0.000000
24.869400 0.000000
24.896300 0.000000
24.923300 0.000000
24.950300 0.000000
24.977300 0.000000
25.004300 0.000000
25.031200 0.000000
25.058200 0.000000
25.085200 0.000000
25.112200 0.000000
25.139200 0.000000
25.166200 0.000000
25.193100 0.000000
25.220100 0.000000
25.247100 0.000000
25.274100 0.000000
25.301100 0.000000
25.328000 0.000000
25.355000 0.000000
25.382000 0.000000
25.409000 0.000000
25.436000 0.000000
25.462900 0.000000
25.489900 0.000000
25.516900 0.000000
25.543900 0.000000
25.570900 0.000000
25.597900 0.000000
25.624800 0.000000
25.651800 0.000000
25.678800 0.000000
25.705800 0.000000
25.732800 0.000000
25.759700 0.000000
25.786700 0.000000
25.813700 0.000000
25.840700 0.000000
25.867700 0.000000
25.894600 0.000000
25.921600 0.000000
25.948600 0.000000
25.975600 0.000000
26.002600 0.000000
26.029600 0.000000
26.056500 0.000000
26.083500 0.000000
26.110500 0.000000
26.137500 0.000000
e
