set title 'mp-1224388 - Density of States'
set xlabel 'Energy (eV)'
set ylabel 'DOS (states/eV)'
set grid
set xrange [-10:10]
set yrange [0:13.629]
set xzeroaxis lt -1
set terminal png size 800,600
set output 'mp-1224388_dos_gnuplot.png'
plot '-' using 1:2 with lines title 'DOS'
-27.694300 0.000000
-27.665300 0.000000
-27.636400 0.000000
-27.607400 0.000000
-27.578500 0.000000
-27.549600 0.000000
-27.520600 0.000000
-27.491700 0.000000
-27.462700 0.000000
-27.433800 0.000000
-27.404900 0.000000
-27.375900 0.000000
-27.347000 0.000000
-27.318000 0.000000
-27.289100 0.000000
-27.260200 0.000000
-27.231200 0.000000
-27.202300 0.000000
-27.173300 0.000000
-27.144400 0.000000
-27.115500 0.000000
-27.086500 0.000000
-27.057600 0.000000
-27.028700 0.000000
-26.999700 0.000000
-26.970800 0.000000
-26.941800 0.000000
-26.912900 0.000000
-26.884000 0.000000
-26.855000 0.000000
-26.826100 0.000000
-26.797100 0.000000
-26.768200 0.000000
-26.739300 0.000000
-26.710300 0.000000
-26.681400 0.000000
-26.652400 0.000000
-26.623500 0.000000
-26.594600 0.000000
-26.565600 0.000000
-26.536700 0.000000
-26.507700 0.000000
-26.478800 0.000000
-26.449900 0.000000
-26.420900 0.000000
-26.392000 0.000000
-26.363100 0.000000
-26.334100 0.000000
-26.305200 0.000000
-26.276200 0.000000
-26.247300 0.000000
-26.218400 0.000000
-26.189400 0.000000
-26.160500 0.000000
-26.131500 0.000000
-26.102600 0.000000
-26.073700 0.000000
-26.044700 0.000000
-26.015800 0.000000
-25.986800 0.000000
-25.957900 0.000000
-25.929000 0.000000
-25.900000 0.000000
-25.871100 0.000000
-25.842100 0.000000
-25.813200 0.000000
-25.784300 0.000000
-25.755300 0.000000
-25.726400 0.000000
-25.697500 0.000000
-25.668500 0.000000
-25.639600 0.000000
-25.610600 0.000000
-25.581700 0.000000
-25.552800 0.000000
-25.523800 0.000000
-25.494900 0.000000
-25.465900 0.000000
-25.437000 0.000000
-25.408100 0.000000
-25.379100 0.000000
-25.350200 0.000000
-25.321200 0.000000
-25.292300 0.000000
-25.263400 0.000000
-25.234400 0.000000
-25.205500 0.000000
-25.176500 0.000000
-25.147600 0.000000
-25.118700 0.000000
-25.089700 0.000000
-25.060800 0.240000
-25.031900 6.149500
-25.002900 5.799400
-24.974000 6.792400
-24.945000 9.314200
-24.916100 6.535100
-24.887200 4.031400
-24.858200 4.874200
-24.829300 7.049600
-24.800300 9.718100
-24.771400 8.543200
-24.742500 1.350600
-24.713500 17.257700
-24.684600 18.689600
-24.655600 21.123900
-24.626700 29.471600
-24.597800 6.333900
-24.568800 6.773600
-24.539900 10.426000
-24.510900 11.488800
-24.482000 8.539300
-24.453100 6.811300
-24.424100 6.595600
-24.395200 6.535900
-24.366300 0.218800
-24.337300 0.000000
-24.308400 0.000000
-24.279400 0.000000
-24.250500 0.000000
-24.221600 0.000000
-24.192600 0.000000
-24.163700 0.000000
-24.134700 0.360500
-24.105800 4.662200
-24.076900 7.710700
-24.047900 19.622000
-24.019000 26.101200
-23.990000 27.147600
-23.961100 25.578100
-23.932200 4.142000
-23.903200 4.943700
-23.874300 6.619100
-23.845400 8.476000
-23.816400 21.793400
-23.787500 23.707100
-23.758500 14.959000
-23.729600 12.513700
-23.700700 16.138000
-23.671700 24.019400
-23.642800 44.070400
-23.613800 34.430500
-23.584900 34.858900
-23.556000 21.389000
-23.527000 14.324400
-23.498100 8.464400
-23.469100 7.786100
-23.440200 0.000000
-23.411300 0.000000
-23.382300 0.000000
-23.353400 0.000000
-23.324400 0.000000
-23.295500 0.000000
-23.266600 0.000000
-23.237600 0.000000
-23.208700 0.000000
-23.179800 0.000000
-23.150800 0.000000
-23.121900 0.000000
-23.092900 0.000000
-23.064000 0.000000
-23.035100 0.000000
-23.006100 0.000000
-22.977200 0.000000
-22.948200 0.000000
-22.919300 0.000000
-22.890400 0.000000
-22.861400 0.000000
-22.832500 0.000000
-22.803500 0.000000
-22.774600 0.000000
-22.745700 0.000000
-22.716700 0.000000
-22.687800 0.000000
-22.658800 0.000000
-22.629900 0.000000
-22.601000 0.000000
-22.572000 0.000000
-22.543100 0.000000
-22.514200 0.000000
-22.485200 0.000000
-22.456300 0.000000
-22.427300 0.000000
-22.398400 0.000000
-22.369500 0.000000
-22.340500 0.000000
-22.311600 0.000000
-22.282600 0.000000
-22.253700 0.000000
-22.224800 0.000000
-22.195800 0.000000
-22.166900 0.000000
-22.137900 0.000000
-22.109000 0.000000
-22.080100 0.000000
-22.051100 0.000000
-22.022200 0.000000
-21.993200 0.000000
-21.964300 0.000000
-21.935400 0.000000
-21.906400 0.000000
-21.877500 0.000000
-21.848600 0.000000
-21.819600 0.000000
-21.790700 0.000000
-21.761700 0.000000
-21.732800 0.000000
-21.703900 0.000000
-21.674900 0.000000
-21.646000 0.000000
-21.617000 0.000000
-21.588100 0.000000
-21.559200 0.000000
-21.530200 0.000000
-21.501300 0.000000
-21.472300 0.000000
-21.443400 0.000000
-21.414500 0.000000
-21.385500 0.000000
-21.356600 0.000000
-21.327600 0.000000
-21.298700 0.000000
-21.269800 0.000000
-21.240800 0.000000
-21.211900 0.000000
-21.183000 0.000000
-21.154000 0.000000
-21.125100 0.000000
-21.096100 0.000000
-21.067200 0.000000
-21.038300 0.000000
-21.009300 0.000000
-20.980400 0.000000
-20.951400 0.000000
-20.922500 0.000000
-20.893600 0.000000
-20.864600 0.000000
-20.835700 0.000000
-20.806700 0.000000
-20.777800 0.000000
-20.748900 0.000000
-20.719900 0.000000
-20.691000 0.000000
-20.662100 0.000000
-20.633100 0.000000
-20.604200 0.000000
-20.575200 0.000000
-20.546300 0.000000
-20.517400 0.000000
-20.488400 0.000000
-20.459500 0.000000
-20.430500 0.000000
-20.401600 0.000000
-20.372700 0.000000
-20.343700 0.000000
-20.314800 0.000000
-20.285800 0.000000
-20.256900 0.000000
-20.228000 0.000000
-20.199000 0.000000
-20.170100 0.000000
-20.141100 0.000000
-20.112200 0.000000
-20.083300 0.000000
-20.054300 0.000000
-20.025400 0.000000
-19.996500 0.000000
-19.967500 0.000000
-19.938600 0.000000
-19.909600 0.000000
-19.880700 0.000000
-19.851800 0.000000
-19.822800 0.000000
-19.793900 0.000000
-19.764900 0.000000
-19.736000 0.000000
-19.707100 0.000000
-19.678100 0.000000
-19.649200 0.000000
-19.620200 0.000000
-19.591300 0.000000
-19.562400 0.000000
-19.533400 0.000000
-19.504500 0.000000
-19.475500 0.000000
-19.446600 0.000000
-19.417700 0.000000
-19.388700 0.000000
-19.359800 0.000000
-19.330900 0.000000
-19.301900 0.000000
-19.273000 0.000000
-19.244000 0.000000
-19.215100 0.000000
-19.186200 0.000000
-19.157200 0.000000
-19.128300 0.000000
-19.099300 0.000000
-19.070400 0.000000
-19.041500 0.000000
-19.012500 0.000000
-18.983600 0.000000
-18.954600 0.000000
-18.925700 0.000000
-18.896800 0.000000
-18.867800 0.000000
-18.838900 0.000000
-18.809900 0.000000
-18.781000 0.000000
-18.752100 0.000000
-18.723100 0.000000
-18.694200 0.000000
-18.665300 0.000000
-18.636300 0.000000
-18.607400 0.000000
-18.578400 0.000000
-18.549500 0.000000
-18.520600 0.000000
-18.491600 0.000000
-18.462700 0.000000
-18.433700 0.000000
-18.404800 0.000000
-18.375900 0.000000
-18.346900 0.000000
-18.318000 0.000000
-18.289000 0.000000
-18.260100 0.000000
-18.231200 0.000000
-18.202200 0.000000
-18.173300 0.000000
-18.144300 0.000000
-18.115400 0.000000
-18.086500 0.000000
-18.057500 0.000000
-18.028600 0.000000
-17.999700 0.000000
-17.970700 0.000000
-17.941800 0.000000
-17.912800 0.000000
-17.883900 0.000000
-17.855000 0.000000
-17.826000 0.000000
-17.797100 0.000000
-17.768100 0.000000
-17.739200 0.000000
-17.710300 0.000000
-17.681300 0.000000
-17.652400 0.000000
-17.623400 0.000000
-17.594500 0.000000
-17.565600 0.000000
-17.536600 0.000000
-17.507700 0.000000
-17.478700 0.000000
-17.449800 0.000000
-17.420900 0.000000
-17.391900 0.000000
-17.363000 0.000000
-17.334100 0.000000
-17.305100 0.000000
-17.276200 0.000000
-17.247200 0.000000
-17.218300 0.000000
-17.189400 0.000000
-17.160400 0.000000
-17.131500 0.000000
-17.102500 0.000000
-17.073600 0.000000
-17.044700 0.000000
-17.015700 0.000000
-16.986800 0.000000
-16.957800 0.000000
-16.928900 0.000000
-16.900000 0.000000
-16.871000 0.000000
-16.842100 0.000000
-16.813200 0.000000
-16.784200 0.000000
-16.755300 0.000000
-16.726300 0.000000
-16.697400 0.000000
-16.668500 0.000000
-16.639500 0.000000
-16.610600 0.000000
-16.581600 0.000000
-16.552700 0.000000
-16.523800 0.000000
-16.494800 0.000000
-16.465900 0.000000
-16.436900 0.000000
-16.408000 0.000000
-16.379100 0.000000
-16.350100 0.000000
-16.321200 0.000000
-16.292200 0.000000
-16.263300 0.000000
-16.234400 0.000000
-16.205400 0.000000
-16.176500 0.000000
-16.147600 0.000000
-16.118600 0.000000
-16.089700 0.000000
-16.060700 0.000000
-16.031800 0.000000
-16.002900 0.000000
-15.973900 0.000000
-15.945000 0.000000
-15.916000 0.000000
-15.887100 0.000000
-15.858200 0.000000
-15.829200 0.000000
-15.800300 0.000000
-15.771300 0.000000
-15.742400 0.000000
-15.713500 0.000000
-15.684500 0.000000
-15.655600 0.000000
-15.626600 0.000000
-15.597700 0.000000
-15.568800 0.000000
-15.539800 0.000000
-15.510900 0.000000
-15.482000 0.000000
-15.453000 0.000000
-15.424100 0.000000
-15.395100 0.000000
-15.366200 0.000000
-15.337300 0.000000
-15.308300 0.000000
-15.279400 0.000000
-15.250400 0.000000
-15.221500 0.000000
-15.192600 0.000000
-15.163600 0.000000
-15.134700 0.000000
-15.105700 0.000000
-15.076800 0.000000
-15.047900 0.000000
-15.018900 0.000000
-14.990000 0.000000
-14.961000 0.000000
-14.932100 0.000000
-14.903200 0.000000
-14.874200 0.000000
-14.845300 0.000000
-14.816400 0.000000
-14.787400 0.000000
-14.758500 0.000000
-14.729500 0.000000
-14.700600 0.000000
-14.671700 0.000000
-14.642700 0.000000
-14.613800 0.000000
-14.584800 0.000000
-14.555900 0.000000
-14.527000 0.000000
-14.498000 0.000000
-14.469100 0.000000
-14.440100 0.000000
-14.411200 0.000000
-14.382300 0.000000
-14.353300 0.000000
-14.324400 0.000000
-14.295400 0.000000
-14.266500 0.000000
-14.237600 0.000000
-14.208600 0.000000
-14.179700 0.000000
-14.150800 0.000000
-14.121800 0.000000
-14.092900 0.000000
-14.063900 0.000000
-14.035000 0.000000
-14.006100 0.000000
-13.977100 0.000000
-13.948200 0.000000
-13.919200 0.000000
-13.890300 0.000000
-13.861400 0.000000
-13.832400 0.000000
-13.803500 0.000000
-13.774500 0.000000
-13.745600 0.000000
-13.716700 0.000000
-13.687700 0.000000
-13.658800 0.000000
-13.629900 0.000000
-13.600900 0.000000
-13.572000 0.000000
-13.543000 0.000000
-13.514100 0.000000
-13.485200 0.000000
-13.456200 0.000000
-13.427300 0.000000
-13.398300 0.000000
-13.369400 0.000000
-13.340500 0.000000
-13.311500 0.000000
-13.282600 0.000000
-13.253600 0.000000
-13.224700 0.000000
-13.195800 0.000000
-13.166800 0.000000
-13.137900 0.000000
-13.108900 0.000000
-13.080000 0.000000
-13.051100 0.000000
-13.022100 0.000000
-12.993200 0.000000
-12.964300 0.000000
-12.935300 0.000000
-12.906400 0.000000
-12.877400 0.000000
-12.848500 0.000000
-12.819600 0.000000
-12.790600 0.000000
-12.761700 0.000000
-12.732700 0.000000
-12.703800 0.000000
-12.674900 0.000000
-12.645900 0.000000
-12.617000 0.000000
-12.588000 0.000000
-12.559100 0.000000
-12.530200 0.000000
-12.501200 0.000000
-12.472300 0.000000
-12.443300 0.000000
-12.414400 0.000000
-12.385500 0.000000
-12.356500 0.000000
-12.327600 0.000000
-12.298700 0.000000
-12.269700 0.000000
-12.240800 0.000000
-12.211800 0.000000
-12.182900 0.000000
-12.154000 0.000000
-12.125000 0.000000
-12.096100 0.000000
-12.067100 0.000000
-12.038200 0.000000
-12.009300 0.000000
-11.980300 0.000000
-11.951400 0.000000
-11.922400 0.000000
-11.893500 0.000000
-11.864600 0.000000
-11.835600 0.000000
-11.806700 0.000000
-11.777700 0.000000
-11.748800 0.000000
-11.719900 0.000000
-11.690900 0.000000
-11.662000 0.000000
-11.633100 0.000000
-11.604100 0.000000
-11.575200 0.000000
-11.546200 0.000000
-11.517300 0.000000
-11.488400 0.000000
-11.459400 0.000000
-11.430500 0.000000
-11.401500 0.000000
-11.372600 0.000000
-11.343700 0.000000
-11.314700 0.000000
-11.285800 0.000000
-11.256800 0.000000
-11.227900 0.000000
-11.199000 0.000000
-11.170000 0.000000
-11.141100 0.000000
-11.112100 0.000000
-11.083200 0.000000
-11.054300 0.000000
-11.025300 0.000000
-10.996400 0.000000
-10.967500 0.000000
-10.938500 0.000000
-10.909600 0.000000
-10.880600 0.000000
-10.851700 0.000000
-10.822800 0.000000
-10.793800 0.000000
-10.764900 0.000000
-10.735900 0.000000
-10.707000 0.000000
-10.678100 0.000000
-10.649100 0.000000
-10.620200 0.000000
-10.591200 0.000000
-10.562300 0.000000
-10.533400 0.000000
-10.504400 0.000000
-10.475500 0.000000
-10.446500 0.000000
-10.417600 0.000000
-10.388700 0.000000
-10.359700 0.000000
-10.330800 0.000000
-10.301900 0.000000
-10.272900 0.000000
-10.244000 0.000000
-10.215000 0.000000
-10.186100 0.000000
-10.157200 0.000000
-10.128200 0.000000
-10.099300 0.000000
-10.070300 0.000000
-10.041400 0.000000
-10.012500 0.000000
-9.983500 0.000000
-9.954600 0.000000
-9.925600 0.000000
-9.896700 0.000000
-9.867800 0.004100
-9.838800 0.084600
-9.809900 0.234100
-9.781000 0.465100
-9.752000 0.550300
-9.723100 0.566000
-9.694100 0.486300
-9.665200 0.512600
-9.636300 0.538900
-9.607300 0.565100
-9.578400 0.591400
-9.549400 0.609500
-9.520500 0.611600
-9.491600 0.606600
-9.462600 0.608200
-9.433700 0.623900
-9.404700 0.643200
-9.375800 0.662500
-9.346900 0.681800
-9.317900 0.701100
-9.289000 0.720400
-9.260000 0.739800
-9.231100 0.769200
-9.202200 0.812900
-9.173200 0.857500
-9.144300 0.902100
-9.115400 0.957600
-9.086400 1.033100
-9.057500 1.108600
-9.028500 1.184000
-8.999600 1.259500
-8.970700 1.927400
-8.941700 7.166000
-8.912800 7.304800
-8.883800 3.936700
-8.854900 3.460000
-8.826000 3.342800
-8.797000 3.211700
-8.768100 2.961900
-8.739100 3.097600
-8.710200 2.909500
-8.681300 2.387300
-8.652300 1.864900
-8.623400 1.096500
-8.594400 2.847000
-8.565500 8.358500
-8.536600 8.758900
-8.507600 7.210600
-8.478700 5.172600
-8.449800 4.665500
-8.420800 4.959600
-8.391900 5.100900
-8.362900 3.606700
-8.334000 3.494800
-8.305100 3.152400
-8.276100 2.805400
-8.247200 2.527600
-8.218200 2.907500
-8.189300 2.830800
-8.160400 0.979800
-8.131400 0.000000
-8.102500 0.000000
-8.073500 0.000000
-8.044600 0.000000
-8.015700 0.000000
-7.986700 0.000000
-7.957800 0.000000
-7.928800 0.000000
-7.899900 0.000000
-7.871000 0.000000
-7.842000 0.000000
-7.813100 0.000000
-7.784200 0.000000
-7.755200 0.000000
-7.726300 0.000000
-7.697300 0.000000
-7.668400 0.000000
-7.639500 0.000000
-7.610500 0.000000
-7.581600 0.000000
-7.552600 0.000000
-7.523700 0.000000
-7.494800 0.000000
-7.465800 0.000000
-7.436900 0.000000
-7.407900 0.000000
-7.379000 0.000000
-7.350100 0.000000
-7.321100 0.000000
-7.292200 0.000000
-7.263200 0.000000
-7.234300 0.000000
-7.205400 0.000000
-7.176400 0.000000
-7.147500 0.000000
-7.118600 0.000000
-7.089600 0.000000
-7.060700 0.000000
-7.031700 0.000000
-7.002800 0.000000
-6.973900 0.000000
-6.944900 0.000000
-6.916000 0.000000
-6.887000 0.000000
-6.858100 0.000000
-6.829200 0.000000
-6.800200 0.000000
-6.771300 0.000000
-6.742300 0.000000
-6.713400 0.000000
-6.684500 0.000000
-6.655500 0.000000
-6.626600 0.000000
-6.597700 0.000000
-6.568700 0.000000
-6.539800 0.000000
-6.510800 0.000000
-6.481900 0.000000
-6.453000 0.000000
-6.424000 0.000000
-6.395100 0.000000
-6.366100 0.000000
-6.337200 0.000000
-6.308300 0.000000
-6.279300 0.000000
-6.250400 0.000000
-6.221400 0.000000
-6.192500 0.000000
-6.163600 0.000000
-6.134600 0.000000
-6.105700 0.000000
-6.076700 0.000000
-6.047800 0.000000
-6.018900 0.000000
-5.989900 0.000000
-5.961000 0.000000
-5.932100 0.000000
-5.903100 0.000000
-5.874200 0.000000
-5.845200 0.000000
-5.816300 0.000000
-5.787400 0.000000
-5.758400 0.000000
-5.729500 0.000000
-5.700500 0.000000
-5.671600 0.000000
-5.642700 0.000000
-5.613700 0.000000
-5.584800 0.000000
-5.555800 0.000000
-5.526900 0.000000
-5.498000 0.000000
-5.469000 0.000000
-5.440100 0.000000
-5.411100 0.000000
-5.382200 0.000000
-5.353300 0.000000
-5.324300 0.000000
-5.295400 0.000000
-5.266500 0.000000
-5.237500 0.000000
-5.208600 0.000000
-5.179600 0.000000
-5.150700 0.000000
-5.121800 0.000000
-5.092800 0.000000
-5.063900 0.000000
-5.034900 0.000000
-5.006000 0.000000
-4.977100 0.000000
-4.948100 0.000000
-4.919200 0.000000
-4.890200 0.000000
-4.861300 0.000000
-4.832400 0.000000
-4.803400 0.000000
-4.774500 0.000000
-4.745500 0.000000
-4.716600 0.000000
-4.687700 0.000000
-4.658700 0.000000
-4.629800 0.000000
-4.600900 0.000000
-4.571900 0.000000
-4.543000 0.000000
-4.514000 0.000000
-4.485100 0.000000
-4.456200 0.000000
-4.427200 0.000000
-4.398300 0.000000
-4.369300 0.000000
-4.340400 0.000000
-4.311500 0.000000
-4.282500 0.000000
-4.253600 0.000000
-4.224600 0.000000
-4.195700 0.000000
-4.166800 0.000000
-4.137800 0.000000
-4.108900 0.000000
-4.079900 0.000000
-4.051000 0.000000
-4.022100 0.000000
-3.993100 0.000000
-3.964200 0.000000
-3.935300 0.000000
-3.906300 0.000000
-3.877400 0.000000
-3.848400 0.000000
-3.819500 0.000000
-3.790600 0.000000
-3.761600 0.000000
-3.732700 0.000000
-3.703700 0.000000
-3.674800 0.000000
-3.645900 0.000000
-3.616900 0.000000
-3.588000 0.000000
-3.559000 0.000000
-3.530100 0.000000
-3.501200 0.000000
-3.472200 0.000000
-3.443300 0.000000
-3.414300 0.000000
-3.385400 0.000000
-3.356500 0.000000
-3.327500 0.000000
-3.298600 0.000000
-3.269700 0.000000
-3.240700 0.000000
-3.211800 0.000000
-3.182800 0.000000
-3.153900 0.000000
-3.125000 0.000000
-3.096000 0.000000
-3.067100 0.000000
-3.038100 0.000000
-3.009200 0.000000
-2.980300 0.000000
-2.951300 0.000000
-2.922400 0.000000
-2.893400 0.000000
-2.864500 0.000000
-2.835600 0.000000
-2.806600 0.000000
-2.777700 0.000000
-2.748800 0.000000
-2.719800 0.000000
-2.690900 0.000000
-2.661900 0.000000
-2.633000 0.000000
-2.604100 0.000000
-2.575100 0.000000
-2.546200 0.000000
-2.517200 0.000000
-2.488300 0.000000
-2.459400 0.000000
-2.430400 0.000000
-2.401500 0.000000
-2.372500 0.000000
-2.343600 0.000000
-2.314700 0.000000
-2.285700 0.000000
-2.256800 0.000000
-2.227800 0.000000
-2.198900 0.000000
-2.170000 0.000000
-2.141000 0.000000
-2.112100 0.000000
-2.083200 0.000000
-2.054200 0.000000
-2.025300 0.000000
-1.996300 0.000000
-1.967400 0.000000
-1.938500 0.000000
-1.909500 0.000000
-1.880600 0.000000
-1.851600 0.000000
-1.822700 0.000000
-1.793800 0.000000
-1.764800 0.000000
-1.735900 0.000000
-1.706900 0.000000
-1.678000 0.000000
-1.649100 0.000000
-1.620100 0.000000
-1.591200 0.000000
-1.562200 0.000000
-1.533300 0.000000
-1.504400 0.000000
-1.475400 0.000000
-1.446500 0.000000
-1.417600 0.000000
-1.388600 0.000000
-1.359700 0.000000
-1.330700 0.000000
-1.301800 0.000000
-1.272900 0.000000
-1.243900 0.000000
-1.215000 0.000000
-1.186000 0.000000
-1.157100 0.003100
-1.128200 0.019500
-1.099200 0.043700
-1.070300 0.074100
-1.041300 0.110000
-1.012400 0.224500
-0.983500 0.540600
-0.954500 0.873300
-0.925600 1.213900
-0.896600 1.432500
-0.867700 1.368000
-0.838800 1.295300
-0.809800 1.287400
-0.780900 1.325600
-0.752000 1.376800
-0.723000 1.402900
-0.694100 1.434600
-0.665100 1.482800
-0.636200 1.530200
-0.607300 1.572200
-0.578300 1.608500
-0.549400 1.639500
-0.520400 1.669200
-0.491500 1.708800
-0.462600 1.771800
-0.433600 1.853600
-0.404700 1.944600
-0.375700 2.040400
-0.346800 2.143200
-0.317900 2.258800
-0.288900 2.380000
-0.260000 2.501500
-0.231000 2.623100
-0.202100 3.414300
-0.173200 3.985800
-0.144200 3.351000
-0.115300 2.691400
-0.086400 2.718600
-0.057400 2.475800
-0.028500 1.521000
0.000500 1.238100
0.029400 0.994700
0.058300 0.751200
0.087300 0.517900
0.116200 0.340400
0.145200 0.162800
0.174100 0.036500
0.203000 0.000000
0.232000 0.000000
0.260900 0.000000
0.289900 1.152300
0.318800 0.975700
0.347700 1.174400
0.376700 1.277800
0.405600 1.623700
0.434500 2.312700
0.463500 2.956600
0.492400 3.393500
0.521400 3.554100
0.550300 3.957600
0.579200 4.798800
0.608200 8.971300
0.637100 7.372100
0.666100 7.245200
0.695000 5.051100
0.723900 4.218400
0.752900 3.704900
0.781800 3.206500
0.810800 2.588600
0.839700 2.128800
0.868600 1.731400
0.897600 1.528500
0.926500 1.580600
0.955500 1.740500
0.984400 1.971200
1.013300 2.162100
1.042300 2.449100
1.071200 3.110600
1.100100 3.234300
1.129100 3.340700
1.158000 3.242200
1.187000 3.103700
1.215900 3.170600
1.244800 4.324500
1.273800 5.849300
1.302700 7.128400
1.331700 6.426300
1.360600 3.901300
1.389500 3.081700
1.418500 9.836400
1.447400 10.179700
1.476400 12.390000
1.505300 10.749500
1.534200 4.716700
1.563200 3.879500
1.592100 3.341300
1.621100 3.019500
1.650000 6.272800
1.678900 10.528900
1.707900 5.697900
1.736800 3.353700
1.765700 3.440100
1.794700 3.627500
1.823600 3.701100
1.852600 4.321300
1.881500 4.987100
1.910400 6.994600
1.939400 7.495500
1.968300 5.659700
1.997300 3.886500
2.026200 3.182600
2.055100 3.050300
2.084100 3.034200
2.113000 3.019800
2.142000 3.131200
2.170900 3.788700
2.199800 5.137500
2.228800 6.093700
2.257700 6.111500
2.286700 4.576900
2.315600 2.797400
2.344500 2.994000
2.373500 3.074900
2.402400 3.083300
2.431300 2.958900
2.460300 2.898100
2.489200 2.871400
2.518200 2.801400
2.547100 2.780100
2.576000 2.536700
2.605000 2.035700
2.633900 1.566700
2.662900 1.149600
2.691800 0.930300
2.720700 0.926500
2.749700 0.956600
2.778600 0.919400
2.807600 0.832800
2.836500 0.730500
2.865400 0.628700
2.894400 0.656300
2.923300 0.697300
2.952300 0.539900
2.981200 0.296700
3.010100 0.082800
3.039100 0.000000
3.068000 0.000000
3.096900 0.000000
3.125900 0.000000
3.154800 0.000000
3.183800 0.000000
3.212700 0.000000
3.241600 0.000000
3.270600 0.000000
3.299500 0.000000
3.328500 0.000000
3.357400 0.000000
3.386300 0.000000
3.415300 0.000000
3.444200 0.000000
3.473200 0.000000
3.502100 0.000000
3.531000 0.000000
3.560000 0.001300
3.588900 0.003600
3.617900 0.006600
3.646800 0.010100
3.675700 0.014400
3.704700 0.019200
3.733600 0.043200
3.762500 0.081800
3.791500 0.132000
3.820400 0.190300
3.849400 0.245100
3.878300 0.300800
3.907200 0.361100
3.936200 0.447000
3.965100 0.527600
3.994100 0.608900
4.023000 0.696900
4.051900 0.772800
4.080900 0.922300
4.109800 1.337600
4.138800 1.723200
4.167700 2.004900
4.196600 2.102100
4.225600 2.110300
4.254500 2.150500
4.283400 2.238700
4.312400 2.376500
4.341300 2.563400
4.370300 2.693800
4.399200 2.712800
4.428100 2.786900
4.457100 2.702800
4.486000 2.453900
4.515000 2.260000
4.543900 2.069300
4.572800 1.993300
4.601800 1.919100
4.630700 1.742600
4.659700 1.513600
4.688600 1.316300
4.717500 1.202000
4.746500 1.111500
4.775400 1.029400
4.804400 0.956900
4.833300 0.906400
4.862200 0.876200
4.891200 0.928200
4.920100 1.160000
4.949000 1.242400
4.978000 1.247500
5.006900 1.293400
5.035900 1.402500
5.064800 1.494400
5.093700 1.592200
5.122700 1.774100
5.151600 2.052800
5.180600 2.257200
5.209500 2.841000
5.238400 2.662000
5.267400 2.682000
5.296300 2.695500
5.325300 2.814400
5.354200 2.572200
5.383100 2.247300
5.412100 2.358100
5.441000 2.478300
5.470000 2.607100
5.498900 2.752000
5.527800 2.980700
5.556800 3.165400
5.585700 3.453100
5.614600 4.244700
5.643600 4.882400
5.672500 3.094800
5.701500 2.384300
5.730400 2.315100
5.759300 1.694600
5.788300 1.479800
5.817200 1.815800
5.846200 1.965000
5.875100 2.061600
5.904000 2.228800
5.933000 2.688600
5.961900 6.710800
5.990900 4.453000
6.019800 4.008700
6.048700 3.697500
6.077700 3.773900
6.106600 3.596100
6.135600 3.562900
6.164500 3.530000
6.193400 3.460200
6.222400 3.504200
6.251300 3.444200
6.280200 3.203200
6.309200 2.789200
6.338100 2.361300
6.367100 1.930800
6.396000 1.702700
6.424900 1.590200
6.453900 1.470900
6.482800 1.464000
6.511800 1.342300
6.540700 1.292000
6.569600 1.279900
6.598600 1.296400
6.627500 1.332500
6.656500 1.372000
6.685400 1.392500
6.714300 1.404500
6.743300 1.432800
6.772200 1.457100
6.801200 1.428200
6.830100 1.413800
6.859000 1.476900
6.888000 1.496800
6.916900 1.521100
6.945800 1.534900
6.974800 1.584500
7.003700 1.455600
7.032700 1.451900
7.061600 1.451300
7.090500 1.470900
7.119500 1.542100
7.148400 1.714600
7.177400 1.759100
7.206300 1.851100
7.235200 2.073400
7.264200 2.160000
7.293100 1.857900
7.322100 1.757100
7.351000 1.724900
7.379900 1.757900
7.408900 1.786200
7.437800 1.719600
7.466700 1.722400
7.495700 1.740100
7.524600 1.753900
7.553600 1.787300
7.582500 1.800000
7.611400 1.783700
7.640400 1.784100
7.669300 1.780000
7.698300 1.833100
7.727200 1.966200
7.756100 2.034200
7.785100 2.107500
7.814000 2.103600
7.843000 2.110000
7.871900 2.128800
7.900800 2.214700
7.929800 2.243900
7.958700 1.689800
7.987700 1.381700
8.016600 1.151500
8.045500 1.121000
8.074500 1.187000
8.103400 1.260100
8.132300 1.342400
8.161300 1.456800
8.190200 1.616100
8.219200 2.094300
8.248100 2.447100
8.277000 2.445400
8.306000 2.493700
8.334900 3.221200
8.363900 2.997100
8.392800 3.008700
8.421700 3.036500
8.450700 3.028100
8.479600 3.095600
8.508600 2.604100
8.537500 2.376100
8.566400 2.277000
8.595400 2.186700
8.624300 2.150600
8.653300 2.270300
8.682200 2.380300
8.711100 2.405200
8.740100 2.546000
8.769000 2.695700
8.797900 2.795200
8.826900 2.917300
8.855800 3.193700
8.884800 3.350700
8.913700 3.243400
8.942600 3.197700
8.971600 3.177600
9.000500 3.341300
9.029500 3.522200
9.058400 3.406000
9.087300 3.479700
9.116300 3.582000
9.145200 3.562500
9.174200 3.681100
9.203100 3.794500
9.232000 3.814300
9.261000 3.933200
9.289900 4.111200
9.318900 3.878600
9.347800 4.098200
9.376700 3.389900
9.405700 3.063600
9.434600 3.171800
9.463500 3.426400
9.492500 3.623300
9.521400 4.048500
9.550400 4.257600
9.579300 4.419100
9.608200 4.560500
9.637200 4.741700
9.666100 4.786200
9.695100 4.820300
9.724000 4.386700
9.752900 4.195900
9.781900 4.291100
9.810800 4.410700
9.839800 4.399500
9.868700 4.331900
9.897600 4.240800
9.926600 4.332900
9.955500 4.372000
9.984500 4.265500
10.013400 4.159200
10.042300 3.822800
10.071300 3.612100
10.100200 3.527500
10.129100 3.454200
10.158100 3.439900
10.187000 3.402200
10.216000 3.446100
10.244900 3.450900
10.273800 3.456900
10.302800 3.429200
10.331700 3.590600
10.360700 3.888300
10.389600 4.066300
10.418500 4.185900
10.447500 4.311700
10.476400 4.491400
10.505400 4.669800
10.534300 4.711700
10.563200 4.785500
10.592200 4.955200
10.621100 5.315600
10.650100 5.460600
10.679000 5.721500
10.707900 5.862900
10.736900 6.037400
10.765800 5.940900
10.794700 5.015700
10.823700 4.833900
10.852600 4.518500
10.881600 4.498500
10.910500 4.600600
10.939400 4.015700
10.968400 3.842700
10.997300 3.782800
11.026300 3.730500
11.055200 3.659500
11.084100 3.547400
11.113100 3.718500
11.142000 3.568400
11.171000 3.476900
11.199900 3.475200
11.228800 3.484400
11.257800 3.486700
11.286700 3.462800
11.315600 3.421100
11.344600 3.416700
11.373500 3.496700
11.402500 3.637400
11.431400 3.705400
11.460300 3.681900
11.489300 3.767000
11.518200 3.946100
11.547200 4.070200
11.576100 4.142700
11.605000 4.313600
11.634000 4.485500
11.662900 4.694900
11.691900 5.092200
11.720800 5.447200
11.749700 5.238200
11.778700 5.265600
11.807600 5.198600
11.836600 4.793600
11.865500 4.316200
11.894400 4.262900
11.923400 4.228200
11.952300 4.265300
11.981200 4.348800
12.010200 4.516700
12.039100 4.794600
12.068100 5.186200
12.097000 5.318700
12.125900 5.429000
12.154900 5.634800
12.183800 6.042500
12.212800 7.728400
12.241700 7.158000
12.270600 4.987200
12.299600 5.432700
12.328500 5.894000
12.357500 6.214700
12.386400 6.232000
12.415300 5.685900
12.444300 5.460400
12.473200 5.298300
12.502200 5.015700
12.531100 4.728700
12.560000 4.212800
12.589000 3.641200
12.617900 3.189900
12.646800 3.258800
12.675800 3.703400
12.704700 4.006300
12.733700 4.112000
12.762600 4.079100
12.791500 3.918600
12.820500 3.854800
12.849400 3.955900
12.878400 3.997700
12.907300 4.191200
12.936200 3.585600
12.965200 3.145700
12.994100 3.353400
13.023100 3.596700
13.052000 3.776700
13.080900 3.479100
13.109900 3.188900
13.138800 3.123600
13.167800 3.182000
13.196700 3.341300
13.225600 3.887100
13.254600 3.121600
13.283500 2.943100
13.312400 2.886400
13.341400 2.838500
13.370300 2.775100
13.399300 2.765100
13.428200 2.533100
13.457100 2.308300
13.486100 2.290500
13.515000 2.298900
13.544000 2.330000
13.572900 2.243400
13.601800 2.071300
13.630800 1.945300
13.659700 1.910000
13.688700 1.908000
13.717600 1.935500
13.746500 2.055900
13.775500 2.402400
13.804400 2.501400
13.833400 2.269600
13.862300 2.016200
13.891200 1.919400
13.920200 1.895200
13.949100 1.897600
13.978000 1.899300
14.007000 1.923900
14.035900 1.946700
14.064900 1.990300
14.093800 2.083000
14.122700 2.134400
14.151700 2.171200
14.180600 2.195100
14.209600 2.212000
14.238500 2.245900
14.267400 2.268100
14.296400 2.321000
14.325300 2.474000
14.354300 2.336800
14.383200 2.221300
14.412100 2.134800
14.441100 2.069600
14.470000 2.039000
14.498900 2.045600
14.527900 2.044200
14.556800 2.000900
14.585800 2.081800
14.614700 2.223300
14.643600 2.263400
14.672600 2.247800
14.701500 2.148300
14.730500 2.032000
14.759400 1.974100
14.788300 1.984900
14.817300 1.980200
14.846200 2.012100
14.875200 2.076300
14.904100 2.304300
14.933000 2.621200
14.962000 2.634800
14.990900 2.556300
15.019900 2.520500
15.048800 2.547500
15.077700 2.594800
15.106700 2.622000
15.135600 2.651400
15.164500 2.670800
15.193500 2.735200
15.222400 2.926600
15.251400 3.264600
15.280300 3.588600
15.309200 3.723400
15.338200 3.720300
15.367100 3.007500
15.396100 2.832500
15.425000 2.541300
15.453900 2.447900
15.482900 2.339600
15.511800 2.096400
15.540800 2.010900
15.569700 1.990100
15.598600 2.009700
15.627600 2.031500
15.656500 2.077900
15.685500 2.208400
15.714400 2.495900
15.743300 2.589900
15.772300 2.449500
15.801200 2.469600
15.830100 2.149000
15.859100 2.039300
15.888000 1.935400
15.917000 1.839700
15.945900 1.661000
15.974800 1.568600
16.003800 1.503100
16.032700 1.461300
16.061700 1.455000
16.090600 1.469300
16.119500 1.497000
16.148500 1.548700
16.177400 1.656800
16.206400 1.879700
16.235300 2.004700
16.264200 2.060200
16.293200 2.081800
16.322100 2.048400
16.351100 1.894500
16.380000 1.774900
16.408900 1.751600
16.437900 1.648700
16.466800 1.417200
16.495700 1.185900
16.524700 1.074800
16.553600 1.054400
16.582600 1.093600
16.611500 1.194600
16.640400 1.285800
16.669400 1.417600
16.698300 1.560000
16.727300 1.919300
16.756200 2.090300
16.785100 1.874300
16.814100 1.922600
16.843000 2.001000
16.872000 2.142500
16.900900 2.283500
16.929800 2.415000
16.958800 2.697000
16.987700 2.667800
17.016700 2.626900
17.045600 2.575500
17.074500 2.629700
17.103500 2.659700
17.132400 2.603800
17.161300 2.583600
17.190300 2.634600
17.219200 2.723700
17.248200 2.842500
17.277100 3.043400
17.306000 3.195100
17.335000 3.361600
17.363900 3.538500
17.392900 3.485100
17.421800 3.712500
17.450700 4.021600
17.479700 4.211600
17.508600 4.374700
17.537600 4.931900
17.566500 5.941100
17.595400 9.534800
17.624400 15.811500
17.653300 7.767500
17.682300 6.426200
17.711200 5.721000
17.740100 4.415500
17.769100 3.669300
17.798000 3.288700
17.826900 3.007600
17.855900 2.780300
17.884800 2.586500
17.913800 2.517500
17.942700 2.501100
17.971600 2.550000
18.000600 2.603100
18.029500 2.661300
18.058500 2.714600
18.087400 2.766900
18.116300 2.828600
18.145300 2.804600
18.174200 2.920600
18.203200 3.020100
18.232100 3.148800
18.261000 3.366800
18.290000 3.760300
18.318900 4.368000
18.347800 9.992400
18.376800 239.690400
18.405700 8.500300
18.434700 5.135600
18.463600 3.931900
18.492500 3.037600
18.521500 2.749800
18.550400 2.500500
18.579400 2.285700
18.608300 2.130600
18.637200 1.948900
18.666200 1.861000
18.695100 1.839200
18.724100 1.822800
18.753000 1.814200
18.781900 1.828500
18.810900 1.745500
18.839800 1.669400
18.868800 1.598700
18.897700 1.563200
18.926600 1.559100
18.955600 1.568400
18.984500 1.589800
19.013400 1.635600
19.042400 1.659200
19.071300 1.664000
19.100300 1.649700
19.129200 1.636300
19.158100 1.636800
19.187100 1.626200
19.216000 1.576500
19.245000 1.532600
19.273900 1.558200
19.302800 1.569500
19.331800 1.616100
19.360700 1.729800
19.389700 1.873300
19.418600 1.982800
19.447500 2.055100
19.476500 2.144000
19.505400 2.270500
19.534400 2.376400
19.563300 2.240000
19.592200 2.416000
19.621200 2.535500
19.650100 2.635000
19.679000 2.497500
19.708000 2.349200
19.736900 2.312200
19.765900 2.381800
19.794800 2.512300
19.823700 2.534000
19.852700 2.569400
19.881600 2.610100
19.910600 2.776500
19.939500 2.892500
19.968400 3.142300
19.997400 3.439300
20.026300 3.075100
20.055300 2.863900
20.084200 2.718500
20.113100 2.611800
20.142100 2.579600
20.171000 2.481700
20.200000 2.611600
20.228900 3.090400
20.257800 3.390700
20.286800 3.721300
20.315700 3.227900
20.344600 2.693500
20.373600 2.476600
20.402500 2.385200
20.431500 2.339600
20.460400 2.389600
20.489300 2.656300
20.518300 2.876400
20.547200 2.983700
20.576200 3.167300
20.605100 3.462100
20.634000 3.629000
20.663000 3.717800
20.691900 3.752800
20.720900 3.793700
20.749800 3.683800
20.778700 3.646900
20.807700 3.778900
20.836600 3.919100
20.865600 3.866600
20.894500 3.809100
20.923400 3.756600
20.952400 3.828500
20.981300 3.769700
21.010200 3.763100
21.039200 3.653200
21.068100 3.523900
21.097100 3.450700
21.126000 3.336300
21.154900 3.197900
21.183900 3.078400
21.212800 2.948500
21.241800 2.861400
21.270700 2.800300
21.299600 2.731900
21.328600 2.632200
21.357500 2.510600
21.386500 2.398400
21.415400 2.541300
21.444300 2.394000
21.473300 2.364700
21.502200 2.352000
21.531100 2.276300
21.560100 2.197800
21.589000 2.126700
21.618000 2.058800
21.646900 1.993900
21.675800 1.926100
21.704800 1.848900
21.733700 1.771600
21.762700 1.698500
21.791600 1.664100
21.820500 1.598100
21.849500 1.544400
21.878400 1.545600
21.907400 1.586900
21.936300 1.616300
21.965200 1.678500
21.994200 1.865700
22.023100 2.059900
22.052100 2.474100
22.081000 2.888600
22.109900 3.017000
22.138900 2.676800
22.167800 2.632700
22.196700 2.646700
22.225700 2.626400
22.254600 2.626200
22.283600 2.402500
22.312500 2.353000
22.341400 2.424000
22.370400 2.494300
22.399300 2.541100
22.428300 2.633000
22.457200 2.698800
22.486100 2.775800
22.515100 2.880700
22.544000 2.942000
22.573000 2.963900
22.601900 2.974800
22.630800 2.866300
22.659800 2.834800
22.688700 2.995400
22.717700 2.795600
22.746600 2.726600
22.775500 2.576700
22.804500 2.422100
22.833400 2.387400
22.862300 2.361800
22.891300 2.418900
22.920200 2.474800
22.949200 2.560800
22.978100 2.669100
23.007000 2.804100
23.036000 2.918000
23.064900 2.943300
23.093900 2.859600
23.122800 2.927800
23.151700 2.972400
23.180700 2.837500
23.209600 2.722300
23.238600 2.621100
23.267500 2.585000
23.296400 2.542300
23.325400 2.508800
23.354300 2.491700
23.383300 2.503200
23.412200 2.532100
23.441100 2.501200
23.470100 2.268500
23.499000 2.075600
23.527900 1.943900
23.556900 1.888900
23.585800 1.932800
23.614800 1.958100
23.643700 1.990900
23.672600 1.934600
23.701600 1.821900
23.730500 1.762700
23.759500 1.722400
23.788400 1.699100
23.817300 1.700700
23.846300 1.723000
23.875200 1.772700
23.904200 1.864300
23.933100 2.402000
23.962000 2.289700
23.991000 2.198400
24.019900 2.176100
24.048900 2.158600
24.077800 2.190200
24.106700 2.222400
24.135700 2.290900
24.164600 2.570700
24.193500 2.457800
24.222500 2.216400
24.251400 2.188400
24.280400 1.888900
24.309300 1.689300
24.338200 1.588800
24.367200 1.542500
24.396100 1.517500
24.425100 1.505500
24.454000 1.490700
24.482900 1.466800
24.511900 1.430600
24.540800 1.390300
24.569800 1.368400
24.598700 1.356700
24.627600 1.348800
24.656600 1.344100
24.685500 1.338700
24.714500 1.336400
24.743400 1.343200
24.772300 1.360300
24.801300 1.391700
24.830200 1.437700
24.859100 1.488900
24.888100 1.533400
24.917000 1.656000
24.946000 1.672200
24.974900 1.622500
25.003800 1.564100
25.032800 1.503500
25.061700 1.441500
25.090700 1.383700
25.119600 1.321300
25.148500 1.284400
25.177500 1.231300
25.206400 1.176700
25.235400 1.117300
25.264300 1.047500
25.293200 0.978100
25.322200 0.901300
25.351100 0.826800
25.380000 0.757700
25.409000 0.681400
25.437900 0.600500
25.466900 0.572100
25.495800 0.472800
25.524700 0.392300
25.553700 0.327800
25.582600 0.278300
25.611600 0.242300
25.640500 0.212800
25.669400 0.188400
25.698400 0.169000
25.727300 0.154500
25.756300 0.144900
25.785200 0.137900
25.814100 0.132300
25.843100 0.129500
25.872000 0.127500
25.901000 0.126000
25.929900 0.125000
25.958800 0.124300
25.987800 0.123900
26.016700 0.123800
26.045600 0.124000
26.074600 0.124300
26.103500 0.124900
26.132500 0.125600
26.161400 0.126500
26.190300 0.127500
26.219300 0.128900
26.248200 0.132300
26.277200 0.138100
26.306100 0.145000
26.335000 0.152400
26.364000 0.160200
26.392900 0.168400
26.421900 0.177000
26.450800 0.186000
26.479700 0.196200
26.508700 0.208000
26.537600 0.221600
26.566600 0.237000
26.595500 0.280200
26.624400 0.369700
26.653400 0.473400
26.682300 0.508800
26.711200 0.369000
26.740200 0.384400
26.769100 0.350600
26.798100 0.134500
26.827000 0.122800
26.855900 0.122600
26.884900 0.121200
26.913800 0.118600
26.942800 0.115100
26.971700 0.110800
27.000600 0.105700
27.029600 0.101100
27.058500 0.097100
27.087500 0.093700
27.116400 0.090800
27.145300 0.088500
27.174300 0.086000
27.203200 0.080400
27.232200 0.074600
27.261100 0.069200
27.290000 0.064000
27.319000 0.059100
27.347900 0.054400
27.376800 0.050100
27.405800 0.046000
27.434700 0.044300
27.463700 0.046500
27.492600 0.052500
27.521500 0.165800
27.550500 0.010600
27.579400 0.000000
27.608400 0.000000
27.637300 0.000000
27.666200 0.000000
27.695200 0.000000
27.724100 0.000000
27.753100 0.000000
27.782000 0.000000
27.810900 0.000000
27.839900 0.000000
27.868800 0.000000
27.897800 0.000000
27.926700 0.000000
27.955600 0.000000
27.984600 0.000000
28.013500 0.000000
28.042400 0.000000
28.071400 0.000000
28.100300 0.000000
28.129300 0.000000
28.158200 0.000000
28.187100 0.000000
28.216100 0.000000
28.245000 0.000000
28.274000 0.000000
28.302900 0.000000
28.331800 0.000000
28.360800 0.000000
28.389700 0.000000
28.418700 0.000000
28.447600 0.000000
28.476500 0.000000
28.505500 0.000000
28.534400 0.000000
28.563300 0.000000
28.592300 0.000000
28.621200 0.000000
28.650200 0.000000
28.679100 0.000000
28.708000 0.000000
28.737000 0.000000
28.765900 0.000000
28.794900 0.000000
28.823800 0.000000
28.852700 0.000000
28.881700 0.000000
28.910600 0.000000
28.939600 0.000000
28.968500 0.000000
28.997400 0.000000
29.026400 0.000000
29.055300 0.000000
29.084300 0.000000
29.113200 0.000000
29.142100 0.000000
29.171100 0.000000
29.200000 0.000000
29.228900 0.000000
29.257900 0.000000
29.286800 0.000000
29.315800 0.000000
29.344700 0.000000
29.373600 0.000000
29.402600 0.000000
29.431500 0.000000
29.460500 0.000000
29.489400 0.000000
29.518300 0.000000
29.547300 0.000000
29.576200 0.000000
29.605200 0.000000
29.634100 0.000000
29.663000 0.000000
29.692000 0.000000
29.720900 0.000000
29.749900 0.000000
29.778800 0.000000
29.807700 0.000000
29.836700 0.000000
29.865600 0.000000
29.894500 0.000000
29.923500 0.000000
29.952400 0.000000
29.981400 0.000000
30.010300 0.000000
30.039200 0.000000
30.068200 0.000000
30.097100 0.000000
30.126100 0.000000
30.155000 0.000000
30.183900 0.000000
e
