set title 'mp-1221545 - Density of States'
set xlabel 'Energy (eV)'
set ylabel 'DOS (states/eV)'
set grid
set xrange [-10:10]
set yrange [0:3.416]
set xzeroaxis lt -1
set terminal png size 800,600
set output 'mp-1221545_dos_gnuplot.png'
plot '-' using 1:2 with lines title 'DOS'
-47.249500 0.000000
-47.190500 0.000000
-47.131500 0.000000
-47.072500 0.000000
-47.013500 0.000000
-46.954500 0.000000
-46.895500 0.000000
-46.836500 0.000000
-46.777500 0.000000
-46.718500 0.000000
-46.659500 0.000000
-46.600500 0.000000
-46.541500 0.000000
-46.482500 0.000000
-46.423500 0.000000
-46.364500 0.000000
-46.305500 0.000000
-46.246500 0.000000
-46.187500 0.000000
-46.128500 0.000000
-46.069500 0.000000
-46.010500 0.000000
-45.951500 0.000000
-45.892500 0.000000
-45.833500 0.000000
-45.774500 0.000000
-45.715500 0.000000
-45.656500 0.000000
-45.597500 0.000000
-45.538500 0.000000
-45.479500 0.000000
-45.420500 0.000000
-45.361500 0.000000
-45.302500 0.000000
-45.243500 0.000000
-45.184500 0.000000
-45.125500 0.000000
-45.066500 0.000000
-45.007500 0.000000
-44.948500 0.000000
-44.889500 0.000000
-44.830500 0.000000
-44.771500 0.000000
-44.712500 0.000000
-44.653500 0.000000
-44.594500 0.000000
-44.535500 0.000000
-44.476500 0.000000
-44.417500 0.000000
-44.358500 0.000000
-44.299500 0.000000
-44.240500 0.000000
-44.181500 0.000000
-44.122500 0.000000
-44.063500 0.000000
-44.004500 0.000000
-43.945500 0.000000
-43.886500 0.000000
-43.827500 0.000000
-43.768500 0.000000
-43.709500 0.000000
-43.650500 0.000000
-43.591500 0.000000
-43.532500 0.000000
-43.473500 0.000000
-43.414500 0.000000
-43.355500 0.000000
-43.296500 0.000000
-43.237500 0.000000
-43.178500 0.000000
-43.119500 0.000000
-43.060500 0.000000
-43.001500 0.000000
-42.942500 0.000000
-42.883500 0.000000
-42.824500 0.000000
-42.765500 0.000000
-42.706500 0.000000
-42.647500 0.000000
-42.588500 0.000000
-42.529500 0.000000
-42.470500 0.000000
-42.411500 0.000000
-42.352500 0.000000
-42.293500 0.000000
-42.234500 0.000000
-42.175500 0.000000
-42.116500 0.000000
-42.057500 0.000000
-41.998500 0.000000
-41.939500 0.000000
-41.880500 12.375700
-41.821500 6.501000
-41.762500 4.943000
-41.703500 10.735400
-41.644500 8.628100
-41.585500 0.000000
-41.526500 0.000000
-41.467500 0.000000
-41.408500 0.000000
-41.349500 0.000000
-41.290500 0.000000
-41.231500 0.000000
-41.172500 0.000000
-41.113500 0.000000
-41.054500 0.000000
-40.995500 0.000000
-40.936500 0.000000
-40.877500 0.000000
-40.818500 0.000000
-40.759500 0.000000
-40.700500 0.000000
-40.641500 0.000000
-40.582500 0.000000
-40.523500 0.000000
-40.464500 0.000000
-40.405500 0.000000
-40.346500 0.000000
-40.287500 0.000000
-40.228500 0.000000
-40.169500 0.000000
-40.110500 0.000000
-40.051500 0.000000
-39.992500 0.000000
-39.933500 0.000000
-39.874500 0.000000
-39.815500 0.000000
-39.756500 0.000000
-39.697500 0.000000
-39.638500 0.000000
-39.579500 0.000000
-39.520500 0.000000
-39.461500 0.000000
-39.402500 0.000000
-39.343500 0.000000
-39.284500 0.000000
-39.225500 0.000000
-39.166500 0.000000
-39.107500 0.000000
-39.048500 0.000000
-38.989500 0.000000
-38.930500 0.000000
-38.871500 0.000000
-38.812500 0.000000
-38.753500 0.000000
-38.694500 0.000000
-38.635500 0.000000
-38.576500 0.000000
-38.517500 0.000000
-38.458500 0.000000
-38.399500 0.000000
-38.340500 0.000000
-38.281500 0.000000
-38.222500 0.000000
-38.163500 0.000000
-38.104500 0.000000
-38.045500 0.000000
-37.986500 0.000000
-37.927500 0.000000
-37.868500 0.000000
-37.809500 0.000000
-37.750500 0.000000
-37.691500 0.000000
-37.632500 0.000000
-37.573500 0.000000
-37.514500 0.000000
-37.455500 0.000000
-37.396500 0.000000
-37.337500 0.000000
-37.278500 0.000000
-37.219500 0.000000
-37.160500 0.000000
-37.101500 0.000000
-37.042500 0.000000
-36.983500 0.000000
-36.924500 0.000000
-36.865500 0.000000
-36.806500 0.000000
-36.747500 0.000000
-36.688500 0.000000
-36.629500 0.000000
-36.570500 0.000000
-36.511600 0.000000
-36.452600 0.000000
-36.393600 0.000000
-36.334600 0.000000
-36.275600 0.000000
-36.216600 0.000000
-36.157600 0.000000
-36.098600 0.000000
-36.039600 0.000000
-35.980600 0.000000
-35.921600 0.000000
-35.862600 0.000000
-35.803600 0.000000
-35.744600 0.000000
-35.685600 0.000000
-35.626600 0.000000
-35.567600 0.000000
-35.508600 0.000000
-35.449600 0.000000
-35.390600 0.000000
-35.331600 0.000000
-35.272600 0.000000
-35.213600 0.000000
-35.154600 0.000000
-35.095600 0.000000
-35.036600 0.000000
-34.977600 0.000000
-34.918600 0.000000
-34.859600 0.000000
-34.800600 0.000000
-34.741600 0.000000
-34.682600 0.000000
-34.623600 0.000000
-34.564600 0.000000
-34.505600 0.000000
-34.446600 0.000000
-34.387600 0.000000
-34.328600 0.000000
-34.269600 0.000000
-34.210600 0.000000
-34.151600 0.000000
-34.092600 0.000000
-34.033600 0.000000
-33.974600 0.000000
-33.915600 0.000000
-33.856600 0.000000
-33.797600 0.000000
-33.738600 0.000000
-33.679600 0.000000
-33.620600 0.000000
-33.561600 0.000000
-33.502600 0.000000
-33.443600 0.000000
-33.384600 0.000000
-33.325600 0.000000
-33.266600 0.000000
-33.207600 0.000000
-33.148600 0.000000
-33.089600 0.000000
-33.030600 0.000000
-32.971600 0.000000
-32.912600 0.000000
-32.853600 0.000000
-32.794600 0.000000
-32.735600 0.000000
-32.676600 0.000000
-32.617600 0.000000
-32.558600 0.000000
-32.499600 0.000000
-32.440600 0.000000
-32.381600 0.000000
-32.322600 0.000000
-32.263600 0.000000
-32.204600 0.000000
-32.145600 0.000000
-32.086600 0.000000
-32.027600 0.000000
-31.968600 0.000000
-31.909600 0.000000
-31.850600 0.000000
-31.791600 0.000000
-31.732600 0.000000
-31.673600 0.000000
-31.614600 0.000000
-31.555600 0.000000
-31.496600 0.000000
-31.437600 0.000000
-31.378600 0.000000
-31.319600 0.000000
-31.260600 0.000000
-31.201600 0.000000
-31.142600 0.000000
-31.083600 0.000000
-31.024600 0.000000
-30.965600 0.000000
-30.906600 0.000000
-30.847600 0.000000
-30.788600 0.000000
-30.729600 0.000000
-30.670600 0.000000
-30.611600 0.000000
-30.552600 0.000000
-30.493600 0.000000
-30.434600 0.000000
-30.375600 0.000000
-30.316600 0.000000
-30.257600 0.000000
-30.198600 0.000000
-30.139600 0.000000
-30.080600 0.000000
-30.021600 0.000000
-29.962600 0.000000
-29.903600 0.000000
-29.844600 0.000000
-29.785600 0.000000
-29.726600 0.000000
-29.667600 0.000000
-29.608600 0.000000
-29.549600 0.000000
-29.490600 0.000000
-29.431600 0.000000
-29.372600 0.000000
-29.313600 0.000000
-29.254600 0.000000
-29.195600 0.000000
-29.136600 0.000000
-29.077600 0.000000
-29.018600 0.000000
-28.959600 0.000000
-28.900600 0.000000
-28.841600 0.000000
-28.782600 0.000000
-28.723600 0.000000
-28.664600 0.000000
-28.605600 0.000000
-28.546600 0.000000
-28.487600 0.000000
-28.428600 0.000000
-28.369600 0.000000
-28.310600 0.000000
-28.251600 0.000000
-28.192600 0.000000
-28.133600 0.000000
-28.074600 0.000000
-28.015600 0.000000
-27.956600 0.000000
-27.897600 0.000000
-27.838600 0.000000
-27.779600 0.000000
-27.720600 0.000000
-27.661600 0.000000
-27.602600 0.000000
-27.543600 0.000000
-27.484600 0.000000
-27.425600 0.000000
-27.366600 0.000000
-27.307600 0.000000
-27.248600 0.000000
-27.189600 0.000000
-27.130600 0.000000
-27.071600 0.000000
-27.012600 0.000000
-26.953600 0.000000
-26.894600 0.000000
-26.835600 0.000000
-26.776600 0.000000
-26.717600 0.000000
-26.658600 0.000000
-26.599600 0.000000
-26.540600 0.000000
-26.481600 0.000000
-26.422600 0.000000
-26.363600 0.000000
-26.304600 0.000000
-26.245600 0.000000
-26.186600 0.000000
-26.127600 0.000000
-26.068600 0.000000
-26.009600 0.000000
-25.950600 0.000000
-25.891600 0.000000
-25.832600 0.000000
-25.773600 0.000000
-25.714600 0.000000
-25.655600 0.000000
-25.596600 0.000000
-25.537600 0.000000
-25.478600 0.000000
-25.419600 0.000000
-25.360600 0.000000
-25.301600 0.000000
-25.242600 0.000000
-25.183600 0.000000
-25.124600 0.000000
-25.065600 0.000000
-25.006600 0.000000
-24.947600 0.000000
-24.888600 0.000000
-24.829600 0.000000
-24.770600 0.000000
-24.711600 0.000000
-24.652600 0.000000
-24.593600 0.000000
-24.534600 0.000000
-24.475600 0.000000
-24.416600 0.000000
-24.357600 0.000000
-24.298600 0.000000
-24.239600 0.000000
-24.180600 0.000000
-24.121600 0.000000
-24.062600 0.000000
-24.003600 0.000000
-23.944600 0.000000
-23.885600 0.000000
-23.826600 0.000000
-23.767600 0.000000
-23.708600 0.000000
-23.649600 0.000000
-23.590600 0.000000
-23.531600 0.000000
-23.472600 0.000000
-23.413600 0.000000
-23.354600 0.000000
-23.295600 0.000000
-23.236600 0.000000
-23.177600 0.000000
-23.118600 0.000000
-23.059600 0.000000
-23.000600 0.000000
-22.941600 0.000000
-22.882600 0.000000
-22.823600 0.000000
-22.764600 0.000000
-22.705600 0.000000
-22.646600 0.000000
-22.587600 0.000000
-22.528600 0.000000
-22.469600 0.000000
-22.410600 0.000000
-22.351600 0.000000
-22.292600 0.000000
-22.233600 0.000000
-22.174600 0.000000
-22.115600 0.000000
-22.056600 0.000000
-21.997600 0.000000
-21.938600 0.000000
-21.879600 0.000000
-21.820700 0.000000
-21.761700 0.000000
-21.702700 0.000000
-21.643700 0.000000
-21.584700 0.000000
-21.525700 0.000000
-21.466700 0.000000
-21.407700 0.000000
-21.348700 0.000000
-21.289700 0.000000
-21.230700 0.000000
-21.171700 0.000000
-21.112700 0.000000
-21.053700 0.000000
-20.994700 0.000000
-20.935700 0.000000
-20.876700 0.000000
-20.817700 0.000000
-20.758700 0.000000
-20.699700 0.000000
-20.640700 0.000000
-20.581700 0.000000
-20.522700 0.000000
-20.463700 0.000000
-20.404700 0.000000
-20.345700 0.000000
-20.286700 0.000000
-20.227700 0.000000
-20.168700 0.000000
-20.109700 0.000000
-20.050700 0.000000
-19.991700 0.000000
-19.932700 0.000000
-19.873700 0.000000
-19.814700 0.000000
-19.755700 0.000000
-19.696700 0.000000
-19.637700 0.000000
-19.578700 0.000000
-19.519700 0.000000
-19.460700 0.000000
-19.401700 0.000000
-19.342700 0.000000
-19.283700 0.000000
-19.224700 0.000000
-19.165700 0.000000
-19.106700 0.000000
-19.047700 0.000000
-18.988700 0.000000
-18.929700 0.000000
-18.870700 0.000000
-18.811700 0.000000
-18.752700 0.000000
-18.693700 0.000000
-18.634700 0.000000
-18.575700 0.000000
-18.516700 0.000000
-18.457700 0.000000
-18.398700 0.000000
-18.339700 0.000000
-18.280700 0.000000
-18.221700 0.000000
-18.162700 0.000000
-18.103700 0.000000
-18.044700 0.000000
-17.985700 0.000000
-17.926700 0.000000
-17.867700 0.000000
-17.808700 0.000000
-17.749700 0.000000
-17.690700 0.000000
-17.631700 0.000000
-17.572700 0.000000
-17.513700 0.000000
-17.454700 0.000000
-17.395700 0.000000
-17.336700 0.000000
-17.277700 0.000000
-17.218700 0.000000
-17.159700 0.000000
-17.100700 0.000000
-17.041700 0.000000
-16.982700 0.000000
-16.923700 0.000000
-16.864700 0.000000
-16.805700 0.000000
-16.746700 0.000000
-16.687700 0.000000
-16.628700 0.000000
-16.569700 0.000000
-16.510700 0.000000
-16.451700 0.000000
-16.392700 0.000000
-16.333700 0.000000
-16.274700 0.000000
-16.215700 0.000000
-16.156700 0.000000
-16.097700 0.000000
-16.038700 0.000000
-15.979700 0.000000
-15.920700 0.000000
-15.861700 0.000000
-15.802700 0.000000
-15.743700 0.000000
-15.684700 0.000000
-15.625700 0.000000
-15.566700 0.000000
-15.507700 0.000000
-15.448700 0.000000
-15.389700 0.000000
-15.330700 0.000000
-15.271700 0.000000
-15.212700 0.000000
-15.153700 0.000000
-15.094700 0.000000
-15.035700 0.000000
-14.976700 0.000000
-14.917700 0.000000
-14.858700 0.000000
-14.799700 0.000000
-14.740700 0.000000
-14.681700 0.000000
-14.622700 0.000000
-14.563700 0.000000
-14.504700 0.000000
-14.445700 0.000000
-14.386700 0.000000
-14.327700 0.000000
-14.268700 0.000000
-14.209700 0.000000
-14.150700 0.000000
-14.091700 0.000000
-14.032700 0.000000
-13.973700 0.000000
-13.914700 0.000000
-13.855700 0.000000
-13.796700 0.000000
-13.737700 0.000000
-13.678700 0.000000
-13.619700 0.000000
-13.560700 0.000000
-13.501700 0.000000
-13.442700 0.000000
-13.383700 0.000000
-13.324700 0.000000
-13.265700 0.000000
-13.206700 0.000000
-13.147700 0.000000
-13.088700 0.000000
-13.029700 0.000000
-12.970700 0.000000
-12.911700 0.000000
-12.852700 0.000000
-12.793700 0.000000
-12.734700 0.000000
-12.675700 0.000000
-12.616700 0.000000
-12.557700 0.000000
-12.498700 0.000000
-12.439700 0.000000
-12.380700 0.000000
-12.321700 0.000000
-12.262700 0.000000
-12.203700 0.000000
-12.144700 0.000000
-12.085700 0.000000
-12.026700 0.000000
-11.967700 0.000000
-11.908700 0.000000
-11.849700 0.000000
-11.790700 0.000000
-11.731700 0.000000
-11.672700 0.000000
-11.613700 0.000000
-11.554700 0.000000
-11.495700 0.000000
-11.436700 0.000000
-11.377700 0.000000
-11.318700 0.000000
-11.259700 0.000000
-11.200700 0.000000
-11.141700 0.000000
-11.082700 0.000000
-11.023700 0.000000
-10.964700 0.000000
-10.905700 0.000000
-10.846700 0.000000
-10.787700 0.000000
-10.728700 0.000000
-10.669700 0.000000
-10.610700 0.000000
-10.551700 0.000000
-10.492700 0.000000
-10.433700 0.000000
-10.374700 0.000000
-10.315700 0.000000
-10.256700 0.000000
-10.197700 0.000000
-10.138700 0.000000
-10.079700 0.000000
-10.020700 0.000000
-9.961700 0.000000
-9.902700 0.000000
-9.843700 0.000000
-9.784700 0.000000
-9.725700 0.000000
-9.666700 0.000000
-9.607700 0.000000
-9.548700 0.000000
-9.489700 0.000000
-9.430700 0.000000
-9.371700 0.000000
-9.312700 0.000000
-9.253700 0.000000
-9.194700 0.000000
-9.135700 0.000000
-9.076700 0.000000
-9.017700 0.000000
-8.958700 0.000000
-8.899700 0.000000
-8.840700 0.000000
-8.781700 0.000000
-8.722700 0.000000
-8.663700 0.000000
-8.604700 0.000000
-8.545700 0.000000
-8.486700 0.000000
-8.427700 0.000000
-8.368700 0.000000
-8.309700 0.000000
-8.250700 0.000000
-8.191700 0.000000
-8.132700 0.000000
-8.073700 0.000000
-8.014700 0.000000
-7.955700 0.000000
-7.896700 0.000000
-7.837700 0.000000
-7.778700 0.000000
-7.719700 0.000000
-7.660700 0.000000
-7.601700 0.000000
-7.542700 0.000000
-7.483700 0.000000
-7.424700 0.000000
-7.365700 0.000000
-7.306700 0.000000
-7.247700 0.000000
-7.188800 0.000000
-7.129800 0.000000
-7.070800 0.000000
-7.011800 0.000000
-6.952800 0.000000
-6.893800 0.000000
-6.834800 0.000000
-6.775800 0.000000
-6.716800 0.000000
-6.657800 0.000000
-6.598800 0.000000
-6.539800 0.000000
-6.480800 0.000000
-6.421800 0.000000
-6.362800 0.000000
-6.303800 0.000000
-6.244800 0.000000
-6.185800 0.000000
-6.126800 0.000000
-6.067800 0.000000
-6.008800 0.000000
-5.949800 0.000000
-5.890800 0.000000
-5.831800 0.000000
-5.772800 0.000000
-5.713800 0.000000
-5.654800 0.000000
-5.595800 0.000000
-5.536800 0.000000
-5.477800 0.000000
-5.418800 0.000000
-5.359800 0.000000
-5.300800 0.000000
-5.241800 0.000000
-5.182800 0.000000
-5.123800 0.000000
-5.064800 0.000000
-5.005800 0.000000
-4.946800 0.000000
-4.887800 0.000000
-4.828800 0.000000
-4.769800 0.000000
-4.710800 0.000000
-4.651800 0.000000
-4.592800 0.000000
-4.533800 0.000000
-4.474800 0.000000
-4.415800 0.000000
-4.356800 0.000000
-4.297800 0.000000
-4.238800 0.000000
-4.179800 0.000000
-4.120800 0.000000
-4.061800 0.000000
-4.002800 0.000000
-3.943800 0.000000
-3.884800 0.000000
-3.825800 0.000000
-3.766800 0.000000
-3.707800 0.000000
-3.648800 0.000000
-3.589800 0.000000
-3.530800 0.000000
-3.471800 0.000000
-3.412800 0.000000
-3.353800 0.000000
-3.294800 0.000000
-3.235800 0.000000
-3.176800 0.000000
-3.117800 0.000000
-3.058800 0.000000
-2.999800 0.000000
-2.940800 0.000000
-2.881800 0.000000
-2.822800 0.000000
-2.763800 0.000000
-2.704800 0.000000
-2.645800 0.004300
-2.586800 0.016000
-2.527800 0.025600
-2.468800 0.028500
-2.409800 0.032500
-2.350800 0.037400
-2.291800 0.042300
-2.232800 0.047000
-2.173800 0.050700
-2.114800 0.053800
-2.055800 0.056900
-1.996800 0.060500
-1.937800 0.064400
-1.878800 0.068600
-1.819800 0.073200
-1.760800 0.077900
-1.701800 0.083200
-1.642800 0.089200
-1.583800 0.097500
-1.524800 0.104600
-1.465800 0.103200
-1.406800 0.103600
-1.347800 0.105800
-1.288800 0.107900
-1.229800 0.109900
-1.170800 0.111500
-1.111800 0.112600
-1.052800 0.113800
-0.993800 0.115600
-0.934800 0.117700
-0.875800 0.120200
-0.816800 0.122800
-0.757800 0.125600
-0.698800 0.128400
-0.639800 0.131500
-0.580800 0.134700
-0.521800 0.138700
-0.462800 0.143200
-0.403800 0.148100
-0.344800 0.153500
-0.285800 0.159400
-0.226800 0.166800
-0.167800 0.179300
-0.108800 0.212100
-0.049800 0.357900
0.009200 0.520000
0.068200 0.581100
0.127200 0.585400
0.186200 0.644000
0.245200 0.708700
0.304200 0.719400
0.363200 0.656100
0.422200 0.555200
0.481200 0.454300
0.540200 0.430300
0.599200 0.416800
0.658200 0.504900
0.717200 0.577000
0.776200 0.630900
0.835200 0.687900
0.894200 0.743500
0.953200 0.800100
1.012200 0.877300
1.071200 0.976000
1.130200 1.072400
1.189200 1.112100
1.248200 1.147200
1.307200 1.248000
1.366200 1.607200
1.425200 1.408500
1.484200 1.284700
1.543200 1.265300
1.602200 1.255300
1.661200 1.202600
1.720200 1.072200
1.779200 1.083200
1.838200 1.034600
1.897200 0.504800
1.956200 0.350700
2.015200 0.802500
2.074200 1.032900
2.133200 1.399300
2.192200 1.583100
2.251200 1.287100
2.310200 1.264700
2.369200 1.235000
2.428200 1.223400
2.487200 1.155500
2.546200 1.297800
2.605200 1.174300
2.664200 1.109900
2.723200 1.297200
2.782200 1.396200
2.841200 1.453700
2.900200 1.522200
2.959200 1.638900
3.018200 1.363000
3.077200 1.186600
3.136200 1.068500
3.195200 1.036500
3.254200 1.001000
3.313200 0.948100
3.372200 0.989500
3.431200 1.087100
3.490200 1.144000
3.549200 1.208600
3.608200 0.944300
3.667200 0.843800
3.726200 0.854400
3.785200 0.862100
3.844200 0.918700
3.903200 1.087300
3.962200 1.419300
4.021200 1.603600
4.080200 1.508400
4.139200 1.417600
4.198200 1.545600
4.257200 1.760500
4.316200 1.874900
4.375200 1.510200
4.434200 1.446300
4.493200 1.584500
4.552200 1.656200
4.611200 1.996000
4.670200 2.157100
4.729200 1.865900
4.788200 1.782600
4.847200 1.705900
4.906200 1.746700
4.965200 1.560800
5.024200 1.358600
5.083200 1.439200
5.142200 1.568800
5.201200 1.610300
5.260200 2.164300
5.319200 2.003200
5.378200 1.898400
5.437200 1.654300
5.496200 1.772400
5.555200 1.561200
5.614200 1.474700
5.673200 1.613200
5.732200 1.384300
5.791200 1.202900
5.850200 1.305200
5.909200 1.863600
5.968200 2.314200
6.027200 2.011200
6.086200 1.730300
6.145200 1.776100
6.204200 1.574500
6.263200 1.476600
6.322200 1.446400
6.381200 1.435900
6.440200 1.523600
6.499200 1.511300
6.558200 1.514600
6.617200 1.535100
6.676200 1.541800
6.735200 1.550400
6.794200 1.623900
6.853200 1.712600
6.912200 1.748900
6.971200 1.817700
7.030200 1.932100
7.089200 2.107900
7.148200 2.576800
7.207200 3.105100
7.266200 2.220700
7.325200 2.008200
7.384200 1.806700
7.443200 1.627900
7.502100 1.443900
7.561100 1.209100
7.620100 0.554200
7.679100 0.339900
7.738100 0.339500
7.797100 0.332200
7.856100 0.324500
7.915100 0.320000
7.974100 0.313300
8.033100 0.309900
8.092100 0.306600
8.151100 0.298400
8.210100 0.296700
8.269100 0.296200
8.328100 0.296300
8.387100 0.296500
8.446100 0.296300
8.505100 0.295100
8.564100 0.294400
8.623100 0.293900
8.682100 0.293200
8.741100 0.292800
8.800100 0.292900
8.859100 0.292900
8.918100 0.292800
8.977100 0.292800
9.036100 0.293000
9.095100 0.293500
9.154100 0.293700
9.213100 0.293600
9.272100 0.296800
9.331100 0.299300
9.390100 0.305400
9.449100 0.314600
9.508100 0.299000
9.567100 0.288000
9.626100 0.281300
9.685100 0.278200
9.744100 0.275500
9.803100 0.272500
9.862100 0.268800
9.921100 0.265500
9.980100 0.262600
10.039100 0.260100
10.098100 0.258400
10.157100 0.257200
10.216100 0.256800
10.275100 0.257900
10.334100 0.261200
10.393100 0.272600
10.452100 0.272700
10.511100 0.247400
10.570100 0.244700
10.629100 0.245100
10.688100 0.246100
10.747100 0.249700
10.806100 0.250500
10.865100 0.254900
10.924100 0.257600
10.983100 0.256000
11.042100 0.250800
11.101100 0.245000
11.160100 0.249000
11.219100 0.253900
11.278100 0.242900
11.337100 0.224300
11.396100 0.215900
11.455100 0.211300
11.514100 0.207300
11.573100 0.203600
11.632100 0.198900
11.691100 0.192900
11.750100 0.186800
11.809100 0.185600
11.868100 0.193500
11.927100 0.189300
11.986100 0.185900
12.045100 0.182200
12.104100 0.182200
12.163100 0.184400
12.222100 0.186300
12.281100 0.189300
12.340100 0.199100
12.399100 0.224400
12.458100 0.222900
12.517100 0.210800
12.576100 0.205900
12.635100 0.198500
12.694100 0.188400
12.753100 0.172300
12.812100 0.158800
12.871100 0.148400
12.930100 0.140500
12.989100 0.135700
13.048100 0.129900
13.107100 0.127800
13.166100 0.149000
13.225100 0.168200
13.284100 0.190800
13.343100 0.211600
13.402100 0.234000
13.461100 0.309800
13.520100 0.361400
13.579100 0.361800
13.638100 0.342900
13.697100 0.326500
13.756100 0.296400
13.815100 0.273500
13.874100 0.260500
13.933100 0.419700
13.992100 0.358200
14.051100 0.339700
14.110100 0.322400
14.169100 0.312700
14.228100 0.311600
14.287100 0.309600
14.346100 0.302800
14.405100 0.294900
14.464100 0.290900
14.523100 0.289200
14.582100 0.286300
14.641100 0.281800
14.700100 0.277700
14.759100 0.275200
14.818100 0.273400
14.877100 0.271800
14.936100 0.276600
14.995100 0.285300
15.054100 0.291000
15.113100 0.294900
15.172100 0.298000
15.231100 0.301500
15.290100 0.300300
15.349100 0.295200
15.408100 0.288700
15.467100 0.284300
15.526100 0.270100
15.585100 0.259800
15.644100 0.247300
15.703100 0.232900
15.762100 0.218100
15.821100 0.205000
15.880100 0.200200
15.939100 0.197500
15.998100 0.197100
16.057100 0.200800
16.116100 0.207000
16.175100 0.215800
16.234100 0.226100
16.293100 0.242100
16.352100 0.259900
16.411100 0.279000
16.470100 0.296100
16.529100 0.311700
16.588100 0.336100
16.647100 0.341700
16.706100 0.338300
16.765100 0.336800
16.824100 0.335900
16.883100 0.331000
16.942100 0.333100
17.001100 0.341700
17.060100 0.369200
17.119100 0.384700
17.178100 0.378500
17.237100 0.410800
17.296100 0.430500
17.355100 0.420600
17.414100 0.401000
17.473100 0.390000
17.532100 0.389800
17.591100 0.397800
17.650100 0.393800
17.709100 0.400800
17.768100 0.403100
17.827100 0.410800
17.886100 0.424300
17.945100 0.423400
18.004100 0.438200
18.063100 0.434600
18.122100 0.428600
18.181100 0.423700
18.240100 0.421500
18.299100 0.418400
18.358100 0.411600
18.417100 0.405900
18.476100 0.398300
18.535100 0.391200
18.594100 0.386300
18.653100 0.383700
18.712100 0.385400
18.771100 0.390900
18.830100 0.399400
18.889100 0.422700
18.948100 0.436200
19.007100 0.449000
19.066100 0.452700
19.125100 0.457300
19.184100 0.465800
19.243100 0.471700
19.302100 0.467700
19.361100 0.468100
19.420100 0.468700
19.479100 0.470200
19.538100 0.475600
19.597100 0.480100
19.656100 0.485600
19.715100 0.491700
19.774100 0.513100
19.833100 0.533800
19.892100 0.548900
19.951100 0.538400
20.010100 0.531600
20.069100 0.527900
20.128100 0.522800
20.187100 0.504400
20.246100 0.502300
20.305100 0.497800
20.364100 0.490800
20.423100 0.487700
20.482100 0.485500
20.541100 0.483500
20.600100 0.483100
20.659100 0.483400
20.718100 0.484000
20.777100 0.486100
20.836100 0.490800
20.895100 0.493100
20.954100 0.491500
21.013100 0.490000
21.072100 0.486400
21.131100 0.478700
21.190100 0.477700
21.249100 0.476100
21.308100 0.480900
21.367100 0.470500
21.426100 0.468500
21.485100 0.468300
21.544100 0.468000
21.603100 0.468200
21.662100 0.471900
21.721100 0.468000
21.780100 0.460800
21.839100 0.458300
21.898100 0.436700
21.957100 0.426700
22.016100 0.424500
22.075100 0.421800
22.134000 0.420200
22.193000 0.419100
22.252000 0.418600
22.311000 0.415600
22.370000 0.410400
22.429000 0.410200
22.488000 0.410600
22.547000 0.405700
22.606000 0.400100
22.665000 0.395500
22.724000 0.392900
22.783000 0.393500
22.842000 0.399300
22.901000 0.407800
22.960000 0.421200
23.019000 0.431600
23.078000 0.440000
23.137000 0.447900
23.196000 0.457800
23.255000 0.485200
23.314000 0.511500
23.373000 0.513300
23.432000 0.508400
23.491000 0.514700
23.550000 0.539900
23.609000 0.586400
23.668000 0.611100
23.727000 0.602300
23.786000 0.597800
23.845000 0.619400
23.904000 0.642900
23.963000 0.708300
24.022000 0.859200
24.081000 0.713700
24.140000 0.673100
24.199000 0.656600
24.258000 0.579600
24.317000 0.554300
24.376000 0.543800
24.435000 0.533100
24.494000 0.524900
24.553000 0.516900
24.612000 0.509000
24.671000 0.502100
24.730000 0.495200
24.789000 0.487600
24.848000 0.483900
24.907000 0.486100
24.966000 0.491400
25.025000 0.496800
25.084000 0.501600
25.143000 0.504200
25.202000 0.500200
25.261000 0.484800
25.320000 0.477800
25.379000 0.468800
25.438000 0.465000
25.497000 0.461300
25.556000 0.457200
25.615000 0.452800
25.674000 0.450500
25.733000 0.446400
25.792000 0.422000
25.851000 0.412400
25.910000 0.406900
25.969000 0.404100
26.028000 0.407400
26.087000 0.398100
26.146000 0.396400
26.205000 0.395100
26.264000 0.372400
26.323000 0.363000
26.382000 0.354100
26.441000 0.351500
26.500000 0.355500
26.559000 0.367400
26.618000 0.371900
26.677000 0.379800
26.736000 0.391300
26.795000 0.409900
26.854000 0.446000
26.913000 0.496100
26.972000 0.499000
27.031000 0.532200
27.090000 0.549800
27.149000 0.556300
27.208000 0.563700
27.267000 0.603500
27.326000 0.628900
27.385000 0.664500
27.444000 0.566200
27.503000 0.515100
27.562000 0.517800
27.621000 0.538800
27.680000 0.561800
27.739000 0.573600
27.798000 0.583000
27.857000 0.589900
27.916000 0.612000
27.975000 0.634800
28.034000 0.675600
28.093000 0.672800
28.152000 0.610500
28.211000 0.609800
28.270000 0.610400
28.329000 0.632400
28.388000 0.669200
28.447000 0.693000
28.506000 0.718700
28.565000 0.761300
28.624000 0.737700
28.683000 0.700500
28.742000 0.680400
28.801000 0.675000
28.860000 0.702600
28.919000 0.685600
28.978000 0.682500
29.037000 0.689400
29.096000 0.693800
29.155000 0.710700
29.214000 0.692400
29.273000 0.676400
29.332000 0.643900
29.391000 0.607100
29.450000 0.578000
29.509000 0.563000
29.568000 0.563600
29.627000 0.568100
29.686000 0.582800
29.745000 0.584700
29.804000 0.580800
29.863000 0.559300
29.922000 0.516700
29.981000 0.485400
30.040000 0.474800
30.099000 0.468700
30.158000 0.471700
30.217000 0.508700
30.276000 0.544400
30.335000 0.523400
30.394000 0.499600
30.453000 0.477900
30.512000 0.461100
30.571000 0.447200
30.630000 0.436100
30.689000 0.429400
30.748000 0.419600
30.807000 0.414700
30.866000 0.407200
30.925000 0.399300
30.984000 0.390600
31.043000 0.405400
31.102000 0.399100
31.161000 0.387700
31.220000 0.373200
31.279000 0.360900
31.338000 0.336600
31.397000 0.309300
31.456000 0.286000
31.515000 0.265400
31.574000 0.248700
31.633000 0.240600
31.692000 0.228500
31.751000 0.213500
31.810000 0.202000
31.869000 0.197500
31.928000 0.200700
31.987000 0.205300
32.046000 0.211100
32.105000 0.219200
32.164000 0.230500
32.223000 0.242500
32.282000 0.272100
32.341000 0.289200
32.400000 0.319200
32.459000 0.364000
32.518000 0.400400
32.577000 0.418400
32.636000 0.442400
32.695000 0.475300
32.754000 0.510400
32.813000 0.521300
32.872000 0.563000
32.931000 0.568100
32.990000 0.573900
33.049000 0.577300
33.108000 0.573400
33.167000 0.580200
33.226000 0.569300
33.285000 0.568300
33.344000 0.573800
33.403000 0.587800
33.462000 0.599900
33.521000 0.592200
33.580000 0.589200
33.639000 0.630400
33.698000 0.613800
33.757000 0.577500
33.816000 0.547000
33.875000 0.552700
33.934000 0.557500
33.993000 0.567100
34.052000 0.577500
34.111000 0.595700
34.170000 0.629800
34.229000 0.666400
34.288000 0.731700
34.347000 0.738400
34.406000 0.748500
34.465000 0.783600
34.524000 0.801300
34.583000 0.796500
34.642000 0.758400
34.701000 0.679800
34.760000 0.636800
34.819000 0.596500
34.878000 0.551000
34.937000 0.525700
34.996000 0.514000
35.055000 0.507800
35.114000 0.530200
35.173000 0.533100
35.232000 0.538100
35.291000 0.567700
35.350000 0.577100
35.409000 0.593100
35.468000 0.629500
35.527000 0.590400
35.586000 0.600600
35.645000 0.598500
35.704000 0.593400
35.763000 0.596700
35.822000 0.599100
35.881000 0.595100
35.940000 0.601600
35.999000 0.607500
36.058000 0.593900
36.117000 0.564400
36.176000 0.574400
36.235000 0.592700
36.294000 0.601000
36.353000 0.628600
36.412000 0.657700
36.471000 0.657100
36.530000 0.647500
36.589000 0.683700
36.648000 0.705300
36.707000 0.664400
36.766000 0.632100
36.824900 0.632000
36.883900 0.645500
36.942900 0.658400
37.001900 0.646500
37.060900 0.653100
37.119900 0.644400
37.178900 0.627000
37.237900 0.594100
37.296900 0.611200
37.355900 0.620800
37.414900 0.639000
37.473900 0.650100
37.532900 0.653200
37.591900 0.709500
37.650900 0.675500
37.709900 0.683800
37.768900 0.711500
37.827900 0.752400
37.886900 0.773100
37.945900 0.781400
38.004900 0.794000
38.063900 0.797000
38.122900 0.797300
38.181900 0.772000
38.240900 0.770800
38.299900 0.768300
38.358900 0.777100
38.417900 0.789600
38.476900 0.806400
38.535900 0.835900
38.594900 0.877700
38.653900 0.906000
38.712900 0.944100
38.771900 1.005600
38.830900 1.111100
38.889900 1.229500
38.948900 1.380100
39.007900 1.514600
39.066900 1.742200
39.125900 2.290200
39.184900 3.311100
39.243900 5.798700
39.302900 9.430300
39.361900 4.931100
39.420900 4.957600
39.479900 5.023400
39.538900 2.822300
39.597900 1.863600
39.656900 1.412800
39.715900 1.207500
39.774900 1.072900
39.833900 0.996100
39.892900 0.936600
39.951900 0.874000
40.010900 0.826100
40.069900 0.806300
40.128900 0.779000
40.187900 0.759500
40.246900 0.729900
40.305900 0.708000
40.364900 0.698000
40.423900 0.683700
40.482900 0.662700
40.541900 0.645800
40.600900 0.646600
40.659900 0.651800
40.718900 0.665400
40.777900 0.657400
40.836900 0.640200
40.895900 0.634300
40.954900 0.628100
41.013900 0.626800
41.072900 0.644800
41.131900 0.637900
41.190900 0.639600
41.249900 0.643000
41.308900 0.648800
41.367900 0.657400
41.426900 0.647600
41.485900 0.648000
41.544900 0.646500
41.603900 0.638300
41.662900 0.626200
41.721900 0.611000
41.780900 0.594200
41.839900 0.575800
41.898900 0.557700
41.957900 0.541300
42.016900 0.533600
42.075900 0.526500
42.134900 0.524300
42.193900 0.527500
42.252900 0.525000
42.311900 0.524500
42.370900 0.523200
42.429900 0.528600
42.488900 0.533400
42.547900 0.539600
42.606900 0.547500
42.665900 0.552400
42.724900 0.554000
42.783900 0.548100
42.842900 0.533600
42.901900 0.529400
42.960900 0.533600
43.019900 0.540600
43.078900 0.547600
43.137900 0.564200
43.196900 0.584900
43.255900 0.575900
43.314900 0.574900
43.373900 0.569100
43.432900 0.563900
43.491900 0.565800
43.550900 0.584000
43.609900 0.600200
43.668900 0.639400
43.727900 0.601100
43.786900 0.595100
43.845900 0.579800
43.904900 0.584600
43.963900 0.611600
44.022900 0.592100
44.081900 0.588500
44.140900 0.592900
44.199900 0.608100
44.258900 0.638600
44.317900 0.676100
44.376900 0.714100
44.435900 0.744100
44.494900 0.755900
44.553900 0.760200
44.612900 0.788300
44.671900 0.774200
44.730900 0.769600
44.789900 0.760800
44.848900 0.739900
44.907900 0.704600
44.966900 0.689800
45.025900 0.678900
45.084900 0.673700
45.143900 0.670400
45.202900 0.692600
45.261900 0.699300
45.320900 0.751100
45.379900 0.742300
45.438900 0.728400
45.497900 0.717300
45.556900 0.730200
45.615900 0.747600
45.674900 0.815000
45.733900 0.808200
45.792900 0.814800
45.851900 0.809800
45.910900 0.813200
45.969900 0.807200
46.028900 0.812200
46.087900 0.791600
46.146900 0.779100
46.205900 0.757000
46.264900 0.743100
46.323900 0.733400
46.382900 0.718300
46.441900 0.718000
46.500900 0.710300
46.559900 0.704400
46.618900 0.712100
46.677900 0.718500
46.736900 0.736400
46.795900 0.741900
46.854900 0.749800
46.913900 0.747600
46.972900 0.776900
47.031900 0.842800
47.090900 0.869500
47.149900 0.859300
47.208900 0.886100
47.267900 0.861100
47.326900 0.846500
47.385900 0.852700
47.444900 0.875400
47.503900 0.910100
47.562900 0.928200
47.621900 0.912400
47.680900 0.902800
47.739900 0.836200
47.798900 0.796400
47.857900 0.769800
47.916900 0.748300
47.975900 0.749000
48.034900 0.755300
48.093900 0.752700
48.152900 0.755500
48.211900 0.777800
48.270900 0.767300
48.329900 0.763800
48.388900 0.784800
48.447900 0.789300
48.506900 0.799500
48.565900 0.815600
48.624900 0.828200
48.683900 0.836200
48.742900 0.841200
48.801900 0.856100
48.860900 0.848800
48.919900 0.836200
48.978900 0.842200
49.037900 0.830500
49.096900 0.815000
49.155900 0.796500
49.214900 0.771700
49.273900 0.705600
49.332900 0.632200
49.391900 0.583900
49.450900 0.547800
49.509900 0.527000
49.568900 0.508400
49.627900 0.494500
49.686900 0.484900
49.745900 0.474900
49.804900 0.457600
49.863900 0.488500
49.922900 0.511300
49.981900 0.541900
50.040900 0.554500
50.099900 0.567600
50.158900 0.604500
50.217900 0.635300
50.276900 0.656400
50.335900 0.682700
50.394900 0.713000
50.453900 0.714500
50.512900 0.723800
50.571900 0.726500
50.630900 0.721300
50.689900 0.719900
50.748900 0.700300
50.807900 0.666600
50.866900 0.649300
50.925900 0.649600
50.984900 0.651100
51.043900 0.656300
51.102900 0.628900
51.161900 0.611200
51.220900 0.607100
51.279900 0.596300
51.338900 0.594700
51.397900 0.599900
51.456800 0.607100
51.515800 0.616300
51.574800 0.645900
51.633800 0.664900
51.692800 0.678200
51.751800 0.699700
51.810800 0.731100
51.869800 0.744500
51.928800 0.716600
51.987800 0.698600
52.046800 0.662800
52.105800 0.634100
52.164800 0.618700
52.223800 0.611600
52.282800 0.617500
52.341800 0.615100
52.400800 0.645400
52.459800 0.620000
52.518800 0.637000
52.577800 0.649200
52.636800 0.656300
52.695800 0.644000
52.754800 0.627400
52.813800 0.617700
52.872800 0.632000
52.931800 0.672700
52.990800 0.732400
53.049800 0.759700
53.108800 0.784300
53.167800 0.795400
53.226800 0.796600
53.285800 0.796600
53.344800 0.777300
53.403800 0.744900
53.462800 0.715500
53.521800 0.684300
53.580800 0.682500
53.639800 0.714900
53.698800 0.737700
53.757800 0.772900
53.816800 0.802300
53.875800 0.808300
53.934800 0.774200
53.993800 0.753300
54.052800 0.749400
54.111800 0.745100
54.170800 0.744300
54.229800 0.755200
54.288800 0.764600
54.347800 0.689000
54.406800 0.657500
54.465800 0.651900
54.524800 0.658000
54.583800 0.721400
54.642800 0.770300
54.701800 0.792500
54.760800 0.812600
54.819800 0.838400
54.878800 0.863200
54.937800 0.882300
54.996800 0.883200
55.055800 0.884700
55.114800 0.867200
55.173800 0.854300
55.232800 0.859900
55.291800 0.848600
55.350800 0.840700
55.409800 0.798500
55.468800 0.792300
55.527800 0.784900
55.586800 0.771200
55.645800 0.755100
55.704800 0.759700
55.763800 0.763300
55.822800 0.755300
55.881800 0.797700
55.940800 0.853500
55.999800 0.897800
56.058800 0.928500
56.117800 0.983800
56.176800 0.978200
56.235800 0.971800
56.294800 0.949400
56.353800 0.934500
56.412800 0.915900
56.471800 0.912600
56.530800 0.890800
56.589800 0.865300
56.648800 0.858500
56.707800 0.844600
56.766800 0.862100
56.825800 0.888700
56.884800 0.947500
56.943800 1.016300
57.002800 1.062500
57.061800 1.072900
57.120800 1.080800
57.179800 1.086700
57.238800 1.090300
57.297800 1.073800
57.356800 1.069600
57.415800 1.127100
57.474800 1.204200
57.533800 1.163800
57.592800 1.182100
57.651800 1.164600
57.710800 1.162900
57.769800 1.130200
57.828800 1.098200
57.887800 1.067500
57.946800 1.124300
58.005800 1.163600
58.064800 1.191800
58.123800 1.175100
58.182800 1.106000
58.241800 1.044700
58.300800 1.064000
58.359800 0.976100
58.418800 0.943600
58.477800 0.947800
58.536800 1.066400
58.595800 1.187400
58.654800 1.305200
58.713800 1.301500
58.772800 1.291300
58.831800 1.359600
58.890800 1.425400
58.949800 1.189200
59.008800 1.196200
59.067800 1.294000
59.126800 1.220500
59.185800 1.285400
59.244800 1.441900
59.303800 1.473700
59.362800 1.229900
59.421800 1.067400
59.480800 1.054600
59.539800 1.093200
59.598800 1.201000
59.657800 1.202900
59.716800 1.163600
59.775800 1.167200
59.834800 1.099100
59.893800 1.123200
59.952800 1.236900
60.011800 1.307200
60.070800 1.388300
60.129800 1.305300
60.188800 1.185300
60.247800 1.048100
60.306800 0.914400
60.365800 0.796400
60.424800 0.704600
60.483800 0.625100
60.542800 0.576700
60.601800 0.552700
60.660800 0.538400
60.719800 0.523100
60.778800 0.515800
60.837800 0.515400
60.896800 0.526600
60.955800 0.560400
61.014800 0.578800
61.073800 0.605900
61.132800 0.684700
61.191800 0.695600
61.250800 0.709400
61.309800 0.691500
61.368800 0.637700
61.427800 0.593200
61.486800 0.567300
61.545800 0.525800
61.604800 0.484100
61.663800 0.458400
61.722800 0.441500
61.781800 0.421800
61.840800 0.410800
61.899800 0.401100
61.958800 0.381800
62.017800 0.341100
62.076800 0.314600
62.135800 0.286800
62.194800 0.258300
62.253800 0.234400
62.312800 0.208500
62.371800 0.186900
62.430800 0.145900
62.489800 0.137900
62.548800 0.121700
62.607800 0.110300
62.666800 0.104700
62.725800 0.097200
62.784800 0.092100
62.843800 0.090500
62.902800 0.089600
62.961800 0.082000
63.020800 0.073500
63.079800 0.069400
63.138800 0.066300
63.197800 0.063800
63.256800 0.061900
63.315800 0.061800
63.374800 0.062800
63.433800 0.062000
63.492800 0.059400
63.551800 0.055800
63.610800 0.051600
63.669800 0.046800
63.728800 0.037300
63.787800 0.027600
63.846800 0.022800
63.905800 0.018600
63.964800 0.014900
64.023800 0.011200
64.082800 0.006500
64.141800 0.004700
64.200800 0.003200
64.259800 0.002000
64.318800 0.001000
64.377800 0.000400
64.436800 0.000100
64.495800 0.000000
64.554800 0.000000
64.613800 0.000000
64.672800 0.000000
64.731800 0.000000
64.790800 0.000000
64.849800 0.000000
64.908800 0.000000
64.967800 0.000000
65.026800 0.000000
65.085800 0.000000
65.144800 0.000000
65.203800 0.000000
65.262800 0.000000
65.321800 0.000000
65.380800 0.000000
65.439800 0.000000
65.498800 0.000000
65.557800 0.000000
65.616800 0.000000
65.675800 0.000000
65.734800 0.000000
65.793800 0.000000
65.852800 0.000000
65.911800 0.000000
65.970800 0.000000
66.029800 0.000000
66.088700 0.000000
66.147700 0.000000
66.206700 0.000000
66.265700 0.000000
66.324700 0.000000
66.383700 0.000000
66.442700 0.000000
66.501700 0.000000
66.560700 0.000000
66.619700 0.000000
66.678700 0.000000
66.737700 0.000000
66.796700 0.000000
66.855700 0.000000
66.914700 0.000000
66.973700 0.000000
67.032700 0.000000
67.091700 0.000000
67.150700 0.000000
67.209700 0.000000
67.268700 0.000000
67.327700 0.000000
67.386700 0.000000
67.445700 0.000000
67.504700 0.000000
67.563700 0.000000
67.622700 0.000000
67.681700 0.000000
67.740700 0.000000
67.799700 0.000000
67.858700 0.000000
67.917700 0.000000
67.976700 0.000000
68.035700 0.000000
68.094700 0.000000
68.153700 0.000000
68.212700 0.000000
68.271700 0.000000
68.330700 0.000000
68.389700 0.000000
68.448700 0.000000
68.507700 0.000000
68.566700 0.000000
68.625700 0.000000
68.684700 0.000000
68.743700 0.000000
68.802700 0.000000
68.861700 0.000000
68.920700 0.000000
68.979700 0.000000
69.038700 0.000000
69.097700 0.000000
69.156700 0.000000
69.215700 0.000000
69.274700 0.000000
69.333700 0.000000
69.392700 0.000000
69.451700 0.000000
69.510700 0.000000
69.569700 0.000000
69.628700 0.000000
69.687700 0.000000
69.746700 0.000000
69.805700 0.000000
69.864700 0.000000
69.923700 0.000000
69.982700 0.000000
70.041700 0.000000
70.100700 0.000000
70.159700 0.000000
70.218700 0.000000
70.277700 0.000000
70.336700 0.000000
70.395700 0.000000
70.454700 0.000000
70.513700 0.000000
70.572700 0.000000
70.631700 0.000000
70.690700 0.000000
70.749700 0.000000
e
