set title 'mp-20320 - Density of States'
set xlabel 'Energy (eV)'
set ylabel 'DOS (states/eV)'
set grid
set xrange [-10:10]
set yrange [0:332.176]
set xzeroaxis lt -1
set terminal png size 800,600
set output 'mp-20320_dos_gnuplot.png'
plot '-' using 1:2 with lines title 'DOS'
-11.074500 0.000000
-11.058600 0.000000
-11.042600 0.000000
-11.026700 0.000000
-11.010800 0.000000
-10.994800 0.000000
-10.978900 0.000000
-10.962900 0.000000
-10.947000 0.000000
-10.931100 0.000000
-10.915100 0.000000
-10.899200 0.000000
-10.883200 0.000000
-10.867300 0.000000
-10.851400 0.000000
-10.835400 0.000000
-10.819500 0.000000
-10.803500 0.000000
-10.787600 0.000000
-10.771700 0.000000
-10.755700 0.000000
-10.739800 0.000000
-10.723800 0.000000
-10.707900 0.000000
-10.692000 0.000000
-10.676000 0.000000
-10.660100 0.000000
-10.644100 0.000000
-10.628200 0.000000
-10.612300 0.000000
-10.596300 0.000000
-10.580400 0.000000
-10.564400 0.000000
-10.548500 0.000000
-10.532600 0.000000
-10.516600 0.000000
-10.500700 0.000000
-10.484700 0.000000
-10.468800 0.000000
-10.452900 0.000000
-10.436900 0.000000
-10.421000 0.000000
-10.405000 0.000000
-10.389100 0.000000
-10.373200 0.000000
-10.357200 0.000000
-10.341300 0.000000
-10.325300 0.000000
-10.309400 0.000000
-10.293500 0.000000
-10.277500 0.000000
-10.261600 0.000000
-10.245700 0.000000
-10.229700 0.000000
-10.213800 0.000000
-10.197800 0.000000
-10.181900 0.000000
-10.166000 0.000000
-10.150000 0.000000
-10.134100 0.000000
-10.118100 0.000000
-10.102200 0.000000
-10.086300 0.000000
-10.070300 0.000000
-10.054400 0.000000
-10.038400 0.000000
-10.022500 0.000000
-10.006600 0.000000
-9.990600 0.000000
-9.974700 0.000000
-9.958700 0.000000
-9.942800 0.000000
-9.926900 0.000000
-9.910900 0.000000
-9.895000 0.000000
-9.879000 0.000000
-9.863100 0.000000
-9.847200 0.000000
-9.831200 0.000000
-9.815300 0.000000
-9.799300 0.000000
-9.783400 0.000000
-9.767500 0.000000
-9.751500 0.000000
-9.735600 0.000000
-9.719600 0.000000
-9.703700 0.000000
-9.687800 0.000000
-9.671800 0.000000
-9.655900 0.000000
-9.639900 0.000000
-9.624000 101.981600
-9.608100 104.024500
-9.592100 0.000000
-9.576200 0.000000
-9.560200 26.869700
-9.544300 119.852800
-9.528400 161.155500
-9.512400 0.000000
-9.496500 233.977100
-9.480600 0.000000
-9.464600 0.000000
-9.448700 17.712700
-9.432700 17.712800
-9.416800 22.972200
-9.400900 22.972100
-9.384900 0.000000
-9.369000 0.000000
-9.353000 0.000000
-9.337100 0.000000
-9.321200 0.000000
-9.305200 0.000000
-9.289300 0.000000
-9.273300 0.000000
-9.257400 0.000000
-9.241500 0.000000
-9.225500 0.000000
-9.209600 0.000000
-9.193600 0.000000
-9.177700 0.000000
-9.161800 0.000000
-9.145800 0.000000
-9.129900 0.000000
-9.113900 0.000000
-9.098000 26.662200
-9.082100 26.662200
-9.066100 18.419800
-9.050200 200.157300
-9.034200 94.621200
-9.018300 301.977800
-9.002400 141.447200
-8.986400 23.591700
-8.970500 26.470400
-8.954500 70.560500
-8.938600 0.000000
-8.922700 0.000000
-8.906700 0.000000
-8.890800 0.000000
-8.874800 0.000000
-8.858900 0.000000
-8.843000 0.000000
-8.827000 0.000000
-8.811100 0.000000
-8.795100 0.000000
-8.779200 0.000000
-8.763300 0.000000
-8.747300 0.000000
-8.731400 0.000000
-8.715500 0.000000
-8.699500 0.000000
-8.683600 0.000000
-8.667600 0.000000
-8.651700 0.000000
-8.635800 0.000000
-8.619800 0.000000
-8.603900 0.000000
-8.587900 0.000000
-8.572000 0.000000
-8.556100 0.000000
-8.540100 0.000000
-8.524200 0.000000
-8.508200 0.000000
-8.492300 0.000000
-8.476400 0.000000
-8.460400 0.000000
-8.444500 0.000000
-8.428500 0.000000
-8.412600 0.000000
-8.396700 0.000000
-8.380700 0.000000
-8.364800 0.000000
-8.348800 0.000000
-8.332900 0.000000
-8.317000 0.000000
-8.301000 0.000000
-8.285100 0.000000
-8.269100 0.000000
-8.253200 0.000000
-8.237300 0.000000
-8.221300 0.000000
-8.205400 0.000000
-8.189400 0.000000
-8.173500 0.000000
-8.157600 0.000000
-8.141600 0.000000
-8.125700 0.000000
-8.109700 0.000000
-8.093800 0.000000
-8.077900 0.000000
-8.061900 0.000000
-8.046000 0.000000
-8.030000 0.000000
-8.014100 0.000000
-7.998200 0.000000
-7.982200 0.000000
-7.966300 0.000000
-7.950300 0.000000
-7.934400 0.000000
-7.918500 0.000000
-7.902500 0.000000
-7.886600 0.000000
-7.870700 0.000000
-7.854700 0.000000
-7.838800 0.000000
-7.822800 0.000000
-7.806900 0.000000
-7.791000 0.000000
-7.775000 0.000000
-7.759100 0.000000
-7.743100 0.000000
-7.727200 0.000000
-7.711300 0.000000
-7.695300 0.000000
-7.679400 0.000000
-7.663400 0.000000
-7.647500 0.000000
-7.631600 0.000000
-7.615600 0.000000
-7.599700 0.000000
-7.583700 0.000000
-7.567800 0.000000
-7.551900 0.000000
-7.535900 0.000000
-7.520000 0.000000
-7.504000 0.000000
-7.488100 0.000000
-7.472200 0.000000
-7.456200 0.000000
-7.440300 0.000000
-7.424300 0.000000
-7.408400 0.000000
-7.392500 0.000000
-7.376500 0.000000
-7.360600 0.000000
-7.344600 0.000000
-7.328700 0.000000
-7.312800 0.000000
-7.296800 0.000000
-7.280900 0.000000
-7.264900 0.000000
-7.249000 0.000000
-7.233100 0.000000
-7.217100 0.000000
-7.201200 0.000000
-7.185200 0.000000
-7.169300 0.000000
-7.153400 0.000000
-7.137400 0.000000
-7.121500 0.000000
-7.105600 0.000000
-7.089600 0.000000
-7.073700 0.000000
-7.057700 0.000000
-7.041800 0.000000
-7.025900 0.000000
-7.009900 0.000000
-6.994000 0.000000
-6.978000 0.000000
-6.962100 0.000000
-6.946200 0.000000
-6.930200 0.000000
-6.914300 0.000000
-6.898300 0.000000
-6.882400 0.000000
-6.866500 0.000000
-6.850500 0.000000
-6.834600 0.000000
-6.818600 0.000000
-6.802700 0.000000
-6.786800 0.000000
-6.770800 0.000000
-6.754900 0.000000
-6.738900 0.000000
-6.723000 0.000000
-6.707100 0.000000
-6.691100 0.000000
-6.675200 0.000000
-6.659200 0.000000
-6.643300 0.000000
-6.627400 0.000000
-6.611400 0.000000
-6.595500 0.000000
-6.579500 0.000000
-6.563600 0.000000
-6.547700 0.000000
-6.531700 0.000000
-6.515800 0.000000
-6.499800 0.000000
-6.483900 0.000000
-6.468000 0.000000
-6.452000 0.000600
-6.436100 0.078400
-6.420100 0.286200
-6.404200 0.706500
-6.388300 0.835100
-6.372300 0.939400
-6.356400 1.083300
-6.340500 1.234500
-6.324500 1.383800
-6.308600 1.531400
-6.292600 1.645900
-6.276700 1.785000
-6.260800 1.923000
-6.244800 2.045600
-6.228900 2.136000
-6.212900 2.237300
-6.197000 2.375100
-6.181100 2.529400
-6.165100 2.694400
-6.149200 2.955400
-6.133200 3.420000
-6.117300 3.716200
-6.101400 3.904100
-6.085400 4.004800
-6.069500 3.792500
-6.053500 3.742100
-6.037600 3.778200
-6.021700 3.804000
-6.005700 3.819600
-5.989800 3.791400
-5.973800 3.762700
-5.957900 3.748900
-5.942000 3.768900
-5.926000 3.840900
-5.910100 3.999300
-5.894100 4.138500
-5.878200 4.384900
-5.862300 4.570100
-5.846300 4.660800
-5.830400 5.079900
-5.814400 5.164400
-5.798500 3.393400
-5.782600 2.153800
-5.766600 1.418600
-5.750700 0.968600
-5.734700 0.741700
-5.718800 0.556000
-5.702900 0.843800
-5.686900 2.082300
-5.671000 2.712500
-5.655000 3.409500
-5.639100 4.917100
-5.623200 4.952500
-5.607200 4.123800
-5.591300 4.430400
-5.575400 4.303700
-5.559400 4.161700
-5.543500 4.046800
-5.527500 4.353700
-5.511600 7.601800
-5.495700 9.855600
-5.479700 14.022000
-5.463800 10.135400
-5.447800 8.458900
-5.431900 6.474800
-5.416000 6.152000
-5.400000 6.322100
-5.384100 9.970900
-5.368100 10.003100
-5.352200 9.945500
-5.336300 10.614600
-5.320300 11.181600
-5.304400 10.825300
-5.288400 10.907000
-5.272500 11.726500
-5.256600 12.182900
-5.240600 11.374100
-5.224700 11.044000
-5.208700 12.614100
-5.192800 22.186700
-5.176900 11.899900
-5.160900 10.877300
-5.145000 10.046100
-5.129000 9.491500
-5.113100 9.164000
-5.097200 8.497100
-5.081200 7.906700
-5.065300 7.466300
-5.049300 6.935500
-5.033400 6.937400
-5.017500 7.963700
-5.001500 5.506300
-4.985600 2.520400
-4.969600 0.571400
-4.953700 0.000000
-4.937800 0.000000
-4.921800 0.000000
-4.905900 0.000000
-4.889900 0.000000
-4.874000 0.000000
-4.858100 0.000000
-4.842100 0.000000
-4.826200 0.000000
-4.810300 0.000000
-4.794300 0.000000
-4.778400 0.000000
-4.762400 0.000000
-4.746500 0.000000
-4.730600 0.000000
-4.714600 0.000000
-4.698700 0.000000
-4.682700 0.000000
-4.666800 0.000000
-4.650900 0.000000
-4.634900 0.000000
-4.619000 0.000000
-4.603000 0.000000
-4.587100 0.000000
-4.571200 0.000000
-4.555200 0.000000
-4.539300 0.000000
-4.523300 0.000000
-4.507400 0.000000
-4.491500 0.000000
-4.475500 0.000000
-4.459600 0.000000
-4.443600 0.000000
-4.427700 0.000000
-4.411800 0.000000
-4.395800 0.000000
-4.379900 0.000000
-4.363900 0.000000
-4.348000 0.000000
-4.332100 0.000000
-4.316100 0.000000
-4.300200 0.000000
-4.284200 0.000000
-4.268300 0.000000
-4.252400 0.000000
-4.236400 0.000000
-4.220500 0.000000
-4.204500 0.000000
-4.188600 0.000000
-4.172700 0.000000
-4.156700 0.000000
-4.140800 0.000000
-4.124800 0.000000
-4.108900 0.000000
-4.093000 0.000000
-4.077000 0.000000
-4.061100 0.000000
-4.045100 0.000000
-4.029200 0.000000
-4.013300 0.000000
-3.997300 0.000000
-3.981400 0.000000
-3.965500 0.000000
-3.949500 0.000000
-3.933600 0.000000
-3.917600 0.000000
-3.901700 0.000000
-3.885800 0.000000
-3.869800 0.000000
-3.853900 0.000000
-3.837900 0.000000
-3.822000 0.000000
-3.806100 0.000000
-3.790100 0.000000
-3.774200 0.000000
-3.758200 0.000000
-3.742300 0.000000
-3.726400 0.000000
-3.710400 0.000000
-3.694500 0.000000
-3.678500 0.000000
-3.662600 0.000000
-3.646700 0.000000
-3.630700 0.000000
-3.614800 0.000000
-3.598800 0.000000
-3.582900 0.000000
-3.567000 0.000000
-3.551000 0.000000
-3.535100 0.000000
-3.519100 0.000000
-3.503200 0.000000
-3.487300 0.000000
-3.471300 0.000000
-3.455400 0.000000
-3.439400 0.000000
-3.423500 0.000000
-3.407600 0.000000
-3.391600 0.000000
-3.375700 0.000000
-3.359700 0.000000
-3.343800 0.000000
-3.327900 0.000000
-3.311900 0.000000
-3.296000 0.000000
-3.280000 0.000000
-3.264100 0.000000
-3.248200 0.000000
-3.232200 0.000000
-3.216300 0.000000
-3.200400 0.000000
-3.184400 0.000000
-3.168500 0.000000
-3.152500 0.000000
-3.136600 0.000000
-3.120700 0.000000
-3.104700 0.000000
-3.088800 0.000000
-3.072800 0.000000
-3.056900 0.000000
-3.041000 0.000000
-3.025000 0.000000
-3.009100 0.000000
-2.993100 0.000000
-2.977200 0.000000
-2.961300 0.000000
-2.945300 0.000000
-2.929400 0.000000
-2.913400 0.000000
-2.897500 0.000000
-2.881600 0.000000
-2.865600 0.000000
-2.849700 0.000000
-2.833700 0.000000
-2.817800 0.000000
-2.801900 0.000000
-2.785900 0.000000
-2.770000 0.000000
-2.754000 0.000000
-2.738100 0.000000
-2.722200 0.000000
-2.706200 0.000000
-2.690300 0.000000
-2.674300 0.000000
-2.658400 0.000000
-2.642500 0.000000
-2.626500 0.000000
-2.610600 0.000000
-2.594600 0.000000
-2.578700 0.000000
-2.562800 0.000000
-2.546800 0.000000
-2.530900 0.000000
-2.514900 0.000000
-2.499000 0.000000
-2.483100 0.000000
-2.467100 0.000000
-2.451200 0.000000
-2.435300 0.000000
-2.419300 0.000000
-2.403400 0.000000
-2.387400 0.000000
-2.371500 0.000000
-2.355600 0.000000
-2.339600 0.000000
-2.323700 0.000000
-2.307700 0.000000
-2.291800 0.000000
-2.275900 0.000000
-2.259900 0.000000
-2.244000 0.000000
-2.228000 0.000000
-2.212100 0.000000
-2.196200 0.000000
-2.180200 0.000000
-2.164300 0.000000
-2.148300 0.000000
-2.132400 0.000000
-2.116500 0.000000
-2.100500 0.000000
-2.084600 0.000000
-2.068600 0.000000
-2.052700 0.000000
-2.036800 0.000000
-2.020800 0.000000
-2.004900 0.000000
-1.988900 0.000000
-1.973000 0.000000
-1.957100 0.000000
-1.941100 0.000000
-1.925200 0.000000
-1.909200 0.000000
-1.893300 0.000000
-1.877400 0.000000
-1.861400 0.000000
-1.845500 0.000000
-1.829500 0.000000
-1.813600 0.000000
-1.797700 0.000000
-1.781700 0.000000
-1.765800 0.000000
-1.749800 0.000000
-1.733900 0.000000
-1.718000 0.000000
-1.702000 0.000000
-1.686100 0.000000
-1.670200 0.000000
-1.654200 0.000000
-1.638300 0.000000
-1.622300 0.000000
-1.606400 0.000000
-1.590500 0.000000
-1.574500 0.000000
-1.558600 0.000000
-1.542600 0.000000
-1.526700 0.000000
-1.510800 0.000000
-1.494800 0.000000
-1.478900 0.000000
-1.462900 0.000000
-1.447000 0.000000
-1.431100 0.000000
-1.415100 0.000000
-1.399200 0.000000
-1.383200 0.000000
-1.367300 0.000000
-1.351400 0.000000
-1.335400 0.000000
-1.319500 0.000000
-1.303500 0.000000
-1.287600 0.000000
-1.271700 0.000000
-1.255700 0.000000
-1.239800 0.000000
-1.223800 0.000000
-1.207900 0.000000
-1.192000 0.000000
-1.176000 0.000000
-1.160100 0.000000
-1.144100 0.000000
-1.128200 0.000000
-1.112300 0.000000
-1.096300 0.000000
-1.080400 0.000000
-1.064400 0.000000
-1.048500 0.000000
-1.032600 0.000000
-1.016600 0.000000
-1.000700 0.000000
-0.984700 0.000000
-0.968800 0.000000
-0.952900 0.000000
-0.936900 0.000000
-0.921000 0.000000
-0.905100 0.000000
-0.889100 0.000000
-0.873200 0.000000
-0.857200 0.000000
-0.841300 0.000000
-0.825400 0.000000
-0.809400 0.000000
-0.793500 0.000000
-0.777500 0.000000
-0.761600 0.000000
-0.745700 0.000000
-0.729700 0.100600
-0.713800 0.145700
-0.697800 0.197600
-0.681900 0.256500
-0.666000 0.322200
-0.650000 0.394800
-0.634100 0.474400
-0.618100 0.560700
-0.602200 0.653500
-0.586300 1.272700
-0.570300 1.129700
-0.554400 1.313000
-0.538400 1.499600
-0.522500 1.693900
-0.506600 1.897200
-0.490600 2.225500
-0.474700 2.878900
-0.458700 3.818800
-0.442800 4.937300
-0.426900 5.828500
-0.410900 6.171300
-0.395000 7.252300
-0.379000 7.420400
-0.363100 8.170600
-0.347200 8.987400
-0.331200 10.138200
-0.315300 13.375100
-0.299300 16.782300
-0.283400 14.314000
-0.267500 10.616000
-0.251500 8.519300
-0.235600 7.346200
-0.219600 6.753500
-0.203700 6.572800
-0.187800 8.856100
-0.171800 7.141000
-0.155900 8.026600
-0.139900 9.473400
-0.124000 10.181200
-0.108100 9.332500
-0.092100 9.205900
-0.076200 8.810400
-0.060300 8.007100
-0.044300 7.347200
-0.028400 6.561800
-0.012400 5.724600
0.003500 4.574900
0.019400 3.600000
0.035400 2.663700
0.051300 2.397700
0.067300 2.362100
0.083200 2.379100
0.099100 2.301900
0.115100 2.263600
0.131000 2.264800
0.147000 2.304900
0.162900 2.235100
0.178800 2.376100
0.194800 2.495900
0.210700 2.597400
0.226700 2.686800
0.242600 2.775600
0.258500 2.870400
0.274500 2.974000
0.290400 3.474400
0.306400 3.554800
0.322300 3.380000
0.338200 3.273200
0.354200 3.147900
0.370100 3.009400
0.386100 2.855700
0.402000 2.672000
0.417900 2.458300
0.433900 2.145000
0.449800 1.861600
0.465800 1.740100
0.481700 3.091000
0.497600 3.135100
0.513600 3.191900
0.529500 3.570500
0.545500 3.637300
0.561400 3.672300
0.577300 3.678800
0.593300 3.693800
0.609200 3.718200
0.625200 3.747100
0.641100 3.748700
0.657000 3.732700
0.673000 3.685300
0.688900 3.589200
0.704800 3.474100
0.720800 3.331000
0.736700 3.189300
0.752700 3.105800
0.768600 3.040800
0.784500 2.974200
0.800500 2.906000
0.816400 2.836400
0.832400 2.766200
0.848300 2.696300
0.864200 2.633100
0.880200 2.731400
0.896100 2.840100
0.912100 2.794400
0.928000 2.653100
0.943900 2.564300
0.959900 2.554700
0.975800 2.547100
0.991800 2.541500
1.007700 2.538100
1.023600 2.462600
1.039600 2.380600
1.055500 2.306400
1.071500 2.239900
1.087400 2.176900
1.103300 2.113100
1.119300 2.048500
1.135200 1.976400
1.151200 1.921200
1.167100 1.859200
1.183000 1.790400
1.199000 1.848900
1.214900 1.531200
1.230900 1.355600
1.246800 1.291100
1.262700 1.241300
1.278700 1.191200
1.294600 1.140800
1.310600 1.089900
1.326500 1.054600
1.342400 1.318200
1.358400 0.815800
1.374300 0.767400
1.390300 0.748400
1.406200 0.743600
1.422100 0.762200
1.438100 0.808200
1.454000 0.881600
1.469900 0.982500
1.485900 1.110800
1.501800 1.266500
1.517800 1.505900
1.533700 1.888700
1.549600 2.499300
1.565600 3.033300
1.581500 2.137300
1.597500 2.428000
1.613400 2.293000
1.629300 2.199700
1.645300 2.301300
1.661200 2.398100
1.677200 2.418900
1.693100 2.467700
1.709000 2.517700
1.725000 2.568700
1.740900 2.628600
1.756900 2.721800
1.772800 2.834300
1.788700 2.937200
1.804700 3.048800
1.820600 3.195400
1.836600 3.414100
1.852500 3.826400
1.868400 3.774900
1.884400 3.717500
1.900300 3.570200
1.916300 3.620800
1.932200 3.683700
1.948100 3.745800
1.964100 3.807800
1.980000 3.897900
1.996000 3.996500
2.011900 4.079400
2.027800 4.175000
2.043800 4.267400
2.059700 4.327400
2.075700 4.458800
2.091600 4.602600
2.107500 4.779200
2.123500 5.052200
2.139400 5.257800
2.155400 5.459200
2.171300 5.574000
2.187200 5.729800
2.203200 5.716100
2.219100 5.676500
2.235000 5.703200
2.251000 5.368600
2.266900 5.287300
2.282900 5.207700
2.298800 5.149500
2.314700 5.109200
2.330700 5.065700
2.346600 5.013500
2.362600 5.082700
2.378500 5.724300
2.394400 6.060000
2.410400 5.740700
2.426300 5.024400
2.442300 4.965200
2.458200 4.949200
2.474100 4.945900
2.490100 4.871700
2.506000 4.916400
2.522000 4.975000
2.537900 5.041600
2.553800 5.112100
2.569800 5.156900
2.585700 5.036300
2.601700 5.147100
2.617600 5.063700
2.633500 5.089600
2.649500 5.335200
2.665400 5.775800
2.681400 6.345200
2.697300 7.000200
2.713200 6.752400
2.729200 6.351000
2.745100 6.472700
2.761100 7.428100
2.777000 7.642900
2.792900 6.331300
2.808900 6.215500
2.824800 6.236400
2.840800 6.269300
2.856700 6.257000
2.872600 6.236000
2.888600 6.330100
2.904500 5.444600
2.920500 4.827200
2.936400 4.770200
2.952300 4.975300
2.968300 5.393700
2.984200 5.940000
3.000100 6.385500
3.016100 6.848100
3.032000 7.224800
3.048000 7.994700
3.063900 8.795300
3.079800 9.020100
3.095800 8.810300
3.111700 8.348600
3.127700 8.685800
3.143600 8.060100
3.159500 7.375000
3.175500 7.042500
3.191400 6.821900
3.207400 6.642100
3.223300 6.554600
3.239200 6.564400
3.255200 5.815300
3.271100 5.426500
3.287100 5.063700
3.303000 5.266800
3.318900 5.639700
3.334900 5.676600
3.350800 5.831500
3.366800 6.084700
3.382700 6.370900
3.398600 6.670300
3.414600 6.923100
3.430500 7.443500
3.446500 7.894500
3.462400 7.875300
3.478300 7.806600
3.494300 8.417500
3.510200 10.687700
3.526200 11.181400
3.542100 10.429600
3.558000 10.047500
3.574000 9.560500
3.589900 8.973600
3.605900 8.363100
3.621800 7.903200
3.637700 9.136700
3.653700 8.855000
3.669600 9.056800
3.685600 9.436200
3.701500 9.900200
3.717400 10.263600
3.733400 11.028500
3.749300 13.048500
3.765300 14.051700
3.781200 15.383600
3.797100 13.759300
3.813100 10.384500
3.829000 9.728700
3.844900 8.201400
3.860900 7.347300
3.876800 7.863100
3.892800 8.176500
3.908700 8.192300
3.924600 8.419400
3.940600 8.083600
3.956500 6.367200
3.972500 7.508900
3.988400 8.045200
4.004300 8.764100
4.020300 9.676700
4.036200 9.296800
4.052200 8.557400
4.068100 7.917800
4.084000 6.996400
4.100000 6.521100
4.115900 6.014000
4.131900 6.073000
4.147800 6.495200
4.163700 7.178800
4.179700 8.178500
4.195600 9.067400
4.211600 9.716900
4.227500 9.554000
4.243400 9.084600
4.259400 8.376900
4.275300 7.524700
4.291300 6.672200
4.307200 5.939900
4.323100 5.045800
4.339100 3.809400
4.355000 3.230800
4.371000 2.772500
4.386900 2.916100
4.402800 3.259100
4.418800 3.784400
4.434700 4.934000
4.450700 6.412800
4.466600 6.273600
4.482500 5.858100
4.498500 5.227300
4.514400 5.114800
4.530400 5.019400
4.546300 6.602900
4.562200 6.727000
4.578200 4.708100
4.594100 3.684800
4.610000 3.545000
4.626000 3.485300
4.641900 3.382700
4.657900 3.250400
4.673800 3.097800
4.689700 2.924200
4.705700 2.712500
4.721600 2.656800
4.737600 2.243100
4.753500 1.898000
4.769400 1.760300
4.785400 1.681500
4.801300 1.604300
4.817300 1.528900
4.833200 1.455200
4.849100 1.383300
4.865100 1.313000
4.881000 1.244400
4.897000 1.177600
4.912900 1.112400
4.928800 1.067400
4.944800 0.988500
4.960700 0.927800
4.976700 0.899000
4.992600 0.883400
5.008500 0.784600
5.024500 0.756800
5.040400 0.728900
5.056400 0.700800
5.072300 0.672500
5.088200 0.644100
5.104200 0.615400
5.120100 0.586600
5.136100 0.557700
5.152000 0.528900
5.167900 0.501700
5.183900 0.476200
5.199800 0.452600
5.215800 0.430800
5.231700 0.410800
5.247600 0.392600
5.263600 0.310100
5.279500 0.300500
5.295500 0.288800
5.311400 0.275100
5.327300 0.259300
5.343300 0.241500
5.359200 0.221700
5.375100 0.199800
5.391100 0.157800
5.407000 0.121800
5.423000 0.090500
5.438900 0.063800
5.454800 0.041700
5.470800 0.024300
5.486700 0.011600
5.502700 0.003500
5.518600 0.000100
5.534500 0.000000
5.550500 0.001600
5.566400 0.021400
5.582400 0.049400
5.598300 0.083400
5.614200 0.123500
5.630200 0.169500
5.646100 0.221600
5.662100 0.279800
5.678000 0.343900
5.693900 0.414100
5.709900 0.535500
5.725800 0.607400
5.741800 0.672700
5.757700 0.731200
5.773600 0.783900
5.789600 0.866400
5.805500 0.949900
5.821500 1.034500
5.837400 1.120200
5.853300 1.207300
5.869300 1.369300
5.885200 1.654800
5.901200 1.856200
5.917100 2.073900
5.933000 2.334400
5.949000 3.835700
5.964900 4.209500
5.980900 4.162900
5.996800 4.069700
6.012700 4.161000
6.028700 4.202000
6.044600 3.946800
6.060600 4.042400
6.076500 4.196000
6.092400 4.272500
6.108400 4.215600
6.124300 4.015900
6.140200 3.895300
6.156200 3.885700
6.172100 3.907900
6.188100 3.943600
6.204000 3.892600
6.219900 3.684800
6.235900 3.495000
6.251800 3.256600
6.267800 3.041000
6.283700 2.848200
6.299600 2.678300
6.315600 2.401000
6.331500 2.297400
6.347500 2.195800
6.363400 2.140000
6.379300 2.217300
6.395300 2.537700
6.411200 2.650500
6.427200 2.780200
6.443100 2.909500
6.459000 3.042100
6.475000 3.181200
6.490900 3.397000
6.506900 3.566000
6.522800 3.728100
6.538700 3.940100
6.554700 4.070400
6.570600 4.180900
6.586600 4.237900
6.602500 3.896600
6.618400 3.973000
6.634400 3.899200
6.650300 3.734000
6.666300 3.620800
6.682200 3.500600
6.698100 3.365200
6.714100 3.266800
6.730000 3.352700
6.746000 3.440300
6.761900 3.408900
6.777800 3.383800
6.793800 3.366200
6.809700 3.356600
6.825700 3.354500
6.841600 3.398100
6.857500 3.718900
6.873500 3.415300
6.889400 3.361600
6.905400 3.293500
6.921300 3.159200
6.937200 3.338300
6.953200 3.434700
6.969100 3.642100
6.985000 3.872800
7.001000 4.005600
7.016900 4.156800
7.032900 4.326400
7.048800 4.529300
7.064700 4.783800
7.080700 5.171300
7.096600 6.518100
7.112600 7.886500
7.128500 7.054800
7.144400 5.914100
7.160400 5.434700
7.176300 5.261400
7.192300 5.039400
7.208200 4.990100
7.224100 4.960500
7.240100 5.931400
7.256000 6.294000
7.272000 6.166300
7.287900 6.024300
7.303800 5.981300
7.319800 5.999800
7.335700 5.911800
7.351700 5.788000
7.367600 5.651800
7.383500 5.500200
7.399500 5.424800
7.415400 5.577700
7.431400 4.702000
7.447300 4.644800
7.463200 4.569500
7.479200 4.447200
7.495100 4.315400
7.511100 4.176000
7.527000 3.939400
7.542900 3.860500
7.558900 3.843000
7.574800 3.802000
7.590800 3.795500
7.606700 3.804200
7.622600 3.823100
7.638600 3.852400
7.654500 3.925600
7.670500 3.986600
7.686400 4.064500
7.702300 4.172300
7.718300 4.303900
7.734200 4.545300
7.750100 4.573200
7.766100 4.635800
7.782000 4.603700
7.798000 4.656700
7.813900 4.720100
7.829800 4.826700
7.845800 4.957400
7.861700 5.027900
7.877700 5.063800
7.893600 4.957400
7.909500 4.940300
7.925500 4.895600
7.941400 4.823400
7.957400 4.723700
7.973300 4.609900
7.989200 4.499500
8.005200 4.810700
8.021100 5.699900
8.037100 6.087500
8.053000 4.644400
8.068900 5.281000
8.084900 5.576100
8.100800 5.875000
8.116800 6.207300
8.132700 6.520500
8.148600 6.822000
8.164600 7.111700
8.180500 7.408700
8.196500 8.327500
8.212400 8.163300
8.228300 8.065600
8.244300 8.428900
8.260200 8.239500
8.276200 7.939700
8.292100 7.832000
8.308000 8.773500
8.324000 9.683000
8.339900 9.503900
8.355900 7.312000
8.371800 7.309200
8.387700 7.213700
8.403700 7.096800
8.419600 6.911300
8.435600 7.149100
8.451500 7.689400
8.467400 7.557600
8.483400 6.944800
8.499300 6.670800
8.515200 6.729600
8.531200 6.938000
8.547100 6.777200
8.563100 6.735700
8.579000 6.761600
8.594900 6.758100
8.610900 6.857800
8.626800 6.960900
8.642800 7.164400
8.658700 7.279600
8.674600 7.392400
8.690600 7.378400
8.706500 7.907600
8.722500 7.924000
8.738400 7.997900
8.754300 8.049300
8.770300 7.991200
8.786200 7.761000
8.802200 7.375800
8.818100 7.197200
8.834000 7.762200
8.850000 7.749400
8.865900 6.780200
8.881900 6.441000
8.897800 6.366900
8.913700 6.279200
8.929700 6.313400
8.945600 6.463300
8.961600 6.828800
8.977500 6.115600
8.993400 6.003800
9.009400 6.007800
9.025300 6.010500
9.041300 6.069400
9.057200 6.137400
9.073100 6.316600
9.089100 6.323900
9.105000 6.371800
9.121000 6.310500
9.136900 6.212000
9.152800 8.315400
9.168800 8.325800
9.184700 8.483100
9.200700 8.177000
9.216600 7.861800
9.232500 7.380400
9.248500 7.069500
9.264400 7.043600
9.280300 6.717500
9.296300 6.715500
9.312200 6.379000
9.328200 5.917000
9.344100 5.594800
9.360000 5.314800
9.376000 5.128100
9.391900 5.596500
9.407900 5.868000
9.423800 6.242000
9.439700 6.890100
9.455700 7.488100
9.471600 8.011200
9.487600 8.130800
9.503500 7.836100
9.519400 7.562400
9.535400 7.421100
9.551300 7.251100
9.567300 7.076600
9.583200 6.920600
9.599100 6.652800
9.615100 6.894700
9.631000 6.427200
9.647000 6.378300
9.662900 6.178400
9.678800 6.313300
9.694800 6.357800
9.710700 6.475300
9.726700 6.721500
9.742600 7.077200
9.758500 7.290800
9.774500 7.701200
9.790400 7.762900
9.806400 7.713900
9.822300 7.678100
9.838200 7.601100
9.854200 7.438100
9.870100 7.214800
9.886100 7.121600
9.902000 6.782300
9.917900 6.323800
9.933900 6.036700
9.949800 5.890400
9.965800 5.752900
9.981700 5.604000
9.997600 5.511100
10.013600 5.427300
10.029500 5.361100
10.045400 5.336000
10.061400 5.403000
10.077300 5.530500
10.093300 5.867200
10.109200 6.269900
10.125100 6.411600
10.141100 6.569500
10.157000 6.814100
10.173000 7.178700
10.188900 7.492000
10.204800 6.638600
10.220800 5.562800
10.236700 5.349700
10.252700 5.290500
10.268600 5.311300
10.284500 5.421700
10.300500 5.526400
10.316400 5.625900
10.332400 5.765000
10.348300 5.915700
10.364200 6.030400
10.380200 5.833200
10.396100 5.760400
10.412100 5.584500
10.428000 5.411800
10.443900 5.151400
10.459900 4.998800
10.475800 4.959800
10.491800 4.929900
10.507700 4.945200
10.523600 4.946000
10.539600 4.897000
10.555500 4.774600
10.571500 4.708800
10.587400 7.620800
10.603300 5.429200
10.619300 5.514700
10.635200 5.533200
10.651200 4.433500
10.667100 3.800800
10.683000 3.552800
10.699000 3.428900
10.714900 3.548900
10.730900 3.297400
10.746800 3.230100
10.762700 3.165300
10.778700 3.101000
10.794600 3.041600
10.810600 2.996200
10.826500 2.938800
10.842400 3.085100
10.858400 3.012700
10.874300 2.942300
10.890200 2.862300
10.906200 2.784300
10.922100 2.716600
10.938100 2.582000
10.954000 2.477900
10.969900 2.349200
10.985900 2.228100
11.001800 2.189600
11.017800 2.236700
11.033700 2.296500
11.049600 2.367200
11.065600 2.448700
11.081500 2.559600
11.097500 2.759000
11.113400 2.930300
11.129300 3.069400
11.145300 3.175900
11.161200 3.250600
11.177200 3.291500
11.193100 3.279500
11.209000 3.246200
11.225000 3.148300
11.240900 3.059300
11.256900 2.912100
11.272800 2.861000
11.288700 2.802200
11.304700 2.765000
11.320600 2.761100
11.336600 2.780800
11.352500 2.890100
11.368400 2.985500
11.384400 3.038900
11.400300 3.090200
11.416300 3.147900
11.432200 3.029100
11.448100 3.070300
11.464100 3.208800
11.480000 3.301500
11.496000 3.474800
11.511900 3.380300
11.527800 3.234800
11.543800 3.082800
11.559700 2.941500
11.575700 2.810700
11.591600 2.690500
11.607500 2.608600
11.623500 2.543700
11.639400 2.489800
11.655300 2.484300
11.671300 2.557500
11.687200 2.442600
11.703200 2.431700
11.719100 2.430400
11.735000 2.436400
11.751000 2.448800
11.766900 2.458300
11.782900 2.472600
11.798800 2.538800
11.814700 2.730700
11.830700 2.841500
11.846600 2.929300
11.862600 3.040200
11.878500 3.189000
11.894400 3.360900
11.910400 3.472500
11.926300 3.693300
11.942300 3.865900
11.958200 3.980600
11.974100 4.053400
11.990100 4.100700
12.006000 4.449900
12.022000 4.658200
12.037900 4.872800
12.053800 4.923700
12.069800 4.985100
12.085700 5.080700
12.101700 5.214100
12.117600 5.401500
12.133500 5.639300
12.149500 5.974200
12.165400 6.398700
12.181400 6.339300
12.197300 6.260700
12.213200 6.265400
12.229200 5.973700
12.245100 5.945700
12.261100 5.714400
12.277000 5.689200
12.292900 5.662000
12.308900 5.614000
12.324800 5.638300
12.340800 5.747000
12.356700 5.429100
12.372600 4.847400
12.388600 4.450400
12.404500 4.115100
12.420400 4.047100
12.436400 4.026300
12.452300 3.250300
12.468300 3.337500
12.484200 3.590800
12.500100 3.756500
12.516100 3.902300
12.532000 4.027900
12.548000 4.236900
12.563900 4.649700
12.579800 5.020000
12.595800 5.384900
12.611700 5.348100
12.627700 5.194200
12.643600 5.052900
12.659500 5.416400
12.675500 6.598100
12.691400 6.633500
12.707400 6.739800
12.723300 6.869100
12.739200 7.081000
12.755200 7.502200
12.771100 7.626000
12.787100 7.995100
12.803000 7.963300
12.818900 7.799800
12.834900 7.623100
12.850800 7.894900
12.866800 8.042800
12.882700 7.274200
12.898600 6.833900
12.914600 6.411800
12.930500 6.276800
12.946500 6.456500
12.962400 6.569100
12.978300 6.740900
12.994300 6.966900
13.010200 7.183000
13.026200 7.340900
13.042100 7.749200
13.058000 10.172000
13.074000 10.696900
13.089900 10.153600
13.105900 8.945700
13.121800 7.736400
13.137700 6.735400
13.153700 6.330300
13.169600 5.910200
13.185500 5.437400
13.201500 5.335100
13.217400 5.315000
13.233400 5.846100
13.249300 6.400100
13.265200 6.812700
13.281200 7.110900
13.297100 7.331200
13.313100 7.524200
13.329000 7.745900
13.344900 7.723500
13.360900 7.656400
13.376800 7.588700
13.392800 7.720300
13.408700 7.813000
13.424600 7.823500
13.440600 7.679700
13.456500 6.935200
13.472500 7.082500
13.488400 7.354000
13.504300 7.659500
13.520300 7.985800
13.536200 8.491300
13.552200 8.821800
13.568100 10.707600
13.584000 9.936000
13.600000 9.692900
13.615900 9.249600
13.631900 8.712500
13.647800 8.283300
13.663700 7.792300
13.679700 6.946400
13.695600 6.654100
13.711600 6.232700
13.727500 5.993200
13.743400 5.850400
13.759400 5.818900
13.775300 5.839300
13.791300 6.181100
13.807200 6.529700
13.823100 7.091600
13.839100 8.073800
13.855000 7.560200
13.871000 7.627100
13.886900 7.605300
13.902800 7.727700
13.918800 8.464700
13.934700 7.721300
13.950600 8.056900
13.966600 7.320600
13.982500 6.987600
13.998500 6.839700
14.014400 6.431700
14.030300 6.044800
14.046300 5.842000
14.062200 5.848000
14.078200 5.746500
14.094100 5.657600
14.110000 5.903100
14.126000 6.260400
14.141900 6.579500
14.157900 6.697400
14.173800 7.104300
14.189700 7.375800
14.205700 7.242300
14.221600 7.371200
14.237600 7.488500
14.253500 7.463300
14.269400 7.386500
14.285400 7.216800
14.301300 6.990700
14.317300 6.808500
14.333200 6.499500
14.349100 6.249800
14.365100 6.044500
14.381000 5.876900
14.397000 7.267600
14.412900 5.977800
14.428800 5.803900
14.444800 5.602500
14.460700 6.152100
14.476700 7.156200
14.492600 7.558600
14.508500 7.420900
14.524500 9.004300
14.540400 9.185800
14.556400 9.317900
14.572300 8.880200
14.588200 8.246400
14.604200 8.284700
14.620100 7.771100
14.636100 7.613900
14.652000 7.550900
14.667900 7.811500
14.683900 8.274100
14.699800 9.530100
14.715800 9.741100
14.731700 9.404700
14.747600 8.878700
14.763600 8.277500
14.779500 7.903300
14.795400 8.263000
14.811400 8.305700
14.827300 8.097200
14.843300 7.832400
14.859200 7.573100
14.875100 7.288000
14.891100 6.947000
14.907000 6.821000
14.923000 7.349300
14.938900 7.967500
14.954800 8.441200
14.970800 7.372800
14.986700 6.647800
15.002700 5.982300
15.018600 5.824600
15.034500 6.069800
15.050500 6.437600
15.066400 6.939000
15.082400 6.919000
15.098300 6.048300
15.114200 5.695800
15.130200 5.561400
15.146100 5.439400
15.162100 5.402400
15.178000 6.185600
15.193900 6.870400
15.209900 6.870700
15.225800 7.034400
15.241800 6.934000
15.257700 6.767800
15.273600 6.802900
15.289600 6.781200
15.305500 6.755900
15.321500 7.203800
15.337400 7.067400
15.353300 7.084100
15.369300 7.289500
15.385200 8.948700
15.401200 9.674000
15.417100 8.765600
15.433000 9.035100
15.449000 9.133400
15.464900 9.058700
15.480900 10.793800
15.496800 9.931200
15.512700 7.937700
15.528700 7.839900
15.544600 7.887100
15.560500 8.202400
15.576500 8.577400
15.592400 9.194700
15.608400 8.526400
15.624300 8.240500
15.640200 8.079900
15.656200 7.986900
15.672100 7.812500
15.688100 7.731400
15.704000 7.533600
15.719900 7.460600
15.735900 7.400900
15.751800 7.368400
15.767800 7.648400
15.783700 7.727000
15.799600 7.775200
15.815600 7.750200
15.831500 7.672400
15.847500 7.624400
15.863400 7.669100
15.879300 7.895400
15.895300 8.186200
15.911200 9.483600
15.927200 11.144700
15.943100 9.849600
15.959000 9.216000
15.975000 9.383100
15.990900 9.753000
16.006900 9.893100
16.022800 9.878300
16.038700 9.671000
16.054700 9.429900
16.070600 9.197100
16.086600 8.986900
16.102500 8.837700
16.118400 8.798500
16.134400 8.715400
16.150300 8.584500
16.166300 8.468800
16.182200 8.433900
16.198100 8.397200
16.214100 8.375700
16.230000 8.342500
16.246000 8.288100
16.261900 8.249200
16.277800 9.057700
16.293800 9.404800
16.309700 8.767700
16.325600 8.878400
16.341600 8.993800
16.357500 9.144200
16.373500 9.494500
16.389400 10.110100
16.405300 9.143500
16.421300 8.620000
16.437200 8.752300
16.453200 8.874800
16.469100 10.079300
16.485000 8.850300
16.501000 8.804500
16.516900 8.428100
16.532900 8.397200
16.548800 8.390100
16.564700 8.341300
16.580700 8.312600
16.596600 8.343600
16.612600 8.267500
16.628500 8.258400
16.644400 8.143400
16.660400 8.055600
16.676300 7.973400
16.692300 7.912600
16.708200 8.090300
16.724100 8.632600
16.740100 9.121500
16.756000 8.935100
16.772000 8.625800
16.787900 8.378200
16.803800 8.006800
16.819800 7.894300
16.835700 7.908400
16.851700 8.136700
16.867600 8.129600
16.883500 8.916800
16.899500 8.741000
16.915400 8.613000
16.931400 8.522300
16.947300 8.664000
16.963200 9.517800
16.979200 9.076800
16.995100 7.872200
17.011100 7.986900
17.027000 7.889800
17.042900 7.942700
17.058900 8.043200
17.074800 8.181600
17.090700 8.525900
17.106700 8.326500
17.122600 8.140800
17.138600 8.100100
17.154500 8.126000
17.170400 8.210800
17.186400 8.243000
17.202300 8.348900
17.218300 8.523700
17.234200 8.102800
17.250100 7.858900
17.266100 7.709600
17.282000 7.617000
17.298000 7.510000
17.313900 7.449100
17.329800 7.518700
17.345800 7.615900
17.361700 7.888000
17.377700 8.148700
17.393600 8.533100
17.409500 9.016200
17.425500 9.344000
17.441400 8.939400
17.457400 8.898700
17.473300 8.983900
17.489200 8.939500
17.505200 8.872200
17.521100 8.802700
17.537100 8.892200
17.553000 8.954200
17.568900 8.823000
17.584900 8.874900
17.600800 8.922800
17.616800 8.979400
17.632700 9.178100
17.648600 9.800000
17.664600 9.979700
17.680500 9.200700
17.696500 9.077200
17.712400 8.890200
17.728300 8.876200
17.744300 8.877100
17.760200 10.322200
17.776200 11.167900
17.792100 10.594700
17.808000 10.785300
17.824000 10.782800
17.839900 10.127800
17.855900 9.764900
17.871800 9.469300
17.887700 8.927500
17.903700 8.423300
17.919600 7.386200
17.935500 6.660300
17.951500 6.944000
17.967400 7.340200
17.983400 7.712100
17.999300 8.374000
18.015200 9.071300
18.031200 8.949800
18.047100 8.610200
18.063100 8.004700
18.079000 6.659300
18.094900 6.223600
18.110900 5.631200
18.126800 5.555800
18.142800 5.557900
18.158700 5.556800
18.174600 5.569000
18.190600 5.536100
18.206500 5.607500
18.222500 5.686500
18.238400 5.779800
18.254300 5.794200
18.270300 5.928400
18.286200 6.048300
18.302200 6.214500
18.318100 6.385700
18.334000 6.935900
18.350000 7.008900
18.365900 6.999100
18.381900 6.800700
18.397800 6.782700
18.413700 6.853800
18.429700 7.159600
18.445600 7.883500
18.461600 9.334000
18.477500 9.790400
18.493400 9.772800
18.509400 9.119300
18.525300 8.528900
18.541300 9.190700
18.557200 9.417400
18.573100 9.214200
18.589100 8.436800
18.605000 7.894500
18.621000 7.411500
18.636900 6.860300
18.652800 6.509200
18.668800 6.465800
18.684700 6.734300
18.700600 7.048600
18.716600 7.481900
18.732500 8.134300
18.748500 9.162100
18.764400 13.373600
18.780300 10.498700
18.796300 9.629600
18.812200 9.187600
18.828200 7.992400
18.844100 7.523400
18.860000 7.098600
18.876000 6.704700
18.891900 6.345600
18.907900 6.053400
18.923800 5.843700
18.939700 5.928300
18.955700 5.755200
18.971600 5.770100
18.987600 4.534100
19.003500 3.800300
19.019400 3.278600
19.035400 3.273600
19.051300 2.820300
19.067300 2.817600
19.083200 2.908100
19.099100 3.091000
19.115100 2.979400
19.131000 2.115300
19.147000 1.414200
19.162900 0.955800
19.178800 0.526400
19.194800 0.345600
19.210700 0.206700
19.226700 0.122800
19.242600 0.085700
19.258500 0.058600
19.274500 0.037300
19.290400 0.021800
19.306400 0.011100
19.322300 0.004300
19.338200 0.001100
19.354200 0.000000
19.370100 0.000000
19.386100 0.000000
19.402000 0.000000
19.417900 0.000000
19.433900 0.000000
19.449800 0.000000
19.465700 0.000000
19.481700 0.000000
19.497600 0.000000
19.513600 0.000000
19.529500 0.000000
19.545400 0.000000
19.561400 0.000000
19.577300 0.000000
19.593300 0.000000
19.609200 0.000000
19.625100 0.000000
19.641100 0.000000
19.657000 0.000000
19.673000 0.000000
19.688900 0.000000
19.704800 0.000000
19.720800 0.000000
19.736700 0.000000
19.752700 0.000000
19.768600 0.000000
19.784500 0.000000
19.800500 0.000000
19.816400 0.000000
19.832400 0.000000
19.848300 0.000000
19.864200 0.000000
19.880200 0.000000
19.896100 0.000000
19.912100 0.000000
19.928000 0.000000
19.943900 0.000000
19.959900 0.000000
19.975800 0.000000
19.991800 0.000000
20.007700 0.000000
20.023600 0.000000
20.039600 0.000000
20.055500 0.000000
20.071500 0.000000
20.087400 0.000000
20.103300 0.000000
20.119300 0.000000
20.135200 0.000000
20.151200 0.000000
20.167100 0.000000
20.183000 0.000000
20.199000 0.000000
20.214900 0.000000
20.230800 0.000000
20.246800 0.000000
20.262700 0.000000
20.278700 0.000000
20.294600 0.000000
20.310500 0.000000
20.326500 0.000000
20.342400 0.000000
20.358400 0.000000
20.374300 0.000000
20.390200 0.000000
20.406200 0.000000
20.422100 0.000000
20.438100 0.000000
20.454000 0.000000
20.469900 0.000000
20.485900 0.000000
20.501800 0.000000
20.517800 0.000000
20.533700 0.000000
20.549600 0.000000
20.565600 0.000000
20.581500 0.000000
20.597500 0.000000
20.613400 0.000000
20.629300 0.000000
20.645300 0.000000
20.661200 0.000000
20.677200 0.000000
20.693100 0.000000
20.709000 0.000000
20.725000 0.000000
20.740900 0.000000
20.756900 0.000000
20.772800 0.000000
20.788700 0.000000
20.804700 0.000000
e
