set title 'mp-17279 - Density of States'
set xlabel 'Energy (eV)'
set ylabel 'DOS (states/eV)'
set grid
set xrange [-10:10]
set yrange [0:334.701]
set xzeroaxis lt -1
set terminal png size 800,600
set output 'mp-17279_dos_gnuplot.png'
plot '-' using 1:2 with lines title 'DOS'
-23.263800 0.000000
-23.245300 0.000000
-23.226700 0.000000
-23.208100 0.000000
-23.189600 0.000000
-23.171000 0.000000
-23.152400 0.000000
-23.133900 0.000000
-23.115300 0.000000
-23.096700 0.000000
-23.078200 0.000000
-23.059600 0.000000
-23.041000 0.000000
-23.022500 0.000000
-23.003900 0.000000
-22.985300 0.000000
-22.966800 0.000000
-22.948200 0.000000
-22.929600 0.000000
-22.911100 0.000000
-22.892500 0.000000
-22.873900 0.000000
-22.855400 0.000000
-22.836800 0.000000
-22.818200 0.000000
-22.799700 0.000000
-22.781100 0.000000
-22.762500 0.000000
-22.744000 0.000000
-22.725400 0.000000
-22.706800 0.000000
-22.688300 0.000000
-22.669700 0.000000
-22.651100 0.000000
-22.632600 0.000000
-22.614000 0.000000
-22.595400 0.000000
-22.576900 0.000000
-22.558300 0.000000
-22.539700 0.000000
-22.521200 0.000000
-22.502600 0.000000
-22.484000 0.000000
-22.465500 0.000000
-22.446900 0.000000
-22.428300 0.000000
-22.409800 0.000000
-22.391200 0.000000
-22.372600 0.000000
-22.354100 0.000000
-22.335500 0.000000
-22.316900 0.000000
-22.298400 0.000000
-22.279800 0.000000
-22.261200 0.000000
-22.242700 0.000000
-22.224100 0.000000
-22.205500 0.000000
-22.187000 0.000000
-22.168400 0.000000
-22.149800 0.000000
-22.131300 0.000000
-22.112700 0.000000
-22.094100 0.000000
-22.075600 0.000000
-22.057000 0.000000
-22.038400 0.000000
-22.019900 0.000000
-22.001300 0.000000
-21.982700 0.000000
-21.964200 0.000000
-21.945600 0.000000
-21.927000 0.000000
-21.908500 0.000000
-21.889900 0.000000
-21.871300 0.000000
-21.852800 0.000000
-21.834200 0.000000
-21.815600 0.000000
-21.797100 0.000000
-21.778500 0.000000
-21.759900 0.000000
-21.741400 0.000000
-21.722800 0.000000
-21.704200 0.000000
-21.685700 0.000000
-21.667100 0.000000
-21.648500 0.000000
-21.630000 0.000000
-21.611400 0.000000
-21.592800 0.000000
-21.574300 0.007700
-21.555700 1.111100
-21.537100 4.081900
-21.518600 8.599700
-21.500000 12.332700
-21.481400 15.822900
-21.462900 22.774800
-21.444300 25.784900
-21.425700 15.293100
-21.407200 4.501700
-21.388600 5.866400
-21.370000 7.840200
-21.351500 9.907500
-21.332900 12.068200
-21.314300 29.591000
-21.295800 19.566400
-21.277200 13.434500
-21.258600 7.966700
-21.240100 4.586300
-21.221500 6.109000
-21.202900 9.818200
-21.184400 61.372500
-21.165800 45.979200
-21.147200 48.429800
-21.128700 29.120200
-21.110100 10.283500
-21.091500 6.466100
-21.073000 13.136700
-21.054400 22.245700
-21.035800 51.091800
-21.017300 16.821600
-20.998700 13.394000
-20.980100 8.796100
-20.961600 16.724100
-20.943000 33.434100
-20.924400 31.161700
-20.905900 16.722100
-20.887300 7.885200
-20.868700 5.552400
-20.850200 7.565400
-20.831600 12.601100
-20.813000 21.516500
-20.794500 20.620300
-20.775900 60.501200
-20.757300 25.417000
-20.738700 22.027100
-20.720200 17.579500
-20.701600 14.420700
-20.683000 13.186600
-20.664500 0.000000
-20.645900 8.747800
-20.627300 19.662200
-20.608800 30.396700
-20.590200 71.097000
-20.571600 6.582200
-20.553100 62.457600
-20.534500 35.488200
-20.515900 0.000000
-20.497400 0.000000
-20.478800 13.976400
-20.460200 25.717500
-20.441700 40.343900
-20.423100 20.940500
-20.404500 1.324600
-20.386000 0.000000
-20.367400 16.690700
-20.348800 43.784200
-20.330300 20.217200
-20.311700 20.816100
-20.293100 13.627100
-20.274600 0.000000
-20.256000 0.000000
-20.237400 0.000000
-20.218900 34.626600
-20.200300 28.974800
-20.181700 16.171500
-20.163200 11.270000
-20.144600 9.585300
-20.126000 10.782300
-20.107500 12.684400
-20.088900 14.775200
-20.070300 20.010900
-20.051800 18.451800
-20.033200 15.340600
-20.014600 13.878000
-19.996100 14.146400
-19.977500 16.688900
-19.958900 13.249700
-19.940400 13.815800
-19.921800 18.334600
-19.903200 24.926500
-19.884700 19.026400
-19.866100 0.000000
-19.847500 0.000000
-19.829000 0.000000
-19.810400 0.000000
-19.791800 24.333900
-19.773300 30.545400
-19.754700 19.337400
-19.736100 12.327000
-19.717600 6.909200
-19.699000 2.866200
-19.680400 0.198200
-19.661900 0.000000
-19.643300 0.000000
-19.624700 165.566900
-19.606200 0.000000
-19.587600 209.651400
-19.569000 91.252300
-19.550500 259.690200
-19.531900 232.595200
-19.513300 0.000000
-19.494800 0.000000
-19.476200 0.000000
-19.457600 0.000000
-19.439100 0.000000
-19.420500 0.000000
-19.401900 0.000000
-19.383400 0.000000
-19.364800 0.000000
-19.346200 0.000000
-19.327700 0.000000
-19.309100 0.000000
-19.290500 0.000000
-19.272000 0.000000
-19.253400 0.000000
-19.234800 0.000000
-19.216300 0.000000
-19.197700 0.000000
-19.179100 0.000000
-19.160600 0.000000
-19.142000 0.000000
-19.123400 0.000000
-19.104900 0.000000
-19.086300 0.000000
-19.067700 0.000000
-19.049200 0.000000
-19.030600 0.000000
-19.012000 0.000000
-18.993500 0.000000
-18.974900 0.000000
-18.956300 0.000000
-18.937800 0.000000
-18.919200 0.000000
-18.900600 0.000000
-18.882100 0.000000
-18.863500 0.000000
-18.844900 0.000000
-18.826400 0.000000
-18.807800 0.000000
-18.789200 0.000000
-18.770700 0.000000
-18.752100 0.000000
-18.733500 0.000000
-18.715000 0.000000
-18.696400 0.000000
-18.677800 0.000000
-18.659300 0.000000
-18.640700 0.000000
-18.622100 0.000000
-18.603600 0.000000
-18.585000 0.000000
-18.566400 0.000000
-18.547900 0.000000
-18.529300 0.000000
-18.510700 0.000000
-18.492200 0.000000
-18.473600 0.000000
-18.455000 0.000000
-18.436500 0.000000
-18.417900 0.000000
-18.399300 0.000000
-18.380800 0.000000
-18.362200 0.000000
-18.343600 0.000000
-18.325100 0.000000
-18.306500 0.000000
-18.287900 0.000000
-18.269400 0.000000
-18.250800 0.000000
-18.232200 0.000000
-18.213700 0.000000
-18.195100 0.000000
-18.176500 0.000000
-18.158000 0.000000
-18.139400 0.000000
-18.120800 0.000000
-18.102300 0.000000
-18.083700 0.000000
-18.065100 0.000000
-18.046600 0.000000
-18.028000 0.000000
-18.009400 0.000000
-17.990900 0.000000
-17.972300 0.000000
-17.953700 0.000000
-17.935200 0.000000
-17.916600 0.000000
-17.898000 0.000000
-17.879500 0.000000
-17.860900 0.000000
-17.842300 0.000000
-17.823800 0.000000
-17.805200 0.000000
-17.786600 0.000000
-17.768100 0.000000
-17.749500 0.000000
-17.730900 0.000000
-17.712400 0.000000
-17.693800 0.000000
-17.675200 0.000000
-17.656700 0.000000
-17.638100 0.000000
-17.619500 0.000000
-17.601000 0.000000
-17.582400 0.000000
-17.563800 0.000000
-17.545300 0.000000
-17.526700 0.000000
-17.508100 0.000000
-17.489600 0.000000
-17.471000 0.000000
-17.452400 0.000000
-17.433900 0.000000
-17.415300 0.000000
-17.396700 0.000000
-17.378200 0.000000
-17.359600 0.000000
-17.341000 0.000000
-17.322500 0.000000
-17.303900 0.000000
-17.285300 0.000000
-17.266800 0.000000
-17.248200 0.000000
-17.229600 0.000000
-17.211100 0.000000
-17.192500 0.000000
-17.173900 0.000000
-17.155400 0.000000
-17.136800 0.000000
-17.118200 0.000000
-17.099700 0.000000
-17.081100 0.000000
-17.062500 0.000000
-17.044000 0.000000
-17.025400 0.000000
-17.006800 0.000000
-16.988300 0.000000
-16.969700 0.000000
-16.951100 0.000000
-16.932600 0.000000
-16.914000 0.000000
-16.895400 0.000000
-16.876900 0.000000
-16.858300 0.000000
-16.839700 0.000000
-16.821200 0.000000
-16.802600 0.000000
-16.784000 0.000000
-16.765500 0.000000
-16.746900 0.000000
-16.728300 0.000000
-16.709800 0.000000
-16.691200 0.000000
-16.672600 0.000000
-16.654100 0.000000
-16.635500 0.000000
-16.616900 0.000000
-16.598400 0.000000
-16.579800 0.000000
-16.561200 0.000000
-16.542700 0.000000
-16.524100 0.000000
-16.505500 0.000000
-16.487000 0.000000
-16.468400 0.000000
-16.449800 0.000000
-16.431300 0.000000
-16.412700 0.000000
-16.394100 0.000000
-16.375600 0.000000
-16.357000 0.000000
-16.338400 0.000000
-16.319900 0.000000
-16.301300 0.000000
-16.282700 0.000000
-16.264200 0.000000
-16.245600 0.000000
-16.227000 0.000000
-16.208500 0.000000
-16.189900 0.000000
-16.171300 0.000000
-16.152800 0.000000
-16.134200 0.000000
-16.115600 0.000000
-16.097100 0.000000
-16.078500 0.000000
-16.059900 0.000000
-16.041400 0.000000
-16.022800 0.000000
-16.004200 0.000000
-15.985700 0.000000
-15.967100 0.000000
-15.948500 0.000000
-15.930000 0.000000
-15.911400 0.000000
-15.892800 0.000000
-15.874300 0.000000
-15.855700 0.000000
-15.837100 0.000000
-15.818600 0.000000
-15.800000 0.000000
-15.781400 0.000000
-15.762900 0.000000
-15.744300 0.000000
-15.725700 0.000000
-15.707200 0.000000
-15.688600 0.000000
-15.670000 0.000000
-15.651500 0.000000
-15.632900 0.000000
-15.614300 0.000000
-15.595800 0.000000
-15.577200 0.000000
-15.558600 0.000000
-15.540100 0.000000
-15.521500 0.000000
-15.502900 0.000000
-15.484400 0.000000
-15.465800 0.000000
-15.447200 0.000000
-15.428700 0.000000
-15.410100 0.000000
-15.391500 0.000000
-15.373000 0.000000
-15.354400 0.000000
-15.335800 0.000000
-15.317300 0.000000
-15.298700 0.000000
-15.280100 0.000000
-15.261600 0.000000
-15.243000 0.000000
-15.224400 0.000000
-15.205900 0.000000
-15.187300 0.000000
-15.168700 0.000000
-15.150200 0.000000
-15.131600 0.000000
-15.113000 0.000000
-15.094500 0.000000
-15.075900 0.000000
-15.057300 0.000000
-15.038800 0.000000
-15.020200 0.000000
-15.001600 0.000000
-14.983100 0.000000
-14.964500 0.000000
-14.945900 0.000000
-14.927400 0.000000
-14.908800 0.000000
-14.890200 0.000000
-14.871700 0.000000
-14.853100 0.000000
-14.834500 0.000000
-14.816000 0.000000
-14.797400 0.000000
-14.778800 0.000000
-14.760300 0.000000
-14.741700 0.000000
-14.723100 0.000000
-14.704600 0.000000
-14.686000 0.000000
-14.667400 0.000000
-14.648900 0.000000
-14.630300 0.000000
-14.611700 0.000000
-14.593200 0.000000
-14.574600 0.000000
-14.556000 0.000000
-14.537500 0.000000
-14.518900 0.000000
-14.500300 0.000000
-14.481800 0.000000
-14.463200 0.000000
-14.444600 0.000000
-14.426100 0.000000
-14.407500 0.000000
-14.388900 0.000000
-14.370400 0.000000
-14.351800 0.000000
-14.333200 0.000000
-14.314600 0.000000
-14.296100 0.000000
-14.277500 0.000000
-14.258900 0.000000
-14.240400 0.000000
-14.221800 0.000000
-14.203200 0.000000
-14.184700 0.000000
-14.166100 0.000000
-14.147500 0.000000
-14.129000 0.000000
-14.110400 0.000000
-14.091800 0.000000
-14.073300 0.000000
-14.054700 0.000000
-14.036100 0.000000
-14.017600 0.000000
-13.999000 0.000000
-13.980400 0.000000
-13.961900 0.000000
-13.943300 0.000000
-13.924700 0.000000
-13.906200 0.000000
-13.887600 0.000000
-13.869000 0.000000
-13.850500 0.000000
-13.831900 0.000000
-13.813300 0.000000
-13.794800 0.000000
-13.776200 0.000000
-13.757600 0.000000
-13.739100 0.000000
-13.720500 0.000000
-13.701900 0.000000
-13.683400 0.000000
-13.664800 0.000000
-13.646200 0.000000
-13.627700 0.000000
-13.609100 0.000000
-13.590500 0.000000
-13.572000 0.000000
-13.553400 0.000000
-13.534800 0.000000
-13.516300 0.000000
-13.497700 0.000000
-13.479100 0.000000
-13.460600 0.000000
-13.442000 0.000000
-13.423400 0.000000
-13.404900 0.000000
-13.386300 0.000000
-13.367700 0.000000
-13.349200 0.000000
-13.330600 0.000000
-13.312000 0.000000
-13.293500 0.000000
-13.274900 0.000000
-13.256300 0.000000
-13.237800 0.000000
-13.219200 0.000000
-13.200600 0.000000
-13.182100 0.000000
-13.163500 0.000000
-13.144900 0.000000
-13.126400 0.000000
-13.107800 0.000000
-13.089200 0.000000
-13.070700 0.000000
-13.052100 0.000000
-13.033500 0.000000
-13.015000 0.000000
-12.996400 0.000000
-12.977800 0.000000
-12.959300 0.000000
-12.940700 0.000000
-12.922100 0.000000
-12.903600 0.000000
-12.885000 0.000000
-12.866400 0.000000
-12.847900 0.000000
-12.829300 0.000000
-12.810700 0.000000
-12.792200 0.000000
-12.773600 0.000000
-12.755000 0.000000
-12.736500 0.000000
-12.717900 0.000000
-12.699300 0.000000
-12.680800 0.000000
-12.662200 0.000000
-12.643600 0.000000
-12.625100 0.000000
-12.606500 0.000000
-12.587900 0.000000
-12.569400 0.000000
-12.550800 0.000000
-12.532200 0.000000
-12.513700 0.000000
-12.495100 0.000000
-12.476500 0.000000
-12.458000 0.000000
-12.439400 0.000000
-12.420800 0.000000
-12.402300 0.000000
-12.383700 0.000000
-12.365100 0.000000
-12.346600 0.000000
-12.328000 0.000000
-12.309400 0.000000
-12.290900 0.000000
-12.272300 0.000000
-12.253700 0.000000
-12.235200 0.000000
-12.216600 0.000000
-12.198000 0.000000
-12.179500 0.000000
-12.160900 0.000000
-12.142300 0.000000
-12.123800 0.000000
-12.105200 0.000000
-12.086600 0.000000
-12.068100 0.000000
-12.049500 0.000000
-12.030900 0.000000
-12.012400 0.000000
-11.993800 0.000000
-11.975200 0.000000
-11.956700 0.000000
-11.938100 0.000000
-11.919500 0.000000
-11.901000 0.000000
-11.882400 0.000000
-11.863800 0.000000
-11.845300 0.000000
-11.826700 0.000000
-11.808100 0.000000
-11.789600 0.000000
-11.771000 0.000000
-11.752400 0.000000
-11.733900 0.000000
-11.715300 0.000000
-11.696700 0.000000
-11.678200 0.000000
-11.659600 0.000000
-11.641000 0.000000
-11.622500 0.000000
-11.603900 0.000000
-11.585300 0.000000
-11.566800 0.000000
-11.548200 0.000000
-11.529600 0.000000
-11.511100 0.084200
-11.492500 0.881600
-11.473900 1.967000
-11.455400 3.340300
-11.436800 5.001600
-11.418200 6.950800
-11.399700 9.188000
-11.381100 11.713100
-11.362500 15.608300
-11.344000 43.730000
-11.325400 13.879400
-11.306800 0.000000
-11.288300 0.000000
-11.269700 0.000000
-11.251100 0.000000
-11.232600 0.000000
-11.214000 0.000000
-11.195400 0.000000
-11.176900 0.000000
-11.158300 0.000000
-11.139700 0.000000
-11.121200 28.477300
-11.102600 9.735500
-11.084000 8.952400
-11.065500 8.290600
-11.046900 7.736200
-11.028300 6.968100
-11.009800 8.972400
-10.991200 8.038100
-10.972600 7.696600
-10.954100 7.614400
-10.935500 7.667200
-10.916900 7.855100
-10.898400 8.178100
-10.879800 8.636200
-10.861200 9.229300
-10.842700 9.957500
-10.824100 10.647700
-10.805500 10.819100
-10.787000 9.569700
-10.768400 8.429500
-10.749800 7.177500
-10.731300 5.809700
-10.712700 4.436000
-10.694100 4.516000
-10.675600 5.557700
-10.657000 6.695900
-10.638400 8.082500
-10.619900 10.149500
-10.601300 14.259000
-10.582700 20.709800
-10.564200 11.895300
-10.545600 7.004800
-10.527000 4.044800
-10.508500 1.892500
-10.489900 0.547800
-10.471300 0.011000
-10.452800 0.000000
-10.434200 0.000000
-10.415600 0.000000
-10.397100 0.000000
-10.378500 18.938400
-10.359900 31.042100
-10.341400 30.921000
-10.322800 20.304900
-10.304200 12.864600
-10.285700 0.000000
-10.267100 0.000000
-10.248500 0.489600
-10.230000 4.469700
-10.211400 9.348600
-10.192800 13.471500
-10.174300 13.170300
-10.155700 11.563200
-10.137100 9.545500
-10.118600 7.378600
-10.100000 7.488500
-10.081400 8.531200
-10.062900 9.700400
-10.044300 10.996200
-10.025700 11.488200
-10.007200 12.125900
-9.988600 12.950000
-9.970000 13.960700
-9.951500 14.411100
-9.932900 17.109300
-9.914300 25.710900
-9.895800 4.439100
-9.877200 5.776600
-9.858600 9.635200
-9.840100 15.145900
-9.821500 17.997600
-9.802900 18.190300
-9.784400 15.953500
-9.765800 11.638400
-9.747200 7.687900
-9.728700 4.887500
-9.710100 2.694200
-9.691500 1.138900
-9.673000 1.627700
-9.654400 4.189500
-9.635800 6.301400
-9.617300 6.457200
-9.598700 6.714300
-9.580100 7.072600
-9.561600 7.532000
-9.543000 8.092700
-9.524400 8.754500
-9.505900 9.605800
-9.487300 10.479300
-9.468700 11.009200
-9.450200 24.239000
-9.431600 16.124000
-9.413000 9.187300
-9.394500 5.773400
-9.375900 5.996700
-9.357300 6.164800
-9.338800 6.277800
-9.320200 6.335600
-9.301600 6.338400
-9.283100 6.286000
-9.264500 6.178400
-9.245900 6.015800
-9.227400 5.798000
-9.208800 6.274000
-9.190200 0.000000
-9.171700 0.182600
-9.153100 7.385800
-9.134500 7.306700
-9.116000 8.210000
-9.097400 8.796900
-9.078800 9.227000
-9.060300 9.628000
-9.041700 10.000000
-9.023100 10.361000
-9.004600 13.352200
-8.986000 16.224700
-8.967400 13.614200
-8.948900 11.298900
-8.930300 9.278600
-8.911700 7.553500
-8.893200 6.123500
-8.874600 6.452500
-8.856000 6.818600
-8.837500 10.036100
-8.818900 24.060700
-8.800300 27.815600
-8.781800 3.180700
-8.763200 3.648800
-8.744600 4.149000
-8.726100 6.405100
-8.707500 14.874900
-8.688900 52.545400
-8.670400 0.000000
-8.651800 3.725100
-8.633200 10.485200
-8.614700 10.343800
-8.596100 10.209900
-8.577500 10.083600
-8.559000 9.965000
-8.540400 9.853900
-8.521800 9.750400
-8.503300 9.654500
-8.484700 8.497400
-8.466100 6.536300
-8.447600 4.682200
-8.429000 3.053600
-8.410400 1.725300
-8.391900 1.411100
-8.373300 1.611400
-8.354700 2.117800
-8.336200 2.633100
-8.317600 3.148300
-8.299000 3.663500
-8.280500 4.178700
-8.261900 4.693800
-8.243300 5.208900
-8.224800 5.724100
-8.206200 6.239100
-8.187600 6.754200
-8.169100 7.269300
-8.150500 7.784300
-8.131900 11.699800
-8.113400 10.718200
-8.094800 8.491200
-8.076200 5.138400
-8.057700 3.451900
-8.039100 2.099700
-8.020500 1.081900
-8.002000 0.398500
-7.983400 0.049500
-7.964800 5.314600
-7.946300 12.897100
-7.927700 22.316000
-7.909100 14.223000
-7.890500 14.486400
-7.872000 63.856900
-7.853400 38.304700
-7.834800 20.748300
-7.816300 61.396300
-7.797700 58.044800
-7.779100 11.891300
-7.760600 5.206100
-7.742000 27.670000
-7.723400 39.158100
-7.704900 28.379900
-7.686300 44.126900
-7.667700 27.478000
-7.649200 68.779000
-7.630600 47.034100
-7.612000 77.546400
-7.593500 66.387700
-7.574900 17.698000
-7.556300 2.790000
-7.537800 37.487800
-7.519200 36.977000
-7.500600 0.000000
-7.482100 23.643300
-7.463500 19.397500
-7.444900 15.238800
-7.426400 15.637700
-7.407800 21.186000
-7.389200 27.715300
-7.370700 27.369100
-7.352100 23.393800
-7.333500 23.782900
-7.315000 34.250000
-7.296400 32.684500
-7.277800 32.507700
-7.259300 10.753800
-7.240700 21.933700
-7.222100 38.253300
-7.203600 53.999200
-7.185000 24.849800
-7.166400 51.743600
-7.147900 37.447400
-7.129300 33.238100
-7.110700 111.097100
-7.092200 5.959400
-7.073600 0.000000
-7.055000 0.000000
-7.036500 0.000000
-7.017900 0.000000
-6.999300 0.000000
-6.980800 0.661800
-6.962200 11.365700
-6.943600 45.636800
-6.925100 46.229800
-6.906500 11.966500
-6.887900 15.952700
-6.869400 20.319900
-6.850800 22.941600
-6.832200 22.643100
-6.813700 12.423100
-6.795100 7.683100
-6.776500 3.723000
-6.758000 0.896800
-6.739400 0.000000
-6.720800 0.000000
-6.702300 0.000000
-6.683700 0.000000
-6.665100 0.000000
-6.646600 0.000000
-6.628000 0.000000
-6.609400 0.000000
-6.590900 0.000000
-6.572300 0.000000
-6.553700 0.000000
-6.535200 0.000000
-6.516600 0.000000
-6.498000 0.000000
-6.479500 0.000000
-6.460900 0.000000
-6.442300 0.000000
-6.423800 0.000000
-6.405200 0.000000
-6.386600 0.000000
-6.368100 0.000000
-6.349500 0.000000
-6.330900 0.000000
-6.312400 0.000000
-6.293800 0.000000
-6.275200 0.000000
-6.256700 0.000000
-6.238100 0.000000
-6.219500 0.000000
-6.201000 0.000000
-6.182400 0.000000
-6.163800 0.000000
-6.145300 0.000000
-6.126700 0.000000
-6.108100 0.000000
-6.089600 0.000000
-6.071000 0.000000
-6.052400 0.000000
-6.033900 0.000000
-6.015300 0.000000
-5.996700 0.000000
-5.978200 0.000000
-5.959600 0.000000
-5.941000 0.000000
-5.922500 0.000000
-5.903900 0.000000
-5.885300 0.000000
-5.866800 0.000000
-5.848200 0.000000
-5.829600 0.000000
-5.811100 0.000000
-5.792500 0.000000
-5.773900 0.000000
-5.755400 12.345800
-5.736800 36.353300
-5.718200 59.194900
-5.699700 10.978700
-5.681100 30.850600
-5.662500 74.458700
-5.644000 0.868400
-5.625400 16.142100
-5.606800 26.586200
-5.588300 26.192600
-5.569700 23.428000
-5.551100 10.084000
-5.532600 3.319500
-5.514000 1.663100
-5.495400 17.671700
-5.476900 30.854400
-5.458300 28.489600
-5.439700 18.486700
-5.421200 6.036800
-5.402600 0.000000
-5.384000 6.961400
-5.365500 21.297200
-5.346900 38.194400
-5.328300 39.905500
-5.309800 61.513600
-5.291200 0.000000
-5.272600 0.000000
-5.254100 0.000000
-5.235500 6.714500
-5.216900 27.173800
-5.198400 26.872800
-5.179800 39.963900
-5.161200 28.727100
-5.142700 35.184100
-5.124100 39.319300
-5.105500 40.160100
-5.087000 42.167300
-5.068400 42.081700
-5.049800 18.432300
-5.031300 44.286700
-5.012700 32.022100
-4.994100 28.175800
-4.975600 19.003800
-4.957000 19.198700
-4.938400 35.546400
-4.919900 21.806900
-4.901300 40.090900
-4.882700 41.097300
-4.864200 31.020400
-4.845600 10.980000
-4.827000 5.284300
-4.808500 15.547000
-4.789900 24.963800
-4.771300 44.212200
-4.752800 13.233800
-4.734200 7.665100
-4.715600 6.785700
-4.697100 22.725000
-4.678500 63.426200
-4.659900 48.563400
-4.641400 58.118000
-4.622800 27.088500
-4.604200 19.294800
-4.585700 26.646600
-4.567100 25.391500
-4.548500 24.179300
-4.530000 28.415900
-4.511400 22.118200
-4.492800 16.311000
-4.474300 10.994300
-4.455700 37.038800
-4.437100 38.652100
-4.418600 20.249200
-4.400000 43.606900
-4.381400 26.646500
-4.362900 23.105100
-4.344300 13.522500
-4.325700 291.581800
-4.307200 26.000900
-4.288600 49.929800
-4.270000 35.561600
-4.251500 84.999500
-4.232900 43.219600
-4.214300 24.607800
-4.195800 38.759500
-4.177200 27.353400
-4.158600 43.133400
-4.140100 65.196100
-4.121500 32.956800
-4.102900 97.662600
-4.084400 47.880500
-4.065800 36.468200
-4.047200 74.439300
-4.028700 41.930900
-4.010100 28.927900
-3.991500 92.214200
-3.973000 10.444000
-3.954400 98.422400
-3.935800 34.131400
-3.917300 133.230100
-3.898700 304.273600
-3.880100 98.428900
-3.861600 7.692300
-3.843000 0.000000
-3.824400 36.835100
-3.805900 67.372200
-3.787300 79.020200
-3.768700 105.638400
-3.750200 50.663900
-3.731600 35.362400
-3.713000 60.656200
-3.694500 47.059600
-3.675900 32.245400
-3.657300 65.472100
-3.638800 59.062200
-3.620200 24.546600
-3.601600 112.452100
-3.583100 60.023800
-3.564500 42.201500
-3.545900 30.640300
-3.527400 30.129000
-3.508800 20.065000
-3.490200 183.766100
-3.471700 0.000000
-3.453100 71.491300
-3.434500 81.741200
-3.416000 32.389500
-3.397400 90.461700
-3.378800 49.491600
-3.360300 25.007000
-3.341700 88.092300
-3.323100 2.483200
-3.304600 0.000000
-3.286000 0.000000
-3.267400 0.000000
-3.248900 19.713900
-3.230300 28.369600
-3.211700 25.851500
-3.193200 18.719100
-3.174600 39.284400
-3.156000 61.429800
-3.137500 76.730900
-3.118900 49.859200
-3.100300 26.241900
-3.081800 4.930300
-3.063200 0.000000
-3.044600 0.000000
-3.026100 0.000000
-3.007500 0.000000
-2.988900 2.007800
-2.970400 8.525000
-2.951800 10.823400
-2.933200 11.920400
-2.914700 13.821000
-2.896100 16.525300
-2.877500 20.033400
-2.859000 47.789700
-2.840400 24.102900
-2.821800 41.654500
-2.803300 0.000000
-2.784700 7.607000
-2.766100 119.387200
-2.747600 41.288300
-2.729000 77.940800
-2.710400 0.840700
-2.691900 48.391700
-2.673300 46.596400
-2.654700 25.583700
-2.636200 43.076000
-2.617600 0.000000
-2.599000 141.574400
-2.580500 20.947600
-2.561900 2.377700
-2.543300 80.838600
-2.524800 2.325600
-2.506200 38.116300
-2.487600 86.267000
-2.469100 62.824600
-2.450500 39.117100
-2.431900 0.000000
-2.413400 110.299800
-2.394800 0.000000
-2.376200 42.158000
-2.357700 6.936900
-2.339100 0.000000
-2.320500 0.000000
-2.302000 0.000000
-2.283400 0.000000
-2.264800 0.000000
-2.246300 0.000000
-2.227700 0.000000
-2.209100 0.000000
-2.190600 0.000000
-2.172000 0.000000
-2.153400 0.000000
-2.134900 0.000000
-2.116300 0.000000
-2.097700 0.000000
-2.079200 0.000000
-2.060600 0.000000
-2.042000 0.000000
-2.023500 0.000000
-2.004900 0.000000
-1.986300 0.000000
-1.967800 0.000000
-1.949200 0.000000
-1.930600 0.000000
-1.912100 0.000000
-1.893500 0.000000
-1.874900 0.000000
-1.856400 0.000000
-1.837800 0.000000
-1.819200 0.000000
-1.800700 0.000000
-1.782100 0.000000
-1.763500 0.000000
-1.745000 0.000000
-1.726400 0.000000
-1.707800 0.000000
-1.689300 0.000000
-1.670700 0.000000
-1.652100 0.000000
-1.633600 0.000000
-1.615000 0.000000
-1.596400 0.000000
-1.577900 0.000000
-1.559300 0.000000
-1.540700 0.000000
-1.522200 0.000000
-1.503600 0.000000
-1.485000 0.000000
-1.466400 0.000000
-1.447900 0.000000
-1.429300 0.000000
-1.410700 0.000000
-1.392200 0.000000
-1.373600 0.000000
-1.355000 0.000000
-1.336500 0.000000
-1.317900 0.000000
-1.299300 0.000000
-1.280800 0.000000
-1.262200 0.000000
-1.243600 0.000000
-1.225100 0.000000
-1.206500 0.000000
-1.187900 0.000000
-1.169400 0.000000
-1.150800 0.000000
-1.132200 0.000000
-1.113700 0.000000
-1.095100 0.000000
-1.076500 0.000000
-1.058000 0.000000
-1.039400 0.000000
-1.020800 0.000000
-1.002300 0.000000
-0.983700 0.000000
-0.965100 0.000000
-0.946600 0.000000
-0.928000 0.000000
-0.909400 0.000000
-0.890900 0.000000
-0.872300 0.000000
-0.853700 0.000000
-0.835200 0.000000
-0.816600 0.000000
-0.798000 0.000000
-0.779500 0.000000
-0.760900 0.000000
-0.742300 0.000000
-0.723800 0.000000
-0.705200 0.000000
-0.686600 0.000000
-0.668100 0.000000
-0.649500 0.000000
-0.630900 0.000000
-0.612400 0.000000
-0.593800 0.000000
-0.575200 0.000000
-0.556700 0.000000
-0.538100 0.000000
-0.519500 0.000000
-0.501000 0.000000
-0.482400 0.000000
-0.463800 0.000000
-0.445300 0.000000
-0.426700 0.000000
-0.408100 0.000000
-0.389600 0.000000
-0.371000 0.000000
-0.352400 0.000000
-0.333900 0.000000
-0.315300 0.000000
-0.296700 0.000000
-0.278200 0.000000
-0.259600 0.000000
-0.241000 0.000000
-0.222500 0.000000
-0.203900 0.000000
-0.185300 0.000000
-0.166800 0.000000
-0.148200 0.000000
-0.129600 0.000000
-0.111100 0.000000
-0.092500 0.000000
-0.073900 0.000000
-0.055400 0.000000
-0.036800 0.000000
-0.018200 0.000000
0.000300 0.000000
0.018900 0.000000
0.037500 0.000000
0.056000 0.000000
0.074600 0.000000
0.093200 0.000000
0.111700 0.000000
0.130300 0.000000
0.148900 0.000000
0.167400 0.000000
0.186000 0.000000
0.204600 0.000000
0.223100 0.000000
0.241700 0.000000
0.260300 0.000000
0.278800 0.000000
0.297400 0.000000
0.316000 0.000000
0.334500 0.000000
0.353100 0.000000
0.371700 0.000000
0.390200 0.000000
0.408800 0.000000
0.427400 0.000000
0.445900 0.000000
0.464500 0.000000
0.483100 0.000000
0.501600 0.000000
0.520200 0.000000
0.538800 0.000000
0.557300 0.000000
0.575900 0.000000
0.594500 0.000000
0.613000 0.000000
0.631600 0.000000
0.650200 0.000000
0.668700 0.000000
0.687300 0.000000
0.705900 0.000000
0.724400 0.000000
0.743000 0.000000
0.761600 0.000000
0.780100 0.000000
0.798700 0.000000
0.817300 0.000000
0.835800 0.000000
0.854400 0.000000
0.873000 0.000000
0.891500 0.000000
0.910100 0.000000
0.928700 0.000000
0.947200 0.000000
0.965800 0.000000
0.984400 0.000000
1.002900 0.000000
1.021500 0.000000
1.040100 0.000000
1.058600 0.000000
1.077200 0.000000
1.095800 0.000000
1.114300 0.000000
1.132900 0.000000
1.151500 0.000000
1.170000 0.000000
1.188600 0.000000
1.207200 0.000000
1.225700 0.000000
1.244300 0.000000
1.262900 0.000000
1.281400 0.000000
1.300000 0.000000
1.318600 0.000000
1.337100 0.000000
1.355700 0.000000
1.374300 0.000000
1.392800 0.000000
1.411400 0.000000
1.430000 0.000000
1.448500 0.000000
1.467100 0.000000
1.485700 0.000000
1.504200 0.000000
1.522800 0.000000
1.541400 0.000000
1.559900 0.000000
1.578500 0.000000
1.597100 0.000000
1.615600 0.000000
1.634200 0.000000
1.652800 0.000000
1.671300 0.000000
1.689900 0.000000
1.708500 0.000000
1.727000 0.000000
1.745600 0.000000
1.764200 0.000000
1.782700 0.000000
1.801300 0.000000
1.819900 0.000000
1.838400 0.000000
1.857000 0.000000
1.875600 0.000000
1.894100 0.000000
1.912700 0.000000
1.931300 0.000000
1.949800 0.000000
1.968400 0.000000
1.987000 0.000000
2.005500 0.000000
2.024100 0.000000
2.042700 0.000000
2.061200 0.000000
2.079800 0.000000
2.098400 0.000000
2.116900 0.000000
2.135500 0.000000
2.154100 0.000000
2.172600 0.000000
2.191200 0.000000
2.209800 0.000000
2.228300 0.000000
2.246900 0.000000
2.265500 0.000000
2.284000 0.000000
2.302600 0.000000
2.321200 0.000000
2.339700 0.000000
2.358300 0.000000
2.376900 0.000000
2.395400 0.000000
2.414000 0.000000
2.432600 0.000000
2.451100 0.000000
2.469700 0.000000
2.488300 0.000000
2.506800 0.000000
2.525400 0.000000
2.544000 0.000000
2.562500 0.000000
2.581100 0.000000
2.599700 0.000000
2.618200 0.000000
2.636800 0.000000
2.655400 0.000000
2.673900 0.000000
2.692500 0.000000
2.711100 0.000000
2.729600 0.000000
2.748200 0.000000
2.766800 0.000000
2.785300 0.000000
2.803900 0.000000
2.822500 0.000000
2.841000 0.000000
2.859600 0.000000
2.878200 0.000000
2.896700 0.000000
2.915300 0.000000
2.933900 0.000000
2.952400 0.000000
2.971000 0.000000
2.989600 0.000000
3.008100 0.000000
3.026700 0.000000
3.045300 0.000000
3.063800 0.000000
3.082400 0.000000
3.101000 0.000000
3.119500 0.000000
3.138100 0.000000
3.156700 0.000000
3.175200 0.000000
3.193800 0.000000
3.212400 0.000000
3.230900 0.000000
3.249500 0.000000
3.268100 0.000000
3.286600 0.000000
3.305200 0.000000
3.323800 0.000000
3.342300 0.000000
3.360900 0.000000
3.379500 0.000000
3.398000 0.007100
3.416600 0.027600
3.435200 0.061500
3.453700 0.108800
3.472300 0.169400
3.490900 0.243400
3.509400 0.330700
3.528000 0.431500
3.546600 0.545600
3.565100 0.673000
3.583700 0.813900
3.602300 0.968100
3.620800 1.135700
3.639400 1.316600
3.658000 1.511000
3.676500 1.712000
3.695100 1.903100
3.713700 2.083900
3.732200 2.254600
3.750800 2.415100
3.769400 2.565400
3.787900 2.705500
3.806500 2.835300
3.825100 2.955100
3.843600 3.162900
3.862200 3.489100
3.880800 3.787600
3.899300 4.058600
3.917900 4.302000
3.936500 4.517800
3.955000 4.706000
3.973600 4.864700
3.992200 4.978200
4.010700 5.044100
4.029300 5.095900
4.047900 5.149800
4.066400 5.206000
4.085000 5.960900
4.103600 5.207800
4.122100 4.570200
4.140700 3.876400
4.159300 3.176700
4.177800 2.541900
4.196400 1.972000
4.215000 1.535100
4.233500 1.633500
4.252100 1.732100
4.270700 1.830900
4.289200 1.929800
4.307800 2.028800
4.326400 2.128000
4.344900 2.227400
4.363500 2.326900
4.382100 2.426600
4.400600 2.526500
4.419200 2.626500
4.437800 2.726600
4.456300 2.827000
4.474900 2.927400
4.493500 3.028100
4.512000 13.093700
4.530600 4.663100
4.549200 4.452500
4.567700 4.243300
4.586300 4.043300
4.604900 3.852700
4.623400 3.671500
4.642000 3.499700
4.660600 3.337200
4.679100 3.184100
4.697700 3.040400
4.716300 2.906100
4.734800 2.781100
4.753400 2.665500
4.772000 2.559300
4.790500 2.462500
4.809100 2.375000
4.827700 2.296900
4.846200 2.228200
4.864800 2.168900
4.883400 2.127800
4.901900 2.242100
4.920500 2.402600
4.939100 3.082700
4.957700 4.026700
4.976200 5.195200
4.994800 6.585900
5.013400 8.199800
5.031900 9.955800
5.050500 9.272900
5.069100 9.585700
5.087600 11.456400
5.106200 16.594500
5.124800 23.007800
5.143300 26.414300
5.161900 22.112700
5.180500 16.035800
5.199000 10.748800
5.217600 7.392200
5.236200 4.635100
5.254700 2.516000
5.273300 1.039600
5.291900 0.341200
5.310400 0.553700
5.329000 0.817500
5.347600 1.570500
5.366100 2.359400
5.384700 3.135300
5.403300 3.898300
5.421800 4.648300
5.440400 5.385300
5.459000 6.109500
5.477500 6.820600
5.496100 7.518800
5.514700 12.305600
5.533200 4.296000
5.551800 4.096500
5.570400 3.898500
5.588900 26.436500
5.607500 15.461600
5.626100 9.536800
5.644600 9.060300
5.663200 8.621000
5.681800 8.219000
5.700300 7.854200
5.718900 7.468400
5.737500 6.983900
5.756000 8.839400
5.774600 14.831600
5.793200 21.914700
5.811700 10.979700
5.830300 9.478000
5.848900 8.312600
5.867400 7.464800
5.886000 6.738400
5.904600 6.081000
5.923100 6.952100
5.941700 9.238900
5.960300 12.508600
5.978800 16.867000
5.997400 25.852700
6.016000 21.603900
6.034500 15.750800
6.053100 15.587400
6.071700 15.580900
6.090200 16.276500
6.108800 19.920800
6.127400 19.296700
6.145900 18.240000
6.164500 17.454900
6.183100 17.603600
6.201600 20.082600
6.220200 17.158600
6.238800 18.906600
6.257300 15.457100
6.275900 14.236600
6.294500 18.717400
6.313000 24.304900
6.331600 27.270600
6.350200 28.844100
6.368700 31.208700
6.387300 54.299100
6.405900 22.009200
6.424400 18.222100
6.443000 16.976500
6.461600 16.588700
6.480100 16.393700
6.498700 24.330100
6.517300 26.064800
6.535800 26.507400
6.554400 25.549300
6.573000 22.875700
6.591500 19.081100
6.610100 14.598900
6.628700 9.530300
6.647200 151.218900
6.665800 34.728000
6.684400 22.720600
6.702900 15.026900
6.721500 12.296000
6.740100 19.538900
6.758600 44.280300
6.777200 46.099000
6.795800 34.996400
6.814300 62.103900
6.832900 14.317700
6.851500 38.637400
6.870000 34.597100
6.888600 24.014200
6.907200 0.116100
6.925700 47.204300
6.944300 34.658000
6.962900 16.529600
6.981400 29.460000
7.000000 25.099800
7.018600 21.981700
7.037100 18.262500
7.055700 56.181200
7.074300 61.419400
7.092800 45.645400
7.111400 24.309100
7.130000 39.119800
7.148500 25.875800
7.167100 22.216100
7.185700 29.765700
7.204200 38.770800
7.222800 42.693000
7.241400 40.699200
7.259900 41.045200
7.278500 43.813200
7.297100 34.402100
7.315600 33.601700
7.334200 43.233900
7.352800 39.615000
7.371300 18.024000
7.389900 23.960000
7.408500 40.572700
7.427000 53.506000
7.445600 16.771000
7.464200 45.636300
7.482700 38.010200
7.501300 18.425500
7.519900 31.563200
7.538400 42.779600
7.557000 48.257100
7.575600 23.168500
7.594100 27.568700
7.612700 18.946100
7.631300 15.990900
7.649800 21.860900
7.668400 59.374400
7.687000 56.427100
7.705500 21.869000
7.724100 11.717400
7.742700 28.407600
7.761200 36.127500
7.779800 33.873100
7.798400 18.924900
7.816900 21.430900
7.835500 34.324000
7.854100 44.642600
7.872600 17.089100
7.891200 11.634200
7.909800 33.259800
7.928300 50.869400
7.946900 71.854300
7.965500 56.977900
7.984000 12.014100
8.002600 16.011500
8.021200 17.937300
8.039700 43.877700
8.058300 21.238400
8.076900 14.048000
8.095400 26.566500
8.114000 39.829600
8.132600 45.296900
8.151100 23.527000
8.169700 26.606200
8.188300 29.011900
8.206800 35.337700
8.225400 18.679400
8.244000 21.080500
8.262500 32.300500
8.281100 38.342100
8.299700 14.794800
8.318200 16.587000
8.336800 20.664800
8.355400 26.138300
8.373900 28.354300
8.392500 33.001300
8.411100 63.005000
8.429600 59.342200
8.448200 25.085300
8.466800 27.033200
8.485300 68.871100
8.503900 20.025100
8.522500 33.921400
8.541000 33.384300
8.559600 25.978600
8.578200 23.788000
8.596700 24.861000
8.615300 23.844000
8.633900 30.704600
8.652400 42.580800
8.671000 13.321200
8.689600 14.625000
8.708100 18.977600
8.726700 23.623600
8.745300 27.772900
8.763800 41.811600
8.782400 44.124200
8.801000 5.452000
8.819500 29.794500
8.838100 28.381800
8.856700 24.498800
8.875200 17.758900
8.893800 21.445600
8.912400 29.830100
8.930900 39.210100
8.949500 40.806000
8.968100 35.705000
8.986600 54.684300
9.005200 46.837800
9.023800 34.080600
9.042300 30.803400
9.060900 27.785600
9.079500 26.925900
9.098000 29.993300
9.116600 38.091700
9.135200 39.822600
9.153700 19.404000
9.172300 17.410900
9.190900 20.311700
9.209400 28.789100
9.228000 39.270900
9.246600 31.594300
9.265100 26.702200
9.283700 25.646600
9.302300 32.800000
9.320800 43.990300
9.339400 29.830200
9.358000 21.092500
9.376500 23.157400
9.395100 35.096300
9.413700 57.815700
9.432200 40.873300
9.450800 38.838300
9.469400 42.647400
9.487900 46.633400
9.506500 26.103300
9.525100 29.332300
9.543600 30.581800
9.562200 28.759900
9.580800 28.452900
9.599300 29.699200
9.617900 29.123900
9.636500 22.945200
9.655000 14.436800
9.673600 14.365900
9.692200 14.930700
9.710700 16.640900
9.729300 19.496500
9.747900 24.322500
9.766400 19.156000
9.785000 27.962600
9.803600 44.435200
9.822100 48.487300
9.840700 59.903000
9.859300 26.819700
9.877800 22.819100
9.896400 17.497600
9.915000 29.468600
9.933500 32.192500
9.952100 34.643400
9.970700 31.987600
9.989200 43.024300
10.007800 31.390400
10.026400 29.615200
10.044900 28.607800
10.063500 26.514800
10.082100 20.144500
10.100600 19.194000
10.119200 27.129300
10.137800 30.308200
10.156300 39.830400
10.174900 44.115600
10.193500 32.197600
10.212000 34.458300
10.230600 29.531000
10.249200 27.569900
10.267700 26.440600
10.286300 30.275500
10.304900 28.376100
10.323400 30.718200
10.342000 33.137900
10.360600 34.370000
10.379100 32.565200
10.397700 28.418400
10.416300 23.358100
10.434800 22.580600
10.453400 29.695500
10.472000 34.697400
10.490500 25.633500
10.509100 19.707000
10.527700 20.054600
10.546200 19.059500
10.564800 15.433700
10.583400 16.097000
10.601900 17.283000
10.620500 21.458200
10.639100 31.869700
10.657600 40.991000
10.676200 33.156300
10.694800 28.433100
10.713300 31.568600
10.731900 33.851500
10.750500 27.482000
10.769000 19.388000
10.787600 22.612300
10.806200 17.475900
10.824700 14.494000
10.843300 16.940000
10.861900 28.576800
10.880400 52.339300
10.899000 59.085100
10.917600 27.653000
10.936100 21.604900
10.954700 24.455700
10.973300 27.018200
10.991800 26.003000
11.010400 25.025000
11.029000 19.902000
11.047500 20.339900
11.066100 23.295700
11.084700 21.095600
11.103200 32.268300
11.121800 35.048500
11.140400 0.000000
11.158900 33.948400
11.177500 76.428100
11.196100 19.588600
11.214600 13.182000
11.233200 23.370600
11.251800 45.261900
11.270300 10.863100
11.288900 19.998600
11.307500 44.455600
11.326000 33.918400
11.344600 5.001400
11.363200 7.335700
11.381800 10.520300
11.400300 19.556300
11.418900 35.884200
11.437500 75.867500
11.456000 43.083400
11.474600 0.000000
11.493200 0.000000
11.511700 6.552000
11.530300 17.921300
11.548900 29.565900
11.567400 37.265500
11.586000 33.539900
11.604600 37.489500
11.623100 24.606600
11.641700 30.779900
11.660300 29.548100
11.678800 21.549800
11.697400 23.297500
11.716000 30.142300
11.734500 38.989200
11.753100 41.851200
11.771700 23.349500
11.790200 19.505900
11.808800 22.493900
11.827400 22.066500
11.845900 27.618500
11.864500 23.642300
11.883100 21.241300
11.901600 24.662100
11.920200 18.304400
11.938800 10.802000
11.957300 7.549300
11.975900 7.793200
11.994500 12.811100
12.013000 48.004900
12.031600 32.320900
12.050200 10.216700
12.068700 0.000000
12.087300 3.712500
12.105900 15.597700
12.124400 25.848600
12.143000 33.201600
12.161600 25.793800
12.180100 0.858400
12.198700 0.000000
12.217300 0.000000
12.235800 0.000000
12.254400 0.000000
12.273000 0.000000
12.291500 0.000000
12.310100 0.000000
12.328700 0.000000
12.347200 0.000000
12.365800 0.000000
12.384400 0.000000
12.402900 0.000000
12.421500 0.000000
12.440100 0.000000
12.458600 0.000000
12.477200 0.000000
12.495800 0.000000
12.514300 0.000000
12.532900 0.000000
12.551500 0.000000
12.570000 0.000000
12.588600 0.000000
12.607200 0.000000
12.625700 0.000000
12.644300 0.000000
12.662900 0.000000
12.681400 0.000000
12.700000 0.000000
12.718600 0.000000
12.737100 0.000000
12.755700 0.000000
12.774300 0.000000
12.792800 0.000000
12.811400 0.000000
12.830000 0.000000
12.848500 0.000000
12.867100 0.000000
12.885700 0.000000
12.904200 0.000000
12.922800 0.000000
12.941400 0.000000
12.959900 0.000000
12.978500 0.000000
12.997100 0.000000
13.015600 0.000000
13.034200 0.000000
13.052800 0.000000
13.071300 0.000000
13.089900 0.000000
13.108500 0.000000
13.127000 0.000000
13.145600 0.000000
13.164200 0.000000
13.182700 0.000000
13.201300 0.000000
13.219900 0.000000
13.238400 0.000000
13.257000 0.000000
13.275600 0.000000
13.294100 0.000000
13.312700 0.000000
13.331300 0.000000
13.349800 0.000000
13.368400 0.000000
13.387000 0.000000
13.405500 0.000000
13.424100 0.000000
13.442700 0.000000
13.461200 0.000000
13.479800 0.000000
13.498400 0.000000
13.516900 0.000000
13.535500 0.000000
13.554100 0.000000
13.572600 0.000000
13.591200 0.000000
13.609800 0.000000
13.628300 0.000000
13.646900 0.000000
13.665500 0.000000
13.684000 0.000000
13.702600 0.000000
13.721200 0.000000
13.739700 0.000000
13.758300 0.000000
13.776900 0.000000
13.795400 0.000000
13.814000 0.000000
13.832600 0.000000
13.851100 0.000000
13.869700 0.000000
e
