set title 'mp-1219175 - Density of States'
set xlabel 'Energy (eV)'
set ylabel 'DOS (states/eV)'
set grid
set xrange [-10:10]
set yrange [0:5.251]
set xzeroaxis lt -1
set terminal png size 800,600
set output 'mp-1219175_dos_gnuplot.png'
plot '-' using 1:2 with lines title 'DOS'
-39.968400 0.000000
-39.928300 0.000000
-39.888200 0.000000
-39.848100 0.000000
-39.808100 0.000000
-39.768000 0.000000
-39.727900 0.000000
-39.687800 0.000000
-39.647700 0.000000
-39.607700 0.000000
-39.567600 0.000000
-39.527500 0.000000
-39.487400 0.000000
-39.447300 0.000000
-39.407300 0.000000
-39.367200 0.000000
-39.327100 0.000000
-39.287000 0.000000
-39.246900 0.000000
-39.206800 0.000000
-39.166800 0.000000
-39.126700 0.000000
-39.086600 0.000000
-39.046500 0.000000
-39.006400 0.000000
-38.966400 0.000000
-38.926300 0.000000
-38.886200 0.000000
-38.846100 0.000000
-38.806000 0.000000
-38.765900 0.000000
-38.725900 0.000000
-38.685800 0.000000
-38.645700 0.000000
-38.605600 0.000000
-38.565500 0.000000
-38.525500 0.000000
-38.485400 0.000000
-38.445300 0.000000
-38.405200 0.000000
-38.365100 0.000000
-38.325100 0.000000
-38.285000 0.000000
-38.244900 0.000000
-38.204800 0.000000
-38.164700 0.000000
-38.124600 0.000000
-38.084600 0.000000
-38.044500 0.000000
-38.004400 0.000000
-37.964300 0.000000
-37.924200 0.000000
-37.884200 0.000000
-37.844100 0.000000
-37.804000 0.000000
-37.763900 0.000000
-37.723800 0.000000
-37.683700 0.000000
-37.643700 0.000000
-37.603600 0.000000
-37.563500 0.000000
-37.523400 0.000000
-37.483300 0.000000
-37.443300 0.000000
-37.403200 0.000000
-37.363100 0.000000
-37.323000 0.000000
-37.282900 0.000000
-37.242900 0.000000
-37.202800 0.000000
-37.162700 0.000000
-37.122600 0.000000
-37.082500 0.000000
-37.042400 0.000000
-37.002400 0.000000
-36.962300 0.000000
-36.922200 0.000000
-36.882100 0.000000
-36.842000 0.000000
-36.802000 0.000000
-36.761900 0.000000
-36.721800 0.000000
-36.681700 0.000000
-36.641600 0.000000
-36.601500 0.000000
-36.561500 0.000000
-36.521400 0.000000
-36.481300 0.000000
-36.441200 0.000000
-36.401100 0.000000
-36.361100 0.000000
-36.321000 3.177600
-36.280900 17.000000
-36.240800 20.539200
-36.200700 0.000000
-36.160700 0.000000
-36.120600 0.000000
-36.080500 0.000000
-36.040400 0.000000
-36.000300 0.000000
-35.960200 0.000000
-35.920200 0.000000
-35.880100 0.000000
-35.840000 8.445300
-35.799900 33.496500
-35.759800 0.000000
-35.719800 0.000000
-35.679700 0.000000
-35.639600 0.000000
-35.599500 0.000000
-35.559400 0.000000
-35.519300 0.000000
-35.479300 0.000000
-35.439200 0.000000
-35.399100 0.000000
-35.359000 0.000000
-35.318900 0.000000
-35.278900 0.000000
-35.238800 0.000000
-35.198700 0.000000
-35.158600 0.000000
-35.118500 0.000000
-35.078500 0.000000
-35.038400 0.000000
-34.998300 0.000000
-34.958200 0.000000
-34.918100 0.000000
-34.878000 0.000000
-34.838000 0.000000
-34.797900 0.000000
-34.757800 0.000000
-34.717700 0.000000
-34.677600 0.000000
-34.637600 0.000000
-34.597500 0.000000
-34.557400 0.000000
-34.517300 0.000000
-34.477200 0.000000
-34.437100 0.000000
-34.397100 0.000000
-34.357000 0.000000
-34.316900 0.000000
-34.276800 0.000000
-34.236700 0.000000
-34.196700 0.000000
-34.156600 0.000000
-34.116500 0.000000
-34.076400 0.000000
-34.036300 0.000000
-33.996300 0.000000
-33.956200 0.000000
-33.916100 0.000000
-33.876000 0.000000
-33.835900 0.000000
-33.795800 0.000000
-33.755800 0.000000
-33.715700 0.000000
-33.675600 0.000000
-33.635500 0.000000
-33.595400 0.000000
-33.555400 0.000000
-33.515300 0.000000
-33.475200 0.000000
-33.435100 0.000000
-33.395000 0.000000
-33.354900 0.000000
-33.314900 0.000000
-33.274800 0.000000
-33.234700 0.000000
-33.194600 0.000000
-33.154500 0.000000
-33.114500 0.000000
-33.074400 0.000000
-33.034300 0.000000
-32.994200 0.000000
-32.954100 0.000000
-32.914100 0.000000
-32.874000 0.000000
-32.833900 0.000000
-32.793800 0.000000
-32.753700 0.000000
-32.713600 0.000000
-32.673600 0.000000
-32.633500 0.000000
-32.593400 0.000000
-32.553300 0.000000
-32.513200 0.000000
-32.473200 0.000000
-32.433100 0.000000
-32.393000 0.000000
-32.352900 0.000000
-32.312800 0.000000
-32.272700 0.000000
-32.232700 0.000000
-32.192600 0.000000
-32.152500 0.000000
-32.112400 0.000000
-32.072300 0.000000
-32.032300 0.000000
-31.992200 0.000000
-31.952100 0.000000
-31.912000 0.000000
-31.871900 0.000000
-31.831900 0.000000
-31.791800 0.000000
-31.751700 0.000000
-31.711600 0.000000
-31.671500 0.000000
-31.631400 0.000000
-31.591400 0.000000
-31.551300 0.000000
-31.511200 0.000000
-31.471100 0.000000
-31.431000 0.000000
-31.391000 0.000000
-31.350900 0.000000
-31.310800 0.000000
-31.270700 0.000000
-31.230600 0.000000
-31.190500 0.000000
-31.150500 0.000000
-31.110400 0.000000
-31.070300 0.000000
-31.030200 0.000000
-30.990100 0.000000
-30.950100 0.000000
-30.910000 0.000000
-30.869900 0.000000
-30.829800 0.000000
-30.789700 0.000000
-30.749700 0.000000
-30.709600 0.000000
-30.669500 0.000000
-30.629400 0.000000
-30.589300 0.000000
-30.549200 0.000000
-30.509200 0.000000
-30.469100 0.000000
-30.429000 0.000000
-30.388900 0.000000
-30.348800 0.000000
-30.308800 0.000000
-30.268700 0.000000
-30.228600 0.000000
-30.188500 0.000000
-30.148400 0.000000
-30.108300 0.000000
-30.068300 0.000000
-30.028200 0.000000
-29.988100 0.000000
-29.948000 0.000000
-29.907900 0.000000
-29.867900 0.000000
-29.827800 0.000000
-29.787700 0.000000
-29.747600 0.000000
-29.707500 0.000000
-29.667500 0.000000
-29.627400 0.000000
-29.587300 0.000000
-29.547200 0.000000
-29.507100 0.000000
-29.467000 0.000000
-29.427000 0.000000
-29.386900 0.000000
-29.346800 0.000000
-29.306700 0.000000
-29.266600 0.000000
-29.226600 0.000000
-29.186500 0.000000
-29.146400 0.000000
-29.106300 0.000000
-29.066200 0.000000
-29.026100 0.000000
-28.986100 0.000000
-28.946000 0.000000
-28.905900 0.000000
-28.865800 0.000000
-28.825700 0.000000
-28.785700 0.000000
-28.745600 0.000000
-28.705500 0.000000
-28.665400 0.000000
-28.625300 0.000000
-28.585300 0.000000
-28.545200 0.000000
-28.505100 0.000000
-28.465000 0.000000
-28.424900 0.000000
-28.384800 0.000000
-28.344800 0.000000
-28.304700 0.000000
-28.264600 0.000000
-28.224500 0.000000
-28.184400 0.000000
-28.144400 0.000000
-28.104300 0.000000
-28.064200 0.000000
-28.024100 0.000000
-27.984000 0.000000
-27.943900 0.000000
-27.903900 0.000000
-27.863800 0.000000
-27.823700 0.000000
-27.783600 0.000000
-27.743500 0.000000
-27.703500 0.000000
-27.663400 0.000000
-27.623300 0.000000
-27.583200 0.000000
-27.543100 0.000000
-27.503100 0.000000
-27.463000 0.000000
-27.422900 0.000000
-27.382800 0.000000
-27.342700 0.000000
-27.302600 0.000000
-27.262600 0.000000
-27.222500 0.000000
-27.182400 0.000000
-27.142300 0.000000
-27.102200 0.000000
-27.062200 0.000000
-27.022100 0.000000
-26.982000 0.000000
-26.941900 0.000000
-26.901800 0.000000
-26.861700 0.000000
-26.821700 0.000000
-26.781600 0.000000
-26.741500 0.000000
-26.701400 0.000000
-26.661300 0.000000
-26.621300 0.000000
-26.581200 0.000000
-26.541100 0.000000
-26.501000 0.000000
-26.460900 0.000000
-26.420900 0.000000
-26.380800 0.000000
-26.340700 0.000000
-26.300600 0.000000
-26.260500 0.000000
-26.220400 0.000000
-26.180400 0.000000
-26.140300 0.000000
-26.100200 0.000000
-26.060100 0.000000
-26.020000 0.000000
-25.980000 0.000000
-25.939900 0.000000
-25.899800 0.000000
-25.859700 0.000000
-25.819600 0.000000
-25.779500 0.000000
-25.739500 0.000000
-25.699400 0.000000
-25.659300 0.000000
-25.619200 0.000000
-25.579100 0.000000
-25.539100 0.000000
-25.499000 0.000000
-25.458900 0.000000
-25.418800 0.000000
-25.378700 0.000000
-25.338700 0.000000
-25.298600 0.000000
-25.258500 0.000000
-25.218400 0.000000
-25.178300 0.000000
-25.138200 0.000000
-25.098200 0.000000
-25.058100 0.000000
-25.018000 0.000000
-24.977900 0.000000
-24.937800 0.000000
-24.897800 0.000000
-24.857700 0.000000
-24.817600 0.000000
-24.777500 0.000000
-24.737400 0.000000
-24.697300 0.000000
-24.657300 0.000000
-24.617200 0.000000
-24.577100 0.000000
-24.537000 0.000000
-24.496900 0.000000
-24.456900 0.000000
-24.416800 0.000000
-24.376700 0.000000
-24.336600 0.000000
-24.296500 0.000000
-24.256500 0.000000
-24.216400 0.000000
-24.176300 0.000000
-24.136200 0.000000
-24.096100 0.000000
-24.056000 0.000000
-24.016000 0.000000
-23.975900 0.000000
-23.935800 0.000000
-23.895700 0.000000
-23.855600 0.000000
-23.815600 0.000000
-23.775500 0.000000
-23.735400 0.000000
-23.695300 0.000000
-23.655200 0.000000
-23.615100 0.000000
-23.575100 0.000000
-23.535000 0.000000
-23.494900 0.000000
-23.454800 0.000000
-23.414700 0.000000
-23.374700 0.000000
-23.334600 0.000000
-23.294500 0.000000
-23.254400 0.000000
-23.214300 0.000000
-23.174300 0.000000
-23.134200 0.000000
-23.094100 0.000000
-23.054000 0.000000
-23.013900 0.000000
-22.973800 0.000000
-22.933800 0.000000
-22.893700 0.000000
-22.853600 0.000000
-22.813500 0.000000
-22.773400 0.000000
-22.733400 0.000000
-22.693300 0.000000
-22.653200 0.000000
-22.613100 0.000000
-22.573000 0.000000
-22.532900 0.000000
-22.492900 0.000000
-22.452800 0.000000
-22.412700 0.000000
-22.372600 0.000000
-22.332500 0.000000
-22.292500 0.000000
-22.252400 0.000000
-22.212300 0.000000
-22.172200 0.000000
-22.132100 0.000000
-22.092100 0.000000
-22.052000 0.000000
-22.011900 0.000000
-21.971800 0.000000
-21.931700 0.000000
-21.891600 0.000000
-21.851600 0.000000
-21.811500 0.000000
-21.771400 0.000000
-21.731300 0.000000
-21.691200 0.000000
-21.651200 0.000000
-21.611100 0.000000
-21.571000 0.000000
-21.530900 0.000000
-21.490800 0.000000
-21.450700 0.000000
-21.410700 0.000000
-21.370600 0.000000
-21.330500 0.000000
-21.290400 0.000000
-21.250300 0.000000
-21.210300 0.000000
-21.170200 0.000000
-21.130100 0.000000
-21.090000 0.000000
-21.049900 0.000000
-21.009900 0.000000
-20.969800 0.000000
-20.929700 0.000000
-20.889600 0.000000
-20.849500 0.000000
-20.809400 0.000000
-20.769400 0.000000
-20.729300 0.000000
-20.689200 0.000000
-20.649100 0.000000
-20.609000 0.000000
-20.569000 0.000000
-20.528900 0.000000
-20.488800 0.000000
-20.448700 0.000000
-20.408600 0.000000
-20.368500 0.000000
-20.328500 0.000000
-20.288400 0.000000
-20.248300 0.000000
-20.208200 0.000000
-20.168100 0.000000
-20.128100 0.000000
-20.088000 0.000000
-20.047900 0.000000
-20.007800 0.000000
-19.967700 0.000000
-19.927700 0.000000
-19.887600 0.000000
-19.847500 0.000000
-19.807400 0.000000
-19.767300 0.000000
-19.727200 0.000000
-19.687200 0.000000
-19.647100 0.000000
-19.607000 0.000000
-19.566900 0.000000
-19.526800 0.000000
-19.486800 0.000000
-19.446700 0.000000
-19.406600 0.000000
-19.366500 0.000000
-19.326400 0.000000
-19.286300 0.000000
-19.246300 0.000000
-19.206200 0.000000
-19.166100 0.000000
-19.126000 0.000000
-19.085900 0.000000
-19.045900 0.000000
-19.005800 0.000000
-18.965700 0.000000
-18.925600 0.000000
-18.885500 0.000000
-18.845500 0.000000
-18.805400 0.000000
-18.765300 0.000000
-18.725200 0.000000
-18.685100 0.000000
-18.645000 0.000000
-18.605000 0.000000
-18.564900 0.000000
-18.524800 0.000000
-18.484700 0.000000
-18.444600 0.000000
-18.404600 0.000000
-18.364500 0.000000
-18.324400 0.000000
-18.284300 0.000000
-18.244200 0.000000
-18.204100 0.000000
-18.164100 0.000000
-18.124000 0.000000
-18.083900 0.000000
-18.043800 0.000000
-18.003700 0.000000
-17.963700 0.000000
-17.923600 0.000000
-17.883500 0.000000
-17.843400 0.000000
-17.803300 0.000000
-17.763300 0.000000
-17.723200 0.000000
-17.683100 0.000000
-17.643000 0.000000
-17.602900 0.368600
-17.562800 0.588700
-17.522800 0.719500
-17.482700 0.847400
-17.442600 1.001900
-17.402500 1.146800
-17.362400 1.281000
-17.322400 1.451600
-17.282300 1.655600
-17.242200 1.916000
-17.202100 2.217300
-17.162000 2.532400
-17.121900 2.534600
-17.081900 2.467600
-17.041800 2.381700
-17.001700 2.325000
-16.961600 2.273600
-16.921500 2.177800
-16.881500 2.103400
-16.841400 2.042700
-16.801300 2.002200
-16.761200 1.913500
-16.721100 1.847400
-16.681100 1.679200
-16.641000 1.347800
-16.600900 1.210400
-16.560800 1.097400
-16.520700 1.047900
-16.480600 0.851600
-16.440600 0.716200
-16.400500 1.069200
-16.360400 0.660900
-16.320300 0.991300
-16.280200 1.526300
-16.240200 1.181800
-16.200100 2.477900
-16.160000 3.743900
-16.119900 4.766800
-16.079800 6.834200
-16.039700 8.056900
-15.999700 10.330200
-15.959600 8.114600
-15.919500 7.823600
-15.879400 6.780300
-15.839300 4.750500
-15.799300 5.266200
-15.759200 6.735700
-15.719100 5.785000
-15.679000 5.991300
-15.638900 6.386900
-15.598900 4.740200
-15.558800 5.092200
-15.518700 10.118900
-15.478600 14.529500
-15.438500 14.505500
-15.398400 14.260700
-15.358400 12.806600
-15.318300 11.719400
-15.278200 10.793400
-15.238100 10.760400
-15.198000 8.185500
-15.158000 7.722100
-15.117900 9.291200
-15.077800 11.859600
-15.037700 3.109900
-14.997600 0.000000
-14.957500 0.000000
-14.917500 0.000000
-14.877400 0.000000
-14.837300 0.000000
-14.797200 0.000000
-14.757100 0.028800
-14.717100 0.039300
-14.677000 0.077500
-14.636900 0.098800
-14.596800 0.122100
-14.556700 0.143700
-14.516700 0.169400
-14.476600 0.197200
-14.436500 0.228000
-14.396400 0.262400
-14.356300 0.296700
-14.316200 0.330600
-14.276200 0.371800
-14.236100 0.415000
-14.196000 0.461500
-14.155900 0.518500
-14.115800 0.576500
-14.075800 0.636100
-14.035700 0.715700
-13.995600 0.803700
-13.955500 0.905900
-13.915400 1.028000
-13.875300 1.177800
-13.835300 1.451000
-13.795200 1.606400
-13.755100 1.702700
-13.715000 1.785400
-13.674900 1.880000
-13.634900 1.958100
-13.594800 2.164100
-13.554700 2.254100
-13.514600 2.239000
-13.474500 2.258700
-13.434500 2.291400
-13.394400 2.302100
-13.354300 2.277800
-13.314200 2.204200
-13.274100 2.093300
-13.234000 1.976800
-13.194000 1.731200
-13.153900 1.361800
-13.113800 1.149200
-13.073700 0.953400
-13.033600 0.789800
-12.993600 0.637900
-12.953500 0.525200
-12.913400 0.320200
-12.873300 0.000000
-12.833200 0.000000
-12.793100 0.000000
-12.753100 0.000000
-12.713000 0.000000
-12.672900 0.000000
-12.632800 0.000000
-12.592700 0.000000
-12.552700 0.000000
-12.512600 0.000000
-12.472500 0.000000
-12.432400 0.000000
-12.392300 0.000000
-12.352300 0.000000
-12.312200 0.000000
-12.272100 0.000000
-12.232000 0.000000
-12.191900 0.000000
-12.151800 0.000000
-12.111800 0.000000
-12.071700 0.000000
-12.031600 0.000000
-11.991500 0.000000
-11.951400 0.000000
-11.911400 0.000000
-11.871300 0.000000
-11.831200 0.000000
-11.791100 0.000000
-11.751000 0.000000
-11.710900 0.000000
-11.670900 0.000000
-11.630800 0.000000
-11.590700 0.000000
-11.550600 0.000000
-11.510500 0.000000
-11.470500 0.000000
-11.430400 0.000000
-11.390300 0.000000
-11.350200 0.000000
-11.310100 0.000000
-11.270100 0.000000
-11.230000 0.000000
-11.189900 0.000000
-11.149800 0.000000
-11.109700 0.000000
-11.069600 0.000000
-11.029600 0.000000
-10.989500 0.000000
-10.949400 0.000000
-10.909300 0.000000
-10.869200 0.000000
-10.829200 0.000000
-10.789100 0.000000
-10.749000 0.000000
-10.708900 0.000000
-10.668800 0.000000
-10.628700 0.000000
-10.588700 0.000000
-10.548600 0.000000
-10.508500 0.000000
-10.468400 0.000000
-10.428300 0.000000
-10.388300 0.000000
-10.348200 0.000000
-10.308100 0.000000
-10.268000 0.000000
-10.227900 0.000000
-10.187900 0.000000
-10.147800 0.000000
-10.107700 0.000000
-10.067600 0.000000
-10.027500 0.000000
-9.987400 0.000000
-9.947400 0.000000
-9.907300 0.000000
-9.867200 0.000000
-9.827100 0.000000
-9.787000 0.000000
-9.747000 0.000000
-9.706900 0.000000
-9.666800 0.000000
-9.626700 0.000000
-9.586600 0.000000
-9.546500 0.000000
-9.506500 0.000000
-9.466400 0.000000
-9.426300 0.000000
-9.386200 0.000000
-9.346100 0.000000
-9.306100 0.000000
-9.266000 0.000000
-9.225900 0.000000
-9.185800 0.000000
-9.145700 0.000000
-9.105700 0.000000
-9.065600 0.000000
-9.025500 0.000000
-8.985400 0.000000
-8.945300 0.000000
-8.905200 0.000000
-8.865200 0.000000
-8.825100 0.000000
-8.785000 0.000000
-8.744900 0.000000
-8.704800 0.000000
-8.664800 0.000000
-8.624700 0.000000
-8.584600 0.000000
-8.544500 0.000000
-8.504400 0.000000
-8.464300 0.000000
-8.424300 0.000000
-8.384200 0.000000
-8.344100 0.000000
-8.304000 0.000000
-8.263900 0.000000
-8.223900 0.000000
-8.183800 0.000000
-8.143700 0.000000
-8.103600 0.000000
-8.063500 0.000000
-8.023500 0.000000
-7.983400 0.000000
-7.943300 0.000000
-7.903200 0.000000
-7.863100 0.000000
-7.823000 0.000000
-7.783000 0.000000
-7.742900 0.000000
-7.702800 0.000000
-7.662700 0.000000
-7.622600 0.000000
-7.582600 0.000000
-7.542500 0.000000
-7.502400 0.000000
-7.462300 0.000000
-7.422200 0.000000
-7.382100 0.000000
-7.342100 0.000000
-7.302000 0.000000
-7.261900 0.000000
-7.221800 0.000000
-7.181700 0.000000
-7.141700 0.000000
-7.101600 0.000000
-7.061500 0.000000
-7.021400 0.000000
-6.981300 0.000000
-6.941300 0.000000
-6.901200 0.000000
-6.861100 0.000000
-6.821000 0.000000
-6.780900 0.000000
-6.740800 0.000000
-6.700800 0.000000
-6.660700 0.000000
-6.620600 0.000000
-6.580500 0.000000
-6.540400 0.000000
-6.500400 0.000000
-6.460300 0.000000
-6.420200 0.000000
-6.380100 0.000000
-6.340000 0.000000
-6.299900 0.000000
-6.259900 0.000000
-6.219800 0.000000
-6.179700 0.000000
-6.139600 0.000000
-6.099500 0.000000
-6.059500 0.000000
-6.019400 0.000000
-5.979300 0.000000
-5.939200 0.000000
-5.899100 0.000000
-5.859100 0.000000
-5.819000 0.000000
-5.778900 0.000000
-5.738800 0.000000
-5.698700 0.000000
-5.658600 0.000000
-5.618600 0.000000
-5.578500 0.000000
-5.538400 0.000000
-5.498300 0.000000
-5.458200 0.000000
-5.418200 0.000000
-5.378100 0.000000
-5.338000 0.000000
-5.297900 0.000000
-5.257800 0.000000
-5.217700 0.000000
-5.177700 0.000000
-5.137600 0.000000
-5.097500 0.000000
-5.057400 0.000000
-5.017300 0.000000
-4.977300 0.000000
-4.937200 0.000000
-4.897100 0.000000
-4.857000 0.000000
-4.816900 0.000000
-4.776900 0.000000
-4.736800 0.000000
-4.696700 0.000000
-4.656600 0.000000
-4.616500 0.000000
-4.576400 0.000000
-4.536400 0.000000
-4.496300 0.000000
-4.456200 0.000000
-4.416100 0.000000
-4.376000 0.000000
-4.336000 0.000000
-4.295900 0.000000
-4.255800 0.000000
-4.215700 0.000000
-4.175600 0.000000
-4.135500 0.000000
-4.095500 0.000000
-4.055400 0.000000
-4.015300 0.000000
-3.975200 0.000000
-3.935100 0.000000
-3.895100 0.000000
-3.855000 0.000000
-3.814900 0.000000
-3.774800 0.000000
-3.734700 0.000000
-3.694700 0.000000
-3.654600 0.000000
-3.614500 0.000000
-3.574400 0.000000
-3.534300 0.000000
-3.494200 0.000000
-3.454200 0.000000
-3.414100 0.000000
-3.374000 0.000000
-3.333900 0.000000
-3.293800 0.000000
-3.253800 0.000000
-3.213700 0.000000
-3.173600 0.000000
-3.133500 0.000000
-3.093400 0.000000
-3.053300 0.000000
-3.013300 0.000000
-2.973200 0.000000
-2.933100 0.000000
-2.893000 0.000000
-2.852900 0.000000
-2.812900 0.000000
-2.772800 0.000000
-2.732700 0.000000
-2.692600 0.000000
-2.652500 0.000000
-2.612500 0.000000
-2.572400 0.000000
-2.532300 0.000000
-2.492200 0.000000
-2.452100 0.000000
-2.412000 0.000000
-2.372000 0.000000
-2.331900 0.000000
-2.291800 0.000000
-2.251700 0.000000
-2.211600 0.000000
-2.171600 0.000000
-2.131500 0.000000
-2.091400 0.000000
-2.051300 0.000000
-2.011200 0.000000
-1.971100 0.000000
-1.931100 0.000000
-1.891000 0.000000
-1.850900 0.206900
-1.810800 0.283000
-1.770700 0.390200
-1.730700 0.497800
-1.690600 0.620900
-1.650500 0.744000
-1.610400 0.879900
-1.570300 0.985900
-1.530300 1.103700
-1.490200 1.594400
-1.450100 2.021200
-1.410000 2.396700
-1.369900 2.725900
-1.329800 3.419300
-1.289800 3.867200
-1.249700 3.870600
-1.209600 3.942100
-1.169500 3.754900
-1.129400 3.816100
-1.089400 3.606100
-1.049300 3.614900
-1.009200 3.483100
-0.969100 3.299100
-0.929000 3.225300
-0.888900 3.083800
-0.848900 3.025900
-0.808800 2.980600
-0.768700 3.007800
-0.728600 2.949400
-0.688500 2.926800
-0.648500 2.880200
-0.608400 2.880900
-0.568300 2.902400
-0.528200 2.851700
-0.488100 2.830600
-0.448100 2.815900
-0.408000 2.801900
-0.367900 2.841000
-0.327800 2.938600
-0.287700 3.093400
-0.247600 3.305300
-0.207600 3.558500
-0.167500 4.041300
-0.127400 4.596800
-0.087300 4.773200
-0.047200 4.563300
-0.007200 4.466300
0.032900 4.007100
0.073000 3.759700
0.113100 3.228900
0.153200 3.509700
0.193300 2.068700
0.233300 1.183000
0.273400 0.712200
0.313500 0.226100
0.353600 0.155500
0.393700 0.000000
0.433700 0.000000
0.473800 0.000000
0.513900 0.000000
0.554000 0.000000
0.594100 0.000000
0.634100 0.000000
0.674200 0.000000
0.714300 0.000000
0.754400 0.000000
0.794500 0.000000
0.834600 0.000000
0.874600 0.000000
0.914700 0.029600
0.954800 0.040700
0.994900 0.053100
1.035000 0.066700
1.075000 0.081600
1.115100 0.097800
1.155200 0.101600
1.195300 0.111000
1.235400 0.120000
1.275500 0.128700
1.315500 0.136900
1.355600 0.146300
1.395700 0.157200
1.435800 0.168800
1.475900 0.181100
1.515900 0.188500
1.556000 0.197600
1.596100 0.206300
1.636200 0.214600
1.676300 0.222800
1.716300 0.234200
1.756400 0.244800
1.796500 0.255800
1.836600 0.267200
1.876700 0.278900
1.916800 0.292800
1.956800 0.306100
1.996900 0.318300
2.037000 0.333200
2.077100 0.349200
2.117200 0.365100
2.157200 0.381400
2.197300 0.398100
2.237400 0.475700
2.277500 0.515400
2.317600 0.557900
2.357700 0.603400
2.397700 0.631800
2.437800 0.661000
2.477900 0.690900
2.518000 0.723300
2.558100 0.759100
2.598100 0.798900
2.638200 0.837400
2.678300 0.887200
2.718400 0.959000
2.758500 1.030400
2.798500 1.109700
2.838600 1.307000
2.878700 1.380100
2.918800 1.447000
2.958900 1.503600
2.999000 1.557800
3.039000 1.633400
3.079100 1.698100
3.119200 1.751800
3.159300 1.963400
3.199400 1.962400
3.239400 1.959700
3.279500 1.937200
3.319600 1.923500
3.359700 1.896000
3.399800 1.867600
3.439900 1.866900
3.479900 1.877700
3.520000 1.904500
3.560100 1.897400
3.600200 1.933300
3.640300 1.818700
3.680300 1.783900
3.720400 1.532600
3.760500 1.448000
3.800600 1.410300
3.840700 1.423200
3.880700 1.458100
3.920800 1.495500
3.960900 1.524000
4.001000 1.714900
4.041100 2.184800
4.081200 2.566600
4.121200 2.465800
4.161300 2.602100
4.201400 2.830200
4.241500 3.116600
4.281600 3.249600
4.321600 3.099500
4.361700 3.141200
4.401800 3.138600
4.441900 3.292800
4.482000 3.514500
4.522100 3.158300
4.562100 2.140300
4.602200 1.915900
4.642300 2.070100
4.682400 1.640800
4.722500 1.725000
4.762500 1.893400
4.802600 1.924900
4.842700 1.995000
4.882800 2.173200
4.922900 2.157900
4.962900 2.094900
5.003000 1.932700
5.043100 1.837300
5.083200 1.779800
5.123300 1.770500
5.163400 1.704600
5.203400 1.890100
5.243500 1.907600
5.283600 1.885100
5.323700 1.811800
5.363800 1.811000
5.403800 1.624300
5.443900 1.574500
5.484000 1.605400
5.524100 1.702700
5.564200 1.828300
5.604300 1.975300
5.644300 1.978000
5.684400 2.028400
5.724500 2.035900
5.764600 2.083400
5.804700 2.000300
5.844700 1.850200
5.884800 1.799300
5.924900 1.886700
5.965000 2.053500
6.005100 2.351400
6.045100 2.516700
6.085200 2.512000
6.125300 2.460400
6.165400 2.488400
6.205500 2.529600
6.245600 2.635500
6.285600 2.839500
6.325700 3.106600
6.365800 3.090000
6.405900 2.939200
6.446000 2.818100
6.486000 2.764000
6.526100 3.121100
6.566200 3.218100
6.606300 2.794700
6.646400 2.641500
6.686500 2.558200
6.726500 2.374900
6.766600 2.262100
6.806700 2.131300
6.846800 1.943400
6.886900 1.872000
6.926900 1.832400
6.967000 1.729400
7.007100 1.641800
7.047200 1.792700
7.087300 1.621100
7.127300 1.585100
7.167400 1.845200
7.207500 1.790500
7.247600 1.650000
7.287700 1.488600
7.327800 1.490600
7.367800 1.515500
7.407900 1.670100
7.448000 2.392600
7.488100 1.876800
7.528200 1.882700
7.568200 1.939600
7.608300 2.269500
7.648400 2.286600
7.688500 2.345200
7.728600 2.402600
7.768700 2.245500
7.808700 2.277400
7.848800 2.285400
7.888900 2.283300
7.929000 2.242600
7.969100 2.254900
8.009100 2.271700
8.049200 2.304900
8.089300 2.323500
8.129400 2.469100
8.169500 2.548000
8.209500 2.361500
8.249600 2.557200
8.289700 2.536800
8.329800 2.847100
8.369900 3.130800
8.410000 3.059300
8.450000 3.337900
8.490100 3.555900
8.530200 4.128600
8.570300 4.241200
8.610400 4.156600
8.650400 3.737600
8.690500 3.637000
8.730600 3.698400
8.770700 3.428500
8.810800 2.820500
8.850900 2.792900
8.890900 2.762100
8.931000 2.821400
8.971100 2.822600
9.011200 2.727900
9.051300 2.666400
9.091300 2.687500
9.131400 2.786100
9.171500 2.729800
9.211600 2.607500
9.251700 2.511100
9.291700 2.386700
9.331800 2.232200
9.371900 2.264600
9.412000 2.433900
9.452100 2.708600
9.492200 3.057600
9.532200 3.332400
9.572300 3.367200
9.612400 3.291700
9.652500 3.135100
9.692600 3.122900
9.732600 3.158000
9.772700 3.241000
9.812800 3.324300
9.852900 3.330700
9.893000 3.327100
9.933100 3.161300
9.973100 3.110700
10.013200 2.885400
10.053300 2.910300
10.093400 3.112500
10.133500 3.030800
10.173500 2.907700
10.213600 2.831000
10.253700 2.768800
10.293800 2.794600
10.333900 2.757600
10.373900 2.710600
10.414000 2.943600
10.454100 2.650300
10.494200 2.554300
10.534300 2.383000
10.574400 2.316300
10.614400 2.332000
10.654500 2.292000
10.694600 2.293900
10.734700 2.395300
10.774800 2.453800
10.814800 2.855200
10.854900 2.687900
10.895000 2.395100
10.935100 2.237000
10.975200 2.087900
11.015300 2.045800
11.055300 2.008700
11.095400 2.059700
11.135500 2.569400
11.175600 2.482100
11.215700 2.287900
11.255700 2.285700
11.295800 2.297400
11.335900 2.312300
11.376000 2.160400
11.416100 2.219500
11.456100 1.970700
11.496200 1.873100
11.536300 2.010100
11.576400 2.185000
11.616500 2.595700
11.656600 1.922500
11.696600 1.639100
11.736700 1.303300
11.776800 1.171800
11.816900 1.578800
11.857000 0.837800
11.897000 0.835000
11.937100 0.854100
11.977200 1.002400
12.017300 0.957000
12.057400 0.972300
12.097500 0.992900
12.137500 0.988200
12.177600 1.007300
12.217700 1.019100
12.257800 1.027100
12.297900 1.028800
12.337900 1.070900
12.378000 1.100500
12.418100 1.225000
12.458200 1.580800
12.498300 1.742700
12.538300 1.770900
12.578400 1.704400
12.618500 1.716300
12.658600 1.439600
12.698700 1.264800
12.738800 1.262700
12.778800 1.242700
12.818900 1.260700
12.859000 1.252100
12.899100 1.270700
12.939200 1.310300
12.979200 1.464400
13.019300 1.185500
13.059400 1.317900
13.099500 1.537900
13.139600 1.934500
13.179700 2.122800
13.219700 2.211500
13.259800 1.940200
13.299900 1.764100
13.340000 1.483100
13.380100 1.193300
13.420100 0.892600
13.460200 0.826200
13.500300 0.796400
13.540400 0.817700
13.580500 0.788700
13.620500 0.832700
13.660600 0.906100
13.700700 0.995000
13.740800 1.132600
13.780900 1.304000
13.821000 1.550800
13.861000 1.807000
13.901100 1.981600
13.941200 2.163900
13.981300 2.155000
14.021400 2.044300
14.061400 1.896200
14.101500 1.803100
14.141600 1.779400
14.181700 1.665600
14.221800 1.602600
14.261900 1.525800
14.301900 1.447400
14.342000 1.395500
14.382100 1.406700
14.422200 1.580900
14.462300 1.737900
14.502300 1.832800
14.542400 1.796300
14.582500 1.796600
14.622600 1.780700
14.662700 1.757100
14.702700 1.616800
14.742800 1.640100
14.782900 1.646800
14.823000 1.718600
14.863100 1.709600
14.903200 1.844300
14.943200 1.874300
14.983300 1.849300
15.023400 1.816100
15.063500 1.816000
15.103600 2.075300
15.143600 1.887000
15.183700 1.872100
15.223800 1.699600
15.263900 1.593000
15.304000 1.538300
15.344100 1.455600
15.384100 1.436300
15.424200 1.450800
15.464300 1.456800
15.504400 1.488000
15.544500 1.525100
15.584500 1.604800
15.624600 1.579500
15.664700 1.576800
15.704800 1.619100
15.744900 1.599400
15.784900 1.681900
15.825000 1.836100
15.865100 1.698500
15.905200 1.936700
15.945300 1.907700
15.985400 1.733000
16.025400 1.736200
16.065500 1.681000
16.105600 1.632300
16.145700 1.634500
16.185800 1.573800
16.225800 1.591100
16.265900 1.610500
16.306000 1.642000
16.346100 1.736900
16.386200 1.738100
16.426300 1.789500
16.466300 1.853500
16.506400 1.867400
16.546500 1.944600
16.586600 2.002900
16.626700 2.143800
16.666700 2.324400
16.706800 2.417600
16.746900 2.570900
16.787000 2.504800
16.827100 2.403000
16.867100 2.296100
16.907200 2.342000
16.947300 2.271500
16.987400 2.323100
17.027500 2.364400
17.067600 2.503100
17.107600 2.730300
17.147700 2.619100
17.187800 2.498900
17.227900 2.399900
17.268000 2.552700
17.308000 2.918600
17.348100 3.289900
17.388200 4.251600
17.428300 3.133200
17.468400 2.809900
17.508500 2.544600
17.548500 2.284500
17.588600 2.193900
17.628700 2.082100
17.668800 1.997000
17.708900 2.029600
17.748900 1.914500
17.789000 1.848100
17.829100 1.741700
17.869200 1.731400
17.909300 1.544800
17.949300 1.565700
17.989400 1.585200
18.029500 1.657100
18.069600 1.787500
18.109700 2.118100
18.149800 1.718800
18.189800 1.720600
18.229900 1.861900
18.270000 1.952800
18.310100 1.914200
18.350200 1.916500
18.390200 1.656200
18.430300 1.669000
18.470400 1.712600
18.510500 1.615900
18.550600 1.549300
18.590700 1.610800
18.630700 1.678100
18.670800 1.697700
18.710900 1.721900
18.751000 1.697100
18.791100 1.760500
18.831100 1.793700
18.871200 1.799200
18.911300 1.866600
18.951400 1.941900
18.991500 2.010300
19.031500 2.064600
19.071600 2.024400
19.111700 2.037200
19.151800 2.033200
19.191900 2.087100
19.232000 2.175100
19.272000 2.280400
19.312100 2.309800
19.352200 2.249100
19.392300 2.157400
19.432400 2.112300
19.472400 2.130100
19.512500 2.283300
19.552600 2.225800
19.592700 1.976300
19.632800 1.850000
19.672900 1.896300
19.712900 1.874500
19.753000 2.032200
19.793100 2.205800
19.833200 2.447500
19.873300 2.428000
19.913300 2.269600
19.953400 2.095700
19.993500 1.872200
20.033600 1.700300
20.073700 1.934000
20.113700 1.748600
20.153800 1.413200
20.193900 1.233300
20.234000 1.143400
20.274100 1.057700
20.314200 1.025600
20.354200 0.997300
20.394300 0.976500
20.434400 0.959800
20.474500 0.947400
20.514600 1.029200
20.554600 1.003100
20.594700 1.085600
20.634800 1.170800
20.674900 1.393700
20.715000 1.468300
20.755100 1.359300
20.795100 1.608500
20.835200 1.532300
20.875300 1.564100
20.915400 1.606300
20.955500 1.666000
20.995500 1.689100
21.035600 1.684800
21.075700 1.726000
21.115800 1.710100
21.155900 1.881800
21.195900 1.673700
21.236000 1.657600
21.276100 1.684800
21.316200 1.709900
21.356300 1.702600
21.396400 1.804900
21.436400 1.858000
21.476500 1.928800
21.516600 2.019400
21.556700 2.098600
21.596800 2.065600
21.636800 1.699100
21.676900 1.641800
21.717000 1.601700
21.757100 1.662200
21.797200 1.675800
21.837300 1.636300
21.877300 1.650100
21.917400 1.702400
21.957500 1.732200
21.997600 1.685200
22.037700 1.704400
22.077700 1.660500
22.117800 2.119700
22.157900 2.026500
22.198000 2.094000
22.238100 2.204500
22.278100 2.338600
22.318200 2.511200
22.358300 2.510700
22.398400 2.558900
22.438500 2.561000
22.478600 2.683500
22.518600 2.630900
22.558700 3.120500
22.598800 2.686900
22.638900 2.687900
22.679000 2.606200
22.719000 2.473000
22.759100 2.693500
22.799200 2.873900
22.839300 2.918800
22.879400 2.875300
22.919500 3.304400
22.959500 3.378000
22.999600 3.336000
23.039700 3.141100
23.079800 3.067900
23.119900 3.217100
23.159900 3.553900
23.200000 3.657600
23.240100 3.605700
23.280200 3.915000
23.320300 3.859500
23.360300 3.621700
23.400400 3.325400
23.440500 3.078000
23.480600 2.769800
23.520700 2.624900
23.560800 2.438200
23.600800 2.454600
23.640900 2.240500
23.681000 2.207800
23.721100 2.263000
23.761200 2.506300
23.801200 2.744100
23.841300 2.916900
23.881400 2.659300
23.921500 2.399900
23.961600 2.298400
24.001700 2.160400
24.041700 2.123400
24.081800 2.126900
24.121900 2.045300
24.162000 2.086200
24.202100 2.213500
24.242100 2.713300
24.282200 2.483200
24.322300 2.517800
24.362400 2.599400
24.402500 2.790900
24.442500 2.800800
24.482600 2.642600
24.522700 2.533400
24.562800 2.501600
24.602900 2.422200
24.643000 2.374200
24.683000 2.260900
24.723100 2.180000
24.763200 2.136900
24.803300 2.147900
24.843400 2.060300
24.883400 1.995600
24.923500 1.864200
24.963600 1.849800
25.003700 1.939600
25.043800 1.859800
25.083900 1.931700
25.123900 2.188600
25.164000 2.655600
25.204100 2.916000
25.244200 3.175100
25.284300 3.279200
25.324300 3.533800
25.364400 3.810400
25.404500 4.570300
25.444600 3.636200
25.484700 3.374300
25.524700 3.018700
25.564800 2.880900
25.604900 2.697900
25.645000 2.591200
25.685100 2.593500
25.725200 2.560400
25.765200 2.621000
25.805300 2.723100
25.845400 2.799100
25.885500 3.051100
25.925600 3.075100
25.965600 3.176600
26.005700 3.269100
26.045800 2.987600
26.085900 2.691700
26.126000 2.604300
26.166100 2.519100
26.206100 2.495200
26.246200 2.525400
26.286300 2.625400
26.326400 2.856200
26.366500 2.981300
26.406500 2.881400
26.446600 3.043500
26.486700 2.952700
26.526800 2.819500
26.566900 2.806600
26.606900 2.608100
26.647000 2.637800
26.687100 2.244300
26.727200 2.268600
26.767300 2.101500
26.807400 2.026100
26.847400 1.985000
26.887500 2.019900
26.927600 2.072200
26.967700 2.152100
27.007800 2.131900
27.047800 2.195100
27.087900 2.187200
27.128000 2.151300
27.168100 1.878300
27.208200 1.848200
27.248300 1.777100
27.288300 1.787400
27.328400 1.707400
27.368500 1.679500
27.408600 1.567100
27.448700 1.664100
27.488700 1.626000
27.528800 1.671400
27.568900 1.737300
27.609000 1.805200
27.649100 1.961200
27.689100 2.072700
27.729200 2.220400
27.769300 2.287700
27.809400 2.410800
27.849500 2.217100
27.889600 2.214600
27.929600 2.128000
27.969700 2.124500
28.009800 1.992900
28.049900 1.898100
28.090000 2.079300
28.130000 2.114000
28.170100 2.141400
28.210200 2.168700
28.250300 2.898300
28.290400 2.392800
28.330500 2.403800
28.370500 2.399400
28.410600 2.449800
28.450700 2.387100
28.490800 2.376300
28.530900 2.365300
28.570900 2.359700
28.611000 2.685300
28.651100 2.578400
28.691200 2.491000
28.731300 2.461900
28.771300 2.479500
28.811400 2.342000
28.851500 2.328300
28.891600 2.316700
28.931700 2.239800
28.971800 2.188300
29.011800 2.164500
29.051900 2.348700
29.092000 2.300100
29.132100 2.217400
29.172200 2.136400
29.212200 2.182100
29.252300 2.383900
29.292400 2.520500
29.332500 2.595900
29.372600 2.681300
29.412700 2.665000
29.452700 2.625900
29.492800 2.658600
29.532900 2.538600
29.573000 2.463900
29.613100 2.553700
29.653100 2.731600
29.693200 2.618000
29.733300 2.788300
29.773400 2.885200
29.813500 2.947800
29.853500 3.201700
29.893600 3.068700
29.933700 3.011300
29.973800 2.936700
30.013900 2.899800
30.054000 2.649200
30.094000 2.539700
30.134100 2.489900
30.174200 2.459300
30.214300 2.518800
30.254400 2.566100
30.294400 2.622400
30.334500 2.768200
30.374600 2.884800
30.414700 2.888800
30.454800 2.618000
30.494900 2.338900
30.534900 2.577100
30.575000 2.620200
30.615100 2.250000
30.655200 2.119000
30.695300 2.149100
30.735300 2.598800
30.775400 3.036100
30.815500 2.837000
30.855600 2.717500
30.895700 2.743000
30.935700 2.971100
30.975800 2.875000
31.015900 3.299100
31.056000 3.390300
31.096100 3.656200
31.136200 3.433100
31.176200 3.246100
31.216300 3.105900
31.256400 3.024000
31.296500 2.698700
31.336600 2.537700
31.376600 2.436600
31.416700 2.625600
31.456800 2.714100
31.496900 2.841800
31.537000 2.819800
31.577100 3.002700
31.617100 3.126700
31.657200 3.257300
31.697300 3.503400
31.737400 3.538400
31.777500 3.437000
31.817500 3.406200
31.857600 3.371900
31.897700 3.403000
31.937800 2.981800
31.977900 2.859500
32.017900 2.870500
32.058000 2.724300
32.098100 2.648300
32.138200 2.613500
32.178300 2.590000
32.218400 2.493300
32.258400 2.678200
32.298500 2.807200
32.338600 2.902600
32.378700 3.044300
32.418800 2.867100
32.458800 2.765300
32.498900 2.715500
32.539000 2.626700
32.579100 2.510900
32.619200 2.472400
32.659300 2.509000
32.699300 2.450100
32.739400 2.463700
32.779500 2.488400
32.819600 2.702400
32.859700 2.668800
32.899700 2.654100
32.939800 2.675800
32.979900 2.545100
33.020000 2.492900
33.060100 2.479900
33.100100 2.455900
33.140200 2.478400
33.180300 2.490600
33.220400 2.462800
33.260500 2.384000
33.300600 2.415100
33.340600 2.392100
33.380700 2.336600
33.420800 2.549900
33.460900 2.208700
33.501000 2.128600
33.541000 1.946100
33.581100 1.820700
33.621200 1.707300
33.661300 1.612500
33.701400 1.561800
33.741500 1.537100
33.781500 1.536900
33.821600 1.548300
33.861700 1.565400
33.901800 1.645000
33.941900 1.591600
33.981900 1.604400
34.022000 1.577600
34.062100 1.591900
34.102200 1.549600
34.142300 1.533600
34.182300 1.554800
34.222400 1.540200
34.262500 1.623200
34.302600 1.635400
34.342700 1.636100
34.382800 1.594300
34.422800 1.559600
34.462900 1.523000
34.503000 1.449500
34.543100 1.377100
34.583200 1.399300
34.623200 1.233000
34.663300 1.148300
34.703400 1.112800
34.743500 1.017200
34.783600 0.955100
34.823700 0.844800
34.863700 0.739600
34.903800 0.618700
34.943900 0.492000
34.984000 0.444800
35.024100 0.460400
35.064100 0.423700
35.104200 0.420600
35.144300 0.422200
35.184400 0.425400
35.224500 0.430300
35.264500 0.438200
35.304600 0.448700
35.344700 0.661900
35.384800 0.516900
35.424900 0.402200
35.465000 0.333000
35.505000 0.300900
35.545100 0.272900
35.585200 0.247200
35.625300 0.223900
35.665400 0.207200
35.705400 0.194300
35.745500 0.179600
35.785600 0.164700
35.825700 0.142500
35.865800 0.127300
35.905900 0.113200
35.945900 0.100200
35.986000 0.088800
36.026100 0.078600
36.066200 0.069400
36.106300 0.061200
36.146300 0.054000
36.186400 0.047800
36.226500 0.042500
36.266600 0.036000
36.306700 0.029100
36.346700 0.022700
36.386800 0.016800
36.426900 0.011400
36.467000 0.007000
36.507100 0.003500
36.547200 0.000300
36.587200 0.000000
36.627300 0.000000
36.667400 0.000000
36.707500 0.000000
36.747600 0.000000
36.787600 0.000000
36.827700 0.000000
36.867800 0.000000
36.907900 0.000000
36.948000 0.000000
36.988100 0.000000
37.028100 0.000000
37.068200 0.000000
37.108300 0.000000
37.148400 0.000000
37.188500 0.000000
37.228500 0.000000
37.268600 0.000000
37.308700 0.000000
37.348800 0.000000
37.388900 0.000000
37.428900 0.000000
37.469000 0.000000
37.509100 0.000000
37.549200 0.000000
37.589300 0.000000
37.629400 0.000000
37.669400 0.000000
37.709500 0.000000
37.749600 0.000000
37.789700 0.000000
37.829800 0.000000
37.869800 0.000000
37.909900 0.000000
37.950000 0.000000
37.990100 0.000000
38.030200 0.000000
38.070300 0.000000
38.110300 0.000000
38.150400 0.000000
38.190500 0.000000
38.230600 0.000000
38.270700 0.000000
38.310700 0.000000
38.350800 0.000000
38.390900 0.000000
38.431000 0.000000
38.471100 0.000000
38.511100 0.000000
38.551200 0.000000
38.591300 0.000000
38.631400 0.000000
38.671500 0.000000
38.711600 0.000000
38.751600 0.000000
38.791700 0.000000
38.831800 0.000000
38.871900 0.000000
38.912000 0.000000
38.952000 0.000000
38.992100 0.000000
39.032200 0.000000
39.072300 0.000000
39.112400 0.000000
39.152500 0.000000
39.192500 0.000000
39.232600 0.000000
39.272700 0.000000
39.312800 0.000000
39.352900 0.000000
39.392900 0.000000
39.433000 0.000000
39.473100 0.000000
39.513200 0.000000
39.553300 0.000000
39.593300 0.000000
39.633400 0.000000
39.673500 0.000000
39.713600 0.000000
39.753700 0.000000
39.793800 0.000000
39.833800 0.000000
39.873900 0.000000
39.914000 0.000000
39.954100 0.000000
39.994200 0.000000
40.034200 0.000000
40.074300 0.000000
40.114400 0.000000
40.154500 0.000000
40.194600 0.000000
e
