set title 'mp-1192532 - Density of States'
set xlabel 'Energy (eV)'
set ylabel 'DOS (states/eV)'
set grid
set xrange [-10:10]
set yrange [0:92.535]
set xzeroaxis lt -1
set terminal png size 800,600
set output 'mp-1192532_dos_gnuplot.png'
plot '-' using 1:2 with lines title 'DOS'
-11.496900 0.000000
-11.485500 0.000000
-11.474200 0.000000
-11.462800 0.000000
-11.451400 0.000000
-11.440000 0.000000
-11.428700 0.000000
-11.417300 0.000000
-11.405900 0.000000
-11.394500 0.000000
-11.383200 0.000000
-11.371800 0.000000
-11.360400 0.000000
-11.349000 0.000000
-11.337700 0.000000
-11.326300 0.000000
-11.314900 0.000000
-11.303600 0.000000
-11.292200 0.000000
-11.280800 0.000000
-11.269400 0.000000
-11.258100 0.000000
-11.246700 0.000000
-11.235300 0.000000
-11.223900 0.000000
-11.212600 0.000000
-11.201200 0.000000
-11.189800 0.000000
-11.178400 0.000000
-11.167100 0.000000
-11.155700 0.000000
-11.144300 0.000000
-11.133000 0.000000
-11.121600 0.000000
-11.110200 0.000000
-11.098800 0.000000
-11.087500 0.000000
-11.076100 0.000000
-11.064700 0.000000
-11.053300 0.000000
-11.042000 0.000000
-11.030600 0.000000
-11.019200 0.000000
-11.007900 0.000000
-10.996500 0.000000
-10.985100 0.000000
-10.973700 0.000000
-10.962400 0.000000
-10.951000 0.000000
-10.939600 0.000000
-10.928200 0.000000
-10.916900 0.000000
-10.905500 0.000000
-10.894100 0.000000
-10.882700 0.000000
-10.871400 0.000000
-10.860000 0.000000
-10.848600 0.000000
-10.837300 0.000000
-10.825900 0.000000
-10.814500 0.000000
-10.803100 0.000000
-10.791800 0.000000
-10.780400 0.000000
-10.769000 0.000000
-10.757600 0.000000
-10.746300 0.000000
-10.734900 0.000000
-10.723500 0.000000
-10.712200 0.000000
-10.700800 0.000000
-10.689400 0.000000
-10.678000 0.000000
-10.666700 0.000000
-10.655300 0.000000
-10.643900 0.000000
-10.632500 0.000000
-10.621200 0.000000
-10.609800 0.000000
-10.598400 0.000000
-10.587000 0.000000
-10.575700 0.000000
-10.564300 0.000000
-10.552900 0.000000
-10.541600 0.000000
-10.530200 0.000000
-10.518800 0.000000
-10.507400 0.000000
-10.496100 0.000000
-10.484700 0.000000
-10.473300 0.000000
-10.461900 0.002700
-10.450600 0.388000
-10.439200 1.425400
-10.427800 3.114900
-10.416400 5.567400
-10.405100 10.092100
-10.393700 15.034200
-10.382300 19.592600
-10.371000 24.198400
-10.359600 26.179100
-10.348200 24.671300
-10.336800 22.075600
-10.325500 19.107400
-10.314100 16.346700
-10.302700 15.921000
-10.291300 16.000700
-10.280000 16.675700
-10.268600 20.444100
-10.257200 28.320300
-10.245900 29.382600
-10.234500 23.568200
-10.223100 17.576800
-10.211700 0.000000
-10.200400 0.000000
-10.189000 0.000000
-10.177600 0.000000
-10.166200 0.000000
-10.154900 0.000000
-10.143500 0.000000
-10.132100 0.000000
-10.120700 0.000000
-10.109400 0.000000
-10.098000 0.000000
-10.086600 0.000000
-10.075300 0.000000
-10.063900 0.000000
-10.052500 0.000000
-10.041100 0.000000
-10.029800 0.000000
-10.018400 0.000000
-10.007000 0.000000
-9.995600 0.000000
-9.984300 0.000000
-9.972900 0.000000
-9.961500 0.000000
-9.950100 0.000000
-9.938800 0.000000
-9.927400 0.000000
-9.916000 0.000000
-9.904700 0.000000
-9.893300 0.000000
-9.881900 0.000000
-9.870500 0.000000
-9.859200 0.000000
-9.847800 0.000000
-9.836400 0.000000
-9.825000 0.000000
-9.813700 0.000000
-9.802300 0.000000
-9.790900 0.000000
-9.779600 0.000000
-9.768200 0.000000
-9.756800 0.000000
-9.745400 0.000000
-9.734100 0.000000
-9.722700 0.000000
-9.711300 0.000000
-9.699900 0.000000
-9.688600 0.000000
-9.677200 0.000000
-9.665800 0.000000
-9.654400 0.000000
-9.643100 0.000000
-9.631700 0.000000
-9.620300 0.000000
-9.609000 0.000000
-9.597600 0.000000
-9.586200 0.000000
-9.574800 0.000000
-9.563500 0.000000
-9.552100 0.000000
-9.540700 0.000000
-9.529300 0.000000
-9.518000 0.000000
-9.506600 0.000000
-9.495200 0.000000
-9.483900 0.000000
-9.472500 0.000000
-9.461100 0.000000
-9.449700 0.000000
-9.438400 0.000000
-9.427000 0.000000
-9.415600 0.000000
-9.404200 0.000000
-9.392900 0.000000
-9.381500 0.000000
-9.370100 0.000000
-9.358700 0.000000
-9.347400 0.000000
-9.336000 0.000000
-9.324600 0.000000
-9.313300 0.000000
-9.301900 0.000000
-9.290500 0.000000
-9.279100 0.000000
-9.267800 0.000000
-9.256400 0.000000
-9.245000 0.000000
-9.233600 0.000000
-9.222300 0.000000
-9.210900 0.000000
-9.199500 0.000000
-9.188100 0.000000
-9.176800 0.000000
-9.165400 0.000000
-9.154000 0.001700
-9.142700 0.232600
-9.131300 0.853600
-9.119900 1.864500
-9.108500 3.265400
-9.097200 5.489500
-9.085800 29.063900
-9.074400 35.534900
-9.063000 84.122400
-9.051700 54.366900
-9.040300 42.854200
-9.028900 37.620200
-9.017600 41.837200
-9.006200 31.239400
-8.994800 20.281300
-8.983400 21.494600
-8.972100 62.607600
-8.960700 60.291700
-8.949300 56.221800
-8.937900 44.771000
-8.926600 39.746000
-8.915200 23.304000
-8.903800 10.614200
-8.892400 5.635800
-8.881100 2.109200
-8.869700 0.034400
-8.858300 0.000000
-8.847000 0.000000
-8.835600 0.000000
-8.824200 0.000000
-8.812800 0.000000
-8.801500 0.000000
-8.790100 0.000000
-8.778700 0.000000
-8.767300 0.000000
-8.756000 0.000000
-8.744600 0.000000
-8.733200 0.000000
-8.721900 0.000000
-8.710500 0.000000
-8.699100 0.000000
-8.687700 0.000000
-8.676400 0.000000
-8.665000 0.000000
-8.653600 0.000000
-8.642200 0.000000
-8.630900 0.000000
-8.619500 0.000000
-8.608100 0.000000
-8.596700 0.000000
-8.585400 0.000000
-8.574000 0.000000
-8.562600 0.000000
-8.551300 0.000000
-8.539900 0.000000
-8.528500 0.000000
-8.517100 0.000000
-8.505800 0.000000
-8.494400 0.000000
-8.483000 0.000000
-8.471600 0.000000
-8.460300 0.000000
-8.448900 0.000000
-8.437500 0.000000
-8.426100 0.000000
-8.414800 0.000000
-8.403400 0.000000
-8.392000 0.000000
-8.380700 0.000000
-8.369300 0.000000
-8.357900 0.000000
-8.346500 0.000000
-8.335200 0.000000
-8.323800 0.000000
-8.312400 0.000000
-8.301000 0.000000
-8.289700 0.000000
-8.278300 0.000000
-8.266900 0.000000
-8.255600 0.000000
-8.244200 0.000000
-8.232800 0.000000
-8.221400 0.000000
-8.210100 0.000000
-8.198700 0.000000
-8.187300 0.000000
-8.175900 0.000000
-8.164600 0.000000
-8.153200 0.000000
-8.141800 0.000000
-8.130400 0.000000
-8.119100 0.000000
-8.107700 0.000000
-8.096300 0.000000
-8.085000 0.000000
-8.073600 0.000000
-8.062200 0.000000
-8.050800 0.000000
-8.039500 0.000000
-8.028100 0.000000
-8.016700 0.000000
-8.005300 0.000000
-7.994000 0.000000
-7.982600 0.000000
-7.971200 0.000000
-7.959900 0.000000
-7.948500 0.000000
-7.937100 0.000000
-7.925700 0.000000
-7.914400 0.000000
-7.903000 0.000000
-7.891600 0.000000
-7.880200 0.000000
-7.868900 0.000000
-7.857500 0.000000
-7.846100 0.000000
-7.834700 0.000000
-7.823400 0.000000
-7.812000 0.000000
-7.800600 0.000000
-7.789300 0.000000
-7.777900 0.000000
-7.766500 0.000000
-7.755100 0.000000
-7.743800 0.000000
-7.732400 0.000000
-7.721000 0.000000
-7.709600 0.000000
-7.698300 0.000000
-7.686900 0.000000
-7.675500 0.000000
-7.664100 0.000000
-7.652800 0.000000
-7.641400 0.000000
-7.630000 0.000000
-7.618700 0.000000
-7.607300 0.000000
-7.595900 0.000000
-7.584500 0.000000
-7.573200 0.000000
-7.561800 0.000000
-7.550400 0.000000
-7.539000 0.000000
-7.527700 0.000000
-7.516300 0.000000
-7.504900 0.000000
-7.493600 0.000000
-7.482200 0.000000
-7.470800 0.000000
-7.459400 0.000000
-7.448100 0.000000
-7.436700 0.000000
-7.425300 0.000000
-7.413900 0.000000
-7.402600 0.000000
-7.391200 0.000000
-7.379800 0.000000
-7.368400 0.000000
-7.357100 0.000000
-7.345700 0.000000
-7.334300 0.000000
-7.323000 3.934200
-7.311600 26.440700
-7.300200 35.080700
-7.288800 68.764700
-7.277500 76.457500
-7.266100 63.089800
-7.254700 36.252800
-7.243300 24.836200
-7.232000 12.038500
-7.220600 7.958000
-7.209200 10.337600
-7.197900 15.045300
-7.186500 21.292700
-7.175100 28.474700
-7.163700 40.878700
-7.152400 73.029400
-7.141000 62.605800
-7.129600 36.380000
-7.118200 27.408200
-7.106900 20.568300
-7.095500 10.910700
-7.084100 0.000000
-7.072700 0.000000
-7.061400 0.000000
-7.050000 0.000000
-7.038600 0.000000
-7.027300 0.000000
-7.015900 0.000000
-7.004500 0.000000
-6.993100 0.000000
-6.981800 0.000000
-6.970400 0.000000
-6.959000 0.000000
-6.947600 0.000000
-6.936300 0.000000
-6.924900 0.000000
-6.913500 0.000000
-6.902100 0.000000
-6.890800 0.000000
-6.879400 0.000000
-6.868000 0.000000
-6.856700 0.000000
-6.845300 0.000000
-6.833900 0.000000
-6.822500 0.000000
-6.811200 0.000000
-6.799800 0.000000
-6.788400 0.000000
-6.777000 0.000000
-6.765700 0.000000
-6.754300 0.000000
-6.742900 0.000000
-6.731600 0.000000
-6.720200 0.000000
-6.708800 0.000000
-6.697400 0.000000
-6.686100 0.000000
-6.674700 0.000000
-6.663300 0.000000
-6.651900 0.000000
-6.640600 0.000000
-6.629200 0.000000
-6.617800 0.000000
-6.606400 0.000000
-6.595100 0.000000
-6.583700 0.000000
-6.572300 0.000000
-6.561000 0.000000
-6.549600 0.000000
-6.538200 0.000000
-6.526800 0.000000
-6.515500 0.000000
-6.504100 0.000000
-6.492700 0.000000
-6.481300 0.000000
-6.470000 0.000000
-6.458600 0.000000
-6.447200 0.000000
-6.435900 0.000000
-6.424500 0.000000
-6.413100 0.000000
-6.401700 0.000000
-6.390400 0.000000
-6.379000 0.000000
-6.367600 0.000000
-6.356200 0.000000
-6.344900 0.000000
-6.333500 0.000000
-6.322100 0.000000
-6.310700 0.000000
-6.299400 0.000000
-6.288000 0.000000
-6.276600 0.000000
-6.265300 0.000000
-6.253900 0.000000
-6.242500 0.000000
-6.231100 0.000000
-6.219800 0.000000
-6.208400 0.000000
-6.197000 0.000000
-6.185600 0.000000
-6.174300 0.000000
-6.162900 0.000000
-6.151500 0.000000
-6.140100 0.000000
-6.128800 0.000000
-6.117400 0.000000
-6.106000 0.000000
-6.094700 0.000000
-6.083300 0.000000
-6.071900 0.000000
-6.060500 0.000000
-6.049200 0.000000
-6.037800 0.000000
-6.026400 0.000000
-6.015000 0.000000
-6.003700 0.000000
-5.992300 0.000000
-5.980900 0.000000
-5.969600 0.000000
-5.958200 0.000000
-5.946800 0.000000
-5.935400 0.000000
-5.924100 0.000000
-5.912700 0.000000
-5.901300 0.000000
-5.889900 0.000000
-5.878600 0.000000
-5.867200 0.000000
-5.855800 0.000000
-5.844400 0.000000
-5.833100 0.000000
-5.821700 0.000000
-5.810300 0.000000
-5.799000 0.000000
-5.787600 0.000000
-5.776200 0.000000
-5.764800 0.000000
-5.753500 0.000000
-5.742100 0.000000
-5.730700 0.000000
-5.719300 0.000000
-5.708000 0.000000
-5.696600 0.000000
-5.685200 0.000000
-5.673900 0.000000
-5.662500 0.000000
-5.651100 0.000000
-5.639700 0.000000
-5.628400 0.000000
-5.617000 0.000000
-5.605600 0.000000
-5.594200 0.000000
-5.582900 0.000000
-5.571500 0.000000
-5.560100 0.000000
-5.548700 0.000000
-5.537400 0.000000
-5.526000 0.000000
-5.514600 0.000000
-5.503300 0.000000
-5.491900 0.000000
-5.480500 0.000000
-5.469100 0.000000
-5.457800 0.000000
-5.446400 0.000000
-5.435000 0.000000
-5.423600 0.000000
-5.412300 0.000000
-5.400900 0.000000
-5.389500 0.000000
-5.378100 0.000000
-5.366800 0.000000
-5.355400 0.000000
-5.344000 0.000000
-5.332700 0.062100
-5.321300 1.634700
-5.309900 1.956200
-5.298500 2.287900
-5.287200 2.629800
-5.275800 2.981900
-5.264400 3.344100
-5.253000 3.716600
-5.241700 4.077300
-5.230300 4.104300
-5.218900 4.401700
-5.207600 4.786600
-5.196200 5.183900
-5.184800 5.593600
-5.173400 6.015500
-5.162100 6.449900
-5.150700 6.896600
-5.139300 7.355600
-5.127900 7.604600
-5.116600 7.790100
-5.105200 7.933800
-5.093800 7.249200
-5.082400 7.408900
-5.071100 7.427200
-5.059700 7.139800
-5.048300 6.821100
-5.037000 6.471100
-5.025600 6.089800
-5.014200 5.662400
-5.002800 5.648900
-4.991500 5.651600
-4.980100 5.660200
-4.968700 5.674800
-4.957300 5.695400
-4.946000 5.721900
-4.934600 5.755600
-4.923200 5.798100
-4.911800 5.849700
-4.900500 5.911100
-4.889100 5.982600
-4.877700 6.045300
-4.866400 6.075000
-4.855000 6.071400
-4.843600 6.037000
-4.832200 5.993700
-4.820900 5.955400
-4.809500 5.942300
-4.798100 6.019900
-4.786700 6.020300
-4.775400 5.942200
-4.764000 5.802700
-4.752600 5.660800
-4.741300 5.521500
-4.729900 5.384900
-4.718500 5.929300
-4.707100 7.442000
-4.695800 8.590000
-4.684400 9.604100
-4.673000 11.208700
-4.661600 13.165700
-4.650300 15.306600
-4.638900 17.443800
-4.627500 18.977800
-4.616100 19.609000
-4.604800 19.597700
-4.593400 19.902600
-4.582000 20.250900
-4.570700 20.538900
-4.559300 19.205900
-4.547900 17.746700
-4.536500 17.566800
-4.525200 17.623800
-4.513800 17.525100
-4.502400 17.171000
-4.491000 21.477400
-4.479700 22.559800
-4.468300 27.665200
-4.456900 34.202500
-4.445600 29.788400
-4.434200 23.687400
-4.422800 14.263800
-4.411400 11.174800
-4.400100 11.213500
-4.388700 12.668500
-4.377300 14.539800
-4.365900 16.827300
-4.354600 19.204500
-4.343200 22.414800
-4.331800 26.199400
-4.320400 28.434100
-4.309100 26.417000
-4.297700 25.597700
-4.286300 25.495700
-4.275000 25.676000
-4.263600 25.683000
-4.252200 23.535200
-4.240800 18.866300
-4.229500 17.746200
-4.218100 22.587300
-4.206700 26.749800
-4.195300 32.717300
-4.184000 27.715800
-4.172600 21.869200
-4.161200 20.283800
-4.149800 19.240300
-4.138500 18.046000
-4.127100 16.768600
-4.115700 15.805900
-4.104400 14.610600
-4.093000 13.182800
-4.081600 9.787600
-4.070200 4.485300
-4.058900 1.493800
-4.047500 0.025700
-4.036100 0.000000
-4.024700 0.000000
-4.013400 0.000000
-4.002000 0.000000
-3.990600 0.000000
-3.979300 0.000000
-3.967900 0.000000
-3.956500 0.000000
-3.945100 0.000000
-3.933800 0.000000
-3.922400 0.000000
-3.911000 0.000000
-3.899600 0.000000
-3.888300 0.000000
-3.876900 0.000000
-3.865500 0.000000
-3.854100 0.000000
-3.842800 0.000000
-3.831400 0.000000
-3.820000 0.000000
-3.808700 0.534800
-3.797300 1.425500
-3.785900 2.512600
-3.774500 3.659900
-3.763200 4.815800
-3.751800 6.103800
-3.740400 7.523800
-3.729000 9.075900
-3.717700 11.196900
-3.706300 15.030300
-3.694900 23.115500
-3.683600 36.729500
-3.672200 44.684600
-3.660800 61.051300
-3.649400 59.579800
-3.638100 40.983700
-3.626700 16.314400
-3.615300 7.886200
-3.603900 4.949200
-3.592600 6.270900
-3.581200 9.151600
-3.569800 20.432000
-3.558400 28.768900
-3.547100 35.707300
-3.535700 40.193800
-3.524300 47.554500
-3.513000 57.547300
-3.501600 44.490100
-3.490200 36.520700
-3.478800 15.885500
-3.467500 6.352500
-3.456100 0.000000
-3.444700 0.000000
-3.433300 0.000000
-3.422000 0.000000
-3.410600 0.000000
-3.399200 0.000000
-3.387800 0.000000
-3.376500 0.000000
-3.365100 0.000000
-3.353700 0.000000
-3.342400 0.000000
-3.331000 0.000000
-3.319600 0.000000
-3.308200 0.000000
-3.296900 0.000000
-3.285500 0.000000
-3.274100 0.000000
-3.262700 0.000000
-3.251400 0.000000
-3.240000 0.000000
-3.228600 0.000000
-3.217300 0.000000
-3.205900 0.000000
-3.194500 0.000000
-3.183100 0.000000
-3.171800 0.000000
-3.160400 0.000000
-3.149000 0.000000
-3.137600 0.000000
-3.126300 0.000000
-3.114900 0.005400
-3.103500 0.054400
-3.092100 0.154600
-3.080800 0.306000
-3.069400 0.508500
-3.058000 0.762300
-3.046700 1.068500
-3.035300 1.427700
-3.023900 1.839900
-3.012500 2.305100
-3.001200 2.823200
-2.989800 3.394300
-2.978400 4.018400
-2.967000 4.695400
-2.955700 9.979700
-2.944300 15.704000
-2.932900 25.469600
-2.921600 20.897700
-2.910200 20.120200
-2.898800 20.951400
-2.887400 22.479200
-2.876100 23.639800
-2.864700 23.815300
-2.853300 25.835400
-2.841900 27.268100
-2.830600 24.333300
-2.819200 21.023800
-2.807800 23.417800
-2.796400 33.981500
-2.785100 34.434100
-2.773700 40.207100
-2.762300 42.600700
-2.751000 41.649900
-2.739600 40.849900
-2.728200 39.260400
-2.716800 38.645400
-2.705500 33.275200
-2.694100 21.777600
-2.682700 6.972100
-2.671300 3.540000
-2.660000 1.709900
-2.648600 0.779600
-2.637200 0.210000
-2.625800 0.001100
-2.614500 0.000000
-2.603100 0.000000
-2.591700 0.000000
-2.580400 0.000000
-2.569000 0.000000
-2.557600 0.000000
-2.546200 0.000000
-2.534900 0.000000
-2.523500 0.000000
-2.512100 0.000000
-2.500700 0.000000
-2.489400 0.000000
-2.478000 0.000000
-2.466600 1.622500
-2.455300 4.284100
-2.443900 7.407000
-2.432500 10.845200
-2.421100 16.494600
-2.409800 26.659100
-2.398400 30.326900
-2.387000 55.878500
-2.375600 73.534100
-2.364300 54.980700
-2.352900 40.273900
-2.341500 26.594800
-2.330100 2.826300
-2.318800 0.000000
-2.307400 7.646600
-2.296000 31.327200
-2.284700 44.811500
-2.273300 51.910300
-2.261900 54.277300
-2.250500 48.323700
-2.239200 34.367300
-2.227800 25.498500
-2.216400 23.432700
-2.205000 12.056200
-2.193700 7.318800
-2.182300 3.594500
-2.170900 1.153000
-2.159600 0.199000
-2.148200 0.000000
-2.136800 0.000000
-2.125400 0.000000
-2.114100 0.000000
-2.102700 0.000000
-2.091300 0.000000
-2.079900 0.000000
-2.068600 0.000000
-2.057200 0.000000
-2.045800 0.000000
-2.034400 0.000000
-2.023100 0.000000
-2.011700 0.000000
-2.000300 0.000000
-1.989000 0.000000
-1.977600 0.000000
-1.966200 0.000000
-1.954800 0.000000
-1.943500 0.000000
-1.932100 0.000000
-1.920700 0.000000
-1.909300 0.000000
-1.898000 0.000000
-1.886600 0.000000
-1.875200 0.000000
-1.863800 0.000000
-1.852500 0.000000
-1.841100 0.000000
-1.829700 0.000000
-1.818400 0.000000
-1.807000 0.000000
-1.795600 0.000000
-1.784200 0.000000
-1.772900 0.000000
-1.761500 0.000000
-1.750100 0.000000
-1.738700 0.000000
-1.727400 0.000000
-1.716000 0.000000
-1.704600 0.000000
-1.693300 0.000000
-1.681900 0.000000
-1.670500 0.000000
-1.659100 0.000000
-1.647800 0.000000
-1.636400 0.000000
-1.625000 0.000000
-1.613600 0.000000
-1.602300 0.000000
-1.590900 0.000000
-1.579500 0.000000
-1.568100 0.000000
-1.556800 0.000000
-1.545400 0.000000
-1.534000 0.000000
-1.522700 0.000000
-1.511300 0.000000
-1.499900 0.000000
-1.488500 0.000000
-1.477200 0.000000
-1.465800 0.000000
-1.454400 0.000000
-1.443000 0.000000
-1.431700 0.000000
-1.420300 0.000000
-1.408900 0.000000
-1.397600 0.000000
-1.386200 0.000000
-1.374800 0.000000
-1.363400 0.000000
-1.352100 0.000000
-1.340700 0.000000
-1.329300 0.000000
-1.317900 0.000000
-1.306600 0.000000
-1.295200 0.000000
-1.283800 0.000000
-1.272400 0.000000
-1.261100 0.000000
-1.249700 0.000000
-1.238300 0.000000
-1.227000 0.000000
-1.215600 0.000000
-1.204200 0.000000
-1.192800 0.000000
-1.181500 0.000000
-1.170100 0.000000
-1.158700 0.000000
-1.147300 0.000000
-1.136000 0.000000
-1.124600 0.000000
-1.113200 0.000000
-1.101800 0.000000
-1.090500 0.000000
-1.079100 0.000000
-1.067700 0.000000
-1.056400 0.000000
-1.045000 0.000000
-1.033600 0.000000
-1.022200 0.000000
-1.010900 0.000000
-0.999500 0.000000
-0.988100 0.000000
-0.976700 0.000000
-0.965400 0.000000
-0.954000 0.000000
-0.942600 0.000000
-0.931300 0.000000
-0.919900 0.000000
-0.908500 0.000000
-0.897100 0.000000
-0.885800 0.000000
-0.874400 0.000000
-0.863000 0.000000
-0.851600 0.000000
-0.840300 0.000000
-0.828900 0.000000
-0.817500 0.000000
-0.806100 0.000000
-0.794800 0.000000
-0.783400 0.000000
-0.772000 0.000000
-0.760700 0.000000
-0.749300 0.000000
-0.737900 0.000000
-0.726500 0.000000
-0.715200 0.000000
-0.703800 0.000000
-0.692400 0.000000
-0.681000 0.000000
-0.669700 0.000000
-0.658300 0.000000
-0.646900 0.000000
-0.635500 0.000000
-0.624200 0.000000
-0.612800 0.000000
-0.601400 0.000000
-0.590100 0.000000
-0.578700 0.000000
-0.567300 0.000000
-0.555900 0.000000
-0.544600 0.000000
-0.533200 0.000000
-0.521800 0.000000
-0.510400 0.000000
-0.499100 0.000000
-0.487700 0.000000
-0.476300 0.000000
-0.465000 0.000000
-0.453600 0.000000
-0.442200 0.000000
-0.430800 0.000000
-0.419500 0.000000
-0.408100 0.000000
-0.396700 0.000000
-0.385300 0.000000
-0.374000 0.000000
-0.362600 0.000000
-0.351200 0.000000
-0.339800 0.000000
-0.328500 0.000000
-0.317100 0.000000
-0.305700 0.000000
-0.294400 0.000000
-0.283000 0.000000
-0.271600 0.000000
-0.260200 0.000000
-0.248900 0.000000
-0.237500 0.000000
-0.226100 0.000000
-0.214700 0.000000
-0.203400 0.000000
-0.192000 0.000000
-0.180600 0.000000
-0.169300 0.000000
-0.157900 0.000000
-0.146500 0.000000
-0.135100 0.000000
-0.123800 0.000000
-0.112400 0.000000
-0.101000 0.000000
-0.089600 0.000000
-0.078300 0.000000
-0.066900 0.000000
-0.055500 0.000000
-0.044100 0.000000
-0.032800 0.000000
-0.021400 0.000000
-0.010000 0.000000
0.001300 0.000000
0.012700 0.000000
0.024100 0.000000
0.035500 0.000000
0.046800 0.000000
0.058200 0.000000
0.069600 0.000000
0.081000 0.000000
0.092300 0.000000
0.103700 0.000000
0.115100 0.000000
0.126500 0.000000
0.137800 0.000000
0.149200 0.000000
0.160600 0.000000
0.171900 0.000000
0.183300 0.000000
0.194700 0.000000
0.206100 0.000000
0.217400 0.000000
0.228800 0.000000
0.240200 0.000000
0.251600 0.000000
0.262900 0.000000
0.274300 0.000000
0.285700 0.000000
0.297000 0.000000
0.308400 0.000000
0.319800 0.000000
0.331200 0.000000
0.342500 0.000000
0.353900 0.000000
0.365300 0.000000
0.376700 0.000000
0.388000 0.000000
0.399400 0.000000
0.410800 0.000000
0.422200 0.000000
0.433500 0.000000
0.444900 0.000000
0.456300 0.000000
0.467600 0.000000
0.479000 0.000000
0.490400 0.000000
0.501800 0.000000
0.513100 0.000000
0.524500 0.000000
0.535900 0.000000
0.547300 0.000000
0.558600 0.000000
0.570000 0.000000
0.581400 0.000000
0.592700 0.000000
0.604100 0.000000
0.615500 0.000000
0.626900 0.000000
0.638200 0.000000
0.649600 0.000000
0.661000 0.000000
0.672400 0.000000
0.683700 0.000000
0.695100 0.000000
0.706500 0.000000
0.717900 0.000000
0.729200 0.000000
0.740600 0.000000
0.752000 0.000000
0.763300 0.000000
0.774700 0.000000
0.786100 0.000000
0.797500 0.000000
0.808800 0.000000
0.820200 0.000000
0.831600 0.000000
0.843000 0.000000
0.854300 0.000000
0.865700 0.000000
0.877100 0.000000
0.888500 0.000000
0.899800 0.000000
0.911200 0.000000
0.922600 0.000000
0.933900 0.000000
0.945300 0.000000
0.956700 0.000000
0.968100 0.000000
0.979400 0.000000
0.990800 0.000000
1.002200 0.000000
1.013600 0.000000
1.024900 0.000000
1.036300 0.000000
1.047700 0.000000
1.059000 0.000000
1.070400 0.000000
1.081800 0.000000
1.093200 0.000000
1.104500 0.000000
1.115900 0.000000
1.127300 0.000000
1.138700 0.000000
1.150000 0.000000
1.161400 0.000000
1.172800 0.000000
1.184200 0.000000
1.195500 0.000000
1.206900 0.000000
1.218300 0.000000
1.229600 0.000000
1.241000 0.000000
1.252400 0.000000
1.263800 0.000000
1.275100 0.000000
1.286500 0.000000
1.297900 0.000000
1.309300 0.000000
1.320600 0.000000
1.332000 0.000000
1.343400 0.000000
1.354700 0.000000
1.366100 0.000000
1.377500 0.000000
1.388900 0.000000
1.400200 0.000000
1.411600 0.000000
1.423000 0.000000
1.434400 0.000000
1.445700 0.000000
1.457100 0.000000
1.468500 0.000000
1.479900 0.000000
1.491200 0.000000
1.502600 0.000000
1.514000 0.000000
1.525300 0.000000
1.536700 0.000000
1.548100 0.000000
1.559500 0.000000
1.570800 0.000000
1.582200 0.000000
1.593600 0.000000
1.605000 0.000000
1.616300 0.000000
1.627700 0.000000
1.639100 0.000000
1.650500 0.000000
1.661800 0.000000
1.673200 0.000000
1.684600 0.000000
1.695900 0.000000
1.707300 0.000000
1.718700 0.000000
1.730100 0.000000
1.741400 0.000000
1.752800 0.000000
1.764200 0.000000
1.775600 0.000000
1.786900 0.000000
1.798300 0.000000
1.809700 0.000000
1.821000 0.000000
1.832400 0.000000
1.843800 0.000000
1.855200 0.000000
1.866500 0.007500
1.877900 0.766500
1.889300 2.745000
1.900700 4.646800
1.912000 5.663900
1.923400 6.441300
1.934800 7.564000
1.946200 8.737500
1.957500 9.701700
1.968900 9.577100
1.980300 9.460200
1.991600 9.361500
2.003000 9.281100
2.014400 9.195900
2.025800 9.081900
2.037100 8.936700
2.048500 8.736800
2.059900 8.574900
2.071300 8.455500
2.082600 8.339900
2.094000 8.225200
2.105400 8.082200
2.116700 7.905200
2.128100 7.749000
2.139500 7.608800
2.150900 7.475500
2.162200 7.346700
2.173600 7.222300
2.185000 7.102400
2.196400 6.986800
2.207700 6.875600
2.219100 6.768700
2.230500 6.660800
2.241900 6.495900
2.253200 6.303500
2.264600 6.141000
2.276000 6.025100
2.287300 5.955800
2.298700 5.904400
2.310100 5.849000
2.321500 5.789600
2.332800 5.726200
2.344200 5.658700
2.355600 5.402000
2.367000 5.123300
2.378300 4.849200
2.389700 4.579700
2.401100 4.317400
2.412500 4.069000
2.423800 3.834900
2.435200 3.615100
2.446600 3.504800
2.457900 3.831600
2.469300 3.781600
2.480700 3.049700
2.492100 1.821900
2.503400 0.457600
2.514800 0.556600
2.526200 0.665300
2.537600 0.784700
2.548900 0.915100
2.560300 1.056500
2.571700 1.209000
2.583000 1.372500
2.594400 1.601800
2.605800 1.969900
2.617200 2.340900
2.628500 2.714900
2.639900 3.091800
2.651300 3.471600
2.662700 3.854300
2.674000 4.237500
2.685400 4.617200
2.696800 5.021900
2.708200 5.447100
2.719500 5.918700
2.730900 6.537800
2.742300 7.935500
2.753600 9.262700
2.765000 10.245300
2.776400 10.576900
2.787800 10.782800
2.799100 10.939400
2.810500 11.046700
2.821900 11.104800
2.833300 11.113600
2.844600 11.147800
2.856000 12.875700
2.867400 15.526400
2.878700 11.942500
2.890100 11.447900
2.901500 11.242100
2.912900 11.050800
2.924200 11.457600
2.935600 11.858600
2.947000 13.821700
2.958400 14.152000
2.969700 14.484400
2.981100 14.818900
2.992500 15.155400
3.003900 15.474900
3.015200 15.673800
3.026600 15.620500
3.038000 15.236600
3.049300 12.400100
3.060700 14.829400
3.072100 16.631600
3.083500 17.929900
3.094800 18.942400
3.106200 20.054200
3.117600 21.620700
3.129000 23.826600
3.140300 23.784900
3.151700 22.724700
3.163100 26.533200
3.174500 19.728900
3.185800 16.034300
3.197200 14.407400
3.208600 14.710800
3.219900 13.121800
3.231300 13.006300
3.242700 13.185600
3.254100 13.457300
3.265400 13.876600
3.276800 15.502800
3.288200 17.571700
3.299600 18.745900
3.310900 18.345600
3.322300 17.896600
3.333700 17.380100
3.345000 16.770900
3.356400 16.069000
3.367800 15.296400
3.379200 14.470400
3.390500 13.560000
3.401900 12.864500
3.413300 12.703000
3.424700 12.734100
3.436000 11.781600
3.447400 10.520700
3.458800 10.361400
3.470200 10.312600
3.481500 10.374300
3.492900 10.551500
3.504300 10.803000
3.515600 11.326000
3.527000 12.126200
3.538400 12.832500
3.549800 12.304800
3.561100 11.871500
3.572500 12.051400
3.583900 12.730000
3.595300 13.413500
3.606600 14.089600
3.618000 14.654300
3.629400 14.579000
3.640700 14.916400
3.652100 17.896600
3.663500 19.978300
3.674900 21.705200
3.686200 23.076200
3.697600 25.850400
3.709000 18.411100
3.720400 16.454400
3.731700 16.176900
3.743100 15.072000
3.754500 9.802100
3.765900 5.833000
3.777200 5.068800
3.788600 4.993400
3.800000 5.363400
3.811300 6.337700
3.822700 7.696800
3.834100 8.958700
3.845500 10.123100
3.856800 11.190300
3.868200 12.160100
3.879600 12.874000
3.891000 13.175400
3.902300 13.616700
3.913700 14.679300
3.925100 16.183400
3.936500 18.307200
3.947800 20.163200
3.959200 18.596600
3.970600 16.394800
3.981900 15.755300
3.993300 15.059100
4.004700 16.486900
4.016100 19.611000
4.027400 21.890600
4.038800 23.401300
4.050200 25.974700
4.061600 26.010300
4.072900 25.748800
4.084300 25.403100
4.095700 24.770200
4.107000 23.903100
4.118400 22.626900
4.129800 21.234300
4.141200 18.806200
4.152500 16.968500
4.163900 15.718700
4.175300 14.953400
4.186700 14.171900
4.198000 13.023000
4.209400 11.469900
4.220800 10.491000
4.232200 10.615600
4.243500 11.998900
4.254900 13.450600
4.266300 14.685300
4.277600 15.755400
4.289000 16.661000
4.300400 17.411400
4.311800 18.022500
4.323100 18.478900
4.334500 18.578100
4.345900 18.517600
4.357300 18.467800
4.368600 18.164300
4.380000 17.846100
4.391400 17.898600
4.402800 18.320500
4.414100 18.866400
4.425500 18.680900
4.436900 18.634800
4.448200 12.247700
4.459600 10.901600
4.471000 10.525800
4.482400 9.437300
4.493700 9.010200
4.505100 8.619100
4.516500 8.264200
4.527900 7.945400
4.539200 7.662700
4.550600 7.422700
4.562000 8.244900
4.573300 9.279400
4.584700 10.309400
4.596100 11.335100
4.607500 12.588100
4.618800 13.954800
4.630200 14.953600
4.641600 16.027900
4.653000 16.843600
4.664300 19.035200
4.675700 19.193600
4.687100 18.064100
4.698500 16.896600
4.709800 15.694600
4.721200 14.875100
4.732600 14.214700
4.743900 13.572800
4.755300 12.873500
4.766700 12.182900
4.778100 11.749700
4.789400 11.519000
4.800800 11.188200
4.812200 10.663800
4.823600 9.906700
4.834900 9.050100
4.846300 8.357300
4.857700 7.878400
4.869000 7.613800
4.880400 8.088400
4.891800 9.895700
4.903200 11.257600
4.914500 12.049600
4.925900 17.853200
4.937300 18.032800
4.948700 15.726200
4.960000 15.448700
4.971400 15.604300
4.982800 15.186100
4.994200 13.994100
5.005500 12.594300
5.016900 11.455300
5.028300 10.068300
5.039600 9.053000
5.051000 8.261300
5.062400 7.708400
5.073800 7.320400
5.085100 6.991200
5.096500 6.938800
5.107900 6.915100
5.119300 6.908100
5.130600 6.917700
5.142000 6.944000
5.153400 6.984700
5.164800 7.027000
5.176100 8.650700
5.187500 12.681900
5.198900 18.056000
5.210200 20.243000
5.221600 21.514800
5.233000 20.126200
5.244400 18.532900
5.255700 17.912900
5.267100 17.715300
5.278500 17.485700
5.289900 17.197200
5.301200 16.871300
5.312600 16.556500
5.324000 16.252900
5.335300 15.960600
5.346700 15.581900
5.358100 13.974200
5.369500 12.237400
5.380800 8.798000
5.392200 8.507600
5.403600 10.313400
5.415000 11.230900
5.426300 12.141700
5.437700 13.412100
5.449100 15.146400
5.460500 15.756200
5.471800 16.028700
5.483200 16.208200
5.494600 16.344700
5.505900 16.437600
5.517300 16.327800
5.528700 15.800200
5.540100 14.985800
5.551400 14.147100
5.562800 12.950300
5.574200 11.849900
5.585600 10.937000
5.596900 10.028800
5.608300 9.175500
5.619700 8.374500
5.631000 7.684200
5.642400 7.186300
5.653800 6.880900
5.665200 6.823100
5.676500 7.694500
5.687900 8.472600
5.699300 8.863000
5.710700 9.284700
5.722000 9.737800
5.733400 10.222200
5.744800 10.737900
5.756200 11.285100
5.767500 11.865500
5.778900 12.753800
5.790300 13.512300
5.801600 14.359200
5.813000 15.283900
5.824400 15.538200
5.835800 15.326800
5.847100 15.084600
5.858500 14.839900
5.869900 14.594100
5.881300 14.142000
5.892600 13.657500
5.904000 13.634700
5.915400 13.308000
5.926800 13.364700
5.938100 13.472600
5.949500 13.326600
5.960900 12.774500
5.972200 12.083400
5.983600 11.630000
5.995000 11.135200
6.006400 10.584200
6.017700 9.976800
6.029100 9.188800
6.040500 8.405900
6.051900 7.737200
6.063200 7.490900
6.074600 7.356500
6.086000 7.441200
6.097300 7.775800
6.108700 8.512700
6.120100 12.209100
6.131500 17.286700
6.142800 18.241500
6.154200 18.021500
6.165600 17.464800
6.177000 19.603600
6.188300 19.464000
6.199700 22.182600
6.211100 19.607600
6.222500 18.242700
6.233800 17.154300
6.245200 16.127600
6.256600 14.764900
6.267900 13.539400
6.279300 12.835800
6.290700 13.105700
6.302100 14.876400
6.313400 18.351500
6.324800 22.293100
6.336200 24.076100
6.347600 22.096500
6.358900 19.302600
6.370300 17.430000
6.381700 15.649800
6.393000 14.356300
6.404400 14.302400
6.415800 15.157300
6.427200 15.061400
6.438500 15.028400
6.449900 15.393500
6.461300 17.558800
6.472700 19.666700
6.484000 21.022100
6.495400 21.110200
6.506800 19.831300
6.518200 17.252200
6.529500 15.448500
6.540900 13.790500
6.552300 13.306300
6.563600 12.987600
6.575000 12.746200
6.586400 12.640400
6.597800 12.649400
6.609100 12.763500
6.620500 12.947300
6.631900 13.453400
6.643300 14.004700
6.654600 14.577500
6.666000 15.072900
6.677400 15.443800
6.688800 16.087600
6.700100 16.728400
6.711500 17.164700
6.722900 17.647000
6.734200 18.079300
6.745600 18.319800
6.757000 19.415300
6.768400 20.108800
6.779700 18.423700
6.791100 15.679300
6.802500 14.463400
6.813900 13.605400
6.825200 13.105200
6.836600 12.962900
6.848000 13.162000
6.859300 13.499900
6.870700 13.955800
6.882100 14.512400
6.893500 15.408200
6.904800 16.336100
6.916200 17.145500
6.927600 17.836500
6.939000 18.372100
6.950300 18.873700
6.961700 20.213500
6.973100 19.511200
6.984500 19.306400
6.995800 18.968700
7.007200 17.620200
7.018600 16.569300
7.029900 15.820200
7.041300 15.220400
7.052700 14.665700
7.064100 14.150700
7.075400 13.546300
7.086800 12.441500
7.098200 9.672400
7.109600 8.735000
7.120900 9.116600
7.132300 9.670100
7.143700 10.292700
7.155000 11.040900
7.166400 12.404800
7.177800 13.029700
7.189200 13.061100
7.200500 12.634600
7.211900 12.173600
7.223300 10.714900
7.234700 10.281000
7.246000 10.900400
7.257400 12.727000
7.268800 13.377200
7.280200 14.189300
7.291500 15.256200
7.302900 16.436800
7.314300 16.582900
7.325600 16.322000
7.337000 16.015600
7.348400 16.273600
7.359800 16.019900
7.371100 15.254500
7.382500 14.095300
7.393900 12.705500
7.405300 11.131600
7.416600 10.286100
7.428000 9.680400
7.439400 8.977700
7.450800 8.651200
7.462100 7.902800
7.473500 7.210000
7.484900 6.572900
7.496200 5.991400
7.507600 5.465500
7.519000 4.995200
7.530400 4.580600
7.541700 4.222300
7.553100 3.925400
7.564500 3.593800
7.575900 3.359100
7.587200 3.371000
7.598600 3.462900
7.610000 3.634700
7.621300 3.915100
7.632700 4.918900
7.644100 6.107000
7.655500 7.416800
7.666800 8.632100
7.678200 9.140400
7.689600 9.806000
7.701000 11.631500
7.712300 12.149000
7.723700 12.218800
7.735100 12.263600
7.746500 12.282700
7.757800 12.276200
7.769200 12.243900
7.780600 12.186000
7.791900 12.139300
7.803300 12.198800
7.814700 12.354200
7.826100 12.433000
7.837400 12.413700
7.848800 12.336700
7.860200 12.185000
7.871600 11.325200
7.882900 10.295100
7.894300 9.116000
7.905700 8.359500
7.917000 7.555600
7.928400 6.805500
7.939800 6.109200
7.951200 5.466900
7.962500 5.257800
7.973900 5.114200
7.985300 4.983100
7.996700 4.861000
8.008000 4.748000
8.019400 5.331400
8.030800 5.274500
8.042200 5.251700
8.053500 5.263100
8.064900 5.317300
8.076300 5.510600
8.087600 5.756600
8.099000 6.076100
8.110400 6.469000
8.121800 6.935500
8.133100 7.475500
8.144500 8.005800
8.155900 8.313300
8.167300 8.556400
8.178600 8.735100
8.190000 9.258900
8.201400 9.778100
8.212800 10.084100
8.224100 10.278800
8.235500 10.428900
8.246900 10.560700
8.258200 10.674300
8.269600 10.776500
8.281000 10.844100
8.292400 10.963700
8.303700 11.251300
8.315100 11.687100
8.326500 11.338400
8.337900 10.627700
8.349200 10.343500
8.360600 10.276400
8.372000 10.232800
8.383300 10.191300
8.394700 10.151900
8.406100 10.116600
8.417500 10.115300
8.428800 10.139200
8.440200 10.172800
8.451600 10.216100
8.463000 10.268800
8.474300 10.319400
8.485700 10.362000
8.497100 10.393300
8.508500 10.394700
8.519800 10.485300
8.531200 10.662000
8.542600 10.825200
8.553900 11.318800
8.565300 11.042400
8.576700 10.509400
8.588100 9.826500
8.599400 9.847100
8.610800 9.910200
8.622200 10.255700
8.633600 10.695600
8.644900 11.117300
8.656300 11.520800
8.667700 11.953100
8.679100 12.406100
8.690400 12.974800
8.701800 13.649000
8.713200 14.666300
8.724500 15.993600
8.735900 16.561500
8.747300 17.144900
8.758700 19.060400
8.770000 19.567600
8.781400 19.625100
8.792800 19.578200
8.804200 19.405200
8.815500 14.523500
8.826900 12.977100
8.838300 11.529800
8.849600 10.751800
8.861000 10.673800
8.872400 10.996500
8.883800 11.274900
8.895100 14.556800
8.906500 16.928400
8.917900 19.886500
8.929300 14.894500
8.940600 13.992000
8.952000 13.673300
8.963400 13.444700
8.974800 12.730900
8.986100 12.222300
8.997500 11.931800
9.008900 11.752200
9.020200 11.660100
9.031600 11.655700
9.043000 11.732500
9.054400 11.815800
9.065700 12.057400
9.077100 12.394800
9.088500 12.800500
9.099900 13.236900
9.111200 13.675500
9.122600 13.771100
9.134000 14.008200
9.145300 14.436300
9.156700 14.573000
9.168100 14.387900
9.179500 14.100600
9.190800 13.830800
9.202200 13.567700
9.213600 13.307900
9.225000 13.063500
9.236300 13.079100
9.247700 12.930800
9.259100 12.625200
9.270500 12.182500
9.281800 11.648200
9.293200 11.024000
9.304600 10.309800
9.315900 9.525200
9.327300 10.170500
9.338700 11.157400
9.350100 12.132700
9.361400 13.117600
9.372800 15.182900
9.384200 16.581700
9.395600 17.046100
9.406900 16.989600
9.418300 16.733600
9.429700 16.406000
9.441100 11.487800
9.452400 10.971500
9.463800 11.341400
9.475200 11.817100
9.486500 12.219800
9.497900 12.490000
9.509300 12.682900
9.520700 12.798500
9.532000 12.836800
9.543400 12.797800
9.554800 12.682200
9.566200 12.494700
9.577500 12.236200
9.588900 11.957300
9.600300 11.698000
9.611600 11.447500
9.623000 11.074200
9.634400 10.577100
9.645800 9.956100
9.657100 9.684200
9.668500 8.874200
9.679900 8.375500
9.691300 8.974400
9.702600 9.924900
9.714000 10.779100
9.725400 11.942800
9.736800 12.254300
9.748100 13.148900
9.759500 15.334400
9.770900 16.976300
9.782200 17.859700
9.793600 18.466400
9.805000 18.635500
9.816400 18.027700
9.827700 15.349000
9.839100 13.259300
9.850500 12.700600
9.861900 12.369700
9.873200 11.974400
9.884600 11.514800
9.896000 10.990900
9.907300 10.454500
9.918700 9.932700
9.930100 9.410700
9.941500 8.881700
9.952800 8.345800
9.964200 7.802900
9.975600 7.253000
9.987000 6.696100
9.998300 6.137300
10.009700 5.623300
10.021100 5.092300
10.032500 4.637900
10.043800 4.170200
10.055200 3.689200
10.066600 3.195100
10.077900 2.766100
10.089300 2.430100
10.100700 2.106200
10.112100 1.791400
10.123400 1.485800
10.134800 1.189300
10.146200 0.893200
10.157600 0.624000
10.168900 0.402900
10.180300 0.230000
10.191700 0.105300
10.203100 0.028700
10.214400 0.000200
10.225800 0.000000
10.237200 0.000000
10.248500 0.000000
10.259900 0.000000
10.271300 0.000000
10.282700 0.000000
10.294000 0.000000
10.305400 0.000000
10.316800 0.000000
10.328200 0.000000
10.339500 0.000000
10.350900 0.000000
10.362300 0.000000
10.373600 0.000000
10.385000 0.000000
10.396400 0.000000
10.407800 0.000000
10.419100 0.000000
10.430500 0.000000
10.441900 0.000000
10.453300 0.000000
10.464600 0.000000
10.476000 0.000000
10.487400 0.000000
10.498800 0.000000
10.510100 0.000000
10.521500 0.000000
10.532900 0.000000
10.544200 0.000000
10.555600 0.000000
10.567000 0.000000
10.578400 0.000000
10.589700 0.000000
10.601100 0.000000
10.612500 0.000000
10.623900 0.000000
10.635200 0.000000
10.646600 0.000000
10.658000 0.000000
10.669300 0.000000
10.680700 0.000000
10.692100 0.000000
10.703500 0.000000
10.714800 0.000000
10.726200 0.000000
10.737600 0.000000
10.749000 0.000000
10.760300 0.000000
10.771700 0.000000
10.783100 0.000000
10.794500 0.000000
10.805800 0.000000
10.817200 0.000000
10.828600 0.000000
10.839900 0.000000
10.851300 0.000000
10.862700 0.000000
10.874100 0.000000
10.885400 0.000000
10.896800 0.000000
10.908200 0.000000
10.919600 0.000000
10.930900 0.000000
10.942300 0.000000
10.953700 0.000000
10.965100 0.000000
10.976400 0.000000
10.987800 0.000000
10.999200 0.000000
11.010500 0.000000
11.021900 0.000000
11.033300 0.000000
11.044700 0.000000
11.056000 0.000000
11.067400 0.000000
11.078800 0.000000
11.090200 0.000000
11.101500 0.000000
11.112900 0.000000
11.124300 0.000000
11.135600 0.000000
11.147000 0.000000
11.158400 0.000000
11.169800 0.000000
11.181100 0.000000
11.192500 0.000000
11.203900 0.000000
11.215300 0.000000
11.226600 0.000000
11.238000 0.000000
11.249400 0.000000
e
