set title 'mp-1064227 - Density of States'
set xlabel 'Energy (eV)'
set ylabel 'DOS (states/eV)'
set grid
set xrange [-10:10]
set yrange [0:11.230]
set xzeroaxis lt -1
set terminal png size 800,600
set output 'mp-1064227_dos_gnuplot.png'
plot '-' using 1:2 with lines title 'DOS'
-44.289500 0.000000
-44.242500 0.000000
-44.195600 0.000000
-44.148600 0.000000
-44.101700 0.000000
-44.054800 0.000000
-44.007800 0.000000
-43.960900 0.000000
-43.913900 0.000000
-43.867000 0.000000
-43.820000 0.000000
-43.773100 0.000000
-43.726200 0.000000
-43.679200 0.000000
-43.632300 0.000000
-43.585300 0.000000
-43.538400 0.000000
-43.491400 0.000000
-43.444500 0.000000
-43.397500 0.000000
-43.350600 0.000000
-43.303700 0.000000
-43.256700 0.000000
-43.209800 0.000000
-43.162800 0.000000
-43.115900 0.000000
-43.068900 0.000000
-43.022000 0.000000
-42.975100 0.000000
-42.928100 0.000000
-42.881200 0.000000
-42.834200 0.000000
-42.787300 0.000000
-42.740300 0.000000
-42.693400 0.000000
-42.646400 0.000000
-42.599500 0.000000
-42.552600 0.000000
-42.505600 0.000000
-42.458700 0.000000
-42.411700 0.000000
-42.364800 0.000000
-42.317800 0.000000
-42.270900 0.000000
-42.224000 0.000000
-42.177000 0.000000
-42.130100 0.000000
-42.083100 0.000000
-42.036200 0.000000
-41.989200 0.000000
-41.942300 0.000000
-41.895300 0.000000
-41.848400 0.000000
-41.801500 0.000000
-41.754500 0.000000
-41.707600 0.000000
-41.660600 0.000000
-41.613700 0.000000
-41.566700 0.000000
-41.519800 0.000000
-41.472900 0.000000
-41.425900 0.000000
-41.379000 0.000000
-41.332000 0.000000
-41.285100 0.000000
-41.238100 0.000000
-41.191200 0.000000
-41.144200 0.000000
-41.097300 0.000000
-41.050400 0.000000
-41.003400 0.000000
-40.956500 0.000000
-40.909500 0.000000
-40.862600 0.000000
-40.815600 0.000000
-40.768700 0.000000
-40.721800 0.000000
-40.674800 0.000000
-40.627900 0.000000
-40.580900 0.000000
-40.534000 0.000000
-40.487000 0.000000
-40.440100 0.000000
-40.393100 0.000000
-40.346200 0.000000
-40.299300 0.000000
-40.252300 0.000000
-40.205400 0.000000
-40.158400 0.000000
-40.111500 0.000000
-40.064500 0.000000
-40.017600 58.552700
-39.970700 0.000000
-39.923700 0.000000
-39.876800 0.000000
-39.829800 0.000000
-39.782900 0.000000
-39.735900 0.000000
-39.689000 0.000000
-39.642000 0.000000
-39.595100 0.000000
-39.548200 0.000000
-39.501200 0.000000
-39.454300 0.000000
-39.407300 0.000000
-39.360400 0.000000
-39.313400 0.000000
-39.266500 0.000000
-39.219600 0.000000
-39.172600 0.000000
-39.125700 0.000000
-39.078700 0.000000
-39.031800 0.000000
-38.984800 0.000000
-38.937900 0.000000
-38.890900 0.000000
-38.844000 0.000000
-38.797100 0.000000
-38.750100 0.000000
-38.703200 0.000000
-38.656200 0.000000
-38.609300 0.000000
-38.562300 0.000000
-38.515400 0.000000
-38.468500 0.000000
-38.421500 0.000000
-38.374600 0.000000
-38.327600 0.000000
-38.280700 0.000000
-38.233700 0.000000
-38.186800 0.000000
-38.139800 0.000000
-38.092900 0.000000
-38.046000 0.000000
-37.999000 0.000000
-37.952100 0.000000
-37.905100 0.000000
-37.858200 0.000000
-37.811200 0.000000
-37.764300 0.000000
-37.717400 0.000000
-37.670400 0.000000
-37.623500 0.000000
-37.576500 0.000000
-37.529600 0.000000
-37.482600 0.000000
-37.435700 0.000000
-37.388700 0.000000
-37.341800 0.000000
-37.294900 0.000000
-37.247900 0.000000
-37.201000 0.000000
-37.154000 0.000000
-37.107100 0.000000
-37.060100 0.000000
-37.013200 0.000000
-36.966300 0.000000
-36.919300 0.000000
-36.872400 0.000000
-36.825400 0.000000
-36.778500 0.000000
-36.731500 0.000000
-36.684600 0.000000
-36.637600 0.000000
-36.590700 0.000000
-36.543800 0.000000
-36.496800 0.000000
-36.449900 0.000000
-36.402900 0.000000
-36.356000 0.000000
-36.309000 0.000000
-36.262100 0.000000
-36.215200 0.000000
-36.168200 0.000000
-36.121300 0.000000
-36.074300 0.000000
-36.027400 0.000000
-35.980400 0.000000
-35.933500 0.000000
-35.886500 0.000000
-35.839600 0.000000
-35.792700 0.000000
-35.745700 0.000000
-35.698800 0.000000
-35.651800 0.000000
-35.604900 0.000000
-35.557900 0.000000
-35.511000 0.000000
-35.464100 0.000000
-35.417100 0.000000
-35.370200 0.000000
-35.323200 0.000000
-35.276300 0.000000
-35.229300 0.000000
-35.182400 0.000000
-35.135400 0.000000
-35.088500 0.000000
-35.041600 0.000000
-34.994600 0.000000
-34.947700 0.000000
-34.900700 0.000000
-34.853800 0.000000
-34.806800 0.000000
-34.759900 0.000000
-34.713000 0.000000
-34.666000 0.000000
-34.619100 0.000000
-34.572100 0.000000
-34.525200 0.000000
-34.478200 0.000000
-34.431300 0.000000
-34.384300 0.000000
-34.337400 0.000000
-34.290500 0.000000
-34.243500 0.000000
-34.196600 0.000000
-34.149600 0.000000
-34.102700 0.000000
-34.055700 0.000000
-34.008800 0.000000
-33.961900 0.000000
-33.914900 0.000000
-33.868000 0.000000
-33.821000 0.000000
-33.774100 0.000000
-33.727100 0.000000
-33.680200 0.000000
-33.633200 0.000000
-33.586300 0.000000
-33.539400 0.000000
-33.492400 0.000000
-33.445500 0.000000
-33.398500 0.000000
-33.351600 0.000000
-33.304600 0.000000
-33.257700 0.000000
-33.210800 0.000000
-33.163800 0.000000
-33.116900 0.000000
-33.069900 0.000000
-33.023000 0.000000
-32.976000 0.000000
-32.929100 0.000000
-32.882200 0.000000
-32.835200 0.000000
-32.788300 0.000000
-32.741300 0.000000
-32.694400 0.000000
-32.647400 0.000000
-32.600500 0.000000
-32.553500 0.000000
-32.506600 0.000000
-32.459700 0.000000
-32.412700 0.000000
-32.365800 0.000000
-32.318800 0.000000
-32.271900 0.000000
-32.224900 0.000000
-32.178000 0.000000
-32.131100 0.000000
-32.084100 0.000000
-32.037200 0.000000
-31.990200 0.000000
-31.943300 0.000000
-31.896300 0.000000
-31.849400 0.000000
-31.802400 0.000000
-31.755500 0.000000
-31.708600 0.000000
-31.661600 0.000000
-31.614700 0.000000
-31.567700 0.000000
-31.520800 0.000000
-31.473800 0.000000
-31.426900 0.000000
-31.380000 0.000000
-31.333000 0.000000
-31.286100 0.000000
-31.239100 0.000000
-31.192200 0.000000
-31.145200 0.000000
-31.098300 0.000000
-31.051300 0.000000
-31.004400 0.000000
-30.957500 0.000000
-30.910500 0.000000
-30.863600 0.000000
-30.816600 0.000000
-30.769700 0.000000
-30.722700 0.000000
-30.675800 0.000000
-30.628900 0.000000
-30.581900 0.000000
-30.535000 0.000000
-30.488000 0.000000
-30.441100 0.000000
-30.394100 0.000000
-30.347200 0.000000
-30.300200 0.000000
-30.253300 0.000000
-30.206400 0.000000
-30.159400 0.000000
-30.112500 0.000000
-30.065500 0.000000
-30.018600 0.000000
-29.971600 0.000000
-29.924700 0.000000
-29.877800 0.000000
-29.830800 0.000000
-29.783900 0.000000
-29.736900 0.000000
-29.690000 0.000000
-29.643000 0.000000
-29.596100 0.000000
-29.549100 0.000000
-29.502200 0.000000
-29.455300 0.000000
-29.408300 0.000000
-29.361400 0.000000
-29.314400 0.000000
-29.267500 0.000000
-29.220500 0.000000
-29.173600 0.000000
-29.126700 0.000000
-29.079700 0.000000
-29.032800 0.000000
-28.985800 0.000000
-28.938900 0.000000
-28.891900 0.000000
-28.845000 0.000000
-28.798000 0.000000
-28.751100 0.000000
-28.704200 0.000000
-28.657200 0.000000
-28.610300 0.000000
-28.563300 0.000000
-28.516400 0.000000
-28.469400 0.000000
-28.422500 0.000000
-28.375600 0.000000
-28.328600 0.000000
-28.281700 0.000000
-28.234700 0.000000
-28.187800 0.000000
-28.140800 0.000000
-28.093900 0.000000
-28.046900 0.000000
-28.000000 0.000000
-27.953100 0.000000
-27.906100 0.000000
-27.859200 0.000000
-27.812200 0.000000
-27.765300 0.000000
-27.718300 0.000000
-27.671400 0.000000
-27.624500 0.000000
-27.577500 0.000000
-27.530600 0.000000
-27.483600 0.000000
-27.436700 0.000000
-27.389700 0.000000
-27.342800 0.000000
-27.295800 0.000000
-27.248900 0.000000
-27.202000 0.000000
-27.155000 0.000000
-27.108100 0.000000
-27.061100 0.000000
-27.014200 0.000000
-26.967200 0.000000
-26.920300 0.000000
-26.873400 0.000000
-26.826400 0.000000
-26.779500 0.000000
-26.732500 0.000000
-26.685600 0.000000
-26.638600 0.000000
-26.591700 0.000000
-26.544700 0.000000
-26.497800 0.000000
-26.450900 0.000000
-26.403900 0.000000
-26.357000 0.000000
-26.310000 0.000000
-26.263100 0.000000
-26.216100 0.000000
-26.169200 0.000000
-26.122300 0.000000
-26.075300 0.000000
-26.028400 0.000000
-25.981400 0.000000
-25.934500 0.000000
-25.887500 0.000000
-25.840600 0.000000
-25.793600 0.000000
-25.746700 0.000000
-25.699800 0.000000
-25.652800 0.000000
-25.605900 0.000000
-25.558900 0.000000
-25.512000 0.000000
-25.465000 0.000000
-25.418100 0.000000
-25.371200 0.000000
-25.324200 0.000000
-25.277300 0.000000
-25.230300 0.000000
-25.183400 0.000000
-25.136400 0.000000
-25.089500 0.000000
-25.042500 0.000000
-24.995600 0.000000
-24.948700 0.000000
-24.901700 0.000000
-24.854800 0.000000
-24.807800 0.000000
-24.760900 0.000000
-24.713900 0.000000
-24.667000 0.000000
-24.620100 0.000000
-24.573100 0.000000
-24.526200 0.000000
-24.479200 0.000000
-24.432300 0.000000
-24.385300 0.000000
-24.338400 0.000000
-24.291400 0.000000
-24.244500 0.000000
-24.197600 0.000000
-24.150600 0.000000
-24.103700 0.000000
-24.056700 0.000000
-24.009800 0.000000
-23.962800 0.000000
-23.915900 0.000000
-23.869000 0.000000
-23.822000 0.000000
-23.775100 0.000000
-23.728100 0.000000
-23.681200 0.000000
-23.634200 0.000000
-23.587300 0.000000
-23.540300 0.000000
-23.493400 0.000000
-23.446500 0.000000
-23.399500 0.000000
-23.352600 0.000000
-23.305600 0.000000
-23.258700 0.000000
-23.211700 0.000000
-23.164800 0.000000
-23.117900 0.000000
-23.070900 0.000000
-23.024000 0.000000
-22.977000 0.000000
-22.930100 0.000000
-22.883100 0.000000
-22.836200 0.000000
-22.789200 0.000000
-22.742300 0.000000
-22.695400 0.000000
-22.648400 0.000000
-22.601500 0.000000
-22.554500 0.000000
-22.507600 0.000000
-22.460600 0.000000
-22.413700 0.000000
-22.366800 0.000000
-22.319800 0.000000
-22.272900 0.000000
-22.225900 0.000000
-22.179000 0.000000
-22.132000 0.000000
-22.085100 0.000000
-22.038100 0.000000
-21.991200 0.000000
-21.944300 0.000000
-21.897300 0.000000
-21.850400 0.000000
-21.803400 0.000000
-21.756500 0.000000
-21.709500 0.000000
-21.662600 0.000000
-21.615700 0.000000
-21.568700 0.000000
-21.521800 0.000000
-21.474800 0.000000
-21.427900 0.000000
-21.380900 0.000000
-21.334000 0.000000
-21.287000 0.000000
-21.240100 0.000000
-21.193200 0.000000
-21.146200 0.000000
-21.099300 111.417300
-21.052300 87.230000
-21.005400 112.449100
-20.958400 0.000000
-20.911500 0.000000
-20.864600 0.000000
-20.817600 0.000000
-20.770700 0.000000
-20.723700 0.000000
-20.676800 0.000000
-20.629800 0.000000
-20.582900 0.000000
-20.535900 0.000000
-20.489000 0.000000
-20.442100 0.000000
-20.395100 0.000000
-20.348200 0.000000
-20.301200 0.000000
-20.254300 0.000000
-20.207300 0.000000
-20.160400 0.000000
-20.113500 0.000000
-20.066500 0.000000
-20.019600 0.000000
-19.972600 0.000000
-19.925700 0.000000
-19.878700 0.000000
-19.831800 0.000000
-19.784800 0.000000
-19.737900 0.000000
-19.691000 0.000000
-19.644000 0.000000
-19.597100 0.000000
-19.550100 0.000000
-19.503200 0.000000
-19.456200 0.000000
-19.409300 0.000000
-19.362400 0.000000
-19.315400 0.000000
-19.268500 0.000000
-19.221500 0.000000
-19.174600 0.000000
-19.127600 0.000000
-19.080700 0.000000
-19.033700 0.000000
-18.986800 0.000000
-18.939900 0.000000
-18.892900 0.000000
-18.846000 0.000000
-18.799000 0.000000
-18.752100 0.000000
-18.705100 0.000000
-18.658200 0.000000
-18.611300 0.000000
-18.564300 0.000000
-18.517400 0.000000
-18.470400 0.000000
-18.423500 0.000000
-18.376500 0.000000
-18.329600 0.000000
-18.282600 0.000000
-18.235700 0.000000
-18.188800 0.000000
-18.141800 0.000000
-18.094900 0.000000
-18.047900 0.000000
-18.001000 0.000000
-17.954000 0.000000
-17.907100 0.000000
-17.860200 0.000000
-17.813200 0.000000
-17.766300 0.000000
-17.719300 0.000000
-17.672400 0.000000
-17.625400 0.000000
-17.578500 0.000000
-17.531500 0.000000
-17.484600 0.000000
-17.437700 0.000000
-17.390700 0.000000
-17.343800 0.000000
-17.296800 0.000000
-17.249900 0.000000
-17.202900 0.000000
-17.156000 0.000000
-17.109100 0.000000
-17.062100 0.000000
-17.015200 0.000000
-16.968200 0.000000
-16.921300 0.000000
-16.874300 0.000000
-16.827400 0.000000
-16.780400 0.000000
-16.733500 0.000000
-16.686600 0.000000
-16.639600 0.000000
-16.592700 0.000000
-16.545700 0.000000
-16.498800 0.000000
-16.451800 0.000000
-16.404900 0.000000
-16.358000 0.000000
-16.311000 0.000000
-16.264100 0.000000
-16.217100 0.000000
-16.170200 0.000000
-16.123200 0.000000
-16.076300 0.000000
-16.029300 0.000000
-15.982400 0.000000
-15.935500 0.000000
-15.888500 0.000000
-15.841600 0.000000
-15.794600 0.000000
-15.747700 0.000000
-15.700700 0.000000
-15.653800 0.000000
-15.606900 0.000000
-15.559900 0.000000
-15.513000 0.000000
-15.466000 0.000000
-15.419100 0.000000
-15.372100 0.000000
-15.325200 0.000000
-15.278200 0.000000
-15.231300 0.000000
-15.184400 0.000000
-15.137400 0.000000
-15.090500 0.000000
-15.043500 0.000000
-14.996600 0.000000
-14.949600 0.000000
-14.902700 0.000000
-14.855800 0.000000
-14.808800 0.000000
-14.761900 0.000000
-14.714900 0.000000
-14.668000 0.000000
-14.621000 0.000000
-14.574100 0.000000
-14.527100 0.000000
-14.480200 0.000000
-14.433300 0.000000
-14.386300 0.000000
-14.339400 0.000000
-14.292400 0.000000
-14.245500 0.000000
-14.198500 0.000000
-14.151600 0.000000
-14.104700 0.000000
-14.057700 0.000000
-14.010800 0.000000
-13.963800 0.000000
-13.916900 0.000000
-13.869900 0.000000
-13.823000 0.000000
-13.776000 0.000000
-13.729100 0.000000
-13.682200 0.000000
-13.635200 0.000000
-13.588300 0.000000
-13.541300 0.000000
-13.494400 0.000000
-13.447400 0.000000
-13.400500 0.000000
-13.353600 0.000000
-13.306600 0.000000
-13.259700 0.000000
-13.212700 0.000000
-13.165800 0.000000
-13.118800 0.000000
-13.071900 0.000000
-13.024900 0.000000
-12.978000 0.000000
-12.931100 0.000000
-12.884100 0.000000
-12.837200 0.000000
-12.790200 0.000000
-12.743300 0.000000
-12.696300 0.000000
-12.649400 0.000000
-12.602500 0.000000
-12.555500 0.000000
-12.508600 0.000000
-12.461600 0.000000
-12.414700 0.000000
-12.367700 0.000000
-12.320800 0.000000
-12.273800 0.000000
-12.226900 0.000000
-12.180000 0.000000
-12.133000 0.000000
-12.086100 0.000000
-12.039100 0.000000
-11.992200 0.000000
-11.945200 0.000000
-11.898300 0.000000
-11.851400 0.000000
-11.804400 0.000000
-11.757500 0.000000
-11.710500 0.000000
-11.663600 0.000000
-11.616600 0.000000
-11.569700 0.000000
-11.522700 0.000000
-11.475800 0.000000
-11.428900 0.000000
-11.381900 0.000000
-11.335000 0.000000
-11.288000 0.000000
-11.241100 0.000000
-11.194100 0.000000
-11.147200 0.000000
-11.100300 0.000000
-11.053300 0.000000
-11.006400 0.000000
-10.959400 0.000000
-10.912500 0.000000
-10.865500 0.000000
-10.818600 0.000000
-10.771600 0.000000
-10.724700 0.000000
-10.677800 0.000000
-10.630800 0.000000
-10.583900 0.000000
-10.536900 0.000000
-10.490000 0.000000
-10.443000 0.000000
-10.396100 0.000000
-10.349200 0.000000
-10.302200 0.000000
-10.255300 0.000000
-10.208300 0.000000
-10.161400 0.000000
-10.114400 0.000000
-10.067500 0.000000
-10.020500 0.000000
-9.973600 0.000000
-9.926700 0.000000
-9.879700 0.000000
-9.832800 0.000000
-9.785800 0.000000
-9.738900 0.000000
-9.691900 0.000000
-9.645000 0.000000
-9.598100 0.000000
-9.551100 0.000000
-9.504200 0.000000
-9.457200 0.000000
-9.410300 0.000000
-9.363300 0.000000
-9.316400 0.000000
-9.269400 0.000000
-9.222500 0.000000
-9.175600 0.000000
-9.128600 0.000000
-9.081700 0.000000
-9.034700 0.000000
-8.987800 0.000000
-8.940800 0.000000
-8.893900 0.000000
-8.847000 0.000000
-8.800000 0.000000
-8.753100 0.000000
-8.706100 0.000000
-8.659200 0.000000
-8.612200 0.000000
-8.565300 0.000000
-8.518300 0.000000
-8.471400 0.000000
-8.424500 0.000000
-8.377500 0.000000
-8.330600 0.000000
-8.283600 0.000000
-8.236700 0.000000
-8.189700 0.000000
-8.142800 0.000000
-8.095900 0.000000
-8.048900 0.000000
-8.002000 0.000000
-7.955000 0.000000
-7.908100 0.000000
-7.861100 0.000000
-7.814200 0.000000
-7.767200 0.000000
-7.720300 0.000000
-7.673400 0.000000
-7.626400 0.000000
-7.579500 0.000000
-7.532500 0.000000
-7.485600 0.000000
-7.438600 0.000000
-7.391700 0.000000
-7.344800 0.000000
-7.297800 0.000000
-7.250900 0.000000
-7.203900 0.000000
-7.157000 0.000000
-7.110000 0.000000
-7.063100 0.000000
-7.016100 0.000000
-6.969200 0.000000
-6.922300 0.000000
-6.875300 0.000000
-6.828400 0.000000
-6.781400 0.000000
-6.734500 0.000000
-6.687500 0.000000
-6.640600 0.000000
-6.593700 0.000000
-6.546700 0.000000
-6.499800 0.000000
-6.452800 0.000000
-6.405900 0.000000
-6.358900 0.000000
-6.312000 0.000000
-6.265000 0.000000
-6.218100 0.000000
-6.171200 0.000000
-6.124200 0.000000
-6.077300 0.000000
-6.030300 0.000000
-5.983400 0.000000
-5.936400 0.000000
-5.889500 0.000000
-5.842600 0.000000
-5.795600 0.000000
-5.748700 0.000000
-5.701700 0.000000
-5.654800 0.000000
-5.607800 0.000000
-5.560900 0.000000
-5.513900 0.000000
-5.467000 0.000000
-5.420100 0.000000
-5.373100 0.000000
-5.326200 0.000000
-5.279200 0.000000
-5.232300 0.000000
-5.185300 0.000000
-5.138400 0.000000
-5.091500 0.000000
-5.044500 0.000000
-4.997600 0.000000
-4.950600 0.000000
-4.903700 0.000000
-4.856700 0.000000
-4.809800 0.000000
-4.762800 0.000000
-4.715900 0.000000
-4.669000 0.000000
-4.622000 0.000000
-4.575100 0.000000
-4.528100 0.000000
-4.481200 0.000000
-4.434200 0.000000
-4.387300 0.000000
-4.340400 0.000000
-4.293400 0.000000
-4.246500 0.000000
-4.199500 0.000000
-4.152600 0.000000
-4.105600 0.000000
-4.058700 0.000000
-4.011700 0.000000
-3.964800 0.000000
-3.917900 0.000000
-3.870900 0.000000
-3.824000 0.000000
-3.777000 0.000000
-3.730100 0.000000
-3.683100 0.000000
-3.636200 0.000000
-3.589300 0.000000
-3.542300 0.000000
-3.495400 0.000000
-3.448400 0.000000
-3.401500 0.000000
-3.354500 0.000000
-3.307600 0.000000
-3.260600 0.000000
-3.213700 0.000000
-3.166800 0.000000
-3.119800 0.000000
-3.072900 0.000000
-3.025900 0.000000
-2.979000 0.000000
-2.932000 0.000000
-2.885100 0.000000
-2.838200 0.000000
-2.791200 0.000000
-2.744300 0.000000
-2.697300 0.000000
-2.650400 0.000000
-2.603400 0.000000
-2.556500 0.000000
-2.509500 0.000000
-2.462600 0.000000
-2.415700 0.000000
-2.368700 0.000000
-2.321800 0.000000
-2.274800 0.000000
-2.227900 0.000000
-2.180900 0.000000
-2.134000 0.000000
-2.087100 0.000000
-2.040100 0.020700
-1.993200 0.109700
-1.946200 0.152600
-1.899300 0.166700
-1.852300 0.202200
-1.805400 0.239700
-1.758400 0.265300
-1.711500 0.275500
-1.664600 0.292300
-1.617600 0.313400
-1.570700 0.334700
-1.523700 0.356300
-1.476800 0.379600
-1.429800 0.396200
-1.382900 0.408700
-1.336000 0.424200
-1.289000 0.438900
-1.242100 0.453700
-1.195100 0.470600
-1.148200 0.488800
-1.101200 0.507600
-1.054300 0.526600
-1.007300 0.543100
-0.960400 0.555600
-0.913500 0.568600
-0.866500 0.583800
-0.819600 0.599000
-0.772600 0.614600
-0.725700 0.630800
-0.678700 0.647300
-0.631800 0.664200
-0.584900 0.681400
-0.537900 0.698600
-0.491000 0.716000
-0.444000 0.731900
-0.397100 0.748100
-0.350100 0.764500
-0.303200 0.780900
-0.256200 0.797900
-0.209300 0.815300
-0.162400 0.832900
-0.115400 0.850900
-0.068500 0.870000
-0.021500 0.890100
0.025400 0.910500
0.072400 0.931300
0.119300 0.952400
0.166200 0.973600
0.213200 0.995100
0.260100 1.017200
0.307100 1.039600
0.354000 1.063400
0.401000 1.090100
0.447900 1.119300
0.494900 1.150200
0.541800 1.182800
0.588700 1.216800
0.635700 1.256700
0.682600 1.350400
0.729600 1.397900
0.776500 1.433900
0.823500 1.467200
0.870400 1.566500
0.917300 1.655100
0.964300 1.556200
1.011200 1.539100
1.058200 1.505900
1.105100 1.499100
1.152100 1.494900
1.199000 1.488000
1.246000 1.488100
1.292900 1.487300
1.339800 1.654000
1.386800 2.243600
1.433700 1.957200
1.480700 1.924900
1.527600 1.747400
1.574600 1.767100
1.621500 2.181100
1.668400 1.887400
1.715400 1.699200
1.762300 1.654900
1.809300 1.776900
1.856200 1.782700
1.903200 1.840500
1.950100 1.749000
1.997100 1.959900
2.044000 1.317400
2.090900 2.314200
2.137900 4.291500
2.184800 5.025200
2.231800 5.877200
2.278700 4.220900
2.325700 5.483600
2.372600 7.558900
2.419500 5.346500
2.466500 4.002000
2.513400 3.217900
2.560400 2.936200
2.607300 2.643900
2.654300 2.427900
2.701200 2.298000
2.748200 2.173300
2.795100 2.076300
2.842000 2.008800
2.889000 1.943700
2.935900 1.934500
2.982900 1.974500
3.029800 2.035200
3.076800 2.172200
3.123700 2.359800
3.170600 2.845800
3.217600 3.191800
3.264500 3.360700
3.311500 4.100700
3.358400 4.400000
3.405400 4.796400
3.452300 4.566200
3.499300 4.639200
3.546200 4.927600
3.593100 5.333800
3.640100 5.793200
3.687000 7.181600
3.734000 6.619700
3.780900 5.911700
3.827900 4.077400
3.874800 3.566200
3.921700 3.044900
3.968700 3.362400
4.015600 3.311700
4.062600 3.334000
4.109500 3.246200
4.156500 3.440600
4.203400 3.644200
4.250400 4.127600
4.297300 3.865900
4.344200 3.866700
4.391200 4.228200
4.438100 4.797400
4.485100 5.402300
4.532000 4.709800
4.579000 3.540000
4.625900 3.494500
4.672800 3.252100
4.719800 2.984600
4.766700 3.087600
4.813700 3.391600
4.860600 3.366800
4.907600 3.308200
4.954500 3.415600
5.001500 3.536400
5.048400 3.492100
5.095300 3.488800
5.142300 3.575200
5.189200 3.567500
5.236200 3.659000
5.283100 3.818600
5.330100 4.070700
5.377000 4.270800
5.423900 5.012400
5.470900 5.606200
5.517800 6.160600
5.564800 5.140700
5.611700 5.302200
5.658700 7.907700
5.705600 7.872000
5.752500 7.701300
5.799500 8.965800
5.846400 9.395000
5.893400 10.209100
5.940300 9.461400
5.987300 8.756000
6.034200 5.556700
6.081200 5.198200
6.128100 5.233400
6.175000 4.897700
6.222000 5.167600
6.268900 5.299600
6.315900 4.133200
6.362800 3.690500
6.409800 4.650700
6.456700 3.024400
6.503600 2.154300
6.550600 1.723700
6.597500 1.514100
6.644500 1.368100
6.691400 1.284400
6.738400 1.062900
6.785300 0.678300
6.832300 0.496800
6.879200 0.567000
6.926100 0.952800
6.973100 1.914600
7.020000 3.438400
7.067000 4.149900
7.113900 4.655200
7.160900 3.707900
7.207800 3.476000
7.254700 2.509400
7.301700 2.701500
7.348600 3.072400
7.395600 3.281900
7.442500 3.288500
7.489500 2.822800
7.536400 2.428000
7.583400 2.208200
7.630300 2.129800
7.677200 2.160000
7.724200 2.134800
7.771100 2.173200
7.818100 2.295000
7.865000 2.211100
7.912000 2.193500
7.958900 2.302200
8.005800 2.271300
8.052800 2.200900
8.099700 2.149100
8.146700 2.132100
8.193600 2.069100
8.240600 2.017900
8.287500 1.959700
8.334500 1.870700
8.381400 1.811500
8.428300 1.772900
8.475300 1.742400
8.522200 1.741000
8.569200 1.739900
8.616100 1.748100
8.663100 1.760100
8.710000 1.766300
8.756900 1.801700
8.803900 1.856700
8.850800 1.879700
8.897800 1.916500
8.944700 1.980600
8.991700 2.019700
9.038600 2.040900
9.085600 2.046600
9.132500 2.055200
9.179400 2.049700
9.226400 2.048600
9.273300 2.070400
9.320300 2.181200
9.367200 2.163500
9.414200 2.105300
9.461100 2.060500
9.508000 2.097000
9.555000 2.135500
9.601900 2.154600
9.648900 2.166000
9.695800 2.323200
9.742800 2.462700
9.789700 2.698200
9.836700 2.778500
9.883600 2.843600
9.930500 2.800700
9.977500 2.698700
10.024400 2.729700
10.071400 2.762000
10.118300 2.860600
10.165300 2.975100
10.212200 3.113400
10.259100 3.341900
10.306100 3.242900
10.353000 3.232100
10.400000 3.180000
10.446900 3.135100
10.493900 3.118800
10.540800 3.087400
10.587800 3.023400
10.634700 2.991500
10.681600 2.968600
10.728600 2.935700
10.775500 2.819900
10.822500 2.728300
10.869400 2.719100
10.916400 2.742800
10.963300 2.726300
11.010200 2.671100
11.057200 2.685500
11.104100 2.556500
11.151100 2.323800
11.198000 2.160300
11.245000 2.058500
11.291900 1.979400
11.338900 1.935900
11.385800 1.940900
11.432700 1.938400
11.479700 1.922600
11.526600 1.915400
11.573600 1.905300
11.620500 1.869600
11.667500 1.855800
11.714400 1.850600
11.761300 1.869300
11.808300 1.911400
11.855200 1.953500
11.902200 2.025200
11.949100 2.136400
11.996100 2.249900
12.043000 2.183400
12.090000 2.162100
12.136900 2.223400
12.183800 2.197000
12.230800 2.242100
12.277700 2.341900
12.324700 2.436500
12.371600 2.460700
12.418600 2.440900
12.465500 2.430300
12.512400 2.400900
12.559400 2.445500
12.606300 2.560600
12.653300 2.440300
12.700200 2.319200
12.747200 2.185000
12.794100 2.057000
12.841100 1.959300
12.888000 1.842400
12.934900 1.775600
12.981900 1.744200
13.028800 1.749500
13.075800 1.790500
13.122700 1.838600
13.169700 1.838400
13.216600 1.823700
13.263500 1.778700
13.310500 1.756500
13.357400 1.847700
13.404400 1.954600
13.451300 2.009800
13.498300 2.110500
13.545200 2.333300
13.592200 2.522800
13.639100 2.810500
13.686000 2.891600
13.733000 2.635700
13.779900 2.338800
13.826900 2.202200
13.873800 2.100800
13.920800 2.028500
13.967700 1.903000
14.014600 1.900700
14.061600 1.933400
14.108500 1.968800
14.155500 1.942100
14.202400 1.911900
14.249400 1.998000
14.296300 2.108500
14.343300 2.217200
14.390200 2.308300
14.437100 2.338500
14.484100 2.303200
14.531000 2.259200
14.578000 2.252200
14.624900 2.209600
14.671900 2.222900
14.718800 2.236500
14.765700 2.204200
14.812700 2.175400
14.859600 2.193800
14.906600 2.285800
14.953500 2.436000
15.000500 2.462200
15.047400 2.446600
15.094400 2.428400
15.141300 2.357000
15.188200 2.297700
15.235200 2.267900
15.282100 2.205900
15.329100 2.263300
15.376000 2.251300
15.423000 2.111000
15.469900 1.945600
15.516800 1.823200
15.563800 1.777600
15.610700 1.784000
15.657700 1.865800
15.704600 1.991800
15.751600 2.152700
15.798500 2.351300
15.845500 2.752700
15.892400 3.351000
15.939300 3.606400
15.986300 3.472300
16.033200 3.236400
16.080200 3.512400
16.127100 3.872700
16.174100 3.435000
16.221000 3.424900
16.267900 3.352700
16.314900 3.079800
16.361800 2.837300
16.408800 2.820800
16.455700 2.914300
16.502700 2.972700
16.549600 3.021300
16.596600 3.055900
16.643500 3.074000
16.690400 3.204900
16.737400 3.238900
16.784300 3.168700
16.831300 3.051900
16.878200 2.915000
16.925200 2.668100
16.972100 2.461400
17.019000 2.461600
17.066000 2.223800
17.112900 2.077600
17.159900 1.981000
17.206800 1.943500
17.253800 1.899000
17.300700 1.900000
17.347700 1.949000
17.394600 2.026600
17.441500 2.126700
17.488500 2.298900
17.535400 2.421600
17.582400 2.564300
17.629300 2.598300
17.676300 2.631600
17.723200 2.644900
17.770100 2.626100
17.817100 2.673800
17.864000 2.757500
17.911000 2.818500
17.957900 2.908700
18.004900 2.975300
18.051800 2.980400
18.098800 2.938000
18.145700 2.948300
18.192600 2.878900
18.239600 2.858600
18.286500 2.881800
18.333500 2.859700
18.380400 2.838100
18.427400 2.671500
18.474300 2.607000
18.521200 2.642800
18.568200 2.680500
18.615100 2.740200
18.662100 2.788900
18.709000 2.966200
18.756000 3.071300
18.802900 3.135800
18.849900 3.284100
18.896800 3.146800
18.943700 3.187500
18.990700 3.286700
19.037600 3.443100
19.084600 3.461000
19.131500 3.522600
19.178500 3.434400
19.225400 3.328100
19.272300 3.120900
19.319300 2.866500
19.366200 2.754600
19.413200 2.807900
19.460100 2.812000
19.507100 2.868600
19.554000 3.105300
19.601000 3.000800
19.647900 3.009700
19.694800 2.980000
19.741800 2.973600
19.788700 2.975800
19.835700 2.987800
19.882600 3.023300
19.929600 3.012400
19.976500 3.055000
20.023400 3.077000
20.070400 3.086200
20.117300 3.107500
20.164300 3.129800
20.211200 3.118200
20.258200 3.119100
20.305100 3.070900
20.352100 3.018700
20.399000 3.024900
20.445900 2.993300
20.492900 2.990500
20.539800 2.861700
20.586800 2.754900
20.633700 2.667000
20.680700 2.682300
20.727600 2.760000
20.774500 2.861800
20.821500 2.941300
20.868400 2.992400
20.915400 3.062800
20.962300 3.220000
21.009300 3.341400
21.056200 3.365300
21.103200 3.319100
21.150100 3.362200
21.197000 3.368200
21.244000 3.308800
21.290900 3.259600
21.337900 3.273500
21.384800 3.283000
21.431800 3.301500
21.478700 3.341400
21.525600 3.495600
21.572600 3.397800
21.619500 3.272400
21.666500 3.168800
21.713400 2.993200
21.760400 2.822000
21.807300 2.724100
21.854300 2.669000
21.901200 2.530200
21.948100 2.540100
21.995100 2.663300
22.042000 2.816300
22.089000 2.885000
22.135900 2.917500
22.182900 2.894800
22.229800 2.761300
22.276700 2.717900
22.323700 2.831500
22.370600 2.926900
22.417600 3.002200
22.464500 3.081700
22.511500 3.247000
22.558400 3.578100
22.605400 3.489500
22.652300 3.375500
22.699200 3.243900
22.746200 3.187500
22.793100 3.293000
22.840100 3.161200
22.887000 3.162900
22.934000 3.269200
22.980900 3.416200
23.027800 3.481300
23.074800 3.508900
23.121700 3.475300
23.168700 3.459000
23.215600 3.370100
23.262600 3.345000
23.309500 3.149200
23.356500 2.815600
23.403400 2.542500
23.450300 2.335100
23.497300 2.199000
23.544200 2.257300
23.591200 2.386400
23.638100 2.516000
23.685100 2.646500
23.732000 2.724000
23.778900 2.754500
23.825900 2.765800
23.872800 2.778600
23.919800 2.813700
23.966700 2.912900
24.013700 2.935600
24.060600 3.067200
24.107600 3.158300
24.154500 3.066100
24.201400 2.799900
24.248400 2.602500
24.295300 2.410100
24.342300 2.468900
24.389200 2.378200
24.436200 2.382300
24.483100 2.400800
24.530000 2.460000
24.577000 2.578500
24.623900 2.724400
24.670900 2.912300
24.717800 3.122700
24.764800 3.113400
24.811700 3.294400
24.858700 3.442600
24.905600 3.465300
24.952500 3.436600
24.999500 3.526600
25.046400 3.584100
25.093400 3.580700
25.140300 3.651400
25.187300 3.654500
25.234200 3.621300
25.281100 3.498500
25.328100 3.337800
25.375000 3.314300
25.422000 3.399600
25.468900 3.457700
25.515900 3.409600
25.562800 3.469200
25.609800 3.439100
25.656700 3.454500
25.703600 3.519800
25.750600 3.835500
25.797500 3.889300
25.844500 3.795300
25.891400 3.626700
25.938400 3.537100
25.985300 3.572100
26.032200 3.471600
26.079200 3.201600
26.126100 2.882000
26.173100 2.578700
26.220000 2.394700
26.267000 2.367700
26.313900 2.477400
26.360900 2.667400
26.407800 2.898100
26.454700 3.240000
26.501700 3.483700
26.548600 3.587800
26.595600 3.650200
26.642500 3.665600
26.689500 3.654800
26.736400 3.559300
26.783300 3.503300
26.830300 3.462200
26.877200 3.292500
26.924200 3.119600
26.971100 3.002400
27.018100 2.945500
27.065000 3.000800
27.112000 3.230900
27.158900 3.448100
27.205800 3.613500
27.252800 3.635600
27.299700 3.579000
27.346700 3.621200
27.393600 3.604300
27.440600 3.454100
27.487500 3.245500
27.534400 3.079900
27.581400 3.024200
27.628300 3.083800
27.675300 3.237100
27.722200 3.527600
27.769200 3.697900
27.816100 4.134100
27.863100 4.478100
27.910000 4.341900
27.956900 4.374200
28.003900 4.256900
28.050800 3.988300
28.097800 3.522400
28.144700 3.242400
28.191700 3.065100
28.238600 3.218700
28.285500 3.353800
28.332500 3.369600
28.379400 3.404100
28.426400 3.448000
28.473300 3.320200
28.520300 3.188300
28.567200 3.149700
28.614200 3.048000
28.661100 3.041200
28.708000 3.024700
28.755000 3.070900
28.801900 3.225600
28.848900 3.421400
28.895800 3.613700
28.942800 3.690200
28.989700 3.611700
29.036600 3.535100
29.083600 3.460300
29.130500 3.353900
29.177500 3.333100
29.224400 3.170100
29.271400 3.096300
29.318300 3.159600
29.365300 3.230400
29.412200 3.404600
29.459100 3.607100
29.506100 3.632500
29.553000 3.626000
29.600000 3.594200
29.646900 3.440500
29.693900 3.497600
29.740800 3.459600
29.787700 3.428900
29.834700 3.386500
29.881600 3.401200
29.928600 3.296300
29.975500 3.146600
30.022500 2.966000
30.069400 2.801500
30.116400 2.661500
30.163300 2.543000
30.210200 2.523800
30.257200 2.593600
30.304100 2.698300
30.351100 2.850400
30.398000 3.044500
30.445000 3.210800
30.491900 3.466700
30.538800 3.808800
30.585800 4.073800
30.632700 4.438900
30.679700 4.728200
30.726600 4.890900
30.773600 4.831000
30.820500 4.612300
30.867500 3.759300
30.914400 3.468800
30.961300 3.233200
31.008300 3.064900
31.055200 2.914300
31.102200 2.967700
31.149100 3.212300
31.196100 3.361700
31.243000 3.484900
31.289900 3.604700
31.336900 3.684000
31.383800 3.705700
31.430800 3.913600
31.477700 4.037700
31.524700 3.901300
31.571600 3.893900
31.618600 3.944200
31.665500 3.943700
31.712400 3.821800
31.759400 3.861800
31.806300 3.891400
31.853300 3.841500
31.900200 3.795400
31.947200 3.751000
31.994100 3.667400
32.041000 3.622800
32.088000 3.658500
32.134900 3.773000
32.181900 3.752700
32.228800 3.675100
32.275800 3.631400
32.322700 3.603000
32.369700 3.581900
32.416600 3.570100
32.463500 3.538900
32.510500 3.524200
32.557400 3.467400
32.604400 3.479800
32.651300 3.499500
32.698300 3.572300
32.745200 3.643700
32.792100 3.912000
32.839100 3.945400
32.886000 4.024800
32.933000 3.914400
32.979900 3.838000
33.026900 3.736900
33.073800 3.568000
33.120800 3.342100
33.167700 3.406000
33.214600 3.470500
33.261600 3.459800
33.308500 3.425500
33.355500 3.396400
33.402400 3.416500
33.449400 3.433000
33.496300 3.411900
33.543200 3.356800
33.590200 3.547600
33.637100 3.478700
33.684100 3.445800
33.731000 3.316600
33.778000 3.211200
33.824900 3.116200
33.871900 3.103200
33.918800 3.152700
33.965700 3.302100
34.012700 3.681000
34.059600 3.853800
34.106600 3.649600
34.153500 3.670200
34.200500 3.854100
34.247400 4.006800
34.294300 4.122700
34.341300 4.232400
34.388200 4.200600
34.435200 4.261800
34.482100 4.084300
34.529100 4.082200
34.576000 4.107200
34.623000 4.036900
34.669900 3.927500
34.716800 3.881900
34.763800 3.863200
34.810700 3.760400
34.857700 3.710500
34.904600 3.682000
34.951600 3.671200
34.998500 3.648400
35.045400 3.662900
35.092400 3.685300
35.139300 3.629300
35.186300 3.621200
35.233200 3.649300
35.280200 3.598600
35.327100 3.485300
35.374100 3.443000
35.421000 3.315400
35.467900 3.266300
35.514900 3.241900
35.561800 3.223700
35.608800 3.194300
35.655700 3.176100
35.702700 3.197300
35.749600 3.191000
35.796500 3.274300
35.843500 3.386200
35.890400 3.603700
35.937400 3.831600
35.984300 3.852600
36.031300 3.978300
36.078200 4.189400
36.125200 4.033600
36.172100 4.012300
36.219000 4.009400
36.266000 4.038000
36.312900 4.099200
36.359900 4.148200
36.406800 4.121300
36.453800 3.975900
36.500700 3.957000
36.547600 3.748500
36.594600 3.666400
36.641500 3.580000
36.688500 3.536900
36.735400 3.615900
36.782400 3.535900
36.829300 3.390800
36.876300 3.337200
36.923200 3.396900
36.970100 3.525100
37.017100 3.632800
37.064000 3.770600
37.111000 3.902700
37.157900 3.920500
37.204900 4.060700
37.251800 4.055600
37.298700 3.974300
37.345700 3.892200
37.392600 3.906200
37.439600 3.969100
37.486500 4.012500
37.533500 3.990400
37.580400 3.965800
37.627400 3.952800
37.674300 3.924200
37.721200 3.894000
37.768200 3.813600
37.815100 3.774400
37.862100 3.864300
37.909000 3.892900
37.956000 4.069000
38.002900 4.074400
38.049800 4.003500
38.096800 4.001500
38.143700 3.910200
38.190700 3.873800
38.237600 3.813300
38.284600 3.710100
38.331500 3.715900
38.378500 3.740500
38.425400 3.746900
38.472300 3.837800
38.519300 3.873400
38.566200 3.968600
38.613200 4.047000
38.660100 4.060700
38.707100 3.991400
38.754000 3.904700
38.800900 3.752400
38.847900 3.689000
38.894800 3.711200
38.941800 3.716700
38.988700 3.691500
39.035700 3.615800
39.082600 3.587000
39.129600 3.526800
39.176500 3.482200
39.223400 3.348500
39.270400 3.308600
39.317300 3.438300
39.364300 3.608000
39.411200 3.865100
39.458200 3.946900
39.505100 3.941600
39.552000 3.928100
39.599000 3.976000
39.645900 4.100600
39.692900 4.090500
39.739800 3.961500
39.786800 3.832400
39.833700 3.766700
39.880700 3.573800
39.927600 3.494500
39.974500 3.414900
40.021500 3.308800
40.068400 3.229300
40.115400 3.305000
40.162300 3.326000
40.209300 3.474600
40.256200 3.783000
40.303100 3.854700
40.350100 3.723400
40.397000 3.801800
40.444000 4.067100
40.490900 4.315000
40.537900 4.326400
40.584800 4.518900
40.631800 4.535200
40.678700 4.404100
40.725600 4.250300
40.772600 4.159500
40.819500 3.941600
40.866500 3.692400
40.913400 3.534200
40.960400 3.530500
41.007300 3.306300
41.054200 3.404600
41.101200 3.235200
41.148100 3.185900
41.195100 3.085700
41.242000 3.143300
41.289000 3.277900
41.335900 3.538200
41.382900 3.692500
41.429800 3.815800
41.476700 3.850400
41.523700 3.932200
41.570600 4.008100
41.617600 4.114200
41.664500 4.156500
41.711500 4.212900
41.758400 4.394400
41.805300 4.395200
41.852300 4.555200
41.899200 4.557900
41.946200 4.171800
41.993100 3.874800
42.040100 3.702500
42.087000 3.463700
42.134000 3.541200
42.180900 4.048300
42.227800 4.278700
42.274800 4.532100
42.321700 4.821500
42.368700 5.209300
42.415600 5.002300
42.462600 4.936000
42.509500 4.799600
42.556400 4.679800
42.603400 4.508700
42.650300 4.419700
42.697300 3.978300
42.744200 3.822600
42.791200 3.803500
42.838100 3.838700
42.885100 3.693100
42.932000 3.710300
42.978900 3.649900
43.025900 3.583900
43.072800 3.624200
43.119800 3.624500
43.166700 3.659800
43.213700 3.751000
43.260600 3.804700
43.307500 3.979200
43.354500 4.083600
43.401400 4.315300
43.448400 4.308400
43.495300 4.202400
43.542300 4.180000
43.589200 4.380400
43.636200 4.586500
43.683100 4.561600
43.730000 4.292000
43.777000 3.892700
43.823900 3.641100
43.870900 3.391100
43.917800 3.203400
43.964800 3.164100
44.011700 3.178400
44.058600 3.180400
44.105600 3.218500
44.152500 3.437400
44.199500 3.641700
44.246400 3.891900
44.293400 3.993500
44.340300 4.062400
44.387300 3.902500
44.434200 3.724000
44.481100 3.487000
44.528100 3.109900
44.575000 2.843200
44.622000 2.687600
44.668900 2.403400
44.715900 2.179900
44.762800 1.844000
44.809700 1.479600
44.856700 1.201400
44.903600 0.924500
44.950600 0.716100
44.997500 0.445200
45.044500 0.292200
45.091400 0.168200
45.138300 0.096400
45.185300 0.044700
45.232200 0.014600
45.279200 0.004000
45.326100 0.000000
45.373100 0.000000
45.420000 0.000000
45.467000 0.000000
45.513900 0.000000
45.560800 0.000000
45.607800 0.000000
45.654700 0.000000
45.701700 0.000000
45.748600 0.000000
45.795600 0.000000
45.842500 0.000000
45.889400 0.000000
45.936400 0.000000
45.983300 0.000000
46.030300 0.000000
46.077200 0.000000
46.124200 0.000000
46.171100 0.000000
46.218100 0.000000
46.265000 0.000000
46.311900 0.000000
46.358900 0.000000
46.405800 0.000000
46.452800 0.000000
46.499700 0.000000
46.546700 0.000000
46.593600 0.000000
46.640500 0.000000
46.687500 0.000000
46.734400 0.000000
46.781400 0.000000
46.828300 0.000000
46.875300 0.000000
46.922200 0.000000
46.969200 0.000000
47.016100 0.000000
47.063000 0.000000
47.110000 0.000000
47.156900 0.000000
47.203900 0.000000
47.250800 0.000000
47.297800 0.000000
47.344700 0.000000
47.391600 0.000000
47.438600 0.000000
47.485500 0.000000
47.532500 0.000000
47.579400 0.000000
47.626400 0.000000
47.673300 0.000000
47.720300 0.000000
47.767200 0.000000
47.814100 0.000000
47.861100 0.000000
47.908000 0.000000
47.955000 0.000000
48.001900 0.000000
48.048900 0.000000
48.095800 0.000000
48.142700 0.000000
48.189700 0.000000
48.236600 0.000000
48.283600 0.000000
48.330500 0.000000
48.377500 0.000000
48.424400 0.000000
48.471400 0.000000
48.518300 0.000000
48.565200 0.000000
48.612200 0.000000
48.659100 0.000000
48.706100 0.000000
48.753000 0.000000
48.800000 0.000000
48.846900 0.000000
48.893800 0.000000
48.940800 0.000000
48.987700 0.000000
49.034700 0.000000
49.081600 0.000000
49.128600 0.000000
49.175500 0.000000
49.222500 0.000000
49.269400 0.000000
49.316300 0.000000
49.363300 0.000000
49.410200 0.000000
49.457200 0.000000
49.504100 0.000000
49.551100 0.000000
49.598000 0.000000
e
