set title 'mp-541837 - Density of States'
set xlabel 'Energy (eV)'
set ylabel 'DOS (states/eV)'
set grid
set xrange [-10:10]
set yrange [0:13.567]
set xzeroaxis lt -1
set terminal png size 800,600
set output 'mp-541837_dos_gnuplot.png'
plot '-' using 1:2 with lines title 'DOS'
-11.661300 0.000000
-11.648700 0.000000
-11.636100 0.000000
-11.623500 0.000000
-11.610900 0.000000
-11.598300 0.000000
-11.585700 0.000000
-11.573100 0.000000
-11.560500 0.000000
-11.547900 0.000000
-11.535300 0.000000
-11.522700 0.000000
-11.510100 0.000000
-11.497500 0.000000
-11.484900 0.000000
-11.472300 0.000000
-11.459700 0.000000
-11.447100 0.000000
-11.434500 0.000000
-11.421900 0.000000
-11.409300 0.000000
-11.396600 0.000000
-11.384000 0.000000
-11.371400 0.000000
-11.358800 0.000000
-11.346200 0.000000
-11.333600 0.000000
-11.321000 0.000000
-11.308400 0.000000
-11.295800 0.000000
-11.283200 0.000000
-11.270600 0.000000
-11.258000 0.000000
-11.245400 0.000000
-11.232800 0.000000
-11.220200 0.000000
-11.207600 0.000000
-11.195000 0.000000
-11.182400 0.000000
-11.169800 0.000000
-11.157200 0.000000
-11.144600 0.000000
-11.132000 0.000000
-11.119400 0.000000
-11.106800 0.000000
-11.094200 0.000000
-11.081600 0.000000
-11.069000 0.000000
-11.056400 0.000000
-11.043800 0.000000
-11.031200 0.000000
-11.018600 0.000000
-11.006000 0.000000
-10.993400 0.000000
-10.980800 0.000000
-10.968200 0.000000
-10.955600 0.000000
-10.943000 0.000000
-10.930400 0.000000
-10.917800 0.000000
-10.905200 0.000000
-10.892600 0.000000
-10.880000 0.000000
-10.867400 0.000000
-10.854700 0.000000
-10.842100 0.000000
-10.829500 0.000000
-10.816900 0.000000
-10.804300 0.000000
-10.791700 0.000000
-10.779100 0.000000
-10.766500 0.000000
-10.753900 0.000000
-10.741300 0.000000
-10.728700 0.000000
-10.716100 0.000000
-10.703500 0.000000
-10.690900 0.000000
-10.678300 0.000000
-10.665700 0.000000
-10.653100 0.000000
-10.640500 0.000000
-10.627900 0.000000
-10.615300 0.000000
-10.602700 0.000000
-10.590100 0.000000
-10.577500 0.000000
-10.564900 0.000000
-10.552300 0.000000
-10.539700 0.000000
-10.527100 0.000000
-10.514500 0.000700
-10.501900 0.098800
-10.489300 0.296000
-10.476700 0.546300
-10.464100 0.596100
-10.451500 0.750500
-10.438900 0.863900
-10.426300 0.852900
-10.413700 0.813000
-10.401100 0.852200
-10.388500 0.876800
-10.375900 0.882300
-10.363300 0.874800
-10.350700 0.863000
-10.338100 0.843800
-10.325500 0.831800
-10.312900 0.829400
-10.300200 0.842900
-10.287600 0.857400
-10.275000 0.872000
-10.262400 0.886500
-10.249800 0.900500
-10.237200 0.892000
-10.224600 0.889200
-10.212000 0.884100
-10.199400 0.869200
-10.186800 0.864100
-10.174200 0.863200
-10.161600 0.864400
-10.149000 0.867300
-10.136400 0.871700
-10.123800 0.878000
-10.111200 0.886200
-10.098600 0.894400
-10.086000 0.902600
-10.073400 0.910700
-10.060800 0.932000
-10.048200 1.019100
-10.035600 1.179900
-10.023000 1.252900
-10.010400 1.289200
-9.997800 1.345200
-9.985200 1.411600
-9.972600 1.488100
-9.960000 1.590100
-9.947400 1.712700
-9.934800 1.831000
-9.922200 1.887400
-9.909600 1.818100
-9.897000 1.844300
-9.884400 1.868100
-9.871800 1.888900
-9.859200 1.905700
-9.846600 1.915600
-9.834000 1.915500
-9.821400 1.916100
-9.808800 1.913600
-9.796200 1.924000
-9.783600 1.932600
-9.771000 1.936600
-9.758300 1.942900
-9.745700 1.948600
-9.733100 1.954300
-9.720500 1.958900
-9.707900 1.953800
-9.695300 1.963400
-9.682700 1.973900
-9.670100 1.985300
-9.657500 1.997300
-9.644900 2.008900
-9.632300 2.019800
-9.619700 2.030200
-9.607100 2.041300
-9.594500 2.052300
-9.581900 2.063200
-9.569300 2.073300
-9.556700 2.081700
-9.544100 2.087200
-9.531500 2.092700
-9.518900 2.101600
-9.506300 2.113000
-9.493700 2.124600
-9.481100 2.136900
-9.468500 2.150300
-9.455900 2.163900
-9.443300 2.177600
-9.430700 2.191700
-9.418100 2.206400
-9.405500 2.221100
-9.392900 2.235800
-9.380300 2.250900
-9.367700 2.266000
-9.355100 2.279900
-9.342500 2.292900
-9.329900 2.307300
-9.317300 2.322600
-9.304700 2.338200
-9.292100 2.354700
-9.279500 2.372100
-9.266900 2.389900
-9.254300 2.408000
-9.241700 2.432500
-9.229100 2.457300
-9.216400 2.484800
-9.203800 2.516100
-9.191200 2.547100
-9.178600 2.577700
-9.166000 2.608400
-9.153400 2.639500
-9.140800 2.671400
-9.128200 2.704500
-9.115600 2.738900
-9.103000 2.774100
-9.090400 2.811700
-9.077800 2.851600
-9.065200 2.894900
-9.052600 2.939800
-9.040000 2.985900
-9.027400 3.033000
-9.014800 3.081200
-9.002200 3.130300
-8.989600 3.180300
-8.977000 3.258500
-8.964400 3.508900
-8.951800 3.724400
-8.939200 3.821900
-8.926600 4.024800
-8.914000 4.383400
-8.901400 4.636500
-8.888800 5.462500
-8.876200 6.096300
-8.863600 6.048000
-8.851000 5.914500
-8.838400 6.075500
-8.825800 6.427500
-8.813200 6.693400
-8.800600 5.572200
-8.788000 5.873900
-8.775400 5.812700
-8.762800 6.208200
-8.750200 6.750100
-8.737600 7.435000
-8.725000 7.283900
-8.712400 8.342800
-8.699800 7.023000
-8.687200 7.105100
-8.674600 7.768400
-8.661900 10.735600
-8.649300 9.045200
-8.636700 10.615300
-8.624100 12.132200
-8.611500 11.941500
-8.598900 11.665100
-8.586300 11.213300
-8.573700 12.333900
-8.561100 11.929400
-8.548500 8.121800
-8.535900 4.818800
-8.523300 2.354800
-8.510700 0.000900
-8.498100 0.000000
-8.485500 0.000000
-8.472900 0.000000
-8.460300 0.000000
-8.447700 0.000000
-8.435100 0.000000
-8.422500 0.000000
-8.409900 0.000000
-8.397300 0.000000
-8.384700 0.000000
-8.372100 0.000000
-8.359500 0.000000
-8.346900 0.000000
-8.334300 0.000000
-8.321700 0.000000
-8.309100 0.000000
-8.296500 0.000000
-8.283900 0.000000
-8.271300 0.000000
-8.258700 0.000000
-8.246100 0.000000
-8.233500 0.000000
-8.220900 0.000000
-8.208300 0.000000
-8.195700 0.000000
-8.183100 0.000000
-8.170500 0.000000
-8.157900 0.000000
-8.145300 0.000000
-8.132700 0.000000
-8.120000 0.000000
-8.107400 0.000000
-8.094800 0.000000
-8.082200 0.000000
-8.069600 0.000000
-8.057000 0.000000
-8.044400 0.000000
-8.031800 0.000000
-8.019200 0.000000
-8.006600 0.000000
-7.994000 0.000000
-7.981400 0.000000
-7.968800 0.000000
-7.956200 0.000000
-7.943600 0.000000
-7.931000 0.000000
-7.918400 0.000000
-7.905800 0.000000
-7.893200 0.000000
-7.880600 0.000000
-7.868000 0.000000
-7.855400 0.000000
-7.842800 0.000000
-7.830200 0.000000
-7.817600 0.000000
-7.805000 0.000000
-7.792400 0.000000
-7.779800 0.000000
-7.767200 0.000000
-7.754600 0.000000
-7.742000 0.000000
-7.729400 0.000000
-7.716800 0.000000
-7.704200 0.000000
-7.691600 0.000000
-7.679000 0.000000
-7.666400 0.000000
-7.653800 0.000000
-7.641200 0.000000
-7.628600 0.000000
-7.616000 0.000000
-7.603400 0.000000
-7.590800 0.000000
-7.578100 0.000000
-7.565500 0.000000
-7.552900 0.000000
-7.540300 0.000000
-7.527700 0.000000
-7.515100 0.000000
-7.502500 0.000000
-7.489900 0.000000
-7.477300 0.000000
-7.464700 0.000000
-7.452100 0.000000
-7.439500 0.000000
-7.426900 0.000000
-7.414300 0.000000
-7.401700 0.000000
-7.389100 0.000000
-7.376500 0.000000
-7.363900 0.000000
-7.351300 0.000000
-7.338700 0.000000
-7.326100 0.000000
-7.313500 0.000000
-7.300900 0.000000
-7.288300 0.000000
-7.275700 0.000000
-7.263100 0.000000
-7.250500 0.000000
-7.237900 0.000000
-7.225300 0.000000
-7.212700 0.000000
-7.200100 0.167800
-7.187500 1.115200
-7.174900 2.118400
-7.162300 5.255100
-7.149700 1.951200
-7.137100 2.407100
-7.124500 2.862100
-7.111900 3.403200
-7.099300 5.135000
-7.086700 5.627100
-7.074100 4.779700
-7.061500 4.553600
-7.048900 4.082300
-7.036200 3.679100
-7.023600 3.460900
-7.011000 3.242900
-6.998400 3.095500
-6.985800 3.021500
-6.973200 2.975200
-6.960600 2.942300
-6.948000 2.926700
-6.935400 2.918800
-6.922800 2.892900
-6.910200 2.870900
-6.897600 2.856000
-6.885000 2.847200
-6.872400 2.840000
-6.859800 2.819500
-6.847200 2.798300
-6.834600 2.773300
-6.822000 2.707200
-6.809400 2.698600
-6.796800 2.690100
-6.784200 2.786000
-6.771600 2.970600
-6.759000 3.035700
-6.746400 3.049400
-6.733800 3.064700
-6.721200 3.081300
-6.708600 3.106000
-6.696000 3.245200
-6.683400 3.496800
-6.670800 3.888700
-6.658200 4.291600
-6.645600 4.305300
-6.633000 4.056000
-6.620400 3.472300
-6.607800 3.149800
-6.595200 2.964300
-6.582600 2.923500
-6.570000 2.890200
-6.557400 2.857000
-6.544800 2.823800
-6.532200 2.790500
-6.519600 2.759700
-6.507000 2.733100
-6.494400 2.709200
-6.481700 2.688700
-6.469100 2.674600
-6.456500 2.676200
-6.443900 2.660200
-6.431300 2.638000
-6.418700 2.612500
-6.406100 2.587900
-6.393500 2.563000
-6.380900 2.541400
-6.368300 2.521400
-6.355700 2.501300
-6.343100 2.505500
-6.330500 2.531900
-6.317900 2.539700
-6.305300 2.542200
-6.292700 2.537400
-6.280100 2.531500
-6.267500 2.550000
-6.254900 2.574900
-6.242300 2.668700
-6.229700 2.679400
-6.217100 2.674800
-6.204500 2.688300
-6.191900 2.836700
-6.179300 2.769100
-6.166700 2.740600
-6.154100 2.469300
-6.141500 2.277400
-6.128900 2.109200
-6.116300 1.963600
-6.103700 1.865300
-6.091100 1.770000
-6.078500 1.677300
-6.065900 1.594700
-6.053300 1.530500
-6.040700 1.448800
-6.028100 1.349800
-6.015500 1.209100
-6.002900 1.070800
-5.990300 0.886900
-5.977700 0.772800
-5.965100 0.764700
-5.952500 0.759000
-5.939800 0.753300
-5.927200 0.747600
-5.914600 0.741900
-5.902000 0.736200
-5.889400 0.730500
-5.876800 0.724800
-5.864200 0.719300
-5.851600 0.714200
-5.839000 0.709300
-5.826400 0.704600
-5.813800 0.700000
-5.801200 0.695400
-5.788600 0.690900
-5.776000 0.686400
-5.763400 0.681900
-5.750800 0.677400
-5.738200 0.673000
-5.725600 0.670700
-5.713000 0.669600
-5.700400 0.669500
-5.687800 0.669100
-5.675200 0.667000
-5.662600 0.664100
-5.650000 0.660400
-5.637400 0.656200
-5.624800 0.651300
-5.612200 0.646200
-5.599600 0.641100
-5.587000 0.636000
-5.574400 0.630900
-5.561800 0.625800
-5.549200 0.620800
-5.536600 0.616400
-5.524000 0.612900
-5.511400 0.609800
-5.498800 0.607100
-5.486200 0.604700
-5.473600 0.602600
-5.461000 0.600900
-5.448400 0.600200
-5.435800 0.607900
-5.423200 0.608100
-5.410600 0.607700
-5.397900 0.606300
-5.385300 0.603900
-5.372700 0.601000
-5.360100 0.597900
-5.347500 0.595800
-5.334900 0.588700
-5.322300 0.581600
-5.309700 0.574400
-5.297100 0.567300
-5.284500 0.561800
-5.271900 0.562500
-5.259300 0.565000
-5.246700 0.569000
-5.234100 0.573900
-5.221500 0.573800
-5.208900 0.571500
-5.196300 0.567700
-5.183700 0.563000
-5.171100 0.558600
-5.158500 0.553600
-5.145900 0.546700
-5.133300 0.555100
-5.120700 0.587300
-5.108100 0.576200
-5.095500 0.523700
-5.082900 0.470800
-5.070300 0.419300
-5.057700 0.372900
-5.045100 0.333800
-5.032500 0.300900
-5.019900 0.273600
-5.007300 0.251000
-4.994700 0.238500
-4.982100 0.229500
-4.969500 0.169500
-4.956900 0.108700
-4.944300 0.054200
-4.931700 0.018000
-4.919100 0.001300
-4.906500 0.000000
-4.893900 0.000000
-4.881300 0.000000
-4.868700 0.000000
-4.856100 0.000000
-4.843400 0.000000
-4.830800 0.000000
-4.818200 0.000000
-4.805600 0.000000
-4.793000 0.000000
-4.780400 0.000000
-4.767800 0.000000
-4.755200 0.000000
-4.742600 0.000000
-4.730000 0.000000
-4.717400 0.000000
-4.704800 0.000000
-4.692200 0.000000
-4.679600 0.000000
-4.667000 0.000000
-4.654400 0.000000
-4.641800 0.000000
-4.629200 0.000000
-4.616600 0.000000
-4.604000 0.000000
-4.591400 0.000000
-4.578800 0.000000
-4.566200 0.000000
-4.553600 0.000000
-4.541000 0.000000
-4.528400 0.000000
-4.515800 0.000000
-4.503200 0.000000
-4.490600 0.000000
-4.478000 0.000000
-4.465400 0.000000
-4.452800 0.000000
-4.440200 0.000000
-4.427600 0.000000
-4.415000 0.000000
-4.402400 0.000000
-4.389800 0.000000
-4.377200 0.000000
-4.364600 0.000000
-4.352000 0.000000
-4.339400 0.000000
-4.326800 0.000000
-4.314200 0.000000
-4.301500 0.000000
-4.288900 0.000000
-4.276300 0.000000
-4.263700 0.000000
-4.251100 0.000000
-4.238500 0.000000
-4.225900 0.000000
-4.213300 0.000000
-4.200700 0.000000
-4.188100 0.000000
-4.175500 0.000000
-4.162900 0.000000
-4.150300 0.000000
-4.137700 0.000000
-4.125100 0.000000
-4.112500 0.000000
-4.099900 0.000000
-4.087300 0.000000
-4.074700 0.000000
-4.062100 0.000000
-4.049500 0.000000
-4.036900 0.000000
-4.024300 0.000000
-4.011700 0.000000
-3.999100 0.000000
-3.986500 0.000000
-3.973900 0.000000
-3.961300 0.000000
-3.948700 0.000000
-3.936100 0.000000
-3.923500 0.000000
-3.910900 0.000000
-3.898300 0.000000
-3.885700 0.000000
-3.873100 0.000000
-3.860500 0.000000
-3.847900 0.000000
-3.835300 0.000000
-3.822700 0.000000
-3.810100 0.000000
-3.797500 0.000000
-3.784900 0.000000
-3.772300 0.000000
-3.759600 0.000000
-3.747000 0.000000
-3.734400 0.000000
-3.721800 0.000000
-3.709200 0.000000
-3.696600 0.000000
-3.684000 0.000000
-3.671400 0.000000
-3.658800 0.000000
-3.646200 0.000000
-3.633600 0.000000
-3.621000 0.000000
-3.608400 0.000000
-3.595800 0.000000
-3.583200 0.000000
-3.570600 0.000000
-3.558000 0.000000
-3.545400 0.000000
-3.532800 0.000000
-3.520200 0.000000
-3.507600 0.000000
-3.495000 0.000000
-3.482400 0.000000
-3.469800 0.000000
-3.457200 0.000000
-3.444600 0.000000
-3.432000 0.000000
-3.419400 0.000000
-3.406800 0.000000
-3.394200 0.000000
-3.381600 0.000000
-3.369000 0.000000
-3.356400 0.000000
-3.343800 0.000000
-3.331200 0.000000
-3.318600 0.000000
-3.306000 0.000000
-3.293400 0.000000
-3.280800 0.000000
-3.268200 0.000000
-3.255600 0.000000
-3.243000 0.000000
-3.230400 0.000000
-3.217800 0.000000
-3.205100 0.000000
-3.192500 0.000000
-3.179900 0.000000
-3.167300 0.000000
-3.154700 0.000000
-3.142100 0.000000
-3.129500 0.000000
-3.116900 0.000000
-3.104300 0.000000
-3.091700 0.000000
-3.079100 0.000000
-3.066500 0.000000
-3.053900 0.000000
-3.041300 0.000000
-3.028700 0.000000
-3.016100 0.000000
-3.003500 0.000000
-2.990900 0.000000
-2.978300 0.000000
-2.965700 0.000000
-2.953100 0.000000
-2.940500 0.000000
-2.927900 0.000000
-2.915300 0.000000
-2.902700 0.000000
-2.890100 0.000000
-2.877500 0.000000
-2.864900 0.000000
-2.852300 0.000000
-2.839700 0.000000
-2.827100 0.000000
-2.814500 0.000000
-2.801900 0.000000
-2.789300 0.000000
-2.776700 0.000000
-2.764100 0.000000
-2.751500 0.000000
-2.738900 0.000000
-2.726300 0.000000
-2.713700 0.000000
-2.701100 0.000000
-2.688500 0.000000
-2.675900 0.000000
-2.663200 0.000000
-2.650600 0.000000
-2.638000 0.000000
-2.625400 0.000000
-2.612800 0.000000
-2.600200 0.000000
-2.587600 0.000000
-2.575000 0.000000
-2.562400 0.000000
-2.549800 0.000000
-2.537200 0.000000
-2.524600 0.000000
-2.512000 0.000000
-2.499400 0.000000
-2.486800 0.000000
-2.474200 0.000000
-2.461600 0.000000
-2.449000 0.000000
-2.436400 0.000000
-2.423800 0.000000
-2.411200 0.000000
-2.398600 0.000000
-2.386000 0.000000
-2.373400 0.000000
-2.360800 0.000000
-2.348200 0.000000
-2.335600 0.000000
-2.323000 0.000000
-2.310400 0.000000
-2.297800 0.000000
-2.285200 0.000000
-2.272600 0.000000
-2.260000 0.000000
-2.247400 0.000000
-2.234800 0.000000
-2.222200 0.000000
-2.209600 0.000000
-2.197000 0.000000
-2.184400 0.000000
-2.171800 0.000000
-2.159200 0.000000
-2.146600 0.000000
-2.134000 0.000000
-2.121300 0.000000
-2.108700 0.000000
-2.096100 0.000000
-2.083500 0.000000
-2.070900 0.000000
-2.058300 0.000000
-2.045700 0.000000
-2.033100 0.000000
-2.020500 0.000000
-2.007900 0.000000
-1.995300 0.000000
-1.982700 0.000000
-1.970100 0.000000
-1.957500 0.000000
-1.944900 0.000000
-1.932300 0.000000
-1.919700 0.000000
-1.907100 0.000000
-1.894500 0.000000
-1.881900 0.000000
-1.869300 0.000000
-1.856700 0.000000
-1.844100 0.000000
-1.831500 0.000000
-1.818900 0.000000
-1.806300 0.000000
-1.793700 0.000000
-1.781100 0.000000
-1.768500 0.000000
-1.755900 0.000000
-1.743300 0.000000
-1.730700 0.000000
-1.718100 0.000000
-1.705500 0.000000
-1.692900 0.000000
-1.680300 0.000000
-1.667700 0.000000
-1.655100 0.000000
-1.642500 0.000000
-1.629900 0.000000
-1.617300 0.000000
-1.604700 0.000000
-1.592100 0.000000
-1.579500 0.000000
-1.566800 0.000000
-1.554200 0.000000
-1.541600 0.000000
-1.529000 0.000000
-1.516400 0.000000
-1.503800 0.000000
-1.491200 0.000000
-1.478600 0.000000
-1.466000 0.755600
-1.453400 0.538500
-1.440800 0.631200
-1.428200 0.752200
-1.415600 0.904300
-1.403000 1.075500
-1.390400 1.267100
-1.377800 1.406400
-1.365200 1.521900
-1.352600 1.701900
-1.340000 2.037800
-1.327400 1.892500
-1.314800 1.906800
-1.302200 1.935300
-1.289600 1.965700
-1.277000 1.997200
-1.264400 2.027900
-1.251800 2.047900
-1.239200 2.054500
-1.226600 2.110100
-1.214000 2.153800
-1.201400 2.194100
-1.188800 2.237600
-1.176200 2.256900
-1.163600 2.270300
-1.151000 2.288700
-1.138400 2.386300
-1.125800 3.017300
-1.113200 3.176600
-1.100600 3.182500
-1.088000 2.944500
-1.075400 2.815500
-1.062800 2.613400
-1.050200 2.274400
-1.037600 1.983200
-1.024900 1.917000
-1.012300 1.851800
-0.999700 1.787200
-0.987100 1.882500
-0.974500 1.890600
-0.961900 1.707900
-0.949300 1.581200
-0.936700 1.511400
-0.924100 1.445900
-0.911500 1.387400
-0.898900 1.348000
-0.886300 1.377700
-0.873700 1.307000
-0.861100 1.219500
-0.848500 1.153900
-0.835900 1.177600
-0.823300 1.218800
-0.810700 1.266200
-0.798100 1.315300
-0.785500 1.368200
-0.772900 1.430200
-0.760300 1.502400
-0.747700 1.593300
-0.735100 1.715000
-0.722500 1.862900
-0.709900 2.029100
-0.697300 2.180400
-0.684700 2.320900
-0.672100 2.461200
-0.659500 2.550000
-0.646900 2.585900
-0.634300 2.542600
-0.621700 2.444800
-0.609100 2.340000
-0.596500 2.231200
-0.583900 2.163700
-0.571300 2.196100
-0.558700 2.209200
-0.546100 2.119500
-0.533500 2.035700
-0.520900 1.955000
-0.508300 1.892500
-0.495700 1.859100
-0.483000 1.862300
-0.470400 1.877800
-0.457800 1.903800
-0.445200 1.927900
-0.432600 1.956800
-0.420000 1.989800
-0.407400 2.025600
-0.394800 2.072500
-0.382200 2.149300
-0.369600 2.237900
-0.357000 2.311900
-0.344400 2.364800
-0.331800 2.394300
-0.319200 2.472000
-0.306600 2.652500
-0.294000 2.896200
-0.281400 3.326000
-0.268800 4.213800
-0.256200 4.902600
-0.243600 4.530000
-0.231000 4.468500
-0.218400 4.333300
-0.205800 4.215500
-0.193200 4.162600
-0.180600 4.059600
-0.168000 4.051200
-0.155400 4.134200
-0.142800 4.625800
-0.130200 4.585100
-0.117600 4.530100
-0.105000 4.492400
-0.092400 4.482900
-0.079800 4.483200
-0.067200 4.468000
-0.054600 4.446400
-0.042000 4.426500
-0.029400 4.424500
-0.016800 4.453300
-0.004200 4.530900
0.008400 4.700600
0.021000 5.100200
0.033600 5.302600
0.046200 5.155300
0.058800 4.904700
0.071500 4.626000
0.084100 4.402600
0.096700 4.360300
0.109300 4.363200
0.121900 4.370200
0.134500 4.385200
0.147100 4.410500
0.159700 4.444100
0.172300 4.510900
0.184900 4.640000
0.197500 4.734900
0.210100 4.694500
0.222700 4.726800
0.235300 4.782800
0.247900 4.876600
0.260500 4.924400
0.273100 4.927700
0.285700 4.895200
0.298300 5.059600
0.310900 5.345500
0.323500 5.597700
0.336100 5.379200
0.348700 5.243500
0.361300 5.080100
0.373900 4.882300
0.386500 4.644000
0.399100 4.388700
0.411700 4.228200
0.424300 4.135000
0.436900 4.089800
0.449500 4.082500
0.462100 4.097600
0.474700 4.144100
0.487300 4.192700
0.499900 4.229700
0.512500 4.271200
0.525100 4.313900
0.537700 4.353300
0.550300 4.378000
0.562900 4.406200
0.575500 4.452600
0.588100 4.498600
0.600700 4.608800
0.613400 4.662300
0.626000 4.720000
0.638600 4.757100
0.651200 4.736000
0.663800 4.690700
0.676400 4.671100
0.689000 4.694100
0.701600 4.719200
0.714200 4.750100
0.726800 4.821500
0.739400 4.868800
0.752000 4.879200
0.764600 4.869300
0.777200 4.858500
0.789800 4.891300
0.802400 4.679100
0.815000 4.646300
0.827600 4.705000
0.840200 4.800300
0.852800 4.862200
0.865400 4.957700
0.878000 5.089700
0.890600 5.427300
0.903200 5.667100
0.915800 5.807500
0.928400 5.840400
0.941000 5.791600
0.953600 5.858400
0.966200 5.866300
0.978800 5.776700
0.991400 5.799900
1.004000 5.760100
1.016600 5.710200
1.029200 5.527700
1.041800 5.216200
1.054400 5.075100
1.067000 5.007800
1.079600 4.921600
1.092200 4.777600
1.104800 4.666900
1.117400 4.604500
1.130000 4.594400
1.142600 4.585200
1.155300 4.588500
1.167900 4.635300
1.180500 4.711300
1.193100 5.072100
1.205700 5.208500
1.218300 5.205300
1.230900 5.124500
1.243500 4.946000
1.256100 4.772700
1.268700 4.652000
1.281300 4.561200
1.293900 4.492200
1.306500 4.443700
1.319100 4.407600
1.331700 4.378300
1.344300 4.339300
1.356900 4.273900
1.369500 4.209500
1.382100 4.145900
1.394700 3.989700
1.407300 3.895500
1.419900 3.838000
1.432500 3.769600
1.445100 3.694400
1.457700 3.652300
1.470300 3.591600
1.482900 3.509700
1.495500 3.431800
1.508100 3.362600
1.520700 3.299600
1.533300 3.258500
1.545900 3.244400
1.558500 3.195200
1.571100 3.140500
1.583700 3.138100
1.596300 3.168200
1.608900 3.329500
1.621500 3.668800
1.634100 4.012300
1.646700 3.386900
1.659300 3.198400
1.671900 3.096500
1.684500 2.924300
1.697200 2.774800
1.709800 2.623800
1.722400 2.482200
1.735000 2.404900
1.747600 2.432600
1.760200 2.509100
1.772800 2.524700
1.785400 2.604300
1.798000 2.768500
1.810600 3.076000
1.823200 3.704700
1.835800 3.997500
1.848400 4.252600
1.861000 4.363300
1.873600 4.369300
1.886200 4.441100
1.898800 4.525600
1.911400 4.569000
1.924000 4.528700
1.936600 4.623300
1.949200 4.701700
1.961800 4.529800
1.974400 4.120000
1.987000 4.215200
1.999600 4.416500
2.012200 4.669000
2.024800 4.768200
2.037400 4.866700
2.050000 5.003200
2.062600 5.105200
2.075200 5.152400
2.087800 5.283300
2.100400 5.518300
2.113000 5.587100
2.125600 5.863900
2.138200 5.754200
2.150800 5.625800
2.163400 5.635000
2.176000 5.635000
2.188600 5.369900
2.201200 5.118100
2.213800 4.765000
2.226400 4.752600
2.239000 4.362200
2.251700 4.448900
2.264300 4.717700
2.276900 4.963300
2.289500 5.311800
2.302100 5.574300
2.314700 5.852000
2.327300 6.459400
2.339900 6.572500
2.352500 6.506700
2.365100 6.555700
2.377700 6.911400
2.390300 6.985000
2.402900 7.197700
2.415500 6.989900
2.428100 6.518600
2.440700 5.892400
2.453300 5.332200
2.465900 4.890700
2.478500 4.328700
2.491100 4.121500
2.503700 4.085700
2.516300 4.132400
2.528900 4.196500
2.541500 4.225100
2.554100 4.260800
2.566700 4.321300
2.579300 4.476700
2.591900 4.687500
2.604500 5.026300
2.617100 4.820000
2.629700 4.775200
2.642300 4.770100
2.654900 4.764200
2.667500 4.793400
2.680100 4.966600
2.692700 5.005900
2.705300 5.184200
2.717900 5.480100
2.730500 5.963700
2.743100 6.322300
2.755700 6.543000
2.768300 6.967000
2.780900 7.066100
2.793600 6.967100
2.806200 7.060900
2.818800 7.006900
2.831400 6.733800
2.844000 6.422100
2.856600 6.295200
2.869200 5.833500
2.881800 5.182500
2.894400 3.974400
2.907000 3.449300
2.919600 3.297900
2.932200 3.219800
2.944800 3.394900
2.957400 3.789500
2.970000 3.528400
2.982600 3.378500
2.995200 3.230300
3.007800 3.038100
3.020400 2.637600
3.033000 2.354600
3.045600 2.189800
3.058200 2.080800
3.070800 2.031300
3.083400 2.013500
3.096000 2.047000
3.108600 2.298000
3.121200 2.432700
3.133800 2.154100
3.146400 1.585000
3.159000 1.158300
3.171600 0.814300
3.184200 0.550900
3.196800 0.363400
3.209400 0.203900
3.222000 0.114500
3.234600 0.071400
3.247200 0.038300
3.259800 0.015500
3.272400 0.002800
3.285000 0.000000
3.297600 0.000000
3.310200 0.000000
3.322800 0.000000
3.335500 0.000000
3.348100 0.000000
3.360700 0.000000
3.373300 0.000000
3.385900 0.000000
3.398500 0.000000
3.411100 0.000000
3.423700 0.000000
3.436300 0.000000
3.448900 0.000000
3.461500 0.000000
3.474100 0.000000
3.486700 0.000000
3.499300 0.000000
3.511900 0.000000
3.524500 0.000000
3.537100 0.000000
3.549700 0.000000
3.562300 0.000000
3.574900 0.000000
3.587500 0.000000
3.600100 0.000000
3.612700 0.000000
3.625300 0.000000
3.637900 0.000000
3.650500 0.000000
3.663100 0.000000
3.675700 0.000000
3.688300 0.000000
3.700900 0.000000
3.713500 0.000000
3.726100 0.000000
3.738700 0.000000
3.751300 0.000000
3.763900 0.000000
3.776500 0.000000
3.789100 0.000000
3.801700 0.000000
3.814300 0.000000
3.826900 0.000000
3.839500 0.000200
3.852100 0.000800
3.864700 0.001800
3.877300 0.003300
3.890000 0.005200
3.902600 0.007500
3.915200 0.010100
3.927800 0.013100
3.940400 0.016400
3.953000 0.020100
3.965600 0.024100
3.978200 0.028400
3.990800 0.033200
4.003400 0.038900
4.016000 0.045700
4.028600 0.053400
4.041200 0.061600
4.053800 0.069800
4.066400 0.078100
4.079000 0.086500
4.091600 0.094900
4.104200 0.103300
4.116800 0.111800
4.129400 0.120400
4.142000 0.129000
4.154600 0.137700
4.167200 0.146400
4.179800 0.155300
4.192400 0.164500
4.205000 0.172800
4.217600 0.179300
4.230200 0.183800
4.242800 0.186000
4.255400 0.186200
4.268000 0.183900
4.280600 0.188100
4.293200 0.196200
4.305800 0.204400
4.318400 0.212600
4.331000 0.220900
4.343600 0.229200
4.356200 0.237400
4.368800 0.245800
4.381400 0.254100
4.394000 0.262400
4.406600 0.271200
4.419200 0.280900
4.431900 0.291600
4.444500 0.302800
4.457100 0.314700
4.469700 0.327300
4.482300 0.344300
4.494900 0.380300
4.507500 0.429000
4.520100 0.488100
4.532700 0.567900
4.545300 0.687300
4.557900 0.802200
4.570500 0.896800
4.583100 0.978400
4.595700 1.053900
4.608300 1.126400
4.620900 1.196900
4.633500 1.265000
4.646100 1.332500
4.658700 1.399500
4.671300 1.466800
4.683900 1.533100
4.696500 1.600700
4.709100 1.670300
4.721700 1.747700
4.734300 1.828400
4.746900 1.879100
4.759500 1.906800
4.772100 1.934200
4.784700 1.969700
4.797300 2.041800
4.809900 2.124100
4.822500 2.237400
4.835100 2.389100
4.847700 2.511600
4.860300 2.619300
4.872900 2.553700
4.885500 2.616300
4.898100 2.747100
4.910700 2.817900
4.923300 2.877200
4.935900 2.944400
4.948500 3.006400
4.961100 3.022200
4.973800 3.049600
4.986400 3.083900
4.999000 3.176300
5.011600 3.228000
5.024200 3.141200
5.036800 2.923700
5.049400 2.767100
5.062000 2.635900
5.074600 2.554800
5.087200 2.539400
5.099800 2.569200
5.112400 2.612000
5.125000 2.649600
5.137600 2.698200
5.150200 2.779500
5.162800 2.877300
5.175400 2.988200
5.188000 3.139100
5.200600 3.264000
5.213200 3.460500
5.225800 3.643000
5.238400 3.735200
5.251000 3.786200
5.263600 3.862400
5.276200 3.914100
5.288800 3.902100
5.301400 3.949700
5.314000 4.043000
5.326600 4.217000
5.339200 4.484200
5.351800 4.762000
5.364400 4.887300
5.377000 4.863100
5.389600 4.782500
5.402200 4.708900
5.414800 4.657200
5.427400 4.586100
5.440000 4.569300
5.452600 4.561200
5.465200 4.532100
5.477800 4.463200
5.490400 4.368000
5.503000 4.324000
5.515600 4.322700
5.528300 4.358400
5.540900 4.392700
5.553500 4.463600
5.566100 4.505400
5.578700 4.526600
5.591300 4.563300
5.603900 4.624900
5.616500 4.835700
5.629100 5.303400
5.641700 6.524800
5.654300 5.631100
5.666900 6.473600
5.679500 8.049900
5.692100 7.291200
5.704700 5.941000
5.717300 4.922500
5.729900 4.330800
5.742500 4.055700
5.755100 4.058500
5.767700 4.051300
5.780300 4.149800
5.792900 4.142700
5.805500 4.088800
5.818100 4.007700
5.830700 3.947800
5.843300 3.909700
5.855900 3.895600
5.868500 3.920000
5.881100 4.084600
5.893700 4.365800
5.906300 4.616700
5.918900 4.848100
5.931500 4.953600
5.944100 4.937400
5.956700 4.585000
5.969300 4.414300
5.981900 4.267400
5.994500 4.170800
6.007100 4.135600
6.019700 4.125900
6.032300 4.041700
6.044900 3.899800
6.057500 3.723200
6.070200 3.624300
6.082800 3.705500
6.095400 4.045500
6.108000 4.404000
6.120600 4.549000
6.133200 4.465100
6.145800 4.315000
6.158400 4.051100
6.171000 3.910300
6.183600 3.923800
6.196200 3.901500
6.208800 3.845200
6.221400 3.723900
6.234000 3.596900
6.246600 3.634200
6.259200 3.730100
6.271800 3.776700
6.284400 3.820500
6.297000 3.719100
6.309600 3.735700
6.322200 3.588800
6.334800 3.393900
6.347400 3.294300
6.360000 3.159800
6.372600 2.959200
6.385200 2.676300
6.397800 2.445900
6.410400 2.270200
6.423000 2.194600
6.435600 2.136200
6.448200 2.136500
6.460800 2.149700
6.473400 2.189900
6.486000 2.262800
6.498600 2.329600
6.511200 2.400000
6.523800 2.506600
6.536400 2.606500
6.549000 2.710700
6.561600 2.863300
6.574200 3.088300
6.586800 3.264600
6.599400 3.354600
6.612100 3.362300
6.624700 3.366500
6.637300 3.376000
6.649900 3.381800
6.662500 3.387500
6.675100 3.397500
6.687700 3.394000
6.700300 3.391300
6.712900 3.366800
6.725500 3.347300
6.738100 3.317600
6.750700 3.282200
6.763300 3.240600
6.775900 3.198000
6.788500 3.177300
6.801100 3.137700
6.813700 3.128800
6.826300 3.141700
6.838900 3.174600
6.851500 3.199200
6.864100 3.232700
6.876700 3.281600
6.889300 3.334200
6.901900 3.372300
6.914500 3.410700
6.927100 3.432900
6.939700 3.420000
6.952300 3.304300
6.964900 3.180800
6.977500 3.088500
6.990100 3.028800
7.002700 2.978000
7.015300 2.943400
7.027900 2.934200
7.040500 2.952000
7.053100 3.002300
7.065700 3.142500
7.078300 3.266200
7.090900 3.376800
7.103500 3.513000
7.116100 3.706900
7.128700 3.976000
7.141300 4.240600
7.153900 4.421600
7.166600 4.714100
7.179200 4.930000
7.191800 5.058800
7.204400 5.090000
7.217000 5.177800
7.229600 5.345500
7.242200 5.385100
7.254800 5.346200
7.267400 5.283200
7.280000 5.115500
7.292600 4.899100
7.305200 4.611500
7.317800 4.376900
7.330400 4.205000
7.343000 4.026600
7.355600 3.874400
7.368200 3.763700
7.380800 3.907000
7.393400 3.423000
7.406000 3.040100
7.418600 2.744000
7.431200 2.508100
7.443800 2.330800
7.456400 2.198300
7.469000 2.086800
7.481600 1.984800
7.494200 1.912600
7.506800 1.861800
7.519400 1.840200
7.532000 1.820700
7.544600 1.806300
7.557200 1.803400
7.569800 1.836600
7.582400 1.905900
7.595000 1.984400
7.607600 2.019500
7.620200 1.986100
7.632800 1.961600
7.645400 1.968100
7.658000 2.028600
7.670600 2.113900
7.683200 2.378400
7.695800 2.615000
7.708500 2.834300
7.721100 3.172200
7.733700 3.446600
7.746300 3.494600
7.758900 3.354700
7.771500 3.276500
7.784100 3.298600
7.796700 3.355500
7.809300 3.383600
7.821900 3.356000
7.834500 3.331000
7.847100 3.473000
7.859700 3.611300
7.872300 3.556000
7.884900 3.441000
7.897500 3.357500
7.910100 3.209200
7.922700 3.102800
7.935300 3.049700
7.947900 3.004800
7.960500 3.068600
7.973100 3.019900
7.985700 2.863700
7.998300 2.787200
8.010900 2.735400
8.023500 2.693000
8.036100 2.656600
8.048700 2.666900
8.061300 2.698300
8.073900 2.715700
8.086500 2.662300
8.099100 2.595400
8.111700 2.562100
8.124300 2.569300
8.136900 2.586900
8.149500 2.592800
8.162100 2.530100
8.174700 2.439700
8.187300 2.339900
8.199900 2.254400
8.212500 2.114500
8.225100 1.944000
8.237700 1.853600
8.250400 1.829300
8.263000 1.820400
8.275600 1.823100
8.288200 1.834700
8.300800 1.846100
8.313400 1.852600
8.326000 1.851400
8.338600 1.840500
8.351200 1.825800
8.363800 1.826900
8.376400 1.860000
8.389000 1.862900
8.401600 1.790800
8.414200 1.684300
8.426800 1.614500
8.439400 1.558800
8.452000 1.504500
8.464600 1.459200
8.477200 1.465400
8.489800 1.358300
8.502400 1.260800
8.515000 1.262700
8.527600 1.267900
8.540200 1.274100
8.552800 1.278000
8.565400 1.268700
8.578000 1.257700
8.590600 1.246900
8.603200 1.239700
8.615800 1.234800
8.628400 1.262400
8.641000 1.290100
8.653600 1.313600
8.666200 1.328900
8.678800 1.335700
8.691400 1.341000
8.704000 1.345500
8.716600 1.348900
8.729200 1.351100
8.741800 1.354300
8.754400 1.362400
8.767000 1.374700
8.779600 1.394600
8.792200 1.418200
8.804900 1.436900
8.817500 1.454600
8.830100 1.470000
8.842700 1.465300
8.855300 1.439800
8.867900 1.413700
8.880500 1.385600
8.893100 1.355000
8.905700 1.324000
8.918300 1.289600
8.930900 1.251500
8.943500 1.216800
8.956100 1.185700
8.968700 1.154400
8.981300 1.237600
8.993900 1.312300
9.006500 1.213900
9.019100 1.123300
9.031700 1.057100
9.044300 1.019600
9.056900 1.009600
9.069500 1.019400
9.082100 1.022900
9.094700 1.011600
9.107300 0.989100
9.119900 0.956400
9.132500 0.929400
9.145100 0.912600
9.157700 0.927100
9.170300 0.959200
9.182900 0.995800
9.195500 1.036300
9.208100 1.081800
9.220700 1.130300
9.233300 1.180600
9.245900 1.206900
9.258500 1.210200
9.271100 1.224400
9.283700 1.247200
9.296300 1.287800
9.308900 1.336100
9.321500 1.388200
9.334100 1.439100
9.346800 1.488800
9.359400 1.532300
9.372000 1.581900
9.384600 1.603100
9.397200 1.597400
9.409800 1.595900
9.422400 1.610500
9.435000 1.636600
9.447600 1.667700
9.460200 1.668500
9.472800 1.726000
9.485400 1.811500
9.498000 3.069200
9.510600 2.927500
9.523200 1.407100
9.535800 1.375800
9.548400 1.413400
9.561000 1.475400
9.573600 1.647800
9.586200 1.799400
9.598800 1.932400
9.611400 2.027100
9.624000 2.115300
9.636600 2.201900
9.649200 2.235500
9.661800 2.249000
9.674400 2.259900
9.687000 2.264100
9.699600 2.270500
9.712200 2.432700
9.724800 2.608700
9.737400 2.714300
9.750000 2.793000
9.762600 2.858500
9.775200 2.919600
9.787800 2.969200
9.800400 3.018900
9.813000 3.108500
9.825600 3.356600
9.838200 3.601700
9.850800 3.850500
9.863400 4.090800
9.876000 4.139300
9.888700 3.927000
9.901300 3.505000
9.913900 3.272500
9.926500 3.050600
9.939100 2.912200
9.951700 2.807600
9.964300 2.731600
9.976900 2.686800
9.989500 2.637100
10.002100 2.572800
10.014700 2.502000
10.027300 2.398000
10.039900 2.302000
10.052500 2.219200
10.065100 2.161400
10.077700 2.118200
10.090300 2.088600
10.102900 2.071200
10.115500 2.180100
10.128100 2.154900
10.140700 2.159700
10.153300 2.163700
10.165900 2.127200
10.178500 2.094300
10.191100 2.097100
10.203700 2.051900
10.216300 1.868600
10.228900 1.736800
10.241500 1.644000
10.254100 1.586600
10.266700 1.553200
10.279300 1.535200
10.291900 1.522600
10.304500 1.517500
10.317100 1.523100
10.329700 1.539100
10.342300 1.566900
10.354900 1.618500
10.367500 1.717800
10.380100 1.827000
10.392700 1.946800
10.405300 2.150100
10.417900 2.282600
10.430500 2.398700
10.443200 2.572700
10.455800 2.646500
10.468400 2.653400
10.481000 2.671900
10.493600 2.786100
10.506200 3.037000
10.518800 3.323400
10.531400 3.541600
10.544000 3.727600
10.556600 3.745900
10.569200 3.555500
10.581800 3.522200
10.594400 3.485500
10.607000 3.372300
10.619600 3.221800
10.632200 2.951700
10.644800 2.763800
10.657400 2.772000
10.670000 2.818200
10.682600 2.860400
10.695200 2.905600
10.707800 2.948700
10.720400 2.976900
10.733000 3.021700
10.745600 3.072400
10.758200 3.134100
10.770800 3.163200
10.783400 3.174300
10.796000 3.194200
10.808600 3.220400
10.821200 3.083200
10.833800 2.954400
10.846400 2.885400
10.859000 2.871200
10.871600 2.873800
10.884200 2.841700
10.896800 2.797000
10.909400 2.763300
10.922000 2.730000
10.934600 2.684500
10.947200 2.687000
10.959800 2.618700
10.972400 2.554100
10.985100 2.516500
10.997700 2.484800
11.010300 2.436700
11.022900 2.390600
11.035500 2.364800
11.048100 2.336200
11.060700 2.289200
11.073300 2.268600
11.085900 2.261200
11.098500 2.274600
11.111100 2.322100
11.123700 2.396600
11.136300 2.492700
11.148900 2.689500
11.161500 2.613000
11.174100 2.646200
11.186700 2.684700
11.199300 2.705300
11.211900 2.631500
11.224500 2.588500
11.237100 2.510400
11.249700 2.441500
11.262300 2.414000
11.274900 2.393000
11.287500 2.370800
11.300100 2.351300
11.312700 2.337300
11.325300 2.419600
11.337900 2.245200
11.350500 2.111100
11.363100 2.092700
11.375700 2.063800
11.388300 1.998100
11.400900 1.923900
11.413500 1.877100
11.426100 1.844800
11.438700 1.833900
11.451300 1.796900
11.463900 1.756100
11.476500 1.731100
11.489100 1.721100
11.501700 1.687700
11.514300 1.660800
11.527000 1.617900
11.539600 1.551800
11.552200 1.483600
11.564800 1.432300
11.577400 1.387300
11.590000 1.347900
11.602600 1.313000
11.615200 1.281300
11.627800 1.250800
11.640400 1.221700
11.653000 1.195100
11.665600 1.172500
11.678200 1.150800
11.690800 1.129900
11.703400 1.109700
11.716000 1.091000
11.728600 1.072500
11.741200 1.053700
11.753800 1.035600
11.766400 1.021200
11.779000 1.011200
11.791600 0.992100
11.804200 0.964300
11.816800 0.923900
11.829400 0.883800
11.842000 0.877200
11.854600 0.871000
11.867200 0.865300
11.879800 0.860000
11.892400 0.853000
11.905000 0.846400
11.917600 0.841700
11.930200 0.840100
11.942800 0.839400
11.955400 0.837400
11.968000 0.836000
11.980600 0.835200
11.993200 0.834600
12.005800 0.834200
12.018400 0.831400
12.031000 0.826800
12.043600 0.822500
12.056200 0.818800
12.068900 0.815500
12.081500 0.812500
12.094100 0.809800
12.106700 0.807900
12.119300 0.808200
12.131900 0.814400
12.144500 0.826900
12.157100 0.839800
12.169700 0.845300
12.182300 0.847600
12.194900 0.843400
12.207500 0.829200
12.220100 0.799300
12.232700 0.762600
12.245300 0.920100
12.257900 0.774200
12.270500 0.718800
12.283100 0.740400
12.295700 0.659900
12.308300 0.569500
12.320900 0.469400
12.333500 0.354900
12.346100 0.231800
12.358700 0.110900
12.371300 0.039700
12.383900 0.010500
12.396500 0.000100
12.409100 0.000000
12.421700 0.000000
12.434300 0.000000
12.446900 0.000000
12.459500 0.000000
12.472100 0.000000
12.484700 0.000000
12.497300 0.000000
12.509900 0.000000
12.522500 0.000000
12.535100 0.000000
12.547700 0.000000
12.560300 0.000000
12.572900 0.000000
12.585500 0.000000
12.598100 0.000000
12.610700 0.000000
12.623400 0.000000
12.636000 0.000000
12.648600 0.000000
12.661200 0.000000
12.673800 0.000000
12.686400 0.000000
12.699000 0.000000
12.711600 0.000000
12.724200 0.000000
12.736800 0.000000
12.749400 0.000000
12.762000 0.000000
12.774600 0.000000
12.787200 0.000000
12.799800 0.000000
12.812400 0.000000
12.825000 0.000000
12.837600 0.000000
12.850200 0.000000
12.862800 0.000000
12.875400 0.000000
12.888000 0.000000
12.900600 0.000000
12.913200 0.000000
12.925800 0.000000
12.938400 0.000000
12.951000 0.000000
12.963600 0.000000
12.976200 0.000000
12.988800 0.000000
13.001400 0.000000
13.014000 0.000000
13.026600 0.000000
13.039200 0.000000
13.051800 0.000000
13.064400 0.000000
13.077000 0.000000
13.089600 0.000000
13.102200 0.000000
13.114800 0.000000
13.127400 0.000000
13.140000 0.000000
13.152600 0.000000
13.165300 0.000000
13.177900 0.000000
13.190500 0.000000
13.203100 0.000000
13.215700 0.000000
13.228300 0.000000
13.240900 0.000000
13.253500 0.000000
13.266100 0.000000
13.278700 0.000000
13.291300 0.000000
13.303900 0.000000
13.316500 0.000000
13.329100 0.000000
13.341700 0.000000
13.354300 0.000000
13.366900 0.000000
13.379500 0.000000
13.392100 0.000000
13.404700 0.000000
13.417300 0.000000
13.429900 0.000000
13.442500 0.000000
13.455100 0.000000
13.467700 0.000000
13.480300 0.000000
13.492900 0.000000
13.505500 0.000000
13.518100 0.000000
13.530700 0.000000
13.543300 0.000000
e
