set title 'mp-571592 - Density of States'
set xlabel 'Energy (eV)'
set ylabel 'DOS (states/eV)'
set grid
set xrange [-10:10]
set yrange [0:995.419]
set xzeroaxis lt -1
set terminal png size 800,600
set output 'mp-571592_dos_gnuplot.png'
plot '-' using 1:2 with lines title 'DOS'
-12.052600 0.000000
-12.040000 0.000000
-12.027300 0.000000
-12.014700 0.000000
-12.002000 0.000000
-11.989400 0.000000
-11.976700 0.000000
-11.964000 0.000000
-11.951400 0.000000
-11.938700 0.000000
-11.926100 0.000000
-11.913400 0.000000
-11.900800 0.000000
-11.888100 0.000000
-11.875400 0.000000
-11.862800 0.000000
-11.850100 0.000000
-11.837500 0.000000
-11.824800 0.000000
-11.812200 0.000000
-11.799500 0.000000
-11.786800 0.000000
-11.774200 0.000000
-11.761500 0.000000
-11.748900 0.000000
-11.736200 0.000000
-11.723600 0.000000
-11.710900 0.000000
-11.698300 0.000000
-11.685600 0.000000
-11.672900 0.000000
-11.660300 0.000000
-11.647600 0.000000
-11.635000 0.000000
-11.622300 0.000000
-11.609700 0.000000
-11.597000 0.000000
-11.584300 0.000000
-11.571700 0.000000
-11.559000 0.000000
-11.546400 0.000000
-11.533700 0.000000
-11.521100 0.000000
-11.508400 0.000000
-11.495700 0.000000
-11.483100 0.000000
-11.470400 0.000000
-11.457800 0.000000
-11.445100 0.000000
-11.432500 0.000000
-11.419800 0.000000
-11.407100 0.000000
-11.394500 0.000000
-11.381800 0.000000
-11.369200 0.000000
-11.356500 0.000000
-11.343900 0.000000
-11.331200 0.000000
-11.318600 0.000000
-11.305900 0.000000
-11.293200 0.000000
-11.280600 0.000000
-11.267900 0.000000
-11.255300 0.000000
-11.242600 0.000000
-11.230000 0.000000
-11.217300 0.000000
-11.204600 0.000000
-11.192000 0.000000
-11.179300 0.000000
-11.166700 0.000000
-11.154000 0.000000
-11.141400 0.000000
-11.128700 0.000000
-11.116000 0.000000
-11.103400 0.000000
-11.090700 0.000000
-11.078100 0.000000
-11.065400 0.000000
-11.052800 0.000000
-11.040100 0.000000
-11.027500 0.000000
-11.014800 0.000000
-11.002100 0.000000
-10.989500 0.000000
-10.976800 0.000000
-10.964200 0.000000
-10.951500 0.000000
-10.938900 0.000000
-10.926200 0.000000
-10.913500 0.000000
-10.900900 0.040500
-10.888200 0.972700
-10.875600 2.465200
-10.862900 4.736400
-10.850300 7.604300
-10.837600 11.272200
-10.824900 14.972400
-10.812300 15.991000
-10.799600 17.311300
-10.787000 16.802800
-10.774300 15.827600
-10.761700 15.256000
-10.749000 15.778900
-10.736400 16.301700
-10.723700 16.824500
-10.711000 17.347300
-10.698400 17.870100
-10.685700 18.392900
-10.673100 18.918700
-10.660400 19.501800
-10.647800 20.139800
-10.635100 20.833200
-10.622400 21.618400
-10.609800 22.416400
-10.597100 23.212900
-10.584500 24.004200
-10.571800 24.777800
-10.559200 25.544400
-10.546500 26.310900
-10.533800 27.077400
-10.521200 27.843900
-10.508500 28.610400
-10.495900 29.376900
-10.483200 30.143400
-10.470600 32.728100
-10.457900 38.295500
-10.445200 51.529400
-10.432600 73.282200
-10.419900 91.000000
-10.407300 122.122100
-10.394600 134.154100
-10.382000 159.282900
-10.369300 157.948400
-10.356700 201.787400
-10.344000 323.415400
-10.331300 246.513600
-10.318700 99.379000
-10.306000 0.000000
-10.293400 0.000000
-10.280700 0.000000
-10.268100 0.000000
-10.255400 0.000000
-10.242700 0.000000
-10.230100 0.000000
-10.217400 0.000000
-10.204800 0.000000
-10.192100 0.000000
-10.179500 0.000000
-10.166800 0.000000
-10.154100 0.000000
-10.141500 0.000000
-10.128800 0.000000
-10.116200 0.000000
-10.103500 0.000000
-10.090900 0.000000
-10.078200 0.000000
-10.065600 0.000000
-10.052900 0.000000
-10.040200 0.000000
-10.027600 0.000000
-10.014900 0.000000
-10.002300 0.000000
-9.989600 0.000000
-9.977000 0.000000
-9.964300 0.000000
-9.951600 0.000000
-9.939000 0.000000
-9.926300 0.000000
-9.913700 0.000000
-9.901000 0.000000
-9.888400 0.000000
-9.875700 0.000000
-9.863000 0.000000
-9.850400 0.000000
-9.837700 0.000000
-9.825100 0.000000
-9.812400 0.000000
-9.799800 0.000000
-9.787100 0.000000
-9.774400 0.000000
-9.761800 0.000000
-9.749100 0.000000
-9.736500 0.000000
-9.723800 0.000000
-9.711200 0.000000
-9.698500 0.000000
-9.685900 0.000000
-9.673200 0.000000
-9.660500 0.000000
-9.647900 0.000000
-9.635200 0.000000
-9.622600 0.000000
-9.609900 0.000000
-9.597300 0.000000
-9.584600 0.000000
-9.571900 0.000000
-9.559300 0.000000
-9.546600 0.000000
-9.534000 0.000000
-9.521300 0.000000
-9.508700 0.000000
-9.496000 0.000000
-9.483300 0.000000
-9.470700 0.000000
-9.458000 0.000000
-9.445400 0.000000
-9.432700 0.000000
-9.420100 0.000000
-9.407400 0.000000
-9.394800 0.000000
-9.382100 0.000000
-9.369400 0.000000
-9.356800 0.000000
-9.344100 0.000000
-9.331500 0.000000
-9.318800 0.000000
-9.306200 0.000000
-9.293500 0.000000
-9.280800 0.000000
-9.268200 0.000000
-9.255500 0.000000
-9.242900 0.000000
-9.230200 0.000000
-9.217600 0.000000
-9.204900 0.000000
-9.192200 0.000000
-9.179600 0.000000
-9.166900 0.000000
-9.154300 0.000000
-9.141600 0.000000
-9.129000 0.000000
-9.116300 0.000000
-9.103600 0.000000
-9.091000 0.000000
-9.078300 0.000000
-9.065700 0.000000
-9.053000 0.000000
-9.040400 0.000000
-9.027700 0.000000
-9.015100 0.000000
-9.002400 0.000000
-8.989700 0.000000
-8.977100 0.000000
-8.964400 0.000000
-8.951800 0.000000
-8.939100 0.000000
-8.926500 0.000000
-8.913800 0.000000
-8.901100 0.000000
-8.888500 0.000000
-8.875800 0.000000
-8.863200 0.000000
-8.850500 0.000000
-8.837900 0.000000
-8.825200 0.000000
-8.812500 0.000000
-8.799900 0.000000
-8.787200 0.000000
-8.774600 0.000000
-8.761900 0.000000
-8.749300 0.000000
-8.736600 0.000000
-8.724000 0.000000
-8.711300 0.000000
-8.698600 0.000000
-8.686000 0.000000
-8.673300 0.000000
-8.660700 0.000000
-8.648000 0.000000
-8.635400 0.000000
-8.622700 0.000000
-8.610000 0.000000
-8.597400 0.000000
-8.584700 0.000000
-8.572100 0.000000
-8.559400 0.000000
-8.546800 0.000000
-8.534100 0.000000
-8.521400 0.000000
-8.508800 0.000000
-8.496100 0.000000
-8.483500 0.000000
-8.470800 0.000000
-8.458200 0.000000
-8.445500 0.000000
-8.432800 0.000000
-8.420200 0.000000
-8.407500 0.000000
-8.394900 0.000000
-8.382200 0.000000
-8.369600 0.000000
-8.356900 0.000000
-8.344300 0.000000
-8.331600 0.000000
-8.318900 0.000000
-8.306300 0.000000
-8.293600 0.000000
-8.281000 0.000000
-8.268300 0.000000
-8.255700 0.000000
-8.243000 0.000000
-8.230300 0.000000
-8.217700 0.000000
-8.205000 0.000000
-8.192400 0.000000
-8.179700 0.000000
-8.167100 0.000000
-8.154400 0.000000
-8.141700 0.000000
-8.129100 0.000000
-8.116400 0.000000
-8.103800 0.000000
-8.091100 0.000000
-8.078500 0.000000
-8.065800 0.000000
-8.053200 0.000000
-8.040500 0.000000
-8.027800 0.000000
-8.015200 0.000000
-8.002500 0.000000
-7.989900 0.000000
-7.977200 0.000000
-7.964600 0.000000
-7.951900 0.000000
-7.939200 0.000000
-7.926600 0.000000
-7.913900 0.000000
-7.901300 0.000000
-7.888600 0.000000
-7.876000 0.000000
-7.863300 0.000000
-7.850600 0.000000
-7.838000 0.000000
-7.825300 0.000000
-7.812700 0.000000
-7.800000 0.000000
-7.787400 0.000000
-7.774700 0.000000
-7.762000 0.000000
-7.749400 0.000000
-7.736700 0.000000
-7.724100 0.000000
-7.711400 0.000000
-7.698800 0.000000
-7.686100 0.000000
-7.673500 0.000000
-7.660800 0.000000
-7.648100 0.000000
-7.635500 0.000000
-7.622800 0.000000
-7.610200 0.000000
-7.597500 0.000000
-7.584900 0.000000
-7.572200 0.000000
-7.559500 0.000000
-7.546900 0.000000
-7.534200 0.000000
-7.521600 0.000000
-7.508900 0.000000
-7.496300 0.000000
-7.483600 0.000000
-7.470900 0.000000
-7.458300 0.000000
-7.445600 0.000000
-7.433000 0.000000
-7.420300 0.000000
-7.407700 0.000000
-7.395000 0.000000
-7.382400 0.000000
-7.369700 0.000000
-7.357000 0.000000
-7.344400 0.000000
-7.331700 0.000000
-7.319100 0.000000
-7.306400 0.000000
-7.293800 0.000000
-7.281100 0.000000
-7.268400 0.000000
-7.255800 0.000000
-7.243100 0.000000
-7.230500 0.000000
-7.217800 0.000000
-7.205200 0.000000
-7.192500 0.000000
-7.179800 0.000000
-7.167200 0.000000
-7.154500 0.000000
-7.141900 0.000000
-7.129200 0.000000
-7.116600 0.000000
-7.103900 0.000000
-7.091200 0.000000
-7.078600 0.000000
-7.065900 0.000000
-7.053300 0.000000
-7.040600 0.000000
-7.028000 0.000000
-7.015300 0.000000
-7.002700 0.000000
-6.990000 0.000000
-6.977300 0.000000
-6.964700 0.000000
-6.952000 0.000000
-6.939400 0.000000
-6.926700 0.000000
-6.914100 0.000000
-6.901400 0.000000
-6.888700 0.000000
-6.876100 0.000000
-6.863400 0.000000
-6.850800 0.000000
-6.838100 0.000000
-6.825500 0.000000
-6.812800 0.000000
-6.800100 0.000000
-6.787500 0.000000
-6.774800 0.000000
-6.762200 0.000000
-6.749500 0.000000
-6.736900 0.000000
-6.724200 0.000000
-6.711600 0.000000
-6.698900 0.000000
-6.686200 0.000000
-6.673600 0.000000
-6.660900 0.000000
-6.648300 0.000000
-6.635600 0.000000
-6.623000 0.000000
-6.610300 90.832300
-6.597600 180.965900
-6.585000 320.996100
-6.572300 327.263300
-6.559700 184.763300
-6.547000 128.923900
-6.534400 122.518300
-6.521700 116.112700
-6.509000 519.506200
-6.496400 364.103700
-6.483700 276.282800
-6.471100 170.030200
-6.458400 133.002300
-6.445800 421.450600
-6.433100 904.926400
-6.420400 248.149500
-6.407800 362.691000
-6.395100 380.568900
-6.382500 139.642300
-6.369800 134.017300
-6.357200 116.646400
-6.344500 99.275500
-6.331900 81.904600
-6.319200 60.795000
-6.306500 0.000000
-6.293900 0.000000
-6.281200 0.000000
-6.268600 0.000000
-6.255900 0.000000
-6.243300 0.000000
-6.230600 0.000000
-6.217900 0.000000
-6.205300 0.000000
-6.192600 0.000000
-6.180000 0.000000
-6.167300 0.000000
-6.154700 0.000000
-6.142000 0.000000
-6.129300 0.000000
-6.116700 0.000000
-6.104000 0.000000
-6.091400 0.000000
-6.078700 0.000000
-6.066100 0.000000
-6.053400 0.000000
-6.040800 0.000000
-6.028100 0.000000
-6.015400 0.000000
-6.002800 0.000000
-5.990100 0.000000
-5.977500 0.000000
-5.964800 0.000000
-5.952200 0.000000
-5.939500 0.000000
-5.926800 0.000000
-5.914200 0.000000
-5.901500 0.000000
-5.888900 0.000000
-5.876200 0.000000
-5.863600 0.000000
-5.850900 0.000000
-5.838200 0.000000
-5.825600 0.000000
-5.812900 0.000000
-5.800300 0.000000
-5.787600 0.000000
-5.775000 0.000000
-5.762300 0.000000
-5.749600 0.000000
-5.737000 0.000000
-5.724300 0.000000
-5.711700 0.000000
-5.699000 0.000000
-5.686400 0.000000
-5.673700 0.000000
-5.661100 0.000000
-5.648400 0.000000
-5.635700 0.000000
-5.623100 0.000000
-5.610400 0.000000
-5.597800 0.000000
-5.585100 0.000000
-5.572500 0.000000
-5.559800 0.000000
-5.547100 0.000000
-5.534500 0.000000
-5.521800 0.000000
-5.509200 0.000000
-5.496500 0.000000
-5.483900 0.000000
-5.471200 0.000000
-5.458500 0.000000
-5.445900 0.000000
-5.433200 0.000000
-5.420600 0.000000
-5.407900 0.000000
-5.395300 0.000000
-5.382600 0.000000
-5.370000 0.000000
-5.357300 0.000000
-5.344600 0.000000
-5.332000 0.000000
-5.319300 0.000000
-5.306700 0.000000
-5.294000 0.000000
-5.281400 0.000000
-5.268700 0.000000
-5.256000 0.000000
-5.243400 0.000000
-5.230700 0.000000
-5.218100 0.000000
-5.205400 0.000000
-5.192800 0.000000
-5.180100 0.000000
-5.167400 0.000000
-5.154800 0.000000
-5.142100 0.000000
-5.129500 0.000000
-5.116800 0.000000
-5.104200 0.000000
-5.091500 0.000000
-5.078900 0.000000
-5.066200 0.000000
-5.053500 0.000000
-5.040900 0.000000
-5.028200 0.000000
-5.015600 0.000000
-5.002900 0.000000
-4.990300 0.000000
-4.977600 0.000000
-4.964900 0.000000
-4.952300 0.000000
-4.939600 0.000000
-4.927000 0.000000
-4.914300 0.000000
-4.901700 0.000000
-4.889000 0.000000
-4.876300 0.000000
-4.863700 0.000000
-4.851000 0.000000
-4.838400 0.000000
-4.825700 0.000000
-4.813100 0.000000
-4.800400 0.000000
-4.787700 0.000000
-4.775100 0.000000
-4.762400 0.000000
-4.749800 0.000000
-4.737100 0.000000
-4.724500 0.000000
-4.711800 0.000000
-4.699200 0.000000
-4.686500 0.000000
-4.673800 0.000000
-4.661200 0.000000
-4.648500 0.000000
-4.635900 0.000000
-4.623200 0.000000
-4.610600 0.000000
-4.597900 0.000000
-4.585200 0.000000
-4.572600 0.000000
-4.559900 0.000000
-4.547300 0.000000
-4.534600 0.000000
-4.522000 0.000000
-4.509300 0.000000
-4.496600 0.000000
-4.484000 0.000000
-4.471300 0.000000
-4.458700 0.000000
-4.446000 0.000000
-4.433400 0.000000
-4.420700 0.000000
-4.408100 0.000000
-4.395400 0.000000
-4.382700 0.000000
-4.370100 0.000000
-4.357400 0.000000
-4.344800 0.000000
-4.332100 0.000000
-4.319500 0.000000
-4.306800 0.000000
-4.294100 0.000000
-4.281500 0.000000
-4.268800 0.000000
-4.256200 0.000000
-4.243500 0.000000
-4.230900 0.000000
-4.218200 0.000000
-4.205500 0.000000
-4.192900 0.000000
-4.180200 0.000000
-4.167600 0.000000
-4.154900 0.000000
-4.142300 0.000000
-4.129600 0.000000
-4.116900 0.000000
-4.104300 0.000000
-4.091600 0.000000
-4.079000 0.000000
-4.066300 0.000000
-4.053700 0.000000
-4.041000 0.000000
-4.028400 0.000000
-4.015700 0.000000
-4.003000 0.000000
-3.990400 0.000000
-3.977700 0.000000
-3.965100 0.000000
-3.952400 0.000000
-3.939800 0.000000
-3.927100 0.000000
-3.914400 0.000000
-3.901800 0.000000
-3.889100 0.000000
-3.876500 0.000000
-3.863800 0.000000
-3.851200 0.000000
-3.838500 0.000000
-3.825800 0.000000
-3.813200 0.000000
-3.800500 0.000000
-3.787900 0.000000
-3.775200 0.000000
-3.762600 0.000000
-3.749900 0.000000
-3.737300 0.000000
-3.724600 0.000000
-3.711900 0.000000
-3.699300 0.000000
-3.686600 0.000000
-3.674000 0.000000
-3.661300 0.000000
-3.648700 0.000000
-3.636000 0.000000
-3.623300 0.000000
-3.610700 0.000000
-3.598000 0.000000
-3.585400 0.000000
-3.572700 0.000000
-3.560100 0.000000
-3.547400 0.000000
-3.534700 0.000000
-3.522100 0.000000
-3.509400 0.000000
-3.496800 0.000000
-3.484100 0.000000
-3.471500 0.000000
-3.458800 0.000000
-3.446100 0.000000
-3.433500 0.000000
-3.420800 0.000000
-3.408200 0.000000
-3.395500 0.000000
-3.382900 0.000000
-3.370200 0.000000
-3.357600 0.000000
-3.344900 0.000000
-3.332200 0.000000
-3.319600 0.000000
-3.306900 0.000000
-3.294300 0.000000
-3.281600 0.000000
-3.269000 0.000000
-3.256300 0.000000
-3.243600 0.000000
-3.231000 0.000000
-3.218300 0.000000
-3.205700 0.000000
-3.193000 0.000000
-3.180400 0.000000
-3.167700 0.000000
-3.155000 0.000000
-3.142400 0.000000
-3.129700 0.000000
-3.117100 0.000000
-3.104400 0.000000
-3.091800 0.000000
-3.079100 0.000000
-3.066500 0.000000
-3.053800 0.000000
-3.041100 0.000000
-3.028500 0.000000
-3.015800 0.000000
-3.003200 0.000000
-2.990500 0.000000
-2.977900 0.000000
-2.965200 0.000000
-2.952500 0.000000
-2.939900 0.000000
-2.927200 0.000000
-2.914600 0.000000
-2.901900 0.000000
-2.889300 0.000000
-2.876600 0.000000
-2.863900 0.000000
-2.851300 0.000000
-2.838600 0.000000
-2.826000 0.000000
-2.813300 0.000000
-2.800700 0.000000
-2.788000 0.000000
-2.775300 0.000000
-2.762700 0.000000
-2.750000 0.000000
-2.737400 0.000000
-2.724700 0.000000
-2.712100 0.000000
-2.699400 0.000000
-2.686800 0.000000
-2.674100 18.885000
-2.661400 60.048300
-2.648800 38.004500
-2.636100 51.055100
-2.623500 46.093500
-2.610800 52.715300
-2.598200 59.337200
-2.585500 54.773200
-2.572800 47.856400
-2.560200 41.444300
-2.547500 40.547400
-2.534900 39.650400
-2.522200 36.455200
-2.509600 31.392900
-2.496900 27.024700
-2.484200 24.927100
-2.471600 21.470800
-2.458900 21.373500
-2.446300 21.276200
-2.433600 21.178900
-2.421000 21.081600
-2.408300 20.984300
-2.395700 21.169500
-2.383000 22.751600
-2.370300 26.528700
-2.357700 31.840800
-2.345000 42.463900
-2.332400 40.678600
-2.319700 39.860800
-2.307100 14.447400
-2.294400 15.116200
-2.281700 15.785000
-2.269100 16.595100
-2.256400 17.436000
-2.243800 33.307200
-2.231100 24.640400
-2.218500 7.404900
-2.205800 7.269400
-2.193100 7.133900
-2.180500 6.998400
-2.167800 6.862900
-2.155200 6.727500
-2.142500 11.977800
-2.129900 12.307300
-2.117200 1.881500
-2.104500 1.833800
-2.091900 4.492200
-2.079200 2.776600
-2.066600 1.061000
-2.053900 0.000000
-2.041300 0.000000
-2.028600 0.000000
-2.016000 0.000000
-2.003300 0.000000
-1.990600 0.000000
-1.978000 0.000000
-1.965300 0.000000
-1.952700 0.000000
-1.940000 0.000000
-1.927400 0.000000
-1.914700 0.000000
-1.902000 0.000000
-1.889400 0.000000
-1.876700 0.000000
-1.864100 0.000000
-1.851400 0.000000
-1.838800 0.000000
-1.826100 0.000000
-1.813400 0.000000
-1.800800 0.000000
-1.788100 0.000000
-1.775500 0.000000
-1.762800 4.913100
-1.750200 8.315500
-1.737500 5.667400
-1.724900 10.390300
-1.712200 11.916700
-1.699500 9.478500
-1.686900 8.930900
-1.674200 16.979700
-1.661600 15.404700
-1.648900 14.482400
-1.636300 13.961600
-1.623600 19.194200
-1.610900 23.133100
-1.598300 20.195700
-1.585600 19.310200
-1.573000 18.998300
-1.560300 19.703700
-1.547700 20.409200
-1.535000 21.114700
-1.522300 21.820100
-1.509700 22.525600
-1.497000 23.231000
-1.484400 23.936500
-1.471700 30.576300
-1.459100 33.140100
-1.446400 27.371400
-1.433700 18.799500
-1.421100 19.186900
-1.408400 19.574400
-1.395800 14.928200
-1.383100 15.106700
-1.370500 15.285100
-1.357800 15.463500
-1.345200 20.811100
-1.332500 11.038600
-1.319800 11.028100
-1.307200 18.772700
-1.294500 8.626000
-1.281900 8.524200
-1.269200 8.422500
-1.256600 8.866200
-1.243900 8.801100
-1.231200 9.324700
-1.218600 9.893200
-1.205900 9.904700
-1.193300 9.925800
-1.180600 11.230200
-1.168000 11.317100
-1.155300 12.061600
-1.142600 12.182900
-1.130000 13.636600
-1.117300 13.811700
-1.104700 13.986700
-1.092000 14.161800
-1.079400 14.336100
-1.066700 14.507700
-1.054100 14.677500
-1.041400 14.847300
-1.028700 15.017100
-1.016100 15.181100
-1.003400 15.338500
-0.990800 15.489000
-0.978100 15.639400
-0.965500 15.789900
-0.952800 15.940300
-0.940100 16.090800
-0.927500 16.241200
-0.914800 16.391700
-0.902200 16.542100
-0.889500 16.692600
-0.876900 16.843000
-0.864200 16.993500
-0.851500 17.143900
-0.838900 18.818300
-0.826200 20.159200
-0.813600 21.500100
-0.800900 23.796700
-0.788300 27.744500
-0.775600 29.544200
-0.762900 30.321300
-0.750300 30.710400
-0.737600 33.424600
-0.725000 34.582600
-0.712300 34.901200
-0.699700 36.484000
-0.687000 38.497200
-0.674400 38.079100
-0.661700 38.852300
-0.649000 37.930600
-0.636400 38.024100
-0.623700 38.109300
-0.611100 36.915700
-0.598400 36.906200
-0.585800 36.822100
-0.573100 36.853600
-0.560400 36.899700
-0.547800 37.069800
-0.535100 36.222700
-0.522500 36.377900
-0.509800 36.522500
-0.497200 35.922200
-0.484500 36.238800
-0.471800 36.940100
-0.459200 37.765900
-0.446500 38.737400
-0.433900 39.741400
-0.421200 39.945000
-0.408600 40.776700
-0.395900 41.585800
-0.383300 42.317500
-0.370600 40.449100
-0.357900 39.879300
-0.345300 38.792000
-0.332600 36.170300
-0.320000 32.709400
-0.307300 30.336600
-0.294700 29.373100
-0.282000 28.571100
-0.269300 27.727200
-0.256700 31.712000
-0.244000 29.871700
-0.231400 26.725100
-0.218700 26.882800
-0.206100 25.835200
-0.193400 24.788100
-0.180700 24.057100
-0.168100 23.064400
-0.155400 22.366000
-0.142800 21.336900
-0.130100 20.307700
-0.117500 19.278600
-0.104800 18.587400
-0.092100 18.022900
-0.079500 17.518800
-0.066800 17.064000
-0.054200 16.672700
-0.041500 16.372200
-0.028900 16.150600
-0.016200 15.929000
-0.003600 15.741400
0.009100 15.524000
0.021800 16.190200
0.034400 16.219700
0.047100 16.336500
0.059700 16.365600
0.072400 17.574100
0.085000 18.938700
0.097700 19.510300
0.110400 20.081900
0.123000 20.653500
0.135700 21.225100
0.148300 22.031900
0.161000 22.636000
0.173600 24.260900
0.186300 27.416000
0.199000 31.520000
0.211600 36.072400
0.224300 37.288800
0.236900 37.892000
0.249600 39.137300
0.262200 40.499600
0.274900 42.372500
0.287500 42.903400
0.300200 44.903500
0.312900 51.469500
0.325500 56.414300
0.338200 60.919700
0.350800 72.083300
0.363500 64.073800
0.376100 81.173200
0.388800 87.481400
0.401500 98.606300
0.414100 72.493200
0.426800 60.544900
0.439400 51.399000
0.452100 55.001600
0.464700 62.131700
0.477400 60.415800
0.490100 65.375900
0.502700 55.352900
0.515400 73.777900
0.528000 45.211200
0.540700 53.796900
0.553300 81.749200
0.566000 69.161700
0.578700 72.377800
0.591300 61.121700
0.604000 65.578300
0.616600 66.922400
0.629300 61.209000
0.641900 57.310900
0.654600 56.672500
0.667200 54.868300
0.679900 49.258000
0.692600 46.710600
0.705200 44.355500
0.717900 38.547200
0.730500 33.841900
0.743200 30.462600
0.755800 27.473800
0.768500 24.487500
0.781200 21.630700
0.793800 18.870100
0.806500 22.610700
0.819100 23.894200
0.831800 11.192900
0.844400 13.610100
0.857100 10.433600
0.869800 0.000000
0.882400 0.000000
0.895100 0.000000
0.907700 0.000000
0.920400 0.000000
0.933000 0.000000
0.945700 0.000000
0.958300 0.000000
0.971000 0.000000
0.983700 0.000000
0.996300 0.000000
1.009000 0.000000
1.021600 0.000000
1.034300 0.000000
1.046900 0.000000
1.059600 0.000000
1.072300 0.000000
1.084900 0.000000
1.097600 0.000000
1.110200 0.000000
1.122900 0.000000
1.135500 0.000000
1.148200 0.000000
1.160900 0.000000
1.173500 0.000000
1.186200 0.000000
1.198800 0.000000
1.211500 0.000000
1.224100 0.000000
1.236800 0.000000
1.249400 0.000000
1.262100 0.000000
1.274800 0.000000
1.287400 0.000000
1.300100 0.000000
1.312700 0.000000
1.325400 0.000000
1.338000 0.000000
1.350700 0.000000
1.363400 0.000000
1.376000 0.000000
1.388700 0.000000
1.401300 0.000000
1.414000 0.000000
1.426600 0.000000
1.439300 0.000000
1.452000 0.000000
1.464600 0.000000
1.477300 0.000000
1.489900 0.000000
1.502600 0.000000
1.515200 0.000000
1.527900 0.000000
1.540600 0.000000
1.553200 0.000000
1.565900 0.000000
1.578500 0.000000
1.591200 0.000000
1.603800 0.000000
1.616500 0.000000
1.629100 0.000000
1.641800 0.000000
1.654500 0.000000
1.667100 0.000000
1.679800 0.000000
1.692400 0.000000
1.705100 0.000000
1.717700 0.000000
1.730400 0.000000
1.743100 0.000000
1.755700 0.000000
1.768400 0.000000
1.781000 0.000000
1.793700 0.000000
1.806300 0.000000
1.819000 0.000000
1.831700 0.000000
1.844300 0.000000
1.857000 0.000000
1.869600 0.000000
1.882300 0.000000
1.894900 0.000000
1.907600 0.000000
1.920200 0.000000
1.932900 0.000000
1.945600 0.000000
1.958200 0.000000
1.970900 0.000000
1.983500 0.000000
1.996200 0.000000
2.008800 0.000000
2.021500 0.000000
2.034200 0.000000
2.046800 0.000000
2.059500 0.000000
2.072100 0.000000
2.084800 0.000000
2.097400 0.000000
2.110100 0.000000
2.122800 0.000000
2.135400 0.000000
2.148100 0.000000
2.160700 0.000000
2.173400 0.000000
2.186000 0.000000
2.198700 0.000000
2.211400 0.000000
2.224000 0.000000
2.236700 0.000000
2.249300 0.000000
2.262000 0.000000
2.274600 0.000000
2.287300 0.000000
2.299900 0.000000
2.312600 0.000000
2.325300 0.000000
2.337900 0.000000
2.350600 0.000000
2.363200 0.000000
2.375900 0.000000
2.388500 0.000000
2.401200 0.000000
2.413900 0.000000
2.426500 0.000000
2.439200 0.000000
2.451800 0.000000
2.464500 0.000000
2.477100 0.000000
2.489800 0.000000
2.502500 0.000000
2.515100 0.000000
2.527800 0.000000
2.540400 0.000000
2.553100 0.000000
2.565700 0.000000
2.578400 0.000000
2.591000 0.000000
2.603700 0.000000
2.616400 0.000000
2.629000 0.000000
2.641700 0.000000
2.654300 0.000000
2.667000 0.000000
2.679600 0.000000
2.692300 0.000000
2.705000 0.000000
2.717600 0.000000
2.730300 0.000000
2.742900 0.000000
2.755600 0.000000
2.768200 0.000000
2.780900 0.000000
2.793600 0.000000
2.806200 0.000000
2.818900 0.000000
2.831500 0.000000
2.844200 0.000000
2.856800 0.000000
2.869500 0.000000
2.882200 0.000000
2.894800 0.000000
2.907500 0.000000
2.920100 0.000000
2.932800 0.000000
2.945400 0.000000
2.958100 0.000000
2.970700 0.000000
2.983400 0.000000
2.996100 0.000000
3.008700 0.000000
3.021400 0.000000
3.034000 0.000000
3.046700 0.000000
3.059300 0.000000
3.072000 0.000000
3.084700 0.000000
3.097300 0.000000
3.110000 0.000000
3.122600 0.000000
3.135300 0.000000
3.147900 0.000000
3.160600 0.000000
3.173300 0.000000
3.185900 0.000000
3.198600 0.000000
3.211200 0.000000
3.223900 0.000000
3.236500 0.000000
3.249200 0.000000
3.261800 0.000000
3.274500 0.000000
3.287200 0.000000
3.299800 0.000000
3.312500 0.857200
3.325100 0.903000
3.337800 1.759700
3.350400 1.843700
3.363100 2.805000
3.375800 2.926200
3.388400 4.002400
3.401100 4.156500
3.413700 4.310700
3.426400 4.475200
3.439000 5.842900
3.451700 7.243800
3.464400 7.470000
3.477000 7.696200
3.489700 9.399900
3.502300 10.917400
3.515000 11.165200
3.527600 11.413100
3.540300 11.661000
3.553000 11.908900
3.565600 12.156800
3.578300 12.404700
3.590900 12.652600
3.603600 12.938800
3.616200 13.354700
3.628900 13.770600
3.641500 14.191900
3.654200 15.126200
3.666900 16.152100
3.679500 17.178100
3.692200 18.245600
3.704800 19.365700
3.717500 20.485900
3.730100 21.606000
3.742800 22.726200
3.755500 23.846300
3.768100 25.158900
3.780800 26.478600
3.793400 28.000600
3.806100 26.338800
3.818700 31.618300
3.831400 31.659700
3.844100 29.760800
3.856700 31.373500
3.869400 27.986500
3.882000 34.823000
3.894700 36.064200
3.907300 33.109200
3.920000 32.016700
3.932600 32.603900
3.945300 32.053700
3.958000 30.531600
3.970600 28.943900
3.983300 26.902300
3.995900 25.727000
4.008600 24.534600
4.021200 23.986800
4.033900 22.642200
4.046600 20.747900
4.059200 19.841800
4.071900 18.960200
4.084500 20.596800
4.097200 18.577500
4.109800 16.558300
4.122500 14.539100
4.135200 12.519900
4.147800 14.901600
4.160500 7.332000
4.173100 10.459700
4.185800 13.929800
4.198400 6.438800
4.211100 0.000000
4.223800 0.000000
4.236400 0.000000
4.249100 0.000000
4.261700 0.000000
4.274400 0.000000
4.287000 0.000000
4.299700 0.000000
4.312300 0.000000
4.325000 0.000000
4.337700 0.000000
4.350300 0.000000
4.363000 0.000000
4.375600 0.000000
4.388300 0.000000
4.400900 0.000000
4.413600 0.000000
4.426300 0.000000
4.438900 0.000000
4.451600 0.000000
4.464200 0.000000
4.476900 0.000000
4.489500 0.000000
4.502200 0.000000
4.514900 0.000000
4.527500 0.000000
4.540200 0.000000
4.552800 0.000000
4.565500 0.000000
4.578100 0.000000
4.590800 0.000000
4.603400 0.000000
4.616100 0.000000
4.628800 0.000000
4.641400 0.000000
4.654100 0.000000
4.666700 0.000000
4.679400 0.000000
4.692000 0.000000
4.704700 0.000000
4.717400 0.000000
4.730000 0.000000
4.742700 0.000000
4.755300 0.000000
4.768000 0.000000
4.780600 0.000000
4.793300 0.000000
4.806000 0.000000
4.818600 0.000000
4.831300 0.000000
4.843900 0.000000
4.856600 0.000000
4.869200 0.000000
4.881900 0.000000
4.894600 0.000000
4.907200 0.000000
4.919900 0.000000
4.932500 0.000000
4.945200 0.000000
4.957800 0.000000
4.970500 0.000000
4.983100 0.000000
4.995800 0.000000
5.008500 0.000000
5.021100 0.000000
5.033800 0.000000
5.046400 0.000000
5.059100 0.000000
5.071700 0.000000
5.084400 0.000000
5.097100 0.000000
5.109700 0.000000
5.122400 0.000000
5.135000 0.000000
5.147700 0.000000
5.160300 0.000000
5.173000 0.000000
5.185700 0.000000
5.198300 0.000000
5.211000 0.000000
5.223600 0.000000
5.236300 0.000000
5.248900 0.000000
5.261600 0.000000
5.274200 0.000000
5.286900 0.000000
5.299600 0.000000
5.312200 0.000000
5.324900 0.000000
5.337500 0.000000
5.350200 0.000000
5.362800 0.000000
5.375500 0.009200
5.388200 0.041300
5.400800 0.104500
5.413500 0.176900
5.426100 0.249200
5.438800 0.321600
5.451400 0.393900
5.464100 0.466300
5.476800 0.538600
5.489400 0.611000
5.502100 0.683300
5.514700 0.755700
5.527400 0.828000
5.540000 0.900400
5.552700 0.972700
5.565400 1.045100
5.578000 1.117400
5.590700 1.189800
5.603300 1.262100
5.616000 1.334500
5.628600 1.406800
5.641300 1.479200
5.653900 1.551500
5.666600 1.623900
5.679300 1.696200
5.691900 1.768600
5.704600 1.840900
5.717200 1.913300
5.729900 1.985600
5.742500 2.058000
5.755200 2.130400
5.767900 2.202700
5.780500 2.275100
5.793200 2.347400
5.805800 2.419800
5.818500 2.492100
5.831100 2.564500
5.843800 2.636800
5.856500 2.891300
5.869100 3.629100
5.881800 4.366800
5.894400 5.461000
5.907100 5.755600
5.919700 7.024800
5.932400 9.905300
5.945000 10.923200
5.957700 11.599400
5.970400 12.207000
5.983000 12.339400
5.995700 13.128600
6.008300 13.520400
6.021000 13.885400
6.033600 14.335400
6.046300 15.273400
6.059000 15.736600
6.071600 16.697700
6.084300 17.148700
6.096900 17.437100
6.109600 17.499900
6.122200 17.562600
6.134900 18.171800
6.147600 18.279500
6.160200 18.387100
6.172900 18.494800
6.185500 18.602500
6.198200 18.710200
6.210800 18.817800
6.223500 18.925500
6.236200 19.033200
6.248800 19.140900
6.261500 19.223700
6.274100 22.591900
6.286800 22.225600
6.299400 21.821900
6.312100 21.361000
6.324700 20.900200
6.337400 24.695900
6.350100 23.176300
6.362700 28.988200
6.375400 25.868700
6.388000 22.570800
6.400700 20.182200
6.413300 19.721600
6.426000 19.261000
6.438700 18.800400
6.451300 18.339900
6.464000 17.879300
6.476600 17.418700
6.489300 17.390700
6.501900 30.900000
6.514600 16.736300
6.527300 17.133500
6.539900 17.530600
6.552600 13.655900
6.565200 12.001200
6.577900 12.180900
6.590500 14.437100
6.603200 14.805900
6.615800 15.221800
6.628500 17.583500
6.641200 18.080000
6.653800 17.662000
6.666500 17.244100
6.679100 16.826200
6.691800 16.408300
6.704400 15.990400
6.717100 15.141900
6.729800 17.223200
6.742400 16.406900
6.755100 15.590600
6.767700 14.788700
6.780400 17.903800
6.793000 16.053700
6.805700 15.283500
6.818400 14.329500
6.831000 12.554700
6.843700 12.215600
6.856300 12.244500
6.869000 12.273500
6.881600 15.798200
6.894300 15.565800
6.907000 15.360500
6.919600 16.295000
6.932300 16.641600
6.944900 18.489200
6.957600 26.292000
6.970200 22.825100
6.982900 21.219200
6.995500 19.716900
7.008200 19.893200
7.020900 23.744300
7.033500 23.527400
7.046200 23.310400
7.058800 27.008300
7.071500 34.198500
7.084100 36.376300
7.096800 34.389400
7.109500 32.503300
7.122100 30.272800
7.134800 28.549900
7.147400 30.456600
7.160100 21.743100
7.172700 21.231200
7.185400 21.066200
7.198100 23.674800
7.210700 28.033800
7.223400 36.328200
7.236000 29.985900
7.248700 31.121000
7.261300 19.618800
7.274000 20.708600
7.286600 22.059100
7.299300 52.860200
7.312000 28.607700
7.324600 30.354400
7.337300 27.433900
7.349900 30.358500
7.362600 33.241100
7.375200 35.910700
7.387900 35.329500
7.400600 32.613300
7.413200 32.575400
7.425900 34.501100
7.438500 35.085100
7.451200 35.654500
7.463800 35.786500
7.476500 38.931200
7.489200 41.886200
7.501800 44.063300
7.514500 46.934400
7.527100 52.633200
7.539800 42.545900
7.552400 34.274400
7.565100 33.529500
7.577700 32.901600
7.590400 36.451100
7.603100 38.484200
7.615700 31.826000
7.628400 42.564100
7.641000 39.896400
7.653700 41.630900
7.666300 36.267800
7.679000 33.797700
7.691700 40.057500
7.704300 30.961800
7.717000 29.502600
7.729600 28.384400
7.742300 27.266100
7.754900 29.959100
7.767600 28.952200
7.780300 36.856700
7.792900 30.690300
7.805600 30.164200
7.818200 28.882600
7.830900 28.608200
7.843500 27.165800
7.856200 28.135800
7.868900 23.873900
7.881500 26.855000
7.894200 28.473600
7.906800 32.329600
7.919500 31.872500
7.932100 31.415500
7.944800 31.079900
7.957400 34.210200
7.970100 34.044000
7.982800 34.206800
7.995400 33.656000
8.008100 35.076000
8.020700 34.065500
8.033400 41.683500
8.046000 40.653800
8.058700 40.838200
8.071400 38.980200
8.084000 37.122100
8.096700 37.892900
8.109300 35.641600
8.122000 33.160600
8.134600 30.313500
8.147300 27.621200
8.160000 27.749000
8.172600 25.883300
8.185300 27.154200
8.197900 25.244000
8.210600 23.546000
8.223200 18.598200
8.235900 16.745200
8.248500 14.725500
8.261200 13.417600
8.273900 12.504300
8.286500 11.105300
8.299200 10.687000
8.311800 10.353300
8.324500 10.019500
8.337100 9.685700
8.349800 10.710000
8.362500 9.903900
8.375100 8.691100
8.387800 7.931800
8.400400 7.208900
8.413100 6.783800
8.425700 6.423800
8.438400 6.459300
8.451100 7.828800
8.463700 9.302600
8.476400 10.842700
8.489000 6.649500
8.501700 7.077800
8.514300 7.506200
8.527000 7.934600
8.539700 8.362900
8.552300 8.791300
8.565000 8.836100
8.577600 8.875700
8.590300 9.367700
8.602900 9.887900
8.615600 10.494900
8.628200 11.101800
8.640900 11.708800
8.653600 10.406800
8.666200 10.938800
8.678900 8.796400
8.691500 7.275800
8.704200 6.976100
8.716800 7.332200
8.729500 8.608800
8.742200 9.885400
8.754800 11.162000
8.767500 12.669900
8.780100 13.452900
8.792800 12.672500
8.805400 12.794600
8.818100 13.060600
8.830800 13.326500
8.843400 13.592500
8.856100 13.858500
8.868700 14.166800
8.881400 14.405200
8.894000 14.470100
8.906700 13.933100
8.919300 13.396200
8.932000 14.616800
8.944700 14.951200
8.957300 15.818600
8.970000 16.372200
8.982600 16.925800
8.995300 17.479300
9.007900 18.832300
9.020600 26.046500
9.033300 19.905900
9.045900 20.511600
9.058600 26.460600
9.071200 38.787000
9.083900 41.037100
9.096500 26.638000
9.109200 32.299000
9.121900 31.087800
9.134500 31.758900
9.147200 22.950700
9.159800 21.898800
9.172500 24.988000
9.185100 29.635000
9.197800 35.578900
9.210500 29.629300
9.223100 28.529000
9.235800 28.436200
9.248400 29.126000
9.261100 30.699300
9.273700 29.067200
9.286400 28.523400
9.299000 27.035300
9.311700 29.290900
9.324400 32.318200
9.337000 27.713300
9.349700 28.049600
9.362300 28.114900
9.375000 28.290000
9.387600 28.465000
9.400300 28.640100
9.413000 29.342300
9.425600 28.194800
9.438300 26.048800
9.450900 26.315300
9.463600 24.847400
9.476200 25.381900
9.488900 29.229900
9.501600 29.721300
9.514200 27.457900
9.526900 25.858500
9.539500 29.604900
9.552200 35.603000
9.564800 26.267100
9.577500 25.081500
9.590100 25.516000
9.602800 26.805200
9.615500 27.866600
9.628100 26.487500
9.640800 27.035500
9.653400 27.597000
9.666100 28.358500
9.678700 27.963900
9.691400 32.015100
9.704100 28.924900
9.716700 25.834700
9.729400 25.530000
9.742000 22.682000
9.754700 23.719600
9.767300 23.688500
9.780000 22.123000
9.792700 23.098600
9.805300 24.745300
9.818000 25.370500
9.830600 23.848700
9.843300 32.583500
9.855900 30.685600
9.868600 26.969200
9.881300 29.322200
9.893900 36.118600
9.906600 27.571500
9.919200 24.716000
9.931900 26.074800
9.944500 23.615600
9.957200 24.805300
9.969800 23.103000
9.982500 39.729900
9.995200 25.715200
10.007800 26.859600
10.020500 20.501800
10.033100 20.068700
10.045800 19.635600
10.058400 19.563600
10.071100 16.787500
10.083800 16.739200
10.096400 17.101200
10.109100 16.918700
10.121700 18.386900
10.134400 18.823100
10.147000 19.835300
10.159700 20.313100
10.172400 20.843600
10.185000 17.851300
10.197700 17.777000
10.210300 18.231400
10.223000 18.262500
10.235600 18.293600
10.248300 18.398400
10.260900 16.690300
10.273600 17.518800
10.286300 18.347200
10.298900 19.175700
10.311600 15.113600
10.324200 17.007200
10.336900 18.344700
10.349500 19.682200
10.362200 15.891600
10.374900 15.916300
10.387500 15.942000
10.400200 15.967700
10.412800 15.993400
10.425500 14.523600
10.438100 14.509600
10.450800 14.495500
10.463500 14.481500
10.476100 14.467400
10.488800 14.453400
10.501400 14.449500
10.514100 14.447000
10.526700 14.444400
10.539400 14.461100
10.552100 13.374700
10.564700 13.215800
10.577400 13.083100
10.590000 12.959400
10.602700 12.874100
10.615300 12.846100
10.628000 12.821200
10.640600 12.777600
10.653300 13.918300
10.666000 13.917200
10.678600 13.901700
10.691300 13.927300
10.703900 15.824200
10.716600 15.827100
10.729200 15.703100
10.741900 15.564300
10.754600 15.450600
10.767200 15.336900
10.779900 16.375000
10.792500 16.166100
10.805200 17.496100
10.817800 18.483700
10.830500 18.671500
10.843200 18.498200
10.855800 18.176200
10.868500 17.854300
10.881100 18.395100
10.893800 18.058600
10.906400 19.440800
10.919100 19.742900
10.931700 21.720100
10.944400 21.808700
10.957100 21.897400
10.969700 21.986000
10.982400 21.936600
10.995000 21.780700
11.007700 21.638600
11.020300 21.421800
11.033000 22.708300
11.045700 22.058900
11.058300 21.997200
11.071000 21.341800
11.083600 20.694900
11.096300 20.698800
11.108900 19.613000
11.121600 19.787600
11.134300 18.963600
11.146900 18.142800
11.159600 17.323900
11.172200 17.332900
11.184900 16.947600
11.197500 16.591000
11.210200 16.964700
11.222900 17.279200
11.235500 17.668400
11.248200 18.102400
11.260800 18.536400
11.273500 18.616800
11.286100 19.060000
11.298800 15.905000
11.311400 18.871200
11.324100 21.468500
11.336800 14.059800
11.349400 13.819900
11.362100 14.135500
11.374700 14.177200
11.387400 13.877800
11.400000 13.961900
11.412700 14.056000
11.425400 13.813900
11.438000 13.914300
11.450700 14.014700
11.463300 14.115200
11.476000 14.247200
11.488600 10.522900
11.501300 10.387900
11.514000 10.308200
11.526600 10.230100
11.539300 10.152000
11.551900 10.073900
11.564600 9.995800
11.577200 9.917700
11.589900 9.839600
11.602500 10.423400
11.615200 10.536400
11.627900 10.701900
11.640500 9.414400
11.653200 9.596900
11.665800 9.823200
11.678500 10.055600
11.691100 9.136000
11.703800 9.344300
11.716500 9.552700
11.729100 9.761000
11.741800 9.999700
11.754400 9.232100
11.767100 7.465700
11.779700 7.490400
11.792400 6.091900
11.805100 6.067000
11.817700 6.052600
11.830400 6.092700
11.843000 6.132800
11.855700 6.172900
11.868300 6.213000
11.881000 5.117800
11.893700 5.185900
11.906300 5.295800
11.919000 5.405700
11.931600 4.184300
11.944300 4.266800
11.956900 4.349300
11.969600 4.431800
11.982200 4.514300
11.994900 3.174500
12.007600 3.300600
12.020200 3.434700
12.032900 1.751500
12.045500 1.816800
12.058200 1.882100
12.070800 1.947400
12.083500 2.012700
12.096200 2.078100
12.108800 2.143400
12.121500 0.000000
12.134100 0.000000
12.146800 0.000000
12.159400 0.000000
12.172100 0.000000
12.184800 0.000000
12.197400 0.000000
12.210100 0.000000
12.222700 0.000000
12.235400 0.000000
12.248000 0.000000
12.260700 0.000000
12.273300 0.000000
12.286000 0.000000
12.298700 0.000000
12.311300 0.000000
12.324000 0.000000
12.336600 0.000000
12.349300 0.000000
12.361900 0.000000
12.374600 0.000000
12.387300 0.000000
12.399900 0.000000
12.412600 0.000000
12.425200 0.000000
12.437900 0.000000
12.450500 0.000000
12.463200 0.000000
12.475900 0.000000
12.488500 0.000000
12.501200 0.000000
12.513800 0.000000
12.526500 0.000000
12.539100 0.000000
12.551800 0.000000
12.564500 0.000000
12.577100 0.000000
12.589800 0.000000
12.602400 0.000000
12.615100 0.000000
12.627700 0.000000
12.640400 0.000000
12.653000 0.000000
12.665700 0.000000
12.678400 0.000000
12.691000 0.000000
12.703700 0.000000
12.716300 0.000000
12.729000 0.000000
12.741600 0.000000
12.754300 0.000000
12.767000 0.000000
12.779600 0.000000
12.792300 0.000000
12.804900 0.000000
12.817600 0.000000
12.830200 0.000000
12.842900 0.000000
12.855600 0.000000
12.868200 0.000000
12.880900 0.000000
12.893500 0.000000
12.906200 0.000000
12.918800 0.000000
12.931500 0.000000
12.944100 0.000000
12.956800 0.000000
12.969500 0.000000
12.982100 0.000000
12.994800 0.000000
13.007400 0.000000
13.020100 0.000000
13.032700 0.000000
13.045400 0.000000
13.058100 0.000000
13.070700 0.000000
13.083400 0.000000
13.096000 0.000000
13.108700 0.000000
13.121300 0.000000
13.134000 0.000000
13.146700 0.000000
13.159300 0.000000
13.172000 0.000000
13.184600 0.000000
13.197300 0.000000
13.209900 0.000000
13.222600 0.000000
13.235300 0.000000
13.247900 0.000000
13.260600 0.000000
e
