set title 'mp-1226316 - Density of States'
set xlabel 'Energy (eV)'
set ylabel 'DOS (states/eV)'
set grid
set xrange [-10:10]
set yrange [0:3.779]
set xzeroaxis lt -1
set terminal png size 800,600
set output 'mp-1226316_dos_gnuplot.png'
plot '-' using 1:2 with lines title 'DOS'
-37.901200 0.000000
-37.860700 0.000000
-37.820100 0.000000
-37.779500 0.000000
-37.738900 0.000000
-37.698300 0.000000
-37.657700 0.000000
-37.617200 0.000000
-37.576600 0.000000
-37.536000 0.000000
-37.495400 0.000000
-37.454800 0.000000
-37.414200 0.000000
-37.373600 0.000000
-37.333100 0.000000
-37.292500 0.000000
-37.251900 0.000000
-37.211300 0.000000
-37.170700 0.000000
-37.130100 0.000000
-37.089500 0.000000
-37.049000 0.000000
-37.008400 0.000000
-36.967800 0.000000
-36.927200 0.000000
-36.886600 0.000000
-36.846000 0.000000
-36.805400 0.000000
-36.764900 0.000000
-36.724300 0.000000
-36.683700 0.000000
-36.643100 0.000000
-36.602500 0.000000
-36.561900 0.000000
-36.521300 0.000000
-36.480800 0.000000
-36.440200 0.000000
-36.399600 0.000000
-36.359000 0.000000
-36.318400 0.000000
-36.277800 0.000000
-36.237300 0.000000
-36.196700 0.000000
-36.156100 0.000000
-36.115500 0.000000
-36.074900 0.000000
-36.034300 0.000000
-35.993700 0.000000
-35.953200 0.000000
-35.912600 0.000000
-35.872000 0.000000
-35.831400 0.000000
-35.790800 0.000000
-35.750200 0.000000
-35.709600 0.000000
-35.669100 0.000000
-35.628500 0.000000
-35.587900 0.000000
-35.547300 0.000000
-35.506700 0.000000
-35.466100 0.000000
-35.425500 0.000000
-35.385000 0.000000
-35.344400 0.000000
-35.303800 0.000000
-35.263200 0.000000
-35.222600 0.000000
-35.182000 0.000000
-35.141500 0.000000
-35.100900 0.000000
-35.060300 0.000000
-35.019700 0.000000
-34.979100 0.000000
-34.938500 0.000000
-34.897900 0.000000
-34.857400 0.000000
-34.816800 0.000000
-34.776200 0.000000
-34.735600 0.000000
-34.695000 0.000000
-34.654400 0.000000
-34.613800 0.000000
-34.573300 0.000000
-34.532700 0.000000
-34.492100 0.000000
-34.451500 0.000000
-34.410900 0.000000
-34.370300 0.000000
-34.329700 0.000000
-34.289200 0.000000
-34.248600 0.000000
-34.208000 3.701000
-34.167400 6.228600
-34.126800 14.977500
-34.086200 3.044900
-34.045600 3.316900
-34.005100 4.231100
-33.964500 6.109400
-33.923900 10.029800
-33.883300 5.848100
-33.842700 4.516200
-33.802100 0.000000
-33.761600 0.000000
-33.721000 0.000000
-33.680400 0.000000
-33.639800 0.000000
-33.599200 0.000000
-33.558600 0.000000
-33.518000 0.000000
-33.477500 0.000000
-33.436900 0.000000
-33.396300 0.000000
-33.355700 0.000000
-33.315100 0.000000
-33.274500 0.000000
-33.233900 0.000000
-33.193400 0.000000
-33.152800 0.000000
-33.112200 0.000000
-33.071600 0.000000
-33.031000 0.000000
-32.990400 0.000000
-32.949800 0.000000
-32.909300 0.000000
-32.868700 0.000000
-32.828100 0.000000
-32.787500 0.000000
-32.746900 0.000000
-32.706300 0.000000
-32.665800 0.000000
-32.625200 0.000000
-32.584600 0.000000
-32.544000 0.000000
-32.503400 0.000000
-32.462800 0.000000
-32.422200 0.000000
-32.381700 0.000000
-32.341100 0.000000
-32.300500 0.000000
-32.259900 0.000000
-32.219300 0.000000
-32.178700 0.000000
-32.138100 0.000000
-32.097600 0.000000
-32.057000 0.000000
-32.016400 0.000000
-31.975800 0.000000
-31.935200 0.000000
-31.894600 0.000000
-31.854000 0.000000
-31.813500 0.000000
-31.772900 0.000000
-31.732300 0.000000
-31.691700 0.000000
-31.651100 0.000000
-31.610500 0.000000
-31.569900 0.000000
-31.529400 0.000000
-31.488800 0.000000
-31.448200 0.000000
-31.407600 0.000000
-31.367000 0.000000
-31.326400 0.000000
-31.285900 0.000000
-31.245300 0.000000
-31.204700 0.000000
-31.164100 0.000000
-31.123500 0.000000
-31.082900 0.000000
-31.042300 0.000000
-31.001800 0.000000
-30.961200 0.000000
-30.920600 0.000000
-30.880000 0.000000
-30.839400 0.000000
-30.798800 0.000000
-30.758200 0.000000
-30.717700 0.000000
-30.677100 0.000000
-30.636500 0.000000
-30.595900 0.000000
-30.555300 0.000000
-30.514700 0.000000
-30.474100 0.000000
-30.433600 0.000000
-30.393000 0.000000
-30.352400 0.000000
-30.311800 0.000000
-30.271200 0.000000
-30.230600 0.000000
-30.190100 0.000000
-30.149500 0.000000
-30.108900 0.000000
-30.068300 0.000000
-30.027700 0.000000
-29.987100 0.000000
-29.946500 0.000000
-29.906000 0.000000
-29.865400 0.000000
-29.824800 0.000000
-29.784200 0.000000
-29.743600 0.000000
-29.703000 0.000000
-29.662400 0.000000
-29.621900 0.000000
-29.581300 0.000000
-29.540700 0.000000
-29.500100 0.000000
-29.459500 0.000000
-29.418900 0.000000
-29.378300 0.000000
-29.337800 0.000000
-29.297200 0.000000
-29.256600 0.000000
-29.216000 0.000000
-29.175400 0.000000
-29.134800 0.000000
-29.094200 0.000000
-29.053700 0.000000
-29.013100 0.000000
-28.972500 0.000000
-28.931900 0.000000
-28.891300 0.000000
-28.850700 0.000000
-28.810200 0.000000
-28.769600 0.000000
-28.729000 0.000000
-28.688400 0.000000
-28.647800 0.000000
-28.607200 0.000000
-28.566600 0.000000
-28.526100 0.000000
-28.485500 0.000000
-28.444900 0.000000
-28.404300 0.000000
-28.363700 0.000000
-28.323100 0.000000
-28.282500 0.000000
-28.242000 0.000000
-28.201400 0.000000
-28.160800 0.000000
-28.120200 0.000000
-28.079600 0.000000
-28.039000 0.000000
-27.998400 0.000000
-27.957900 0.000000
-27.917300 0.000000
-27.876700 0.000000
-27.836100 0.000000
-27.795500 0.000000
-27.754900 0.000000
-27.714400 0.000000
-27.673800 0.000000
-27.633200 0.000000
-27.592600 0.000000
-27.552000 0.000000
-27.511400 0.000000
-27.470800 0.000000
-27.430300 0.000000
-27.389700 0.000000
-27.349100 0.000000
-27.308500 0.000000
-27.267900 0.000000
-27.227300 0.000000
-27.186700 0.000000
-27.146200 0.000000
-27.105600 0.000000
-27.065000 0.000000
-27.024400 0.000000
-26.983800 0.000000
-26.943200 0.000000
-26.902600 0.000000
-26.862100 0.000000
-26.821500 0.000000
-26.780900 0.000000
-26.740300 0.000000
-26.699700 0.000000
-26.659100 0.000000
-26.618500 0.000000
-26.578000 0.000000
-26.537400 0.000000
-26.496800 0.000000
-26.456200 0.000000
-26.415600 0.000000
-26.375000 0.000000
-26.334500 0.000000
-26.293900 0.000000
-26.253300 0.000000
-26.212700 0.000000
-26.172100 0.000000
-26.131500 0.000000
-26.090900 0.000000
-26.050400 0.000000
-26.009800 0.000000
-25.969200 0.000000
-25.928600 0.000000
-25.888000 0.000000
-25.847400 0.000000
-25.806800 0.000000
-25.766300 0.000000
-25.725700 0.000000
-25.685100 0.000000
-25.644500 0.000000
-25.603900 0.000000
-25.563300 0.000000
-25.522700 0.000000
-25.482200 0.000000
-25.441600 0.000000
-25.401000 0.000000
-25.360400 0.000000
-25.319800 0.000000
-25.279200 0.000000
-25.238700 0.000000
-25.198100 0.000000
-25.157500 0.000000
-25.116900 0.000000
-25.076300 0.000000
-25.035700 0.000000
-24.995100 0.000000
-24.954600 0.000000
-24.914000 0.000000
-24.873400 0.000000
-24.832800 0.000000
-24.792200 0.000000
-24.751600 0.000000
-24.711000 0.000000
-24.670500 0.000000
-24.629900 0.000000
-24.589300 0.000000
-24.548700 0.000000
-24.508100 0.000000
-24.467500 0.000000
-24.426900 0.000000
-24.386400 0.000000
-24.345800 0.000000
-24.305200 0.000000
-24.264600 0.000000
-24.224000 0.000000
-24.183400 0.000000
-24.142800 0.000000
-24.102300 0.000000
-24.061700 0.000000
-24.021100 0.000000
-23.980500 0.000000
-23.939900 0.000000
-23.899300 0.000000
-23.858800 0.000000
-23.818200 0.000000
-23.777600 0.000000
-23.737000 0.000000
-23.696400 0.000000
-23.655800 0.000000
-23.615200 0.000000
-23.574700 0.000000
-23.534100 0.000000
-23.493500 0.000000
-23.452900 0.000000
-23.412300 0.000000
-23.371700 0.000000
-23.331100 0.000000
-23.290600 0.000000
-23.250000 0.000000
-23.209400 0.000000
-23.168800 0.000000
-23.128200 0.000000
-23.087600 0.000000
-23.047000 0.000000
-23.006500 0.000000
-22.965900 0.000000
-22.925300 0.000000
-22.884700 0.000000
-22.844100 0.000000
-22.803500 0.000000
-22.763000 0.000000
-22.722400 0.000000
-22.681800 0.000000
-22.641200 0.000000
-22.600600 0.000000
-22.560000 0.000000
-22.519400 0.000000
-22.478900 0.000000
-22.438300 0.000000
-22.397700 0.000000
-22.357100 0.000000
-22.316500 0.000000
-22.275900 0.000000
-22.235300 0.000000
-22.194800 0.000000
-22.154200 0.000000
-22.113600 0.000000
-22.073000 0.000000
-22.032400 0.000000
-21.991800 0.000000
-21.951200 0.000000
-21.910700 0.000000
-21.870100 0.000000
-21.829500 0.000000
-21.788900 0.000000
-21.748300 0.000000
-21.707700 0.000000
-21.667100 0.000000
-21.626600 0.000000
-21.586000 0.000000
-21.545400 0.000000
-21.504800 0.000000
-21.464200 0.000000
-21.423600 0.000000
-21.383100 0.000000
-21.342500 0.000000
-21.301900 0.000000
-21.261300 0.000000
-21.220700 0.000000
-21.180100 0.000000
-21.139500 0.000000
-21.099000 0.000000
-21.058400 0.000000
-21.017800 0.000000
-20.977200 0.000000
-20.936600 0.000000
-20.896000 0.000000
-20.855400 0.000000
-20.814900 0.000000
-20.774300 0.000000
-20.733700 0.000000
-20.693100 0.000000
-20.652500 0.000000
-20.611900 0.000000
-20.571300 0.000000
-20.530800 0.000000
-20.490200 0.000000
-20.449600 0.000000
-20.409000 0.000000
-20.368400 0.000000
-20.327800 0.000000
-20.287300 0.000000
-20.246700 0.000000
-20.206100 0.000000
-20.165500 0.000000
-20.124900 0.000000
-20.084300 0.000000
-20.043700 0.000000
-20.003200 0.000000
-19.962600 0.000000
-19.922000 0.000000
-19.881400 0.000000
-19.840800 0.000000
-19.800200 0.000000
-19.759600 0.000000
-19.719100 0.000000
-19.678500 0.000000
-19.637900 0.000000
-19.597300 0.000000
-19.556700 0.000000
-19.516100 0.000000
-19.475500 0.000000
-19.435000 0.000000
-19.394400 0.000000
-19.353800 0.000000
-19.313200 0.000000
-19.272600 0.000000
-19.232000 0.000000
-19.191400 0.000000
-19.150900 0.000000
-19.110300 0.000000
-19.069700 0.000000
-19.029100 0.000000
-18.988500 0.000000
-18.947900 0.000000
-18.907400 0.000000
-18.866800 0.000000
-18.826200 0.000000
-18.785600 0.000000
-18.745000 0.000000
-18.704400 0.000000
-18.663800 0.000000
-18.623300 0.000000
-18.582700 0.000000
-18.542100 0.000000
-18.501500 0.000000
-18.460900 0.000000
-18.420300 0.000000
-18.379700 0.000000
-18.339200 0.000000
-18.298600 0.000000
-18.258000 0.000000
-18.217400 0.000000
-18.176800 0.000000
-18.136200 0.000000
-18.095600 0.000000
-18.055100 0.000000
-18.014500 0.000000
-17.973900 0.000000
-17.933300 0.000000
-17.892700 0.000000
-17.852100 0.000000
-17.811600 0.000000
-17.771000 0.000000
-17.730400 0.000000
-17.689800 0.000000
-17.649200 0.000000
-17.608600 0.000000
-17.568000 0.000000
-17.527500 0.000000
-17.486900 0.000000
-17.446300 0.000000
-17.405700 0.000000
-17.365100 0.000000
-17.324500 0.000000
-17.283900 0.000000
-17.243400 0.000000
-17.202800 0.000000
-17.162200 0.000000
-17.121600 0.000000
-17.081000 0.000000
-17.040400 0.000000
-16.999800 0.000000
-16.959300 0.000000
-16.918700 0.000000
-16.878100 0.000000
-16.837500 0.000000
-16.796900 0.000000
-16.756300 0.000000
-16.715700 0.000000
-16.675200 0.000000
-16.634600 0.000000
-16.594000 0.000000
-16.553400 0.000000
-16.512800 0.000000
-16.472200 0.000000
-16.431700 0.000000
-16.391100 0.000000
-16.350500 0.000000
-16.309900 0.000000
-16.269300 0.000000
-16.228700 0.000000
-16.188100 0.000000
-16.147600 0.000000
-16.107000 0.000000
-16.066400 0.000000
-16.025800 0.000000
-15.985200 0.000000
-15.944600 0.000000
-15.904000 0.000000
-15.863500 0.000000
-15.822900 0.000000
-15.782300 0.000000
-15.741700 0.000000
-15.701100 0.000000
-15.660500 0.000000
-15.619900 0.000000
-15.579400 0.000000
-15.538800 0.000000
-15.498200 0.000000
-15.457600 0.000000
-15.417000 0.000000
-15.376400 0.000000
-15.335900 0.000000
-15.295300 0.000000
-15.254700 0.000000
-15.214100 0.000000
-15.173500 0.000000
-15.132900 0.000000
-15.092300 0.000000
-15.051800 0.000000
-15.011200 0.000000
-14.970600 0.000000
-14.930000 0.000000
-14.889400 0.000000
-14.848800 0.000000
-14.808200 0.000000
-14.767700 0.000000
-14.727100 0.000000
-14.686500 0.000000
-14.645900 0.000000
-14.605300 0.000000
-14.564700 0.000000
-14.524100 0.000000
-14.483600 0.000000
-14.443000 0.000000
-14.402400 0.000000
-14.361800 0.000000
-14.321200 0.000000
-14.280600 0.000000
-14.240000 0.000000
-14.199500 0.000000
-14.158900 0.000000
-14.118300 0.000000
-14.077700 0.000000
-14.037100 0.000000
-13.996500 0.000000
-13.956000 0.000000
-13.915400 0.000000
-13.874800 0.000000
-13.834200 0.000000
-13.793600 0.000000
-13.753000 0.000000
-13.712400 0.000000
-13.671900 0.000000
-13.631300 0.000000
-13.590700 0.000000
-13.550100 0.000000
-13.509500 0.000000
-13.468900 0.000000
-13.428300 0.000000
-13.387800 0.000000
-13.347200 0.000000
-13.306600 0.000000
-13.266000 0.000000
-13.225400 0.000000
-13.184800 0.000000
-13.144200 0.000000
-13.103700 0.000000
-13.063100 0.000000
-13.022500 0.000000
-12.981900 0.000000
-12.941300 0.000000
-12.900700 0.000000
-12.860200 0.000000
-12.819600 0.000000
-12.779000 0.000000
-12.738400 0.000000
-12.697800 0.000000
-12.657200 0.000000
-12.616600 0.000000
-12.576100 0.000000
-12.535500 0.000000
-12.494900 0.000000
-12.454300 0.000000
-12.413700 0.000000
-12.373100 0.000000
-12.332500 0.000000
-12.292000 0.000000
-12.251400 0.000000
-12.210800 0.000000
-12.170200 0.000000
-12.129600 0.000000
-12.089000 0.000000
-12.048400 0.000000
-12.007900 0.000000
-11.967300 0.000000
-11.926700 0.000000
-11.886100 0.000000
-11.845500 0.000000
-11.804900 0.000000
-11.764300 0.000000
-11.723800 0.000000
-11.683200 0.000000
-11.642600 0.000000
-11.602000 0.000000
-11.561400 0.000000
-11.520800 0.000000
-11.480300 0.000000
-11.439700 0.000000
-11.399100 0.000000
-11.358500 0.000000
-11.317900 0.000000
-11.277300 0.000000
-11.236700 0.000000
-11.196200 0.000000
-11.155600 0.000000
-11.115000 0.000000
-11.074400 0.000000
-11.033800 0.000000
-10.993200 0.000000
-10.952600 0.000000
-10.912100 0.000000
-10.871500 0.000000
-10.830900 0.000000
-10.790300 0.000000
-10.749700 0.000000
-10.709100 0.000000
-10.668500 0.000000
-10.628000 0.000000
-10.587400 0.000000
-10.546800 0.000000
-10.506200 0.000000
-10.465600 0.000000
-10.425000 0.000000
-10.384500 0.000000
-10.343900 0.000000
-10.303300 0.000000
-10.262700 0.000000
-10.222100 0.000000
-10.181500 0.000000
-10.140900 0.000000
-10.100400 0.000000
-10.059800 0.000000
-10.019200 0.000000
-9.978600 0.000000
-9.938000 0.000000
-9.897400 0.000000
-9.856800 0.000000
-9.816300 0.000000
-9.775700 0.000000
-9.735100 0.000000
-9.694500 0.000000
-9.653900 0.000000
-9.613300 0.000000
-9.572700 0.000000
-9.532200 0.000000
-9.491600 0.000000
-9.451000 0.000000
-9.410400 0.000000
-9.369800 0.000000
-9.329200 0.000000
-9.288600 0.000000
-9.248100 0.000000
-9.207500 0.000000
-9.166900 0.000000
-9.126300 0.000000
-9.085700 0.000000
-9.045100 0.000000
-9.004600 0.000000
-8.964000 0.000000
-8.923400 0.000000
-8.882800 0.000000
-8.842200 0.000000
-8.801600 0.000000
-8.761000 0.000000
-8.720500 0.000000
-8.679900 0.000000
-8.639300 0.000000
-8.598700 0.000000
-8.558100 0.000000
-8.517500 0.000000
-8.476900 0.000000
-8.436400 0.000000
-8.395800 0.000000
-8.355200 0.000000
-8.314600 0.000000
-8.274000 0.000000
-8.233400 0.000000
-8.192800 0.000000
-8.152300 0.000000
-8.111700 0.000000
-8.071100 0.000000
-8.030500 0.000000
-7.989900 0.000000
-7.949300 0.000000
-7.908800 0.000000
-7.868200 0.000000
-7.827600 0.000000
-7.787000 0.000000
-7.746400 0.000000
-7.705800 0.000000
-7.665200 0.000000
-7.624700 0.000000
-7.584100 0.000000
-7.543500 0.000000
-7.502900 0.000000
-7.462300 0.000000
-7.421700 0.000000
-7.381100 0.000000
-7.340600 0.000000
-7.300000 0.000000
-7.259400 0.000000
-7.218800 0.000000
-7.178200 0.000000
-7.137600 0.000000
-7.097000 0.000000
-7.056500 0.000000
-7.015900 0.000000
-6.975300 0.000000
-6.934700 0.000000
-6.894100 0.000000
-6.853500 0.000000
-6.812900 0.000000
-6.772400 0.000000
-6.731800 0.000000
-6.691200 0.000000
-6.650600 0.000000
-6.610000 0.000000
-6.569400 0.000000
-6.528900 0.000000
-6.488300 0.000000
-6.447700 0.000000
-6.407100 0.000000
-6.366500 0.000000
-6.325900 0.000000
-6.285300 0.000000
-6.244800 0.000000
-6.204200 0.000000
-6.163600 0.000000
-6.123000 0.000000
-6.082400 0.000000
-6.041800 0.000000
-6.001200 0.000000
-5.960700 0.000000
-5.920100 0.000000
-5.879500 0.000000
-5.838900 0.000000
-5.798300 0.000000
-5.757700 0.000000
-5.717100 0.000000
-5.676600 0.000000
-5.636000 0.000000
-5.595400 0.000000
-5.554800 0.000000
-5.514200 0.000000
-5.473600 0.000000
-5.433100 0.000000
-5.392500 0.000000
-5.351900 0.000000
-5.311300 0.000000
-5.270700 0.000000
-5.230100 0.000000
-5.189500 0.000000
-5.149000 0.000000
-5.108400 0.000000
-5.067800 0.000000
-5.027200 0.000000
-4.986600 0.000000
-4.946000 0.000000
-4.905400 0.000000
-4.864900 0.000000
-4.824300 0.000000
-4.783700 0.000000
-4.743100 0.000000
-4.702500 0.000000
-4.661900 0.000000
-4.621300 0.000000
-4.580800 0.000000
-4.540200 0.000000
-4.499600 0.000000
-4.459000 0.000000
-4.418400 0.000000
-4.377800 0.000000
-4.337300 0.000000
-4.296700 0.000000
-4.256100 0.000000
-4.215500 0.000000
-4.174900 0.000000
-4.134300 0.000000
-4.093700 0.000000
-4.053200 0.000000
-4.012600 0.000000
-3.972000 0.000000
-3.931400 0.000000
-3.890800 0.000000
-3.850200 0.000000
-3.809600 0.000000
-3.769100 0.000000
-3.728500 0.000000
-3.687900 0.000000
-3.647300 0.000000
-3.606700 0.000000
-3.566100 0.000000
-3.525500 0.000000
-3.485000 0.000000
-3.444400 0.000000
-3.403800 0.000000
-3.363200 0.000000
-3.322600 0.000000
-3.282000 0.000000
-3.241400 0.000000
-3.200900 0.000000
-3.160300 0.000000
-3.119700 0.000000
-3.079100 0.000000
-3.038500 0.000000
-2.997900 0.000000
-2.957400 0.000000
-2.916800 0.000000
-2.876200 0.000000
-2.835600 0.000000
-2.795000 0.000000
-2.754400 0.000000
-2.713800 0.000000
-2.673300 0.000000
-2.632700 0.000000
-2.592100 0.000000
-2.551500 0.000000
-2.510900 0.000000
-2.470300 0.000000
-2.429700 0.000000
-2.389200 0.000000
-2.348600 0.000000
-2.308000 0.000000
-2.267400 0.000000
-2.226800 0.000000
-2.186200 0.000000
-2.145600 0.000000
-2.105100 0.000000
-2.064500 0.000000
-2.023900 0.000000
-1.983300 0.000000
-1.942700 0.000000
-1.902100 0.000000
-1.861600 0.000000
-1.821000 0.000000
-1.780400 0.000000
-1.739800 0.000000
-1.699200 0.000000
-1.658600 0.000000
-1.618000 0.000000
-1.577500 0.000000
-1.536900 0.000000
-1.496300 0.000000
-1.455700 0.000000
-1.415100 0.000000
-1.374500 0.000000
-1.333900 0.000000
-1.293400 0.000000
-1.252800 0.000000
-1.212200 0.000000
-1.171600 0.000000
-1.131000 0.000000
-1.090400 0.003400
-1.049800 0.012100
-1.009300 0.023900
-0.968700 0.038100
-0.928100 0.054700
-0.887500 0.070500
-0.846900 0.069600
-0.806300 0.077800
-0.765700 0.086000
-0.725200 0.092700
-0.684600 0.097500
-0.644000 0.099300
-0.603400 0.092700
-0.562800 0.092800
-0.522200 0.095500
-0.481700 0.098200
-0.441100 0.100900
-0.400500 0.102700
-0.359900 0.103800
-0.319300 0.104400
-0.278700 0.104500
-0.238100 0.104300
-0.197600 0.104000
-0.157000 0.103800
-0.116400 0.103800
-0.075800 0.107600
-0.035200 0.113800
0.005400 0.122000
0.046000 0.131800
0.086500 0.143100
0.127100 0.146600
0.167700 0.150900
0.208300 0.156300
0.248900 0.161900
0.289500 0.168000
0.330100 0.174300
0.370600 0.180900
0.411200 0.186700
0.451800 0.193700
0.492400 0.202600
0.533000 0.212300
0.573600 0.220500
0.614100 0.226700
0.654700 0.231700
0.695300 0.233300
0.735900 0.228700
0.776500 0.232400
0.817100 0.236300
0.857700 0.240300
0.898200 0.244600
0.938800 0.249000
0.979400 0.253400
1.020000 0.257900
1.060600 0.262300
1.101200 0.266600
1.141800 0.270800
1.182300 0.278600
1.222900 0.290900
1.263500 0.307000
1.304100 0.327800
1.344700 0.357600
1.385300 0.384200
1.425900 0.404800
1.466400 0.427000
1.507000 0.446500
1.547600 0.457400
1.588200 0.463200
1.628800 0.484500
1.669400 0.508300
1.710000 0.534900
1.750500 0.562000
1.791100 0.589600
1.831700 0.799900
1.872300 0.932700
1.912900 1.045300
1.953500 1.166000
1.994000 1.152400
2.034600 1.201900
2.075200 1.292700
2.115800 1.523300
2.156400 1.627000
2.197000 1.670600
2.237600 1.664700
2.278100 1.598800
2.318700 1.545000
2.359300 1.511200
2.399900 1.533000
2.440500 1.521300
2.481100 1.553400
2.521700 1.570000
2.562200 1.577000
2.602800 1.704500
2.643400 1.863200
2.684000 2.012900
2.724600 2.209100
2.765200 2.239300
2.805800 2.238700
2.846300 2.131500
2.886900 2.036500
2.927500 1.956600
2.968100 1.896600
3.008700 1.813900
3.049300 1.723600
3.089800 1.675600
3.130400 1.945600
3.171000 1.734100
3.211600 1.847400
3.252200 1.838900
3.292800 1.859000
3.333400 1.916400
3.373900 2.030500
3.414500 2.030600
3.455100 2.025500
3.495700 1.763900
3.536300 1.826700
3.576900 2.111900
3.617500 2.439400
3.658000 2.511000
3.698600 2.621800
3.739200 2.670200
3.779800 2.538200
3.820400 2.049000
3.861000 2.073300
3.901600 2.384100
3.942100 2.202300
3.982700 1.716100
4.023300 1.280200
4.063900 0.997000
4.104500 0.711100
4.145100 0.670700
4.185700 1.048600
4.226200 1.471300
4.266800 1.814900
4.307400 2.130500
4.348000 2.192500
4.388600 2.191100
4.429200 2.360400
4.469700 2.579600
4.510300 2.835800
4.550900 2.503600
4.591500 2.414500
4.632100 2.841400
4.672700 2.545200
4.713300 2.674400
4.753800 2.706600
4.794400 3.394600
4.835000 3.102400
4.875600 2.947000
4.916200 2.724500
4.956800 2.565900
4.997400 2.496500
5.037900 2.560500
5.078500 2.373100
5.119100 2.283300
5.159700 2.215900
5.200300 1.999700
5.240900 2.054600
5.281500 2.074700
5.322000 1.997100
5.362600 1.977200
5.403200 2.084400
5.443800 2.240700
5.484400 2.463400
5.525000 2.871100
5.565500 3.127600
5.606100 2.852000
5.646700 2.384400
5.687300 2.279400
5.727900 2.226500
5.768500 2.190600
5.809100 1.872600
5.849600 1.778600
5.890200 1.902800
5.930800 2.122600
5.971400 2.400400
6.012000 2.699100
6.052600 2.623200
6.093200 2.841200
6.133700 3.321200
6.174300 3.338500
6.214900 3.258800
6.255500 2.713000
6.296100 2.648100
6.336700 2.487100
6.377300 2.522900
6.417800 2.557300
6.458400 2.778900
6.499000 2.918900
6.539600 3.222100
6.580200 2.667700
6.620800 2.373600
6.661400 2.211100
6.701900 2.180300
6.742500 2.221400
6.783100 2.157500
6.823700 2.190600
6.864300 2.181100
6.904900 2.227800
6.945400 1.937400
6.986000 1.957400
7.026600 1.826900
7.067200 1.890700
7.107800 1.620000
7.148400 1.681200
7.189000 2.232600
7.229500 2.649400
7.270100 3.019300
7.310700 2.978100
7.351300 3.021600
7.391900 3.153200
7.432500 2.764400
7.473100 3.435300
7.513600 2.765100
7.554200 2.458200
7.594800 1.827700
7.635400 1.570500
7.676000 1.988600
7.716600 2.608400
7.757200 2.967300
7.797700 2.418900
7.838300 2.432100
7.878900 2.531700
7.919500 2.716700
7.960100 2.733900
8.000700 2.771300
8.041200 2.848700
8.081800 2.909800
8.122400 2.344400
8.163000 2.084600
8.203600 2.079800
8.244200 2.091700
8.284800 2.061800
8.325300 2.171300
8.365900 2.018800
8.406500 2.006200
8.447100 2.126700
8.487700 2.219400
8.528300 2.328300
8.568900 2.654900
8.609400 2.523600
8.650000 2.431900
8.690600 2.152500
8.731200 1.849800
8.771800 1.568900
8.812400 1.990900
8.853000 1.848100
8.893500 1.704100
8.934100 1.702800
8.974700 1.837000
9.015300 1.995700
9.055900 2.322300
9.096500 2.450200
9.137100 2.548700
9.177600 2.669400
9.218200 2.409100
9.258800 2.411400
9.299400 2.020800
9.340000 1.955700
9.380600 2.129800
9.421100 2.082600
9.461700 2.054700
9.502300 2.151500
9.542900 2.154800
9.583500 2.105400
9.624100 2.224000
9.664700 2.303900
9.705200 2.308500
9.745800 2.246900
9.786400 2.124400
9.827000 2.074500
9.867600 2.078900
9.908200 2.102700
9.948800 2.115200
9.989300 2.142000
10.029900 2.359300
10.070500 2.720300
10.111100 2.760800
10.151700 2.873500
10.192300 3.193200
10.232900 3.693000
10.273400 3.692800
10.314000 3.342800
10.354600 3.242600
10.395200 3.201000
10.435800 3.045900
10.476400 3.093500
10.516900 3.015300
10.557500 3.707500
10.598100 3.486800
10.638700 2.826500
10.679300 2.672500
10.719900 2.662300
10.760500 2.422100
10.801000 2.323900
10.841600 2.227700
10.882200 2.078900
10.922800 0.774200
10.963400 0.798900
11.004000 0.787100
11.044600 0.771200
11.085100 0.755400
11.125700 0.740200
11.166300 0.726900
11.206900 0.715200
11.247500 0.706900
11.288100 0.700900
11.328700 0.697800
11.369200 0.697100
11.409800 0.694800
11.450400 0.686400
11.491000 0.677100
11.531600 0.669200
11.572200 0.660400
11.612800 0.645600
11.653300 0.614900
11.693900 0.613300
11.734500 0.616300
11.775100 0.619900
11.815700 0.612400
11.856300 0.610400
11.896800 0.612500
11.937400 0.612400
11.978000 0.611300
12.018600 0.609700
12.059200 0.607400
12.099800 0.605500
12.140400 0.603800
12.180900 0.601100
12.221500 0.598400
12.262100 0.596400
12.302700 0.594600
12.343300 0.592600
12.383900 0.590700
12.424500 0.588600
12.465000 0.586300
12.505600 0.583700
12.546200 0.581200
12.586800 0.577100
12.627400 0.569300
12.668000 0.562000
12.708600 0.558000
12.749100 0.555500
12.789700 0.555300
12.830300 0.558700
12.870900 0.562400
12.911500 0.568800
12.952100 0.583500
12.992600 0.585700
13.033200 0.581900
13.073800 0.572900
13.114400 0.556700
13.155000 0.546100
13.195600 0.537000
13.236200 0.528600
13.276700 0.519000
13.317300 0.511000
13.357900 0.505900
13.398500 0.500700
13.439100 0.494800
13.479700 0.488400
13.520300 0.481900
13.560800 0.477100
13.601400 0.488100
13.642000 0.494300
13.682600 0.498100
13.723200 0.500500
13.763800 0.503200
13.804400 0.540800
13.844900 0.576500
13.885500 0.572600
13.926100 0.561600
13.966700 0.548500
14.007300 0.517500
14.047900 0.481300
14.088500 0.462200
14.129000 0.452800
14.169600 0.449600
14.210200 0.449800
14.250800 0.448500
14.291400 0.448900
14.332000 0.447400
14.372500 0.446900
14.413100 0.445900
14.453700 0.442600
14.494300 0.436000
14.534900 0.433700
14.575500 0.434200
14.616100 0.434000
14.656600 0.435100
14.697200 0.437700
14.737800 0.441600
14.778400 0.449400
14.819000 0.457300
14.859600 0.465100
14.900200 0.471900
14.940700 0.477100
14.981300 0.474700
15.021900 0.471900
15.062500 0.468100
15.103100 0.467100
15.143700 0.456300
15.184300 0.431700
15.224800 0.416100
15.265400 0.407400
15.306000 0.378300
15.346600 0.356200
15.387200 0.343100
15.427800 0.331800
15.468300 0.322600
15.508900 0.317300
15.549500 0.315500
15.590100 0.314600
15.630700 0.314500
15.671300 0.315000
15.711900 0.315900
15.752400 0.315600
15.793000 0.325500
15.833600 0.340500
15.874200 0.760300
15.914800 0.560800
15.955400 0.467800
15.996000 0.445200
16.036500 0.390500
16.077100 0.315900
16.117700 0.264600
16.158300 0.236500
16.198900 0.217200
16.239500 0.217700
16.280100 0.274800
16.320600 0.363000
16.361200 0.504600
16.401800 0.816700
16.442400 0.999500
16.483000 1.125300
16.523600 1.245400
16.564200 1.124100
16.604700 0.971200
16.645300 0.826000
16.685900 0.771600
16.726500 0.716600
16.767100 0.704300
16.807700 0.645900
16.848200 0.577600
16.888800 0.509600
16.929400 0.463000
16.970000 0.452500
17.010600 0.469200
17.051200 0.508000
17.091800 0.544200
17.132300 0.564800
17.172900 0.596600
17.213500 0.629200
17.254100 0.669700
17.294700 0.706800
17.335300 0.765000
17.375900 0.810100
17.416400 0.809900
17.457000 0.771400
17.497600 0.720500
17.538200 0.708300
17.578800 0.696500
17.619400 0.669700
17.660000 0.629700
17.700500 0.603600
17.741100 0.591100
17.781700 0.587700
17.822300 0.591500
17.862900 0.597200
17.903500 0.601700
17.944000 0.605500
17.984600 0.597900
18.025200 0.553700
18.065800 0.523000
18.106400 0.511700
18.147000 0.519800
18.187600 0.539900
18.228100 0.566600
18.268700 0.571200
18.309300 0.573200
18.349900 0.517300
18.390500 0.514700
18.431100 0.521900
18.471700 0.536300
18.512200 0.555500
18.552800 0.579200
18.593400 0.605600
18.634000 0.647700
18.674600 0.690100
18.715200 0.666500
18.755800 0.622000
18.796300 0.631600
18.836900 0.627600
18.877500 0.623100
18.918100 0.616500
18.958700 0.610300
18.999300 0.602900
19.039900 0.592700
19.080400 0.583300
19.121000 0.576700
19.161600 0.566300
19.202200 0.550300
19.242800 0.534900
19.283400 0.532400
19.323900 0.536400
19.364500 0.546200
19.405100 0.565100
19.445700 0.598000
19.486300 0.659800
19.526900 0.601000
19.567500 0.550700
19.608000 0.503500
19.648600 0.482800
19.689200 0.485300
19.729800 0.492800
19.770400 0.504800
19.811000 0.531000
19.851600 0.561600
19.892100 0.592100
19.932700 0.639200
19.973300 0.674100
20.013900 0.700400
20.054500 0.718000
20.095100 0.729900
20.135700 0.726900
20.176200 0.729300
20.216800 0.730800
20.257400 0.736500
20.298000 0.745700
20.338600 0.757400
20.379200 0.768500
20.419700 0.788200
20.460300 0.793600
20.500900 0.791100
20.541500 0.792700
20.582100 0.804900
20.622700 0.830200
20.663300 0.774500
20.703800 0.764200
20.744400 0.764000
20.785000 0.764100
20.825600 0.768700
20.866200 0.796100
20.906800 0.758800
20.947400 0.721200
20.987900 0.692000
21.028500 0.677900
21.069100 0.675500
21.109700 0.675800
21.150300 0.676100
21.190900 0.684700
21.231500 0.699200
21.272000 0.705000
21.312600 0.717300
21.353200 0.686200
21.393800 0.683000
21.434400 0.689600
21.475000 0.701300
21.515600 0.716700
21.556100 0.745000
21.596700 0.779700
21.637300 0.794100
21.677900 0.824400
21.718500 0.862100
21.759100 1.066400
21.799600 0.892300
21.840200 0.863300
21.880800 0.909800
21.921400 0.970900
21.962000 1.086600
22.002600 1.161300
22.043200 1.157300
22.083700 1.153800
22.124300 1.146500
22.164900 1.100400
22.205500 1.067900
22.246100 1.050300
22.286700 1.060200
22.327300 1.069900
22.367800 1.011700
22.408400 0.964200
22.449000 0.940700
22.489600 0.932000
22.530200 0.915300
22.570800 0.908200
22.611400 0.907200
22.651900 0.917500
22.692500 0.925900
22.733100 0.929300
22.773700 0.932500
22.814300 0.943700
22.854900 0.951100
22.895400 0.960900
22.936000 0.978700
22.976600 1.002300
23.017200 1.016100
23.057800 1.031700
23.098400 1.049100
23.139000 1.077300
23.179500 1.095000
23.220100 1.102200
23.260700 1.084400
23.301300 1.051800
23.341900 1.049300
23.382500 1.061000
23.423100 1.084300
23.463600 1.103900
23.504200 1.118300
23.544800 1.144100
23.585400 1.161100
23.626000 1.261400
23.666600 1.215400
23.707200 1.266900
23.747700 1.357600
23.788300 1.349800
23.828900 1.319800
23.869500 1.316600
23.910100 1.308400
23.950700 1.307400
23.991300 1.297000
24.031800 1.293700
24.072400 1.303900
24.113000 1.329700
24.153600 1.364800
24.194200 1.390900
24.234800 1.382900
24.275300 1.371400
24.315900 1.360800
24.356500 1.349100
24.397100 1.310300
24.437700 1.284000
24.478300 1.281300
24.518900 1.288600
24.559400 1.333400
24.600000 1.408000
24.640600 1.429700
24.681200 1.404400
24.721800 1.424500
24.762400 1.445600
24.803000 1.401000
24.843500 1.357500
24.884100 1.362300
24.924700 1.364700
24.965300 1.362200
25.005900 1.353800
25.046500 1.338000
25.087100 1.338900
25.127600 1.308300
25.168200 1.259600
25.208800 1.215800
25.249400 1.177200
25.290000 1.147600
25.330600 1.130300
25.371100 1.132400
25.411700 1.187400
25.452300 1.385200
25.492900 1.411000
25.533500 1.403300
25.574100 1.356100
25.614700 1.318400
25.655200 1.333900
25.695800 1.237300
25.736400 1.141900
25.777000 1.171600
25.817600 1.230300
25.858200 1.303500
25.898800 1.381000
25.939300 1.439900
25.979900 1.471600
26.020500 1.486600
26.061100 1.479800
26.101700 1.470300
26.142300 1.379000
26.182900 1.354100
26.223400 1.329500
26.264000 1.346800
26.304600 1.393600
26.345200 1.345700
26.385800 1.298200
26.426400 1.239800
26.467000 1.173700
26.507500 1.092100
26.548100 1.020700
26.588700 0.980900
26.629300 0.954700
26.669900 0.932700
26.710500 0.916900
26.751000 0.903700
26.791600 0.909400
26.832200 0.946900
26.872800 0.992600
26.913400 1.009300
26.954000 0.999300
26.994600 0.978700
27.035100 0.950100
27.075700 0.910900
27.116300 0.899100
27.156900 0.898700
27.197500 0.912300
27.238100 0.905400
27.278700 0.888100
27.319200 0.874800
27.359800 0.853900
27.400400 0.839700
27.441000 0.835700
27.481600 0.826100
27.522200 0.816300
27.562800 0.809500
27.603300 0.805500
27.643900 0.808900
27.684500 0.816900
27.725100 0.825400
27.765700 0.833800
27.806300 0.875000
27.846800 0.929400
27.887400 0.936600
27.928000 0.934800
27.968600 0.938000
28.009200 0.944100
28.049800 0.929800
28.090400 0.912800
28.130900 0.854500
28.171500 0.782200
28.212100 0.746800
28.252700 0.730200
28.293300 0.683600
28.333900 0.647200
28.374500 0.627100
28.415000 0.612000
28.455600 0.601900
28.496200 0.596300
28.536800 0.596200
28.577400 0.602400
28.618000 0.608500
28.658600 0.619400
28.699100 0.653600
28.739700 0.658700
28.780300 0.678600
28.820900 0.698800
28.861500 0.713500
28.902100 0.732500
28.942700 0.791400
28.983200 0.843200
29.023800 0.890600
29.064400 0.944800
29.105000 0.963700
29.145600 0.987700
29.186200 1.016700
29.226700 1.051200
29.267300 1.106500
29.307900 1.123500
29.348500 1.093000
29.389100 1.084300
29.429700 1.084200
29.470300 1.136300
29.510800 1.236800
29.551400 1.110200
29.592000 1.024100
29.632600 0.972700
29.673200 0.972000
29.713800 0.998300
29.754400 1.014200
29.794900 1.046500
29.835500 1.113600
29.876100 1.148400
29.916700 1.206600
29.957300 1.283000
29.997900 1.403000
30.038500 1.483500
30.079000 1.532900
30.119600 1.604300
30.160200 1.671000
30.200800 1.720500
30.241400 1.587700
30.282000 1.578300
30.322500 1.621800
30.363100 1.715800
30.403700 1.703300
30.444300 1.673400
30.484900 1.649900
30.525500 1.556800
30.566100 1.445800
30.606600 1.407300
30.647200 1.428500
30.687800 1.440000
30.728400 1.383300
30.769000 1.290800
30.809600 1.240800
30.850200 1.237200
30.890700 1.201900
30.931300 1.171100
30.971900 1.129500
31.012500 1.145200
31.053100 1.199700
31.093700 1.239600
31.134300 1.355000
31.174800 1.435000
31.215400 1.472200
31.256000 1.483800
31.296600 1.431300
31.337200 1.418100
31.377800 1.387900
31.418400 1.362600
31.458900 1.349400
31.499500 1.348500
31.540100 1.240900
31.580700 1.181600
31.621300 1.141800
31.661900 1.110200
31.702400 1.103400
31.743000 1.168200
31.783600 1.191000
31.824200 1.127900
31.864800 1.071000
31.905400 1.031300
31.946000 1.002200
31.986500 0.981600
32.027100 0.968600
32.067700 0.976000
32.108300 0.977600
32.148900 0.972000
32.189500 0.984200
32.230100 0.997800
32.270600 0.981800
32.311200 0.981700
32.351800 1.004800
32.392400 1.034600
32.433000 1.046600
32.473600 1.023200
32.514200 0.960000
32.554700 0.906400
32.595300 0.907000
32.635900 0.940800
32.676500 0.982900
32.717100 0.994500
32.757700 0.936600
32.798200 0.825900
32.838800 0.831200
32.879400 0.715700
32.920000 0.689500
32.960600 0.684300
33.001200 0.675700
33.041800 0.661800
33.082300 0.650800
33.122900 0.646100
33.163500 0.629000
33.204100 0.619100
33.244700 0.599100
33.285300 0.582900
33.325900 0.564300
33.366400 0.547800
33.407000 0.524600
33.447600 0.496800
33.488200 0.483300
33.528800 0.480500
33.569400 0.482600
33.610000 0.506600
33.650500 0.575900
33.691100 0.606200
33.731700 0.628100
33.772300 0.634000
33.812900 0.664600
33.853500 0.687000
33.894100 0.705800
33.934600 0.745000
33.975200 0.743800
34.015800 0.788100
34.056400 0.794400
34.097000 0.793500
34.137600 0.851800
34.178100 0.934900
34.218700 0.978800
34.259300 1.014400
34.299900 1.106100
34.340500 1.184500
34.381100 1.218300
34.421700 1.199700
34.462200 1.127200
34.502800 1.123400
34.543400 1.049800
34.584000 1.015900
34.624600 0.945000
34.665200 0.889400
34.705800 0.856900
34.746300 0.830700
34.786900 0.820800
34.827500 0.838100
34.868100 0.909600
34.908700 0.967300
34.949300 1.084800
34.989900 1.181100
35.030400 1.214900
35.071000 1.244500
35.111600 1.231100
35.152200 1.164400
35.192800 1.105500
35.233400 1.097000
35.273900 1.079300
35.314500 1.048600
35.355100 1.016600
35.395700 0.983500
35.436300 1.011000
35.476900 1.044700
35.517500 1.033300
35.558000 0.993400
35.598600 1.022800
35.639200 1.044300
35.679800 1.198000
35.720400 1.141400
35.761000 1.153500
35.801600 1.168500
35.842100 1.141300
35.882700 1.122900
35.923300 1.127800
35.963900 1.120000
36.004500 1.140700
36.045100 1.163900
36.085700 1.198100
36.126200 1.129900
36.166800 1.130800
36.207400 1.146300
36.248000 1.194400
36.288600 1.281000
36.329200 1.288000
36.369800 1.321000
36.410300 1.335100
36.450900 1.329400
36.491500 1.341100
36.532100 1.243000
36.572700 1.114700
36.613300 1.080700
36.653800 1.038200
36.694400 1.000700
36.735000 1.067500
36.775600 1.087700
36.816200 1.158900
36.856800 1.188800
36.897400 1.235800
36.937900 1.267100
36.978500 1.214000
37.019100 1.202200
37.059700 1.145500
37.100300 1.097400
37.140900 1.075700
37.181500 1.067400
37.222000 1.083700
37.262600 1.066600
37.303200 1.020500
37.343800 1.004500
37.384400 0.996100
37.425000 1.011000
37.465600 0.946200
37.506100 0.837800
37.546700 0.768700
37.587300 0.719300
37.627900 0.634300
37.668500 0.539400
37.709100 0.497000
37.749600 0.520300
37.790200 0.582400
37.830800 0.681100
37.871400 0.810700
37.912000 0.880500
37.952600 0.762900
37.993200 0.684600
38.033700 0.592500
38.074300 0.498600
38.114900 0.449300
38.155500 0.339800
38.196100 0.273400
38.236700 0.223400
38.277300 0.167300
38.317800 0.114600
38.358400 0.080200
38.399000 0.066700
38.439600 0.062900
38.480200 0.059400
38.520800 0.056400
38.561400 0.053500
38.601900 0.050700
38.642500 0.048100
38.683100 0.045600
38.723700 0.043200
38.764300 0.041000
38.804900 0.039600
38.845500 0.038100
38.886000 0.036200
38.926600 0.033900
38.967200 0.031200
39.007800 0.027900
39.048400 0.024100
39.089000 0.019900
39.129500 0.015200
39.170100 0.010200
39.210700 0.007600
39.251300 0.006300
39.291900 0.005100
39.332500 0.004100
39.373100 0.003100
39.413600 0.002300
39.454200 0.001500
39.494800 0.000900
39.535400 0.000400
39.576000 0.000000
39.616600 0.000000
39.657200 0.000000
39.697700 0.000000
39.738300 0.000000
39.778900 0.000000
39.819500 0.000000
39.860100 0.000000
39.900700 0.000000
39.941300 0.000000
39.981800 0.000000
40.022400 0.000000
40.063000 0.000000
40.103600 0.000000
40.144200 0.000000
40.184800 0.000000
40.225300 0.000000
40.265900 0.000000
40.306500 0.000000
40.347100 0.000000
40.387700 0.000000
40.428300 0.000000
40.468900 0.000000
40.509400 0.000000
40.550000 0.000000
40.590600 0.000000
40.631200 0.000000
40.671800 0.000000
40.712400 0.000000
40.753000 0.000000
40.793500 0.000000
40.834100 0.000000
40.874700 0.000000
40.915300 0.000000
40.955900 0.000000
40.996500 0.000000
41.037100 0.000000
41.077600 0.000000
41.118200 0.000000
41.158800 0.000000
41.199400 0.000000
41.240000 0.000000
41.280600 0.000000
41.321200 0.000000
41.361700 0.000000
41.402300 0.000000
41.442900 0.000000
41.483500 0.000000
41.524100 0.000000
41.564700 0.000000
41.605200 0.000000
41.645800 0.000000
41.686400 0.000000
41.727000 0.000000
41.767600 0.000000
41.808200 0.000000
41.848800 0.000000
41.889300 0.000000
41.929900 0.000000
41.970500 0.000000
42.011100 0.000000
42.051700 0.000000
42.092300 0.000000
42.132900 0.000000
42.173400 0.000000
42.214000 0.000000
42.254600 0.000000
42.295200 0.000000
42.335800 0.000000
42.376400 0.000000
42.417000 0.000000
42.457500 0.000000
42.498100 0.000000
42.538700 0.000000
42.579300 0.000000
42.619900 0.000000
42.660500 0.000000
42.701000 0.000000
42.741600 0.000000
42.782200 0.000000
42.822800 0.000000
42.863400 0.000000
42.904000 0.000000
42.944600 0.000000
42.985100 0.000000
43.025700 0.000000
43.066300 0.000000
43.106900 0.000000
43.147500 0.000000
43.188100 0.000000
43.228700 0.000000
43.269200 0.000000
e
