set title 'mp-1009134 - Density of States'
set xlabel 'Energy (eV)'
set ylabel 'DOS (states/eV)'
set grid
set xrange [-10:10]
set yrange [0:2.885]
set xzeroaxis lt -1
set terminal png size 800,600
set output 'mp-1009134_dos_gnuplot.png'
plot '-' using 1:2 with lines title 'DOS'
-53.430900 0.000000
-53.363600 0.000000
-53.296400 0.000000
-53.229100 0.000000
-53.161900 0.000000
-53.094600 0.000000
-53.027400 0.000000
-52.960100 0.000000
-52.892900 0.000000
-52.825600 0.000000
-52.758400 0.000000
-52.691100 0.000000
-52.623900 0.000000
-52.556600 0.000000
-52.489400 0.000000
-52.422100 0.000000
-52.354900 0.000000
-52.287600 0.000000
-52.220400 0.000000
-52.153100 0.000000
-52.085900 0.000000
-52.018600 0.000000
-51.951400 0.000000
-51.884100 0.000000
-51.816900 0.000000
-51.749600 0.000000
-51.682400 0.000000
-51.615100 0.000000
-51.547900 0.000000
-51.480600 0.000000
-51.413400 0.000000
-51.346100 0.000000
-51.278900 0.000000
-51.211600 0.000000
-51.144400 0.000000
-51.077100 0.000000
-51.009900 0.000000
-50.942600 0.000000
-50.875400 0.000000
-50.808100 0.000000
-50.740900 0.000000
-50.673600 0.000000
-50.606400 0.000000
-50.539100 0.000000
-50.471900 0.000000
-50.404600 0.000000
-50.337400 0.000000
-50.270100 0.000000
-50.202900 0.000000
-50.135600 0.000000
-50.068400 0.000000
-50.001100 0.000000
-49.933900 0.000000
-49.866600 0.000000
-49.799400 0.000000
-49.732100 0.000000
-49.664900 0.000000
-49.597600 0.000000
-49.530400 0.000000
-49.463100 0.000000
-49.395900 0.000000
-49.328600 0.000000
-49.261400 0.000000
-49.194100 0.000000
-49.126900 0.000000
-49.059600 0.000000
-48.992400 0.000000
-48.925100 0.000000
-48.857900 0.000000
-48.790600 0.000000
-48.723400 0.000000
-48.656100 0.000000
-48.588900 0.000000
-48.521600 0.000000
-48.454400 0.000000
-48.387100 0.000000
-48.319900 0.000000
-48.252600 0.000000
-48.185400 0.000000
-48.118100 0.000000
-48.050900 0.000000
-47.983600 0.000000
-47.916400 0.000000
-47.849100 0.000000
-47.781900 0.000000
-47.714600 0.000000
-47.647400 0.000000
-47.580100 0.000000
-47.512900 0.000000
-47.445600 0.000000
-47.378400 0.000000
-47.311100 3.898400
-47.243900 5.762600
-47.176600 19.987100
-47.109400 4.575600
-47.042100 6.934700
-46.974900 0.000000
-46.907600 0.000000
-46.840400 0.000000
-46.773100 0.000000
-46.705900 0.000000
-46.638600 0.000000
-46.571400 0.000000
-46.504100 0.000000
-46.436900 0.000000
-46.369600 0.000000
-46.302400 0.000000
-46.235100 0.000000
-46.167900 0.000000
-46.100600 0.000000
-46.033400 0.000000
-45.966100 0.000000
-45.898900 0.000000
-45.831600 0.000000
-45.764400 0.000000
-45.697100 0.000000
-45.629900 0.000000
-45.562600 0.000000
-45.495400 0.000000
-45.428100 0.000000
-45.360900 0.000000
-45.293600 0.000000
-45.226400 0.000000
-45.159100 0.000000
-45.091900 0.000000
-45.024600 0.000000
-44.957400 0.000000
-44.890100 0.000000
-44.822900 0.000000
-44.755600 0.000000
-44.688400 0.000000
-44.621100 0.000000
-44.553900 0.000000
-44.486600 0.000000
-44.419400 0.000000
-44.352100 0.000000
-44.284900 0.000000
-44.217600 0.000000
-44.150400 0.000000
-44.083100 0.000000
-44.015900 0.000000
-43.948600 0.000000
-43.881400 0.000000
-43.814100 0.000000
-43.746900 0.000000
-43.679600 0.000000
-43.612400 0.000000
-43.545100 0.000000
-43.477900 0.000000
-43.410600 0.000000
-43.343400 0.000000
-43.276100 0.000000
-43.208900 0.000000
-43.141600 0.000000
-43.074400 0.000000
-43.007100 0.000000
-42.939900 0.000000
-42.872600 0.000000
-42.805400 0.000000
-42.738100 0.000000
-42.670900 0.000000
-42.603600 0.000000
-42.536400 0.000000
-42.469100 0.000000
-42.401900 0.000000
-42.334600 0.000000
-42.267400 0.000000
-42.200100 0.000000
-42.132900 0.000000
-42.065600 0.000000
-41.998400 0.000000
-41.931100 0.000000
-41.863900 0.000000
-41.796600 0.000000
-41.729400 6.534100
-41.662100 3.504400
-41.594900 7.867500
-41.527600 14.439300
-41.460400 3.327600
-41.393100 4.548500
-41.325900 0.000000
-41.258600 0.000000
-41.191400 0.000000
-41.124100 0.000000
-41.056900 0.000000
-40.989600 0.000000
-40.922400 0.000000
-40.855100 0.000000
-40.787900 0.000000
-40.720600 0.000000
-40.653400 0.000000
-40.586100 0.000000
-40.518900 0.000000
-40.451600 0.000000
-40.384400 0.000000
-40.317100 0.000000
-40.249900 0.000000
-40.182600 0.000000
-40.115400 0.000000
-40.048100 0.000000
-39.980900 0.000000
-39.913600 0.000000
-39.846400 0.000000
-39.779100 0.000000
-39.711900 0.000000
-39.644600 0.000000
-39.577400 0.000000
-39.510100 0.000000
-39.442900 0.000000
-39.375600 0.000000
-39.308400 0.000000
-39.241100 0.000000
-39.173900 0.000000
-39.106600 0.000000
-39.039400 0.000000
-38.972100 0.000000
-38.904900 0.000000
-38.837600 0.000000
-38.770400 0.000000
-38.703100 0.000000
-38.635900 0.000000
-38.568600 0.000000
-38.501400 0.000000
-38.434100 0.000000
-38.366900 0.000000
-38.299600 0.000000
-38.232400 0.000000
-38.165100 0.000000
-38.097900 0.000000
-38.030600 0.000000
-37.963400 0.000000
-37.896100 0.000000
-37.828900 0.000000
-37.761600 0.000000
-37.694400 0.000000
-37.627100 0.000000
-37.559900 0.000000
-37.492600 0.000000
-37.425400 0.000000
-37.358100 0.000000
-37.290800 0.000000
-37.223600 0.000000
-37.156300 0.000000
-37.089100 0.000000
-37.021800 0.000000
-36.954600 0.000000
-36.887300 0.000000
-36.820100 0.000000
-36.752800 0.000000
-36.685600 0.000000
-36.618300 0.000000
-36.551100 0.000000
-36.483800 0.000000
-36.416600 0.000000
-36.349300 0.000000
-36.282100 0.000000
-36.214800 0.000000
-36.147600 0.000000
-36.080300 0.000000
-36.013100 0.000000
-35.945800 0.000000
-35.878600 0.000000
-35.811300 0.000000
-35.744100 0.000000
-35.676800 0.000000
-35.609600 0.000000
-35.542300 0.000000
-35.475100 0.000000
-35.407800 0.000000
-35.340600 0.000000
-35.273300 0.000000
-35.206100 0.000000
-35.138800 0.000000
-35.071600 0.000000
-35.004300 0.000000
-34.937100 0.000000
-34.869800 0.000000
-34.802600 0.000000
-34.735300 0.000000
-34.668100 0.000000
-34.600800 0.000000
-34.533600 0.000000
-34.466300 0.000000
-34.399100 0.000000
-34.331800 0.000000
-34.264600 0.000000
-34.197300 0.000000
-34.130100 0.000000
-34.062800 0.000000
-33.995600 0.000000
-33.928300 0.000000
-33.861100 0.000000
-33.793800 0.000000
-33.726600 0.000000
-33.659300 0.000000
-33.592100 0.000000
-33.524800 0.000000
-33.457600 0.000000
-33.390300 0.000000
-33.323100 0.000000
-33.255800 0.000000
-33.188600 0.000000
-33.121300 0.000000
-33.054100 0.000000
-32.986800 0.000000
-32.919600 0.000000
-32.852300 0.000000
-32.785100 0.000000
-32.717800 0.000000
-32.650600 0.000000
-32.583300 0.000000
-32.516100 0.000000
-32.448800 0.000000
-32.381600 0.000000
-32.314300 0.000000
-32.247100 0.000000
-32.179800 0.000000
-32.112600 0.000000
-32.045300 0.000000
-31.978100 0.000000
-31.910800 0.000000
-31.843600 0.000000
-31.776300 0.000000
-31.709100 0.000000
-31.641800 0.000000
-31.574600 0.000000
-31.507300 0.000000
-31.440100 0.000000
-31.372800 0.000000
-31.305600 0.000000
-31.238300 0.000000
-31.171100 0.000000
-31.103800 0.000000
-31.036600 0.000000
-30.969300 0.000000
-30.902100 0.000000
-30.834800 0.000000
-30.767600 0.000000
-30.700300 0.000000
-30.633100 0.000000
-30.565800 0.000000
-30.498600 0.000000
-30.431300 0.000000
-30.364100 0.000000
-30.296800 0.000000
-30.229600 0.000000
-30.162300 0.000000
-30.095100 0.000000
-30.027800 0.000000
-29.960600 0.000000
-29.893300 0.000000
-29.826100 0.000000
-29.758800 0.000000
-29.691600 0.000000
-29.624300 0.000000
-29.557100 0.000000
-29.489800 0.000000
-29.422600 0.000000
-29.355300 0.000000
-29.288100 0.000000
-29.220800 0.000000
-29.153600 0.000000
-29.086300 0.000000
-29.019100 0.000000
-28.951800 0.000000
-28.884600 0.000000
-28.817300 0.000000
-28.750100 0.000000
-28.682800 0.000000
-28.615600 0.000000
-28.548300 0.000000
-28.481100 0.000000
-28.413800 0.000000
-28.346600 0.000000
-28.279300 0.000000
-28.212100 0.000000
-28.144800 0.000000
-28.077600 0.000000
-28.010300 0.000000
-27.943100 0.000000
-27.875800 0.000000
-27.808600 0.000000
-27.741300 0.000000
-27.674100 0.000000
-27.606800 0.000000
-27.539600 0.000000
-27.472300 0.000000
-27.405100 0.000000
-27.337800 0.000000
-27.270600 0.000000
-27.203300 0.000000
-27.136100 0.000000
-27.068800 0.000000
-27.001600 0.000000
-26.934300 0.000000
-26.867100 0.000000
-26.799800 0.000000
-26.732600 0.000000
-26.665300 0.000000
-26.598100 0.000000
-26.530800 0.000000
-26.463600 0.000000
-26.396300 0.000000
-26.329100 0.000000
-26.261800 0.000000
-26.194600 0.000000
-26.127300 0.000000
-26.060100 0.000000
-25.992800 0.000000
-25.925600 0.000000
-25.858300 0.000000
-25.791100 0.000000
-25.723800 0.000000
-25.656600 0.000000
-25.589300 0.000000
-25.522100 0.000000
-25.454800 0.000000
-25.387600 0.000000
-25.320300 0.000000
-25.253100 0.000000
-25.185800 0.000000
-25.118600 0.000000
-25.051300 0.000000
-24.984100 0.000000
-24.916800 0.000000
-24.849600 0.000000
-24.782300 0.000000
-24.715100 0.000000
-24.647800 0.000000
-24.580600 0.000000
-24.513300 0.000000
-24.446100 0.000000
-24.378800 0.000000
-24.311600 0.000000
-24.244300 0.000000
-24.177100 0.000000
-24.109800 0.000000
-24.042600 0.000000
-23.975300 0.000000
-23.908100 0.000000
-23.840800 0.000000
-23.773600 0.000000
-23.706300 0.000000
-23.639100 0.000000
-23.571800 0.000000
-23.504600 0.000000
-23.437300 0.000000
-23.370100 0.000000
-23.302800 0.000000
-23.235600 0.000000
-23.168300 0.000000
-23.101100 0.000000
-23.033800 0.000000
-22.966600 0.000000
-22.899300 0.000000
-22.832100 0.000000
-22.764800 0.000000
-22.697600 0.000000
-22.630300 0.000000
-22.563100 0.000000
-22.495800 0.000000
-22.428600 0.000000
-22.361300 0.000000
-22.294100 0.000000
-22.226800 0.000000
-22.159600 0.000000
-22.092300 0.000000
-22.025100 0.000000
-21.957800 0.000000
-21.890600 0.000000
-21.823300 0.000000
-21.756100 0.000000
-21.688800 0.000000
-21.621600 0.000000
-21.554300 0.000000
-21.487100 0.000000
-21.419800 0.000000
-21.352600 0.000000
-21.285300 0.000000
-21.218100 0.000000
-21.150800 0.000000
-21.083600 0.000000
-21.016300 0.000000
-20.949100 0.000000
-20.881800 0.000000
-20.814600 0.000000
-20.747300 0.000000
-20.680100 0.000000
-20.612800 0.000000
-20.545600 0.000000
-20.478300 0.000000
-20.411100 0.000000
-20.343800 0.000000
-20.276600 0.000000
-20.209300 0.000000
-20.142100 0.000000
-20.074800 0.000000
-20.007600 0.000000
-19.940300 0.000000
-19.873100 0.000000
-19.805800 0.000000
-19.738600 0.000000
-19.671300 0.000000
-19.604100 0.000000
-19.536800 0.000000
-19.469600 0.000000
-19.402300 0.000000
-19.335100 0.000000
-19.267800 0.000000
-19.200600 0.000000
-19.133300 0.000000
-19.066100 0.000000
-18.998800 0.000000
-18.931600 0.000000
-18.864300 0.000000
-18.797100 0.000000
-18.729800 0.000000
-18.662600 0.000000
-18.595300 0.000000
-18.528100 0.000000
-18.460800 0.000000
-18.393600 0.000000
-18.326300 0.000000
-18.259100 0.000000
-18.191800 0.000000
-18.124600 0.000000
-18.057300 0.000000
-17.990100 0.000000
-17.922800 0.000000
-17.855600 0.000000
-17.788300 0.000000
-17.721100 0.000000
-17.653800 0.000000
-17.586600 0.000000
-17.519300 0.000000
-17.452100 0.000000
-17.384800 0.000000
-17.317600 0.000000
-17.250300 0.000000
-17.183100 0.000000
-17.115800 0.000000
-17.048600 0.000000
-16.981300 0.000000
-16.914100 0.000000
-16.846800 0.000000
-16.779600 0.000000
-16.712300 0.000000
-16.645100 0.000000
-16.577800 0.000000
-16.510600 0.000000
-16.443300 0.000000
-16.376100 0.000000
-16.308800 0.000000
-16.241600 0.000000
-16.174300 0.000000
-16.107100 0.000000
-16.039800 0.000000
-15.972600 0.000000
-15.905300 0.000000
-15.838100 0.000000
-15.770800 0.000000
-15.703600 0.000000
-15.636300 0.000000
-15.569100 0.000000
-15.501800 0.000000
-15.434600 0.000000
-15.367300 0.000000
-15.300100 0.000000
-15.232800 0.000000
-15.165600 0.000000
-15.098300 0.000000
-15.031100 0.000000
-14.963800 0.000000
-14.896600 0.000000
-14.829300 0.000000
-14.762100 0.000000
-14.694800 0.000000
-14.627600 0.000000
-14.560300 0.000000
-14.493100 0.000000
-14.425800 0.000000
-14.358600 0.000000
-14.291300 0.000000
-14.224100 0.000000
-14.156800 0.000000
-14.089600 0.000000
-14.022300 0.000000
-13.955100 0.000000
-13.887800 0.000000
-13.820600 0.000000
-13.753300 0.000000
-13.686100 0.000000
-13.618800 0.000000
-13.551600 0.000000
-13.484300 0.000000
-13.417100 0.000000
-13.349800 0.000000
-13.282600 0.000000
-13.215300 0.000000
-13.148100 0.000000
-13.080800 0.000000
-13.013600 0.000000
-12.946300 0.000000
-12.879100 0.000000
-12.811800 0.000000
-12.744600 0.000000
-12.677300 0.000000
-12.610100 0.000000
-12.542800 0.000000
-12.475600 0.000000
-12.408300 0.000000
-12.341100 0.000000
-12.273800 0.000000
-12.206600 0.000000
-12.139300 0.000000
-12.072100 0.000000
-12.004800 0.000000
-11.937600 0.000000
-11.870300 0.000000
-11.803100 0.000000
-11.735800 0.000000
-11.668600 0.000000
-11.601300 0.000000
-11.534100 0.000000
-11.466800 0.000000
-11.399600 0.000000
-11.332300 0.000000
-11.265100 0.000000
-11.197800 0.000000
-11.130600 0.000000
-11.063300 0.000000
-10.996100 0.000000
-10.928800 0.000000
-10.861600 0.000000
-10.794300 0.000000
-10.727100 0.000000
-10.659800 0.000000
-10.592600 0.000000
-10.525300 0.000000
-10.458100 0.000000
-10.390800 0.000000
-10.323600 0.000000
-10.256300 0.000000
-10.189100 0.000000
-10.121800 0.000000
-10.054600 0.000000
-9.987300 0.000000
-9.920100 0.000000
-9.852800 0.000000
-9.785600 0.000000
-9.718300 0.000000
-9.651100 0.000000
-9.583800 0.000000
-9.516600 0.000000
-9.449300 0.000000
-9.382100 0.000000
-9.314800 0.000000
-9.247600 0.000000
-9.180300 0.000000
-9.113100 0.000000
-9.045800 0.000000
-8.978600 0.000000
-8.911300 0.000000
-8.844100 0.000000
-8.776800 0.000000
-8.709600 0.000000
-8.642300 0.000000
-8.575100 0.000000
-8.507800 0.000000
-8.440600 0.000000
-8.373300 0.000000
-8.306100 0.000000
-8.238800 0.000000
-8.171600 0.000000
-8.104300 0.000000
-8.037100 0.000000
-7.969800 0.000000
-7.902600 0.000000
-7.835300 0.000000
-7.768100 0.000000
-7.700800 0.000000
-7.633600 0.000000
-7.566300 0.000000
-7.499000 0.000000
-7.431800 0.000000
-7.364500 0.000000
-7.297300 0.000000
-7.230000 0.000000
-7.162800 0.000000
-7.095500 0.000000
-7.028300 0.000000
-6.961000 0.000000
-6.893800 0.000000
-6.826500 0.000000
-6.759300 0.000000
-6.692000 0.000000
-6.624800 0.000000
-6.557500 0.000000
-6.490300 0.000000
-6.423000 0.000000
-6.355800 0.000000
-6.288500 0.000000
-6.221300 0.000000
-6.154000 0.000000
-6.086800 0.000000
-6.019500 0.000000
-5.952300 0.000000
-5.885000 0.000000
-5.817800 0.000000
-5.750500 0.000000
-5.683300 0.000000
-5.616000 0.000000
-5.548800 0.000000
-5.481500 0.000000
-5.414300 0.000000
-5.347000 0.000000
-5.279800 0.000000
-5.212500 0.000000
-5.145300 0.000000
-5.078000 0.000000
-5.010800 0.000000
-4.943500 0.000000
-4.876300 0.000000
-4.809000 0.000000
-4.741800 0.000000
-4.674500 0.000000
-4.607300 0.000000
-4.540000 0.000000
-4.472800 0.000000
-4.405500 0.000000
-4.338300 0.000000
-4.271000 0.000000
-4.203800 0.000000
-4.136500 0.000000
-4.069300 0.000000
-4.002000 0.000000
-3.934800 0.000000
-3.867500 0.000000
-3.800300 0.000000
-3.733000 0.000000
-3.665800 0.000000
-3.598500 0.000000
-3.531300 0.000000
-3.464000 0.000000
-3.396800 0.000000
-3.329500 0.000000
-3.262300 0.000000
-3.195000 0.000000
-3.127800 0.000000
-3.060500 0.000000
-2.993300 0.000000
-2.926000 0.000000
-2.858800 0.000000
-2.791500 0.000000
-2.724300 0.000000
-2.657000 0.000000
-2.589800 0.000000
-2.522500 0.000000
-2.455300 0.000000
-2.388000 0.000000
-2.320800 0.000000
-2.253500 0.000000
-2.186300 0.000000
-2.119000 0.012400
-2.051800 0.022100
-1.984500 0.026500
-1.917300 0.030400
-1.850000 0.034100
-1.782800 0.039300
-1.715500 0.042900
-1.648300 0.045600
-1.581000 0.048000
-1.513800 0.051200
-1.446500 0.054800
-1.379300 0.058400
-1.312000 0.061200
-1.244800 0.063800
-1.177500 0.066300
-1.110300 0.069100
-1.043000 0.071900
-0.975800 0.074800
-0.908500 0.078100
-0.841300 0.081600
-0.774000 0.084400
-0.706800 0.087100
-0.639500 0.089800
-0.572300 0.092700
-0.505000 0.095900
-0.437800 0.099400
-0.370500 0.102900
-0.303300 0.106500
-0.236000 0.110100
-0.168800 0.113400
-0.101500 0.117300
-0.034300 0.121400
0.033000 0.125600
0.100200 0.129900
0.167500 0.134300
0.234700 0.138800
0.302000 0.143600
0.369200 0.149500
0.436500 0.163400
0.503700 0.167000
0.571000 0.171100
0.638200 0.175700
0.705500 0.180200
0.772700 0.186700
0.840000 0.193600
0.907200 0.200800
0.974500 0.208100
1.041700 0.231000
1.109000 0.247100
1.176200 0.265600
1.243500 0.287000
1.310700 0.312200
1.378000 0.419300
1.445200 0.567800
1.512500 0.778600
1.579700 0.906700
1.647000 0.922900
1.714200 0.961200
1.781500 1.209100
1.848700 1.038100
1.916000 1.039100
1.983200 1.058100
2.050500 1.076600
2.117700 1.095200
2.185000 1.112800
2.252200 1.293200
2.319500 1.327500
2.386700 1.368000
2.454000 1.488100
2.521200 1.565000
2.588500 1.549700
2.655700 1.531500
2.723000 1.524300
2.790200 1.548700
2.857500 1.421800
2.924700 1.341100
2.992000 1.299600
3.059200 1.289400
3.126500 1.418600
3.193700 1.614800
3.261000 1.462600
3.328200 1.406300
3.395500 1.364200
3.462700 1.168800
3.530000 1.130400
3.597200 1.118500
3.664500 1.111400
3.731700 1.070800
3.799000 1.105900
3.866200 1.330600
3.933500 1.540100
4.000700 1.589400
4.068000 1.687500
4.135200 1.712800
4.202500 1.666800
4.269700 1.700100
4.337000 1.698300
4.404200 1.713100
4.471500 1.750500
4.538700 1.769000
4.606000 1.868300
4.673200 1.931600
4.740500 2.090200
4.807700 2.378700
4.875000 2.591600
4.942200 2.622700
5.009500 2.558100
5.076700 2.323300
5.144000 2.084700
5.211200 1.788900
5.278500 1.658500
5.345700 1.778300
5.413000 1.693000
5.480200 1.678400
5.547500 1.692200
5.614700 1.613500
5.682000 1.751400
5.749200 1.796100
5.816500 1.818200
5.883700 1.502700
5.951000 1.371000
6.018200 1.191000
6.085500 0.967500
6.152700 0.804200
6.220000 0.966100
6.287200 1.151900
6.354500 1.271400
6.421700 1.986800
6.489000 1.905500
6.556200 1.454100
6.623500 1.431200
6.690700 1.218900
6.758000 1.326400
6.825200 1.678700
6.892500 1.698500
6.959700 1.920700
7.027000 2.241300
7.094200 2.225400
7.161500 2.269100
7.228700 2.257300
7.296000 1.756700
7.363200 1.520800
7.430500 1.512700
7.497700 1.753400
7.565000 2.243000
7.632200 2.222900
7.699500 1.869700
7.766700 1.904000
7.834000 1.330900
7.901200 0.713000
7.968500 0.549100
8.035700 0.502700
8.103000 0.471400
8.170200 0.472500
8.237500 0.435000
8.304700 0.414600
8.372000 0.397400
8.439200 0.319200
8.506500 0.318500
8.573700 0.318800
8.641000 0.326100
8.708200 0.328100
8.775500 0.302300
8.842700 0.283900
8.910000 0.277800
8.977200 0.271200
9.044500 0.265800
9.111700 0.261700
9.179000 0.258800
9.246200 0.255400
9.313500 0.255600
9.380700 0.253500
9.448000 0.249500
9.515200 0.245700
9.582500 0.243700
9.649700 0.242900
9.717000 0.238800
9.784200 0.239900
9.851500 0.243300
9.918700 0.248400
9.986000 0.264500
10.053200 0.286600
10.120500 0.272400
10.187700 0.268800
10.255000 0.267700
10.322200 0.266100
10.389500 0.269800
10.456700 0.272000
10.524000 0.306300
10.591200 0.271200
10.658500 0.266000
10.725700 0.262900
10.793000 0.259400
10.860200 0.253700
10.927500 0.249100
10.994700 0.246400
11.062000 0.243700
11.129200 0.241100
11.196500 0.238300
11.263700 0.235400
11.331000 0.232000
11.398200 0.229300
11.465500 0.226600
11.532700 0.223300
11.600000 0.220600
11.667200 0.218100
11.734500 0.215300
11.801700 0.212300
11.869000 0.209700
11.936200 0.206600
12.003500 0.203500
12.070700 0.200300
12.138000 0.197200
12.205200 0.194100
12.272500 0.190800
12.339700 0.187400
12.407000 0.183900
12.474200 0.180600
12.541500 0.177400
12.608700 0.174100
12.676000 0.170800
12.743200 0.167600
12.810500 0.164400
12.877700 0.160800
12.945000 0.157500
13.012200 0.154600
13.079500 0.152100
13.146700 0.149800
13.214000 0.146100
13.281200 0.141800
13.348500 0.137500
13.415700 0.134100
13.483000 0.129500
13.550200 0.125200
13.617500 0.121200
13.684700 0.117200
13.752000 0.113200
13.819200 0.109300
13.886500 0.105200
13.953700 0.101100
14.021000 0.093300
14.088200 0.086000
14.155500 0.080000
14.222700 0.072500
14.290000 0.065200
14.357200 0.058300
14.424500 0.051300
14.491700 0.044600
14.559000 0.040400
14.626200 0.036600
14.693500 0.033200
14.760700 0.030100
14.828000 0.100700
14.895200 0.132300
14.962500 0.240300
15.029700 0.287700
15.097000 0.333200
15.164200 0.392300
15.231500 0.475800
15.298700 0.435000
15.366000 0.414100
15.433200 0.404500
15.500500 0.395000
15.567700 0.379000
15.635000 0.366400
15.702200 0.354400
15.769500 0.344800
15.836700 0.337800
15.904000 0.330100
15.971200 0.319900
16.038500 0.304600
16.105700 0.294600
16.173000 0.286100
16.240200 0.279500
16.307500 0.274300
16.374700 0.270800
16.442000 0.271900
16.509200 0.269300
16.576500 0.266800
16.643700 0.261100
16.711000 0.258200
16.778200 0.256200
16.845500 0.252000
16.912700 0.249900
16.980000 0.257000
17.047200 0.243800
17.114500 0.241600
17.181700 0.239600
17.249000 0.237800
17.316200 0.236600
17.383500 0.235300
17.450700 0.234300
17.518000 0.233500
17.585200 0.232800
17.652500 0.232200
17.719700 0.234300
17.787000 0.240700
17.854200 0.239000
17.921500 0.242000
17.988700 0.245200
18.056000 0.254500
18.123200 0.263200
18.190500 0.302700
18.257700 0.358700
18.325000 0.291900
18.392200 0.285600
18.459500 0.278300
18.526700 0.285200
18.594000 0.296900
18.661200 0.299600
18.728500 0.318800
18.795700 0.360100
18.863000 0.424400
18.930200 0.436600
18.997500 0.390500
19.064700 0.386500
19.132000 0.399600
19.199200 0.395600
19.266500 0.392900
19.333700 0.384600
19.401000 0.386400
19.468200 0.379300
19.535500 0.384500
19.602700 0.383700
19.670000 0.387600
19.737200 0.387700
19.804500 0.387200
19.871700 0.380600
19.939000 0.380100
20.006200 0.377700
20.073500 0.378300
20.140700 0.378500
20.208000 0.393600
20.275200 0.435400
20.342500 0.408700
20.409700 0.411400
20.477000 0.404600
20.544200 0.398400
20.611500 0.389700
20.678700 0.390700
20.746000 0.386100
20.813200 0.375800
20.880500 0.365200
20.947700 0.349900
21.015000 0.350300
21.082200 0.371500
21.149500 0.388200
21.216700 0.425900
21.284000 0.398000
21.351200 0.400700
21.418500 0.393600
21.485700 0.392200
21.553000 0.385600
21.620200 0.405100
21.687500 0.399400
21.754700 0.415200
21.822000 0.428300
21.889200 0.443700
21.956500 0.447500
22.023700 0.448300
22.091000 0.443200
22.158200 0.442400
22.225500 0.457500
22.292800 0.472500
22.360000 0.457200
22.427300 0.445500
22.494500 0.450000
22.561800 0.450200
22.629000 0.441400
22.696300 0.432500
22.763500 0.428500
22.830800 0.425900
22.898000 0.423800
22.965300 0.440600
23.032500 0.486200
23.099800 0.486200
23.167000 0.472400
23.234300 0.471600
23.301500 0.472800
23.368800 0.465500
23.436000 0.459500
23.503300 0.457700
23.570500 0.454400
23.637800 0.450400
23.705000 0.445000
23.772300 0.442100
23.839500 0.442400
23.906800 0.444000
23.974000 0.449200
24.041300 0.450700
24.108500 0.445400
24.175800 0.442900
24.243000 0.436300
24.310300 0.435300
24.377500 0.436100
24.444800 0.432900
24.512000 0.431600
24.579300 0.426600
24.646500 0.423100
24.713800 0.414500
24.781000 0.412300
24.848300 0.413100
24.915500 0.410500
24.982800 0.411200
25.050000 0.414400
25.117300 0.416200
25.184500 0.415300
25.251800 0.416000
25.319000 0.411600
25.386300 0.409300
25.453500 0.408800
25.520800 0.423000
25.588000 0.416700
25.655300 0.415000
25.722500 0.413100
25.789800 0.411900
25.857000 0.410600
25.924300 0.404800
25.991500 0.402800
26.058800 0.400600
26.126000 0.398500
26.193300 0.396700
26.260500 0.399000
26.327800 0.393400
26.395000 0.391100
26.462300 0.390300
26.529500 0.392400
26.596800 0.393000
26.664000 0.395100
26.731300 0.394300
26.798500 0.393900
26.865800 0.392900
26.933000 0.387000
27.000300 0.386100
27.067500 0.385600
27.134800 0.386400
27.202000 0.399200
27.269300 0.399100
27.336500 0.406900
27.403800 0.401400
27.471000 0.399000
27.538300 0.382900
27.605500 0.392400
27.672800 0.389200
27.740000 0.390200
27.807300 0.357700
27.874500 0.349200
27.941800 0.347600
28.009000 0.356600
28.076300 0.369200
28.143500 0.370500
28.210800 0.359500
28.278000 0.348200
28.345300 0.347000
28.412500 0.354000
28.479800 0.350500
28.547000 0.631100
28.614300 0.355200
28.681500 0.364400
28.748800 0.370400
28.816000 0.435400
28.883300 0.380400
28.950500 0.390100
29.017800 0.372700
29.085000 0.368000
29.152300 0.368000
29.219500 0.377600
29.286800 0.389800
29.354000 0.391300
29.421300 0.397200
29.488500 0.399900
29.555800 0.397000
29.623000 0.430000
29.690300 0.437800
29.757500 0.454500
29.824800 0.462900
29.892000 0.464600
29.959300 0.459500
30.026500 0.462700
30.093800 0.462700
30.161000 0.468700
30.228300 0.479400
30.295500 0.482700
30.362800 0.490100
30.430000 0.496200
30.497300 0.501300
30.564500 0.530600
30.631800 0.531800
30.699000 0.532800
30.766300 0.512600
30.833500 0.500900
30.900800 0.500000
30.968000 0.490300
31.035300 0.487300
31.102500 0.477900
31.169800 0.459500
31.237000 0.455700
31.304300 0.438200
31.371500 0.426100
31.438800 0.424900
31.506000 0.435000
31.573300 0.428100
31.640500 0.433900
31.707800 0.448800
31.775000 0.468100
31.842300 0.483100
31.909500 0.502300
31.976800 0.519400
32.044000 0.537200
32.111300 0.562400
32.178500 0.562900
32.245800 0.564700
32.313000 0.560200
32.380300 0.564700
32.447500 0.540800
32.514800 0.509400
32.582000 0.498600
32.649300 0.495000
32.716500 0.482900
32.783800 0.466000
32.851000 0.484500
32.918300 0.445500
32.985500 0.440600
33.052800 0.435400
33.120000 0.433700
33.187300 0.446800
33.254500 0.438600
33.321800 0.425200
33.389000 0.418300
33.456300 0.427400
33.523500 0.431500
33.590800 0.438100
33.658000 0.422700
33.725300 0.397900
33.792500 0.392400
33.859800 0.406300
33.927000 0.385000
33.994300 0.374500
34.061500 0.366400
34.128800 0.365000
34.196000 0.363800
34.263300 0.360900
34.330500 0.354800
34.397800 0.353000
34.465000 0.364500
34.532300 0.371300
34.599500 0.395900
34.666800 0.396100
34.734000 0.400600
34.801300 0.384800
34.868500 0.373800
34.935800 0.344100
35.003000 0.321000
35.070300 0.293600
35.137500 0.267300
35.204800 0.246700
35.272000 0.232500
35.339300 0.227400
35.406500 0.217900
35.473800 0.192400
35.541000 0.177900
35.608300 0.176700
35.675500 0.187200
35.742800 0.196900
35.810000 0.209800
35.877300 0.216700
35.944500 0.237800
36.011800 0.260800
36.079000 0.281300
36.146300 0.313700
36.213500 0.350000
36.280800 0.364100
36.348000 0.378000
36.415300 0.400200
36.482500 0.420700
36.549800 0.452500
36.617000 0.483500
36.684300 0.486500
36.751500 0.519600
36.818800 0.532700
36.886000 0.549500
36.953300 0.581600
37.020500 0.634500
37.087800 0.654200
37.155000 0.656300
37.222300 0.656500
37.289500 0.653400
37.356800 0.640400
37.424000 0.627900
37.491300 0.613900
37.558500 0.615200
37.625800 0.633000
37.693000 0.626300
37.760300 0.618000
37.827500 0.611100
37.894800 0.612400
37.962000 0.598000
38.029300 0.603900
38.096500 0.582000
38.163800 0.585700
38.231000 0.565300
38.298300 0.569900
38.365500 0.568400
38.432800 0.571100
38.500000 0.574500
38.567300 0.584200
38.634500 0.607000
38.701800 0.595600
38.769000 0.590200
38.836300 0.569000
38.903500 0.563600
38.970800 0.557700
39.038000 0.555000
39.105300 0.545500
39.172500 0.516300
39.239800 0.505800
39.307000 0.495100
39.374300 0.480700
39.441500 0.464800
39.508800 0.454500
39.576000 0.453800
39.643300 0.441500
39.710500 0.423300
39.777800 0.419200
39.845000 0.412200
39.912300 0.412000
39.979500 0.415800
40.046800 0.422700
40.114000 0.421900
40.181300 0.410000
40.248500 0.388500
40.315800 0.374700
40.383000 0.364500
40.450300 0.354700
40.517500 0.351600
40.584800 0.346700
40.652000 0.351300
40.719300 0.344700
40.786500 0.336300
40.853800 0.343900
40.921000 0.353300
40.988300 0.361300
41.055500 0.371900
41.122800 0.401300
41.190000 0.412200
41.257300 0.441000
41.324500 0.461700
41.391800 0.493100
41.459000 0.516200
41.526300 0.526400
41.593500 0.543300
41.660800 0.550800
41.728000 0.561800
41.795300 0.554600
41.862500 0.536800
41.929800 0.548500
41.997000 0.564800
42.064300 0.564900
42.131500 0.563900
42.198800 0.563000
42.266000 0.593900
42.333300 0.565300
42.400500 0.573300
42.467800 0.563900
42.535000 0.590300
42.602300 0.572800
42.669500 0.576100
42.736800 0.580700
42.804000 0.573200
42.871300 0.559700
42.938500 0.557300
43.005800 0.536700
43.073000 0.532100
43.140300 0.521100
43.207500 0.503400
43.274800 0.496200
43.342000 0.493800
43.409300 0.497600
43.476500 0.507100
43.543800 0.514900
43.611000 0.522700
43.678300 0.528100
43.745500 0.536900
43.812800 0.544500
43.880000 0.534200
43.947300 0.532400
44.014500 0.539200
44.081800 0.544500
44.149000 0.537400
44.216300 0.533600
44.283500 0.530100
44.350800 0.526600
44.418000 0.518500
44.485300 0.511300
44.552500 0.527000
44.619800 0.498400
44.687000 0.493400
44.754300 0.493800
44.821500 0.489800
44.888800 0.484100
44.956000 0.482500
45.023300 0.466400
45.090500 0.454900
45.157800 0.445500
45.225000 0.432700
45.292300 0.426300
45.359500 0.421400
45.426800 0.417700
45.494000 0.420400
45.561300 0.415100
45.628500 0.409400
45.695800 0.410000
45.763000 0.417700
45.830300 0.421700
45.897500 0.423800
45.964800 0.433000
46.032000 0.439900
46.099300 0.452100
46.166500 0.449600
46.233800 0.455200
46.301000 0.443700
46.368300 0.449500
46.435500 0.461800
46.502800 0.473900
46.570000 0.479900
46.637300 0.488900
46.704500 0.507300
46.771800 0.508000
46.839000 0.501000
46.906300 0.491800
46.973500 0.475300
47.040800 0.470400
47.108000 0.472700
47.175300 0.474300
47.242500 0.492000
47.309800 0.475100
47.377000 0.477400
47.444300 0.497000
47.511500 0.488200
47.578800 0.499400
47.646000 0.503100
47.713300 0.514900
47.780500 0.523400
47.847800 0.540900
47.915000 0.535400
47.982300 0.534100
48.049500 0.527000
48.116800 0.528900
48.184000 0.536000
48.251300 0.544700
48.318500 0.542400
48.385800 0.530600
48.453000 0.530200
48.520300 0.527900
48.587500 0.527000
48.654800 0.525500
48.722000 0.530800
48.789300 0.522500
48.856500 0.532000
48.923800 0.520300
48.991000 0.518800
49.058300 0.525700
49.125500 0.522600
49.192800 0.527500
49.260000 0.529500
49.327300 0.541000
49.394500 0.556900
49.461800 0.555600
49.529000 0.559500
49.596300 0.571600
49.663500 0.560800
49.730800 0.568200
49.798000 0.569400
49.865300 0.559200
49.932500 0.568900
49.999800 0.558300
50.067000 0.580200
50.134300 0.568800
50.201500 0.564200
50.268800 0.564100
50.336000 0.570500
50.403300 0.576700
50.470500 0.564300
50.537800 0.557500
50.605000 0.553400
50.672300 0.560400
50.739500 0.556500
50.806800 0.541800
50.874000 0.533200
50.941300 0.519400
51.008500 0.512200
51.075800 0.506000
51.143000 0.498900
51.210300 0.496700
51.277500 0.498300
51.344800 0.505300
51.412000 0.527000
51.479300 0.527000
51.546500 0.547600
51.613800 0.551400
51.681000 0.556000
51.748300 0.567000
51.815500 0.577400
51.882800 0.577100
51.950000 0.574400
52.017300 0.580800
52.084600 0.594600
52.151800 0.618200
52.219100 0.614000
52.286300 0.630200
52.353600 0.641500
52.420800 0.659700
52.488100 0.695800
52.555300 0.690400
52.622600 0.704800
52.689800 0.718600
52.757100 0.728400
52.824300 0.713400
52.891600 0.688200
52.958800 0.681300
53.026100 0.683500
53.093300 0.693800
53.160600 0.719500
53.227800 0.743800
53.295100 0.769600
53.362300 0.829200
53.429600 0.869300
53.496800 0.920600
53.564100 0.959600
53.631300 1.060100
53.698600 1.168000
53.765800 1.358200
53.833100 1.400200
53.900300 1.472100
53.967600 1.429600
54.034800 1.325300
54.102100 1.326100
54.169300 1.079800
54.236600 0.979400
54.303800 0.914300
54.371100 0.896800
54.438300 0.936800
54.505600 0.946900
54.572800 0.953900
54.640100 0.936300
54.707300 0.890200
54.774600 0.855600
54.841800 0.800800
54.909100 0.774200
54.976300 0.755800
55.043600 0.761200
55.110800 0.734000
55.178100 0.722100
55.245300 0.722900
55.312600 0.710300
55.379800 0.717200
55.447100 0.731400
55.514300 0.723600
55.581600 0.710500
55.648800 0.703400
55.716100 0.691100
55.783300 0.731800
55.850600 0.697200
55.917800 0.696000
55.985100 0.687200
56.052300 0.671900
56.119600 0.666700
56.186800 0.635500
56.254100 0.625900
56.321300 0.621400
56.388600 0.626300
56.455800 0.607900
56.523100 0.609600
56.590300 0.629900
56.657600 0.660600
56.724800 0.654100
56.792100 0.628200
56.859300 0.611000
56.926600 0.608400
56.993800 0.603200
57.061100 0.613800
57.128300 0.626700
57.195600 0.632500
57.262800 0.634700
57.330100 0.641200
57.397300 0.624800
57.464600 0.605800
57.531800 0.603900
57.599100 0.581200
57.666300 0.569500
57.733600 0.549200
57.800800 0.544500
57.868100 0.550200
57.935300 0.539200
58.002600 0.529900
58.069800 0.525400
58.137100 0.522300
58.204300 0.527100
58.271600 0.531200
58.338800 0.546800
58.406100 0.543800
58.473300 0.574200
58.540600 0.589200
58.607800 0.614900
58.675100 0.628700
58.742300 0.661400
58.809600 0.679100
58.876800 0.685700
58.944100 0.717500
59.011300 0.731700
59.078600 0.730800
59.145800 0.733100
59.213100 0.732200
59.280300 0.727900
59.347600 0.727000
59.414800 0.734400
59.482100 0.751300
59.549300 0.769400
59.616600 0.784000
59.683800 0.784900
59.751100 0.788300
59.818300 0.791900
59.885600 0.782200
59.952800 0.784400
60.020100 0.748600
60.087300 0.751600
60.154600 0.787200
60.221800 0.739800
60.289100 0.728900
60.356300 0.761300
60.423600 0.785700
60.490800 0.868100
60.558100 0.863700
60.625300 0.835100
60.692600 0.843800
60.759800 0.842600
60.827100 0.846700
60.894300 0.853200
60.961600 0.796500
61.028800 0.782200
61.096100 0.761300
61.163300 0.709900
61.230600 0.694900
61.297800 0.685500
61.365100 0.687800
61.432300 0.694400
61.499600 0.708200
61.566800 0.702000
61.634100 0.701900
61.701300 0.718100
61.768600 0.722400
61.835800 0.719700
61.903100 0.699600
61.970300 0.688000
62.037600 0.681600
62.104800 0.681800
62.172100 0.674900
62.239300 0.685000
62.306600 0.704300
62.373800 0.730800
62.441100 0.748700
62.508300 0.786700
62.575600 0.765700
62.642800 0.748300
62.710100 0.770000
62.777300 0.757200
62.844600 0.756000
62.911800 0.775300
62.979100 0.805200
63.046300 0.854700
63.113600 0.862600
63.180800 0.881000
63.248100 0.809300
63.315300 0.767200
63.382600 0.725300
63.449800 0.703700
63.517100 0.717600
63.584300 0.660900
63.651600 0.665400
63.718800 0.663200
63.786100 0.646600
63.853300 0.648500
63.920600 0.659900
63.987800 0.648700
64.055100 0.673800
64.122300 0.682800
64.189600 0.664000
64.256800 0.679400
64.324100 0.686900
64.391300 0.687300
64.458600 0.700200
64.525800 0.715400
64.593100 0.730800
64.660300 0.725000
64.727600 0.716100
64.794800 0.706100
64.862100 0.710700
64.929300 0.815900
64.996600 0.754600
65.063800 0.702700
65.131100 0.677700
65.198300 0.654100
65.265600 0.616900
65.332800 0.586400
65.400100 0.563500
65.467300 0.578300
65.534600 0.574000
65.601800 0.574600
65.669100 0.594800
65.736300 0.620300
65.803600 0.622100
65.870800 0.632700
65.938100 0.648300
66.005300 0.663000
66.072600 0.671700
66.139800 0.662600
66.207100 0.646800
66.274300 0.635200
66.341600 0.626900
66.408800 0.611100
66.476100 0.585700
66.543300 0.578200
66.610600 0.576800
66.677800 0.583700
66.745100 0.586100
66.812300 0.592100
66.879600 0.615300
66.946800 0.636300
67.014100 0.658700
67.081300 0.669300
67.148600 0.700800
67.215800 0.705100
67.283100 0.710000
67.350300 0.719300
67.417600 0.791300
67.484800 0.781000
67.552100 0.823100
67.619300 0.853500
67.686600 0.872700
67.753800 0.865200
67.821100 0.808900
67.888300 0.798800
67.955600 0.796300
68.022800 0.804300
68.090100 0.833200
68.157300 0.849700
68.224600 0.872700
68.291800 0.856600
68.359100 0.872200
68.426300 0.851200
68.493600 0.790300
68.560800 0.737500
68.628100 0.655800
68.695300 0.607700
68.762600 0.549700
68.829800 0.509600
68.897100 0.481600
68.964300 0.468600
69.031600 0.461900
69.098800 0.458300
69.166100 0.470300
69.233300 0.459400
69.300600 0.458100
69.367800 0.461100
69.435100 0.460500
69.502300 0.460600
69.569600 0.462500
69.636800 0.455300
69.704100 0.448900
69.771300 0.444400
69.838600 0.437400
69.905800 0.429000
69.973100 0.430700
70.040300 0.430800
70.107600 0.430100
70.174800 0.432600
70.242100 0.396400
70.309300 0.390200
70.376600 0.374300
70.443800 0.364100
70.511100 0.356200
70.578300 0.361300
70.645600 0.358800
70.712800 0.336900
70.780100 0.321900
70.847300 0.322800
70.914600 0.318200
70.981800 0.309800
71.049100 0.307700
71.116300 0.305400
71.183600 0.300500
71.250800 0.299700
71.318100 0.300500
71.385300 0.333300
71.452600 0.286300
71.519800 0.265500
71.587100 0.252700
71.654300 0.241200
71.721600 0.230500
71.788800 0.220000
71.856100 0.201200
71.923300 0.179600
71.990600 0.160200
72.057800 0.149700
72.125100 0.140500
72.192300 0.132500
72.259600 0.126200
72.326800 0.120400
72.394100 0.116000
72.461300 0.111600
72.528600 0.107900
72.595800 0.104600
72.663100 0.099800
72.730300 0.095100
72.797600 0.095300
72.864800 0.078700
72.932100 0.075300
72.999300 0.070300
73.066600 0.066700
73.133800 0.061900
73.201100 0.058200
73.268300 0.053100
73.335600 0.049500
73.402800 0.045600
73.470100 0.042000
73.537300 0.038600
73.604600 0.035400
73.671800 0.032000
73.739100 0.028800
73.806300 0.025700
73.873600 0.021000
73.940800 0.017900
74.008100 0.015600
74.075300 0.013400
74.142600 0.011100
74.209800 0.009300
74.277100 0.007900
74.344300 0.006300
74.411600 0.004600
74.478800 0.003100
74.546100 0.002000
74.613300 0.001100
74.680600 0.000500
74.747800 0.000100
74.815100 0.000000
74.882300 0.000000
74.949600 0.000000
75.016800 0.000000
75.084100 0.000000
75.151300 0.000000
75.218600 0.000000
75.285800 0.000000
75.353100 0.000000
75.420300 0.000000
75.487600 0.000000
75.554800 0.000000
75.622100 0.000000
75.689300 0.000000
75.756600 0.000000
75.823800 0.000000
75.891100 0.000000
75.958300 0.000000
76.025600 0.000000
76.092800 0.000000
76.160100 0.000000
76.227300 0.000000
76.294600 0.000000
76.361800 0.000000
76.429100 0.000000
76.496300 0.000000
76.563600 0.000000
76.630800 0.000000
76.698100 0.000000
76.765300 0.000000
76.832600 0.000000
76.899800 0.000000
76.967100 0.000000
77.034300 0.000000
77.101600 0.000000
77.168800 0.000000
77.236100 0.000000
77.303300 0.000000
77.370600 0.000000
77.437800 0.000000
77.505100 0.000000
77.572300 0.000000
77.639600 0.000000
77.706800 0.000000
77.774100 0.000000
77.841300 0.000000
77.908600 0.000000
77.975800 0.000000
78.043100 0.000000
78.110300 0.000000
78.177600 0.000000
78.244800 0.000000
78.312100 0.000000
78.379300 0.000000
78.446600 0.000000
78.513800 0.000000
78.581100 0.000000
78.648300 0.000000
78.715600 0.000000
78.782800 0.000000
78.850100 0.000000
78.917300 0.000000
78.984600 0.000000
79.051800 0.000000
79.119100 0.000000
79.186300 0.000000
79.253600 0.000000
79.320800 0.000000
79.388100 0.000000
79.455300 0.000000
79.522600 0.000000
79.589800 0.000000
79.657100 0.000000
79.724300 0.000000
79.791600 0.000000
79.858800 0.000000
79.926100 0.000000
79.993300 0.000000
80.060600 0.000000
80.127800 0.000000
80.195100 0.000000
80.262300 0.000000
80.329600 0.000000
80.396800 0.000000
80.464100 0.000000
80.531300 0.000000
80.598600 0.000000
80.665800 0.000000
80.733100 0.000000
80.800300 0.000000
80.867600 0.000000
80.934800 0.000000
81.002100 0.000000
81.069300 0.000000
e
