set title 'mp-571136 - Density of States'
set xlabel 'Energy (eV)'
set ylabel 'DOS (states/eV)'
set grid
set xrange [-10:10]
set yrange [0:1075.163]
set xzeroaxis lt -1
set terminal png size 800,600
set output 'mp-571136_dos_gnuplot.png'
plot '-' using 1:2 with lines title 'DOS'
-12.025900 0.000000
-12.012900 0.000000
-11.999900 0.000000
-11.986800 0.000000
-11.973800 0.000000
-11.960800 0.000000
-11.947800 0.000000
-11.934800 0.000000
-11.921800 0.000000
-11.908800 0.000000
-11.895800 0.000000
-11.882800 0.000000
-11.869800 0.000000
-11.856800 0.000000
-11.843800 0.000000
-11.830800 0.000000
-11.817800 0.000000
-11.804700 0.000000
-11.791700 0.000000
-11.778700 0.000000
-11.765700 0.000000
-11.752700 0.000000
-11.739700 0.000000
-11.726700 0.000000
-11.713700 0.000000
-11.700700 0.000000
-11.687700 0.000000
-11.674700 0.000000
-11.661700 0.000000
-11.648700 0.000000
-11.635700 0.000000
-11.622600 0.000000
-11.609600 0.000000
-11.596600 0.000000
-11.583600 0.000000
-11.570600 0.000000
-11.557600 0.000000
-11.544600 0.000000
-11.531600 0.000000
-11.518600 0.000000
-11.505600 0.000000
-11.492600 0.000000
-11.479600 0.000000
-11.466600 0.000000
-11.453600 0.000000
-11.440500 0.000000
-11.427500 0.000000
-11.414500 0.000000
-11.401500 0.000000
-11.388500 0.000000
-11.375500 0.000000
-11.362500 0.000000
-11.349500 0.000000
-11.336500 0.000000
-11.323500 0.000000
-11.310500 0.000000
-11.297500 0.000000
-11.284500 0.000000
-11.271500 0.000000
-11.258400 0.000000
-11.245400 0.000000
-11.232400 0.000000
-11.219400 0.000000
-11.206400 0.000000
-11.193400 0.000000
-11.180400 0.000000
-11.167400 0.000000
-11.154400 0.000000
-11.141400 0.000000
-11.128400 0.000000
-11.115400 0.000000
-11.102400 0.000000
-11.089400 0.000000
-11.076300 0.000000
-11.063300 0.000000
-11.050300 0.000000
-11.037300 0.000000
-11.024300 0.000000
-11.011300 0.000000
-10.998300 0.000000
-10.985300 0.000000
-10.972300 0.000000
-10.959300 0.000000
-10.946300 0.000000
-10.933300 0.000000
-10.920300 0.000000
-10.907300 0.000000
-10.894200 0.000000
-10.881200 0.000000
-10.868200 0.000000
-10.855200 0.000000
-10.842200 0.041400
-10.829200 0.773600
-10.816200 2.152400
-10.803200 3.974100
-10.790200 6.309600
-10.777200 9.404600
-10.764200 12.724500
-10.751200 14.552200
-10.738200 14.272300
-10.725200 13.742500
-10.712100 15.054300
-10.699100 13.342400
-10.686100 13.811400
-10.673100 14.280500
-10.660100 14.749500
-10.647100 15.218500
-10.634100 15.687600
-10.621100 16.156600
-10.608100 16.638900
-10.595100 17.181700
-10.582100 17.761100
-10.569100 18.389200
-10.556100 19.100700
-10.543100 19.816500
-10.530000 20.530500
-10.517000 21.236700
-10.504000 21.931700
-10.491000 22.621700
-10.478000 23.311800
-10.465000 24.001900
-10.452000 24.692000
-10.439000 25.382100
-10.426000 26.072200
-10.413000 27.569200
-10.400000 31.330300
-10.387000 43.829000
-10.374000 64.075900
-10.361000 76.865200
-10.347900 107.199900
-10.334900 112.662500
-10.321900 130.935000
-10.308900 140.521000
-10.295900 165.472000
-10.282900 279.849800
-10.269900 253.953400
-10.256900 126.621500
-10.243900 0.000000
-10.230900 0.000000
-10.217900 0.000000
-10.204900 0.000000
-10.191900 0.000000
-10.178900 0.000000
-10.165800 0.000000
-10.152800 0.000000
-10.139800 0.000000
-10.126800 0.000000
-10.113800 0.000000
-10.100800 0.000000
-10.087800 0.000000
-10.074800 0.000000
-10.061800 0.000000
-10.048800 0.000000
-10.035800 0.000000
-10.022800 0.000000
-10.009800 0.000000
-9.996800 0.000000
-9.983700 0.000000
-9.970700 0.000000
-9.957700 0.000000
-9.944700 0.000000
-9.931700 0.000000
-9.918700 0.000000
-9.905700 0.000000
-9.892700 0.000000
-9.879700 0.000000
-9.866700 0.000000
-9.853700 0.000000
-9.840700 0.000000
-9.827700 0.000000
-9.814700 0.000000
-9.801600 0.000000
-9.788600 0.000000
-9.775600 0.000000
-9.762600 0.000000
-9.749600 0.000000
-9.736600 0.000000
-9.723600 0.000000
-9.710600 0.000000
-9.697600 0.000000
-9.684600 0.000000
-9.671600 0.000000
-9.658600 0.000000
-9.645600 0.000000
-9.632600 0.000000
-9.619500 0.000000
-9.606500 0.000000
-9.593500 0.000000
-9.580500 0.000000
-9.567500 0.000000
-9.554500 0.000000
-9.541500 0.000000
-9.528500 0.000000
-9.515500 0.000000
-9.502500 0.000000
-9.489500 0.000000
-9.476500 0.000000
-9.463500 0.000000
-9.450500 0.000000
-9.437400 0.000000
-9.424400 0.000000
-9.411400 0.000000
-9.398400 0.000000
-9.385400 0.000000
-9.372400 0.000000
-9.359400 0.000000
-9.346400 0.000000
-9.333400 0.000000
-9.320400 0.000000
-9.307400 0.000000
-9.294400 0.000000
-9.281400 0.000000
-9.268400 0.000000
-9.255300 0.000000
-9.242300 0.000000
-9.229300 0.000000
-9.216300 0.000000
-9.203300 0.000000
-9.190300 0.000000
-9.177300 0.000000
-9.164300 0.000000
-9.151300 0.000000
-9.138300 0.000000
-9.125300 0.000000
-9.112300 0.000000
-9.099300 0.000000
-9.086300 0.000000
-9.073200 0.000000
-9.060200 0.000000
-9.047200 0.000000
-9.034200 0.000000
-9.021200 0.000000
-9.008200 0.000000
-8.995200 0.000000
-8.982200 0.000000
-8.969200 0.000000
-8.956200 0.000000
-8.943200 0.000000
-8.930200 0.000000
-8.917200 0.000000
-8.904200 0.000000
-8.891100 0.000000
-8.878100 0.000000
-8.865100 0.000000
-8.852100 0.000000
-8.839100 0.000000
-8.826100 0.000000
-8.813100 0.000000
-8.800100 0.000000
-8.787100 0.000000
-8.774100 0.000000
-8.761100 0.000000
-8.748100 0.000000
-8.735100 0.000000
-8.722100 0.000000
-8.709000 0.000000
-8.696000 0.000000
-8.683000 0.000000
-8.670000 0.000000
-8.657000 0.000000
-8.644000 0.000000
-8.631000 0.000000
-8.618000 0.000000
-8.605000 0.000000
-8.592000 0.000000
-8.579000 0.000000
-8.566000 0.000000
-8.553000 0.000000
-8.540000 0.000000
-8.526900 0.000000
-8.513900 0.000000
-8.500900 0.000000
-8.487900 0.000000
-8.474900 0.000000
-8.461900 0.000000
-8.448900 0.000000
-8.435900 0.000000
-8.422900 0.000000
-8.409900 0.000000
-8.396900 0.000000
-8.383900 0.000000
-8.370900 0.000000
-8.357900 0.000000
-8.344800 0.000000
-8.331800 0.000000
-8.318800 0.000000
-8.305800 0.000000
-8.292800 0.000000
-8.279800 0.000000
-8.266800 0.000000
-8.253800 0.000000
-8.240800 0.000000
-8.227800 0.000000
-8.214800 0.000000
-8.201800 0.000000
-8.188800 0.000000
-8.175800 0.000000
-8.162700 0.000000
-8.149700 0.000000
-8.136700 0.000000
-8.123700 0.000000
-8.110700 0.000000
-8.097700 0.000000
-8.084700 0.000000
-8.071700 0.000000
-8.058700 0.000000
-8.045700 0.000000
-8.032700 0.000000
-8.019700 0.000000
-8.006700 0.000000
-7.993700 0.000000
-7.980600 0.000000
-7.967600 0.000000
-7.954600 0.000000
-7.941600 0.000000
-7.928600 0.000000
-7.915600 0.000000
-7.902600 0.000000
-7.889600 0.000000
-7.876600 0.000000
-7.863600 0.000000
-7.850600 0.000000
-7.837600 0.000000
-7.824600 0.000000
-7.811600 0.000000
-7.798500 0.000000
-7.785500 0.000000
-7.772500 0.000000
-7.759500 0.000000
-7.746500 0.000000
-7.733500 0.000000
-7.720500 0.000000
-7.707500 0.000000
-7.694500 0.000000
-7.681500 0.000000
-7.668500 0.000000
-7.655500 0.000000
-7.642500 0.000000
-7.629500 0.000000
-7.616400 0.000000
-7.603400 0.000000
-7.590400 0.000000
-7.577400 0.000000
-7.564400 0.000000
-7.551400 0.000000
-7.538400 0.000000
-7.525400 0.000000
-7.512400 0.000000
-7.499400 0.000000
-7.486400 0.000000
-7.473400 0.000000
-7.460400 0.000000
-7.447400 0.000000
-7.434300 0.000000
-7.421300 0.000000
-7.408300 0.000000
-7.395300 0.000000
-7.382300 0.000000
-7.369300 0.000000
-7.356300 0.000000
-7.343300 0.000000
-7.330300 0.000000
-7.317300 0.000000
-7.304300 0.000000
-7.291300 0.000000
-7.278300 0.000000
-7.265300 0.000000
-7.252200 0.000000
-7.239200 0.000000
-7.226200 0.000000
-7.213200 0.000000
-7.200200 0.000000
-7.187200 0.000000
-7.174200 0.000000
-7.161200 0.000000
-7.148200 0.000000
-7.135200 0.000000
-7.122200 0.000000
-7.109200 0.000000
-7.096200 0.000000
-7.083200 0.000000
-7.070100 0.000000
-7.057100 0.000000
-7.044100 0.000000
-7.031100 0.000000
-7.018100 0.000000
-7.005100 0.000000
-6.992100 0.000000
-6.979100 0.000000
-6.966100 0.000000
-6.953100 0.000000
-6.940100 0.000000
-6.927100 0.000000
-6.914100 0.000000
-6.901100 0.000000
-6.888000 0.000000
-6.875000 0.000000
-6.862000 0.000000
-6.849000 0.000000
-6.836000 0.000000
-6.823000 0.000000
-6.810000 0.000000
-6.797000 0.000000
-6.784000 0.000000
-6.771000 0.000000
-6.758000 0.000000
-6.745000 0.000000
-6.732000 0.000000
-6.719000 0.000000
-6.705900 0.000000
-6.692900 0.000000
-6.679900 0.000000
-6.666900 0.000000
-6.653900 0.000000
-6.640900 0.000000
-6.627900 0.000000
-6.614900 0.000000
-6.601900 0.000000
-6.588900 0.000000
-6.575900 0.000000
-6.562900 0.000000
-6.549900 43.070000
-6.536900 138.060900
-6.523800 229.404400
-6.510800 302.065700
-6.497800 172.146400
-6.484800 113.564900
-6.471800 107.805800
-6.458800 102.046700
-6.445800 449.832300
-6.432800 316.983600
-6.419800 235.087600
-6.406800 143.338300
-6.393800 121.110300
-6.380800 777.260200
-6.367800 977.420700
-6.354800 208.850000
-6.341700 615.848200
-6.328700 112.750500
-6.315700 249.568500
-6.302700 112.969700
-6.289700 97.363100
-6.276700 81.756400
-6.263700 109.202900
-6.250700 0.000000
-6.237700 0.000000
-6.224700 0.000000
-6.211700 0.000000
-6.198700 0.000000
-6.185700 0.000000
-6.172700 0.000000
-6.159600 0.000000
-6.146600 0.000000
-6.133600 0.000000
-6.120600 0.000000
-6.107600 0.000000
-6.094600 0.000000
-6.081600 0.000000
-6.068600 0.000000
-6.055600 0.000000
-6.042600 0.000000
-6.029600 0.000000
-6.016600 0.000000
-6.003600 0.000000
-5.990600 0.000000
-5.977500 0.000000
-5.964500 0.000000
-5.951500 0.000000
-5.938500 0.000000
-5.925500 0.000000
-5.912500 0.000000
-5.899500 0.000000
-5.886500 0.000000
-5.873500 0.000000
-5.860500 0.000000
-5.847500 0.000000
-5.834500 0.000000
-5.821500 0.000000
-5.808500 0.000000
-5.795400 0.000000
-5.782400 0.000000
-5.769400 0.000000
-5.756400 0.000000
-5.743400 0.000000
-5.730400 0.000000
-5.717400 0.000000
-5.704400 0.000000
-5.691400 0.000000
-5.678400 0.000000
-5.665400 0.000000
-5.652400 0.000000
-5.639400 0.000000
-5.626400 0.000000
-5.613300 0.000000
-5.600300 0.000000
-5.587300 0.000000
-5.574300 0.000000
-5.561300 0.000000
-5.548300 0.000000
-5.535300 0.000000
-5.522300 0.000000
-5.509300 0.000000
-5.496300 0.000000
-5.483300 0.000000
-5.470300 0.000000
-5.457300 0.000000
-5.444300 0.000000
-5.431200 0.000000
-5.418200 0.000000
-5.405200 0.000000
-5.392200 0.000000
-5.379200 0.000000
-5.366200 0.000000
-5.353200 0.000000
-5.340200 0.000000
-5.327200 0.000000
-5.314200 0.000000
-5.301200 0.000000
-5.288200 0.000000
-5.275200 0.000000
-5.262200 0.000000
-5.249100 0.000000
-5.236100 0.000000
-5.223100 0.000000
-5.210100 0.000000
-5.197100 0.000000
-5.184100 0.000000
-5.171100 0.000000
-5.158100 0.000000
-5.145100 0.000000
-5.132100 0.000000
-5.119100 0.000000
-5.106100 0.000000
-5.093100 0.000000
-5.080100 0.000000
-5.067000 0.000000
-5.054000 0.000000
-5.041000 0.000000
-5.028000 0.000000
-5.015000 0.000000
-5.002000 0.000000
-4.989000 0.000000
-4.976000 0.000000
-4.963000 0.000000
-4.950000 0.000000
-4.937000 0.000000
-4.924000 0.000000
-4.911000 0.000000
-4.898000 0.000000
-4.884900 0.000000
-4.871900 0.000000
-4.858900 0.000000
-4.845900 0.000000
-4.832900 0.000000
-4.819900 0.000000
-4.806900 0.000000
-4.793900 0.000000
-4.780900 0.000000
-4.767900 0.000000
-4.754900 0.000000
-4.741900 0.000000
-4.728900 0.000000
-4.715900 0.000000
-4.702800 0.000000
-4.689800 0.000000
-4.676800 0.000000
-4.663800 0.000000
-4.650800 0.000000
-4.637800 0.000000
-4.624800 0.000000
-4.611800 0.000000
-4.598800 0.000000
-4.585800 0.000000
-4.572800 0.000000
-4.559800 0.000000
-4.546800 0.000000
-4.533800 0.000000
-4.520700 0.000000
-4.507700 0.000000
-4.494700 0.000000
-4.481700 0.000000
-4.468700 0.000000
-4.455700 0.000000
-4.442700 0.000000
-4.429700 0.000000
-4.416700 0.000000
-4.403700 0.000000
-4.390700 0.000000
-4.377700 0.000000
-4.364700 0.000000
-4.351700 0.000000
-4.338600 0.000000
-4.325600 0.000000
-4.312600 0.000000
-4.299600 0.000000
-4.286600 0.000000
-4.273600 0.000000
-4.260600 0.000000
-4.247600 0.000000
-4.234600 0.000000
-4.221600 0.000000
-4.208600 0.000000
-4.195600 0.000000
-4.182600 0.000000
-4.169600 0.000000
-4.156500 0.000000
-4.143500 0.000000
-4.130500 0.000000
-4.117500 0.000000
-4.104500 0.000000
-4.091500 0.000000
-4.078500 0.000000
-4.065500 0.000000
-4.052500 0.000000
-4.039500 0.000000
-4.026500 0.000000
-4.013500 0.000000
-4.000500 0.000000
-3.987500 0.000000
-3.974400 0.000000
-3.961400 0.000000
-3.948400 0.000000
-3.935400 0.000000
-3.922400 0.000000
-3.909400 0.000000
-3.896400 0.000000
-3.883400 0.000000
-3.870400 0.000000
-3.857400 0.000000
-3.844400 0.000000
-3.831400 0.000000
-3.818400 0.000000
-3.805400 0.000000
-3.792300 0.000000
-3.779300 0.000000
-3.766300 0.000000
-3.753300 0.000000
-3.740300 0.000000
-3.727300 0.000000
-3.714300 0.000000
-3.701300 0.000000
-3.688300 0.000000
-3.675300 0.000000
-3.662300 0.000000
-3.649300 0.000000
-3.636300 0.000000
-3.623300 0.000000
-3.610200 0.000000
-3.597200 0.000000
-3.584200 0.000000
-3.571200 0.000000
-3.558200 0.000000
-3.545200 0.000000
-3.532200 0.000000
-3.519200 0.000000
-3.506200 0.000000
-3.493200 0.000000
-3.480200 0.000000
-3.467200 0.000000
-3.454200 0.000000
-3.441200 0.000000
-3.428100 0.000000
-3.415100 0.000000
-3.402100 0.000000
-3.389100 0.000000
-3.376100 0.000000
-3.363100 0.000000
-3.350100 0.000000
-3.337100 0.000000
-3.324100 0.000000
-3.311100 0.000000
-3.298100 0.000000
-3.285100 0.000000
-3.272100 0.000000
-3.259100 0.000000
-3.246000 0.000000
-3.233000 0.000000
-3.220000 0.000000
-3.207000 0.000000
-3.194000 0.000000
-3.181000 0.000000
-3.168000 0.000000
-3.155000 0.000000
-3.142000 0.000000
-3.129000 0.000000
-3.116000 0.000000
-3.103000 0.000000
-3.090000 0.000000
-3.077000 0.000000
-3.063900 0.000000
-3.050900 0.000000
-3.037900 0.000000
-3.024900 0.000000
-3.011900 0.000000
-2.998900 0.000000
-2.985900 0.000000
-2.972900 0.000000
-2.959900 0.000000
-2.946900 0.000000
-2.933900 0.000000
-2.920900 0.000000
-2.907900 0.000000
-2.894900 0.000000
-2.881800 0.000000
-2.868800 0.000000
-2.855800 0.000000
-2.842800 0.000000
-2.829800 0.000000
-2.816800 0.000000
-2.803800 0.000000
-2.790800 0.000000
-2.777800 0.000000
-2.764800 0.000000
-2.751800 0.000000
-2.738800 0.000000
-2.725800 0.000000
-2.712800 0.000000
-2.699700 0.000000
-2.686700 0.000000
-2.673700 0.000000
-2.660700 0.000000
-2.647700 0.000000
-2.634700 0.000000
-2.621700 16.750000
-2.608700 57.868900
-2.595700 25.584400
-2.582700 33.580100
-2.569700 52.798300
-2.556700 42.232800
-2.543700 48.148900
-2.530700 50.562700
-2.517600 44.824600
-2.504600 36.735500
-2.491600 35.962200
-2.478600 35.188900
-2.465600 32.031200
-2.452600 26.873200
-2.439600 26.380500
-2.426600 22.327700
-2.413600 20.481300
-2.400600 18.801800
-2.387600 18.714500
-2.374600 18.627200
-2.361600 18.539900
-2.348600 18.638500
-2.335500 19.640500
-2.322500 21.147700
-2.309500 25.336600
-2.296500 33.223500
-2.283500 33.279600
-2.270500 34.144300
-2.257500 37.176600
-2.244500 11.225600
-2.231500 11.281200
-2.218500 11.630600
-2.205500 11.936900
-2.192500 12.020300
-2.179500 12.103500
-2.166500 12.149700
-2.153400 12.186600
-2.140400 4.364600
-2.127400 4.276600
-2.114400 4.188600
-2.101400 4.100600
-2.088400 4.012600
-2.075400 3.924500
-2.062400 3.836500
-2.049400 7.919900
-2.036400 8.942700
-2.023400 4.742200
-2.010400 0.541700
-1.997400 0.000000
-1.984400 0.000000
-1.971300 0.000000
-1.958300 0.000000
-1.945300 0.000000
-1.932300 0.000000
-1.919300 0.000000
-1.906300 0.000000
-1.893300 0.000000
-1.880300 0.000000
-1.867300 0.000000
-1.854300 0.000000
-1.841300 0.000000
-1.828300 0.000000
-1.815300 0.000000
-1.802300 0.000000
-1.789200 0.000000
-1.776200 0.000000
-1.763200 0.000000
-1.750200 0.000000
-1.737200 0.000000
-1.724200 0.000000
-1.711200 5.826800
-1.698200 4.413100
-1.685200 2.999300
-1.672200 7.078600
-1.659200 10.869600
-1.646200 8.613900
-1.633200 12.893700
-1.620200 9.841600
-1.607100 12.961300
-1.594100 20.136800
-1.581100 16.630000
-1.568100 13.541500
-1.555100 19.408200
-1.542100 18.322500
-1.529100 17.236800
-1.516100 16.713000
-1.503100 17.348000
-1.490100 17.982900
-1.477100 18.617800
-1.464100 19.252800
-1.451100 19.887700
-1.438100 20.522600
-1.425000 21.157600
-1.412000 27.787700
-1.399000 21.529700
-1.386000 17.596300
-1.373000 22.565500
-1.360000 17.567200
-1.347000 19.982100
-1.334000 13.694300
-1.321000 18.808000
-1.308000 16.842000
-1.295000 14.876100
-1.282000 20.271100
-1.269000 9.815100
-1.256000 18.913300
-1.242900 12.831000
-1.229900 7.522100
-1.216900 7.430400
-1.203900 7.338800
-1.190900 7.804100
-1.177900 7.752100
-1.164900 8.288900
-1.151900 8.279900
-1.138900 8.870100
-1.125900 9.516200
-1.112900 10.209400
-1.099900 10.309400
-1.086900 11.073100
-1.073900 11.205100
-1.060800 12.000800
-1.047800 12.159300
-1.034800 12.317800
-1.021800 12.476300
-1.008800 12.633900
-0.995800 12.788800
-0.982800 12.942400
-0.969800 13.089700
-0.956800 13.236900
-0.943800 13.380300
-0.930800 13.515400
-0.917800 13.650600
-0.904800 13.785700
-0.891800 13.920900
-0.878700 14.056100
-0.865700 14.191200
-0.852700 14.326400
-0.839700 14.461600
-0.826700 14.596700
-0.813700 14.731900
-0.800700 14.867100
-0.787700 15.777800
-0.774700 16.455300
-0.761700 17.901000
-0.748700 20.571500
-0.735700 21.013800
-0.722700 23.327400
-0.709700 24.822900
-0.696600 26.570900
-0.683600 28.679700
-0.670600 29.047500
-0.657600 29.416500
-0.644600 32.386200
-0.631600 33.552700
-0.618600 32.230100
-0.605600 33.737000
-0.592600 33.961400
-0.579600 34.593500
-0.566600 34.735800
-0.553600 33.464300
-0.540600 32.208200
-0.527600 32.134300
-0.514500 31.943400
-0.501500 31.752500
-0.488500 31.643800
-0.475500 31.846800
-0.462500 32.240700
-0.449500 32.692900
-0.436500 32.242800
-0.423500 32.566800
-0.410500 33.162200
-0.397500 32.852000
-0.384500 33.555000
-0.371500 34.324000
-0.358500 35.092900
-0.345500 35.860400
-0.332400 35.738700
-0.319400 35.524900
-0.306400 35.064700
-0.293400 33.724500
-0.280400 34.079600
-0.267400 30.172500
-0.254400 29.790500
-0.241400 26.510100
-0.228400 25.697400
-0.215400 27.592500
-0.202400 26.193600
-0.189400 24.891000
-0.176400 27.656400
-0.163400 24.681000
-0.150300 21.302700
-0.137300 20.168200
-0.124300 19.646700
-0.111300 19.641500
-0.098300 19.068600
-0.085300 18.491800
-0.072300 17.911200
-0.059300 17.360300
-0.046300 16.771200
-0.033300 16.214900
-0.020300 15.714200
-0.007300 15.246800
0.005700 14.832300
0.018700 14.484400
0.031800 14.202300
0.044800 13.960100
0.057800 13.717900
0.070800 13.475600
0.083800 14.173500
0.096800 14.167700
0.109800 14.160100
0.122800 14.157300
0.135800 14.334400
0.148800 15.524500
0.161800 17.109000
0.174800 17.750800
0.187800 18.392700
0.200800 19.039800
0.213900 19.947800
0.226900 20.607500
0.239900 25.113900
0.252900 25.649300
0.265900 25.891800
0.278900 26.134300
0.291900 33.676700
0.304900 38.966900
0.317900 41.350200
0.330900 44.227100
0.343900 42.534900
0.356900 43.425300
0.369900 44.857000
0.382900 47.155900
0.396000 60.986900
0.409000 61.277500
0.422000 52.731000
0.435000 46.090100
0.448000 56.608900
0.461000 70.583700
0.474000 53.540600
0.487000 53.014100
0.500000 37.954400
0.513000 35.870300
0.526000 41.773700
0.539000 43.133400
0.552000 44.493200
0.565000 52.817900
0.578100 59.135100
0.591100 48.217400
0.604100 70.510100
0.617100 52.147300
0.630100 51.807800
0.643100 53.743000
0.656100 51.966800
0.669100 64.379900
0.682100 54.235300
0.695100 49.822200
0.708100 52.567300
0.721100 52.627800
0.734100 46.926000
0.747100 44.161700
0.760200 41.889700
0.773200 38.550000
0.786200 34.315900
0.799200 30.003600
0.812200 27.017400
0.825200 24.299400
0.838200 21.669600
0.851200 18.974800
0.864200 21.812000
0.877200 36.133800
0.890200 14.120100
0.903200 7.615500
0.916200 14.123400
0.929200 0.000000
0.942300 0.000000
0.955300 0.000000
0.968300 0.000000
0.981300 0.000000
0.994300 0.000000
1.007300 0.000000
1.020300 0.000000
1.033300 0.000000
1.046300 0.000000
1.059300 0.000000
1.072300 0.000000
1.085300 0.000000
1.098300 0.000000
1.111300 0.000000
1.124400 0.000000
1.137400 0.000000
1.150400 0.000000
1.163400 0.000000
1.176400 0.000000
1.189400 0.000000
1.202400 0.000000
1.215400 0.000000
1.228400 0.000000
1.241400 0.000000
1.254400 0.000000
1.267400 0.000000
1.280400 0.000000
1.293400 0.000000
1.306500 0.000000
1.319500 0.000000
1.332500 0.000000
1.345500 0.000000
1.358500 0.000000
1.371500 0.000000
1.384500 0.000000
1.397500 0.000000
1.410500 0.000000
1.423500 0.000000
1.436500 0.000000
1.449500 0.000000
1.462500 0.000000
1.475500 0.000000
1.488600 0.000000
1.501600 0.000000
1.514600 0.000000
1.527600 0.000000
1.540600 0.000000
1.553600 0.000000
1.566600 0.000000
1.579600 0.000000
1.592600 0.000000
1.605600 0.000000
1.618600 0.000000
1.631600 0.000000
1.644600 0.000000
1.657600 0.000000
1.670700 0.000000
1.683700 0.000000
1.696700 0.000000
1.709700 0.000000
1.722700 0.000000
1.735700 0.000000
1.748700 0.000000
1.761700 0.000000
1.774700 0.000000
1.787700 0.000000
1.800700 0.000000
1.813700 0.000000
1.826700 0.000000
1.839700 0.000000
1.852800 0.000000
1.865800 0.000000
1.878800 0.000000
1.891800 0.000000
1.904800 0.000000
1.917800 0.000000
1.930800 0.000000
1.943800 0.000000
1.956800 0.000000
1.969800 0.000000
1.982800 0.000000
1.995800 0.000000
2.008800 0.000000
2.021800 0.000000
2.034900 0.000000
2.047900 0.000000
2.060900 0.000000
2.073900 0.000000
2.086900 0.000000
2.099900 0.000000
2.112900 0.000000
2.125900 0.000000
2.138900 0.000000
2.151900 0.000000
2.164900 0.000000
2.177900 0.000000
2.190900 0.000000
2.203900 0.000000
2.217000 0.000000
2.230000 0.000000
2.243000 0.000000
2.256000 0.000000
2.269000 0.000000
2.282000 0.000000
2.295000 0.000000
2.308000 0.000000
2.321000 0.000000
2.334000 0.000000
2.347000 0.000000
2.360000 0.000000
2.373000 0.000000
2.386000 0.000000
2.399100 0.000000
2.412100 0.000000
2.425100 0.000000
2.438100 0.000000
2.451100 0.000000
2.464100 0.000000
2.477100 0.000000
2.490100 0.000000
2.503100 0.000000
2.516100 0.000000
2.529100 0.000000
2.542100 0.000000
2.555100 0.000000
2.568100 0.000000
2.581200 0.000000
2.594200 0.000000
2.607200 0.000000
2.620200 0.000000
2.633200 0.000000
2.646200 0.000000
2.659200 0.000000
2.672200 0.000000
2.685200 0.000000
2.698200 0.000000
2.711200 0.000000
2.724200 0.000000
2.737200 0.000000
2.750200 0.000000
2.763300 0.000000
2.776300 0.000000
2.789300 0.000000
2.802300 0.000000
2.815300 0.000000
2.828300 0.000000
2.841300 0.000000
2.854300 0.000000
2.867300 0.000000
2.880300 0.000000
2.893300 0.000000
2.906300 0.000000
2.919300 0.000000
2.932300 0.000000
2.945400 0.000000
2.958400 0.000000
2.971400 0.000000
2.984400 0.000000
2.997400 0.000000
3.010400 0.000000
3.023400 0.000000
3.036400 0.000000
3.049400 0.000000
3.062400 0.000000
3.075400 0.000000
3.088400 0.000000
3.101400 0.000000
3.114400 0.000000
3.127500 0.000000
3.140500 0.000000
3.153500 0.000000
3.166500 0.000000
3.179500 0.000000
3.192500 0.000000
3.205500 0.000000
3.218500 0.000000
3.231500 0.000000
3.244500 0.000000
3.257500 0.000000
3.270500 0.000000
3.283500 0.000000
3.296500 0.000000
3.309600 0.000000
3.322600 0.000000
3.335600 0.000000
3.348600 0.000000
3.361600 0.002900
3.374600 0.901900
3.387600 0.947500
3.400600 1.880000
3.413600 1.961000
3.426600 2.916200
3.439600 3.035400
3.452600 3.154500
3.465600 3.273700
3.478600 4.443500
3.491700 4.593800
3.504700 4.744000
3.517700 6.121800
3.530700 6.322900
3.543700 7.753400
3.556700 7.976700
3.569700 9.459900
3.582700 9.704200
3.595700 9.948400
3.608700 10.192700
3.621700 10.436900
3.634700 10.681100
3.647700 10.925400
3.660700 11.297600
3.673800 11.680900
3.686800 12.141600
3.699800 12.622300
3.712800 13.173600
3.725800 13.915000
3.738800 14.656300
3.751800 15.471000
3.764800 16.319900
3.777800 17.187600
3.790800 18.055300
3.803800 18.923000
3.816800 19.790800
3.829800 20.812100
3.842800 21.972200
3.855900 29.619100
3.868900 21.226700
3.881900 26.142900
3.894900 29.738700
3.907900 28.494200
3.920900 27.249800
3.933900 31.275200
3.946900 28.531800
3.959900 32.214300
3.972900 28.406500
3.985900 29.851100
3.998900 30.504000
4.011900 27.362600
4.024900 25.986800
4.038000 23.292300
4.051000 22.294600
4.064000 21.297000
4.077000 20.152000
4.090000 18.976100
4.103000 17.286000
4.116000 16.786200
4.129000 16.286400
4.142000 17.848000
4.155000 16.261700
4.168000 14.675400
4.181000 16.809400
4.194000 13.046300
4.207000 9.536800
4.220100 7.023400
4.233100 7.914100
4.246100 11.082300
4.259100 5.352200
4.272100 6.400600
4.285100 0.000000
4.298100 0.000000
4.311100 0.000000
4.324100 0.000000
4.337100 0.000000
4.350100 0.000000
4.363100 0.000000
4.376100 0.000000
4.389100 0.000000
4.402200 0.000000
4.415200 0.000000
4.428200 0.000000
4.441200 0.000000
4.454200 0.000000
4.467200 0.000000
4.480200 0.000000
4.493200 0.000000
4.506200 0.000000
4.519200 0.000000
4.532200 0.000000
4.545200 0.000000
4.558200 0.000000
4.571200 0.000000
4.584300 0.000000
4.597300 0.000000
4.610300 0.000000
4.623300 0.000000
4.636300 0.000000
4.649300 0.000000
4.662300 0.000000
4.675300 0.000000
4.688300 0.000000
4.701300 0.000000
4.714300 0.000000
4.727300 0.000000
4.740300 0.000000
4.753300 0.000000
4.766400 0.000000
4.779400 0.000000
4.792400 0.000000
4.805400 0.000000
4.818400 0.000000
4.831400 0.000000
4.844400 0.000000
4.857400 0.000000
4.870400 0.000000
4.883400 0.000000
4.896400 0.000000
4.909400 0.000000
4.922400 0.000000
4.935400 0.000000
4.948500 0.000000
4.961500 0.000000
4.974500 0.000000
4.987500 0.000000
5.000500 0.000000
5.013500 0.000000
5.026500 0.000000
5.039500 0.000000
5.052500 0.000000
5.065500 0.000000
5.078500 0.000000
5.091500 0.000000
5.104500 0.000000
5.117500 0.000000
5.130600 0.000000
5.143600 0.000000
5.156600 0.000000
5.169600 0.000000
5.182600 0.000000
5.195600 0.000000
5.208600 0.000000
5.221600 0.000000
5.234600 0.000000
5.247600 0.000000
5.260600 0.000000
5.273600 0.000000
5.286600 0.000000
5.299600 0.000000
5.312700 0.000000
5.325700 0.000000
5.338700 0.000000
5.351700 0.000000
5.364700 0.000000
5.377700 0.000000
5.390700 0.000000
5.403700 0.000000
5.416700 0.000000
5.429700 0.000000
5.442700 0.005700
5.455700 0.037400
5.468700 0.100700
5.481700 0.165700
5.494800 0.230700
5.507800 0.295800
5.520800 0.360800
5.533800 0.425800
5.546800 0.490800
5.559800 0.555800
5.572800 0.620900
5.585800 0.685900
5.598800 0.750900
5.611800 0.815900
5.624800 0.880900
5.637800 0.946000
5.650800 1.011000
5.663800 1.076000
5.676900 1.141000
5.689900 1.206000
5.702900 1.271100
5.715900 1.336100
5.728900 1.401100
5.741900 1.466100
5.754900 1.531100
5.767900 1.596200
5.780900 1.661200
5.793900 1.726200
5.806900 1.791200
5.819900 1.856200
5.832900 1.921300
5.845900 1.986300
5.859000 2.051300
5.872000 2.116300
5.885000 2.181300
5.898000 2.246400
5.911000 2.311400
5.924000 2.376400
5.937000 4.225800
5.950000 4.918400
5.963000 5.945400
5.976000 7.420400
5.989000 7.938900
6.002000 8.107200
6.015000 8.636800
6.028000 9.005300
6.041100 10.000600
6.054100 10.632300
6.067100 11.343600
6.080100 12.054900
6.093100 12.739600
6.106100 13.292800
6.119100 13.786500
6.132100 13.839900
6.145100 14.410900
6.158100 14.524800
6.171100 14.638700
6.184100 14.752600
6.197100 14.866400
6.210100 14.980300
6.223200 15.657600
6.236200 15.821200
6.249200 15.984800
6.262200 16.148400
6.275200 16.312000
6.288200 16.475600
6.301200 16.639200
6.314200 16.802800
6.327200 16.867000
6.340200 16.896600
6.353200 20.375500
6.366200 19.944700
6.379200 19.514000
6.392200 19.083300
6.405300 18.586100
6.418300 17.858700
6.431300 17.131200
6.444300 29.601800
6.457300 24.929900
6.470300 20.257900
6.483300 17.618800
6.496300 17.183200
6.509300 16.747600
6.522300 16.289500
6.535300 15.844500
6.548300 15.567800
6.561300 15.291100
6.574300 13.595300
6.587400 15.685700
6.600400 19.890400
6.613400 13.559100
6.626400 13.917500
6.639400 14.665800
6.652400 11.710700
6.665400 13.562300
6.678400 13.295900
6.691400 13.063800
6.704400 12.831600
6.717400 14.889800
6.730400 16.818600
6.743400 16.389300
6.756400 14.714600
6.769500 13.040600
6.782500 11.560100
6.795500 11.132600
6.808500 10.705200
6.821500 10.277700
6.834500 10.022500
6.847500 13.114400
6.860500 12.744300
6.873500 12.416800
6.886500 16.323500
6.899500 15.457600
6.912500 13.757200
6.925500 12.980100
6.938500 12.203100
6.951600 11.536700
6.964600 11.476700
6.977600 11.454100
6.990600 11.431500
7.003600 12.795000
7.016600 16.369000
7.029600 17.881500
7.042600 20.980600
7.055600 19.976600
7.068600 23.936800
7.081600 22.342100
7.094600 23.493200
7.107600 25.069000
7.120600 25.521200
7.133700 24.765000
7.146700 24.154700
7.159700 23.800300
7.172700 24.989400
7.185700 24.450600
7.198700 29.162200
7.211700 28.506700
7.224700 51.364000
7.237700 19.112000
7.250700 18.977100
7.263700 18.912000
7.276700 19.477400
7.289700 20.610900
7.302700 22.267500
7.315800 23.936400
7.328800 25.043800
7.341800 16.896700
7.354800 18.922100
7.367800 36.652800
7.380800 24.634800
7.393800 24.915500
7.406800 30.371200
7.419800 28.780000
7.432800 30.179100
7.445800 25.748100
7.458800 26.657300
7.471800 27.374000
7.484800 27.263700
7.497900 28.058600
7.510900 29.409600
7.523900 30.027500
7.536900 29.974200
7.549900 30.477100
7.562900 31.163900
7.575900 31.283600
7.588900 31.826600
7.601900 27.765800
7.614900 30.704200
7.627900 32.685800
7.640900 35.857700
7.653900 33.984700
7.666900 38.303400
7.680000 37.460900
7.693000 41.057800
7.706000 42.088000
7.719000 45.769100
7.732000 33.904400
7.745000 32.531900
7.758000 31.159400
7.771000 33.426000
7.784000 31.510600
7.797000 32.638200
7.810000 30.476000
7.823000 28.786200
7.836000 27.096400
7.849000 25.569300
7.862100 25.908600
7.875100 27.451800
7.888100 24.752700
7.901100 25.325500
7.914100 23.791900
7.927100 22.978500
7.940100 21.441400
7.953100 22.186900
7.966100 21.778500
7.979100 21.370200
7.992100 20.961800
8.005100 26.261700
8.018100 28.738500
8.031100 27.150100
8.044200 29.707600
8.057200 30.904200
8.070200 30.375100
8.083200 29.866800
8.096200 29.388100
8.109200 28.909500
8.122200 28.436800
8.135200 30.879700
8.148200 29.578400
8.161200 28.277100
8.174200 29.776500
8.187200 27.929000
8.200200 32.342900
8.213200 27.265400
8.226300 24.100200
8.239300 22.616400
8.252300 21.132700
8.265300 21.896800
8.278300 19.494800
8.291300 16.647700
8.304300 14.763400
8.317300 13.606100
8.330300 12.591700
8.343300 11.577200
8.356300 11.154200
8.369300 10.966200
8.382300 10.339100
8.395300 10.184700
8.408400 9.791700
8.421400 9.471400
8.434400 9.151200
8.447400 8.830900
8.460400 8.510600
8.473400 8.190400
8.486400 7.870100
8.499400 9.035400
8.512400 8.022400
8.525400 7.440800
8.538400 6.859100
8.551400 6.309300
8.564400 5.771600
8.577400 5.283600
8.590500 5.394300
8.603500 5.864800
8.616500 6.711100
8.629500 7.604500
8.642500 8.498000
8.655500 9.391400
8.668500 9.908200
8.681500 10.433400
8.694500 11.347900
8.707500 9.160300
8.720500 6.990400
8.733500 7.348100
8.746500 7.705800
8.759500 8.063600
8.772600 8.421300
8.785600 8.608700
8.798600 9.348900
8.811600 9.044100
8.824600 10.138800
8.837600 10.189000
8.850600 10.239100
8.863600 10.289300
8.876600 10.339400
8.889600 10.389600
8.902600 10.439700
8.915600 10.447800
8.928600 10.097300
8.941600 10.359400
8.954700 11.587100
8.967700 12.285900
8.980700 13.980900
8.993700 14.703600
9.006700 15.908600
9.019700 16.719700
9.032700 16.845000
9.045700 25.739900
9.058700 20.669400
9.071700 19.409300
9.084700 18.716900
9.097700 18.024600
9.110700 35.671200
9.123700 20.304800
9.136800 22.182200
9.149800 26.009800
9.162800 29.040300
9.175800 31.464700
9.188800 23.586100
9.201800 22.761300
9.214800 24.863800
9.227800 26.966300
9.240800 21.916600
9.253800 22.612300
9.266800 15.487400
9.279800 35.304300
9.292800 22.017200
9.305800 23.455800
9.318900 24.962500
9.331900 21.635500
9.344900 22.500200
9.357900 24.165100
9.370900 26.778500
9.383900 24.739000
9.396900 25.104700
9.409900 25.563600
9.422900 26.453000
9.435900 24.095200
9.448900 22.568700
9.461900 23.914100
9.474900 23.091000
9.487900 22.351800
9.501000 23.682300
9.514000 22.624400
9.527000 32.434000
9.540000 27.900200
9.553000 23.945600
9.566000 23.422500
9.579000 23.396400
9.592000 21.639000
9.605000 21.604100
9.618000 21.970700
9.631000 22.858800
9.644000 21.905900
9.657000 22.841900
9.670000 23.560400
9.683100 24.167700
9.696100 23.701700
9.709100 24.534000
9.722100 25.428700
9.735100 24.418500
9.748100 25.446900
9.761100 27.922200
9.774100 20.877200
9.787100 21.324000
9.800100 21.770700
9.813100 19.989300
9.826100 20.596200
9.839100 19.032300
9.852100 19.876900
9.865200 20.227900
9.878200 21.757200
9.891200 23.286500
9.904200 23.268400
9.917200 23.945400
9.930200 20.309000
9.943200 22.170800
9.956200 59.780000
9.969200 25.719500
9.982200 19.860400
9.995200 20.762100
10.008200 17.392800
10.021200 17.678900
10.034200 16.409500
10.047300 18.016100
10.060300 33.236400
10.073300 34.276000
10.086300 16.383500
10.099300 17.312400
10.112300 15.496300
10.125300 15.455700
10.138300 15.231800
10.151300 15.126000
10.164300 15.588300
10.177300 17.842200
10.190300 19.351900
10.203300 19.568700
10.216300 16.318800
10.229400 16.836000
10.242400 16.608800
10.255400 16.381500
10.268400 16.484000
10.281400 16.639000
10.294400 16.809500
10.307400 16.980000
10.320400 17.150500
10.333400 17.321000
10.346400 17.491400
10.359400 17.661900
10.372400 16.535600
10.385400 15.697500
10.398400 15.687100
10.411500 15.676800
10.424500 15.666500
10.437500 15.656200
10.450500 14.131200
10.463500 14.221600
10.476500 14.421500
10.489500 14.645800
10.502500 14.870200
10.515500 15.094500
10.528500 15.320300
10.541500 16.091900
10.554500 14.045200
10.567500 14.284500
10.580500 14.527200
10.593600 14.776600
10.606600 15.026100
10.619600 13.823100
10.632600 13.919200
10.645600 15.048600
10.658600 15.179700
10.671600 15.320100
10.684600 15.486100
10.697600 13.200600
10.710600 13.076400
10.723600 12.093900
10.736600 12.131900
10.749600 12.174200
10.762600 12.210300
10.775700 12.201900
10.788700 13.488800
10.801700 13.520800
10.814700 13.558000
10.827700 13.582100
10.840700 13.526400
10.853700 13.470700
10.866700 14.724200
10.879700 14.612400
10.892700 14.500600
10.905700 14.353500
10.918700 14.190700
10.931700 16.134700
10.944700 16.299200
10.957800 16.463700
10.970800 16.535700
10.983800 16.571200
10.996800 16.844000
11.009800 18.534900
11.022800 18.455400
11.035800 18.375900
11.048800 19.854700
11.061800 19.701800
11.074800 19.552700
11.087800 21.557800
11.100800 22.247000
11.113800 21.778000
11.126800 21.309000
11.139900 20.840100
11.152900 20.371800
11.165900 19.906500
11.178900 21.507100
11.191900 20.882200
11.204900 20.591600
11.217900 19.861100
11.230900 19.138700
11.243900 18.466600
11.256900 17.825500
11.269900 17.776000
11.282900 17.332500
11.295900 17.524600
11.308900 17.186700
11.322000 16.848800
11.335000 19.426500
11.348000 19.052100
11.361000 18.288000
11.374000 17.920700
11.387000 28.328900
11.400000 23.194200
11.413000 20.051100
11.426000 19.499500
11.439000 18.947900
11.452000 18.405400
11.465000 17.900200
11.478000 17.395000
11.491000 16.573300
11.504100 16.172100
11.517100 15.511500
11.530100 15.862700
11.543100 15.397500
11.556100 23.877000
11.569100 17.666500
11.582100 17.276900
11.595100 17.390700
11.608100 17.502100
11.621100 17.613600
11.634100 17.725100
11.647100 17.836600
11.660100 15.327300
11.673100 15.094300
11.686200 14.853500
11.699200 14.620600
11.712200 15.760300
11.725200 17.143000
11.738200 18.728900
11.751200 20.406300
11.764200 13.811500
11.777200 13.836900
11.790200 14.473200
11.803200 14.673700
11.816200 14.970700
11.829200 15.267700
11.842200 13.338800
11.855200 13.509200
11.868300 13.753700
11.881300 13.998100
11.894300 12.732600
11.907300 13.081400
11.920300 13.430300
11.933300 14.564500
11.946300 15.471400
11.959300 12.828300
11.972300 13.521300
11.985300 14.214300
11.998300 14.907200
12.011300 13.419000
12.024300 11.158400
12.037300 11.311700
12.050400 11.465000
12.063400 12.238200
12.076400 13.017400
12.089400 14.357300
12.102400 13.575300
12.115400 10.032700
12.128400 10.275300
12.141400 10.517900
12.154400 10.760500
12.167400 11.003100
12.180400 11.735800
12.193400 12.050900
12.206400 10.578200
12.219400 12.758000
12.232500 12.829800
12.245500 12.512200
12.258500 13.666900
12.271500 13.064900
12.284500 12.463000
12.297500 11.861000
12.310500 13.560400
12.323500 12.952800
12.336500 13.702900
12.349500 13.517100
12.362500 13.331300
12.375500 11.831100
12.388500 11.569300
12.401500 10.642000
12.414600 9.959000
12.427600 9.275900
12.440600 9.545500
12.453600 8.202500
12.466600 7.730500
12.479600 7.258400
12.492600 6.786400
12.505600 6.314400
12.518600 5.842400
12.531600 5.370400
12.544600 5.121200
12.557600 5.016300
12.570600 4.911400
12.583600 4.806500
12.596700 4.701600
12.609700 4.596700
12.622700 4.491800
12.635700 3.457700
12.648700 3.106100
12.661700 2.754400
12.674700 2.402800
12.687700 2.051100
12.700700 1.699500
12.713700 1.371400
12.726700 1.178000
12.739700 0.984600
12.752700 0.791200
12.765700 0.597800
12.778800 0.404400
12.791800 0.211000
12.804800 0.017600
12.817800 0.000000
12.830800 0.000000
12.843800 0.000000
12.856800 0.000000
12.869800 0.000000
12.882800 0.000000
12.895800 0.000000
12.908800 0.000000
12.921800 0.000000
12.934800 0.000000
12.947800 0.000000
12.960900 0.000000
12.973900 0.000000
12.986900 0.000000
12.999900 0.000000
13.012900 0.000000
13.025900 0.000000
13.038900 0.000000
13.051900 0.000000
13.064900 0.000000
13.077900 0.000000
13.090900 0.000000
13.103900 0.000000
13.116900 0.000000
13.129900 0.000000
13.143000 0.000000
13.156000 0.000000
13.169000 0.000000
13.182000 0.000000
13.195000 0.000000
13.208000 0.000000
13.221000 0.000000
13.234000 0.000000
13.247000 0.000000
13.260000 0.000000
13.273000 0.000000
13.286000 0.000000
13.299000 0.000000
13.312000 0.000000
13.325100 0.000000
13.338100 0.000000
13.351100 0.000000
13.364100 0.000000
13.377100 0.000000
13.390100 0.000000
13.403100 0.000000
13.416100 0.000000
13.429100 0.000000
13.442100 0.000000
13.455100 0.000000
13.468100 0.000000
13.481100 0.000000
13.494100 0.000000
13.507200 0.000000
13.520200 0.000000
13.533200 0.000000
13.546200 0.000000
13.559200 0.000000
13.572200 0.000000
13.585200 0.000000
13.598200 0.000000
13.611200 0.000000
13.624200 0.000000
13.637200 0.000000
13.650200 0.000000
13.663200 0.000000
13.676200 0.000000
13.689300 0.000000
13.702300 0.000000
13.715300 0.000000
13.728300 0.000000
13.741300 0.000000
13.754300 0.000000
13.767300 0.000000
13.780300 0.000000
13.793300 0.000000
13.806300 0.000000
13.819300 0.000000
13.832300 0.000000
13.845300 0.000000
13.858300 0.000000
13.871400 0.000000
13.884400 0.000000
13.897400 0.000000
13.910400 0.000000
13.923400 0.000000
13.936400 0.000000
13.949400 0.000000
13.962400 0.000000
13.975400 0.000000
13.988400 0.000000
e
