set title 'mp-1184671 - Density of States'
set xlabel 'Energy (eV)'
set ylabel 'DOS (states/eV)'
set grid
set xrange [-10:10]
set yrange [0:3.133]
set xzeroaxis lt -1
set terminal png size 800,600
set output 'mp-1184671_dos_gnuplot.png'
plot '-' using 1:2 with lines title 'DOS'
-30.922900 0.000000
-30.885000 0.000000
-30.847000 0.000000
-30.809100 0.000000
-30.771200 0.000000
-30.733300 0.000000
-30.695300 0.000000
-30.657400 0.000000
-30.619500 0.000000
-30.581600 0.000000
-30.543600 0.000000
-30.505700 0.000000
-30.467800 0.000000
-30.429900 0.000000
-30.391900 0.000000
-30.354000 0.000000
-30.316100 0.000000
-30.278200 0.000000
-30.240200 0.000000
-30.202300 0.000000
-30.164400 0.000000
-30.126500 0.000000
-30.088500 0.000000
-30.050600 0.000000
-30.012700 0.000000
-29.974800 0.000000
-29.936800 0.000000
-29.898900 0.000000
-29.861000 0.000000
-29.823100 0.000000
-29.785100 0.000000
-29.747200 0.000000
-29.709300 0.000000
-29.671400 0.000000
-29.633400 0.000000
-29.595500 0.000000
-29.557600 0.000000
-29.519700 0.000000
-29.481700 0.000000
-29.443800 0.000000
-29.405900 0.000000
-29.368000 0.000000
-29.330100 0.000000
-29.292100 0.000000
-29.254200 0.000000
-29.216300 0.000000
-29.178400 0.000000
-29.140400 0.000000
-29.102500 0.000000
-29.064600 0.000000
-29.026700 0.000000
-28.988700 0.000000
-28.950800 0.000000
-28.912900 0.000000
-28.875000 0.000000
-28.837000 0.000000
-28.799100 0.000000
-28.761200 0.000000
-28.723300 0.000000
-28.685300 0.000000
-28.647400 0.000000
-28.609500 0.000000
-28.571600 0.000000
-28.533600 0.000000
-28.495700 0.000000
-28.457800 0.000000
-28.419900 0.000000
-28.381900 0.000000
-28.344000 0.000000
-28.306100 0.000000
-28.268200 0.000000
-28.230200 0.000000
-28.192300 0.000000
-28.154400 0.000000
-28.116500 0.000000
-28.078500 0.000000
-28.040600 0.000000
-28.002700 0.000000
-27.964800 0.000000
-27.926800 0.000000
-27.888900 0.000000
-27.851000 0.000000
-27.813100 0.000000
-27.775200 0.000000
-27.737200 0.000000
-27.699300 0.000000
-27.661400 0.000000
-27.623500 0.000200
-27.585500 0.017000
-27.547600 0.466300
-27.509700 4.526500
-27.471800 16.017400
-27.433800 22.248200
-27.395900 17.119700
-27.358000 12.287100
-27.320100 5.429600
-27.282100 0.935300
-27.244200 0.056200
-27.206300 0.001100
-27.168400 0.000000
-27.130400 0.000000
-27.092500 0.000000
-27.054600 0.000000
-27.016700 0.000000
-26.978700 0.000000
-26.940800 0.000000
-26.902900 0.000000
-26.865000 0.000000
-26.827000 0.000000
-26.789100 0.000000
-26.751200 0.000000
-26.713300 0.000000
-26.675300 0.000000
-26.637400 0.000000
-26.599500 0.000000
-26.561600 0.000000
-26.523600 0.000000
-26.485700 0.000000
-26.447800 0.000000
-26.409900 0.000000
-26.371900 0.000000
-26.334000 0.000000
-26.296100 0.000000
-26.258200 0.000000
-26.220300 0.000000
-26.182300 0.000000
-26.144400 0.000000
-26.106500 0.000000
-26.068600 0.000000
-26.030600 0.000000
-25.992700 0.000000
-25.954800 0.000000
-25.916900 0.000000
-25.878900 0.000000
-25.841000 0.000000
-25.803100 0.000000
-25.765200 0.000000
-25.727200 0.000000
-25.689300 0.000000
-25.651400 0.000000
-25.613500 0.000000
-25.575500 0.000000
-25.537600 0.000000
-25.499700 0.000000
-25.461800 0.000000
-25.423800 0.000000
-25.385900 0.000000
-25.348000 0.000000
-25.310100 0.000000
-25.272100 0.000000
-25.234200 0.000000
-25.196300 0.000000
-25.158400 0.000000
-25.120400 0.000000
-25.082500 0.000000
-25.044600 0.000000
-25.006700 0.000000
-24.968700 0.000000
-24.930800 0.000000
-24.892900 0.000000
-24.855000 0.000000
-24.817000 0.000000
-24.779100 0.000000
-24.741200 0.000000
-24.703300 0.000000
-24.665300 0.000000
-24.627400 0.000000
-24.589500 0.000000
-24.551600 0.000000
-24.513700 0.000000
-24.475700 0.000000
-24.437800 0.000000
-24.399900 0.000000
-24.362000 0.000000
-24.324000 0.000000
-24.286100 0.000000
-24.248200 0.000000
-24.210300 0.000000
-24.172300 0.000000
-24.134400 0.000000
-24.096500 0.000000
-24.058600 0.000000
-24.020600 0.000000
-23.982700 0.000000
-23.944800 0.000000
-23.906900 0.000000
-23.868900 0.000000
-23.831000 0.000000
-23.793100 0.000000
-23.755200 0.000000
-23.717200 0.000000
-23.679300 0.000000
-23.641400 0.000000
-23.603500 0.000000
-23.565500 0.000000
-23.527600 0.000000
-23.489700 0.000000
-23.451800 0.000000
-23.413800 0.000000
-23.375900 0.000000
-23.338000 0.000000
-23.300100 0.000000
-23.262100 0.000000
-23.224200 0.000000
-23.186300 0.000000
-23.148400 0.000000
-23.110400 0.000000
-23.072500 0.000000
-23.034600 0.000000
-22.996700 0.000000
-22.958800 0.000000
-22.920800 0.000000
-22.882900 0.000000
-22.845000 0.000000
-22.807100 0.000000
-22.769100 0.000000
-22.731200 0.000000
-22.693300 0.000000
-22.655400 0.000000
-22.617400 0.000000
-22.579500 0.000000
-22.541600 0.000000
-22.503700 0.000000
-22.465700 0.000000
-22.427800 0.000000
-22.389900 0.000000
-22.352000 0.000000
-22.314000 0.000000
-22.276100 0.000000
-22.238200 0.000000
-22.200300 0.000000
-22.162300 0.000000
-22.124400 0.000000
-22.086500 0.000000
-22.048600 0.000000
-22.010600 0.000000
-21.972700 0.000000
-21.934800 0.000000
-21.896900 0.000000
-21.858900 0.000000
-21.821000 0.000000
-21.783100 0.000000
-21.745200 0.000000
-21.707200 0.000000
-21.669300 0.000000
-21.631400 0.000000
-21.593500 0.000000
-21.555500 0.000000
-21.517600 0.000000
-21.479700 0.000000
-21.441800 0.000000
-21.403900 0.000000
-21.365900 0.000000
-21.328000 0.000000
-21.290100 0.000000
-21.252200 0.000000
-21.214200 0.000000
-21.176300 0.000000
-21.138400 0.000000
-21.100500 0.000000
-21.062500 0.000000
-21.024600 0.000000
-20.986700 0.000000
-20.948800 0.000000
-20.910800 0.000000
-20.872900 0.000000
-20.835000 0.000000
-20.797100 0.000000
-20.759100 0.000000
-20.721200 0.000000
-20.683300 0.000000
-20.645400 0.000000
-20.607400 0.000000
-20.569500 0.000000
-20.531600 0.000000
-20.493700 0.000000
-20.455700 0.000000
-20.417800 0.000000
-20.379900 0.000000
-20.342000 0.000000
-20.304000 0.000000
-20.266100 0.000000
-20.228200 0.000000
-20.190300 0.000000
-20.152300 0.000000
-20.114400 0.000000
-20.076500 0.000000
-20.038600 0.000000
-20.000600 0.000000
-19.962700 0.000000
-19.924800 0.000000
-19.886900 0.000000
-19.848900 0.000000
-19.811000 0.000000
-19.773100 0.000000
-19.735200 0.000000
-19.697300 0.000000
-19.659300 0.000000
-19.621400 0.000000
-19.583500 0.000000
-19.545600 0.000000
-19.507600 0.000000
-19.469700 0.000000
-19.431800 0.000000
-19.393900 0.000000
-19.355900 0.000000
-19.318000 0.000000
-19.280100 0.000000
-19.242200 0.000000
-19.204200 0.000000
-19.166300 0.000000
-19.128400 0.000000
-19.090500 0.000000
-19.052500 0.000000
-19.014600 0.000000
-18.976700 0.000000
-18.938800 0.000000
-18.900800 0.000000
-18.862900 0.000000
-18.825000 0.000000
-18.787100 0.000000
-18.749100 0.000000
-18.711200 0.000000
-18.673300 0.000000
-18.635400 0.000000
-18.597400 0.000000
-18.559500 0.000000
-18.521600 0.000000
-18.483700 0.000000
-18.445700 0.000000
-18.407800 0.000000
-18.369900 0.000000
-18.332000 0.000000
-18.294000 0.000000
-18.256100 0.000000
-18.218200 0.000000
-18.180300 0.000000
-18.142400 0.000000
-18.104400 0.000000
-18.066500 0.000000
-18.028600 0.000000
-17.990700 0.000000
-17.952700 0.000000
-17.914800 0.000000
-17.876900 0.000000
-17.839000 0.000000
-17.801000 0.000000
-17.763100 0.000000
-17.725200 0.000000
-17.687300 0.000000
-17.649300 0.000000
-17.611400 0.000000
-17.573500 0.000000
-17.535600 0.000000
-17.497600 0.000000
-17.459700 0.000000
-17.421800 0.000000
-17.383900 0.000000
-17.345900 0.000000
-17.308000 0.000000
-17.270100 0.000000
-17.232200 0.000000
-17.194200 0.000000
-17.156300 0.000000
-17.118400 0.000000
-17.080500 0.000000
-17.042500 0.000000
-17.004600 0.000000
-16.966700 0.000000
-16.928800 0.000000
-16.890800 0.000000
-16.852900 0.000000
-16.815000 0.000000
-16.777100 0.000000
-16.739100 0.000000
-16.701200 0.000000
-16.663300 0.000000
-16.625400 0.000000
-16.587500 0.000000
-16.549500 0.000000
-16.511600 0.000000
-16.473700 0.000000
-16.435800 0.000000
-16.397800 0.000000
-16.359900 0.000000
-16.322000 0.000000
-16.284100 0.001400
-16.246100 0.074400
-16.208200 1.441600
-16.170300 10.276200
-16.132400 27.992100
-16.094400 32.916100
-16.056500 30.494000
-16.018600 40.535000
-15.980700 53.527400
-15.942700 69.886600
-15.904800 69.287000
-15.866900 41.854200
-15.829000 14.335100
-15.791000 2.648500
-15.753100 0.244000
-15.715200 0.010100
-15.677300 0.000200
-15.639300 0.000000
-15.601400 0.000000
-15.563500 0.000000
-15.525600 0.000000
-15.487600 0.000000
-15.449700 0.000000
-15.411800 0.000000
-15.373900 0.000000
-15.335900 0.000000
-15.298000 0.000000
-15.260100 0.000000
-15.222200 0.000000
-15.184200 0.000000
-15.146300 0.000000
-15.108400 0.000000
-15.070500 0.000000
-15.032600 0.000000
-14.994600 0.000000
-14.956700 0.000000
-14.918800 0.000000
-14.880900 0.000000
-14.842900 0.000000
-14.805000 0.000000
-14.767100 0.000000
-14.729200 0.000000
-14.691200 0.000000
-14.653300 0.000000
-14.615400 0.000000
-14.577500 0.000000
-14.539500 0.000000
-14.501600 0.000000
-14.463700 0.000000
-14.425800 0.000000
-14.387800 0.000000
-14.349900 0.000000
-14.312000 0.000000
-14.274100 0.000000
-14.236100 0.000000
-14.198200 0.000000
-14.160300 0.000000
-14.122400 0.000000
-14.084400 0.000000
-14.046500 0.000000
-14.008600 0.000000
-13.970700 0.000000
-13.932700 0.000000
-13.894800 0.000000
-13.856900 0.000000
-13.819000 0.000000
-13.781000 0.000000
-13.743100 0.000000
-13.705200 0.000000
-13.667300 0.000000
-13.629300 0.000000
-13.591400 0.000000
-13.553500 0.000000
-13.515600 0.000000
-13.477600 0.000000
-13.439700 0.000000
-13.401800 0.000000
-13.363900 0.000000
-13.326000 0.000000
-13.288000 0.000000
-13.250100 0.000000
-13.212200 0.000000
-13.174300 0.000000
-13.136300 0.000000
-13.098400 0.000000
-13.060500 0.000000
-13.022600 0.000000
-12.984600 0.000000
-12.946700 0.000000
-12.908800 0.000000
-12.870900 0.000000
-12.832900 0.000000
-12.795000 0.000000
-12.757100 0.000000
-12.719200 0.000000
-12.681200 0.000000
-12.643300 0.000000
-12.605400 0.000000
-12.567500 0.000000
-12.529500 0.000000
-12.491600 0.000000
-12.453700 0.000000
-12.415800 0.000000
-12.377800 0.000000
-12.339900 0.000000
-12.302000 0.000000
-12.264100 0.000000
-12.226100 0.000000
-12.188200 0.000000
-12.150300 0.000000
-12.112400 0.000000
-12.074400 0.000000
-12.036500 0.000000
-11.998600 0.000000
-11.960700 0.000000
-11.922700 0.000000
-11.884800 0.000000
-11.846900 0.000000
-11.809000 0.000000
-11.771100 0.000000
-11.733100 0.000000
-11.695200 0.000000
-11.657300 0.000000
-11.619400 0.000000
-11.581400 0.000000
-11.543500 0.000000
-11.505600 0.000000
-11.467700 0.000000
-11.429700 0.000000
-11.391800 0.000000
-11.353900 0.000000
-11.316000 0.000000
-11.278000 0.000000
-11.240100 0.000000
-11.202200 0.000000
-11.164300 0.000000
-11.126300 0.000000
-11.088400 0.000000
-11.050500 0.000000
-11.012600 0.000000
-10.974600 0.000000
-10.936700 0.000000
-10.898800 0.000000
-10.860900 0.000000
-10.822900 0.000000
-10.785000 0.000000
-10.747100 0.000000
-10.709200 0.000000
-10.671200 0.000000
-10.633300 0.000000
-10.595400 0.000000
-10.557500 0.000000
-10.519500 0.000000
-10.481600 0.000000
-10.443700 0.000000
-10.405800 0.000000
-10.367800 0.000000
-10.329900 0.000000
-10.292000 0.000000
-10.254100 0.000000
-10.216200 0.000000
-10.178200 0.000000
-10.140300 0.000000
-10.102400 0.000000
-10.064500 0.000000
-10.026500 0.000000
-9.988600 0.000000
-9.950700 0.000000
-9.912800 0.000000
-9.874800 0.000000
-9.836900 0.000000
-9.799000 0.000000
-9.761100 0.000000
-9.723100 0.000000
-9.685200 0.000000
-9.647300 0.000000
-9.609400 0.000000
-9.571400 0.000000
-9.533500 0.000000
-9.495600 0.000000
-9.457700 0.000000
-9.419700 0.000000
-9.381800 0.000000
-9.343900 0.000000
-9.306000 0.000000
-9.268000 0.000000
-9.230100 0.000000
-9.192200 0.000000
-9.154300 0.000000
-9.116300 0.000000
-9.078400 0.000000
-9.040500 0.000000
-9.002600 0.000000
-8.964600 0.000000
-8.926700 0.000000
-8.888800 0.000000
-8.850900 0.000000
-8.812900 0.000000
-8.775000 0.000000
-8.737100 0.000000
-8.699200 0.000000
-8.661200 0.000000
-8.623300 0.000000
-8.585400 0.000000
-8.547500 0.000000
-8.509600 0.000000
-8.471600 0.000000
-8.433700 0.000000
-8.395800 0.000000
-8.357900 0.000000
-8.319900 0.000000
-8.282000 0.000000
-8.244100 0.000000
-8.206200 0.000000
-8.168200 0.000000
-8.130300 0.000000
-8.092400 0.000000
-8.054500 0.000000
-8.016500 0.000000
-7.978600 0.000000
-7.940700 0.000000
-7.902800 0.000000
-7.864800 0.000000
-7.826900 0.000000
-7.789000 0.000000
-7.751100 0.000000
-7.713100 0.000000
-7.675200 0.000000
-7.637300 0.000000
-7.599400 0.000000
-7.561400 0.000000
-7.523500 0.000000
-7.485600 0.000000
-7.447700 0.000000
-7.409700 0.000000
-7.371800 0.000000
-7.333900 0.000000
-7.296000 0.000000
-7.258000 0.000000
-7.220100 0.000000
-7.182200 0.000000
-7.144300 0.000000
-7.106300 0.000000
-7.068400 0.000000
-7.030500 0.000000
-6.992600 0.000000
-6.954700 0.000000
-6.916700 0.000000
-6.878800 0.000000
-6.840900 0.000000
-6.803000 0.000000
-6.765000 0.000000
-6.727100 0.000000
-6.689200 0.000000
-6.651300 0.000000
-6.613300 0.000000
-6.575400 0.000000
-6.537500 0.000000
-6.499600 0.000000
-6.461600 0.000000
-6.423700 0.000000
-6.385800 0.000000
-6.347900 0.000000
-6.309900 0.000000
-6.272000 0.000000
-6.234100 0.000000
-6.196200 0.000000
-6.158200 0.000000
-6.120300 0.000000
-6.082400 0.000000
-6.044500 0.000000
-6.006500 0.000000
-5.968600 0.000000
-5.930700 0.000000
-5.892800 0.000000
-5.854800 0.000000
-5.816900 0.000000
-5.779000 0.000000
-5.741100 0.000000
-5.703100 0.000000
-5.665200 0.000000
-5.627300 0.000000
-5.589400 0.000000
-5.551400 0.000000
-5.513500 0.000000
-5.475600 0.000000
-5.437700 0.000000
-5.399800 0.000000
-5.361800 0.000000
-5.323900 0.000200
-5.286000 0.002200
-5.248100 0.010500
-5.210100 0.024800
-5.172200 0.044800
-5.134300 0.083000
-5.096400 0.112000
-5.058400 0.072900
-5.020500 0.045700
-4.982600 0.104100
-4.944700 0.164400
-4.906700 0.161100
-4.868800 0.173300
-4.830900 0.167600
-4.793000 0.093100
-4.755000 0.075300
-4.717100 0.134600
-4.679200 0.218800
-4.641300 0.232300
-4.603300 0.229900
-4.565400 0.235700
-4.527500 0.146800
-4.489600 0.093900
-4.451600 0.190900
-4.413700 0.305500
-4.375800 0.298700
-4.337900 0.241900
-4.299900 0.212700
-4.262000 0.185500
-4.224100 0.175200
-4.186200 0.213000
-4.148200 0.257500
-4.110300 0.245000
-4.072400 0.309200
-4.034500 0.352600
-3.996500 0.245200
-3.958600 0.252100
-3.920700 0.448200
-3.882800 0.470300
-3.844800 0.324500
-3.806900 0.223600
-3.769000 0.145900
-3.731100 0.103200
-3.693200 0.131900
-3.655200 0.317800
-3.617300 0.544200
-3.579400 0.611800
-3.541500 0.545700
-3.503500 0.368400
-3.465600 0.294400
-3.427700 0.356100
-3.389800 0.345500
-3.351800 0.348300
-3.313900 0.379000
-3.276000 0.323000
-3.238100 0.294700
-3.200100 0.429100
-3.162200 0.535100
-3.124300 0.404400
-3.086400 0.265400
-3.048400 0.192800
-3.010500 0.253500
-2.972600 0.479900
-2.934700 0.599500
-2.896700 0.551500
-2.858800 0.444000
-2.820900 0.364000
-2.783000 0.360800
-2.745000 0.366800
-2.707100 0.467100
-2.669200 0.599000
-2.631300 0.504300
-2.593300 0.394700
-2.555400 0.407000
-2.517500 0.382600
-2.479600 0.333900
-2.441600 0.244700
-2.403700 0.230600
-2.365800 0.403300
-2.327900 0.496400
-2.289900 0.401600
-2.252000 0.340000
-2.214100 0.276700
-2.176200 0.265300
-2.138300 0.473400
-2.100300 0.599400
-2.062400 0.491700
-2.024500 0.448200
-1.986600 0.560800
-1.948600 0.656200
-1.910700 0.687500
-1.872800 0.551300
-1.834900 0.316000
-1.796900 0.274400
-1.759000 0.453200
-1.721100 0.799800
-1.683200 0.959600
-1.645200 0.790300
-1.607300 0.581300
-1.569400 0.432400
-1.531500 0.387900
-1.493500 0.472500
-1.455600 0.614400
-1.417700 0.580700
-1.379800 0.470300
-1.341800 0.507900
-1.303900 0.526700
-1.266000 0.443600
-1.228100 0.364900
-1.190100 0.389300
-1.152200 0.434200
-1.114300 0.382200
-1.076400 0.397800
-1.038400 0.363700
-1.000500 0.371900
-0.962600 0.539800
-0.924700 0.663100
-0.886700 0.620300
-0.848800 0.518300
-0.810900 0.501600
-0.773000 0.464200
-0.735000 0.373500
-0.697100 0.335100
-0.659200 0.365300
-0.621300 0.480300
-0.583400 0.589800
-0.545400 0.629700
-0.507500 0.569900
-0.469600 0.547300
-0.431700 0.596700
-0.393700 0.613000
-0.355800 0.503100
-0.317900 0.330400
-0.280000 0.355400
-0.242000 0.577900
-0.204100 0.839900
-0.166200 0.960600
-0.128300 0.809900
-0.090300 0.602300
-0.052400 0.549900
-0.014500 0.729300
0.023400 0.829000
0.061400 0.634200
0.099300 0.444200
0.137200 0.369700
0.175100 0.401000
0.213100 0.484600
0.251000 0.671500
0.288900 0.826400
0.326800 0.786300
0.364800 0.780900
0.402700 0.724300
0.440600 0.605900
0.478500 0.523800
0.516500 0.415200
0.554400 0.350600
0.592300 0.496700
0.630200 0.618400
0.668200 0.666500
0.706100 0.661200
0.744000 0.584700
0.781900 0.541600
0.819900 0.459600
0.857800 0.529100
0.895700 0.639500
0.933600 0.614100
0.971600 0.435400
1.009500 0.294500
1.047400 0.370400
1.085300 0.462300
1.123200 0.510600
1.161200 0.512000
1.199100 0.470800
1.237000 0.491100
1.274900 0.586400
1.312900 0.537200
1.350800 0.416700
1.388700 0.418500
1.426600 0.552000
1.464600 0.490200
1.502500 0.260000
1.540400 0.156000
1.578300 0.181200
1.616300 0.314900
1.654200 0.374700
1.692100 0.237100
1.730000 0.142500
1.768000 0.162300
1.805900 0.196600
1.843800 0.175500
1.881700 0.166900
1.919700 0.176800
1.957600 0.149700
1.995500 0.092700
2.033400 0.085600
2.071400 0.115700
2.109300 0.144000
2.147200 0.174000
2.185100 0.168200
2.223100 0.222400
2.261000 0.293500
2.298900 0.270800
2.336800 0.270400
2.374800 0.319100
2.412700 0.273700
2.450600 0.237300
2.488500 0.277700
2.526500 0.305400
2.564400 0.376300
2.602300 0.499300
2.640200 0.529900
2.678100 0.559800
2.716100 0.584300
2.754000 0.564400
2.791900 0.596800
2.829800 0.609200
2.867800 0.675600
2.905700 0.878600
2.943600 0.865700
2.981500 0.853300
3.019500 0.999900
3.057400 0.916500
3.095300 0.892700
3.133200 0.952900
3.171200 0.937200
3.209100 0.965800
3.247000 0.853100
3.284900 0.639100
3.322900 0.497900
3.360800 0.360100
3.398700 0.320600
3.436600 0.483400
3.474600 0.740800
3.512500 0.899800
3.550400 0.867400
3.588300 0.905000
3.626300 1.039700
3.664200 1.104900
3.702100 1.091000
3.740000 1.038000
3.778000 1.098600
3.815900 1.094800
3.853800 0.982200
3.891700 0.878400
3.929700 0.954100
3.967600 0.984900
4.005500 0.802800
4.043400 0.684800
4.081400 0.829200
4.119300 1.075700
4.157200 1.176000
4.195100 1.077600
4.233000 1.076500
4.271000 1.197500
4.308900 1.371000
4.346800 1.626300
4.384700 1.883800
4.422700 2.189600
4.460600 2.195300
4.498500 1.901900
4.536400 1.721900
4.574400 1.397800
4.612300 1.025200
4.650200 0.918900
4.688100 0.956400
4.726100 1.117000
4.764000 1.338400
4.801900 1.259200
4.839800 1.028100
4.877800 1.049800
4.915700 1.199000
4.953600 1.279200
4.991500 1.129100
5.029500 0.936100
5.067400 0.923000
5.105300 0.987800
5.143200 0.959700
5.181200 1.062300
5.219100 1.376100
5.257000 1.503400
5.294900 1.414100
5.332900 1.258900
5.370800 1.288300
5.408700 1.296700
5.446600 1.185900
5.484600 1.190200
5.522500 1.308400
5.560400 1.460300
5.598300 1.659800
5.636300 1.618700
5.674200 1.249600
5.712100 0.974800
5.750000 0.993700
5.787900 0.976100
5.825900 0.888600
5.863800 0.947900
5.901700 0.892300
5.939600 0.689100
5.977600 0.514400
6.015500 0.566000
6.053400 0.774000
6.091300 0.897200
6.129300 0.851600
6.167200 0.779900
6.205100 0.742900
6.243000 0.667800
6.281000 0.517100
6.318900 0.468200
6.356800 0.760000
6.394700 0.940900
6.432700 0.779700
6.470600 0.636400
6.508500 0.573900
6.546400 0.527900
6.584400 0.650700
6.622300 0.845500
6.660200 0.926800
6.698100 1.027300
6.736100 1.135300
6.774000 1.126300
6.811900 1.013800
6.849800 0.804800
6.887800 0.672000
6.925700 0.688800
6.963600 0.766400
7.001500 0.906600
7.039500 1.122900
7.077400 1.445300
7.115300 1.538800
7.153200 1.516700
7.191200 1.649000
7.229100 1.639300
7.267000 1.536900
7.304900 1.667200
7.342900 1.832300
7.380800 1.928300
7.418700 2.293600
7.456600 2.469500
7.494500 2.177900
7.532500 2.312000
7.570400 2.754900
7.608300 2.848200
7.646200 2.697000
7.684200 2.643400
7.722100 2.799400
7.760000 2.750300
7.797900 2.223700
7.835900 1.817800
7.873800 1.653100
7.911700 1.541000
7.949600 1.532100
7.987600 1.454100
8.025500 1.428900
8.063400 1.524600
8.101300 1.498600
8.139300 1.454600
8.177200 1.388800
8.215100 1.457800
8.253000 1.619000
8.291000 1.510500
8.328900 1.254900
8.366800 1.138300
8.404700 1.084200
8.442700 1.079300
8.480600 1.018500
8.518500 0.967200
8.556400 1.077100
8.594400 1.151100
8.632300 1.062700
8.670200 1.115100
8.708100 1.302700
8.746100 1.224100
8.784000 1.175800
8.821900 1.412400
8.859800 1.676400
8.897800 1.611700
8.935700 1.381700
8.973600 1.307200
9.011500 1.421500
9.049400 1.440800
9.087400 1.310900
9.125300 1.360700
9.163200 1.388000
9.201100 1.241300
9.239100 1.000800
9.277000 0.966400
9.314900 1.088500
9.352800 1.112600
9.390800 1.014800
9.428700 0.793900
9.466600 0.681200
9.504500 0.757000
9.542500 0.912600
9.580400 1.096900
9.618300 1.123000
9.656200 0.923800
9.694200 0.861000
9.732100 0.902300
9.770000 0.824900
9.807900 0.652400
9.845900 0.515700
9.883800 0.489300
9.921700 0.549000
9.959600 0.555800
9.997600 0.544600
10.035500 0.779900
10.073400 1.198800
10.111300 1.382600
10.149300 1.347200
10.187200 1.284500
10.225100 1.394000
10.263000 1.519700
10.301000 1.413300
10.338900 1.277300
10.376800 1.006500
10.414700 0.768400
10.452700 0.712700
10.490600 0.732200
10.528500 0.909200
10.566400 1.062000
10.604300 1.194200
10.642300 1.165700
10.680200 0.931200
10.718100 0.972600
10.756000 1.328100
10.794000 1.462900
10.831900 1.230200
10.869800 1.049300
10.907700 1.224600
10.945700 1.630700
10.983600 1.638700
11.021500 1.158200
11.059400 0.874500
11.097400 0.917800
11.135300 1.058700
11.173200 1.146300
11.211100 1.009300
11.249100 0.861900
11.287000 0.865200
11.324900 0.897100
11.362800 0.989500
11.400800 1.078000
11.438700 1.043800
11.476600 0.929300
11.514500 0.778700
11.552500 0.734800
11.590400 0.737600
11.628300 0.934500
11.666200 1.224500
11.704200 1.185500
11.742100 0.981700
11.780000 0.796900
11.817900 0.726100
11.855900 0.803800
11.893800 0.869400
11.931700 0.896600
11.969600 0.946700
12.007600 0.913400
12.045500 0.968800
12.083400 1.136500
12.121300 1.289400
12.159300 1.297400
12.197200 1.273800
12.235100 1.492500
12.273000 1.733300
12.310900 1.574700
12.348900 1.380000
12.386800 1.397200
12.424700 1.563000
12.462600 1.703000
12.500600 1.590300
12.538500 1.362800
12.576400 1.243600
12.614300 1.319000
12.652300 1.221000
12.690200 0.906000
12.728100 0.790200
12.766000 0.897000
12.804000 1.238100
12.841900 1.431200
12.879800 1.197800
12.917700 1.022500
12.955700 0.859000
12.993600 0.650500
13.031500 0.809600
13.069400 1.109000
13.107400 1.306600
13.145300 1.522300
13.183200 1.572000
13.221100 1.389900
13.259100 1.305800
13.297000 1.225300
13.334900 1.207300
13.372800 1.256100
13.410800 1.123300
13.448700 0.868500
13.486600 0.705100
13.524500 0.798100
13.562500 0.891200
13.600400 0.887100
13.638300 0.846800
13.676200 0.791900
13.714200 0.703500
13.752100 0.609500
13.790000 0.736300
13.827900 0.919600
13.865800 0.925100
13.903800 0.880100
13.941700 0.884600
13.979600 1.078500
14.017500 1.319900
14.055500 1.186400
14.093400 1.019600
14.131300 0.962800
14.169200 0.906200
14.207200 0.832800
14.245100 0.900000
14.283000 1.157600
14.320900 1.298700
14.358900 1.191200
14.396800 1.143500
14.434700 1.427700
14.472600 1.860000
14.510600 2.089900
14.548500 1.876100
14.586400 1.454900
14.624300 1.115500
14.662300 1.085900
14.700200 1.236100
14.738100 1.139900
14.776000 0.960900
14.814000 0.915100
14.851900 0.789600
14.889800 0.881600
14.927700 1.055100
14.965700 1.004000
15.003600 0.943300
15.041500 0.856100
15.079400 0.791200
15.117400 0.823500
15.155300 0.695700
15.193200 0.578300
15.231100 0.618100
15.269100 0.693600
15.307000 0.788200
15.344900 0.822400
15.382800 0.818700
15.420700 0.765500
15.458700 0.619900
15.496600 0.689200
15.534500 0.845000
15.572400 0.860600
15.610400 0.933000
15.648300 0.951200
15.686200 0.740100
15.724100 0.632500
15.762100 0.710200
15.800000 0.762700
15.837900 0.814200
15.875800 0.916300
15.913800 0.816600
15.951700 0.610300
15.989600 0.527600
16.027500 0.441300
16.065500 0.335800
16.103400 0.278100
16.141300 0.464000
16.179200 0.898100
16.217200 1.082400
16.255100 0.937800
16.293000 0.784400
16.330900 0.671900
16.368900 0.521900
16.406800 0.486600
16.444700 0.572300
16.482600 0.729800
16.520600 0.905500
16.558500 0.952000
16.596400 0.968700
16.634300 0.981000
16.672300 0.839900
16.710200 0.687200
16.748100 0.726500
16.786000 0.773200
16.824000 0.658500
16.861900 0.591100
16.899800 0.664400
16.937700 0.687200
16.975700 0.493700
17.013600 0.441800
17.051500 0.571100
17.089400 0.671800
17.127300 0.676800
17.165300 0.706200
17.203200 0.909000
17.241100 0.941500
17.279000 0.724600
17.317000 0.647600
17.354900 0.727900
17.392800 0.884200
17.430700 0.976600
17.468700 0.997500
17.506600 0.892000
17.544500 0.716900
17.582400 0.722900
17.620400 0.778700
17.658300 0.673600
17.696200 0.606200
17.734100 0.616800
17.772100 0.725800
17.810000 0.743400
17.847900 0.621300
17.885800 0.572700
17.923800 0.715200
17.961700 0.889700
17.999600 0.934900
18.037500 0.890900
18.075500 0.724600
18.113400 0.661100
18.151300 0.823400
18.189200 0.944900
18.227200 0.815500
18.265100 0.626000
18.303000 0.664600
18.340900 0.693300
18.378900 0.632400
18.416800 0.722600
18.454700 0.951500
18.492600 0.963400
18.530600 0.838700
18.568500 0.884300
18.606400 0.947500
18.644300 0.818800
18.682200 0.737700
18.720200 1.033800
18.758100 1.346400
18.796000 1.141800
18.833900 1.008700
18.871900 1.188100
18.909800 1.036600
18.947700 0.639000
18.985600 0.513000
19.023600 0.684700
19.061500 0.840300
19.099400 0.896500
19.137300 0.909000
19.175300 0.801300
19.213200 0.638500
19.251100 0.610000
19.289000 0.825300
19.327000 0.975000
19.364900 1.087800
19.402800 1.340900
19.440700 1.553200
19.478700 1.511400
19.516600 1.441400
19.554500 1.501100
19.592400 1.317400
19.630400 1.145700
19.668300 1.154200
19.706200 1.110500
19.744100 1.286900
19.782100 1.577900
19.820000 1.410800
19.857900 1.116100
19.895800 1.126700
19.933800 1.102000
19.971700 1.068300
20.009600 1.150400
20.047500 1.041100
20.085500 0.923700
20.123400 1.060400
20.161300 1.364700
20.199200 1.491400
20.237100 1.440300
20.275100 1.338700
20.313000 1.235500
20.350900 1.276500
20.388800 1.198400
20.426800 1.002900
20.464700 1.069200
20.502600 1.131300
20.540500 1.017500
20.578500 0.878900
20.616400 0.843900
20.654300 1.016200
20.692200 1.297800
20.730200 1.428500
20.768100 1.388300
20.806000 1.284400
20.843900 1.093500
20.881900 0.861400
20.919800 0.781100
20.957700 0.889800
20.995600 1.104300
21.033600 1.207800
21.071500 1.157600
21.109400 1.234200
21.147300 1.208000
21.185300 1.123100
21.223200 1.194500
21.261100 1.290400
21.299000 1.303300
21.337000 1.340100
21.374900 1.548000
21.412800 1.605900
21.450700 1.376700
21.488700 1.169900
21.526600 1.059300
21.564500 1.164300
21.602400 1.288400
21.640400 1.223700
21.678300 1.021000
21.716200 0.763200
21.754100 0.717500
21.792100 1.005700
21.830000 1.134600
21.867900 1.056300
21.905800 1.085300
21.943700 1.103200
21.981700 0.891800
22.019600 0.755900
22.057500 0.904100
22.095400 1.201200
22.133400 1.161300
22.171300 0.902200
22.209200 1.164800
22.247100 1.411200
22.285100 1.112500
22.323000 0.808600
22.360900 0.896000
22.398800 1.150800
22.436800 1.294900
22.474700 1.401700
22.512600 1.571200
22.550500 1.736900
22.588500 1.538200
22.626400 1.089500
22.664300 0.833600
22.702200 0.953100
22.740200 1.288600
22.778100 1.500800
22.816000 1.446500
22.853900 1.471400
22.891900 1.348500
22.929800 0.949900
22.967700 0.641700
23.005600 0.535100
23.043600 0.617400
23.081500 0.928000
23.119400 1.353000
23.157300 1.577300
23.195300 1.318600
23.233200 0.831500
23.271100 0.677900
23.309000 0.775100
23.347000 0.898000
23.384900 1.099500
23.422800 1.225200
23.460700 1.183500
23.498600 1.124400
23.536600 1.141000
23.574500 1.232600
23.612400 1.146000
23.650300 1.020000
23.688300 1.110700
23.726200 1.491000
23.764100 1.915200
23.802000 1.740800
23.840000 1.330700
23.877900 1.367600
23.915800 1.547900
23.953700 1.414400
23.991700 1.232100
24.029600 1.139500
24.067500 0.991800
24.105400 1.029000
24.143400 1.265800
24.181300 1.542000
24.219200 1.783200
24.257100 1.662800
24.295100 1.251100
24.333000 0.915300
24.370900 0.767300
24.408800 0.752600
24.446800 1.035900
24.484700 1.379100
24.522600 1.575400
24.560500 1.609800
24.598500 1.793400
24.636400 2.120500
24.674300 2.113700
24.712200 1.789300
24.750200 1.284900
24.788100 1.033900
24.826000 1.060600
24.863900 0.916700
24.901900 0.928900
24.939800 1.248700
24.977700 2.091700
25.015600 5.950600
25.053500 11.294100
25.091500 8.762200
25.129400 3.199200
25.167300 1.460400
25.205200 1.299300
25.243200 1.227300
25.281100 0.979800
25.319000 0.835500
25.356900 0.844900
25.394900 0.915800
25.432800 0.994000
25.470700 1.064600
25.508600 1.147300
25.546600 1.230400
25.584500 1.389500
25.622400 1.447500
25.660300 1.246700
25.698300 0.983400
25.736200 1.123100
25.774100 1.412000
25.812000 1.337000
25.850000 0.911300
25.887900 0.611700
25.925800 0.856900
25.963700 1.203700
26.001700 1.164200
26.039600 1.180200
26.077500 1.243700
26.115400 1.255100
26.153400 1.356000
26.191300 1.306600
26.229200 1.168900
26.267100 1.041600
26.305100 1.088500
26.343000 1.202700
26.380900 1.191600
26.418800 1.262500
26.456800 1.285800
26.494700 1.236800
26.532600 1.236600
26.570500 1.293100
26.608500 1.412300
26.646400 1.301700
26.684300 1.058800
26.722200 0.939100
26.760100 0.888400
26.798100 0.811900
26.836000 0.874400
26.873900 1.167100
26.911800 1.217300
26.949800 1.048000
26.987700 0.934500
27.025600 1.112600
27.063500 1.417600
27.101500 1.369800
27.139400 1.295500
27.177300 1.247600
27.215200 1.123200
27.253200 1.391000
27.291100 1.840000
27.329000 1.711400
27.366900 1.201900
27.404900 0.954700
27.442800 0.966700
27.480700 1.042700
27.518600 1.202900
27.556600 1.533800
27.594500 1.726400
27.632400 1.593500
27.670300 1.279800
27.708300 1.140300
27.746200 1.141800
27.784100 1.035400
27.822000 1.078000
27.860000 1.299800
27.897900 1.491800
27.935800 1.475300
27.973700 1.301400
28.011700 1.109800
28.049600 1.067000
28.087500 1.264700
28.125400 1.429100
28.163400 1.209300
28.201300 0.983000
28.239200 1.120400
28.277100 1.406800
28.315000 1.406700
28.353000 1.364700
28.390900 1.587500
28.428800 1.706500
28.466700 1.704900
28.504700 1.675300
28.542600 1.490700
28.580500 1.297300
28.618400 1.149900
28.656400 0.984000
28.694300 0.999800
28.732200 1.287400
28.770100 1.236000
28.808100 0.885700
28.846000 0.987700
28.883900 1.218000
28.921800 1.276600
28.959800 1.401300
28.997700 1.692700
29.035600 1.958000
29.073500 2.023500
29.111500 1.949000
29.149400 1.729900
29.187300 1.498000
29.225200 1.211300
29.263200 0.911800
29.301100 1.008300
29.339000 1.413900
29.376900 1.712800
29.414900 1.782900
29.452800 1.794300
29.490700 1.775300
29.528600 1.438400
29.566600 1.200400
29.604500 1.186900
29.642400 1.013900
29.680300 0.925900
29.718300 1.167300
29.756200 1.533600
29.794100 1.821400
29.832000 1.917200
29.869900 1.704500
29.907900 1.220900
29.945800 0.859000
29.983700 0.845500
30.021600 1.102400
30.059600 1.468600
30.097500 1.759700
30.135400 1.724800
30.173300 1.406000
30.211300 1.241900
30.249200 1.314200
30.287100 1.294300
30.325000 1.277700
30.363000 1.229900
30.400900 1.169500
30.438800 1.271100
30.476700 1.398800
30.514700 1.430400
30.552600 1.499700
30.590500 1.393600
30.628400 1.238100
30.666400 1.130000
30.704300 1.004800
30.742200 0.957300
30.780100 1.222500
30.818100 1.743500
30.856000 1.892100
30.893900 1.523300
30.931800 1.140700
30.969800 1.109600
31.007700 1.316100
31.045600 1.391700
31.083500 1.334400
31.121500 1.133800
31.159400 0.990200
31.197300 1.100300
31.235200 1.246200
31.273200 1.379200
31.311100 1.604800
31.349000 1.634200
31.386900 1.410000
31.424800 1.304800
31.462800 1.308200
31.500700 1.220300
31.538600 1.180600
31.576500 1.261900
31.614500 1.244200
31.652400 1.168300
31.690300 1.201100
31.728200 1.296700
31.766200 1.517300
31.804100 1.753300
31.842000 1.481000
31.879900 1.065200
31.917900 0.876000
31.955800 1.028100
31.993700 1.367600
32.031600 1.408600
32.069600 1.423100
32.107500 1.574100
32.145400 1.795100
32.183300 1.993500
32.221300 1.935500
32.259200 1.649700
32.297100 1.415400
32.335000 1.375900
32.373000 1.551900
32.410900 1.594600
32.448800 1.455400
32.486700 1.580700
32.524700 1.675400
32.562600 1.532700
32.600500 1.490400
32.638400 1.351800
32.676400 1.146400
32.714300 1.131900
32.752200 1.364700
32.790100 1.545800
32.828100 1.714700
32.866000 1.855500
32.903900 1.936600
32.941800 2.033500
32.979800 2.011300
33.017700 1.837900
33.055600 1.395800
33.093500 1.150200
33.131400 1.305300
33.169400 1.686600
33.207300 1.826600
33.245200 1.307500
33.283100 0.984300
33.321100 1.206300
33.359000 1.586700
33.396900 1.936500
33.434800 2.071800
33.472800 1.901500
33.510700 1.586200
33.548600 1.308200
33.586500 1.115600
33.624500 0.987200
33.662400 1.036200
33.700300 1.270300
33.738200 1.455000
33.776200 1.461300
33.814100 1.369700
33.852000 1.326900
33.889900 1.463200
33.927900 1.533000
33.965800 1.284000
34.003700 1.065700
34.041600 1.328200
34.079600 1.664300
34.117500 1.753100
34.155400 1.531900
34.193300 1.234400
34.231300 1.119400
34.269200 1.055000
34.307100 1.179000
34.345000 1.624300
34.383000 1.990900
34.420900 1.763900
34.458800 1.651000
34.496700 1.943100
34.534700 1.781200
34.572600 1.528900
34.610500 1.541100
34.648400 1.536000
34.686300 1.498500
34.724300 1.414800
34.762200 1.318600
34.800100 1.624000
34.838000 2.100600
34.876000 2.035900
34.913900 1.510300
34.951800 1.422700
34.989700 1.729800
35.027700 1.711000
35.065600 1.436300
35.103500 1.392800
35.141400 1.647000
35.179400 1.767900
35.217300 1.688500
35.255200 1.558700
35.293100 1.621500
35.331100 2.182300
35.369000 2.430400
35.406900 2.155000
35.444800 2.020500
35.482800 1.902100
35.520700 1.979100
35.558600 2.100300
35.596500 1.942400
35.634500 1.646300
35.672400 1.296400
35.710300 1.276500
35.748200 1.444200
35.786200 1.592800
35.824100 1.952600
35.862000 2.163200
35.899900 1.936400
35.937900 1.688000
35.975800 1.619000
36.013700 1.500000
36.051600 1.402000
36.089600 1.649800
36.127500 1.928000
36.165400 1.792700
36.203300 1.401900
36.241200 1.118800
36.279200 1.418000
36.317100 1.823500
36.355000 1.746200
36.392900 1.315400
36.430900 1.004500
36.468800 1.063900
36.506700 1.321800
36.544600 1.431400
36.582600 1.439100
36.620500 1.448900
36.658400 1.352800
36.696300 1.324100
36.734300 1.320000
36.772200 1.365200
36.810100 1.341400
36.848000 1.064900
36.886000 0.925200
36.923900 1.102100
36.961800 1.322700
36.999700 1.458900
37.037700 1.483400
37.075600 1.361800
37.113500 1.225400
37.151400 1.129600
37.189400 1.026100
37.227300 0.971700
37.265200 0.954900
37.303100 0.934000
37.341100 0.902000
37.379000 1.016600
37.416900 1.187100
37.454800 0.998900
37.492800 0.765100
37.530700 0.728300
37.568600 0.618400
37.606500 0.466200
37.644500 0.401200
37.682400 0.431500
37.720300 0.493300
37.758200 0.519100
37.796200 0.647100
37.834100 0.727200
37.872000 0.565400
37.909900 0.481000
37.947800 0.407000
37.985800 0.306600
38.023700 0.318900
38.061600 0.307300
38.099500 0.238000
38.137500 0.244500
38.175400 0.284300
38.213300 0.248100
38.251200 0.241300
38.289200 0.222500
38.327100 0.118700
38.365000 0.040300
38.402900 0.061000
38.440900 0.112400
38.478800 0.131800
38.516700 0.158200
38.554600 0.123100
38.592600 0.082300
38.630500 0.126800
38.668400 0.173800
38.706300 0.164800
38.744300 0.150000
38.782200 0.154900
38.820100 0.180600
38.858000 0.170100
38.896000 0.078100
38.933900 0.014200
38.971800 0.005200
39.009700 0.018000
39.047700 0.030300
39.085600 0.033600
39.123500 0.040600
39.161400 0.053400
39.199400 0.045600
39.237300 0.015900
39.275200 0.002000
39.313100 0.000100
39.351100 0.000000
39.389000 0.000300
39.426900 0.005100
39.464800 0.027000
39.502700 0.050100
39.540700 0.036800
39.578600 0.025400
39.616500 0.024900
39.654400 0.011500
39.692400 0.001900
39.730300 0.000100
39.768200 0.000000
39.806100 0.000000
39.844100 0.000000
39.882000 0.000000
39.919900 0.000000
39.957800 0.000100
39.995800 0.001500
40.033700 0.007400
40.071600 0.012500
40.109500 0.007400
40.147500 0.001500
40.185400 0.000100
40.223300 0.000000
40.261200 0.000000
40.299200 0.000000
40.337100 0.000000
40.375000 0.000000
40.412900 0.000000
40.450900 0.000000
40.488800 0.000000
40.526700 0.000000
40.564600 0.000000
40.602600 0.000000
40.640500 0.000000
40.678400 0.000000
40.716300 0.000000
40.754300 0.000000
40.792200 0.000000
40.830100 0.000000
40.868000 0.000000
40.906000 0.000000
40.943900 0.000000
40.981800 0.000100
41.019700 0.001000
41.057600 0.005900
41.095600 0.012200
41.133500 0.008900
41.171400 0.002300
41.209300 0.000200
41.247300 0.000000
41.285200 0.000000
41.323100 0.000000
41.361000 0.000400
41.399000 0.003600
41.436900 0.010700
41.474800 0.011100
41.512700 0.004000
41.550700 0.000500
41.588600 0.000000
41.626500 0.000000
41.664400 0.000000
41.702400 0.000000
41.740300 0.000000
41.778200 0.000000
41.816100 0.000000
41.854100 0.000000
41.892000 0.000000
41.929900 0.000000
41.967800 0.000000
42.005800 0.000000
42.043700 0.000000
42.081600 0.000000
42.119500 0.000000
42.157500 0.000000
42.195400 0.000000
42.233300 0.000000
42.271200 0.000000
42.309200 0.000000
42.347100 0.000000
42.385000 0.000000
42.422900 0.000000
42.460900 0.000000
42.498800 0.000000
42.536700 0.000000
42.574600 0.000000
42.612600 0.000000
42.650500 0.000000
42.688400 0.000000
42.726300 0.000000
42.764200 0.000000
42.802200 0.000000
42.840100 0.000000
42.878000 0.000000
42.915900 0.000000
42.953900 0.000000
42.991800 0.000000
43.029700 0.000000
43.067600 0.000000
43.105600 0.000000
43.143500 0.000000
43.181400 0.000000
43.219300 0.000000
43.257300 0.000000
43.295200 0.000000
43.333100 0.000000
43.371000 0.000000
43.409000 0.000000
43.446900 0.000000
43.484800 0.000000
43.522700 0.000000
43.560700 0.000000
43.598600 0.000000
43.636500 0.000000
43.674400 0.000000
43.712400 0.000000
43.750300 0.000000
43.788200 0.000000
43.826100 0.000000
43.864100 0.000000
43.902000 0.000000
43.939900 0.000000
43.977800 0.000000
44.015800 0.000000
44.053700 0.000000
44.091600 0.000000
44.129500 0.000000
44.167500 0.000000
44.205400 0.000000
44.243300 0.000000
44.281200 0.000000
44.319100 0.000000
44.357100 0.000000
44.395000 0.000000
44.432900 0.000000
44.470800 0.000000
44.508800 0.000000
44.546700 0.000000
44.584600 0.000000
44.622500 0.000000
44.660500 0.000000
44.698400 0.000000
44.736300 0.000000
44.774200 0.000000
44.812200 0.000000
44.850100 0.000000
44.888000 0.000000
44.925900 0.000000
e
