set title 'mp-1062939 - Density of States'
set xlabel 'Energy (eV)'
set ylabel 'DOS (states/eV)'
set grid
set xrange [-10:10]
set yrange [0:6.676]
set xzeroaxis lt -1
set terminal png size 800,600
set output 'mp-1062939_dos_gnuplot.png'
plot '-' using 1:2 with lines title 'DOS'
-21.215900 0.000000
-21.192500 0.000000
-21.169200 0.000000
-21.145800 0.000000
-21.122400 0.000000
-21.099100 0.000000
-21.075700 0.000000
-21.052300 0.000000
-21.029000 0.000000
-21.005600 0.000000
-20.982300 0.000000
-20.958900 0.000000
-20.935500 0.000000
-20.912200 0.000000
-20.888800 0.000000
-20.865500 0.000000
-20.842100 0.000000
-20.818700 0.000000
-20.795400 0.000000
-20.772000 0.000000
-20.748700 0.000000
-20.725300 0.000000
-20.701900 0.000000
-20.678600 0.000000
-20.655200 0.000000
-20.631800 0.000000
-20.608500 0.000000
-20.585100 0.000000
-20.561800 0.000000
-20.538400 0.000000
-20.515000 0.000000
-20.491700 0.000000
-20.468300 0.000000
-20.445000 0.000000
-20.421600 0.000000
-20.398200 0.000000
-20.374900 0.000000
-20.351500 0.000000
-20.328100 0.000000
-20.304800 0.000000
-20.281400 0.000000
-20.258100 0.000000
-20.234700 0.000000
-20.211300 0.000000
-20.188000 0.000000
-20.164600 0.000000
-20.141300 0.000000
-20.117900 0.000000
-20.094500 0.000000
-20.071200 0.000000
-20.047800 0.000000
-20.024500 0.000000
-20.001100 0.000000
-19.977700 0.000000
-19.954400 0.000000
-19.931000 0.000000
-19.907600 0.000000
-19.884300 0.000000
-19.860900 0.000000
-19.837600 0.000000
-19.814200 0.000000
-19.790800 0.000000
-19.767500 0.000000
-19.744100 0.000000
-19.720800 0.000000
-19.697400 0.000000
-19.674000 0.000000
-19.650700 0.000000
-19.627300 0.000000
-19.604000 0.000000
-19.580600 0.000000
-19.557200 0.000000
-19.533900 0.000000
-19.510500 0.000000
-19.487100 0.000000
-19.463800 0.000000
-19.440400 0.000000
-19.417100 0.000000
-19.393700 0.000000
-19.370300 0.000000
-19.347000 0.000000
-19.323600 0.000000
-19.300300 0.000000
-19.276900 0.000000
-19.253500 0.000000
-19.230200 0.000000
-19.206800 0.000000
-19.183400 0.000000
-19.160100 0.000000
-19.136700 0.000000
-19.113400 0.000000
-19.090000 0.003600
-19.066600 0.173700
-19.043300 0.306100
-19.019900 0.300800
-18.996600 0.304700
-18.973200 0.292100
-18.949800 0.303700
-18.926500 0.313600
-18.903100 0.310400
-18.879800 0.305500
-18.856400 0.310100
-18.833000 0.319000
-18.809700 0.324900
-18.786300 0.321900
-18.762900 0.320700
-18.739600 0.324600
-18.716200 0.329200
-18.692900 0.335200
-18.669500 0.340000
-18.646100 0.340700
-18.622800 0.340900
-18.599400 0.344200
-18.576100 0.348700
-18.552700 0.353200
-18.529300 0.358100
-18.506000 0.362700
-18.482600 0.365400
-18.459200 0.368400
-18.435900 0.372300
-18.412500 0.376700
-18.389200 0.381600
-18.365800 0.386400
-18.342400 0.391300
-18.319100 0.396600
-18.295700 0.402100
-18.272400 0.407600
-18.249000 0.413100
-18.225600 0.418600
-18.202300 0.424100
-18.178900 0.429600
-18.155600 0.435100
-18.132200 0.443100
-18.108800 0.452600
-18.085500 0.460800
-18.062100 0.468400
-18.038700 0.475700
-18.015400 0.482900
-17.992000 0.489900
-17.968700 0.496800
-17.945300 0.509200
-17.921900 0.525000
-17.898600 0.537300
-17.875200 0.548600
-17.851900 0.559000
-17.828500 0.569100
-17.805100 0.579100
-17.781800 0.591400
-17.758400 0.615400
-17.735100 0.639000
-17.711700 0.657600
-17.688300 0.674600
-17.665000 0.690700
-17.641600 0.706100
-17.618200 0.727800
-17.594900 0.770700
-17.571500 0.809300
-17.548200 0.840900
-17.524800 0.870000
-17.501400 0.898700
-17.478100 0.941100
-17.454700 1.026100
-17.431400 1.114700
-17.408000 1.212200
-17.384600 1.448100
-17.361300 1.667600
-17.337900 1.402400
-17.314500 1.063600
-17.291200 0.879100
-17.267800 1.266700
-17.244500 1.545300
-17.221100 1.535400
-17.197700 3.136900
-17.174400 2.979400
-17.151000 2.614100
-17.127700 2.570700
-17.104300 2.589500
-17.080900 2.616000
-17.057600 2.648000
-17.034200 2.697300
-17.010900 2.747500
-16.987500 2.803400
-16.964100 2.874500
-16.940800 2.980600
-16.917400 3.087100
-16.894000 1.990500
-16.870700 1.183200
-16.847300 0.000000
-16.824000 0.000000
-16.800600 0.000000
-16.777200 0.000000
-16.753900 0.000000
-16.730500 0.000000
-16.707200 0.000000
-16.683800 0.000000
-16.660400 0.000000
-16.637100 0.000000
-16.613700 0.000000
-16.590400 0.000000
-16.567000 0.000000
-16.543600 0.000000
-16.520300 0.000000
-16.496900 0.000000
-16.473500 0.000000
-16.450200 0.000000
-16.426800 0.000000
-16.403500 0.000000
-16.380100 0.000000
-16.356700 0.000000
-16.333400 0.000000
-16.310000 0.000000
-16.286700 0.000000
-16.263300 0.000000
-16.239900 0.000000
-16.216600 0.000000
-16.193200 0.000000
-16.169800 0.000000
-16.146500 0.000000
-16.123100 0.000000
-16.099800 0.000000
-16.076400 0.000000
-16.053000 0.000000
-16.029700 0.000000
-16.006300 0.000000
-15.983000 0.000000
-15.959600 0.000000
-15.936200 0.000000
-15.912900 0.000000
-15.889500 0.000000
-15.866200 0.000000
-15.842800 0.000000
-15.819400 0.000000
-15.796100 0.000000
-15.772700 0.000000
-15.749300 0.000000
-15.726000 0.000000
-15.702600 0.000000
-15.679300 0.000000
-15.655900 0.000000
-15.632500 0.000000
-15.609200 0.000000
-15.585800 0.000000
-15.562500 0.000000
-15.539100 0.000000
-15.515700 0.000000
-15.492400 0.000000
-15.469000 0.000000
-15.445700 0.000000
-15.422300 0.000000
-15.398900 0.000000
-15.375600 0.000000
-15.352200 0.000000
-15.328800 0.000000
-15.305500 0.000000
-15.282100 0.000000
-15.258800 0.000000
-15.235400 0.000000
-15.212000 0.000000
-15.188700 0.000000
-15.165300 0.000000
-15.142000 0.000000
-15.118600 0.000000
-15.095200 0.000000
-15.071900 0.000000
-15.048500 0.000000
-15.025100 0.000000
-15.001800 0.000000
-14.978400 0.000000
-14.955100 0.000000
-14.931700 0.000000
-14.908300 0.000000
-14.885000 0.000000
-14.861600 0.000000
-14.838300 0.000000
-14.814900 0.000000
-14.791500 0.000000
-14.768200 0.000000
-14.744800 0.000000
-14.721500 0.000000
-14.698100 0.000000
-14.674700 0.000000
-14.651400 0.000000
-14.628000 0.000000
-14.604600 0.000000
-14.581300 0.000000
-14.557900 0.000000
-14.534600 0.000000
-14.511200 0.000000
-14.487800 0.000000
-14.464500 0.000000
-14.441100 0.000000
-14.417800 0.000000
-14.394400 0.000000
-14.371000 0.000000
-14.347700 0.000000
-14.324300 0.000000
-14.301000 0.000000
-14.277600 0.000000
-14.254200 0.000000
-14.230900 0.000000
-14.207500 0.000000
-14.184100 0.000000
-14.160800 0.000000
-14.137400 0.000000
-14.114100 0.000000
-14.090700 0.000000
-14.067300 0.000000
-14.044000 0.000000
-14.020600 0.000000
-13.997300 0.000000
-13.973900 0.000000
-13.950500 0.000000
-13.927200 0.000000
-13.903800 0.000000
-13.880400 0.000000
-13.857100 0.000000
-13.833700 0.000000
-13.810400 0.000000
-13.787000 0.000000
-13.763600 0.000000
-13.740300 0.000000
-13.716900 0.000000
-13.693600 0.000000
-13.670200 0.000000
-13.646800 0.000000
-13.623500 0.000000
-13.600100 0.000000
-13.576800 0.000000
-13.553400 0.000000
-13.530000 0.000000
-13.506700 0.000000
-13.483300 0.000000
-13.459900 0.000000
-13.436600 0.000000
-13.413200 0.000000
-13.389900 0.000000
-13.366500 0.000000
-13.343100 0.000000
-13.319800 0.000000
-13.296400 0.000000
-13.273100 0.000000
-13.249700 0.000000
-13.226300 0.000000
-13.203000 0.000000
-13.179600 0.000000
-13.156300 0.000000
-13.132900 0.000000
-13.109500 0.000000
-13.086200 0.000000
-13.062800 0.000000
-13.039400 0.000000
-13.016100 0.000000
-12.992700 0.000000
-12.969400 0.000000
-12.946000 0.000000
-12.922600 0.000000
-12.899300 0.000000
-12.875900 0.000000
-12.852600 0.000000
-12.829200 0.000000
-12.805800 0.000000
-12.782500 0.000000
-12.759100 0.000000
-12.735700 0.000000
-12.712400 0.000000
-12.689000 0.000000
-12.665700 0.000000
-12.642300 0.000000
-12.618900 0.000000
-12.595600 0.000000
-12.572200 0.000000
-12.548900 0.000000
-12.525500 0.000000
-12.502100 0.000000
-12.478800 0.000000
-12.455400 0.000000
-12.432100 0.000000
-12.408700 0.000000
-12.385300 0.000000
-12.362000 0.000000
-12.338600 0.000000
-12.315200 0.000000
-12.291900 0.000000
-12.268500 0.000000
-12.245200 0.000000
-12.221800 0.000000
-12.198400 0.000000
-12.175100 0.000000
-12.151700 0.000000
-12.128400 0.000000
-12.105000 0.000000
-12.081600 0.000000
-12.058300 0.000000
-12.034900 0.000000
-12.011600 0.000000
-11.988200 0.000000
-11.964800 0.000000
-11.941500 0.000000
-11.918100 0.000000
-11.894700 0.000000
-11.871400 0.000000
-11.848000 0.000000
-11.824700 0.000000
-11.801300 0.000000
-11.777900 0.000000
-11.754600 0.000000
-11.731200 0.000000
-11.707900 0.000000
-11.684500 0.000000
-11.661100 0.000000
-11.637800 0.000000
-11.614400 0.000000
-11.591000 0.000000
-11.567700 0.000000
-11.544300 0.000000
-11.521000 0.000000
-11.497600 0.000000
-11.474200 0.000000
-11.450900 0.000000
-11.427500 0.000000
-11.404200 0.000000
-11.380800 0.000000
-11.357400 0.000000
-11.334100 0.000000
-11.310700 0.000000
-11.287400 0.000000
-11.264000 0.000000
-11.240600 0.000000
-11.217300 0.000000
-11.193900 0.000000
-11.170500 0.000000
-11.147200 0.000000
-11.123800 0.000000
-11.100500 0.000000
-11.077100 0.000000
-11.053700 0.000000
-11.030400 0.000000
-11.007000 0.000000
-10.983700 0.000000
-10.960300 0.000000
-10.936900 0.000000
-10.913600 0.000000
-10.890200 0.000000
-10.866900 0.000000
-10.843500 0.000000
-10.820100 0.000000
-10.796800 0.000000
-10.773400 0.000000
-10.750000 0.000000
-10.726700 0.000000
-10.703300 0.000000
-10.680000 0.000000
-10.656600 0.000000
-10.633200 0.000000
-10.609900 0.000000
-10.586500 0.000000
-10.563200 0.000000
-10.539800 0.000000
-10.516400 0.000000
-10.493100 0.000000
-10.469700 0.000000
-10.446300 0.000000
-10.423000 0.000000
-10.399600 0.000000
-10.376300 0.000000
-10.352900 0.000000
-10.329500 0.000000
-10.306200 0.000000
-10.282800 0.000000
-10.259500 0.000000
-10.236100 0.000000
-10.212700 0.000000
-10.189400 0.000000
-10.166000 0.000000
-10.142700 0.000000
-10.119300 0.000000
-10.095900 0.000000
-10.072600 0.000000
-10.049200 0.000000
-10.025800 0.000000
-10.002500 0.000000
-9.979100 0.000000
-9.955800 0.000000
-9.932400 0.000000
-9.909000 0.000000
-9.885700 0.000000
-9.862300 0.000000
-9.839000 0.000000
-9.815600 0.000000
-9.792200 0.000000
-9.768900 0.000000
-9.745500 0.000000
-9.722200 0.000000
-9.698800 0.000000
-9.675400 0.000000
-9.652100 0.000000
-9.628700 0.000000
-9.605300 0.000000
-9.582000 0.000000
-9.558600 0.000000
-9.535300 0.000000
-9.511900 0.000000
-9.488500 0.000000
-9.465200 0.000000
-9.441800 0.000000
-9.418500 0.000000
-9.395100 0.000000
-9.371700 0.000000
-9.348400 0.000000
-9.325000 0.000000
-9.301600 0.000000
-9.278300 0.000000
-9.254900 0.000000
-9.231600 0.000000
-9.208200 0.000000
-9.184800 0.000000
-9.161500 0.000000
-9.138100 0.000000
-9.114800 0.000000
-9.091400 0.000000
-9.068000 0.000000
-9.044700 0.000000
-9.021300 0.000000
-8.998000 0.000000
-8.974600 0.000000
-8.951200 0.000000
-8.927900 0.000000
-8.904500 0.000000
-8.881100 0.000000
-8.857800 0.000000
-8.834400 0.000000
-8.811100 0.000000
-8.787700 0.000000
-8.764300 0.000000
-8.741000 0.000000
-8.717600 0.000000
-8.694300 0.000000
-8.670900 0.000000
-8.647500 0.000000
-8.624200 0.000000
-8.600800 0.000000
-8.577500 0.000000
-8.554100 0.000000
-8.530700 0.000000
-8.507400 0.000000
-8.484000 0.000000
-8.460600 0.000000
-8.437300 0.000000
-8.413900 0.000000
-8.390600 0.000000
-8.367200 0.000000
-8.343800 0.000000
-8.320500 0.000000
-8.297100 0.000000
-8.273800 0.000000
-8.250400 0.000000
-8.227000 0.000000
-8.203700 0.000000
-8.180300 0.000000
-8.156900 0.000000
-8.133600 0.000000
-8.110200 0.000000
-8.086900 0.000000
-8.063500 0.000000
-8.040100 0.000000
-8.016800 0.000000
-7.993400 0.000000
-7.970100 0.000000
-7.946700 0.000000
-7.923300 0.000000
-7.900000 0.000000
-7.876600 0.000000
-7.853300 0.000000
-7.829900 0.000000
-7.806500 0.000000
-7.783200 0.000000
-7.759800 0.000000
-7.736400 0.000000
-7.713100 0.000000
-7.689700 0.000000
-7.666400 0.000000
-7.643000 0.000000
-7.619600 0.000000
-7.596300 0.000000
-7.572900 0.000000
-7.549600 0.000000
-7.526200 0.000000
-7.502800 0.000000
-7.479500 0.000000
-7.456100 0.000000
-7.432800 0.000000
-7.409400 0.000000
-7.386000 0.000000
-7.362700 0.000000
-7.339300 0.000000
-7.315900 0.000000
-7.292600 0.000000
-7.269200 0.000000
-7.245900 0.000000
-7.222500 0.000000
-7.199100 0.000000
-7.175800 0.000000
-7.152400 0.000000
-7.129100 0.000000
-7.105700 0.000000
-7.082300 0.000000
-7.059000 0.000000
-7.035600 0.000000
-7.012200 0.000000
-6.988900 0.000000
-6.965500 0.000000
-6.942200 0.000000
-6.918800 0.000000
-6.895400 0.000000
-6.872100 0.000000
-6.848700 0.000000
-6.825400 0.000000
-6.802000 0.000000
-6.778600 0.000000
-6.755300 0.000000
-6.731900 0.000000
-6.708600 0.000000
-6.685200 0.000000
-6.661800 0.000000
-6.638500 0.000000
-6.615100 0.000000
-6.591700 0.000000
-6.568400 0.000000
-6.545000 0.000000
-6.521700 0.000000
-6.498300 0.000000
-6.474900 0.000000
-6.451600 0.000000
-6.428200 0.000000
-6.404900 0.000000
-6.381500 0.500900
-6.358100 0.448900
-6.334800 0.524000
-6.311400 0.529000
-6.288100 0.477400
-6.264700 0.483100
-6.241300 0.505100
-6.218000 0.527200
-6.194600 0.547800
-6.171200 0.532000
-6.147900 0.521200
-6.124500 0.526200
-6.101200 0.535900
-6.077800 0.546000
-6.054400 0.557900
-6.031100 0.569900
-6.007700 0.582400
-5.984400 0.584000
-5.961000 0.586700
-5.937600 0.592200
-5.914300 0.600700
-5.890900 0.611100
-5.867500 0.621500
-5.844200 0.634700
-5.820800 0.651300
-5.797500 0.666100
-5.774100 0.681000
-5.750700 0.697300
-5.727400 0.712800
-5.704000 0.728400
-5.680700 0.744600
-5.657300 0.778400
-5.633900 0.820800
-5.610600 0.856900
-5.587200 1.080300
-5.563900 1.005700
-5.540500 0.945700
-5.517100 2.054200
-5.493800 0.871900
-5.470400 0.666900
-5.447000 0.881800
-5.423700 1.643400
-5.400300 1.519200
-5.377000 1.181500
-5.353600 1.195700
-5.330200 1.187100
-5.306900 1.171600
-5.283500 1.211100
-5.260200 1.292000
-5.236800 1.245500
-5.213400 1.205800
-5.190100 1.215400
-5.166700 1.209300
-5.143300 1.198900
-5.120000 1.202900
-5.096600 1.194500
-5.073300 1.142700
-5.049900 1.138400
-5.026500 1.128300
-5.003200 1.113400
-4.979800 1.097000
-4.956500 1.087600
-4.933100 1.070800
-4.909700 1.031000
-4.886400 1.019100
-4.863000 1.011100
-4.839700 1.002100
-4.816300 0.999600
-4.792900 0.997900
-4.769600 0.972400
-4.746200 1.052100
-4.722800 0.742000
-4.699500 1.093400
-4.676100 1.182600
-4.652800 1.173300
-4.629400 1.220700
-4.606000 1.250200
-4.582700 1.321200
-4.559300 1.364900
-4.536000 1.473000
-4.512600 1.761800
-4.489200 1.909900
-4.465900 2.045000
-4.442500 2.732300
-4.419200 2.148500
-4.395800 1.759400
-4.372400 1.402600
-4.349100 0.967400
-4.325700 0.628200
-4.302300 0.491800
-4.279000 0.692700
-4.255600 1.213800
-4.232300 1.488100
-4.208900 1.768200
-4.185500 1.915700
-4.162200 1.943200
-4.138800 1.960000
-4.115500 1.989300
-4.092100 2.017700
-4.068700 2.083000
-4.045400 2.136600
-4.022000 2.180700
-3.998600 2.081400
-3.975300 1.954800
-3.951900 1.669400
-3.928600 1.677000
-3.905200 2.290100
-3.881800 1.429600
-3.858500 1.123200
-3.835100 0.930500
-3.811800 0.776800
-3.788400 0.709600
-3.765000 0.641100
-3.741700 0.544000
-3.718300 0.471200
-3.695000 0.452800
-3.671600 0.438000
-3.648200 0.417700
-3.624900 0.366200
-3.601500 0.275400
-3.578100 0.177800
-3.554800 0.081300
-3.531400 0.018900
-3.508100 0.000000
-3.484700 0.000000
-3.461300 0.039400
-3.438000 0.671800
-3.414600 1.294600
-3.391300 1.617100
-3.367900 1.668600
-3.344500 1.683600
-3.321200 1.679000
-3.297800 2.001000
-3.274500 2.445600
-3.251100 2.759900
-3.227700 2.606600
-3.204400 2.338900
-3.181000 2.079700
-3.157600 2.072600
-3.134300 2.140200
-3.110900 2.637800
-3.087600 2.952400
-3.064200 2.736200
-3.040800 2.414300
-3.017500 2.209000
-2.994100 2.169600
-2.970800 2.186300
-2.947400 2.174700
-2.924000 2.164500
-2.900700 2.295300
-2.877300 2.286700
-2.853900 2.096500
-2.830600 2.053700
-2.807200 2.031700
-2.783900 2.073500
-2.760500 2.127300
-2.737100 2.049700
-2.713800 2.052900
-2.690400 2.116500
-2.667100 2.267400
-2.643700 2.217200
-2.620300 2.115800
-2.597000 2.005800
-2.573600 1.919600
-2.550300 1.937400
-2.526900 1.615300
-2.503500 0.696100
-2.480200 0.310500
-2.456800 0.253700
-2.433400 0.193700
-2.410100 0.039800
-2.386700 0.000000
-2.363400 0.000000
-2.340000 0.032700
-2.316600 0.106600
-2.293300 0.120400
-2.269900 0.134300
-2.246600 0.148100
-2.223200 0.160400
-2.199800 0.169800
-2.176500 0.185000
-2.153100 0.212700
-2.129800 0.240700
-2.106400 0.253000
-2.083000 0.263400
-2.059700 0.280500
-2.036300 0.306300
-2.012900 0.339900
-1.989600 0.363300
-1.966200 0.377000
-1.942900 0.398000
-1.919500 0.415200
-1.896100 0.435000
-1.872800 0.458900
-1.849400 0.479400
-1.826100 0.502200
-1.802700 0.522000
-1.779300 0.542200
-1.756000 0.560000
-1.732600 0.576400
-1.709200 0.588300
-1.685900 0.607100
-1.662500 0.635100
-1.639200 0.695400
-1.615800 1.069300
-1.592400 1.273900
-1.569100 1.415000
-1.545700 1.737600
-1.522400 2.648100
-1.499000 6.062800
-1.475600 3.942400
-1.452300 2.130900
-1.428900 1.307800
-1.405600 1.339700
-1.382200 1.463500
-1.358800 2.301200
-1.335500 3.867200
-1.312100 2.761300
-1.288700 2.059000
-1.265400 1.876900
-1.242000 1.793500
-1.218700 1.728700
-1.195300 1.650600
-1.171900 1.612400
-1.148600 1.675500
-1.125200 1.767000
-1.101900 1.742500
-1.078500 1.646600
-1.055100 1.585300
-1.031800 1.626200
-1.008400 1.668700
-0.985100 1.664600
-0.961700 1.677100
-0.938300 1.712500
-0.915000 1.722400
-0.891600 1.727400
-0.868200 1.764400
-0.844900 1.676500
-0.821500 1.709000
-0.798200 1.995600
-0.774800 2.061900
-0.751400 2.173900
-0.728100 2.323300
-0.704700 2.615500
-0.681400 3.011600
-0.658000 3.336200
-0.634600 4.017500
-0.611300 1.973700
-0.587900 1.864200
-0.564500 1.755200
-0.541200 1.671000
-0.517800 1.631400
-0.494500 1.618900
-0.471100 1.602000
-0.447700 1.583200
-0.424400 1.562600
-0.401000 1.560500
-0.377700 1.563800
-0.354300 1.523800
-0.330900 1.382600
-0.307600 1.194500
-0.284200 1.041400
-0.260900 0.807200
-0.237500 0.654200
-0.214100 0.500300
-0.190800 0.326100
-0.167400 0.068400
-0.144000 0.000000
-0.120700 0.000000
-0.097300 0.000000
-0.074000 0.000000
-0.050600 0.000000
-0.027200 0.000000
-0.003900 0.000000
0.019500 0.000000
0.042800 0.000000
0.066200 0.000000
0.089600 0.000000
0.112900 0.000000
0.136300 0.000000
0.159600 0.000000
0.183000 0.000000
0.206400 0.000000
0.229700 0.000000
0.253100 0.000000
0.276500 0.000000
0.299800 0.000000
0.323200 0.000000
0.346500 0.000000
0.369900 0.000000
0.393300 0.000000
0.416600 0.000000
0.440000 0.000000
0.463300 0.000000
0.486700 0.000000
0.510100 0.000000
0.533400 0.000000
0.556800 0.000000
0.580200 0.000000
0.603500 0.000000
0.626900 0.000000
0.650200 0.000000
0.673600 0.000000
0.697000 0.000000
0.720300 0.000000
0.743700 0.000000
0.767000 0.000000
0.790400 0.000000
0.813800 0.000000
0.837100 0.000000
0.860500 0.000000
0.883800 0.000000
0.907200 0.000000
0.930600 0.000000
0.953900 0.000000
0.977300 0.000000
1.000700 0.000000
1.024000 0.000000
1.047400 0.000000
1.070700 0.000000
1.094100 0.000000
1.117500 0.000000
1.140800 0.000000
1.164200 0.410600
1.187500 6.069200
1.210900 2.600200
1.234300 1.879000
1.257600 1.589900
1.281000 1.315400
1.304300 1.185000
1.327700 1.111800
1.351100 1.037400
1.374400 0.937800
1.397800 0.883100
1.421200 0.854900
1.444500 0.825500
1.467900 0.795600
1.491200 0.757700
1.514600 0.719500
1.538000 0.704400
1.561300 0.690000
1.584700 0.675600
1.608000 0.659000
1.631400 0.639200
1.654800 0.617500
1.678100 0.605000
1.701500 0.594100
1.724900 0.582900
1.748200 0.571600
1.771600 0.559500
1.794900 0.545900
1.818300 0.534100
1.841700 0.525300
1.865000 0.517400
1.888400 0.510700
1.911700 0.504900
1.935100 0.499800
1.958500 0.495600
1.981800 0.494300
2.005200 0.495400
2.028500 0.502800
2.051900 0.510700
2.075300 0.523300
2.098600 0.543200
2.122000 0.577900
2.145400 0.618300
2.168700 0.712500
2.192100 0.936800
2.215400 0.802500
2.238800 0.673800
2.262200 0.612800
2.285500 0.576900
2.308900 0.000000
2.332200 0.000000
2.355600 0.000000
2.379000 0.425100
2.402300 1.161300
2.425700 1.864900
2.449000 2.595500
2.472400 2.883500
2.495800 3.446500
2.519100 3.794700
2.542500 4.079000
2.565900 3.979800
2.589200 3.571500
2.612600 3.431600
2.635900 4.222200
2.659300 3.684600
2.682700 3.270100
2.706000 3.089600
2.729400 2.973900
2.752700 2.617500
2.776100 2.335600
2.799500 2.163100
2.822800 2.086700
2.846200 2.015000
2.869600 1.877200
2.892900 1.825400
2.916300 1.915400
2.939600 2.116800
2.963000 3.187600
2.986400 3.177300
3.009700 1.598400
3.033100 1.171000
3.056400 0.997300
3.079800 0.921700
3.103200 0.851500
3.126500 0.784700
3.149900 0.726700
3.173200 0.711100
3.196600 0.690100
3.220000 0.632000
3.243300 0.604200
3.266700 0.612600
3.290100 0.559300
3.313400 0.620000
3.336800 0.465500
3.360100 0.208100
3.383500 0.000000
3.406900 0.000000
3.430200 0.000000
3.453600 0.000000
3.476900 0.000000
3.500300 0.000000
3.523700 0.000000
3.547000 0.000000
3.570400 0.000000
3.593700 0.000000
3.617100 0.000000
3.640500 0.000000
3.663800 0.000000
3.687200 0.000000
3.710600 0.000000
3.733900 0.000000
3.757300 0.000000
3.780600 0.000000
3.804000 0.000000
3.827400 0.000000
3.850700 0.000000
3.874100 0.000000
3.897400 0.000000
3.920800 0.000000
3.944200 0.000000
3.967500 0.000000
3.990900 0.000000
4.014300 0.000000
4.037600 0.000000
4.061000 0.000000
4.084300 0.000000
4.107700 0.000000
4.131100 0.000000
4.154400 0.000000
4.177800 0.000000
4.201100 0.000000
4.224500 0.000000
4.247900 0.000000
4.271200 0.000000
4.294600 0.000000
4.317900 0.000000
4.341300 0.000000
4.364700 0.000000
4.388000 0.000000
4.411400 0.000000
4.434800 0.000000
4.458100 0.000000
4.481500 0.000000
4.504800 0.000000
4.528200 0.000000
4.551600 0.000000
4.574900 0.000000
4.598300 0.000000
4.621600 0.000000
4.645000 0.000000
4.668400 0.000000
4.691700 0.000000
4.715100 0.000000
4.738400 0.000000
4.761800 0.000000
4.785200 0.000000
4.808500 0.000000
4.831900 0.000000
4.855300 0.000000
4.878600 0.000000
4.902000 0.000000
4.925300 0.000000
4.948700 0.000000
4.972100 0.000000
4.995400 0.000000
5.018800 0.000000
5.042100 0.000000
5.065500 0.000000
5.088900 0.000000
5.112200 0.000000
5.135600 0.000000
5.159000 0.000000
5.182300 0.000000
5.205700 0.000000
5.229000 0.000000
5.252400 0.000000
5.275800 0.000000
5.299100 0.000000
5.322500 0.000000
5.345800 0.000000
5.369200 0.000000
5.392600 0.000000
5.415900 0.000000
5.439300 0.000000
5.462600 0.000000
5.486000 0.000000
5.509400 0.000000
5.532700 0.000000
5.556100 0.000000
5.579500 0.000000
5.602800 0.000000
5.626200 0.000000
5.649500 0.000000
5.672900 0.000000
5.696300 0.000000
5.719600 0.000000
5.743000 0.000000
5.766300 0.000000
5.789700 0.000000
5.813100 0.000000
5.836400 0.000000
5.859800 0.000000
5.883100 0.000000
5.906500 0.000000
5.929900 0.000000
5.953200 0.000000
5.976600 0.000000
6.000000 0.000000
6.023300 0.000000
6.046700 0.000000
6.070000 0.000000
6.093400 0.000000
6.116800 0.000000
6.140100 0.000000
6.163500 0.000000
6.186800 0.000000
6.210200 0.000000
6.233600 0.000000
6.256900 0.000000
6.280300 0.000000
6.303700 0.000000
6.327000 0.000000
6.350400 0.000000
6.373700 0.000000
6.397100 0.000000
6.420500 0.000000
6.443800 0.000000
6.467200 0.000000
6.490500 0.000000
6.513900 0.000000
6.537300 0.000000
6.560600 0.000000
6.584000 0.000000
6.607300 0.000000
6.630700 0.000000
6.654100 0.000000
6.677400 0.000000
6.700800 0.000000
6.724200 0.000000
6.747500 0.000000
6.770900 0.000000
6.794200 0.000000
6.817600 0.000000
6.841000 0.000000
6.864300 0.000000
6.887700 0.000000
6.911000 0.000000
6.934400 0.000000
6.957800 0.000000
6.981100 0.000000
7.004500 0.000000
7.027800 0.000000
7.051200 0.000000
7.074600 0.000000
7.097900 0.000000
7.121300 0.000000
7.144700 0.000000
7.168000 0.000000
7.191400 0.000000
7.214700 0.000000
7.238100 0.000000
7.261500 0.000000
7.284800 0.000000
7.308200 0.000000
7.331500 0.000000
7.354900 0.000000
7.378300 0.000000
7.401600 0.000000
7.425000 0.000000
7.448400 0.000000
7.471700 0.000000
7.495100 0.000000
7.518400 0.000000
7.541800 0.000000
7.565200 0.000000
7.588500 0.000000
7.611900 0.001800
7.635200 0.006300
7.658600 0.013300
7.682000 0.015900
7.705300 0.016600
7.728700 0.018400
7.752000 0.020500
7.775400 0.022700
7.798800 0.024800
7.822100 0.027100
7.845500 0.029100
7.868900 0.030400
7.892200 0.031500
7.915600 0.032700
7.938900 0.034100
7.962300 0.035500
7.985700 0.036900
8.009000 0.038400
8.032400 0.039900
8.055700 0.041500
8.079100 0.043100
8.102500 0.044800
8.125800 0.046200
8.149200 0.047400
8.172600 0.048600
8.195900 0.049900
8.219300 0.051100
8.242600 0.052400
8.266000 0.053700
8.289400 0.055100
8.312700 0.056500
8.336100 0.057900
8.359400 0.059300
8.382800 0.060800
8.406200 0.062300
8.429500 0.063800
8.452900 0.065400
8.476200 0.066800
8.499600 0.068200
8.523000 0.069500
8.546300 0.070900
8.569700 0.072400
8.593100 0.073900
8.616400 0.075400
8.639800 0.076900
8.663100 0.078400
8.686500 0.080000
8.709900 0.081500
8.733200 0.083100
8.756600 0.084800
8.779900 0.086400
8.803300 0.088100
8.826700 0.089800
8.850000 0.091500
8.873400 0.093200
8.896700 0.095000
8.920100 0.096900
8.943500 0.098800
8.966800 0.100800
8.990200 0.102900
9.013600 0.105000
9.036900 0.107200
9.060300 0.109400
9.083600 0.111700
9.107000 0.114100
9.130400 0.116500
9.153700 0.119100
9.177100 0.122000
9.200400 0.125100
9.223800 0.128700
9.247200 0.132800
9.270500 0.137100
9.293900 0.137800
9.317300 0.142400
9.340600 0.143300
9.364000 0.143800
9.387300 0.144500
9.410700 0.145400
9.434100 0.146800
9.457400 0.148200
9.480800 0.149500
9.504100 0.150800
9.527500 0.151900
9.550900 0.153700
9.574200 0.155600
9.597600 0.157200
9.620900 0.158900
9.644300 0.160600
9.667700 0.162200
9.691000 0.163600
9.714400 0.164900
9.737800 0.166100
9.761100 0.167300
9.784500 0.169000
9.807800 0.170600
9.831200 0.172300
9.854600 0.174000
9.877900 0.175600
9.901300 0.177600
9.924600 0.180100
9.948000 0.182900
9.971400 0.186000
9.994700 0.188700
10.018100 0.191500
10.041400 0.194200
10.064800 0.197100
10.088200 0.200000
10.111500 0.202700
10.134900 0.205200
10.158300 0.207500
10.181600 0.209800
10.205000 0.212000
10.228300 0.214300
10.251700 0.216600
10.275100 0.218900
10.298400 0.221200
10.321800 0.223500
10.345100 0.225800
10.368500 0.228000
10.391900 0.230100
10.415200 0.232100
10.438600 0.234100
10.462000 0.236100
10.485300 0.238100
10.508700 0.240200
10.532000 0.242300
10.555400 0.244500
10.578800 0.246700
10.602100 0.248900
10.625500 0.251000
10.648800 0.253200
10.672200 0.255400
10.695600 0.257500
10.718900 0.259700
10.742300 0.261700
10.765600 0.263700
10.789000 0.265900
10.812400 0.268100
10.835700 0.270400
10.859100 0.272600
10.882500 0.274400
10.905800 0.276400
10.929200 0.278400
10.952500 0.280600
10.975900 0.282800
10.999300 0.284900
11.022600 0.287100
11.046000 0.289300
11.069300 0.291300
11.092700 0.293300
11.116100 0.295600
11.139400 0.298100
11.162800 0.300600
11.186100 0.303500
11.209500 0.306500
11.232900 0.309700
11.256200 0.313000
11.279600 0.316300
11.303000 0.319500
11.326300 0.322500
11.349700 0.326000
11.373000 0.330800
11.396400 0.336500
11.419800 0.341300
11.443100 0.344600
11.466500 0.343200
11.489800 0.343200
11.513200 0.345100
11.536600 0.347100
11.559900 0.349000
11.583300 0.350900
11.606700 0.352600
11.630000 0.354300
11.653400 0.355700
11.676700 0.357000
11.700100 0.358500
11.723500 0.360200
11.746800 0.362300
11.770200 0.363800
11.793500 0.365400
11.816900 0.367000
11.840300 0.368600
11.863600 0.370200
11.887000 0.371900
11.910300 0.373900
11.933700 0.376000
11.957100 0.378000
11.980400 0.380200
12.003800 0.382800
12.027200 0.386100
12.050500 0.390600
12.073900 0.395900
12.097200 0.401300
12.120600 0.405200
12.144000 0.408400
12.167300 0.410700
12.190700 0.412500
12.214000 0.414000
12.237400 0.415900
12.260800 0.416300
12.284100 0.421500
12.307500 0.421100
12.330800 0.416300
12.354200 0.414800
12.377600 0.413900
12.400900 0.413700
12.424300 0.415200
12.447700 0.421500
12.471000 0.427300
12.494400 0.431400
12.517700 0.436200
12.541100 0.437200
12.564500 0.425700
12.587800 0.415100
12.611200 0.401400
12.634500 0.389700
12.657900 0.384000
12.681300 0.381700
12.704600 0.381000
12.728000 0.379300
12.751400 0.383300
12.774700 0.377200
12.798100 0.369300
12.821400 0.357800
12.844800 0.356700
12.868200 0.383900
12.891500 0.414700
12.914900 0.431700
12.938200 0.445600
12.961600 0.477400
12.985000 0.477200
13.008300 0.472800
13.031700 0.472500
13.055000 0.484800
13.078400 0.505700
13.101800 0.525600
13.125100 0.530600
13.148500 0.546700
13.171900 0.573600
13.195200 0.610400
13.218600 0.611300
13.241900 0.608600
13.265300 0.613200
13.288700 0.629800
13.312000 0.644100
13.335400 0.651300
13.358700 0.641700
13.382100 0.646600
13.405500 0.652000
13.428800 0.658000
13.452200 0.666400
13.475500 0.677300
13.498900 0.693500
13.522300 0.719900
13.545600 0.747000
13.569000 0.769200
13.592400 0.778300
13.615700 0.768400
13.639100 0.771900
13.662400 0.740000
13.685800 0.725100
13.709200 0.713800
13.732500 0.698800
13.755900 0.679900
13.779200 0.668100
13.802600 0.674600
13.826000 0.676100
13.849300 0.672700
13.872700 0.672100
13.896100 0.670100
13.919400 0.674900
13.942800 0.667000
13.966100 0.662800
13.989500 0.655500
14.012900 0.647900
14.036200 0.641300
14.059600 0.642100
14.082900 0.663800
14.106300 0.675700
14.129700 0.685400
14.153000 0.698100
14.176400 0.716400
14.199700 0.729100
14.223100 0.739400
14.246500 0.749000
14.269800 0.764600
14.293200 0.800900
14.316600 0.849200
14.339900 0.911400
14.363300 0.934700
14.386600 0.914100
14.410000 0.934300
14.433400 0.979700
14.456700 0.960200
14.480100 0.904400
14.503400 0.888200
14.526800 0.873000
14.550200 0.846100
14.573500 0.822300
14.596900 0.798300
14.620200 0.792600
14.643600 0.800100
14.667000 0.840800
14.690300 0.819100
14.713700 0.692000
14.737100 0.673500
14.760400 0.656000
14.783800 0.640000
14.807100 0.629600
14.830500 0.626500
14.853900 0.629200
14.877200 0.635900
14.900600 0.644300
14.923900 0.657700
14.947300 0.663500
14.970700 0.662900
14.994000 0.662700
15.017400 0.660400
15.040800 0.660500
15.064100 0.663300
15.087500 0.653700
15.110800 0.646500
15.134200 0.641900
15.157600 0.634700
15.180900 0.627900
15.204300 0.624000
15.227600 0.617300
15.251000 0.608400
15.274400 0.598600
15.297700 0.592300
15.321100 0.590000
15.344400 0.584900
15.367800 0.573200
15.391200 0.562000
15.414500 0.549600
15.437900 0.535400
15.461300 0.520900
15.484600 0.504600
15.508000 0.488800
15.531300 0.474500
15.554700 0.458500
15.578100 0.423300
15.601400 0.331800
15.624800 0.250600
15.648100 0.198200
15.671500 0.169500
15.694900 0.171900
15.718200 0.194200
15.741600 0.257800
15.764900 0.286100
15.788300 0.262700
15.811700 0.249100
15.835000 0.240700
15.858400 0.263000
15.881800 0.279300
15.905100 0.277000
15.928500 0.278700
15.951800 0.282800
15.975200 0.288500
15.998600 0.300400
16.021900 0.312000
16.045300 0.331200
16.068600 0.377300
16.092000 0.444000
16.115400 0.527500
16.138700 0.628100
16.162100 0.725700
16.185500 0.802900
16.208800 0.864400
16.232200 0.919300
16.255500 0.953400
16.278900 0.999100
16.302300 1.056600
16.325600 1.123100
16.349000 1.189300
16.372300 1.266200
16.395700 1.363100
16.419100 1.474700
16.442400 1.620200
16.465800 1.439600
16.489100 1.371300
16.512500 1.323900
16.535900 1.294500
16.559200 1.274200
16.582600 1.265600
16.606000 1.259200
16.629300 1.257200
16.652700 1.260300
16.676000 1.266000
16.699400 1.273000
16.722800 1.270400
16.746100 1.212700
16.769500 1.178800
16.792800 1.103700
16.816200 1.049600
16.839600 1.011400
16.862900 0.991300
16.886300 1.006800
16.909600 0.997700
16.933000 1.008900
16.956400 0.989700
16.979700 0.990800
17.003100 0.983500
17.026500 0.976100
17.049800 0.971500
17.073200 0.951500
17.096500 0.929000
17.119900 0.900300
17.143300 0.873200
17.166600 0.803300
17.190000 0.754900
17.213300 0.722600
17.236700 0.621500
17.260100 0.562200
17.283400 0.533500
17.306800 0.511500
17.330200 0.491800
17.353500 0.474000
17.376900 0.458300
17.400200 0.444100
17.423600 0.431700
17.447000 0.420800
17.470300 0.411200
17.493700 0.402500
17.517000 0.394700
17.540400 0.387800
17.563800 0.382300
17.587100 0.376600
17.610500 0.371400
17.633800 0.366500
17.657200 0.363800
17.680600 0.362100
17.703900 0.364900
17.727300 0.378300
17.750700 0.401300
17.774000 0.421000
17.797400 0.439200
17.820700 0.474400
17.844100 0.520700
17.867500 0.592100
17.890800 0.620800
17.914200 0.640200
17.937500 0.673300
17.960900 0.713300
17.984300 0.738400
18.007600 0.745800
18.031000 0.780200
18.054300 0.752800
18.077700 0.758800
18.101100 0.747100
18.124400 0.742000
18.147800 0.748700
18.171200 0.745800
18.194500 0.737600
18.217900 0.733900
18.241200 0.732700
18.264600 0.687200
18.288000 0.670900
18.311300 0.659800
18.334700 0.651700
18.358000 0.643600
18.381400 0.622900
18.404800 0.605200
18.428100 0.591300
18.451500 0.580400
18.474900 0.573500
18.498200 0.560800
18.521600 0.548900
18.544900 0.538400
18.568300 0.533100
18.591700 0.531300
18.615000 0.529300
18.638400 0.527600
18.661700 0.535000
18.685100 0.543000
18.708500 0.539500
18.731800 0.538400
18.755200 0.540900
18.778500 0.545000
18.801900 0.551200
18.825300 0.563000
18.848600 0.580100
18.872000 0.600100
18.895400 0.599600
18.918700 0.603600
18.942100 0.600600
18.965400 0.597600
18.988800 0.599600
19.012200 0.609800
19.035500 0.607000
19.058900 0.596400
19.082200 0.586300
19.105600 0.576100
19.129000 0.565900
19.152300 0.554900
19.175700 0.547700
19.199000 0.540600
19.222400 0.534100
19.245800 0.529300
19.269100 0.525500
19.292500 0.521800
19.315900 0.519100
19.339200 0.517300
19.362600 0.516500
19.385900 0.517000
19.409300 0.517600
19.432700 0.517100
19.456000 0.516100
19.479400 0.515800
19.502700 0.516600
19.526100 0.517500
19.549500 0.521000
19.572800 0.524500
19.596200 0.530200
19.619600 0.539400
19.642900 0.552400
19.666300 0.571700
19.689600 0.590700
19.713000 0.602500
19.736400 0.606400
19.759700 0.605600
19.783100 0.609400
19.806400 0.609700
19.829800 0.613200
19.853200 0.613000
19.876500 0.618200
19.899900 0.625500
19.923200 0.634600
19.946600 0.639900
19.970000 0.646600
19.993300 0.650500
20.016700 0.652400
20.040100 0.652800
20.063400 0.651800
20.086800 0.655800
20.110100 0.642500
20.133500 0.639500
20.156900 0.641000
20.180200 0.641600
20.203600 0.668400
20.226900 0.680000
20.250300 0.681700
20.273700 0.689300
20.297000 0.700000
20.320400 0.720000
20.343700 0.753700
20.367100 0.800300
20.390500 0.927500
20.413800 0.784500
20.437200 0.673000
20.460600 0.619700
20.483900 0.584800
20.507300 0.560900
20.530600 0.548200
20.554000 0.546200
20.577400 0.552900
20.600700 0.565400
20.624100 0.587000
20.647400 0.625800
20.670800 0.700500
20.694200 0.781800
20.717500 0.892300
20.740900 0.889200
20.764300 0.789200
20.787600 0.748600
20.811000 0.727300
20.834300 0.714600
20.857700 0.724000
20.881100 0.606700
20.904400 0.589400
20.927800 0.580800
20.951100 0.573600
20.974500 0.568300
20.997900 0.565900
21.021200 0.577600
21.044600 0.597900
21.067900 0.594200
21.091300 0.586800
21.114700 0.571700
21.138000 0.558100
21.161400 0.541200
21.184800 0.515300
21.208100 0.488800
21.231500 0.474700
21.254800 0.469500
21.278200 0.480200
21.301600 0.519100
21.324900 0.543800
21.348300 0.528700
21.371600 0.521300
21.395000 0.523800
21.418400 0.515300
21.441700 0.491300
21.465100 0.469700
21.488500 0.452400
21.511800 0.428900
21.535200 0.405000
21.558500 0.386500
21.581900 0.375200
21.605300 0.379800
21.628600 0.390400
21.652000 0.409700
21.675300 0.430200
21.698700 0.450100
21.722100 0.400900
21.745400 0.303600
21.768800 0.221700
21.792100 0.154400
21.815500 0.140800
21.838900 0.130300
21.862200 0.122000
21.885600 0.116400
21.909000 0.111600
21.932300 0.105100
21.955700 0.101600
21.979000 0.097700
22.002400 0.093800
22.025800 0.090800
22.049100 0.088300
22.072500 0.085800
22.095800 0.084000
22.119200 0.082200
22.142600 0.080700
22.165900 0.079200
22.189300 0.077600
22.212600 0.075900
22.236000 0.074300
22.259400 0.072700
22.282700 0.071000
22.306100 0.069300
22.329500 0.067400
22.352800 0.065300
22.376200 0.063400
22.399500 0.061600
22.422900 0.059800
22.446300 0.058200
22.469600 0.056700
22.493000 0.055300
22.516300 0.054100
22.539700 0.052900
22.563100 0.051700
22.586400 0.050600
22.609800 0.049600
22.633200 0.048600
22.656500 0.047600
22.679900 0.046700
22.703200 0.045600
22.726600 0.044400
22.750000 0.043300
22.773300 0.042200
22.796700 0.041300
22.820000 0.040500
22.843400 0.039800
22.866800 0.039300
22.890100 0.039300
22.913500 0.039800
22.936800 0.040200
22.960200 0.041100
22.983600 0.041500
23.006900 0.041000
23.030300 0.043000
23.053700 0.027100
23.077000 0.014800
23.100400 0.011500
23.123700 0.009400
23.147100 0.007800
23.170500 0.006400
23.193800 0.005300
23.217200 0.004200
23.240500 0.003300
23.263900 0.002400
23.287300 0.001700
23.310600 0.001100
23.334000 0.000600
23.357300 0.000200
23.380700 0.000000
23.404100 0.000000
23.427400 0.000000
23.450800 0.000000
23.474200 0.000000
23.497500 0.000000
23.520900 0.000000
23.544200 0.000000
23.567600 0.000000
23.591000 0.000000
23.614300 0.000000
23.637700 0.000000
23.661000 0.000000
23.684400 0.000000
23.707800 0.000000
23.731100 0.000000
23.754500 0.000000
23.777900 0.000000
23.801200 0.000000
23.824600 0.000000
23.847900 0.000000
23.871300 0.000000
23.894700 0.000000
23.918000 0.000000
23.941400 0.000000
23.964700 0.000000
23.988100 0.000000
24.011500 0.000000
24.034800 0.000000
24.058200 0.000000
24.081500 0.000000
24.104900 0.000000
24.128300 0.000000
24.151600 0.000000
24.175000 0.000000
24.198400 0.000000
24.221700 0.000000
24.245100 0.000000
24.268400 0.000000
24.291800 0.000000
24.315200 0.000000
24.338500 0.000000
24.361900 0.000000
24.385200 0.000000
24.408600 0.000000
24.432000 0.000000
24.455300 0.000000
24.478700 0.000000
24.502000 0.000000
24.525400 0.000000
24.548800 0.000000
24.572100 0.000000
24.595500 0.000000
24.618900 0.000000
24.642200 0.000000
24.665600 0.000000
24.688900 0.000000
24.712300 0.000000
24.735700 0.000000
24.759000 0.000000
24.782400 0.000000
24.805700 0.000000
24.829100 0.000000
24.852500 0.000000
24.875800 0.000000
24.899200 0.000000
24.922600 0.000000
24.945900 0.000000
24.969300 0.000000
24.992600 0.000000
25.016000 0.000000
25.039400 0.000000
25.062700 0.000000
25.086100 0.000000
25.109400 0.000000
25.132800 0.000000
25.156200 0.000000
25.179500 0.000000
25.202900 0.000000
25.226200 0.000000
25.249600 0.000000
25.273000 0.000000
25.296300 0.000000
25.319700 0.000000
25.343100 0.000000
25.366400 0.000000
25.389800 0.000000
25.413100 0.000000
25.436500 0.000000
25.459900 0.000000
25.483200 0.000000
25.506600 0.000000
e
