set title 'mp-1228815 - Density of States'
set xlabel 'Energy (eV)'
set ylabel 'DOS (states/eV)'
set grid
set xrange [-10:10]
set yrange [0:7.394]
set xzeroaxis lt -1
set terminal png size 800,600
set output 'mp-1228815_dos_gnuplot.png'
plot '-' using 1:2 with lines title 'DOS'
-37.231400 0.000000
-37.191600 0.000000
-37.151700 0.000000
-37.111900 0.000000
-37.072000 0.000000
-37.032200 0.000000
-36.992400 0.000000
-36.952500 0.000000
-36.912700 0.000000
-36.872900 0.000000
-36.833000 0.000000
-36.793200 0.000000
-36.753400 0.000000
-36.713500 0.000000
-36.673700 0.000000
-36.633800 0.000000
-36.594000 0.000000
-36.554200 0.000000
-36.514300 0.000000
-36.474500 0.000000
-36.434700 0.000000
-36.394800 0.000000
-36.355000 0.000000
-36.315100 0.000000
-36.275300 0.000000
-36.235500 0.000000
-36.195600 0.000000
-36.155800 0.000000
-36.116000 0.000000
-36.076100 0.000000
-36.036300 0.000000
-35.996500 0.000000
-35.956600 0.000000
-35.916800 0.000000
-35.876900 0.000000
-35.837100 0.000000
-35.797300 0.000000
-35.757400 0.000000
-35.717600 0.000000
-35.677800 0.000000
-35.637900 0.000000
-35.598100 0.000000
-35.558300 0.000000
-35.518400 0.000000
-35.478600 0.000000
-35.438700 0.000000
-35.398900 0.000000
-35.359100 0.000000
-35.319200 0.000000
-35.279400 0.000000
-35.239600 0.000000
-35.199700 0.000000
-35.159900 0.000000
-35.120000 0.000000
-35.080200 0.000000
-35.040400 0.000000
-35.000500 0.000000
-34.960700 0.000000
-34.920900 0.000000
-34.881000 0.000000
-34.841200 0.000000
-34.801400 0.000000
-34.761500 0.000000
-34.721700 0.000000
-34.681800 0.000000
-34.642000 0.000000
-34.602200 0.000000
-34.562300 0.000000
-34.522500 0.000000
-34.482700 0.000000
-34.442800 0.000000
-34.403000 0.000000
-34.363200 0.000000
-34.323300 0.000000
-34.283500 0.000000
-34.243600 0.000000
-34.203800 0.000000
-34.164000 0.000000
-34.124100 0.000000
-34.084300 0.000000
-34.044500 0.000000
-34.004600 0.000000
-33.964800 0.000000
-33.924900 0.000000
-33.885100 0.000000
-33.845300 0.000000
-33.805400 0.000000
-33.765600 0.000000
-33.725800 0.000000
-33.685900 0.000000
-33.646100 0.000000
-33.606300 9.193600
-33.566400 52.604900
-33.526600 20.291800
-33.486700 14.710700
-33.446900 12.313400
-33.407100 3.464400
-33.367200 15.051000
-33.327400 11.292600
-33.287600 10.576100
-33.247700 12.948800
-33.207900 13.146800
-33.168000 12.680100
-33.128200 10.465800
-33.088400 18.897800
-33.048500 80.914400
-33.008700 20.516500
-32.968900 0.000000
-32.929000 0.000000
-32.889200 0.000000
-32.849400 0.000000
-32.809500 0.000000
-32.769700 0.000000
-32.729800 0.000000
-32.690000 0.000000
-32.650200 0.000000
-32.610300 0.000000
-32.570500 0.000000
-32.530700 0.000000
-32.490800 0.000000
-32.451000 0.000000
-32.411200 0.000000
-32.371300 0.000000
-32.331500 0.000000
-32.291600 0.000000
-32.251800 0.000000
-32.212000 0.000000
-32.172100 0.000000
-32.132300 0.000000
-32.092500 0.000000
-32.052600 0.000000
-32.012800 0.000000
-31.972900 0.000000
-31.933100 0.000000
-31.893300 0.000000
-31.853400 0.000000
-31.813600 0.000000
-31.773800 0.000000
-31.733900 0.000000
-31.694100 0.000000
-31.654300 0.000000
-31.614400 0.000000
-31.574600 0.000000
-31.534700 0.000000
-31.494900 0.000000
-31.455100 0.000000
-31.415200 0.000000
-31.375400 0.000000
-31.335600 0.000000
-31.295700 0.000000
-31.255900 0.000000
-31.216000 0.000000
-31.176200 0.000000
-31.136400 0.000000
-31.096500 0.000000
-31.056700 0.000000
-31.016900 0.000000
-30.977000 0.000000
-30.937200 0.000000
-30.897400 0.000000
-30.857500 0.000000
-30.817700 0.000000
-30.777800 0.000000
-30.738000 0.000000
-30.698200 0.000000
-30.658300 0.000000
-30.618500 0.000000
-30.578700 0.000000
-30.538800 0.000000
-30.499000 0.000000
-30.459200 0.000000
-30.419300 0.000000
-30.379500 0.000000
-30.339600 0.000000
-30.299800 0.000000
-30.260000 0.000000
-30.220100 0.000000
-30.180300 0.000000
-30.140500 0.000000
-30.100600 0.000000
-30.060800 0.000000
-30.020900 0.000000
-29.981100 0.000000
-29.941300 0.000000
-29.901400 0.000000
-29.861600 0.000000
-29.821800 0.000000
-29.781900 0.000000
-29.742100 0.000000
-29.702300 0.000000
-29.662400 0.000000
-29.622600 0.000000
-29.582700 0.000000
-29.542900 0.000000
-29.503100 0.000000
-29.463200 0.000000
-29.423400 0.000000
-29.383600 0.000000
-29.343700 0.000000
-29.303900 0.000000
-29.264100 0.000000
-29.224200 0.000000
-29.184400 0.000000
-29.144500 0.000000
-29.104700 0.000000
-29.064900 0.000000
-29.025000 0.000000
-28.985200 0.000000
-28.945400 0.000000
-28.905500 0.000000
-28.865700 0.000000
-28.825800 0.000000
-28.786000 0.000000
-28.746200 0.000000
-28.706300 0.000000
-28.666500 0.000000
-28.626700 0.000000
-28.586800 0.000000
-28.547000 0.000000
-28.507200 0.000000
-28.467300 0.000000
-28.427500 0.000000
-28.387600 0.000000
-28.347800 0.000000
-28.308000 0.000000
-28.268100 0.000000
-28.228300 0.000000
-28.188500 0.000000
-28.148600 0.000000
-28.108800 0.000000
-28.068900 0.000000
-28.029100 0.000000
-27.989300 0.000000
-27.949400 0.000000
-27.909600 0.000000
-27.869800 0.000000
-27.829900 0.000000
-27.790100 0.000000
-27.750300 0.000000
-27.710400 0.000000
-27.670600 0.000000
-27.630700 0.000000
-27.590900 0.000000
-27.551100 0.000000
-27.511200 0.000000
-27.471400 0.000000
-27.431600 0.000000
-27.391700 0.000000
-27.351900 0.000000
-27.312100 0.000000
-27.272200 0.000000
-27.232400 0.000000
-27.192500 0.000000
-27.152700 0.000000
-27.112900 0.000000
-27.073000 0.000000
-27.033200 0.000000
-26.993400 0.000000
-26.953500 0.000000
-26.913700 0.000000
-26.873800 0.000000
-26.834000 0.000000
-26.794200 0.000000
-26.754300 0.000000
-26.714500 0.000000
-26.674700 0.000000
-26.634800 0.000000
-26.595000 0.000000
-26.555200 0.000000
-26.515300 0.000000
-26.475500 0.000000
-26.435600 0.000000
-26.395800 0.000000
-26.356000 0.000000
-26.316100 0.000000
-26.276300 0.000000
-26.236500 0.000000
-26.196600 0.000000
-26.156800 0.000000
-26.116900 0.000000
-26.077100 0.000000
-26.037300 0.000000
-25.997400 0.000000
-25.957600 0.000000
-25.917800 0.000000
-25.877900 0.000000
-25.838100 0.000000
-25.798300 0.000000
-25.758400 0.000000
-25.718600 0.000000
-25.678700 0.000000
-25.638900 0.000000
-25.599100 0.000000
-25.559200 0.000000
-25.519400 0.000000
-25.479600 0.000000
-25.439700 0.000000
-25.399900 0.000000
-25.360100 0.000000
-25.320200 0.000000
-25.280400 0.000000
-25.240500 0.000000
-25.200700 0.000000
-25.160900 0.000000
-25.121000 0.000000
-25.081200 0.000000
-25.041400 0.000000
-25.001500 0.000000
-24.961700 0.000000
-24.921800 0.000000
-24.882000 0.000000
-24.842200 0.000000
-24.802300 0.000000
-24.762500 0.000000
-24.722700 0.000000
-24.682800 0.000000
-24.643000 0.000000
-24.603200 0.000000
-24.563300 0.000000
-24.523500 0.000000
-24.483600 0.000000
-24.443800 0.000000
-24.404000 0.000000
-24.364100 0.000000
-24.324300 0.000000
-24.284500 0.000000
-24.244600 0.000000
-24.204800 0.000000
-24.164900 0.000000
-24.125100 0.000000
-24.085300 0.000000
-24.045400 0.000000
-24.005600 0.000000
-23.965800 0.000000
-23.925900 0.000000
-23.886100 0.000000
-23.846300 0.000000
-23.806400 0.000000
-23.766600 0.000000
-23.726700 0.000000
-23.686900 0.000000
-23.647100 0.000000
-23.607200 0.000000
-23.567400 0.000000
-23.527600 0.000000
-23.487700 0.000000
-23.447900 0.000000
-23.408100 0.000000
-23.368200 0.000000
-23.328400 0.000000
-23.288500 0.000000
-23.248700 0.000000
-23.208900 0.000000
-23.169000 0.000000
-23.129200 0.000000
-23.089400 0.000000
-23.049500 0.000000
-23.009700 0.000000
-22.969800 0.000000
-22.930000 0.000000
-22.890200 0.000000
-22.850300 0.000000
-22.810500 0.000000
-22.770700 0.000000
-22.730800 0.000000
-22.691000 0.000000
-22.651200 0.000000
-22.611300 0.000000
-22.571500 0.000000
-22.531600 0.000000
-22.491800 0.000000
-22.452000 0.000000
-22.412100 0.000000
-22.372300 0.000000
-22.332500 0.000000
-22.292600 0.000000
-22.252800 0.000000
-22.213000 0.000000
-22.173100 0.000000
-22.133300 0.000000
-22.093400 0.000000
-22.053600 0.000000
-22.013800 0.000000
-21.973900 0.000000
-21.934100 0.000000
-21.894300 0.000000
-21.854400 0.000000
-21.814600 0.000000
-21.774700 0.000000
-21.734900 0.000000
-21.695100 0.000000
-21.655200 0.000000
-21.615400 0.000000
-21.575600 0.000000
-21.535700 0.000000
-21.495900 0.000000
-21.456100 0.000000
-21.416200 0.000000
-21.376400 0.000000
-21.336500 0.000000
-21.296700 0.000000
-21.256900 0.000000
-21.217000 0.000000
-21.177200 0.000000
-21.137400 0.000000
-21.097500 0.000000
-21.057700 0.000000
-21.017800 0.000000
-20.978000 0.000000
-20.938200 0.000000
-20.898300 0.000000
-20.858500 0.000000
-20.818700 0.000000
-20.778800 0.000000
-20.739000 0.000000
-20.699200 0.000000
-20.659300 0.000000
-20.619500 0.000000
-20.579600 0.000000
-20.539800 0.000000
-20.500000 0.000000
-20.460100 0.000000
-20.420300 0.000000
-20.380500 0.000000
-20.340600 0.000000
-20.300800 0.000000
-20.261000 0.000000
-20.221100 0.000000
-20.181300 0.000000
-20.141400 0.000000
-20.101600 0.000000
-20.061800 0.000000
-20.021900 0.000000
-19.982100 0.000000
-19.942300 0.000000
-19.902400 0.000000
-19.862600 0.000000
-19.822700 0.000000
-19.782900 0.000000
-19.743100 0.000000
-19.703200 0.000000
-19.663400 0.000000
-19.623600 0.000000
-19.583700 0.000000
-19.543900 0.000000
-19.504100 0.000000
-19.464200 0.000000
-19.424400 0.000000
-19.384500 0.000000
-19.344700 0.000000
-19.304900 0.000000
-19.265000 0.000000
-19.225200 0.000000
-19.185400 0.000000
-19.145500 0.000000
-19.105700 0.000000
-19.065800 0.000000
-19.026000 0.000000
-18.986200 0.000000
-18.946300 0.000000
-18.906500 0.000000
-18.866700 0.000000
-18.826800 0.000000
-18.787000 0.000000
-18.747200 0.000000
-18.707300 0.000000
-18.667500 0.000000
-18.627600 0.000000
-18.587800 0.000000
-18.548000 0.000000
-18.508100 0.000000
-18.468300 0.000000
-18.428500 0.000000
-18.388600 0.000000
-18.348800 0.000000
-18.309000 0.000000
-18.269100 0.000000
-18.229300 0.000000
-18.189400 0.000000
-18.149600 0.000000
-18.109800 0.000000
-18.069900 0.000000
-18.030100 0.000000
-17.990300 0.000000
-17.950400 0.000000
-17.910600 0.000000
-17.870700 0.000000
-17.830900 0.000000
-17.791100 0.000000
-17.751200 0.000000
-17.711400 0.000000
-17.671600 0.000000
-17.631700 0.000000
-17.591900 0.000000
-17.552100 0.000000
-17.512200 0.000000
-17.472400 0.000000
-17.432500 0.000000
-17.392700 0.000000
-17.352900 0.000000
-17.313000 0.000000
-17.273200 0.000000
-17.233400 0.000000
-17.193500 0.000000
-17.153700 0.000000
-17.113900 0.000000
-17.074000 0.000000
-17.034200 0.000000
-16.994300 0.000000
-16.954500 0.000000
-16.914700 0.000000
-16.874800 0.000000
-16.835000 0.000000
-16.795200 0.000000
-16.755300 0.000000
-16.715500 0.000000
-16.675600 0.000000
-16.635800 0.000000
-16.596000 0.000000
-16.556100 0.000000
-16.516300 0.000000
-16.476500 0.000000
-16.436600 0.000000
-16.396800 0.000000
-16.357000 0.000000
-16.317100 0.000000
-16.277300 0.000000
-16.237400 0.000000
-16.197600 0.000000
-16.157800 0.000000
-16.117900 0.000000
-16.078100 0.000000
-16.038300 0.000000
-15.998400 0.000000
-15.958600 0.000000
-15.918700 0.000000
-15.878900 0.000000
-15.839100 0.000000
-15.799200 0.000000
-15.759400 0.000000
-15.719600 0.000000
-15.679700 0.000000
-15.639900 0.000000
-15.600100 0.000000
-15.560200 0.000000
-15.520400 0.000000
-15.480500 0.000000
-15.440700 0.000000
-15.400900 0.000000
-15.361000 0.000000
-15.321200 0.000000
-15.281400 0.000000
-15.241500 0.000000
-15.201700 0.000000
-15.161900 0.000000
-15.122000 0.000000
-15.082200 0.000000
-15.042300 0.000000
-15.002500 0.000000
-14.962700 0.000000
-14.922800 0.000000
-14.883000 0.000000
-14.843200 0.000000
-14.803300 0.000000
-14.763500 0.000000
-14.723600 0.000000
-14.683800 0.000000
-14.644000 0.000000
-14.604100 0.000000
-14.564300 0.000000
-14.524500 0.000000
-14.484600 0.000000
-14.444800 0.000000
-14.405000 0.000000
-14.365100 0.000000
-14.325300 0.000000
-14.285400 0.000000
-14.245600 0.000000
-14.205800 0.000000
-14.165900 0.000000
-14.126100 0.000000
-14.086300 0.000000
-14.046400 0.000000
-14.006600 0.000000
-13.966700 0.000000
-13.926900 0.000000
-13.887100 0.000000
-13.847200 0.000000
-13.807400 0.000000
-13.767600 0.000000
-13.727700 0.000000
-13.687900 0.000000
-13.648100 0.000000
-13.608200 0.000000
-13.568400 0.000000
-13.528500 0.000000
-13.488700 0.000000
-13.448900 0.000000
-13.409000 0.000000
-13.369200 0.000000
-13.329400 0.000000
-13.289500 0.000000
-13.249700 0.000000
-13.209900 0.000000
-13.170000 0.000000
-13.130200 0.000000
-13.090300 0.000000
-13.050500 0.000000
-13.010700 0.000000
-12.970800 0.000000
-12.931000 0.000000
-12.891200 0.000000
-12.851300 0.000000
-12.811500 0.000000
-12.771600 0.000000
-12.731800 0.000000
-12.692000 0.000000
-12.652100 0.000000
-12.612300 0.000000
-12.572500 0.000000
-12.532600 0.000000
-12.492800 0.000000
-12.453000 0.000000
-12.413100 0.000000
-12.373300 0.000000
-12.333400 0.000000
-12.293600 0.000000
-12.253800 0.000000
-12.213900 0.000000
-12.174100 0.000000
-12.134300 0.000000
-12.094400 0.000000
-12.054600 0.000000
-12.014800 0.000000
-11.974900 0.000000
-11.935100 0.000000
-11.895200 0.000000
-11.855400 0.000000
-11.815600 0.000000
-11.775700 0.000000
-11.735900 0.000000
-11.696100 0.000000
-11.656200 0.000000
-11.616400 0.000000
-11.576500 0.000000
-11.536700 0.000000
-11.496900 0.000000
-11.457000 0.000000
-11.417200 0.000000
-11.377400 0.000000
-11.337500 0.000000
-11.297700 0.000000
-11.257900 0.000000
-11.218000 0.000000
-11.178200 0.000000
-11.138300 0.000000
-11.098500 0.000000
-11.058700 0.000000
-11.018800 0.000000
-10.979000 0.000000
-10.939200 0.000000
-10.899300 0.000000
-10.859500 0.000000
-10.819600 0.000000
-10.779800 0.000000
-10.740000 0.000000
-10.700100 0.000000
-10.660300 0.000000
-10.620500 0.000000
-10.580600 0.000000
-10.540800 0.000000
-10.501000 0.000000
-10.461100 0.000000
-10.421300 0.000000
-10.381400 0.000000
-10.341600 0.000000
-10.301800 0.000000
-10.261900 0.000000
-10.222100 0.000000
-10.182300 0.000000
-10.142400 0.000000
-10.102600 0.000000
-10.062800 0.000000
-10.022900 0.000000
-9.983100 0.000000
-9.943200 0.000000
-9.903400 0.000000
-9.863600 0.000000
-9.823700 0.000000
-9.783900 0.000000
-9.744100 0.000000
-9.704200 0.000000
-9.664400 0.000000
-9.624500 0.000000
-9.584700 0.000000
-9.544900 0.000000
-9.505000 0.000000
-9.465200 0.000000
-9.425400 0.000000
-9.385500 0.000000
-9.345700 0.000000
-9.305900 0.000000
-9.266000 0.000000
-9.226200 0.000000
-9.186300 0.000000
-9.146500 0.000000
-9.106700 0.000000
-9.066800 0.000000
-9.027000 0.000000
-8.987200 0.000000
-8.947300 0.000000
-8.907500 0.000000
-8.867600 0.000000
-8.827800 0.000000
-8.788000 0.000000
-8.748100 0.000000
-8.708300 0.000000
-8.668500 0.000000
-8.628600 0.000000
-8.588800 0.000000
-8.549000 0.000000
-8.509100 0.000000
-8.469300 0.000000
-8.429400 0.000000
-8.389600 0.000000
-8.349800 0.000000
-8.309900 0.000000
-8.270100 0.000000
-8.230300 0.000000
-8.190400 0.000000
-8.150600 0.000000
-8.110800 0.000000
-8.070900 0.000000
-8.031100 0.000000
-7.991200 0.000000
-7.951400 0.000000
-7.911600 0.000000
-7.871700 0.000000
-7.831900 0.000000
-7.792100 0.000000
-7.752200 0.000000
-7.712400 0.000000
-7.672500 0.000000
-7.632700 0.000000
-7.592900 0.000000
-7.553000 0.000000
-7.513200 0.000000
-7.473400 0.000000
-7.433500 0.000000
-7.393700 0.000000
-7.353900 0.000000
-7.314000 0.000000
-7.274200 0.000000
-7.234300 0.000000
-7.194500 0.000000
-7.154700 0.000000
-7.114800 0.000000
-7.075000 0.000000
-7.035200 0.000000
-6.995300 0.000000
-6.955500 0.000000
-6.915700 0.000000
-6.875800 0.000000
-6.836000 0.000000
-6.796100 0.000000
-6.756300 0.000000
-6.716500 0.000000
-6.676600 0.000000
-6.636800 0.000000
-6.597000 0.000000
-6.557100 0.000000
-6.517300 0.000000
-6.477400 0.000000
-6.437600 0.000000
-6.397800 0.000000
-6.357900 0.000000
-6.318100 0.000000
-6.278300 0.000000
-6.238400 0.000000
-6.198600 0.000000
-6.158800 0.000000
-6.118900 0.000000
-6.079100 0.000000
-6.039200 0.000000
-5.999400 0.000000
-5.959600 0.000000
-5.919700 0.000000
-5.879900 0.000000
-5.840100 0.000000
-5.800200 0.000000
-5.760400 0.000000
-5.720500 0.000000
-5.680700 0.000000
-5.640900 0.000000
-5.601000 0.000000
-5.561200 0.000000
-5.521400 0.000000
-5.481500 0.000000
-5.441700 0.000000
-5.401900 0.000000
-5.362000 0.000000
-5.322200 0.000000
-5.282300 0.000000
-5.242500 0.000000
-5.202700 0.000000
-5.162800 0.000000
-5.123000 0.000000
-5.083200 0.000000
-5.043300 0.000000
-5.003500 0.000000
-4.963700 0.000000
-4.923800 0.000000
-4.884000 0.000000
-4.844100 0.000000
-4.804300 0.000000
-4.764500 0.000000
-4.724600 0.000000
-4.684800 0.000000
-4.645000 0.000000
-4.605100 0.000000
-4.565300 0.000000
-4.525400 0.000000
-4.485600 0.000000
-4.445800 0.000000
-4.405900 0.000000
-4.366100 0.000000
-4.326300 0.000000
-4.286400 0.000000
-4.246600 0.000000
-4.206800 0.000000
-4.166900 0.000000
-4.127100 0.000000
-4.087200 0.000000
-4.047400 0.000000
-4.007600 0.000000
-3.967700 0.000000
-3.927900 0.000000
-3.888100 0.000000
-3.848200 0.000000
-3.808400 0.000000
-3.768500 0.000000
-3.728700 0.000000
-3.688900 0.000000
-3.649000 0.000000
-3.609200 0.000000
-3.569400 0.000000
-3.529500 0.000000
-3.489700 0.000000
-3.449900 0.000000
-3.410000 0.000000
-3.370200 0.000000
-3.330300 0.000000
-3.290500 0.000000
-3.250700 0.000000
-3.210800 0.000000
-3.171000 0.000000
-3.131200 0.000000
-3.091300 0.000000
-3.051500 0.000000
-3.011700 0.000000
-2.971800 0.000000
-2.932000 0.000000
-2.892100 0.000000
-2.852300 0.000000
-2.812500 0.000000
-2.772600 0.000000
-2.732800 0.000000
-2.693000 0.000000
-2.653100 0.000000
-2.613300 0.000000
-2.573400 0.043500
-2.533600 0.068100
-2.493800 0.096700
-2.453900 0.129400
-2.414100 0.136600
-2.374300 0.150500
-2.334400 0.162400
-2.294600 0.172500
-2.254800 0.186900
-2.214900 0.203200
-2.175100 0.220900
-2.135200 0.232500
-2.095400 0.242700
-2.055600 0.252600
-2.015700 0.261600
-1.975900 0.274500
-1.936100 0.287700
-1.896200 0.301700
-1.856400 0.316200
-1.816600 0.330800
-1.776700 0.375600
-1.736900 0.390200
-1.697000 0.403600
-1.657200 0.393900
-1.617400 0.395300
-1.577500 0.397000
-1.537700 0.400000
-1.497900 0.403500
-1.458000 0.406300
-1.418200 0.402300
-1.378300 0.404400
-1.338500 0.406900
-1.298700 0.411100
-1.258800 0.415100
-1.219000 0.417400
-1.179200 0.418900
-1.139300 0.419600
-1.099500 0.416700
-1.059700 0.417300
-1.019800 0.418300
-0.980000 0.420500
-0.940100 0.422900
-0.900300 0.425200
-0.860500 0.427400
-0.820600 0.429500
-0.780800 0.431400
-0.741000 0.433400
-0.701100 0.464600
-0.661300 0.476400
-0.621400 0.489400
-0.581600 0.502700
-0.541800 0.502500
-0.501900 0.509600
-0.462100 0.516600
-0.422300 0.523900
-0.382400 0.531600
-0.342600 0.540500
-0.302800 0.549400
-0.262900 0.558300
-0.223100 0.561800
-0.183200 0.568800
-0.143400 0.576100
-0.103600 0.582600
-0.063700 0.590400
-0.023900 0.599000
0.015900 0.607700
0.055800 0.616800
0.095600 0.626000
0.135400 0.634400
0.175300 0.642200
0.215100 0.649800
0.255000 0.655700
0.294800 0.663100
0.334600 0.669400
0.374500 0.676500
0.414300 0.684700
0.454100 0.693300
0.494000 0.702400
0.533800 0.711600
0.573700 0.720800
0.613500 0.730400
0.653300 0.740300
0.693200 0.751200
0.733000 0.762900
0.772800 0.775000
0.812700 0.786300
0.852500 0.798000
0.892300 0.810500
0.932200 1.448800
0.972000 1.050300
1.011900 0.965700
1.051700 0.905500
1.091500 0.870600
1.131400 0.864400
1.171200 0.846600
1.211000 0.837700
1.250900 0.831600
1.290700 0.861900
1.330600 0.866300
1.370400 0.873400
1.410200 0.856700
1.450100 0.858000
1.489900 0.857900
1.529700 0.859500
1.569600 1.004100
1.609400 1.051700
1.649200 1.120400
1.689100 1.230700
1.728900 1.310800
1.768800 1.330400
1.808600 1.292900
1.848400 1.324500
1.888300 1.353700
1.928100 1.326200
1.967900 1.311200
2.007800 1.313100
2.047600 1.319700
2.087400 1.327600
2.127300 1.331900
2.167100 1.342600
2.207000 1.344000
2.246800 1.399400
2.286600 1.498900
2.326500 1.715000
2.366300 1.728600
2.406100 1.656500
2.446000 1.600600
2.485800 1.600400
2.525700 1.645300
2.565500 1.616700
2.605300 1.814700
2.645200 2.300500
2.685000 2.225900
2.724800 1.811500
2.764700 1.903500
2.804500 1.956300
2.844300 1.992300
2.884200 1.879400
2.924000 1.822500
2.963900 1.922700
3.003700 2.184800
3.043500 2.407800
3.083400 2.520000
3.123200 2.382900
3.163000 2.028000
3.202900 2.004100
3.242700 1.995600
3.282500 2.073800
3.322400 2.072800
3.362200 2.045100
3.402100 2.049000
3.441900 2.026400
3.481700 2.046700
3.521600 2.137800
3.561400 2.542100
3.601200 3.052300
3.641100 3.274500
3.680900 3.534400
3.720800 3.429100
3.760600 3.134300
3.800400 3.044100
3.840300 2.956900
3.880100 2.874500
3.919900 2.927300
3.959800 3.192400
3.999600 3.161100
4.039400 2.826600
4.079300 2.626800
4.119100 2.656300
4.159000 2.260100
4.198800 1.791100
4.238600 1.514600
4.278500 1.324400
4.318300 1.169200
4.358100 1.045200
4.398000 0.941700
4.437800 0.811200
4.477700 0.855700
4.517500 1.250800
4.557300 1.899200
4.597200 2.643600
4.637000 2.704700
4.676800 2.837800
4.716700 3.161000
4.756500 3.343200
4.796300 3.718700
4.836200 3.840500
4.876000 3.493100
4.915900 3.438700
4.955700 3.106900
4.995500 3.403400
5.035400 4.272100
5.075200 3.938600
5.115000 3.071700
5.154900 2.597600
5.194700 2.374400
5.234500 2.289500
5.274400 2.245100
5.314200 2.200300
5.354100 2.195400
5.393900 2.281900
5.433700 3.296300
5.473600 2.628600
5.513400 2.525600
5.553200 2.418200
5.593100 2.380600
5.632900 2.439500
5.672800 2.402700
5.712600 2.429500
5.752400 2.504100
5.792300 2.695700
5.832100 2.891600
5.871900 3.578500
5.911800 3.952200
5.951600 3.967500
5.991400 3.977600
6.031300 4.156300
6.071100 5.088300
6.111000 5.930400
6.150800 5.749200
6.190600 5.791000
6.230500 5.906400
6.270300 6.274600
6.310100 6.722200
6.350000 6.524600
6.389800 6.651800
6.429700 5.220000
6.469500 4.367500
6.509300 4.508800
6.549200 4.994700
6.589000 3.679100
6.628800 4.181500
6.668700 4.665200
6.708500 4.824000
6.748300 4.737800
6.788200 4.645600
6.828000 4.225700
6.867900 4.317600
6.907700 4.025800
6.947500 3.804800
6.987400 3.688200
7.027200 3.739700
7.067000 3.698000
7.106900 4.116900
7.146700 3.037900
7.186500 3.087000
7.226400 2.531100
7.266200 2.378400
7.306100 2.184200
7.345900 2.244500
7.385700 1.946900
7.425600 1.916200
7.465400 1.977900
7.505200 1.934400
7.545100 1.878000
7.584900 1.849200
7.624800 1.796600
7.664600 1.719200
7.704400 1.654000
7.744300 1.383900
7.784100 1.273200
7.823900 1.033600
7.863800 1.019000
7.903600 1.023300
7.943400 1.065600
7.983300 1.119300
8.023100 1.333300
8.063000 1.405000
8.102800 1.522900
8.142600 1.266800
8.182500 0.980000
8.222300 0.895000
8.262100 0.872400
8.302000 0.807300
8.341800 0.767300
8.381600 0.750000
8.421500 0.664600
8.461300 0.619400
8.501200 0.559100
8.541000 0.508800
8.580800 0.462100
8.620700 0.428300
8.660500 0.539600
8.700300 0.626800
8.740200 0.660400
8.780000 0.723400
8.819900 0.747800
8.859700 0.769000
8.899500 0.816800
8.939400 0.833500
8.979200 0.952400
9.019000 1.127700
9.058900 1.462000
9.098700 1.659400
9.138500 1.837600
9.178400 1.787200
9.218200 1.781700
9.258100 1.814300
9.297900 1.760400
9.337700 1.824500
9.377600 1.899700
9.417400 2.300200
9.457200 2.092400
9.497100 2.100600
9.536900 2.078500
9.576800 2.166400
9.616600 2.265800
9.656400 2.356900
9.696300 2.440200
9.736100 2.761900
9.775900 2.423600
9.815800 2.517200
9.855600 2.490400
9.895400 2.598200
9.935300 2.735100
9.975100 2.979200
10.015000 3.059500
10.054800 3.806800
10.094600 2.785400
10.134500 2.977700
10.174300 2.850000
10.214100 2.796200
10.254000 2.847500
10.293800 3.188700
10.333600 3.416100
10.373500 4.679600
10.413300 4.695600
10.453200 4.908000
10.493000 4.477100
10.532800 3.966200
10.572700 3.960700
10.612500 4.050600
10.652300 4.101600
10.692200 4.143900
10.732000 4.147600
10.771900 4.068900
10.811700 4.095700
10.851500 4.198000
10.891400 4.028900
10.931200 4.108500
10.971000 3.712200
11.010900 3.464100
11.050700 3.745100
11.090500 3.891600
11.130400 3.319300
11.170200 4.094200
11.210100 2.937200
11.249900 2.277400
11.289700 2.286600
11.329600 2.311600
11.369400 1.826700
11.409200 1.700800
11.449100 1.466900
11.488900 1.379100
11.528800 1.352600
11.568600 1.306700
11.608400 1.259800
11.648300 1.234900
11.688100 1.191600
11.727900 1.108900
11.767800 1.028900
11.807600 0.986400
11.847400 0.934600
11.887300 0.871800
11.927100 0.847600
11.967000 0.856900
12.006800 0.866900
12.046600 0.879900
12.086500 0.914300
12.126300 0.965900
12.166100 1.045600
12.206000 1.168100
12.245800 1.285300
12.285600 1.421700
12.325500 1.776300
12.365300 2.195600
12.405200 2.235500
12.445000 1.962100
12.484800 1.856700
12.524700 1.892400
12.564500 2.123200
12.604300 2.484600
12.644200 3.122900
12.684000 3.335100
12.723900 2.713000
12.763700 2.205200
12.803500 2.034100
12.843400 1.930200
12.883200 1.871500
12.923000 1.828500
12.962900 1.779400
13.002700 1.887600
13.042500 2.130500
13.082400 1.735100
13.122200 1.798200
13.162100 1.655600
13.201900 1.632700
13.241700 1.724700
13.281600 1.528000
13.321400 1.678200
13.361200 1.617400
13.401100 1.711500
13.440900 1.571100
13.480700 1.651100
13.520600 1.633800
13.560400 1.511000
13.600300 1.715600
13.640100 1.905500
13.679900 1.897400
13.719800 1.904700
13.759600 1.805400
13.799400 1.818500
13.839300 2.232600
13.879100 2.136300
13.919000 1.979800
13.958800 1.862800
13.998600 1.807700
14.038500 1.721500
14.078300 1.713500
14.118100 1.728400
14.158000 1.748800
14.197800 1.722200
14.237600 1.765800
14.277500 1.763200
14.317300 2.002600
14.357200 1.734800
14.397000 1.823500
14.436800 2.054400
14.476700 2.240000
14.516500 2.352400
14.556300 2.239700
14.596200 2.117600
14.636000 1.984900
14.675900 2.061000
14.715700 1.972800
14.755500 1.795600
14.795400 1.768500
14.835200 1.785200
14.875000 1.787000
14.914900 1.851000
14.954700 1.848400
14.994500 1.822300
15.034400 1.716100
15.074200 1.658500
15.114100 1.526900
15.153900 1.510700
15.193700 1.504500
15.233600 1.338500
15.273400 1.303100
15.313200 1.309600
15.353100 1.281400
15.392900 1.261900
15.432700 1.241500
15.472600 1.226700
15.512400 1.177900
15.552300 1.169400
15.592100 1.190000
15.631900 1.213100
15.671800 1.248500
15.711600 1.255300
15.751400 1.270200
15.791300 1.237400
15.831100 1.220100
15.871000 1.241500
15.910800 1.224400
15.950600 1.172900
15.990500 1.132400
16.030300 1.095100
16.070100 1.029300
16.110000 0.985800
16.149800 0.938500
16.189600 0.908700
16.229500 0.910100
16.269300 0.908600
16.309200 0.974400
16.349000 0.967200
16.388800 1.000600
16.428700 1.012900
16.468500 1.036600
16.508300 1.016200
16.548200 1.018000
16.588000 1.020900
16.627900 1.040300
16.667700 1.116800
16.707500 1.187600
16.747400 1.392100
16.787200 1.422100
16.827000 1.436000
16.866900 2.268000
16.906700 1.744300
16.946500 1.684200
16.986400 1.669300
17.026200 1.745900
17.066100 1.819700
17.105900 1.880900
17.145700 1.968200
17.185600 2.093600
17.225400 2.287400
17.265200 2.513000
17.305100 2.277200
17.344900 1.984200
17.384700 1.768300
17.424600 1.633200
17.464400 1.728800
17.504300 1.777700
17.544100 1.899200
17.583900 1.768900
17.623800 1.752800
17.663600 1.823400
17.703400 2.001100
17.743300 2.021200
17.783100 2.091000
17.823000 2.255400
17.862800 2.362200
17.902600 2.393400
17.942500 2.442400
17.982300 2.525100
18.022100 2.512400
18.062000 2.507400
18.101800 2.447000
18.141600 2.446500
18.181500 2.409000
18.221300 2.794200
18.261200 2.476800
18.301000 2.362500
18.340800 2.333600
18.380700 2.337800
18.420500 2.412300
18.460300 2.495900
18.500200 2.583300
18.540000 2.520900
18.579800 2.385100
18.619700 2.235900
18.659500 2.251400
18.699400 2.147300
18.739200 2.120600
18.779000 2.344000
18.818900 2.169300
18.858700 2.055100
18.898500 2.064400
18.938400 2.078000
18.978200 2.209300
19.018100 2.121300
19.057900 2.126200
19.097700 1.990200
19.137600 2.083200
19.177400 2.020800
19.217200 2.002700
19.257100 2.014000
19.296900 2.124300
19.336700 2.125600
19.376600 2.132300
19.416400 2.107800
19.456300 2.101100
19.496100 2.061200
19.535900 2.050200
19.575800 1.991700
19.615600 1.984800
19.655400 1.936400
19.695300 2.060200
19.735100 1.988800
19.775000 1.947000
19.814800 1.873300
19.854600 1.829700
19.894500 1.794900
19.934300 1.743100
19.974100 1.683700
20.014000 1.838900
20.053800 1.772300
20.093600 1.895600
20.133500 2.160200
20.173300 2.397500
20.213200 2.589900
20.253000 2.707800
20.292800 2.376900
20.332700 2.347700
20.372500 2.375200
20.412300 2.355100
20.452200 2.360600
20.492000 2.178300
20.531800 1.785100
20.571700 1.701300
20.611500 1.709400
20.651400 1.743800
20.691200 1.833500
20.731000 1.892900
20.770900 1.968300
20.810700 1.916200
20.850500 1.827500
20.890400 1.879200
20.930200 2.141300
20.970100 2.139700
21.009900 2.664500
21.049700 2.634600
21.089600 2.627900
21.129400 2.609600
21.169200 2.638800
21.209100 2.574600
21.248900 2.493600
21.288700 2.498500
21.328600 2.157300
21.368400 2.171900
21.408300 2.158400
21.448100 2.083200
21.487900 2.021200
21.527800 1.889700
21.567600 1.928300
21.607400 1.957300
21.647300 1.996200
21.687100 2.156800
21.727000 2.240000
21.766800 2.260800
21.806600 2.061200
21.846500 2.321000
21.886300 2.466500
21.926100 2.355800
21.966000 2.360600
22.005800 2.414500
22.045600 2.404000
22.085500 2.483000
22.125300 2.514100
22.165200 2.554300
22.205000 2.589300
22.244800 2.725400
22.284700 2.584000
22.324500 2.349200
22.364300 2.201300
22.404200 2.283100
22.444000 2.413500
22.483800 2.406200
22.523700 2.347500
22.563500 2.299900
22.603400 2.146300
22.643200 2.016400
22.683000 1.907300
22.722900 1.939900
22.762700 2.086500
22.802500 2.189300
22.842400 2.282900
22.882200 2.333800
22.922100 2.317700
22.961900 2.362600
23.001700 2.437700
23.041600 2.557900
23.081400 2.381300
23.121200 2.350100
23.161100 2.231700
23.200900 2.128800
23.240700 2.294700
23.280600 2.106500
23.320400 1.730900
23.360300 1.601900
23.400100 1.647000
23.439900 1.653400
23.479800 1.684300
23.519600 1.732800
23.559400 1.805500
23.599300 2.022800
23.639100 2.130800
23.679000 2.465900
23.718800 2.343400
23.758600 2.272800
23.798500 2.500600
23.838300 2.474800
23.878100 2.565200
23.918000 2.827600
23.957800 2.886000
23.997600 2.808600
24.037500 2.724800
24.077300 2.447600
24.117200 2.170300
24.157000 1.903100
24.196800 1.975600
24.236700 1.641100
24.276500 1.538800
24.316300 1.534400
24.356200 1.497900
24.396000 1.388100
24.435800 1.363500
24.475700 1.356200
24.515500 1.440100
24.555400 1.516100
24.595200 1.598400
24.635000 1.718700
24.674900 1.852100
24.714700 1.909000
24.754500 1.876800
24.794400 1.872800
24.834200 1.859400
24.874100 1.809600
24.913900 1.766300
24.953700 1.716800
24.993600 1.716800
25.033400 1.689000
25.073200 1.659000
25.113100 1.636000
25.152900 1.611700
25.192700 1.591300
25.232600 1.546700
25.272400 1.773000
25.312300 1.673700
25.352100 1.681600
25.391900 1.766900
25.431800 1.790000
25.471600 1.761100
25.511400 1.746600
25.551300 1.752300
25.591100 1.740800
25.630900 1.797300
25.670800 1.970100
25.710600 2.162000
25.750500 2.351600
25.790300 2.593500
25.830100 2.613300
25.870000 2.370900
25.909800 2.290100
25.949600 2.258100
25.989500 2.336800
26.029300 2.294500
26.069200 2.291200
26.109000 2.258800
26.148800 2.155700
26.188700 2.109700
26.228500 2.050600
26.268300 1.993400
26.308200 1.968300
26.348000 1.967100
26.387800 2.022900
26.427700 2.130000
26.467500 2.174100
26.507400 2.299200
26.547200 2.369900
26.587000 2.794700
26.626900 3.045300
26.666700 3.293200
26.706500 3.179300
26.746400 3.233400
26.786200 3.138600
26.826100 3.054300
26.865900 3.228200
26.905700 3.141800
26.945600 3.058600
26.985400 2.930100
27.025200 2.849600
27.065100 2.756500
27.104900 2.623900
27.144700 2.479900
27.184600 2.532300
27.224400 2.255300
27.264300 2.125900
27.304100 2.066700
27.343900 2.070800
27.383800 2.126200
27.423600 2.229300
27.463400 2.258500
27.503300 2.315100
27.543100 2.424600
27.582900 2.331000
27.622800 2.297500
27.662600 2.297700
27.702500 2.423400
27.742300 2.540600
27.782100 2.516300
27.822000 2.384100
27.861800 2.270000
27.901600 2.230800
27.941500 2.164300
27.981300 2.087200
28.021200 2.104300
28.061000 2.066300
28.100800 2.072600
28.140700 2.010500
28.180500 2.037900
28.220300 2.037800
28.260200 2.103200
28.300000 2.145400
28.339800 2.248400
28.379700 2.216600
28.419500 2.157500
28.459400 2.162300
28.499200 2.202800
28.539000 2.173200
28.578900 2.275800
28.618700 2.370100
28.658500 2.185200
28.698400 2.203700
28.738200 2.099100
28.778100 1.990900
28.817900 1.949800
28.857700 2.214000
28.897600 2.282600
28.937400 2.106000
28.977200 2.174400
29.017100 2.406400
29.056900 2.365400
29.096700 2.394300
29.136600 2.212700
29.176400 2.211900
29.216300 2.265000
29.256100 2.182700
29.295900 2.097600
29.335800 2.049900
29.375600 2.015800
29.415400 2.098400
29.455300 2.134000
29.495100 2.140400
29.534900 2.201900
29.574800 2.205000
29.614600 2.176100
29.654500 1.882600
29.694300 1.659200
29.734100 1.527400
29.774000 1.589100
29.813800 1.521700
29.853600 1.455800
29.893500 1.420900
29.933300 1.446400
29.973200 1.513800
30.013000 1.595900
30.052800 1.712500
30.092700 1.824900
30.132500 1.812200
30.172300 1.826400
30.212200 1.773800
30.252000 1.880600
30.291800 1.906000
30.331700 1.733000
30.371500 1.679300
30.411400 1.815800
30.451200 2.108300
30.491000 2.373200
30.530900 2.875500
30.570700 2.705100
30.610500 2.597800
30.650400 2.433800
30.690200 2.390000
30.730000 2.298700
30.769900 2.188500
30.809700 2.065100
30.849600 2.028900
30.889400 1.974900
30.929200 1.881100
30.969100 1.894500
31.008900 1.937400
31.048700 2.015900
31.088600 2.040900
31.128400 2.084700
31.168300 2.095600
31.208100 2.143600
31.247900 2.205000
31.287800 2.173500
31.327600 2.250300
31.367400 2.335900
31.407300 2.495100
31.447100 2.720600
31.486900 2.704900
31.526800 2.633400
31.566600 2.740100
31.606500 2.738600
31.646300 2.836800
31.686100 2.799500
31.726000 2.716800
31.765800 2.643700
31.805600 2.604900
31.845500 2.596200
31.885300 2.568100
31.925200 2.495600
31.965000 2.581200
32.004800 2.623100
32.044700 2.585600
32.084500 2.511700
32.124300 2.338200
32.164200 2.071700
32.204000 1.991600
32.243800 2.135500
32.283700 2.158700
32.323500 2.395300
32.363400 2.108200
32.403200 2.227000
32.443000 2.089700
32.482900 2.090100
32.522700 2.147400
32.562500 2.351100
32.602400 2.563800
32.642200 2.751600
32.682000 2.963200
32.721900 2.898800
32.761700 2.939800
32.801600 2.981400
32.841400 2.892400
32.881200 2.838000
32.921100 2.576300
32.960900 2.407400
33.000700 2.399200
33.040600 2.337100
33.080400 2.341400
33.120300 2.385400
33.160100 2.452900
33.199900 2.545600
33.239800 2.598000
33.279600 2.616200
33.319400 2.566700
33.359300 2.573900
33.399100 2.622600
33.438900 2.635300
33.478800 2.630300
33.518600 2.663100
33.558500 2.621600
33.598300 2.486700
33.638100 2.432000
33.678000 2.375400
33.717800 2.449900
33.757600 2.493200
33.797500 2.487400
33.837300 2.481400
33.877200 2.476700
33.917000 2.478000
33.956800 2.478300
33.996700 2.561300
34.036500 2.522500
34.076300 2.562000
34.116200 2.595600
34.156000 2.664000
34.195800 2.686300
34.235700 2.618000
34.275500 2.672300
34.315400 2.724600
34.355200 3.111700
34.395000 3.064500
34.434900 3.191500
34.474700 2.873800
34.514500 3.029200
34.554400 3.125100
34.594200 2.829900
34.634000 2.912800
34.673900 2.939500
34.713700 2.707500
34.753600 2.562600
34.793400 2.413800
34.833200 2.418100
34.873100 2.328900
34.912900 2.257800
34.952700 2.211200
34.992600 2.254000
35.032400 2.246100
35.072300 2.239800
35.112100 2.216800
35.151900 3.039100
35.191800 3.083100
35.231600 2.890500
35.271400 2.874400
35.311300 2.965600
35.351100 3.171100
35.390900 2.881900
35.430800 2.860300
35.470600 2.706300
35.510500 2.695800
35.550300 2.751400
35.590100 3.169600
35.630000 3.478900
35.669800 3.766300
35.709600 3.406000
35.749500 3.082400
35.789300 2.988100
35.829100 3.109100
35.869000 3.514000
35.908800 3.562000
35.948700 3.107600
35.988500 2.944200
36.028300 2.845800
36.068200 3.190400
36.108000 2.838900
36.147800 2.758700
36.187700 2.966100
36.227500 2.734900
36.267400 2.554900
36.307200 2.431200
36.347000 2.402100
36.386900 2.102500
36.426700 1.992200
36.466500 1.941100
36.506400 1.882500
36.546200 1.905600
36.586000 1.985600
36.625900 1.991600
36.665700 1.953300
36.705600 1.981900
36.745400 2.072100
36.785200 2.297000
36.825100 2.467600
36.864900 2.520100
36.904700 2.583800
36.944600 2.641500
36.984400 2.666700
37.024300 2.731500
37.064100 2.558700
37.103900 2.640500
37.143800 2.354000
37.183600 2.310500
37.223400 2.409300
37.263300 2.521300
37.303100 2.300300
37.342900 1.927300
37.382800 1.804800
37.422600 1.677900
37.462500 1.622300
37.502300 1.571000
37.542100 1.523800
37.582000 1.512900
37.621800 1.536100
37.661600 1.488100
37.701500 1.454200
37.741300 1.567600
37.781100 1.639900
37.821000 1.581500
37.860800 1.274600
37.900700 1.152000
37.940500 1.068200
37.980300 1.146000
38.020200 1.022300
38.060000 0.781000
38.099800 0.637700
38.139700 0.558200
38.179500 0.497400
38.219400 0.443300
38.259200 0.406300
38.299000 0.361400
38.338900 0.324500
38.378700 0.295200
38.418500 0.267500
38.458400 0.225900
38.498200 0.203500
38.538000 0.182000
38.577900 0.161500
38.617700 0.242600
38.657600 0.086400
38.697400 0.064700
38.737200 0.047800
38.777100 0.035500
38.816900 0.027000
38.856700 0.000000
38.896600 0.000000
38.936400 0.000000
38.976300 0.000000
39.016100 0.000000
39.055900 0.000000
39.095800 0.000000
39.135600 0.000000
39.175400 0.000000
39.215300 0.000000
39.255100 0.000000
39.294900 0.000000
39.334800 0.000000
39.374600 0.000000
39.414500 0.000000
39.454300 0.000000
39.494100 0.000000
39.534000 0.000000
39.573800 0.000000
39.613600 0.000000
39.653500 0.000000
39.693300 0.000000
39.733100 0.000000
39.773000 0.000000
39.812800 0.000000
39.852700 0.000000
39.892500 0.000000
39.932300 0.000000
39.972200 0.000000
40.012000 0.000000
40.051800 0.000000
40.091700 0.000000
40.131500 0.000000
40.171400 0.000000
40.211200 0.000000
40.251000 0.000000
40.290900 0.000000
40.330700 0.000000
40.370500 0.000000
40.410400 0.000000
40.450200 0.000000
40.490000 0.000000
40.529900 0.000000
40.569700 0.000000
40.609600 0.000000
40.649400 0.000000
40.689200 0.000000
40.729100 0.000000
40.768900 0.000000
40.808700 0.000000
40.848600 0.000000
40.888400 0.000000
40.928200 0.000000
40.968100 0.000000
41.007900 0.000000
41.047800 0.000000
41.087600 0.000000
41.127400 0.000000
41.167300 0.000000
41.207100 0.000000
41.246900 0.000000
41.286800 0.000000
41.326600 0.000000
41.366500 0.000000
41.406300 0.000000
41.446100 0.000000
41.486000 0.000000
41.525800 0.000000
41.565600 0.000000
41.605500 0.000000
41.645300 0.000000
41.685100 0.000000
41.725000 0.000000
41.764800 0.000000
41.804700 0.000000
41.844500 0.000000
41.884300 0.000000
41.924200 0.000000
41.964000 0.000000
42.003800 0.000000
42.043700 0.000000
42.083500 0.000000
42.123400 0.000000
42.163200 0.000000
42.203000 0.000000
42.242900 0.000000
42.282700 0.000000
42.322500 0.000000
42.362400 0.000000
42.402200 0.000000
42.442000 0.000000
e
