set title 'mp-1095187 - Density of States'
set xlabel 'Energy (eV)'
set ylabel 'DOS (states/eV)'
set grid
set xrange [-10:10]
set yrange [0:19.400]
set xzeroaxis lt -1
set terminal png size 800,600
set output 'mp-1095187_dos_gnuplot.png'
plot '-' using 1:2 with lines title 'DOS'
-30.258900 0.000000
-30.229300 0.000000
-30.199600 0.000000
-30.170000 0.000000
-30.140300 0.000000
-30.110700 0.000000
-30.081000 0.000000
-30.051400 0.000000
-30.021700 0.000000
-29.992100 0.000000
-29.962500 0.000000
-29.932800 0.000000
-29.903200 0.000000
-29.873500 0.000000
-29.843900 0.000000
-29.814200 0.000000
-29.784600 0.000000
-29.754900 0.000000
-29.725300 0.000000
-29.695600 0.000000
-29.666000 0.000000
-29.636300 0.000000
-29.606700 0.000000
-29.577000 0.000000
-29.547400 0.000000
-29.517700 0.000000
-29.488100 0.000000
-29.458400 0.000000
-29.428800 0.000000
-29.399100 0.000000
-29.369500 0.000000
-29.339800 0.000000
-29.310200 0.000000
-29.280500 0.000000
-29.250900 0.000000
-29.221200 0.000000
-29.191600 0.000000
-29.161900 0.000000
-29.132300 0.000000
-29.102600 0.000000
-29.073000 0.000000
-29.043400 0.000000
-29.013700 0.000000
-28.984100 0.000000
-28.954400 0.000000
-28.924800 0.000000
-28.895100 0.000000
-28.865500 0.000000
-28.835800 0.000000
-28.806200 0.000000
-28.776500 0.000000
-28.746900 0.000000
-28.717200 0.000000
-28.687600 0.000000
-28.657900 0.000000
-28.628300 0.000000
-28.598600 0.000000
-28.569000 0.000000
-28.539300 0.000000
-28.509700 0.000000
-28.480000 0.000000
-28.450400 0.000000
-28.420700 0.000000
-28.391100 0.000000
-28.361400 0.000000
-28.331800 0.000000
-28.302100 0.000000
-28.272500 0.000000
-28.242800 0.000000
-28.213200 0.000000
-28.183500 0.000000
-28.153900 0.000000
-28.124300 0.000000
-28.094600 0.000000
-28.065000 0.000000
-28.035300 0.000000
-28.005700 0.000000
-27.976000 0.000000
-27.946400 0.000000
-27.916700 0.000000
-27.887100 0.000000
-27.857400 0.000000
-27.827800 0.000000
-27.798100 0.000000
-27.768500 0.000000
-27.738800 0.000000
-27.709200 0.000000
-27.679500 0.000000
-27.649900 0.000000
-27.620200 0.000000
-27.590600 0.000000
-27.560900 0.789700
-27.531300 9.812700
-27.501600 9.808900
-27.472000 7.598400
-27.442300 4.552600
-27.412700 12.663200
-27.383000 16.125100
-27.353400 18.094600
-27.323700 20.270400
-27.294100 21.697200
-27.264400 32.014600
-27.234800 28.693700
-27.205200 25.070900
-27.175500 12.324900
-27.145900 7.574100
-27.116200 8.862400
-27.086600 12.343500
-27.056900 14.582800
-27.027300 19.114900
-26.997600 17.750700
-26.968000 23.305100
-26.938300 18.313800
-26.908700 5.452400
-26.879000 15.701200
-26.849400 15.614700
-26.819700 14.511200
-26.790100 19.466900
-26.760400 13.702000
-26.730800 11.253100
-26.701100 72.641300
-26.671500 22.441700
-26.641800 29.526900
-26.612200 71.776300
-26.582500 30.746100
-26.552900 31.865300
-26.523200 25.523700
-26.493600 16.778400
-26.463900 17.451800
-26.434300 18.964200
-26.404600 17.762400
-26.375000 11.545100
-26.345300 6.670800
-26.315700 6.670800
-26.286100 4.248800
-26.256400 4.248800
-26.226800 4.248800
-26.197100 0.000000
-26.167500 0.000000
-26.137800 0.000000
-26.108200 0.000000
-26.078500 0.000000
-26.048900 0.000000
-26.019200 0.000000
-25.989600 0.000000
-25.959900 0.000000
-25.930300 0.000000
-25.900600 0.000000
-25.871000 0.000000
-25.841300 0.000000
-25.811700 0.000000
-25.782000 0.000000
-25.752400 0.000000
-25.722700 0.000000
-25.693100 0.000000
-25.663400 0.000000
-25.633800 0.000000
-25.604100 0.000000
-25.574500 0.000000
-25.544800 0.000000
-25.515200 0.000000
-25.485500 0.000000
-25.455900 0.000000
-25.426300 0.000000
-25.396600 0.000000
-25.367000 0.000000
-25.337300 0.000000
-25.307700 0.000000
-25.278000 0.000000
-25.248400 0.000000
-25.218700 0.000000
-25.189100 0.000000
-25.159400 0.000000
-25.129800 0.000000
-25.100100 0.000000
-25.070500 0.000000
-25.040800 0.000000
-25.011200 0.000000
-24.981500 0.000000
-24.951900 0.000000
-24.922200 0.000000
-24.892600 0.000000
-24.862900 0.000000
-24.833300 0.000000
-24.803600 0.000000
-24.774000 0.000000
-24.744300 0.000000
-24.714700 0.000000
-24.685000 0.000000
-24.655400 0.000000
-24.625700 0.000000
-24.596100 0.000000
-24.566400 0.000000
-24.536800 0.000000
-24.507200 0.000000
-24.477500 0.000000
-24.447900 0.000000
-24.418200 0.000000
-24.388600 0.000000
-24.358900 0.000000
-24.329300 0.000000
-24.299600 0.000000
-24.270000 0.000000
-24.240300 0.000000
-24.210700 0.000000
-24.181000 0.000000
-24.151400 0.000000
-24.121700 0.000000
-24.092100 0.000000
-24.062400 0.000000
-24.032800 0.000000
-24.003100 0.000000
-23.973500 0.000000
-23.943800 0.000000
-23.914200 0.000000
-23.884500 0.000000
-23.854900 0.000000
-23.825200 0.000000
-23.795600 0.000000
-23.765900 0.000000
-23.736300 0.000000
-23.706600 0.000000
-23.677000 0.000000
-23.647300 0.000000
-23.617700 0.000000
-23.588100 0.000000
-23.558400 0.000000
-23.528800 0.000000
-23.499100 0.000000
-23.469500 0.000000
-23.439800 0.000000
-23.410200 0.000000
-23.380500 0.000000
-23.350900 0.000000
-23.321200 0.000000
-23.291600 0.000000
-23.261900 0.000000
-23.232300 0.000000
-23.202600 0.000000
-23.173000 0.000000
-23.143300 0.000000
-23.113700 0.000000
-23.084000 0.000000
-23.054400 0.000000
-23.024700 0.000000
-22.995100 0.000000
-22.965400 0.000000
-22.935800 0.000000
-22.906100 0.000000
-22.876500 0.000000
-22.846800 0.000000
-22.817200 0.000000
-22.787500 0.000000
-22.757900 0.000000
-22.728200 0.000000
-22.698600 0.000000
-22.669000 0.000000
-22.639300 0.000000
-22.609700 0.000000
-22.580000 0.000000
-22.550400 0.000000
-22.520700 0.000000
-22.491100 0.000000
-22.461400 0.000000
-22.431800 0.000000
-22.402100 0.000000
-22.372500 0.000000
-22.342800 0.000000
-22.313200 0.000000
-22.283500 0.000000
-22.253900 0.000000
-22.224200 0.000000
-22.194600 0.000000
-22.164900 0.000000
-22.135300 0.000000
-22.105600 0.000000
-22.076000 0.000000
-22.046300 0.000000
-22.016700 0.000000
-21.987000 0.000000
-21.957400 0.000000
-21.927700 0.000000
-21.898100 0.000000
-21.868400 0.000000
-21.838800 0.000000
-21.809200 0.000000
-21.779500 0.000000
-21.749900 0.000000
-21.720200 0.000000
-21.690600 0.000000
-21.660900 0.000000
-21.631300 0.000000
-21.601600 0.000000
-21.572000 0.000000
-21.542300 0.000000
-21.512700 0.000000
-21.483000 0.000000
-21.453400 0.000000
-21.423700 0.000000
-21.394100 0.000000
-21.364400 0.000000
-21.334800 0.000000
-21.305100 0.000000
-21.275500 0.000000
-21.245800 0.000000
-21.216200 0.000000
-21.186500 0.000000
-21.156900 0.000000
-21.127200 0.000000
-21.097600 0.000000
-21.067900 0.000000
-21.038300 0.000000
-21.008600 0.000000
-20.979000 0.000000
-20.949300 0.000000
-20.919700 0.000000
-20.890100 0.000000
-20.860400 0.000000
-20.830800 0.000000
-20.801100 0.000000
-20.771500 0.000000
-20.741800 0.000000
-20.712200 0.000000
-20.682500 0.000000
-20.652900 0.000000
-20.623200 0.000000
-20.593600 0.000000
-20.563900 0.000000
-20.534300 0.000000
-20.504600 0.000000
-20.475000 0.000000
-20.445300 0.000000
-20.415700 0.000000
-20.386000 0.000000
-20.356400 0.000000
-20.326700 0.000000
-20.297100 0.000000
-20.267400 0.000000
-20.237800 0.000000
-20.208100 0.000000
-20.178500 0.000000
-20.148800 0.000000
-20.119200 0.000000
-20.089500 0.000000
-20.059900 0.000000
-20.030200 0.000000
-20.000600 0.000000
-19.971000 0.000000
-19.941300 0.000000
-19.911700 0.000000
-19.882000 0.000000
-19.852400 0.000000
-19.822700 0.000000
-19.793100 0.000000
-19.763400 0.000000
-19.733800 0.000000
-19.704100 0.000000
-19.674500 0.000000
-19.644800 0.000000
-19.615200 0.000000
-19.585500 0.000000
-19.555900 0.000000
-19.526200 0.000000
-19.496600 0.000000
-19.466900 0.000000
-19.437300 0.000000
-19.407600 0.000000
-19.378000 0.000000
-19.348300 0.000000
-19.318700 0.000000
-19.289000 0.000000
-19.259400 0.000000
-19.229700 0.000000
-19.200100 0.000000
-19.170400 0.000000
-19.140800 0.000000
-19.111100 0.000000
-19.081500 0.000000
-19.051900 0.000000
-19.022200 0.000000
-18.992600 0.000000
-18.962900 0.000000
-18.933300 0.000000
-18.903600 0.000000
-18.874000 0.000000
-18.844300 0.000000
-18.814700 0.000000
-18.785000 0.000000
-18.755400 0.000000
-18.725700 0.000000
-18.696100 0.000000
-18.666400 0.000000
-18.636800 0.000000
-18.607100 0.000000
-18.577500 0.000000
-18.547800 0.000000
-18.518200 0.000000
-18.488500 0.000000
-18.458900 0.000000
-18.429200 0.000000
-18.399600 0.000000
-18.369900 0.000000
-18.340300 0.000000
-18.310600 0.000000
-18.281000 0.000000
-18.251300 0.000000
-18.221700 0.000000
-18.192100 0.000000
-18.162400 0.000000
-18.132800 0.000000
-18.103100 0.000000
-18.073500 0.000000
-18.043800 0.000000
-18.014200 0.000000
-17.984500 0.000000
-17.954900 0.000000
-17.925200 0.000000
-17.895600 0.000000
-17.865900 0.000000
-17.836300 0.000000
-17.806600 0.000000
-17.777000 0.000000
-17.747300 0.000000
-17.717700 0.000000
-17.688000 0.000000
-17.658400 0.000000
-17.628700 0.000000
-17.599100 0.000000
-17.569400 0.000000
-17.539800 0.000000
-17.510100 0.000000
-17.480500 0.000000
-17.450800 0.000000
-17.421200 0.000000
-17.391500 0.000000
-17.361900 0.000000
-17.332200 0.000000
-17.302600 0.000000
-17.273000 0.000000
-17.243300 0.000000
-17.213700 0.000000
-17.184000 0.000000
-17.154400 0.000000
-17.124700 0.000000
-17.095100 0.000000
-17.065400 0.000000
-17.035800 0.000000
-17.006100 0.000000
-16.976500 0.000000
-16.946800 0.000000
-16.917200 0.000000
-16.887500 0.000000
-16.857900 0.000000
-16.828200 0.000000
-16.798600 0.000000
-16.768900 0.000000
-16.739300 0.000000
-16.709600 0.000000
-16.680000 0.000000
-16.650300 0.000000
-16.620700 0.000000
-16.591000 0.000000
-16.561400 0.000000
-16.531700 0.000000
-16.502100 0.000000
-16.472400 0.000000
-16.442800 0.000000
-16.413100 0.000000
-16.383500 0.000000
-16.353900 0.000000
-16.324200 0.000000
-16.294600 0.000000
-16.264900 0.000000
-16.235300 0.000000
-16.205600 0.000000
-16.176000 0.000000
-16.146300 0.000000
-16.116700 0.000000
-16.087000 0.000000
-16.057400 0.000000
-16.027700 0.000000
-15.998100 0.000000
-15.968400 0.000000
-15.938800 0.000000
-15.909100 0.000000
-15.879500 0.000000
-15.849800 0.000000
-15.820200 0.000000
-15.790500 0.000000
-15.760900 0.000000
-15.731200 0.000000
-15.701600 0.000000
-15.671900 0.000000
-15.642300 0.000000
-15.612600 0.000000
-15.583000 0.000000
-15.553300 0.000000
-15.523700 0.000000
-15.494000 0.000000
-15.464400 0.000000
-15.434800 0.000000
-15.405100 0.000000
-15.375500 0.000000
-15.345800 0.000000
-15.316200 0.000000
-15.286500 0.000000
-15.256900 0.000000
-15.227200 0.000000
-15.197600 0.000000
-15.167900 0.000000
-15.138300 0.000000
-15.108600 0.084400
-15.079000 0.331700
-15.049300 0.617800
-15.019700 0.915700
-14.990000 1.106300
-14.960400 1.370600
-14.930700 1.729000
-14.901100 1.940600
-14.871400 1.989300
-14.841800 2.064200
-14.812100 2.297100
-14.782500 2.421900
-14.752800 2.479800
-14.723200 2.602000
-14.693500 2.971200
-14.663900 3.445500
-14.634200 6.181000
-14.604600 11.715700
-14.575000 13.849900
-14.545300 15.048000
-14.515700 12.731400
-14.486000 12.845900
-14.456400 18.381900
-14.426700 15.932100
-14.397100 0.000000
-14.367400 0.000000
-14.337800 0.000000
-14.308100 0.000000
-14.278500 0.000000
-14.248800 0.000000
-14.219200 0.193200
-14.189500 3.298500
-14.159900 5.865400
-14.130200 7.531900
-14.100600 9.241200
-14.070900 16.449700
-14.041300 10.084800
-14.011600 9.693500
-13.982000 14.041600
-13.952300 17.459900
-13.922700 13.619300
-13.893000 10.725000
-13.863400 5.644700
-13.833700 3.615100
-13.804100 3.191300
-13.774400 3.068200
-13.744800 1.403300
-13.715100 0.000000
-13.685500 0.000000
-13.655900 0.000000
-13.626200 0.000000
-13.596600 0.000000
-13.566900 0.000000
-13.537300 0.000000
-13.507600 0.000000
-13.478000 4.682100
-13.448300 7.555100
-13.418700 10.921600
-13.389000 24.331200
-13.359400 28.117500
-13.329700 15.428200
-13.300100 10.922300
-13.270400 15.815600
-13.240800 10.855200
-13.211100 8.968600
-13.181500 0.000000
-13.151800 0.000000
-13.122200 0.000000
-13.092500 0.000000
-13.062900 0.000000
-13.033200 0.000000
-13.003600 0.000000
-12.973900 0.000000
-12.944300 0.000000
-12.914600 0.000000
-12.885000 0.000000
-12.855300 0.000000
-12.825700 0.000000
-12.796000 0.000000
-12.766400 0.000000
-12.736800 0.000000
-12.707100 0.000000
-12.677500 0.000000
-12.647800 0.000000
-12.618200 0.000000
-12.588500 0.000000
-12.558900 0.000000
-12.529200 0.000000
-12.499600 0.000000
-12.469900 0.000000
-12.440300 0.000000
-12.410600 0.000000
-12.381000 0.000000
-12.351300 0.000000
-12.321700 0.000000
-12.292000 0.000000
-12.262400 0.000000
-12.232700 0.000000
-12.203100 0.000000
-12.173400 0.000000
-12.143800 0.000000
-12.114100 0.000000
-12.084500 0.000000
-12.054800 0.000000
-12.025200 0.000000
-11.995500 0.000000
-11.965900 0.000000
-11.936200 0.000000
-11.906600 0.000000
-11.876900 0.000000
-11.847300 0.000000
-11.817700 0.000000
-11.788000 0.000000
-11.758400 0.000000
-11.728700 0.000000
-11.699100 0.000000
-11.669400 0.000000
-11.639800 0.000000
-11.610100 0.000000
-11.580500 0.000000
-11.550800 0.000000
-11.521200 0.000000
-11.491500 0.000000
-11.461900 0.000000
-11.432200 0.000000
-11.402600 0.000000
-11.372900 0.000000
-11.343300 0.000000
-11.313600 0.000000
-11.284000 0.000000
-11.254300 0.000000
-11.224700 0.000000
-11.195000 0.000000
-11.165400 0.000000
-11.135700 0.000000
-11.106100 0.000000
-11.076400 0.000000
-11.046800 0.000000
-11.017100 0.000000
-10.987500 0.000000
-10.957800 0.000000
-10.928200 0.000000
-10.898600 0.000000
-10.868900 0.000000
-10.839300 0.000000
-10.809600 0.000000
-10.780000 0.000000
-10.750300 0.000000
-10.720700 0.000000
-10.691000 0.000000
-10.661400 0.000000
-10.631700 0.000000
-10.602100 0.000000
-10.572400 0.000000
-10.542800 0.000000
-10.513100 0.000000
-10.483500 0.000000
-10.453800 0.000000
-10.424200 0.000000
-10.394500 0.000000
-10.364900 0.000000
-10.335200 0.000000
-10.305600 0.000000
-10.275900 0.000000
-10.246300 0.000000
-10.216600 0.000000
-10.187000 0.000000
-10.157300 0.000000
-10.127700 0.000000
-10.098000 0.000000
-10.068400 0.000000
-10.038800 0.000000
-10.009100 0.000000
-9.979500 0.000000
-9.949800 0.000000
-9.920200 0.000000
-9.890500 0.000000
-9.860900 0.000000
-9.831200 0.000000
-9.801600 0.000000
-9.771900 0.000000
-9.742300 0.000000
-9.712600 0.000000
-9.683000 0.000000
-9.653300 0.000000
-9.623700 0.000000
-9.594000 0.000000
-9.564400 0.000000
-9.534700 0.000000
-9.505100 0.000000
-9.475400 0.000000
-9.445800 0.000000
-9.416100 0.000000
-9.386500 0.000000
-9.356800 0.000000
-9.327200 0.000000
-9.297500 0.000000
-9.267900 0.000000
-9.238200 0.000000
-9.208600 0.000000
-9.178900 0.000000
-9.149300 0.000000
-9.119700 0.000000
-9.090000 0.000000
-9.060400 0.000000
-9.030700 0.000000
-9.001100 0.000000
-8.971400 0.000000
-8.941800 0.000000
-8.912100 0.000000
-8.882500 0.000000
-8.852800 0.000000
-8.823200 0.000000
-8.793500 0.000000
-8.763900 0.000000
-8.734200 0.000000
-8.704600 0.000000
-8.674900 0.000000
-8.645300 0.000000
-8.615600 0.000000
-8.586000 0.000000
-8.556300 0.000000
-8.526700 0.000000
-8.497000 0.000000
-8.467400 0.000000
-8.437700 0.000000
-8.408100 0.000000
-8.378400 0.000000
-8.348800 0.000000
-8.319100 0.000000
-8.289500 0.000000
-8.259800 0.000000
-8.230200 0.000000
-8.200600 0.000000
-8.170900 0.000000
-8.141300 0.000000
-8.111600 0.000000
-8.082000 0.000000
-8.052300 0.000000
-8.022700 0.000000
-7.993000 0.000000
-7.963400 0.000000
-7.933700 0.000000
-7.904100 0.000000
-7.874400 0.000000
-7.844800 0.000000
-7.815100 0.000000
-7.785500 0.000000
-7.755800 0.000000
-7.726200 0.000000
-7.696500 0.000000
-7.666900 0.000000
-7.637200 0.000000
-7.607600 0.000000
-7.577900 0.000000
-7.548300 0.000000
-7.518600 0.000000
-7.489000 0.000000
-7.459300 0.000000
-7.429700 0.000000
-7.400000 0.000000
-7.370400 0.000000
-7.340700 0.000000
-7.311100 0.000000
-7.281500 0.000000
-7.251800 0.000000
-7.222200 0.000000
-7.192500 0.000000
-7.162900 0.000000
-7.133200 0.000000
-7.103600 0.000000
-7.073900 0.000000
-7.044300 0.000000
-7.014600 0.000000
-6.985000 0.000000
-6.955300 0.000000
-6.925700 0.000000
-6.896000 0.000000
-6.866400 0.000000
-6.836700 0.000000
-6.807100 0.000000
-6.777400 0.000000
-6.747800 0.000000
-6.718100 0.000000
-6.688500 0.000000
-6.658800 0.000000
-6.629200 0.000000
-6.599500 0.000000
-6.569900 0.000000
-6.540200 0.000000
-6.510600 0.000000
-6.480900 0.000000
-6.451300 0.000000
-6.421700 0.000000
-6.392000 0.000000
-6.362400 0.000000
-6.332700 0.000000
-6.303100 0.000000
-6.273400 0.000000
-6.243800 0.000000
-6.214100 0.000000
-6.184500 0.000000
-6.154800 0.000000
-6.125200 0.000000
-6.095500 0.000000
-6.065900 0.000000
-6.036200 0.000000
-6.006600 0.000000
-5.976900 0.000000
-5.947300 0.000000
-5.917600 0.000000
-5.888000 0.000000
-5.858300 0.000000
-5.828700 0.000000
-5.799000 0.000000
-5.769400 0.000000
-5.739700 0.000000
-5.710100 0.000000
-5.680400 0.000000
-5.650800 0.000000
-5.621100 0.000000
-5.591500 0.000000
-5.561800 0.000000
-5.532200 0.000000
-5.502600 0.000000
-5.472900 0.000000
-5.443300 0.000000
-5.413600 0.000000
-5.384000 0.000000
-5.354300 0.000000
-5.324700 0.000000
-5.295000 0.000000
-5.265400 0.000000
-5.235700 0.000000
-5.206100 0.000000
-5.176400 0.000000
-5.146800 0.000000
-5.117100 0.000000
-5.087500 0.000000
-5.057800 0.000000
-5.028200 0.000000
-4.998500 0.000000
-4.968900 0.000000
-4.939200 0.000000
-4.909600 0.000000
-4.879900 0.000000
-4.850300 0.000000
-4.820600 0.000000
-4.791000 0.000000
-4.761300 0.000000
-4.731700 0.000000
-4.702000 0.000000
-4.672400 0.000000
-4.642700 0.000000
-4.613100 0.000000
-4.583500 0.000000
-4.553800 0.000000
-4.524200 0.000000
-4.494500 0.000000
-4.464900 0.000000
-4.435200 0.000000
-4.405600 0.000000
-4.375900 0.000000
-4.346300 0.000000
-4.316600 0.000000
-4.287000 0.000000
-4.257300 0.000000
-4.227700 0.000000
-4.198000 0.000000
-4.168400 0.000000
-4.138700 0.000000
-4.109100 0.000000
-4.079400 0.000000
-4.049800 0.000000
-4.020100 0.000000
-3.990500 0.000000
-3.960800 0.000000
-3.931200 0.000000
-3.901500 0.000000
-3.871900 0.000000
-3.842200 0.000000
-3.812600 0.000000
-3.782900 0.000000
-3.753300 0.000000
-3.723600 0.000000
-3.694000 0.000000
-3.664400 0.000000
-3.634700 0.000000
-3.605100 0.000000
-3.575400 0.000000
-3.545800 0.000000
-3.516100 0.000000
-3.486500 0.000000
-3.456800 0.000000
-3.427200 0.000000
-3.397500 0.000000
-3.367900 0.000000
-3.338200 0.000000
-3.308600 0.000000
-3.278900 0.000000
-3.249300 0.000000
-3.219600 0.000000
-3.190000 0.000000
-3.160300 0.000000
-3.130700 0.000000
-3.101000 0.000000
-3.071400 0.000000
-3.041700 0.000000
-3.012100 0.000000
-2.982400 0.000000
-2.952800 0.000000
-2.923100 0.000000
-2.893500 0.000000
-2.863800 0.000000
-2.834200 0.000000
-2.804600 0.000000
-2.774900 0.376400
-2.745300 0.524500
-2.715600 0.674400
-2.686000 0.876800
-2.656300 1.404000
-2.626700 1.567900
-2.597000 1.755900
-2.567400 2.025600
-2.537700 2.708000
-2.508100 3.090800
-2.478400 3.479200
-2.448800 3.769500
-2.419100 3.893100
-2.389500 4.061600
-2.359800 4.287600
-2.330200 4.521600
-2.300500 4.759400
-2.270900 5.315500
-2.241200 5.859100
-2.211600 7.064100
-2.181900 7.824500
-2.152300 7.356300
-2.122600 6.659000
-2.093000 7.308200
-2.063300 6.943400
-2.033700 6.951900
-2.004000 6.368800
-1.974400 5.660900
-1.944700 7.002400
-1.915100 9.367900
-1.885500 10.760100
-1.855800 10.357900
-1.826200 9.316800
-1.796500 9.199700
-1.766900 8.984200
-1.737200 8.422200
-1.707600 7.568200
-1.677900 6.595100
-1.648300 6.054000
-1.618600 5.911000
-1.589000 6.716500
-1.559300 6.996600
-1.529700 7.889300
-1.500000 9.878600
-1.470400 10.750000
-1.440700 10.387100
-1.411100 9.882400
-1.381400 10.751200
-1.351800 11.319400
-1.322100 9.225600
-1.292500 7.103400
-1.262800 6.450900
-1.233200 6.786400
-1.203500 7.348000
-1.173900 7.716000
-1.144200 7.268200
-1.114600 6.815200
-1.084900 6.958400
-1.055300 7.974000
-1.025600 9.405900
-0.996000 9.819300
-0.966400 11.066000
-0.936700 11.665800
-0.907100 9.735700
-0.877400 9.093700
-0.847800 8.840100
-0.818100 9.179800
-0.788500 9.775400
-0.758800 8.729100
-0.729200 9.324900
-0.699500 7.772700
-0.669900 9.338500
-0.640200 9.089900
-0.610600 9.063300
-0.580900 9.604400
-0.551300 9.851000
-0.521600 10.401300
-0.492000 11.080200
-0.462300 9.179100
-0.432700 8.648300
-0.403000 8.928600
-0.373400 8.997300
-0.343700 10.397100
-0.314100 12.045900
-0.284400 13.295500
-0.254800 10.266400
-0.225100 8.525600
-0.195500 7.582900
-0.165800 8.169500
-0.136200 9.955700
-0.106500 8.009400
-0.076900 6.401300
-0.047300 5.237100
-0.017600 5.118800
0.012000 7.870400
0.041700 6.482800
0.071300 5.905100
0.101000 5.170800
0.130600 4.679700
0.160300 4.701000
0.189900 5.320200
0.219600 5.941000
0.249200 6.945600
0.278900 7.364000
0.308500 7.823400
0.338200 7.690300
0.367800 7.442000
0.397500 6.970800
0.427100 7.999400
0.456800 8.036800
0.486400 7.737700
0.516100 7.740900
0.545700 7.411300
0.575400 6.822000
0.605000 6.349000
0.634700 6.568700
0.664300 7.159500
0.694000 9.078600
0.723600 10.336000
0.753300 8.877900
0.782900 8.425900
0.812500 9.946400
0.842200 17.636100
0.871800 11.897600
0.901500 9.105700
0.931100 9.299000
0.960800 10.004000
0.990400 9.545600
1.020100 8.693600
1.049700 9.366700
1.079400 9.648000
1.109000 8.737000
1.138700 8.830300
1.168300 6.913700
1.198000 6.353000
1.227600 7.113700
1.257300 7.757800
1.286900 8.742700
1.316600 10.365400
1.346200 9.791800
1.375900 8.995500
1.405500 11.803300
1.435200 12.961300
1.464800 11.607700
1.494500 11.670000
1.524100 9.148900
1.553800 7.179000
1.583400 6.113800
1.613100 5.875600
1.642700 5.229000
1.672400 5.052600
1.702000 5.962000
1.731600 6.462000
1.761300 6.337600
1.790900 5.957400
1.820600 4.874700
1.850200 4.372400
1.879900 4.271300
1.909500 4.685400
1.939200 3.455800
1.968800 1.891700
1.998500 0.000000
2.028100 0.000000
2.057800 0.000000
2.087400 0.000000
2.117100 0.000000
2.146700 0.000000
2.176400 0.000000
2.206000 0.000000
2.235700 0.000000
2.265300 0.000000
2.295000 0.000000
2.324600 0.000000
2.354300 0.000000
2.383900 0.000000
2.413600 0.000000
2.443200 0.000000
2.472900 0.000000
2.502500 0.000000
2.532200 0.000000
2.561800 0.000000
2.591500 0.000000
2.621100 0.000000
2.650700 0.000000
2.680400 0.000000
2.710000 0.000000
2.739700 0.000000
2.769300 0.005400
2.799000 0.146000
2.828600 0.252700
2.858300 0.343500
2.887900 0.417400
2.917600 0.487300
2.947200 0.558800
2.976900 0.632900
3.006500 0.718500
3.036200 0.823500
3.065800 0.937900
3.095500 1.168900
3.125100 1.229000
3.154800 1.272100
3.184400 1.296700
3.214100 1.315400
3.243700 1.375900
3.273400 1.399200
3.303000 1.417300
3.332700 1.425500
3.362300 1.415300
3.392000 1.526100
3.421600 2.365900
3.451300 4.971300
3.480900 4.621600
3.510600 4.138100
3.540200 3.962600
3.569800 3.935900
3.599500 4.014000
3.629100 4.468000
3.658800 5.012500
3.688400 4.768700
3.718100 4.237700
3.747700 3.928600
3.777400 3.814100
3.807000 3.824600
3.836700 4.204900
3.866300 4.672700
3.896000 5.720700
3.925600 5.786500
3.955300 3.838300
3.984900 5.054100
4.014600 4.979800
4.044200 4.702700
4.073900 4.604300
4.103500 4.631000
4.133200 4.752800
4.162800 5.546700
4.192500 6.079900
4.222100 6.576400
4.251800 7.388900
4.281400 7.460500
4.311100 5.301400
4.340700 4.427100
4.370400 3.824100
4.400000 3.565100
4.429700 3.397300
4.459300 3.211300
4.488900 2.785700
4.518600 2.054600
4.548200 1.859600
4.577900 1.860300
4.607500 2.018100
4.637200 2.329400
4.666800 2.665400
4.696500 3.284500
4.726100 3.368800
4.755800 3.616600
4.785400 4.025100
4.815100 4.843000
4.844700 5.242600
4.874400 5.320300
4.904000 5.173800
4.933700 5.080000
4.963300 5.078700
4.993000 4.962300
5.022600 4.816000
5.052300 4.316800
5.081900 3.717700
5.111600 1.683400
5.141200 0.806900
5.170900 0.315400
5.200500 0.000000
5.230200 0.000000
5.259800 0.000000
5.289500 0.027300
5.319100 0.221700
5.348700 0.475000
5.378400 0.871000
5.408000 1.722200
5.437700 3.106200
5.467300 6.922300
5.497000 7.729000
5.526600 4.328100
5.556300 4.258800
5.585900 2.764500
5.615600 2.382200
5.645200 2.421000
5.674900 2.444600
5.704500 3.081800
5.734200 4.987900
5.763800 4.817600
5.793500 3.722200
5.823100 3.995300
5.852800 4.287400
5.882400 4.848100
5.912100 5.079500
5.941700 5.225400
5.971400 5.851300
6.001000 4.727300
6.030700 4.408000
6.060300 5.553100
6.090000 7.088700
6.119600 7.615900
6.149300 7.504600
6.178900 5.710800
6.208600 5.097000
6.238200 4.663300
6.267800 4.154100
6.297500 3.953000
6.327100 3.423200
6.356800 2.601700
6.386400 2.069600
6.416100 1.975800
6.445700 1.915000
6.475400 1.877100
6.505000 1.851100
6.534700 1.850600
6.564300 1.839000
6.594000 1.833000
6.623600 1.851700
6.653300 1.903400
6.682900 1.963100
6.712600 2.027200
6.742200 2.093500
6.771900 2.172600
6.801500 2.271800
6.831200 2.386400
6.860800 2.505500
6.890500 2.758400
6.920100 3.336600
6.949800 3.282200
6.979400 3.420600
7.009100 3.337100
7.038700 3.186500
7.068400 2.612400
7.098000 2.068000
7.127700 2.096100
7.157300 2.379200
7.186900 3.392900
7.216600 5.004100
7.246200 6.501200
7.275900 6.658100
7.305500 7.201300
7.335200 7.764900
7.364800 7.599400
7.394500 7.956100
7.424100 6.904500
7.453800 7.444100
7.483400 7.366100
7.513100 7.370700
7.542700 6.997000
7.572400 6.927500
7.602000 6.305700
7.631700 6.885200
7.661300 6.569600
7.691000 6.612100
7.720600 6.653300
7.750300 6.957000
7.779900 7.232600
7.809600 7.198700
7.839200 7.941200
7.868900 10.717900
7.898500 12.051000
7.928200 10.624000
7.957800 8.055900
7.987500 8.127900
8.017100 8.627200
8.046800 7.932400
8.076400 9.052600
8.106000 10.091500
8.135700 10.950400
8.165300 11.048000
8.195000 10.201700
8.224600 8.468600
8.254300 6.847500
8.283900 6.746000
8.313600 7.261000
8.343200 8.538100
8.372900 8.469700
8.402500 8.516400
8.432200 8.572300
8.461800 8.603100
8.491500 8.997300
8.521100 9.703200
8.550800 10.918300
8.580400 11.971000
8.610100 11.752500
8.639700 11.009000
8.669400 11.213000
8.699000 10.281800
8.728700 8.110300
8.758300 8.109100
8.788000 7.927700
8.817600 7.834400
8.847300 7.945600
8.876900 8.297500
8.906600 8.051900
8.936200 6.635900
8.965800 6.020100
8.995500 7.175000
9.025100 8.237900
9.054800 7.835800
9.084400 6.255700
9.114100 5.428100
9.143700 5.507600
9.173400 6.003600
9.203000 6.527800
9.232700 6.911000
9.262300 7.338600
9.292000 7.710200
9.321600 7.662200
9.351300 7.282300
9.380900 7.351200
9.410600 6.761600
9.440200 6.465100
9.469900 5.630900
9.499500 5.283200
9.529200 4.467200
9.558800 4.130800
9.588500 3.549000
9.618100 3.015600
9.647800 2.794300
9.677400 3.214000
9.707100 3.690600
9.736700 4.111700
9.766400 4.641300
9.796000 4.873100
9.825700 5.050700
9.855300 5.205000
9.884900 4.752100
9.914600 3.743800
9.944200 3.876300
9.973900 4.567300
10.003500 5.073100
10.033200 5.281400
10.062800 5.119800
10.092500 4.914300
10.122100 4.911100
10.151800 5.060700
10.181400 5.349000
10.211100 5.134200
10.240700 5.100900
10.270400 5.423300
10.300000 5.661000
10.329700 5.339200
10.359300 4.744100
10.389000 4.729200
10.418600 4.866700
10.448300 4.947800
10.477900 5.800400
10.507600 5.865500
10.537200 6.255400
10.566900 6.582300
10.596500 6.927200
10.626200 6.988500
10.655800 5.792400
10.685500 4.581200
10.715100 4.234200
10.744800 4.208500
10.774400 4.193800
10.804000 4.376000
10.833700 4.689500
10.863300 5.079800
10.893000 5.957500
10.922600 5.832800
10.952300 4.928100
10.981900 4.133600
11.011600 3.839000
11.041200 3.638300
11.070900 3.495300
11.100500 3.427800
11.130200 3.582300
11.159800 2.474700
11.189500 2.410200
11.219100 2.187700
11.248800 1.500700
11.278400 1.002900
11.308100 0.877100
11.337700 0.884900
11.367400 0.892200
11.397000 0.897800
11.426700 0.895000
11.456300 0.894000
11.486000 0.899100
11.515600 0.904400
11.545300 0.909800
11.574900 0.915700
11.604600 0.921800
11.634200 0.928100
11.663900 0.940200
11.693500 0.959200
11.723100 0.968200
11.752800 0.976100
11.782400 0.993500
11.812100 1.019900
11.841700 1.070900
11.871400 1.103500
11.901000 1.132700
11.930700 1.162400
11.960300 1.192600
11.990000 1.221100
12.019600 1.249500
12.049300 1.282800
12.078900 1.320500
12.108600 1.359500
12.138200 1.392700
12.167900 1.430100
12.197500 1.467800
12.227200 1.536100
12.256800 1.599300
12.286500 1.651400
12.316100 1.730100
12.345800 1.739600
12.375400 1.748400
12.405100 1.758800
12.434700 1.770500
12.464400 1.778800
12.494000 1.773500
12.523700 1.769500
12.553300 1.760800
12.582900 1.766400
12.612600 1.779300
12.642200 1.798800
12.671900 1.820800
12.701500 1.843700
12.731200 1.871400
12.760800 1.915800
12.790500 1.960300
12.820100 2.008600
12.849800 2.053100
12.879400 2.107100
12.909100 2.191000
12.938700 2.237800
12.968400 2.293900
12.998000 2.405000
13.027700 2.515900
13.057300 2.623500
13.087000 2.730200
13.116600 2.848000
13.146300 2.958500
13.175900 3.074100
13.205600 3.172700
13.235200 3.243400
13.264900 3.268300
13.294500 3.153500
13.324200 3.076100
13.353800 3.033800
13.383500 3.057000
13.413100 3.044100
13.442800 3.011100
13.472400 2.944200
13.502000 2.857900
13.531700 2.708200
13.561300 2.612500
13.591000 2.591500
13.620600 2.575800
13.650300 2.548000
13.679900 2.539100
13.709600 2.536700
13.739200 2.536400
13.768900 2.450500
13.798500 2.401900
13.828200 2.346500
13.857800 2.284000
13.887500 2.139700
13.917100 2.019900
13.946800 1.957200
13.976400 1.956500
14.006100 2.019300
14.035700 2.174500
14.065400 2.252800
14.095000 2.259300
14.124700 2.327200
14.154300 2.359500
14.184000 2.321900
14.213600 2.281600
14.243300 2.266600
14.272900 2.135800
14.302600 2.078900
14.332200 2.019100
14.361900 1.972300
14.391500 1.983000
14.421100 2.011100
14.450800 2.048500
14.480400 2.080500
14.510100 2.156900
14.539700 2.259800
14.569400 2.397100
14.599000 2.385900
14.628700 2.322200
14.658300 2.189100
14.688000 2.134200
14.717600 2.191400
14.747300 2.137300
14.776900 2.167300
14.806600 2.184400
14.836200 2.039200
14.865900 2.063600
14.895500 2.132600
14.925200 2.129700
14.954800 2.095700
14.984500 2.185000
15.014100 2.000700
15.043800 1.903400
15.073400 1.811800
15.103100 1.721100
15.132700 1.628500
15.162400 1.620600
15.192000 1.596600
15.221700 1.566100
15.251300 1.524900
15.281000 1.441200
15.310600 1.398100
15.340200 1.405000
15.369900 1.420000
15.399500 1.365900
15.429200 1.349000
15.458800 1.354700
15.488500 1.373000
15.518100 1.370700
15.547800 1.548700
15.577400 1.745900
15.607100 1.958700
15.636700 1.941500
15.666400 1.960700
15.696000 2.087000
15.725700 2.185900
15.755300 2.309500
15.785000 2.357600
15.814600 2.349100
15.844300 2.295600
15.873900 2.430400
15.903600 2.086200
15.933200 2.161700
15.962900 2.368300
15.992500 3.008700
16.022200 3.612500
16.051800 3.453600
16.081500 3.409800
16.111100 4.002500
16.140800 4.994600
16.170400 4.950600
16.200000 4.715200
16.229700 4.200000
16.259300 3.881900
16.289000 3.669300
16.318600 3.495800
16.348300 3.333200
16.377900 3.164600
16.407600 2.973800
16.437200 2.753700
16.466900 2.546800
16.496500 2.370100
16.526200 2.220700
16.555800 2.148500
16.585500 2.199600
16.615100 2.264600
16.644800 2.310100
16.674400 2.340200
16.704100 2.320300
16.733700 2.317500
16.763400 2.439800
16.793000 2.588500
16.822700 2.664100
16.852300 2.744600
16.882000 2.837300
16.911600 2.994500
16.941300 3.243900
16.970900 3.410500
17.000600 3.501800
17.030200 3.692300
17.059900 3.902800
17.089500 3.722200
17.119100 3.502600
17.148800 3.268700
17.178400 3.057500
17.208100 2.900800
17.237700 2.741600
17.267400 2.642900
17.297000 2.547800
17.326700 2.470000
17.356300 2.669100
17.386000 3.000100
17.415600 3.147800
17.445300 3.687100
17.474900 3.936500
17.504600 4.032300
17.534200 4.151800
17.563900 4.385500
17.593500 4.535800
17.623200 4.807100
17.652800 5.635200
17.682500 6.363300
17.712100 5.812300
17.741800 5.340900
17.771400 5.108100
17.801100 4.181700
17.830700 3.701200
17.860400 3.494100
17.890000 3.508800
17.919700 3.683600
17.949300 3.978100
17.979000 4.319100
18.008600 5.171900
18.038200 5.538900
18.067900 5.181500
18.097500 4.834000
18.127200 4.511500
18.156800 3.892400
18.186500 3.305900
18.216100 3.222500
18.245800 3.224600
18.275400 4.298300
18.305100 5.537100
18.334700 7.498500
18.364400 6.249600
18.394000 4.795800
18.423700 3.641400
18.453300 3.328000
18.483000 3.370100
18.512600 3.457800
18.542300 3.314900
18.571900 3.041500
18.601600 2.927700
18.631200 3.093500
18.660900 3.420200
18.690500 3.606800
18.720200 3.790000
18.749800 4.083100
18.779500 4.355300
18.809100 4.558500
18.838800 4.716400
18.868400 4.707600
18.898100 4.674200
18.927700 4.698600
18.957300 5.378300
18.987000 6.339600
19.016600 5.653900
19.046300 4.393000
19.075900 3.806400
19.105600 3.721500
19.135200 3.653700
19.164900 3.665600
19.194500 4.034600
19.224200 4.478000
19.253800 4.931400
19.283500 5.067200
19.313100 4.901800
19.342800 4.412600
19.372400 3.762400
19.402100 3.570500
19.431700 3.551100
19.461400 3.488900
19.491000 3.691700
19.520700 4.069500
19.550300 4.407900
19.580000 4.299000
19.609600 4.429000
19.639300 3.912200
19.668900 4.080900
19.698600 3.912400
19.728200 4.036500
19.757900 4.242700
19.787500 3.971600
19.817200 3.981200
19.846800 3.924300
19.876400 3.922600
19.906100 3.627200
19.935700 3.534100
19.965400 3.489500
19.995000 3.531300
20.024700 3.675300
20.054300 3.459700
20.084000 3.312600
20.113600 3.323000
20.143300 3.187200
20.172900 3.211900
20.202600 3.462800
20.232200 3.884700
20.261900 4.352200
20.291500 4.341000
20.321200 3.795600
20.350800 3.560500
20.380500 3.585600
20.410100 3.859400
20.439800 3.792700
20.469400 3.609900
20.499100 3.402800
20.528700 3.222300
20.558400 3.108700
20.588000 2.955800
20.617700 3.095800
20.647300 3.973400
20.677000 3.856200
20.706600 3.820800
20.736200 3.859000
20.765900 4.021400
20.795500 4.181600
20.825200 4.076000
20.854800 4.257800
20.884500 4.546100
20.914100 4.650900
20.943800 4.347500
20.973400 3.806500
21.003100 3.721000
21.032700 3.632600
21.062400 3.708400
21.092000 3.784100
21.121700 3.970600
21.151300 3.923900
21.181000 3.849200
21.210600 3.791600
21.240300 3.736300
21.269900 3.598200
21.299600 3.351400
21.329200 3.133000
21.358900 2.995100
21.388500 2.918000
21.418200 2.813300
21.447800 2.727300
21.477500 2.699700
21.507100 2.687400
21.536800 2.720900
21.566400 2.760600
21.596100 2.818500
21.625700 2.896200
21.655300 3.000100
21.685000 3.129500
21.714600 3.187700
21.744300 3.212600
21.773900 3.219500
21.803600 3.276000
21.833200 3.379300
21.862900 3.506300
21.892500 3.594400
21.922200 3.744100
21.951800 3.919500
21.981500 4.146400
22.011100 4.287400
22.040800 4.169200
22.070400 3.936100
22.100100 4.019400
22.129700 4.138400
22.159400 4.071800
22.189000 4.099500
22.218700 4.108300
22.248300 4.115300
22.278000 4.119300
22.307600 4.143000
22.337300 4.316400
22.366900 4.480900
22.396600 4.498200
22.426200 4.205800
22.455900 4.045300
22.485500 3.944300
22.515200 3.898900
22.544800 3.795000
22.574400 3.702000
22.604100 3.632500
22.633700 3.581600
22.663400 3.631300
22.693000 3.500200
22.722700 3.486200
22.752300 3.495600
22.782000 3.525000
22.811600 3.665200
22.841300 3.703300
22.870900 3.730400
22.900600 3.751400
22.930200 3.773000
22.959900 3.814900
22.989500 3.894000
23.019200 4.033500
23.048800 4.280400
23.078500 4.249900
23.108100 4.120400
23.137800 4.027800
23.167400 3.915200
23.197100 3.935500
23.226700 3.777200
23.256400 3.684600
23.286000 3.570200
23.315700 3.428700
23.345300 3.341600
23.375000 3.312600
23.404600 3.345700
23.434300 3.402700
23.463900 3.412300
23.493500 3.470700
23.523200 3.507300
23.552800 3.582200
23.582500 3.631500
23.612100 3.652900
23.641800 3.539000
23.671400 3.521300
23.701100 3.379500
23.730700 3.333000
23.760400 3.362100
23.790000 3.380100
23.819700 3.646600
23.849300 3.705000
23.879000 3.993400
23.908600 4.146600
23.938300 4.289500
23.967900 4.639000
23.997600 4.644800
24.027200 3.993900
24.056900 3.642800
24.086500 3.601400
24.116200 3.601500
24.145800 3.753400
24.175500 3.860800
24.205100 3.900300
24.234800 4.090700
24.264400 4.481400
24.294100 5.024700
24.323700 5.328600
24.353300 5.533800
24.383000 5.566000
24.412600 5.422600
24.442300 4.868200
24.471900 4.407200
24.501600 4.152100
24.531200 3.998500
24.560900 3.799200
24.590500 3.766200
24.620200 3.675800
24.649800 3.550500
24.679500 3.595900
24.709100 3.953300
24.738800 3.902100
24.768400 3.560400
24.798100 3.477900
24.827700 3.348700
24.857400 3.311600
24.887000 3.426900
24.916700 3.465400
24.946300 3.851100
24.976000 3.805300
25.005600 3.909200
25.035300 3.999600
25.064900 3.911400
25.094600 3.902400
25.124200 3.952600
25.153900 3.946100
25.183500 3.934600
25.213200 3.999300
25.242800 4.238700
25.272400 4.584900
25.302100 4.564800
25.331700 4.604100
25.361400 4.751700
25.391000 4.743300
25.420700 4.383000
25.450300 3.978500
25.480000 3.820700
25.509600 3.858700
25.539300 3.748800
25.568900 3.571800
25.598600 3.639900
25.628200 3.240300
25.657900 2.875900
25.687500 2.608100
25.717200 2.389500
25.746800 2.310000
25.776500 2.284200
25.806100 2.235400
25.835800 2.402100
25.865400 2.285500
25.895100 2.265800
25.924700 2.230100
25.954400 2.158300
25.984000 2.055100
26.013700 1.990300
26.043300 1.934300
26.073000 1.820700
26.102600 1.694800
26.132300 1.298900
26.161900 0.968600
26.191500 0.700900
26.221200 0.296900
26.250800 0.118400
26.280500 0.027100
26.310100 0.007700
26.339800 0.000600
26.369400 0.000000
26.399100 0.000000
26.428700 0.000000
26.458400 0.000000
26.488000 0.000000
26.517700 0.000000
26.547300 0.000000
26.577000 0.000000
26.606600 0.000000
26.636300 0.000000
26.665900 0.000000
26.695600 0.000000
26.725200 0.000000
26.754900 0.000000
26.784500 0.000000
26.814200 0.000000
26.843800 0.000000
26.873500 0.000000
26.903100 0.000000
26.932800 0.000000
26.962400 0.000000
26.992100 0.000000
27.021700 0.000000
27.051400 0.000000
27.081000 0.000000
27.110600 0.000000
27.140300 0.000000
27.169900 0.000000
27.199600 0.000000
27.229200 0.000000
27.258900 0.000000
27.288500 0.000000
27.318200 0.000000
27.347800 0.000000
27.377500 0.000000
27.407100 0.000000
27.436800 0.000000
27.466400 0.000000
27.496100 0.000000
27.525700 0.000000
27.555400 0.000000
27.585000 0.000000
27.614700 0.000000
27.644300 0.000000
27.674000 0.000000
27.703600 0.000000
27.733300 0.000000
27.762900 0.000000
27.792600 0.000000
27.822200 0.000000
27.851900 0.000000
27.881500 0.000000
27.911200 0.000000
27.940800 0.000000
27.970400 0.000000
28.000100 0.000000
28.029700 0.000000
28.059400 0.000000
28.089000 0.000000
28.118700 0.000000
28.148300 0.000000
28.178000 0.000000
28.207600 0.000000
28.237300 0.000000
28.266900 0.000000
28.296600 0.000000
28.326200 0.000000
28.355900 0.000000
28.385500 0.000000
28.415200 0.000000
28.444800 0.000000
28.474500 0.000000
28.504100 0.000000
28.533800 0.000000
28.563400 0.000000
28.593100 0.000000
28.622700 0.000000
28.652400 0.000000
28.682000 0.000000
28.711700 0.000000
28.741300 0.000000
28.771000 0.000000
28.800600 0.000000
28.830300 0.000000
28.859900 0.000000
28.889500 0.000000
28.919200 0.000000
28.948800 0.000000
28.978500 0.000000
29.008100 0.000000
29.037800 0.000000
e
