set title 'mp-1184272 - Density of States'
set xlabel 'Energy (eV)'
set ylabel 'DOS (states/eV)'
set grid
set xrange [-10:10]
set yrange [0:8.872]
set xzeroaxis lt -1
set terminal png size 800,600
set output 'mp-1184272_dos_gnuplot.png'
plot '-' using 1:2 with lines title 'DOS'
-54.397600 0.000000
-54.340800 0.000000
-54.284000 0.000000
-54.227200 0.000000
-54.170400 0.000000
-54.113500 0.000000
-54.056700 0.000000
-53.999900 0.000000
-53.943100 0.000000
-53.886300 0.000000
-53.829500 0.000000
-53.772700 0.000000
-53.715800 0.000000
-53.659000 0.000000
-53.602200 0.000000
-53.545400 0.000000
-53.488600 0.000000
-53.431800 0.000000
-53.375000 0.000000
-53.318100 0.000000
-53.261300 0.000000
-53.204500 0.000000
-53.147700 0.000000
-53.090900 0.000000
-53.034100 0.000000
-52.977300 0.000000
-52.920400 0.000000
-52.863600 0.000000
-52.806800 0.000000
-52.750000 0.000000
-52.693200 0.000000
-52.636400 0.000000
-52.579600 0.000000
-52.522700 0.000000
-52.465900 0.000000
-52.409100 0.000000
-52.352300 0.000000
-52.295500 0.000000
-52.238700 0.000000
-52.181900 0.000000
-52.125000 0.000000
-52.068200 0.000000
-52.011400 0.000000
-51.954600 0.000000
-51.897800 0.000000
-51.841000 0.000000
-51.784200 0.000000
-51.727300 0.000000
-51.670500 0.000000
-51.613700 0.000000
-51.556900 0.000000
-51.500100 0.000000
-51.443300 0.000000
-51.386500 0.000000
-51.329600 0.000000
-51.272800 0.000000
-51.216000 0.000000
-51.159200 0.000000
-51.102400 0.000000
-51.045600 0.000000
-50.988800 0.000000
-50.931900 0.000000
-50.875100 0.000000
-50.818300 0.000000
-50.761500 0.000000
-50.704700 0.000000
-50.647900 0.000000
-50.591100 0.000000
-50.534200 0.000000
-50.477400 0.000000
-50.420600 0.000000
-50.363800 0.000000
-50.307000 0.000000
-50.250200 0.000000
-50.193400 0.000000
-50.136500 0.000000
-50.079700 0.000000
-50.022900 0.000000
-49.966100 0.000000
-49.909300 0.000000
-49.852500 0.000000
-49.795700 0.000000
-49.738800 0.000000
-49.682000 0.000000
-49.625200 0.000000
-49.568400 0.000000
-49.511600 0.000000
-49.454800 0.000000
-49.398000 0.000000
-49.341100 0.000000
-49.284300 0.000000
-49.227500 22.711800
-49.170700 0.000000
-49.113900 62.985200
-49.057100 27.764600
-49.000300 6.975400
-48.943400 47.778300
-48.886600 0.000000
-48.829800 0.000000
-48.773000 0.000000
-48.716200 290.001200
-48.659400 0.000000
-48.602600 0.000000
-48.545700 0.000000
-48.488900 0.000000
-48.432100 0.000000
-48.375300 0.000000
-48.318500 0.000000
-48.261700 0.000000
-48.204900 0.000000
-48.148000 0.000000
-48.091200 0.000000
-48.034400 0.000000
-47.977600 0.000000
-47.920800 0.000000
-47.864000 0.000000
-47.807200 0.000000
-47.750300 0.000000
-47.693500 0.000000
-47.636700 0.000000
-47.579900 0.000000
-47.523100 0.000000
-47.466300 0.000000
-47.409500 0.000000
-47.352600 0.000000
-47.295800 0.000000
-47.239000 0.000000
-47.182200 0.000000
-47.125400 0.000000
-47.068600 0.000000
-47.011800 0.000000
-46.954900 0.000000
-46.898100 0.000000
-46.841300 0.000000
-46.784500 0.000000
-46.727700 0.000000
-46.670900 0.000000
-46.614100 0.000000
-46.557300 0.000000
-46.500400 0.000000
-46.443600 0.000000
-46.386800 0.000000
-46.330000 0.000000
-46.273200 0.000000
-46.216400 0.000000
-46.159600 0.000000
-46.102700 0.000000
-46.045900 0.000000
-45.989100 0.000000
-45.932300 0.000000
-45.875500 0.000000
-45.818700 0.000000
-45.761900 0.000000
-45.705000 0.000000
-45.648200 0.000000
-45.591400 0.000000
-45.534600 0.000000
-45.477800 0.000000
-45.421000 0.000000
-45.364200 0.000000
-45.307300 0.000000
-45.250500 0.000000
-45.193700 0.000000
-45.136900 0.000000
-45.080100 0.000000
-45.023300 0.000000
-44.966500 0.000000
-44.909600 0.000000
-44.852800 0.000000
-44.796000 0.000000
-44.739200 0.000000
-44.682400 0.000000
-44.625600 0.000000
-44.568800 0.000000
-44.511900 0.000000
-44.455100 0.000000
-44.398300 0.000000
-44.341500 0.000000
-44.284700 0.000000
-44.227900 0.000000
-44.171100 0.000000
-44.114200 0.000000
-44.057400 0.000000
-44.000600 0.000000
-43.943800 0.000000
-43.887000 0.000000
-43.830200 0.000000
-43.773400 0.000000
-43.716500 0.000000
-43.659700 0.000000
-43.602900 0.000000
-43.546100 0.000000
-43.489300 0.000000
-43.432500 0.000000
-43.375700 0.000000
-43.318800 0.000000
-43.262000 0.000000
-43.205200 0.000000
-43.148400 0.000000
-43.091600 0.000000
-43.034800 0.000000
-42.978000 0.000000
-42.921100 0.000000
-42.864300 0.000000
-42.807500 0.000000
-42.750700 0.000000
-42.693900 0.000000
-42.637100 0.000000
-42.580300 0.000000
-42.523400 0.000000
-42.466600 0.000000
-42.409800 0.000000
-42.353000 0.000000
-42.296200 0.000000
-42.239400 0.000000
-42.182600 0.000000
-42.125700 0.000000
-42.068900 0.000000
-42.012100 0.000000
-41.955300 0.000000
-41.898500 0.000000
-41.841700 0.000000
-41.784900 0.000000
-41.728000 0.000000
-41.671200 0.000000
-41.614400 0.000000
-41.557600 0.000000
-41.500800 0.000000
-41.444000 0.000000
-41.387200 0.000000
-41.330300 0.000000
-41.273500 0.000000
-41.216700 0.000000
-41.159900 0.000000
-41.103100 0.000000
-41.046300 0.000000
-40.989500 0.000000
-40.932600 0.000000
-40.875800 0.000000
-40.819000 0.000000
-40.762200 0.000000
-40.705400 0.000000
-40.648600 0.000000
-40.591800 0.000000
-40.534900 0.000000
-40.478100 0.000000
-40.421300 0.000000
-40.364500 0.000000
-40.307700 0.000000
-40.250900 0.000000
-40.194100 0.000000
-40.137200 0.000000
-40.080400 0.000000
-40.023600 0.000000
-39.966800 0.000000
-39.910000 0.000000
-39.853200 0.000000
-39.796400 0.000000
-39.739500 0.000000
-39.682700 0.000000
-39.625900 0.000000
-39.569100 0.000000
-39.512300 0.000000
-39.455500 0.000000
-39.398700 0.000000
-39.341800 0.000000
-39.285000 0.000000
-39.228200 0.000000
-39.171400 0.000000
-39.114600 0.000000
-39.057800 0.000000
-39.001000 0.000000
-38.944100 0.000000
-38.887300 0.000000
-38.830500 0.000000
-38.773700 0.000000
-38.716900 0.000000
-38.660100 0.000000
-38.603300 0.000000
-38.546400 0.000000
-38.489600 0.000000
-38.432800 0.000000
-38.376000 0.000000
-38.319200 0.000000
-38.262400 0.000000
-38.205600 0.000000
-38.148700 0.000000
-38.091900 0.000000
-38.035100 0.000000
-37.978300 0.000000
-37.921500 0.000000
-37.864700 0.000000
-37.807900 0.000000
-37.751000 0.000000
-37.694200 0.000000
-37.637400 0.000000
-37.580600 0.000000
-37.523800 0.000000
-37.467000 0.000000
-37.410200 0.000000
-37.353300 0.000000
-37.296500 0.000000
-37.239700 0.000000
-37.182900 0.000000
-37.126100 0.000000
-37.069300 0.000000
-37.012500 0.000000
-36.955600 0.000000
-36.898800 0.000000
-36.842000 0.000000
-36.785200 0.000000
-36.728400 0.000000
-36.671600 0.000000
-36.614800 0.000000
-36.557900 0.000000
-36.501100 0.000000
-36.444300 0.000000
-36.387500 0.000000
-36.330700 0.000000
-36.273900 0.000000
-36.217100 0.000000
-36.160200 0.000000
-36.103400 0.000000
-36.046600 0.000000
-35.989800 0.000000
-35.933000 0.000000
-35.876200 0.000000
-35.819400 0.000000
-35.762500 0.000000
-35.705700 0.000000
-35.648900 0.000000
-35.592100 0.000000
-35.535300 0.000000
-35.478500 0.000000
-35.421700 0.000000
-35.364800 0.000000
-35.308000 0.000000
-35.251200 0.000000
-35.194400 0.000000
-35.137600 0.000000
-35.080800 0.000000
-35.024000 0.000000
-34.967100 0.000000
-34.910300 0.000000
-34.853500 0.000000
-34.796700 0.000000
-34.739900 0.000000
-34.683100 0.000000
-34.626300 0.000000
-34.569400 0.000000
-34.512600 0.000000
-34.455800 0.000000
-34.399000 0.000000
-34.342200 0.000000
-34.285400 0.000000
-34.228600 0.000000
-34.171700 0.000000
-34.114900 0.000000
-34.058100 0.000000
-34.001300 0.000000
-33.944500 0.000000
-33.887700 0.000000
-33.830900 0.000000
-33.774000 0.000000
-33.717200 0.000000
-33.660400 0.000000
-33.603600 0.000000
-33.546800 0.000000
-33.490000 0.000000
-33.433200 0.000000
-33.376300 0.000000
-33.319500 0.000000
-33.262700 0.000000
-33.205900 0.000000
-33.149100 0.000000
-33.092300 0.000000
-33.035500 0.000000
-32.978600 0.000000
-32.921800 0.000000
-32.865000 0.000000
-32.808200 0.000000
-32.751400 0.000000
-32.694600 0.000000
-32.637800 0.000000
-32.580900 0.000000
-32.524100 0.000000
-32.467300 0.000000
-32.410500 0.000000
-32.353700 0.000000
-32.296900 0.000000
-32.240100 0.000000
-32.183200 0.000000
-32.126400 0.000000
-32.069600 0.000000
-32.012800 0.000000
-31.956000 0.000000
-31.899200 0.000000
-31.842400 0.000000
-31.785500 0.000000
-31.728700 0.000000
-31.671900 0.000000
-31.615100 0.000000
-31.558300 0.000000
-31.501500 0.000000
-31.444700 0.000000
-31.387800 0.000000
-31.331000 0.000000
-31.274200 0.000000
-31.217400 0.000000
-31.160600 0.000000
-31.103800 0.000000
-31.047000 0.000000
-30.990100 0.000000
-30.933300 0.000000
-30.876500 0.000000
-30.819700 0.000000
-30.762900 0.000000
-30.706100 0.000000
-30.649300 0.000000
-30.592400 0.000000
-30.535600 0.000000
-30.478800 0.000000
-30.422000 0.000000
-30.365200 0.000000
-30.308400 0.000000
-30.251600 0.000000
-30.194700 0.000000
-30.137900 0.000000
-30.081100 0.000000
-30.024300 0.000000
-29.967500 0.000000
-29.910700 0.000000
-29.853900 0.000000
-29.797000 0.000000
-29.740200 0.000000
-29.683400 0.000000
-29.626600 0.000000
-29.569800 0.000000
-29.513000 0.000000
-29.456200 0.000000
-29.399300 0.000000
-29.342500 0.000000
-29.285700 0.000000
-29.228900 0.000000
-29.172100 0.000000
-29.115300 0.000000
-29.058500 0.000000
-29.001600 0.000000
-28.944800 0.000000
-28.888000 0.000000
-28.831200 0.000000
-28.774400 0.000000
-28.717600 0.000000
-28.660800 0.000000
-28.603900 0.000000
-28.547100 0.000000
-28.490300 0.000000
-28.433500 0.000000
-28.376700 0.000000
-28.319900 0.000000
-28.263100 0.000000
-28.206200 0.000000
-28.149400 0.000000
-28.092600 0.000000
-28.035800 0.000000
-27.979000 0.000000
-27.922200 0.000000
-27.865400 0.000000
-27.808500 0.000000
-27.751700 0.000000
-27.694900 0.000000
-27.638100 0.000000
-27.581300 0.000000
-27.524500 0.000000
-27.467700 0.000000
-27.410800 0.000000
-27.354000 0.000000
-27.297200 0.000000
-27.240400 0.000000
-27.183600 0.000000
-27.126800 0.000000
-27.070000 0.000000
-27.013100 0.000000
-26.956300 0.000000
-26.899500 0.000000
-26.842700 0.000000
-26.785900 0.000000
-26.729100 0.000000
-26.672300 0.000000
-26.615400 0.000000
-26.558600 0.000000
-26.501800 0.000000
-26.445000 0.000000
-26.388200 0.000000
-26.331400 0.000000
-26.274600 0.000000
-26.217700 0.000000
-26.160900 0.000000
-26.104100 0.000000
-26.047300 0.000000
-25.990500 0.000000
-25.933700 0.000000
-25.876900 0.000000
-25.820000 0.000000
-25.763200 0.000000
-25.706400 0.000000
-25.649600 0.000000
-25.592800 0.000000
-25.536000 0.000000
-25.479200 0.000000
-25.422300 0.000000
-25.365500 0.000000
-25.308700 0.000000
-25.251900 0.000000
-25.195100 0.000000
-25.138300 0.000000
-25.081500 0.000000
-25.024600 0.000000
-24.967800 0.000000
-24.911000 0.000000
-24.854200 0.000000
-24.797400 0.000000
-24.740600 0.000000
-24.683800 0.000000
-24.626900 0.000000
-24.570100 0.000000
-24.513300 0.000000
-24.456500 0.000000
-24.399700 0.000000
-24.342900 0.000000
-24.286100 0.000000
-24.229200 0.000000
-24.172400 0.000000
-24.115600 0.000000
-24.058800 0.000000
-24.002000 0.000000
-23.945200 0.000000
-23.888400 0.000000
-23.831500 0.000000
-23.774700 0.000000
-23.717900 0.000000
-23.661100 0.000000
-23.604300 0.000000
-23.547500 0.000000
-23.490700 0.000000
-23.433800 0.000000
-23.377000 0.000000
-23.320200 0.000000
-23.263400 0.000000
-23.206600 0.000000
-23.149800 0.000000
-23.093000 0.000000
-23.036100 0.000000
-22.979300 0.000000
-22.922500 0.000000
-22.865700 0.000000
-22.808900 0.000000
-22.752100 0.000000
-22.695300 0.000000
-22.638400 0.000000
-22.581600 0.000000
-22.524800 0.000000
-22.468000 0.000000
-22.411200 0.000000
-22.354400 0.000000
-22.297600 0.000000
-22.240700 0.000000
-22.183900 0.000000
-22.127100 0.000000
-22.070300 0.000000
-22.013500 0.000000
-21.956700 0.000000
-21.899900 0.000000
-21.843000 0.000000
-21.786200 0.000000
-21.729400 0.000000
-21.672600 0.000000
-21.615800 0.000000
-21.559000 0.000000
-21.502200 0.000000
-21.445300 0.000000
-21.388500 0.000000
-21.331700 0.000000
-21.274900 0.000000
-21.218100 0.000000
-21.161300 0.000000
-21.104500 0.000000
-21.047600 0.000000
-20.990800 0.000000
-20.934000 0.000000
-20.877200 0.000000
-20.820400 0.000000
-20.763600 0.000000
-20.706800 0.000000
-20.649900 0.000000
-20.593100 0.000000
-20.536300 0.000000
-20.479500 0.000000
-20.422700 0.000000
-20.365900 0.000000
-20.309100 0.000000
-20.252200 0.000000
-20.195400 0.000000
-20.138600 0.000000
-20.081800 0.000000
-20.025000 0.000000
-19.968200 0.000000
-19.911400 0.000000
-19.854500 0.000000
-19.797700 0.000000
-19.740900 0.000000
-19.684100 0.000000
-19.627300 0.000000
-19.570500 0.000000
-19.513700 0.000000
-19.456800 0.000000
-19.400000 0.000000
-19.343200 0.000000
-19.286400 0.000000
-19.229600 0.000000
-19.172800 0.000000
-19.116000 0.000000
-19.059100 0.000000
-19.002300 0.000000
-18.945500 0.000000
-18.888700 0.000000
-18.831900 0.000000
-18.775100 0.000000
-18.718300 0.000000
-18.661400 0.000000
-18.604600 0.000000
-18.547800 0.000000
-18.491000 0.000000
-18.434200 0.000000
-18.377400 0.000000
-18.320600 0.000000
-18.263700 0.000000
-18.206900 0.000000
-18.150100 0.000000
-18.093300 0.000000
-18.036500 0.000000
-17.979700 0.000000
-17.922900 0.000000
-17.866000 0.000000
-17.809200 0.000000
-17.752400 0.000000
-17.695600 0.000000
-17.638800 0.000000
-17.582000 0.000000
-17.525200 0.000000
-17.468300 0.000000
-17.411500 0.000000
-17.354700 0.000000
-17.297900 0.000000
-17.241100 0.000000
-17.184300 0.000000
-17.127500 0.000000
-17.070600 0.000000
-17.013800 0.000000
-16.957000 0.000000
-16.900200 0.000000
-16.843400 0.000000
-16.786600 0.000000
-16.729800 0.000000
-16.672900 0.000000
-16.616100 0.000000
-16.559300 0.000000
-16.502500 0.000000
-16.445700 0.000000
-16.388900 0.000000
-16.332100 0.000000
-16.275200 0.000000
-16.218400 0.000000
-16.161600 0.000000
-16.104800 0.000000
-16.048000 0.000000
-15.991200 0.000000
-15.934400 0.000000
-15.877500 0.000000
-15.820700 0.000000
-15.763900 0.000000
-15.707100 0.000000
-15.650300 0.000000
-15.593500 0.000000
-15.536700 0.000000
-15.479800 0.000000
-15.423000 0.000000
-15.366200 0.000000
-15.309400 0.000000
-15.252600 0.000000
-15.195800 0.000000
-15.139000 0.000000
-15.082100 0.000000
-15.025300 0.000000
-14.968500 0.000000
-14.911700 0.000000
-14.854900 0.000000
-14.798100 0.000000
-14.741300 0.000000
-14.684400 0.000000
-14.627600 0.000000
-14.570800 0.000000
-14.514000 0.000000
-14.457200 0.000000
-14.400400 0.000000
-14.343600 0.000000
-14.286700 0.000000
-14.229900 0.000000
-14.173100 0.000000
-14.116300 0.000000
-14.059500 0.000000
-14.002700 0.000000
-13.945900 0.000000
-13.889000 0.000000
-13.832200 0.000000
-13.775400 0.000000
-13.718600 0.000000
-13.661800 0.000000
-13.605000 0.000000
-13.548200 0.000000
-13.491300 0.000000
-13.434500 0.000000
-13.377700 0.000000
-13.320900 0.000000
-13.264100 0.000000
-13.207300 0.000000
-13.150500 0.000000
-13.093600 0.000000
-13.036800 0.000000
-12.980000 0.000000
-12.923200 0.000000
-12.866400 0.000000
-12.809600 0.000000
-12.752800 0.000000
-12.695900 0.000000
-12.639100 0.000000
-12.582300 0.000000
-12.525500 0.000000
-12.468700 0.000000
-12.411900 0.000000
-12.355100 0.000000
-12.298200 0.000000
-12.241400 0.000000
-12.184600 0.000000
-12.127800 0.000000
-12.071000 0.000000
-12.014200 0.000000
-11.957400 0.000000
-11.900500 0.000000
-11.843700 0.000000
-11.786900 0.000000
-11.730100 0.000000
-11.673300 0.000000
-11.616500 0.000000
-11.559700 0.000000
-11.502800 0.000000
-11.446000 0.000000
-11.389200 0.000000
-11.332400 0.000000
-11.275600 0.000000
-11.218800 0.000000
-11.162000 0.000000
-11.105100 0.000000
-11.048300 0.000000
-10.991500 0.000000
-10.934700 0.000000
-10.877900 0.000000
-10.821100 0.000000
-10.764300 0.000000
-10.707400 0.000000
-10.650600 0.000000
-10.593800 0.000000
-10.537000 0.000000
-10.480200 0.000000
-10.423400 0.000000
-10.366600 0.000000
-10.309700 0.000000
-10.252900 0.000000
-10.196100 0.000000
-10.139300 0.000000
-10.082500 0.000000
-10.025700 0.000000
-9.968900 0.000000
-9.912000 0.000000
-9.855200 0.000000
-9.798400 0.000000
-9.741600 0.000000
-9.684800 0.000000
-9.628000 0.000000
-9.571200 0.000000
-9.514300 0.000000
-9.457500 0.000000
-9.400700 0.000000
-9.343900 0.000000
-9.287100 0.000000
-9.230300 0.000000
-9.173500 0.000000
-9.116600 0.000000
-9.059800 0.000000
-9.003000 0.000000
-8.946200 0.000000
-8.889400 0.000000
-8.832600 0.000000
-8.775800 0.000000
-8.718900 0.000000
-8.662100 0.000000
-8.605300 0.000000
-8.548500 0.000000
-8.491700 0.000000
-8.434900 0.000000
-8.378100 0.000000
-8.321200 0.000000
-8.264400 0.000000
-8.207600 0.000000
-8.150800 0.000000
-8.094000 0.000000
-8.037200 0.000000
-7.980400 0.000000
-7.923500 0.000000
-7.866700 0.000000
-7.809900 0.000000
-7.753100 0.000000
-7.696300 0.000000
-7.639500 0.000000
-7.582700 0.000000
-7.525800 0.000000
-7.469000 0.000000
-7.412200 0.000000
-7.355400 0.000000
-7.298600 0.000000
-7.241800 0.000000
-7.185000 0.000000
-7.128100 0.000000
-7.071300 0.000000
-7.014500 0.000000
-6.957700 0.000000
-6.900900 0.000000
-6.844100 0.000000
-6.787300 0.000000
-6.730400 0.000000
-6.673600 0.000000
-6.616800 0.000000
-6.560000 0.000000
-6.503200 0.000000
-6.446400 0.000000
-6.389600 0.000000
-6.332700 0.000000
-6.275900 0.000000
-6.219100 0.000000
-6.162300 0.000000
-6.105500 0.000000
-6.048700 0.000000
-5.991900 0.000000
-5.935000 0.000000
-5.878200 0.000000
-5.821400 0.000000
-5.764600 0.000000
-5.707800 0.000000
-5.651000 0.000000
-5.594200 0.000000
-5.537300 0.000000
-5.480500 0.000000
-5.423700 0.000000
-5.366900 0.000000
-5.310100 0.000000
-5.253300 0.000000
-5.196500 0.000000
-5.139600 0.000000
-5.082800 0.000000
-5.026000 0.000000
-4.969200 0.000000
-4.912400 0.000000
-4.855600 0.000000
-4.798800 0.000000
-4.741900 0.000000
-4.685100 0.000000
-4.628300 0.000000
-4.571500 0.000000
-4.514700 0.000000
-4.457900 0.000000
-4.401100 0.000000
-4.344200 0.000000
-4.287400 0.000000
-4.230600 0.000000
-4.173800 0.000000
-4.117000 0.000000
-4.060200 0.000000
-4.003400 0.000000
-3.946500 0.000000
-3.889700 0.000000
-3.832900 0.000000
-3.776100 0.000900
-3.719300 0.027700
-3.662500 0.047500
-3.605700 0.058100
-3.548800 0.069200
-3.492000 0.082400
-3.435200 0.090400
-3.378400 0.097900
-3.321600 0.105700
-3.264800 0.112600
-3.208000 0.120600
-3.151100 0.129800
-3.094300 0.138000
-3.037500 0.144600
-2.980700 0.150700
-2.923900 0.157500
-2.867100 0.164500
-2.810300 0.172700
-2.753400 0.181200
-2.696600 0.190100
-2.639800 0.198400
-2.583000 0.206100
-2.526200 0.214300
-2.469400 0.223400
-2.412600 0.233300
-2.355700 0.243600
-2.298900 0.254400
-2.242100 0.266800
-2.185300 0.280400
-2.128500 0.295700
-2.071700 0.317100
-2.014900 0.342400
-1.958000 0.353900
-1.901200 0.366400
-1.844400 0.384400
-1.787600 0.398200
-1.730800 0.412700
-1.674000 0.433300
-1.617200 0.459400
-1.560400 0.496500
-1.503500 0.546900
-1.446700 0.649700
-1.389900 0.719900
-1.333100 0.732400
-1.276300 0.863200
-1.219500 0.943900
-1.162700 0.985500
-1.105800 1.072700
-1.049000 2.461300
-0.992200 1.534500
-0.935400 1.037400
-0.878600 1.234600
-0.821800 2.059200
-0.765000 2.445900
-0.708100 3.921400
-0.651300 3.280800
-0.594500 4.279100
-0.537700 4.328000
-0.480900 4.455000
-0.424100 3.693000
-0.367300 4.521600
-0.310400 3.433300
-0.253600 4.247700
-0.196800 8.065000
-0.140000 7.162900
-0.083200 5.872200
-0.026400 4.334400
0.030400 4.004900
0.087300 1.973200
0.144100 1.386600
0.200900 1.272500
0.257700 1.326600
0.314500 1.371500
0.371300 0.870400
0.428100 0.860100
0.485000 0.895200
0.541800 0.948800
0.598600 1.016300
0.655400 1.415700
0.712200 1.371300
0.769000 0.686900
0.825800 0.381000
0.882700 0.275100
0.939500 0.313800
0.996300 0.517300
1.053100 1.033300
1.109900 1.445300
1.166700 1.746000
1.223500 1.842700
1.280400 1.671100
1.337200 1.609400
1.394000 1.128200
1.450800 0.966700
1.507600 0.792300
1.564400 0.681000
1.621200 0.485100
1.678100 0.466100
1.734900 0.784900
1.791700 1.038000
1.848500 1.845600
1.905300 2.969500
1.962100 3.832300
2.018900 5.244000
2.075800 4.802600
2.132600 4.754700
2.189400 4.142100
2.246200 4.640700
2.303000 4.963300
2.359800 6.407400
2.416600 6.409400
2.473500 7.336200
2.530300 5.390600
2.587100 4.419700
2.643900 5.582700
2.700700 5.155200
2.757500 6.636000
2.814300 5.783600
2.871200 4.891200
2.928000 5.251700
2.984800 5.164800
3.041600 5.103800
3.098400 5.475400
3.155200 5.791800
3.212000 4.691000
3.268900 4.154800
3.325700 4.240600
3.382500 4.310800
3.439300 3.974000
3.496100 3.561900
3.552900 4.435700
3.609700 5.623600
3.666600 6.050900
3.723400 4.195200
3.780200 4.955700
3.837000 4.678000
3.893800 5.868800
3.950600 5.511800
4.007400 5.261900
4.064300 4.729100
4.121100 5.557900
4.177900 5.688300
4.234700 5.372000
4.291500 6.481700
4.348300 7.993200
4.405100 5.594200
4.462000 5.099300
4.518800 2.810300
4.575600 1.668600
4.632400 1.376800
4.689200 1.245300
4.746000 1.002500
4.802800 0.718900
4.859700 0.696400
4.916500 0.701700
4.973300 0.693800
5.030100 0.665200
5.086900 0.716700
5.143700 0.676800
5.200500 0.684100
5.257400 0.657200
5.314200 0.631400
5.371000 0.608800
5.427800 0.609700
5.484600 0.626300
5.541400 0.651900
5.598200 0.645300
5.655100 0.644300
5.711900 0.631900
5.768700 0.632300
5.825500 0.606500
5.882300 0.593700
5.939100 0.579300
5.995900 0.565300
6.052800 0.557200
6.109600 0.565900
6.166400 0.564200
6.223200 0.566900
6.280000 0.572100
6.336800 0.577400
6.393600 0.582700
6.450500 0.571500
6.507300 0.564900
6.564100 0.555600
6.620900 0.558600
6.677700 0.549200
6.734500 0.550800
6.791300 0.553000
6.848200 0.555500
6.905000 0.559900
6.961800 0.566100
7.018600 0.566400
7.075400 0.548100
7.132200 0.545100
7.189000 0.541400
7.245900 0.539100
7.302700 0.535800
7.359500 0.535100
7.416300 0.532400
7.473100 0.532400
7.529900 0.533900
7.586700 0.533600
7.643600 0.534000
7.700400 0.536400
7.757200 0.539800
7.814000 0.546800
7.870800 0.551800
7.927600 0.555000
7.984400 0.551000
8.041300 0.542800
8.098100 0.528000
8.154900 0.503300
8.211700 0.476200
8.268500 0.449800
8.325300 0.428000
8.382100 0.411300
8.439000 0.393000
8.495800 0.325800
8.552600 0.293900
8.609400 0.291800
8.666200 0.292600
8.723000 0.294100
8.779800 0.297400
8.836700 0.300100
8.893500 0.308600
8.950300 0.329900
9.007100 0.357600
9.063900 0.375300
9.120700 0.390800
9.177500 0.397100
9.234400 0.399300
9.291200 0.404200
9.348000 0.423800
9.404800 0.470000
9.461600 0.460100
9.518400 0.411400
9.575200 0.386600
9.632100 0.365500
9.688900 0.348100
9.745700 0.330700
9.802500 0.328300
9.859300 0.339200
9.916100 0.364100
9.972900 0.379800
10.029800 0.385400
10.086600 0.611800
10.143400 0.720500
10.200200 0.772000
10.257000 0.712500
10.313800 0.569900
10.370600 0.518800
10.427500 0.477200
10.484300 0.442100
10.541100 0.421300
10.597900 0.407400
10.654700 0.396200
10.711500 0.382700
10.768300 0.369600
10.825200 0.362800
10.882000 0.370200
10.938800 0.397200
10.995600 0.431400
11.052400 0.484700
11.109200 0.583400
11.166000 0.642600
11.222900 0.664900
11.279700 0.661900
11.336500 0.659600
11.393300 0.629900
11.450100 0.627400
11.506900 0.614400
11.563700 0.610400
11.620600 0.607200
11.677400 0.605900
11.734200 0.596600
11.791000 0.596300
11.847800 0.573700
11.904600 0.560600
11.961400 0.556700
12.018300 0.551300
12.075100 0.552200
12.131900 0.555700
12.188700 0.558200
12.245500 0.556100
12.302300 0.556400
12.359100 0.556000
12.416000 0.549000
12.472800 0.545500
12.529600 0.542200
12.586400 0.538900
12.643200 0.534600
12.700000 0.535000
12.756800 0.535500
12.813700 0.529800
12.870500 0.526800
12.927300 0.526900
12.984100 0.535100
13.040900 0.557600
13.097700 0.545600
13.154500 0.550800
13.211400 0.555200
13.268200 0.577100
13.325000 0.594200
13.381800 0.610000
13.438600 0.621400
13.495400 0.630900
13.552200 0.644400
13.609100 0.662700
13.665900 0.682800
13.722700 0.693100
13.779500 0.697000
13.836300 0.699100
13.893100 0.708500
13.949900 0.727200
14.006800 0.745400
14.063600 0.763700
14.120400 0.785100
14.177200 0.798200
14.234000 0.818800
14.290800 0.818600
14.347600 0.817800
14.404500 0.817500
14.461300 0.804400
14.518100 0.789200
14.574900 0.789100
14.631700 0.795600
14.688500 0.771300
14.745300 0.742800
14.802200 0.737800
14.859000 0.748300
14.915800 0.762900
14.972600 0.789200
15.029400 0.795000
15.086200 0.797900
15.143000 0.813100
15.199900 0.833800
15.256700 0.921100
15.313500 0.884900
15.370300 0.840800
15.427100 0.824800
15.483900 0.822700
15.540700 0.827200
15.597600 0.856000
15.654400 0.854400
15.711200 0.830700
15.768000 0.792300
15.824800 0.762200
15.881600 0.757300
15.938400 0.786700
15.995300 0.811000
16.052100 0.804800
16.108900 0.795200
16.165700 0.791300
16.222500 0.801200
16.279300 0.815200
16.336100 0.847200
16.393000 0.870700
16.449800 0.882100
16.506600 0.859100
16.563400 0.827100
16.620200 0.809500
16.677000 0.815600
16.733800 0.842900
16.790700 0.857400
16.847500 0.856400
16.904300 0.874100
16.961100 0.869400
17.017900 0.887900
17.074700 0.926400
17.131500 0.998200
17.188400 0.977300
17.245200 0.965800
17.302000 0.969500
17.358800 1.003500
17.415600 1.025600
17.472400 1.018500
17.529200 1.050600
17.586100 1.063200
17.642900 1.064600
17.699700 1.023400
17.756500 1.007700
17.813300 0.993900
17.870100 0.953300
17.926900 0.938400
17.983800 0.972800
18.040600 1.019000
18.097400 1.051500
18.154200 1.062300
18.211000 1.050400
18.267800 1.025200
18.324600 0.981900
18.381500 0.975900
18.438300 1.011700
18.495100 1.036500
18.551900 1.031400
18.608700 0.982000
18.665500 0.937400
18.722300 0.910900
18.779200 0.927800
18.836000 0.948900
18.892800 0.915000
18.949600 0.874600
19.006400 0.813100
19.063200 0.775200
19.120000 0.743600
19.176900 0.733500
19.233700 0.757500
19.290500 0.798600
19.347300 0.805100
19.404100 0.795500
19.460900 0.792400
19.517700 0.805800
19.574600 0.825000
19.631400 0.822800
19.688200 0.832300
19.745000 0.826800
19.801800 0.830000
19.858600 0.836100
19.915400 0.849400
19.972300 0.869500
20.029100 0.903900
20.085900 0.943500
20.142700 0.970000
20.199500 0.957900
20.256300 0.943100
20.313100 0.933900
20.370000 0.920500
20.426800 0.908000
20.483600 0.883900
20.540400 0.864400
20.597200 0.856000
20.654000 0.851900
20.710800 0.859500
20.767700 0.870300
20.824500 0.874200
20.881300 0.869600
20.938100 0.860400
20.994900 0.835900
21.051700 0.826800
21.108500 0.826000
21.165400 0.889900
21.222200 0.876100
21.279000 0.843900
21.335800 0.842000
21.392600 0.840800
21.449400 0.840600
21.506200 0.859400
21.563100 0.863000
21.619900 0.856700
21.676700 0.839100
21.733500 0.826800
21.790300 0.825300
21.847100 0.824700
21.903900 0.822100
21.960800 0.811600
22.017600 0.794500
22.074400 0.779400
22.131200 0.771500
22.188000 0.761700
22.244800 0.760800
22.301600 0.762500
22.358500 0.788100
22.415300 0.816200
22.472100 0.858100
22.528900 0.794600
22.585700 0.788400
22.642500 0.808800
22.699300 0.780400
22.756200 0.761300
22.813000 0.781400
22.869800 0.796800
22.926600 0.794700
22.983400 0.762700
23.040200 0.748700
23.097000 0.737500
23.153900 0.727400
23.210700 0.731000
23.267500 0.733200
23.324300 0.726200
23.381100 0.757500
23.437900 0.806000
23.494700 0.822500
23.551600 0.851300
23.608400 0.878500
23.665200 0.898300
23.722000 0.883400
23.778800 0.875300
23.835600 0.864000
23.892400 0.827900
23.949300 0.814000
24.006100 0.847900
24.062900 0.884400
24.119700 0.888200
24.176500 0.906800
24.233300 0.964800
24.290100 0.969800
24.347000 1.031700
24.403800 1.106100
24.460600 1.138200
24.517400 1.233200
24.574200 1.315800
24.631000 1.312500
24.687800 1.305800
24.744700 1.356900
24.801500 1.340000
24.858300 1.273900
24.915100 1.319500
24.971900 1.269800
25.028700 1.251700
25.085500 1.199400
25.142400 1.187200
25.199200 1.185400
25.256000 1.200700
25.312800 1.225700
25.369600 1.250000
25.426400 1.286200
25.483200 1.339200
25.540100 1.391200
25.596900 1.346000
25.653700 1.337500
25.710500 1.344200
25.767300 1.377300
25.824100 1.335200
25.880900 1.305700
25.937800 1.265700
25.994600 1.246800
26.051400 1.218300
26.108200 1.190000
26.165000 1.178400
26.221800 1.159500
26.278600 1.177900
26.335500 1.180500
26.392300 1.168500
26.449100 1.162800
26.505900 1.187200
26.562700 1.223900
26.619500 1.139600
26.676300 1.178700
26.733200 1.238500
26.790000 1.259200
26.846800 1.262800
26.903600 1.280500
26.960400 1.252400
27.017200 1.270000
27.074000 1.252700
27.130900 1.208100
27.187700 1.152800
27.244500 1.109200
27.301300 1.073400
27.358100 1.058000
27.414900 0.994100
27.471700 0.994600
27.528600 0.988000
27.585400 0.948200
27.642200 0.918400
27.699000 0.894200
27.755800 0.859200
27.812600 0.840900
27.869400 0.834900
27.926300 0.831300
27.983100 0.823300
28.039900 0.828500
28.096700 0.838900
28.153500 0.849500
28.210300 0.843200
28.267100 0.839400
28.324000 0.847900
28.380800 0.877700
28.437600 0.908400
28.494400 0.914100
28.551200 0.925100
28.608000 0.921600
28.664800 0.966400
28.721700 0.988900
28.778500 0.981100
28.835300 0.953400
28.892100 0.870600
28.948900 0.815700
29.005700 0.774400
29.062500 0.744300
29.119400 0.725000
29.176200 0.704900
29.233000 0.669200
29.289800 0.661700
29.346600 0.621500
29.403400 0.586500
29.460200 0.564500
29.517100 0.549800
29.573900 0.535400
29.630700 0.541300
29.687500 0.554000
29.744300 0.567600
29.801100 0.583900
29.857900 0.610700
29.914800 0.631300
29.971600 0.689900
30.028400 0.752900
30.085200 0.818500
30.142000 0.933700
30.198800 0.944500
30.255600 0.951800
30.312500 0.991100
30.369300 1.032200
30.426100 1.068900
30.482900 1.157100
30.539700 1.208400
30.596500 1.300400
30.653300 1.274900
30.710200 1.224300
30.767000 1.190100
30.823800 1.157300
30.880600 1.128500
30.937400 1.136800
30.994200 1.157200
31.051000 1.219300
31.107900 1.280700
31.164700 1.343700
31.221500 1.420000
31.278300 1.429600
31.335100 1.397800
31.391900 1.332800
31.448700 1.253300
31.505600 1.208700
31.562400 1.155600
31.619200 1.139300
31.676000 1.143700
31.732800 1.100100
31.789600 1.066600
31.846400 1.027100
31.903300 1.034100
31.960100 1.110800
32.016900 1.274100
32.073700 1.124300
32.130500 1.112700
32.187300 1.094800
32.244100 1.050300
32.301000 1.130600
32.357800 1.120500
32.414600 1.097100
32.471400 1.049200
32.528200 1.053100
32.585000 1.052000
32.641800 1.046500
32.698700 1.064700
32.755500 1.083600
32.812300 1.109300
32.869100 1.174000
32.925900 1.207200
32.982700 1.147900
33.039500 1.107500
33.096400 1.112100
33.153200 1.137700
33.210000 1.078300
33.266800 1.036400
33.323600 0.996400
33.380400 0.995200
33.437200 0.997600
33.494100 0.988700
33.550900 0.975800
33.607700 0.963400
33.664500 0.914900
33.721300 0.950200
33.778100 1.042300
33.834900 1.159400
33.891800 1.123600
33.948600 1.143700
34.005400 1.162400
34.062200 1.191900
34.119000 1.241000
34.175800 1.296300
34.232600 1.269500
34.289500 1.386300
34.346300 1.464500
34.403100 1.368600
34.459900 1.393200
34.516700 1.353000
34.573500 1.263700
34.630300 1.166600
34.687200 1.117500
34.744000 1.118200
34.800800 1.164300
34.857600 1.248000
34.914400 1.353400
34.971200 1.409300
35.028000 1.654800
35.084900 1.465500
35.141700 1.444800
35.198500 1.402300
35.255300 1.328100
35.312100 1.235400
35.368900 1.195600
35.425700 1.154400
35.482600 1.122800
35.539400 1.128700
35.596200 1.166500
35.653000 1.152800
35.709800 1.166200
35.766600 1.152700
35.823400 1.161100
35.880300 1.181800
35.937100 1.182200
35.993900 1.160500
36.050700 1.114600
36.107500 1.080700
36.164300 1.058300
36.221100 1.078200
36.278000 1.171300
36.334800 1.252100
36.391600 1.295300
36.448400 1.277400
36.505200 1.255000
36.562000 1.259500
36.618800 1.241500
36.675700 1.215500
36.732500 1.194400
36.789300 1.181400
36.846100 1.153800
36.902900 1.100900
36.959700 1.082600
37.016500 1.132400
37.073400 1.165200
37.130200 1.222300
37.187000 1.240800
37.243800 1.202400
37.300600 1.178900
37.357400 1.162000
37.414200 1.179600
37.471100 1.176200
37.527900 1.169600
37.584700 1.195400
37.641500 1.233500
37.698300 1.248400
37.755100 1.204900
37.811900 1.186200
37.868800 1.179900
37.925600 1.174700
37.982400 1.161600
38.039200 1.179700
38.096000 1.204900
38.152800 1.265600
38.209600 1.251800
38.266500 1.296900
38.323300 1.280500
38.380100 1.286800
38.436900 1.225300
38.493700 1.231500
38.550500 1.195800
38.607300 1.199700
38.664200 1.253400
38.721000 1.171800
38.777800 1.113100
38.834600 1.112000
38.891400 1.150800
38.948200 1.171400
39.005000 1.214000
39.061900 1.293000
39.118700 1.284000
39.175500 1.294500
39.232300 1.267500
39.289100 1.195800
39.345900 1.154400
39.402700 1.081900
39.459600 1.053000
39.516400 1.093900
39.573200 1.189100
39.630000 1.348000
39.686800 1.339200
39.743600 1.367500
39.800400 1.386100
39.857300 1.352900
39.914100 1.352800
39.970900 1.350300
40.027700 1.334800
40.084500 1.308100
40.141300 1.310800
40.198100 1.308300
40.255000 1.298700
40.311800 1.281300
40.368600 1.260800
40.425400 1.356100
40.482200 1.406100
40.539000 1.492300
40.595800 1.472800
40.652700 1.381100
40.709500 1.264400
40.766300 1.221200
40.823100 1.223400
40.879900 1.206500
40.936700 1.240200
40.993500 1.259400
41.050400 1.267900
41.107200 1.286600
41.164000 1.391700
41.220800 1.441100
41.277600 1.495600
41.334400 1.486900
41.391200 1.410400
41.448100 1.387000
41.504900 1.350700
41.561700 1.323600
41.618500 1.319800
41.675300 1.348700
41.732100 1.462400
41.788900 1.509500
41.845800 1.496100
41.902600 1.523300
41.959400 1.560500
42.016200 1.625700
42.073000 1.440100
42.129800 1.360700
42.186600 1.352700
42.243500 1.416300
42.300300 1.433700
42.357100 1.434900
42.413900 1.454000
42.470700 1.462800
42.527500 1.426900
42.584300 1.436300
42.641200 1.440300
42.698000 1.418700
42.754800 1.395900
42.811600 1.380700
42.868400 1.413600
42.925200 1.405400
42.982000 1.400400
43.038800 1.426100
43.095700 1.488000
43.152500 1.615600
43.209300 1.668700
43.266100 1.730500
43.322900 1.729000
43.379700 1.741500
43.436500 1.836100
43.493400 1.926200
43.550200 1.932300
43.607000 1.939400
43.663800 1.898000
43.720600 1.838300
43.777400 1.882200
43.834200 1.948200
43.891100 1.959500
43.947900 2.029700
44.004700 2.110000
44.061500 2.264400
44.118300 2.369700
44.175100 2.439000
44.231900 2.322400
44.288800 2.247100
44.345600 2.506300
44.402400 2.538600
44.459200 2.662300
44.516000 2.861800
44.572800 2.831700
44.629600 2.453300
44.686500 2.811600
44.743300 2.708500
44.800100 2.336200
44.856900 1.966300
44.913700 1.780400
44.970500 1.777300
45.027300 1.884400
45.084200 1.959000
45.141000 2.178400
45.197800 2.134600
45.254600 1.973900
45.311400 1.968200
45.368200 1.899200
45.425000 1.943200
45.481900 2.080700
45.538700 2.109300
45.595500 2.106800
45.652300 2.084500
45.709100 1.954200
45.765900 1.925400
45.822700 1.820100
45.879600 1.643900
45.936400 1.482300
45.993200 1.480400
46.050000 1.526200
46.106800 1.498500
46.163600 1.513900
46.220400 1.583100
46.277300 1.704200
46.334100 1.806200
46.390900 1.641200
46.447700 1.592400
46.504500 1.609800
46.561300 1.519500
46.618100 1.421700
46.675000 1.369900
46.731800 1.330700
46.788600 1.300200
46.845400 1.268100
46.902200 1.384800
46.959000 1.587200
47.015800 1.547500
47.072700 1.502500
47.129500 1.390800
47.186300 1.404600
47.243100 1.419400
47.299900 1.454300
47.356700 1.468500
47.413500 1.472800
47.470400 1.431800
47.527200 1.412200
47.584000 1.362200
47.640800 1.342600
47.697600 1.333700
47.754400 1.311900
47.811200 1.342900
47.868100 1.440100
47.924900 1.483500
47.981700 1.434900
48.038500 1.420900
48.095300 1.455100
48.152100 1.615100
48.208900 1.538000
48.265800 1.350400
48.322600 1.409500
48.379400 1.531000
48.436200 1.703100
48.493000 1.736300
48.549800 1.666400
48.606600 1.600300
48.663500 1.464400
48.720300 1.474100
48.777100 1.466400
48.833900 1.337000
48.890700 1.234500
48.947500 1.121000
49.004300 1.086200
49.061200 1.142500
49.118000 1.237200
49.174800 1.310500
49.231600 1.352100
49.288400 1.375900
49.345200 1.399800
49.402000 1.291400
49.458900 1.184400
49.515700 1.190800
49.572500 1.256700
49.629300 1.412000
49.686100 1.709500
49.742900 1.723600
49.799700 1.704900
49.856600 1.661500
49.913400 1.580300
49.970200 1.477000
50.027000 1.418800
50.083800 1.436600
50.140600 1.498800
50.197400 1.692100
50.254300 1.901200
50.311100 1.901600
50.367900 1.896200
50.424700 1.832200
50.481500 1.764100
50.538300 1.753800
50.595100 1.580200
50.652000 1.460300
50.708800 1.366000
50.765600 1.370300
50.822400 1.340800
50.879200 1.444000
50.936000 1.441800
50.992800 1.432800
51.049700 1.360500
51.106500 1.280700
51.163300 1.200000
51.220100 1.086400
51.276900 1.007000
51.333700 0.902200
51.390500 0.813800
51.447400 0.800000
51.504200 0.833300
51.561000 0.793000
51.617800 0.730600
51.674600 0.619600
51.731400 0.508000
51.788200 0.275300
51.845100 0.115500
51.901900 0.044200
51.958700 0.012700
52.015500 0.000000
52.072300 0.000000
52.129100 0.000000
52.185900 0.000000
52.242800 0.000000
52.299600 0.000000
52.356400 0.000000
52.413200 0.000000
52.470000 0.000000
52.526800 0.000000
52.583600 0.000000
52.640500 0.000000
52.697300 0.000000
52.754100 0.000000
52.810900 0.000000
52.867700 0.000000
52.924500 0.000000
52.981300 0.000000
53.038200 0.000000
53.095000 0.000000
53.151800 0.000000
53.208600 0.000000
53.265400 0.000000
53.322200 0.000000
53.379000 0.000000
53.435900 0.000000
53.492700 0.000000
53.549500 0.000000
53.606300 0.000000
53.663100 0.000000
53.719900 0.000000
53.776700 0.000000
53.833600 0.000000
53.890400 0.000000
53.947200 0.000000
54.004000 0.000000
54.060800 0.000000
54.117600 0.000000
54.174400 0.000000
54.231300 0.000000
54.288100 0.000000
54.344900 0.000000
54.401700 0.000000
54.458500 0.000000
54.515300 0.000000
54.572100 0.000000
54.629000 0.000000
54.685800 0.000000
54.742600 0.000000
54.799400 0.000000
54.856200 0.000000
54.913000 0.000000
54.969800 0.000000
55.026700 0.000000
55.083500 0.000000
55.140300 0.000000
55.197100 0.000000
55.253900 0.000000
55.310700 0.000000
55.367500 0.000000
55.424400 0.000000
55.481200 0.000000
55.538000 0.000000
55.594800 0.000000
55.651600 0.000000
55.708400 0.000000
55.765200 0.000000
55.822100 0.000000
55.878900 0.000000
55.935700 0.000000
55.992500 0.000000
56.049300 0.000000
56.106100 0.000000
56.162900 0.000000
56.219800 0.000000
56.276600 0.000000
56.333400 0.000000
56.390200 0.000000
56.447000 0.000000
56.503800 0.000000
56.560600 0.000000
56.617500 0.000000
56.674300 0.000000
56.731100 0.000000
56.787900 0.000000
56.844700 0.000000
56.901500 0.000000
56.958300 0.000000
57.015200 0.000000
57.072000 0.000000
57.128800 0.000000
57.185600 0.000000
57.242400 0.000000
57.299200 0.000000
57.356000 0.000000
57.412900 0.000000
57.469700 0.000000
57.526500 0.000000
57.583300 0.000000
57.640100 0.000000
57.696900 0.000000
57.753700 0.000000
57.810600 0.000000
57.867400 0.000000
57.924200 0.000000
57.981000 0.000000
58.037800 0.000000
58.094600 0.000000
58.151400 0.000000
58.208300 0.000000
58.265100 0.000000
58.321900 0.000000
58.378700 0.000000
58.435500 0.000000
58.492300 0.000000
58.549100 0.000000
58.606000 0.000000
58.662800 0.000000
58.719600 0.000000
58.776400 0.000000
58.833200 0.000000
58.890000 0.000000
58.946800 0.000000
59.003700 0.000000
59.060500 0.000000
59.117300 0.000000
59.174100 0.000000
59.230900 0.000000
e
