set title 'mp-755175 - Density of States'
set xlabel 'Energy (eV)'
set ylabel 'DOS (states/eV)'
set grid
set xrange [-10:10]
set yrange [0:52.823]
set xzeroaxis lt -1
set terminal png size 800,600
set output 'mp-755175_dos_gnuplot.png'
plot '-' using 1:2 with lines title 'DOS'
-15.935200 0.000000
-15.913300 0.000000
-15.891500 0.000000
-15.869600 0.000000
-15.847700 0.000000
-15.825800 0.000000
-15.804000 0.000000
-15.782100 0.000000
-15.760200 0.000000
-15.738300 0.000000
-15.716400 0.000000
-15.694600 0.000000
-15.672700 0.000000
-15.650800 0.000000
-15.628900 0.000000
-15.607100 0.000000
-15.585200 0.000000
-15.563300 0.000000
-15.541400 0.000000
-15.519600 0.000000
-15.497700 0.000000
-15.475800 0.000000
-15.453900 0.000000
-15.432100 0.000000
-15.410200 0.000000
-15.388300 0.000000
-15.366400 0.000000
-15.344600 0.000000
-15.322700 0.000000
-15.300800 0.000000
-15.278900 0.000000
-15.257100 0.000000
-15.235200 0.000000
-15.213300 0.000000
-15.191400 0.000000
-15.169500 0.000000
-15.147700 0.000000
-15.125800 0.000000
-15.103900 0.000000
-15.082000 0.000000
-15.060200 0.000000
-15.038300 0.000000
-15.016400 0.000000
-14.994500 0.000000
-14.972700 0.000000
-14.950800 0.000000
-14.928900 0.000000
-14.907000 0.000000
-14.885200 0.000000
-14.863300 0.000000
-14.841400 0.000000
-14.819500 0.000000
-14.797700 0.000000
-14.775800 0.000000
-14.753900 0.000000
-14.732000 0.000000
-14.710200 0.000000
-14.688300 0.000000
-14.666400 0.000000
-14.644500 0.000000
-14.622600 0.000000
-14.600800 0.000000
-14.578900 0.000000
-14.557000 0.000000
-14.535100 0.000000
-14.513300 0.000000
-14.491400 0.000000
-14.469500 0.000000
-14.447600 0.000000
-14.425800 0.000000
-14.403900 0.000000
-14.382000 0.000000
-14.360100 0.000000
-14.338300 0.000000
-14.316400 0.000000
-14.294500 0.000000
-14.272600 0.000000
-14.250800 0.000000
-14.228900 0.000000
-14.207000 0.000000
-14.185100 0.000000
-14.163300 0.000000
-14.141400 0.000000
-14.119500 0.000000
-14.097600 0.000000
-14.075700 0.000000
-14.053900 0.000000
-14.032000 0.000000
-14.010100 0.000000
-13.988200 0.000000
-13.966400 0.000000
-13.944500 0.000400
-13.922600 0.058500
-13.900700 0.214900
-13.878900 0.469600
-13.857000 0.921700
-13.835100 1.418400
-13.813200 1.770400
-13.791400 1.907300
-13.769500 1.952300
-13.747600 1.497700
-13.725700 1.546200
-13.703900 1.594600
-13.682000 1.790200
-13.660100 2.097600
-13.638200 2.473100
-13.616300 2.916600
-13.594500 3.428300
-13.572600 3.429700
-13.550700 3.600300
-13.528800 3.692300
-13.507000 3.693200
-13.485100 3.621700
-13.463200 3.537800
-13.441300 3.584900
-13.419500 3.647200
-13.397600 3.736800
-13.375700 3.835300
-13.353800 3.932500
-13.332000 4.001500
-13.310100 4.060500
-13.288200 4.109500
-13.266300 4.148500
-13.244500 4.182700
-13.222600 4.240900
-13.200700 4.311200
-13.178800 4.393700
-13.157000 5.141000
-13.135100 5.941000
-13.113200 6.453800
-13.091300 6.954500
-13.069400 5.767700
-13.047600 4.740300
-13.025700 4.008500
-13.003800 3.731300
-12.981900 3.682500
-12.960100 4.541100
-12.938200 6.165500
-12.916300 5.949200
-12.894400 5.373100
-12.872600 4.910300
-12.850700 4.657900
-12.828800 2.401500
-12.806900 1.434800
-12.785100 0.367700
-12.763200 0.000000
-12.741300 0.000800
-12.719400 0.222900
-12.697600 0.694800
-12.675700 1.155000
-12.653800 1.603500
-12.631900 2.040200
-12.610100 2.491300
-12.588200 3.978000
-12.566300 5.561400
-12.544400 6.797000
-12.522500 14.262600
-12.500700 4.878300
-12.478800 5.251200
-12.456900 6.161400
-12.435000 7.055600
-12.413200 7.933600
-12.391300 7.719600
-12.369400 6.514200
-12.347500 5.990200
-12.325700 5.427700
-12.303800 5.411500
-12.281900 5.693800
-12.260000 6.239800
-12.238200 7.408500
-12.216300 7.319400
-12.194400 7.285400
-12.172500 7.285600
-12.150700 7.344400
-12.128800 7.574900
-12.106900 9.522900
-12.085000 5.573800
-12.063200 6.133500
-12.041300 6.831900
-12.019400 7.187200
-11.997500 7.539300
-11.975600 7.901000
-11.953800 8.908000
-11.931900 9.902700
-11.910000 10.987700
-11.888100 11.634800
-11.866300 12.410900
-11.844400 12.954800
-11.822500 13.083300
-11.800600 12.735600
-11.778800 12.247100
-11.756900 9.701000
-11.735000 7.487600
-11.713100 8.601000
-11.691300 19.282700
-11.669400 22.657400
-11.647500 18.044600
-11.625600 14.172200
-11.603800 11.129400
-11.581900 8.379700
-11.560000 12.676200
-11.538100 16.430600
-11.516300 17.987500
-11.494400 18.155400
-11.472500 16.959500
-11.450600 17.343300
-11.428700 10.157000
-11.406900 2.304400
-11.385000 5.442500
-11.363100 12.096300
-11.341200 22.992700
-11.319400 18.115600
-11.297500 20.205100
-11.275600 32.221700
-11.253700 78.166100
-11.231900 13.602800
-11.210000 24.629900
-11.188100 51.688500
-11.166200 74.395900
-11.144400 27.450600
-11.122500 7.762800
-11.100600 0.000000
-11.078700 0.000000
-11.056900 0.000000
-11.035000 0.000000
-11.013100 0.000000
-10.991200 0.000000
-10.969400 0.000000
-10.947500 0.000000
-10.925600 0.000000
-10.903700 0.000000
-10.881800 0.000000
-10.860000 0.000000
-10.838100 0.000000
-10.816200 0.000000
-10.794300 0.000000
-10.772500 0.000000
-10.750600 0.000000
-10.728700 0.000000
-10.706800 0.000000
-10.685000 0.000000
-10.663100 0.000000
-10.641200 0.000000
-10.619300 0.000000
-10.597500 0.000000
-10.575600 0.000000
-10.553700 0.000000
-10.531800 0.000000
-10.510000 0.000000
-10.488100 0.000000
-10.466200 0.000000
-10.444300 0.000000
-10.422400 0.000000
-10.400600 0.000000
-10.378700 0.000000
-10.356800 0.000000
-10.334900 0.000000
-10.313100 0.000000
-10.291200 0.000000
-10.269300 0.000000
-10.247400 0.000000
-10.225600 0.000000
-10.203700 0.000000
-10.181800 0.000000
-10.159900 0.000000
-10.138100 0.000000
-10.116200 0.000000
-10.094300 0.000000
-10.072400 0.000000
-10.050600 0.000000
-10.028700 0.000000
-10.006800 0.000000
-9.984900 0.000000
-9.963100 0.000000
-9.941200 0.000000
-9.919300 0.000000
-9.897400 0.000000
-9.875500 0.000000
-9.853700 0.000000
-9.831800 0.000000
-9.809900 0.000000
-9.788000 0.000000
-9.766200 0.000000
-9.744300 0.000000
-9.722400 0.000000
-9.700500 0.000000
-9.678700 0.000000
-9.656800 0.000000
-9.634900 0.000000
-9.613000 0.000000
-9.591200 0.000000
-9.569300 0.000000
-9.547400 0.000000
-9.525500 0.000000
-9.503700 0.000000
-9.481800 0.000000
-9.459900 0.000000
-9.438000 0.000000
-9.416200 0.000000
-9.394300 0.000000
-9.372400 0.000000
-9.350500 0.000000
-9.328600 0.000000
-9.306800 0.000000
-9.284900 0.000000
-9.263000 0.000000
-9.241100 0.000000
-9.219300 0.000000
-9.197400 0.000000
-9.175500 0.000000
-9.153600 0.000000
-9.131800 0.000000
-9.109900 0.000000
-9.088000 0.000000
-9.066100 0.000000
-9.044300 0.000000
-9.022400 0.000000
-9.000500 0.000000
-8.978600 0.000000
-8.956800 0.000000
-8.934900 0.000000
-8.913000 0.000000
-8.891100 0.000000
-8.869300 0.000000
-8.847400 0.000000
-8.825500 0.000000
-8.803600 0.000000
-8.781700 0.000000
-8.759900 0.000000
-8.738000 0.000000
-8.716100 0.000000
-8.694200 0.000000
-8.672400 0.000000
-8.650500 0.000000
-8.628600 0.000000
-8.606700 0.000000
-8.584900 0.000000
-8.563000 0.000000
-8.541100 0.000000
-8.519200 0.000000
-8.497400 0.000000
-8.475500 0.000000
-8.453600 0.000000
-8.431700 0.000000
-8.409900 0.000000
-8.388000 0.000000
-8.366100 0.000000
-8.344200 0.000000
-8.322400 0.000000
-8.300500 0.000000
-8.278600 0.000000
-8.256700 0.000000
-8.234800 0.000000
-8.213000 0.000000
-8.191100 0.000000
-8.169200 0.000000
-8.147300 0.000000
-8.125500 0.000000
-8.103600 0.000000
-8.081700 0.000000
-8.059800 0.000000
-8.038000 0.000000
-8.016100 0.000000
-7.994200 0.000000
-7.972300 0.000000
-7.950500 0.000000
-7.928600 0.000000
-7.906700 0.000000
-7.884800 0.000000
-7.863000 0.000000
-7.841100 0.000000
-7.819200 0.000000
-7.797300 0.000000
-7.775500 0.000000
-7.753600 0.000000
-7.731700 0.000000
-7.709800 0.000000
-7.687900 0.000000
-7.666100 0.000000
-7.644200 0.000000
-7.622300 0.000000
-7.600400 0.000000
-7.578600 0.000000
-7.556700 0.000000
-7.534800 0.000000
-7.512900 0.000000
-7.491100 0.000000
-7.469200 0.000000
-7.447300 0.000000
-7.425400 0.000000
-7.403600 0.000000
-7.381700 0.000000
-7.359800 0.000000
-7.337900 0.000000
-7.316100 0.000000
-7.294200 0.000000
-7.272300 0.000000
-7.250400 0.000000
-7.228500 0.000000
-7.206700 0.000000
-7.184800 0.000000
-7.162900 0.000000
-7.141000 0.000000
-7.119200 0.000000
-7.097300 0.000000
-7.075400 0.000000
-7.053500 0.000000
-7.031700 0.000000
-7.009800 0.000000
-6.987900 0.000000
-6.966000 0.000000
-6.944200 0.000000
-6.922300 0.000000
-6.900400 0.000000
-6.878500 0.000000
-6.856700 0.000000
-6.834800 0.000000
-6.812900 0.000000
-6.791000 0.000000
-6.769200 0.000000
-6.747300 0.000000
-6.725400 0.000000
-6.703500 0.000000
-6.681600 0.000000
-6.659800 0.000000
-6.637900 0.000000
-6.616000 0.000000
-6.594100 0.000000
-6.572300 0.000000
-6.550400 0.000000
-6.528500 0.000000
-6.506600 0.000000
-6.484800 0.000000
-6.462900 0.000000
-6.441000 0.000000
-6.419100 0.000000
-6.397300 0.000000
-6.375400 0.000000
-6.353500 0.000000
-6.331600 0.000000
-6.309800 0.000000
-6.287900 0.000000
-6.266000 0.000000
-6.244100 0.000000
-6.222300 0.000000
-6.200400 0.000000
-6.178500 0.000000
-6.156600 0.000000
-6.134700 0.000000
-6.112900 0.000000
-6.091000 0.000000
-6.069100 0.000000
-6.047200 0.000000
-6.025400 0.000000
-6.003500 0.000000
-5.981600 0.000000
-5.959700 0.000000
-5.937900 0.000000
-5.916000 0.000000
-5.894100 0.000000
-5.872200 0.000000
-5.850400 0.000000
-5.828500 0.000000
-5.806600 0.000000
-5.784700 0.000000
-5.762900 0.000000
-5.741000 0.000000
-5.719100 0.000000
-5.697200 0.000000
-5.675400 0.000000
-5.653500 0.000000
-5.631600 0.000000
-5.609700 0.000000
-5.587800 0.000000
-5.566000 0.000000
-5.544100 0.000000
-5.522200 0.000000
-5.500300 0.000000
-5.478500 0.000000
-5.456600 0.000000
-5.434700 0.000000
-5.412800 0.000000
-5.391000 0.000000
-5.369100 0.000000
-5.347200 0.000000
-5.325300 0.000000
-5.303500 0.000000
-5.281600 0.000000
-5.259700 0.000000
-5.237800 0.000000
-5.216000 0.000000
-5.194100 0.000000
-5.172200 0.000000
-5.150300 0.000000
-5.128500 0.000000
-5.106600 0.000000
-5.084700 0.000000
-5.062800 0.000000
-5.040900 0.000000
-5.019100 0.000000
-4.997200 0.000000
-4.975300 0.000000
-4.953400 0.000000
-4.931600 0.000000
-4.909700 0.000000
-4.887800 0.000000
-4.865900 0.000000
-4.844100 0.000000
-4.822200 0.000000
-4.800300 0.000000
-4.778400 0.000000
-4.756600 0.000000
-4.734700 0.000000
-4.712800 0.000000
-4.690900 0.000000
-4.669100 0.000000
-4.647200 0.000000
-4.625300 0.000000
-4.603400 0.000000
-4.581600 0.000000
-4.559700 0.000000
-4.537800 0.000000
-4.515900 0.000000
-4.494000 0.000000
-4.472200 0.000000
-4.450300 0.000000
-4.428400 0.000000
-4.406500 0.000000
-4.384700 0.000000
-4.362800 0.000000
-4.340900 0.000000
-4.319000 0.000000
-4.297200 0.000000
-4.275300 0.000000
-4.253400 0.000000
-4.231500 0.000000
-4.209700 0.000000
-4.187800 0.000000
-4.165900 0.000000
-4.144000 0.000000
-4.122200 0.000000
-4.100300 0.000000
-4.078400 0.000000
-4.056500 0.000000
-4.034600 0.000000
-4.012800 0.000000
-3.990900 0.000000
-3.969000 0.000000
-3.947100 0.000000
-3.925300 0.000000
-3.903400 0.000000
-3.881500 0.000000
-3.859600 0.000000
-3.837800 0.000000
-3.815900 0.000000
-3.794000 0.000000
-3.772100 0.000000
-3.750300 0.000000
-3.728400 0.000000
-3.706500 0.000000
-3.684600 0.000000
-3.662800 0.000000
-3.640900 0.000000
-3.619000 0.000000
-3.597100 0.000000
-3.575300 0.000000
-3.553400 0.000000
-3.531500 0.000000
-3.509600 0.000000
-3.487700 0.000000
-3.465900 0.000000
-3.444000 0.000000
-3.422100 0.000000
-3.400200 0.000000
-3.378400 0.000000
-3.356500 0.000000
-3.334600 0.000000
-3.312700 0.000000
-3.290900 0.000000
-3.269000 0.000000
-3.247100 0.000000
-3.225200 0.000000
-3.203400 0.000000
-3.181500 0.000000
-3.159600 0.000000
-3.137700 0.000000
-3.115900 0.000000
-3.094000 0.000000
-3.072100 0.000000
-3.050200 0.000000
-3.028400 0.000000
-3.006500 0.000000
-2.984600 0.000000
-2.962700 0.000000
-2.940800 0.000000
-2.919000 0.000000
-2.897100 0.000000
-2.875200 0.000000
-2.853300 0.000000
-2.831500 0.000000
-2.809600 0.000000
-2.787700 0.000000
-2.765800 0.000000
-2.744000 0.000000
-2.722100 0.000000
-2.700200 0.000000
-2.678300 0.000000
-2.656500 0.000000
-2.634600 0.000000
-2.612700 0.000000
-2.590800 0.000000
-2.569000 0.000000
-2.547100 0.000000
-2.525200 0.000000
-2.503300 0.000000
-2.481500 0.000000
-2.459600 0.000000
-2.437700 0.000000
-2.415800 0.000000
-2.393900 0.000000
-2.372100 0.000000
-2.350200 0.000000
-2.328300 0.000000
-2.306400 0.000000
-2.284600 0.000000
-2.262700 0.000000
-2.240800 0.000000
-2.218900 0.000000
-2.197100 0.000000
-2.175200 0.000000
-2.153300 0.000000
-2.131400 0.000000
-2.109600 0.000000
-2.087700 0.000000
-2.065800 0.000000
-2.043900 0.000000
-2.022100 0.000000
-2.000200 0.000000
-1.978300 0.000000
-1.956400 0.000000
-1.934600 0.000000
-1.912700 0.000000
-1.890800 0.000000
-1.868900 0.000000
-1.847000 0.000000
-1.825200 0.000000
-1.803300 0.000000
-1.781400 0.000000
-1.759500 0.000000
-1.737700 0.000000
-1.715800 0.000000
-1.693900 0.000000
-1.672000 0.000000
-1.650200 0.000000
-1.628300 0.000000
-1.606400 0.000000
-1.584500 0.000000
-1.562700 0.000000
-1.540800 0.000000
-1.518900 0.000000
-1.497000 0.000000
-1.475200 0.000000
-1.453300 0.000000
-1.431400 0.022900
-1.409500 0.158400
-1.387700 0.415700
-1.365800 0.674500
-1.343900 0.900900
-1.322000 1.153000
-1.300100 1.431100
-1.278300 1.735000
-1.256400 2.064700
-1.234500 2.423100
-1.212600 3.948800
-1.190800 4.779500
-1.168900 5.146500
-1.147000 5.623600
-1.125100 6.879900
-1.103300 7.638800
-1.081400 7.365500
-1.059500 7.035100
-1.037600 7.165600
-1.015800 6.581300
-0.993900 6.476300
-0.972000 7.062100
-0.950100 7.835600
-0.928300 8.804500
-0.906400 12.589000
-0.884500 12.025500
-0.862600 10.683300
-0.840700 9.298800
-0.818900 9.122000
-0.797000 9.901700
-0.775100 9.627600
-0.753200 6.075700
-0.731400 5.311600
-0.709500 5.601000
-0.687600 7.975900
-0.665700 6.808400
-0.643900 6.928400
-0.622000 7.101500
-0.600100 7.183800
-0.578200 9.598100
-0.556400 9.197100
-0.534500 6.512900
-0.512600 4.583100
-0.490700 4.416500
-0.468900 4.693500
-0.447000 5.456800
-0.425100 6.313700
-0.403200 7.199200
-0.381400 6.865600
-0.359500 5.922900
-0.337600 4.811300
-0.315700 5.090700
-0.293800 6.519700
-0.272000 5.645100
-0.250100 5.264900
-0.228200 4.917600
-0.206300 4.633900
-0.184500 4.543600
-0.162600 5.029500
-0.140700 8.827700
-0.118800 6.331400
-0.097000 6.423900
-0.075100 8.258800
-0.053200 10.307200
-0.031300 12.018100
-0.009500 13.633200
0.012400 17.304200
0.034300 9.695900
0.056200 10.216800
0.078000 12.488400
0.099900 14.318900
0.121800 15.280300
0.143700 12.891900
0.165500 7.445300
0.187400 6.283200
0.209300 9.125700
0.231200 11.644900
0.253100 14.100900
0.274900 15.115300
0.296800 14.270100
0.318700 16.016400
0.340600 18.824700
0.362400 21.409700
0.384300 16.865700
0.406200 16.874900
0.428100 17.455200
0.449900 15.290000
0.471800 10.896500
0.493700 6.700800
0.515600 6.343600
0.537400 2.261000
0.559300 2.648700
0.581200 6.406900
0.603100 5.747900
0.624900 7.269900
0.646800 8.023400
0.668700 8.994300
0.690600 10.525500
0.712400 13.451600
0.734300 16.489600
0.756200 17.641800
0.778100 16.195800
0.800000 13.216100
0.821800 9.084100
0.843700 8.529200
0.865600 8.073900
0.887500 7.787400
0.909300 7.244800
0.931200 6.769600
0.953100 4.810100
0.975000 5.109800
0.996800 5.117600
1.018700 5.068100
1.040600 5.032800
1.062500 4.970000
1.084300 5.032800
1.106200 5.183600
1.128100 5.447400
1.150000 5.958900
1.171800 6.325000
1.193700 6.827900
1.215600 7.582800
1.237500 8.657200
1.259300 8.024100
1.281200 7.281900
1.303100 6.690800
1.325000 6.702600
1.346900 6.748100
1.368700 6.827300
1.390600 6.940300
1.412500 7.086900
1.434400 8.457700
1.456200 10.281900
1.478100 11.369400
1.500000 12.170800
1.521900 12.125000
1.543700 10.668800
1.565600 8.861300
1.587500 7.798400
1.609400 6.186600
1.631200 5.527000
1.653100 6.333900
1.675000 7.233800
1.696900 8.016300
1.718700 8.862900
1.740600 8.643900
1.762500 8.261000
1.784400 7.905400
1.806200 7.566800
1.828100 7.204700
1.850000 6.773600
1.871900 6.276400
1.893800 5.736600
1.915600 9.670800
1.937500 13.401600
1.959400 11.836300
1.981300 10.347000
2.003100 8.792800
2.025000 4.443100
2.046900 1.025700
2.068800 1.265200
2.090600 1.564900
2.112500 1.924800
2.134400 2.408700
2.156300 3.201100
2.178100 4.474600
2.200000 5.681600
2.221900 7.046300
2.243800 8.579200
2.265600 9.943200
2.287500 11.444500
2.309400 13.209800
2.331300 13.719300
2.353100 12.217800
2.375000 11.457500
2.396900 5.836500
2.418800 6.827300
2.440700 7.842100
2.462500 9.373300
2.484400 11.619400
2.506300 16.000400
2.528200 15.446900
2.550000 16.285000
2.571900 14.842800
2.593800 13.634500
2.615700 12.661800
2.637500 11.859000
2.659400 11.492000
2.681300 11.884000
2.703200 10.632000
2.725000 11.194800
2.746900 14.241200
2.768800 32.792200
2.790700 15.336500
2.812500 5.878700
2.834400 3.948600
2.856300 3.373900
2.878200 5.756200
2.900100 12.319400
2.921900 25.214000
2.943800 21.077600
2.965700 15.167500
2.987600 23.728100
3.009400 19.362700
3.031300 14.152900
3.053200 11.707100
3.075100 10.116700
3.096900 23.582300
3.118800 20.723700
3.140700 21.034700
3.162600 20.794800
3.184400 17.924900
3.206300 15.822600
3.228200 14.234200
3.250100 13.273400
3.271900 14.037600
3.293800 11.942100
3.315700 11.262900
3.337600 5.494200
3.359400 5.632100
3.381300 6.411500
3.403200 7.617700
3.425100 8.405500
3.447000 12.902700
3.468800 22.066900
3.490700 16.250700
3.512600 22.435400
3.534500 27.970600
3.556300 20.186400
3.578200 17.697000
3.600100 9.963700
3.622000 7.200000
3.643800 14.697600
3.665700 25.570400
3.687600 29.435200
3.709500 18.893500
3.731300 14.258000
3.753200 15.627600
3.775100 18.124700
3.797000 17.164000
3.818800 16.883100
3.840700 10.476900
3.862600 8.254300
3.884500 13.004300
3.906300 17.347100
3.928200 21.319100
3.950100 27.691000
3.972000 19.076900
3.993900 17.874000
4.015700 17.203600
4.037600 16.279700
4.059500 22.918900
4.081400 18.198100
4.103200 14.108700
4.125100 27.685800
4.147000 37.440600
4.168900 34.701600
4.190700 48.020800
4.212600 33.357000
4.234500 12.727000
4.256400 23.924400
4.278200 26.411500
4.300100 13.316200
4.322000 9.833300
4.343900 12.166700
4.365700 11.564300
4.387600 10.406500
4.409500 9.245000
4.431400 8.424000
4.453200 8.267700
4.475100 8.264100
4.497000 9.302800
4.518900 19.173100
4.540800 16.183900
4.562600 9.670400
4.584500 8.309800
4.606400 7.631900
4.628300 7.574100
4.650100 8.317700
4.672000 9.214700
4.693900 12.096100
4.715800 10.931500
4.737600 11.264300
4.759500 15.789700
4.781400 18.751200
4.803300 19.321200
4.825100 24.502200
4.847000 22.501200
4.868900 17.959200
4.890800 24.654200
4.912600 25.525100
4.934500 16.933000
4.956400 14.272100
4.978300 13.102000
5.000100 10.595100
5.022000 13.317200
5.043900 4.789100
5.065800 1.561200
5.087700 0.420400
5.109500 0.002200
5.131400 0.000000
5.153300 0.000000
5.175200 0.000000
5.197000 0.000000
5.218900 0.000000
5.240800 0.000000
5.262700 0.000000
5.284500 0.000000
5.306400 0.000000
5.328300 0.000000
5.350200 0.000000
5.372000 0.000000
5.393900 0.000000
5.415800 0.000000
5.437700 0.000000
5.459500 0.000000
5.481400 0.000000
5.503300 0.000000
5.525200 0.000000
5.547000 0.000000
5.568900 0.000000
5.590800 0.000000
5.612700 0.000000
5.634600 0.000000
5.656400 0.000000
5.678300 0.000000
5.700200 0.000000
5.722100 0.000000
5.743900 0.000000
5.765800 0.000000
5.787700 0.000000
5.809600 0.000000
5.831400 0.000000
5.853300 0.000000
5.875200 0.000000
5.897100 0.000000
5.918900 0.000000
5.940800 0.000000
5.962700 0.000000
5.984600 0.000000
6.006400 0.000000
6.028300 0.000000
6.050200 0.000000
6.072100 0.000000
6.094000 0.000000
6.115800 0.000000
6.137700 0.000000
6.159600 0.000000
6.181500 0.000000
6.203300 0.000000
6.225200 0.000000
6.247100 0.000000
6.269000 0.000000
6.290800 0.000000
6.312700 0.000000
6.334600 0.000000
6.356500 0.000000
6.378300 0.000000
6.400200 0.000000
6.422100 0.000000
6.444000 0.000000
6.465800 0.000000
6.487700 0.000000
6.509600 0.000000
6.531500 0.000000
6.553300 0.000000
6.575200 0.000000
6.597100 0.000000
6.619000 0.000000
6.640900 0.000000
6.662700 0.000000
6.684600 0.000000
6.706500 0.000000
6.728400 0.000000
6.750200 0.000000
6.772100 0.000000
6.794000 0.000000
6.815900 0.000000
6.837700 0.000000
6.859600 0.000000
6.881500 0.000000
6.903400 0.000000
6.925200 0.000000
6.947100 0.000000
6.969000 0.000000
6.990900 0.000000
7.012700 0.000000
7.034600 0.000000
7.056500 0.000000
7.078400 0.000000
7.100200 0.000000
7.122100 0.000000
7.144000 0.000000
7.165900 0.000000
7.187800 0.000000
7.209600 0.000000
7.231500 0.000000
7.253400 0.000000
7.275300 0.000000
7.297100 0.000000
7.319000 0.000000
7.340900 0.000000
7.362800 0.000000
7.384600 0.000000
7.406500 0.000000
7.428400 0.000000
7.450300 0.000000
7.472100 0.000000
7.494000 0.000000
7.515900 0.000000
7.537800 0.000000
7.559600 0.000000
7.581500 0.000000
7.603400 0.000000
7.625300 0.000000
7.647100 0.000000
7.669000 0.000000
7.690900 0.000000
7.712800 0.000000
7.734700 0.000000
7.756500 0.000000
7.778400 0.000000
7.800300 0.000000
7.822200 0.000000
7.844000 0.000000
7.865900 0.000000
7.887800 0.000000
7.909700 0.000000
7.931500 0.000000
7.953400 0.000000
7.975300 0.000000
7.997200 0.000000
8.019000 0.000000
8.040900 0.000000
8.062800 0.000000
8.084700 0.000000
8.106500 0.000000
8.128400 0.000000
8.150300 0.000000
8.172200 0.000000
8.194000 0.000000
8.215900 0.000000
8.237800 0.000000
8.259700 0.000000
8.281600 0.000000
8.303400 0.000000
8.325300 0.000000
8.347200 0.000000
8.369100 0.000000
8.390900 0.000000
8.412800 0.000000
8.434700 0.000000
8.456600 0.000000
8.478400 0.000000
8.500300 0.000000
8.522200 0.000000
8.544100 0.000000
8.565900 0.000000
8.587800 0.000000
8.609700 0.000000
8.631600 0.000000
8.653400 0.000000
8.675300 0.000000
8.697200 0.000000
8.719100 0.000000
8.740900 0.000000
8.762800 0.000000
8.784700 0.000000
8.806600 0.000000
8.828500 0.000000
8.850300 0.000000
8.872200 0.000000
8.894100 0.000000
8.916000 0.000000
8.937800 0.000000
8.959700 0.000000
8.981600 0.000000
9.003500 0.000000
9.025300 0.000000
9.047200 0.000000
9.069100 0.000000
9.091000 0.000000
9.112800 0.000000
9.134700 0.000000
9.156600 0.000000
9.178500 0.000000
9.200300 0.000000
9.222200 0.000000
9.244100 0.000000
9.266000 0.000000
9.287900 0.000000
9.309700 0.000000
9.331600 0.000000
9.353500 0.000000
9.375400 0.000000
9.397200 0.000000
9.419100 0.000000
9.441000 0.000000
9.462900 0.000000
9.484700 0.000000
9.506600 0.000000
9.528500 0.000000
9.550400 0.000000
9.572200 0.000000
9.594100 0.000000
9.616000 0.000000
9.637900 0.000000
9.659700 0.000000
9.681600 0.000000
9.703500 0.000000
9.725400 0.000000
9.747200 0.000000
9.769100 0.000000
9.791000 0.000000
9.812900 0.000000
9.834800 0.000000
9.856600 0.000000
9.878500 0.000000
9.900400 0.000000
9.922300 0.000000
9.944100 0.000000
9.966000 0.000000
9.987900 0.000000
10.009800 0.000000
10.031600 0.000000
10.053500 0.000000
10.075400 0.000000
10.097300 0.000000
10.119100 0.000000
10.141000 0.000000
10.162900 0.000000
10.184800 0.000000
10.206600 0.000000
10.228500 0.000000
10.250400 0.000000
10.272300 0.000000
10.294100 0.000000
10.316000 0.000000
10.337900 0.000000
10.359800 0.000000
10.381700 0.000000
10.403500 0.000000
10.425400 0.000000
10.447300 0.000000
10.469200 0.000000
10.491000 0.000000
10.512900 0.000000
10.534800 0.000000
10.556700 0.000000
10.578500 0.000000
10.600400 0.000000
10.622300 0.000200
10.644200 0.001200
10.666000 0.003000
10.687900 0.005600
10.709800 0.009000
10.731700 0.013100
10.753500 0.018000
10.775400 0.023700
10.797300 0.030200
10.819200 0.037400
10.841000 0.045500
10.862900 0.054300
10.884800 0.063900
10.906700 0.074300
10.928600 0.085500
10.950400 0.097400
10.972300 0.110200
10.994200 0.123700
11.016100 0.138000
11.037900 0.153100
11.059800 0.169000
11.081700 0.195600
11.103600 0.223600
11.125400 0.252700
11.147300 0.283100
11.169200 0.314400
11.191100 0.334500
11.212900 0.353600
11.234800 0.371800
11.256700 0.389100
11.278600 0.405500
11.300400 0.420900
11.322300 0.435500
11.344200 0.449100
11.366100 0.461900
11.387900 0.473700
11.409800 0.484600
11.431700 0.494700
11.453600 0.503800
11.475500 0.512000
11.497300 0.519200
11.519200 0.525600
11.541100 0.531100
11.563000 0.463900
11.584800 0.469100
11.606700 0.474300
11.628600 0.479500
11.650500 0.484700
11.672300 0.490000
11.694200 0.495200
11.716100 0.500400
11.738000 0.505700
11.759800 0.510900
11.781700 0.516100
11.803600 0.521400
11.825500 0.526600
11.847300 0.531900
11.869200 0.537100
11.891100 0.542400
11.913000 0.547700
11.934800 0.552900
11.956700 0.558200
11.978600 0.563500
12.000500 0.568800
12.022400 0.574200
12.044200 0.587400
12.066100 0.610000
12.088000 0.633900
12.109900 0.659100
12.131700 0.685400
12.153600 0.713000
12.175500 0.741900
12.197400 0.771900
12.219200 0.803200
12.241100 0.835900
12.263000 0.870500
12.284900 0.907300
12.306700 0.946300
12.328600 0.987400
12.350500 1.030600
12.372400 1.075300
12.394200 1.120500
12.416100 1.166100
12.438000 1.133000
12.459900 1.164000
12.481800 1.195000
12.503600 1.225900
12.525500 1.256700
12.547400 1.287500
12.569300 1.318100
12.591100 1.348800
12.613000 1.376000
12.634900 1.403300
12.656800 1.430900
12.678600 1.458900
12.700500 1.487200
12.722400 1.515900
12.744300 1.545100
12.766100 1.574500
12.788000 1.604400
12.809900 1.634600
12.831800 1.665200
12.853600 1.696200
12.875500 1.727600
12.897400 1.759300
12.919300 1.793500
12.941100 1.834500
12.963000 1.882500
12.984900 1.936700
13.006800 1.997300
13.028700 2.246400
13.050500 2.996300
13.072400 3.574100
13.094300 3.920300
13.116200 4.225500
13.138000 4.489600
13.159900 4.712500
13.181800 4.836700
13.203700 4.608500
13.225500 3.911600
13.247400 3.857300
13.269300 3.906000
13.291200 3.846100
13.313000 3.716200
13.334900 3.571400
13.356800 3.411800
13.378700 3.321300
13.400500 3.337500
13.422400 3.344500
13.444300 3.341700
13.466200 3.330600
13.488000 3.311300
13.509900 3.299600
13.531800 3.547500
13.553700 3.198800
13.575600 3.099700
13.597400 3.080100
13.619300 3.051700
13.641200 2.968800
13.663100 3.032000
13.684900 2.977100
13.706800 2.673400
13.728700 1.689000
13.750600 1.994000
13.772400 2.295000
13.794300 2.591900
13.816200 2.893900
13.838100 3.308300
13.859900 3.831200
13.881800 4.473700
13.903700 5.792100
13.925600 6.770300
13.947400 5.832900
13.969300 5.404200
13.991200 5.788600
14.013100 5.780700
14.034900 5.880700
14.056800 6.088600
14.078700 6.182300
14.100600 5.573300
14.122500 4.538900
14.144300 3.575200
14.166200 3.283900
14.188100 3.143100
14.210000 3.202200
14.231800 3.478100
14.253700 3.970900
14.275600 4.625300
14.297500 7.625300
14.319300 10.889300
14.341200 11.922500
14.363100 8.816900
14.385000 6.241700
14.406800 5.584700
14.428700 5.026800
14.450600 4.627700
14.472500 4.387400
14.494300 4.306100
14.516200 4.383600
14.538100 4.057900
14.560000 3.828600
14.581800 3.702400
14.603700 4.298000
14.625600 5.213300
14.647500 3.876700
14.669400 3.976800
14.691200 4.659400
14.713100 5.834200
14.735000 6.326200
14.756900 6.653400
14.778700 7.077300
14.800600 7.658500
14.822500 8.397000
14.844400 10.004400
14.866200 11.787300
14.888100 12.639200
14.910000 11.362800
14.931900 11.350400
14.953700 13.439500
14.975600 11.996000
14.997500 11.837300
15.019400 15.535900
15.041200 13.570400
15.063100 11.067600
15.085000 10.952900
15.106900 11.417900
15.128700 7.987400
15.150600 6.808400
15.172500 6.238200
15.194400 6.197600
15.216300 6.353200
15.238100 6.602100
15.260000 6.842200
15.281900 7.335200
15.303800 6.531800
15.325600 6.275400
15.347500 6.024500
15.369400 5.890600
15.391300 5.938900
15.413100 6.079700
15.435000 6.215500
15.456900 6.338400
15.478800 6.448400
15.500600 6.590000
15.522500 6.771200
15.544400 6.957200
15.566300 7.148000
15.588100 7.344600
15.610000 7.710400
15.631900 8.765200
15.653800 11.327900
15.675700 12.990400
15.697500 11.117900
15.719400 9.841200
15.741300 9.114200
15.763200 8.577900
15.785000 8.136100
15.806900 7.831100
15.828800 7.590900
15.850700 7.376500
15.872500 7.145200
15.894400 7.028800
15.916300 7.053700
15.938200 7.212400
15.960000 7.642200
15.981900 8.117500
16.003800 8.007200
16.025700 8.425600
16.047500 8.888900
16.069400 9.862000
16.091300 10.945900
16.113200 11.999400
16.135000 12.030400
16.156900 12.330400
16.178800 12.325200
16.200700 12.187800
16.222600 11.837700
16.244400 11.280600
16.266300 10.568900
16.288200 9.980000
16.310100 9.401300
16.331900 8.764600
16.353800 8.206200
16.375700 7.727100
16.397600 7.598800
16.419400 7.517000
16.441300 7.538000
16.463200 7.602200
16.485100 7.691200
16.506900 7.767000
16.528800 7.794000
16.550700 7.773500
16.572600 7.752400
16.594400 7.445300
16.616300 7.291700
16.638200 7.395700
16.660100 7.047200
16.681900 7.167000
16.703800 6.826200
16.725700 6.588100
16.747600 6.538300
16.769500 6.246000
16.791300 6.193100
16.813200 5.696300
16.835100 5.284400
16.857000 4.948400
16.878800 4.640900
16.900700 4.558500
16.922600 4.573500
16.944500 4.316000
16.966300 4.066300
16.988200 4.850100
17.010100 7.630500
17.032000 9.059800
17.053800 12.254000
17.075700 9.300900
17.097600 9.699100
17.119500 10.633300
17.141300 11.932800
17.163200 13.961500
17.185100 12.696800
17.207000 13.715400
17.228800 16.351600
17.250700 16.571300
17.272600 13.522600
17.294500 9.689600
17.316400 6.680200
17.338200 5.573600
17.360100 8.644800
17.382000 10.869600
17.403900 11.420800
17.425700 10.612100
17.447600 10.107900
17.469500 8.884800
17.491400 9.776800
17.513200 10.251800
17.535100 8.861500
17.557000 8.996600
17.578900 9.336300
17.600700 9.570100
17.622600 10.748200
17.644500 11.441000
17.666400 12.986700
17.688200 14.123000
17.710100 15.568500
17.732000 17.657900
17.753900 15.925100
17.775700 13.629900
17.797600 12.098700
17.819500 10.839000
17.841400 10.541900
17.863300 9.964700
17.885100 9.453800
17.907000 9.031500
17.928900 6.274600
17.950800 6.007700
17.972600 6.715300
17.994500 7.641400
18.016400 8.395200
18.038300 8.910700
18.060100 8.158000
18.082000 7.068300
18.103900 6.362500
18.125800 5.765200
18.147600 5.407800
18.169500 5.087800
18.191400 4.802000
18.213300 4.550500
18.235100 4.622500
18.257000 4.837600
18.278900 5.080900
18.300800 5.330900
18.322600 5.812900
18.344500 6.519000
18.366400 7.191700
18.388300 7.830800
18.410200 11.548400
18.432000 9.794400
18.453900 11.410000
18.475800 13.434300
18.497700 12.150500
18.519500 10.677500
18.541400 10.830900
18.563300 6.943900
18.585200 7.045200
18.607000 9.131400
18.628900 10.100100
18.650800 10.650300
18.672700 10.842100
18.694500 11.665200
18.716400 13.641600
18.738300 11.655800
18.760200 8.589300
18.782000 7.836000
18.803900 10.415400
18.825800 14.727400
18.847700 20.175100
18.869600 15.708400
18.891400 12.481000
18.913300 10.158800
18.935200 8.046100
18.957100 8.184300
18.978900 9.610200
19.000800 10.134000
19.022700 10.917500
19.044600 14.347600
19.066400 18.709200
19.088300 20.364800
19.110200 20.201800
19.132100 23.202300
19.153900 16.693500
19.175800 18.235700
19.197700 21.497400
19.219600 20.765600
19.241400 14.704500
19.263300 10.058400
19.285200 7.758300
19.307100 8.085800
19.328900 9.025300
19.350800 9.052600
19.372700 22.786500
19.394600 6.272000
19.416500 1.411100
19.438300 0.672200
19.460200 0.747200
19.482100 1.278700
19.504000 4.170800
19.525800 9.644500
19.547700 17.159300
19.569600 22.592300
19.591500 22.054000
19.613300 21.666100
19.635200 20.354900
19.657100 14.155000
19.679000 25.345900
19.700800 23.395600
19.722700 16.208500
19.744600 12.556800
19.766500 16.336200
19.788300 20.740400
19.810200 18.889500
19.832100 14.590500
19.854000 10.096500
19.875800 9.043700
19.897700 13.145800
19.919600 18.647600
19.941500 15.129300
19.963400 12.606000
19.985200 11.647200
20.007100 11.084400
20.029000 10.210300
20.050900 9.464700
20.072700 8.986500
20.094600 8.415100
20.116500 8.156100
20.138400 7.889500
20.160200 7.436300
20.182100 6.869000
20.204000 5.791300
20.225900 5.074800
20.247700 4.517400
20.269600 4.749200
20.291500 11.279000
20.313400 13.279600
20.335200 14.379100
20.357100 13.534500
20.379000 9.985900
20.400900 8.500600
20.422700 8.044500
20.444600 7.373200
20.466500 7.351300
20.488400 7.423000
20.510300 7.511900
20.532100 7.617900
20.554000 7.472000
20.575900 6.842800
20.597800 7.876700
20.619600 13.288300
20.641500 13.415600
20.663400 11.058100
20.685300 11.182700
20.707100 14.001500
20.729000 15.780300
20.750900 13.674200
20.772800 10.908000
20.794600 9.749400
20.816500 9.095000
20.838400 9.867000
20.860300 10.246500
20.882100 9.199300
20.904000 7.301300
20.925900 6.052000
20.947800 5.303100
20.969600 4.756100
20.991500 4.363200
21.013400 4.097300
21.035300 3.929500
21.057200 3.847400
21.079000 3.969300
21.100900 4.266000
21.122800 4.564000
21.144700 5.084200
21.166500 5.460400
21.188400 5.929000
21.210300 3.838800
21.232200 4.194400
21.254000 4.588200
21.275900 4.940600
21.297800 5.251800
21.319700 5.681000
21.341500 6.106400
21.363400 6.514900
21.385300 7.118300
21.407200 7.868100
21.429000 8.104900
21.450900 8.247400
21.472800 8.404800
21.494700 8.637800
21.516500 8.140400
21.538400 7.346400
21.560300 4.698000
21.582200 4.313100
21.604100 4.023800
21.625900 3.937700
21.647800 3.944500
21.669700 5.188100
21.691600 6.350300
21.713400 6.746600
21.735300 5.414200
21.757200 7.381100
21.779100 10.044400
21.800900 11.517200
21.822800 8.094600
21.844700 6.776800
21.866600 5.727200
21.888400 5.601800
21.910300 6.131800
21.932200 6.938300
21.954100 8.112200
21.975900 8.581700
21.997800 9.064600
22.019700 9.357300
22.041600 9.336800
22.063500 9.672900
22.085300 11.977200
22.107200 11.798600
22.129100 12.299500
22.151000 12.592300
22.172800 10.187200
22.194700 14.497000
22.216600 15.140100
22.238500 12.608300
22.260300 8.962000
22.282200 8.139200
22.304100 8.120200
22.326000 8.179900
22.347800 9.136200
22.369700 12.658000
22.391600 13.612100
22.413500 14.149300
22.435300 15.704800
22.457200 15.506100
22.479100 10.918700
22.501000 13.581100
22.522800 7.205400
22.544700 5.368700
22.566600 4.576500
22.588500 3.970900
22.610400 3.492600
22.632200 3.074600
22.654100 2.322400
22.676000 1.544000
22.697900 1.282200
22.719700 1.882800
22.741600 1.738100
22.763500 1.686200
22.785400 1.643900
22.807200 1.605000
22.829100 1.578400
22.851000 1.592600
22.872900 1.649800
22.894700 1.749800
22.916600 1.892700
22.938500 2.123300
22.960400 2.832900
22.982200 3.986700
23.004100 5.322000
23.026000 6.850800
23.047900 6.838700
23.069700 6.967800
23.091600 7.591700
23.113500 7.988300
23.135400 8.150300
23.157300 8.181300
23.179100 8.137600
23.201000 7.444000
23.222900 7.282400
23.244800 7.462300
23.266600 5.335000
23.288500 4.351400
23.310400 4.126000
23.332300 3.921800
23.354100 3.752700
23.376000 3.631200
23.397900 3.586200
23.419800 3.569000
23.441600 3.580200
23.463500 3.631300
23.485400 4.333700
23.507300 4.914100
23.529100 5.203800
23.551000 5.235700
23.572900 5.332500
23.594800 5.223700
23.616600 4.220600
23.638500 3.490800
23.660400 3.694000
23.682300 4.012800
23.704200 4.383700
23.726000 4.724600
23.747900 5.035500
23.769800 5.292100
23.791700 5.315700
23.813500 5.102300
23.835400 4.847500
23.857300 4.584800
23.879200 4.296800
23.901000 3.722200
23.922900 2.679200
23.944800 2.625800
23.966700 2.531900
23.988500 2.404800
24.010400 2.354500
24.032300 2.327900
24.054200 2.453000
24.076000 2.966100
24.097900 3.574400
24.119800 4.111000
24.141700 4.575700
24.163500 4.851100
24.185400 5.400500
24.207300 5.621800
24.229200 5.584000
24.251100 5.567900
24.272900 5.451100
24.294800 5.250000
24.316700 4.964500
24.338600 4.595200
24.360400 4.405400
24.382300 5.281800
24.404200 5.222000
24.426100 5.290500
24.447900 5.387700
24.469800 5.515100
24.491700 5.312800
24.513600 5.647300
24.535400 5.896100
24.557300 5.986300
24.579200 6.409200
24.601100 5.041200
24.622900 4.001800
24.644800 3.867900
24.666700 3.812100
24.688600 3.865500
24.710400 4.196800
24.732300 4.469500
24.754200 4.902600
24.776100 5.402100
24.798000 6.241500
24.819800 7.663300
24.841700 9.219100
24.863600 8.163200
24.885500 8.225500
24.907300 8.289600
24.929200 8.199100
24.951100 7.572600
24.973000 6.647300
24.994800 5.839800
25.016700 5.149600
25.038600 4.576500
25.060500 4.121100
25.082300 3.769000
25.104200 3.431900
25.126100 3.098000
25.148000 2.761800
25.169800 2.483100
25.191700 2.273500
25.213600 2.068300
25.235500 1.866300
25.257400 1.667500
25.279200 1.309600
25.301100 0.818700
25.323000 0.631900
25.344900 0.488100
25.366700 0.387300
25.388600 0.328800
25.410500 0.293500
25.432400 0.260400
25.454200 0.229400
25.476100 0.200400
25.498000 0.173400
25.519900 0.148500
25.541700 0.125700
25.563600 0.104900
25.585500 0.086200
25.607400 0.069500
25.629200 0.054800
25.651100 0.042300
25.673000 0.031800
25.694900 0.023300
25.716700 0.016200
25.738600 0.010500
25.760500 0.006000
25.782400 0.002700
25.804300 0.000700
25.826100 0.000000
25.848000 0.000000
25.869900 0.000000
25.891800 0.000000
25.913600 0.000000
25.935500 0.000000
25.957400 0.000000
25.979300 0.000000
26.001100 0.000000
26.023000 0.000000
26.044900 0.000000
26.066800 0.000000
26.088600 0.000000
26.110500 0.000000
26.132400 0.000000
26.154300 0.000000
26.176100 0.000000
26.198000 0.000000
26.219900 0.000000
26.241800 0.000000
26.263600 0.000000
26.285500 0.000000
26.307400 0.000000
26.329300 0.000000
26.351200 0.000000
26.373000 0.000000
26.394900 0.000000
26.416800 0.000000
26.438700 0.000000
26.460500 0.000000
26.482400 0.000000
26.504300 0.000000
26.526200 0.000000
26.548000 0.000000
26.569900 0.000000
26.591800 0.000000
26.613700 0.000000
26.635500 0.000000
26.657400 0.000000
26.679300 0.000000
26.701200 0.000000
26.723000 0.000000
26.744900 0.000000
26.766800 0.000000
26.788700 0.000000
26.810500 0.000000
26.832400 0.000000
26.854300 0.000000
26.876200 0.000000
26.898100 0.000000
26.919900 0.000000
26.941800 0.000000
26.963700 0.000000
26.985600 0.000000
27.007400 0.000000
27.029300 0.000000
27.051200 0.000000
27.073100 0.000000
27.094900 0.000000
27.116800 0.000000
27.138700 0.000000
27.160600 0.000000
27.182400 0.000000
27.204300 0.000000
27.226200 0.000000
27.248100 0.000000
27.269900 0.000000
27.291800 0.000000
27.313700 0.000000
27.335600 0.000000
27.357400 0.000000
27.379300 0.000000
27.401200 0.000000
27.423100 0.000000
27.445000 0.000000
27.466800 0.000000
27.488700 0.000000
27.510600 0.000000
27.532500 0.000000
27.554300 0.000000
27.576200 0.000000
27.598100 0.000000
27.620000 0.000000
27.641800 0.000000
27.663700 0.000000
27.685600 0.000000
27.707500 0.000000
27.729300 0.000000
27.751200 0.000000
27.773100 0.000000
27.795000 0.000000
27.816800 0.000000
e
