set title 'mp-567471 - Density of States'
set xlabel 'Energy (eV)'
set ylabel 'DOS (states/eV)'
set grid
set xrange [-10:10]
set yrange [0:286.089]
set xzeroaxis lt -1
set terminal png size 800,600
set output 'mp-567471_dos_gnuplot.png'
plot '-' using 1:2 with lines title 'DOS'
-12.641100 0.000000
-12.628900 0.000000
-12.616600 0.000000
-12.604400 0.000000
-12.592200 0.000000
-12.579900 0.000000
-12.567700 0.000000
-12.555400 0.000000
-12.543200 0.000000
-12.531000 0.000000
-12.518700 0.000000
-12.506500 0.000000
-12.494200 0.000000
-12.482000 0.000000
-12.469800 0.000000
-12.457500 0.000000
-12.445300 0.000000
-12.433100 0.000000
-12.420800 0.000000
-12.408600 0.000000
-12.396300 0.000000
-12.384100 0.000000
-12.371900 0.000000
-12.359600 0.000000
-12.347400 0.000000
-12.335200 0.000000
-12.322900 0.000000
-12.310700 0.000000
-12.298400 0.000000
-12.286200 0.000000
-12.274000 0.000000
-12.261700 0.000000
-12.249500 0.000000
-12.237200 0.000000
-12.225000 0.000000
-12.212800 0.000000
-12.200500 0.000000
-12.188300 0.000000
-12.176100 0.000000
-12.163800 0.000000
-12.151600 0.000000
-12.139300 0.000000
-12.127100 0.000000
-12.114900 0.000000
-12.102600 0.000000
-12.090400 0.000000
-12.078100 0.000000
-12.065900 0.000000
-12.053700 0.000000
-12.041400 0.000000
-12.029200 0.000000
-12.017000 0.000000
-12.004700 0.000000
-11.992500 0.000000
-11.980200 0.000000
-11.968000 0.000000
-11.955800 0.000000
-11.943500 0.000000
-11.931300 0.000000
-11.919000 0.000000
-11.906800 0.000000
-11.894600 0.000000
-11.882300 0.000000
-11.870100 0.000000
-11.857900 0.000000
-11.845600 0.000000
-11.833400 0.000000
-11.821100 0.000000
-11.808900 0.000000
-11.796700 0.000000
-11.784400 0.000000
-11.772200 0.000000
-11.759900 0.000000
-11.747700 0.000000
-11.735500 0.000000
-11.723200 0.000000
-11.711000 0.000000
-11.698800 0.000000
-11.686500 0.000100
-11.674300 0.000600
-11.662000 0.002500
-11.649800 0.009100
-11.637600 0.029400
-11.625300 0.084700
-11.613100 0.216500
-11.600800 0.491900
-11.588600 0.993800
-11.576400 1.787600
-11.564100 2.870600
-11.551900 4.140100
-11.539700 5.427200
-11.527400 6.616300
-11.515200 7.789400
-11.502900 9.278500
-11.490700 11.535700
-11.478500 14.862600
-11.466200 19.171500
-11.454000 23.961900
-11.441700 28.550100
-11.429500 32.395400
-11.417300 35.299000
-11.405000 37.384000
-11.392800 38.969700
-11.380600 40.511600
-11.368300 42.633300
-11.356100 46.087700
-11.343800 51.508500
-11.331600 59.059900
-11.319400 68.275100
-11.307100 78.262900
-11.294900 88.145800
-11.282700 97.401100
-11.270400 105.887300
-11.258200 113.593800
-11.245900 120.337000
-11.233700 125.639200
-11.221500 128.919700
-11.209200 129.907800
-11.197000 128.957000
-11.184700 126.893000
-11.172500 124.345200
-11.160300 121.018100
-11.148000 115.568000
-11.135800 106.355600
-11.123600 92.614800
-11.111300 75.191200
-11.099100 56.323400
-11.086800 38.663300
-11.074600 24.217900
-11.062400 13.803400
-11.050100 7.144400
-11.037900 3.352200
-11.025600 1.423600
-11.013400 0.546200
-11.001200 0.189000
-10.988900 0.058900
-10.976700 0.016500
-10.964500 0.004100
-10.952200 0.000900
-10.940000 0.000200
-10.927700 0.000000
-10.915500 0.000000
-10.903300 0.000000
-10.891000 0.000000
-10.878800 0.000000
-10.866500 0.000000
-10.854300 0.000000
-10.842100 0.000000
-10.829800 0.000000
-10.817600 0.000000
-10.805400 0.000000
-10.793100 0.000000
-10.780900 0.000000
-10.768600 0.000000
-10.756400 0.000000
-10.744200 0.000000
-10.731900 0.000000
-10.719700 0.000000
-10.707400 0.000000
-10.695200 0.000000
-10.683000 0.000000
-10.670700 0.000000
-10.658500 0.000000
-10.646300 0.000000
-10.634000 0.000000
-10.621800 0.000000
-10.609500 0.000000
-10.597300 0.000000
-10.585100 0.000000
-10.572800 0.000000
-10.560600 0.000000
-10.548300 0.000000
-10.536100 0.000000
-10.523900 0.000000
-10.511600 0.000000
-10.499400 0.000000
-10.487200 0.000000
-10.474900 0.000000
-10.462700 0.000000
-10.450400 0.000000
-10.438200 0.000000
-10.426000 0.000000
-10.413700 0.000000
-10.401500 0.000000
-10.389200 0.000000
-10.377000 0.000000
-10.364800 0.000000
-10.352500 0.000000
-10.340300 0.000000
-10.328100 0.000000
-10.315800 0.000000
-10.303600 0.000000
-10.291300 0.000000
-10.279100 0.000000
-10.266900 0.000000
-10.254600 0.000000
-10.242400 0.000000
-10.230100 0.000000
-10.217900 0.000000
-10.205700 0.000000
-10.193400 0.000000
-10.181200 0.000000
-10.169000 0.000000
-10.156700 0.000000
-10.144500 0.000000
-10.132200 0.000000
-10.120000 0.000000
-10.107800 0.000000
-10.095500 0.000000
-10.083300 0.000000
-10.071100 0.000000
-10.058800 0.000000
-10.046600 0.000000
-10.034300 0.000000
-10.022100 0.000000
-10.009900 0.000000
-9.997600 0.000000
-9.985400 0.000000
-9.973100 0.000000
-9.960900 0.000000
-9.948700 0.000000
-9.936400 0.000000
-9.924200 0.000000
-9.912000 0.000000
-9.899700 0.000000
-9.887500 0.000000
-9.875200 0.000000
-9.863000 0.000000
-9.850800 0.000000
-9.838500 0.000000
-9.826300 0.000000
-9.814000 0.000000
-9.801800 0.000000
-9.789600 0.000000
-9.777300 0.000000
-9.765100 0.000000
-9.752900 0.000000
-9.740600 0.000000
-9.728400 0.000000
-9.716100 0.000000
-9.703900 0.000000
-9.691700 0.000000
-9.679400 0.000000
-9.667200 0.000000
-9.654900 0.000000
-9.642700 0.000000
-9.630500 0.000000
-9.618200 0.000000
-9.606000 0.000000
-9.593800 0.000000
-9.581500 0.000000
-9.569300 0.000000
-9.557000 0.000000
-9.544800 0.000000
-9.532600 0.000000
-9.520300 0.000000
-9.508100 0.000000
-9.495800 0.000000
-9.483600 0.000000
-9.471400 0.000000
-9.459100 0.000000
-9.446900 0.000000
-9.434700 0.000000
-9.422400 0.000000
-9.410200 0.000000
-9.397900 0.000000
-9.385700 0.000000
-9.373500 0.000000
-9.361200 0.000000
-9.349000 0.000000
-9.336700 0.000000
-9.324500 0.000000
-9.312300 0.000000
-9.300000 0.000000
-9.287800 0.000000
-9.275600 0.000000
-9.263300 0.000000
-9.251100 0.000000
-9.238800 0.000000
-9.226600 0.000000
-9.214400 0.000000
-9.202100 0.000000
-9.189900 0.000000
-9.177600 0.000000
-9.165400 0.000000
-9.153200 0.000000
-9.140900 0.000000
-9.128700 0.000000
-9.116500 0.000000
-9.104200 0.000000
-9.092000 0.000000
-9.079700 0.000000
-9.067500 0.000000
-9.055300 0.000000
-9.043000 0.000000
-9.030800 0.000000
-9.018600 0.000000
-9.006300 0.000000
-8.994100 0.000000
-8.981800 0.000000
-8.969600 0.000000
-8.957400 0.000000
-8.945100 0.000000
-8.932900 0.000000
-8.920600 0.000000
-8.908400 0.000000
-8.896200 0.000000
-8.883900 0.000000
-8.871700 0.000000
-8.859500 0.000000
-8.847200 0.000000
-8.835000 0.000000
-8.822700 0.000000
-8.810500 0.000000
-8.798300 0.000000
-8.786000 0.000000
-8.773800 0.000000
-8.761500 0.000000
-8.749300 0.000000
-8.737100 0.000000
-8.724800 0.000000
-8.712600 0.000000
-8.700400 0.000000
-8.688100 0.000000
-8.675900 0.000000
-8.663600 0.000000
-8.651400 0.000000
-8.639200 0.000000
-8.626900 0.000000
-8.614700 0.000000
-8.602400 0.000000
-8.590200 0.000000
-8.578000 0.000000
-8.565700 0.000000
-8.553500 0.000000
-8.541300 0.000000
-8.529000 0.000000
-8.516800 0.000000
-8.504500 0.000000
-8.492300 0.000000
-8.480100 0.000000
-8.467800 0.000000
-8.455600 0.000000
-8.443300 0.000000
-8.431100 0.000000
-8.418900 0.000000
-8.406600 0.000000
-8.394400 0.000000
-8.382200 0.000000
-8.369900 0.000000
-8.357700 0.000000
-8.345400 0.000000
-8.333200 0.000000
-8.321000 0.000000
-8.308700 0.000000
-8.296500 0.000000
-8.284200 0.000000
-8.272000 0.000000
-8.259800 0.000000
-8.247500 0.000000
-8.235300 0.000000
-8.223100 0.000000
-8.210800 0.000000
-8.198600 0.000000
-8.186300 0.000000
-8.174100 0.000000
-8.161900 0.000000
-8.149600 0.000000
-8.137400 0.000000
-8.125100 0.000000
-8.112900 0.000000
-8.100700 0.000000
-8.088400 0.000000
-8.076200 0.000000
-8.064000 0.000000
-8.051700 0.000000
-8.039500 0.000000
-8.027200 0.000000
-8.015000 0.000000
-8.002800 0.000000
-7.990500 0.000000
-7.978300 0.000000
-7.966100 0.000000
-7.953800 0.000000
-7.941600 0.000000
-7.929300 0.000000
-7.917100 0.000000
-7.904900 0.000000
-7.892600 0.000000
-7.880400 0.000000
-7.868100 0.000000
-7.855900 0.000000
-7.843700 0.000000
-7.831400 0.000000
-7.819200 0.000000
-7.807000 0.000000
-7.794700 0.000000
-7.782500 0.000000
-7.770200 0.000000
-7.758000 0.000000
-7.745800 0.000000
-7.733500 0.000000
-7.721300 0.000000
-7.709000 0.000000
-7.696800 0.000000
-7.684600 0.000000
-7.672300 0.000000
-7.660100 0.000000
-7.647900 0.000000
-7.635600 0.000000
-7.623400 0.000000
-7.611100 0.000000
-7.598900 0.000000
-7.586700 0.000000
-7.574400 0.000000
-7.562200 0.000000
-7.549900 0.000000
-7.537700 0.000000
-7.525500 0.000000
-7.513200 0.000000
-7.501000 0.000000
-7.488800 0.000000
-7.476500 0.000000
-7.464300 0.000000
-7.452000 0.000000
-7.439800 0.000000
-7.427600 0.000000
-7.415300 0.000000
-7.403100 0.000000
-7.390800 0.000000
-7.378600 0.000000
-7.366400 0.000000
-7.354100 0.000000
-7.341900 0.000000
-7.329700 0.000000
-7.317400 0.000000
-7.305200 0.000000
-7.292900 0.000000
-7.280700 0.000000
-7.268500 0.000000
-7.256200 0.000000
-7.244000 0.000000
-7.231700 0.000000
-7.219500 0.000000
-7.207300 0.000000
-7.195000 0.000000
-7.182800 0.000000
-7.170600 0.000000
-7.158300 0.000000
-7.146100 0.000000
-7.133800 0.000000
-7.121600 0.000000
-7.109400 0.000000
-7.097100 0.000000
-7.084900 0.000000
-7.072600 0.000000
-7.060400 0.000000
-7.048200 0.000000
-7.035900 0.000000
-7.023700 0.000000
-7.011500 0.000000
-6.999200 0.000000
-6.987000 0.000000
-6.974700 0.000000
-6.962500 0.000000
-6.950300 0.000000
-6.938000 0.000000
-6.925800 0.000000
-6.913600 0.000000
-6.901300 0.000000
-6.889100 0.000000
-6.876800 0.000000
-6.864600 0.000000
-6.852400 0.000000
-6.840100 0.000000
-6.827900 0.000000
-6.815600 0.000000
-6.803400 0.000000
-6.791200 0.000000
-6.778900 0.000000
-6.766700 0.000000
-6.754500 0.000000
-6.742200 0.000000
-6.730000 0.000000
-6.717700 0.000000
-6.705500 0.000000
-6.693300 0.000000
-6.681000 0.000000
-6.668800 0.000000
-6.656500 0.000000
-6.644300 0.000000
-6.632100 0.000000
-6.619800 0.000000
-6.607600 0.000000
-6.595400 0.000000
-6.583100 0.000000
-6.570900 0.000000
-6.558600 0.000000
-6.546400 0.000000
-6.534200 0.000000
-6.521900 0.000000
-6.509700 0.000000
-6.497400 0.000000
-6.485200 0.000000
-6.473000 0.000000
-6.460700 0.000000
-6.448500 0.000000
-6.436300 0.000000
-6.424000 0.000000
-6.411800 0.000000
-6.399500 0.000000
-6.387300 0.000000
-6.375100 0.000000
-6.362800 0.000000
-6.350600 0.000000
-6.338300 0.000000
-6.326100 0.000000
-6.313900 0.000000
-6.301600 0.000000
-6.289400 0.000000
-6.277200 0.000000
-6.264900 0.000000
-6.252700 0.000000
-6.240400 0.000000
-6.228200 0.000000
-6.216000 0.000000
-6.203700 0.000000
-6.191500 0.000000
-6.179200 0.000000
-6.167000 0.000000
-6.154800 0.000000
-6.142500 0.000000
-6.130300 0.000000
-6.118100 0.000000
-6.105800 0.000000
-6.093600 0.000000
-6.081300 0.000000
-6.069100 0.000000
-6.056900 0.000000
-6.044600 0.000000
-6.032400 0.000000
-6.020100 0.000000
-6.007900 0.000000
-5.995700 0.000000
-5.983400 0.000100
-5.971200 0.000500
-5.959000 0.002500
-5.946700 0.010800
-5.934500 0.041800
-5.922200 0.143500
-5.910000 0.438600
-5.897800 1.194200
-5.885500 2.900400
-5.873300 6.297500
-5.861000 12.264000
-5.848800 21.532300
-5.836600 34.358300
-5.824300 50.427200
-5.812100 69.213400
-5.799900 90.600400
-5.787600 115.104700
-5.775400 143.072200
-5.763100 173.022400
-5.750900 200.389600
-5.738700 218.172000
-5.726400 219.832100
-5.714200 202.909100
-5.702000 170.877800
-5.689700 131.838900
-5.677500 94.875500
-5.665200 66.445800
-5.653000 48.833300
-5.640800 41.030300
-5.628500 40.929800
-5.616300 47.253600
-5.604000 60.173700
-5.591800 80.494100
-5.579600 108.077000
-5.567300 140.592700
-5.555100 173.474300
-5.542900 201.221800
-5.530600 219.360700
-5.518400 226.004600
-5.506100 222.329200
-5.493900 211.974300
-5.481700 199.883600
-5.469400 191.101200
-5.457200 189.725300
-5.444900 197.912100
-5.432700 214.853400
-5.420500 236.094700
-5.408200 254.018300
-5.396000 260.081100
-5.383800 248.264000
-5.371500 217.959900
-5.359300 174.452000
-5.347000 126.562200
-5.334800 82.899700
-5.322600 48.887900
-5.310300 25.901900
-5.298100 12.309000
-5.285800 5.239500
-5.273600 1.995500
-5.261400 0.679300
-5.249100 0.206600
-5.236900 0.056100
-5.224700 0.013600
-5.212400 0.002900
-5.200200 0.000600
-5.187900 0.000100
-5.175700 0.000000
-5.163500 0.000000
-5.151200 0.000000
-5.139000 0.000000
-5.126700 0.000000
-5.114500 0.000000
-5.102300 0.000000
-5.090000 0.000000
-5.077800 0.000000
-5.065600 0.000000
-5.053300 0.000000
-5.041100 0.000000
-5.028800 0.000000
-5.016600 0.000000
-5.004400 0.000000
-4.992100 0.000000
-4.979900 0.000000
-4.967600 0.000000
-4.955400 0.000000
-4.943200 0.000000
-4.930900 0.000000
-4.918700 0.000000
-4.906500 0.000000
-4.894200 0.000000
-4.882000 0.000000
-4.869700 0.000000
-4.857500 0.000000
-4.845300 0.000000
-4.833000 0.000000
-4.820800 0.000000
-4.808500 0.000000
-4.796300 0.000000
-4.784100 0.000000
-4.771800 0.000000
-4.759600 0.000000
-4.747400 0.000000
-4.735100 0.000000
-4.722900 0.000000
-4.710600 0.000000
-4.698400 0.000000
-4.686200 0.000000
-4.673900 0.000000
-4.661700 0.000000
-4.649500 0.000000
-4.637200 0.000000
-4.625000 0.000000
-4.612700 0.000000
-4.600500 0.000000
-4.588300 0.000000
-4.576000 0.000000
-4.563800 0.000000
-4.551500 0.000000
-4.539300 0.000000
-4.527100 0.000000
-4.514800 0.000000
-4.502600 0.000000
-4.490400 0.000000
-4.478100 0.000000
-4.465900 0.000000
-4.453600 0.000000
-4.441400 0.000000
-4.429200 0.000000
-4.416900 0.000000
-4.404700 0.000000
-4.392400 0.000000
-4.380200 0.000000
-4.368000 0.000000
-4.355700 0.000000
-4.343500 0.000000
-4.331300 0.000000
-4.319000 0.000000
-4.306800 0.000000
-4.294500 0.000000
-4.282300 0.000000
-4.270100 0.000000
-4.257800 0.000000
-4.245600 0.000000
-4.233300 0.000000
-4.221100 0.000000
-4.208900 0.000000
-4.196600 0.000100
-4.184400 0.000400
-4.172200 0.001700
-4.159900 0.006900
-4.147700 0.024400
-4.135400 0.076800
-4.123200 0.214900
-4.111000 0.534400
-4.098700 1.181600
-4.086500 2.326000
-4.074200 4.086200
-4.062000 6.436300
-4.049800 9.170900
-4.037500 12.008800
-4.025300 14.816700
-4.013100 17.782400
-4.000800 21.317600
-3.988600 25.652200
-3.976300 30.393000
-3.964100 34.468000
-3.951900 36.636200
-3.939600 36.260300
-3.927400 33.753500
-3.915100 30.334300
-3.902900 27.277500
-3.890700 25.224100
-3.878400 24.004700
-3.866200 22.995000
-3.854000 21.660800
-3.841700 19.910200
-3.829500 18.074700
-3.817200 16.602700
-3.805000 15.720100
-3.792800 15.301800
-3.780500 15.025700
-3.768300 14.654300
-3.756000 14.201300
-3.743800 13.868000
-3.731600 13.850200
-3.719300 14.206200
-3.707100 14.873800
-3.694900 15.766100
-3.682600 16.830100
-3.670400 18.036300
-3.658100 19.363100
-3.645900 20.823500
-3.633700 22.496500
-3.621400 24.477900
-3.609200 26.728800
-3.597000 28.912100
-3.584700 30.366500
-3.572500 30.311000
-3.560200 28.218900
-3.548000 24.147900
-3.535800 18.793800
-3.523500 13.203600
-3.511300 8.330500
-3.499000 4.703500
-3.486800 2.371800
-3.474600 1.070100
-3.462300 0.444400
-3.450100 0.208200
-3.437900 0.201000
-3.425600 0.381800
-3.413400 0.795500
-3.401100 1.530200
-3.388900 2.670300
-3.376700 4.259100
-3.364400 6.298500
-3.352200 8.793100
-3.339900 11.798800
-3.327700 15.401900
-3.315500 19.596200
-3.303200 24.121800
-3.291000 28.397700
-3.278800 31.631500
-3.266500 33.072900
-3.254300 32.283700
-3.242000 29.298100
-3.229800 24.621800
-3.217600 19.078200
-3.205300 13.565400
-3.193100 8.807600
-3.180800 5.196900
-3.168600 2.774600
-3.156400 1.335300
-3.144100 0.577400
-3.131900 0.223800
-3.119700 0.077600
-3.107400 0.024000
-3.095200 0.006600
-3.082900 0.001600
-3.070700 0.000400
-3.058500 0.000100
-3.046200 0.000000
-3.034000 0.000000
-3.021700 0.000000
-3.009500 0.000000
-2.997300 0.000000
-2.985000 0.000000
-2.972800 0.000000
-2.960600 0.000000
-2.948300 0.000000
-2.936100 0.000000
-2.923800 0.000000
-2.911600 0.000000
-2.899400 0.000000
-2.887100 0.000000
-2.874900 0.000000
-2.862600 0.000000
-2.850400 0.000000
-2.838200 0.000000
-2.825900 0.000000
-2.813700 0.000000
-2.801500 0.000000
-2.789200 0.000000
-2.777000 0.000000
-2.764700 0.000000
-2.752500 0.000000
-2.740300 0.000000
-2.728000 0.000000
-2.715800 0.000000
-2.703500 0.000000
-2.691300 0.000000
-2.679100 0.000000
-2.666800 0.000000
-2.654600 0.000000
-2.642400 0.000000
-2.630100 0.000000
-2.617900 0.000000
-2.605600 0.000000
-2.593400 0.000000
-2.581200 0.000000
-2.568900 0.000000
-2.556700 0.000000
-2.544500 0.000000
-2.532200 0.000000
-2.520000 0.000000
-2.507700 0.000000
-2.495500 0.000000
-2.483300 0.000000
-2.471000 0.000000
-2.458800 0.000000
-2.446500 0.000000
-2.434300 0.000000
-2.422100 0.000000
-2.409800 0.000000
-2.397600 0.000000
-2.385400 0.000000
-2.373100 0.000000
-2.360900 0.000000
-2.348600 0.000000
-2.336400 0.000000
-2.324200 0.000000
-2.311900 0.000000
-2.299700 0.000000
-2.287400 0.000000
-2.275200 0.000000
-2.263000 0.000000
-2.250700 0.000000
-2.238500 0.000000
-2.226300 0.000000
-2.214000 0.000000
-2.201800 0.000000
-2.189500 0.000000
-2.177300 0.000000
-2.165100 0.000000
-2.152800 0.000000
-2.140600 0.000000
-2.128300 0.000000
-2.116100 0.000000
-2.103900 0.000000
-2.091600 0.000000
-2.079400 0.000000
-2.067200 0.000000
-2.054900 0.000000
-2.042700 0.000000
-2.030400 0.000000
-2.018200 0.000000
-2.006000 0.000000
-1.993700 0.000000
-1.981500 0.000000
-1.969200 0.000000
-1.957000 0.000000
-1.944800 0.000000
-1.932500 0.000000
-1.920300 0.000000
-1.908100 0.000000
-1.895800 0.000000
-1.883600 0.000200
-1.871300 0.000800
-1.859100 0.003500
-1.846900 0.013900
-1.834600 0.049100
-1.822400 0.155500
-1.810100 0.441600
-1.797900 1.126700
-1.785700 2.587000
-1.773400 5.352700
-1.761200 9.995000
-1.749000 16.871200
-1.736700 25.795800
-1.724500 35.832500
-1.712200 45.433500
-1.700000 52.978700
-1.687800 57.456400
-1.675500 58.834600
-1.663300 57.854100
-1.651000 55.449300
-1.638800 52.305800
-1.626600 48.863500
-1.614300 45.565100
-1.602100 42.909900
-1.589900 41.172700
-1.577600 40.112900
-1.565400 39.075900
-1.553100 37.484200
-1.540900 35.296300
-1.528700 33.015100
-1.516400 31.246400
-1.504200 30.211200
-1.491900 29.643400
-1.479700 29.140200
-1.467500 28.631100
-1.455200 28.541700
-1.443000 29.514400
-1.430800 31.915700
-1.418500 35.483300
-1.406300 39.309400
-1.394000 42.135900
-1.381800 42.827900
-1.369600 40.877600
-1.357300 36.755900
-1.345100 31.902700
-1.332900 28.251500
-1.320600 27.423500
-1.308400 29.960200
-1.296100 35.009800
-1.283900 40.694500
-1.271700 45.031700
-1.259400 46.933900
-1.247200 46.703700
-1.234900 45.703900
-1.222700 45.410300
-1.210500 46.479800
-1.198200 48.444200
-1.186000 50.174100
-1.173800 50.697200
-1.161500 49.745300
-1.149300 47.690200
-1.137000 45.047500
-1.124800 42.022100
-1.112600 38.434800
-1.100300 33.998900
-1.088100 28.662800
-1.075800 22.772500
-1.063600 16.999300
-1.051400 12.137000
-1.039100 8.903800
-1.026900 7.818900
-1.014700 9.140300
-1.002400 12.808200
-0.990200 18.375400
-0.977900 24.975100
-0.965700 31.406900
-0.953500 36.373600
-0.941200 38.820100
-0.929000 38.273800
-0.916700 35.072200
-0.904500 30.360200
-0.892300 25.788000
-0.880000 22.968200
-0.867800 22.926800
-0.855600 25.846800
-0.843300 31.248500
-0.831100 38.440300
-0.818800 46.849800
-0.806600 55.948700
-0.794400 64.887300
-0.782100 72.297300
-0.769900 76.628400
-0.757600 76.890900
-0.745400 73.254400
-0.733200 67.012000
-0.720900 59.910700
-0.708700 53.324700
-0.696500 47.822000
-0.684200 43.334500
-0.672000 39.686600
-0.659700 37.017300
-0.647500 35.788900
-0.635300 36.436800
-0.623000 38.991700
-0.610800 42.977200
-0.598500 47.604500
-0.586300 52.030500
-0.574100 55.471900
-0.561800 57.205200
-0.549600 56.637500
-0.537400 53.515200
-0.525100 48.120700
-0.512900 41.269800
-0.500600 34.094500
-0.488400 27.767100
-0.476200 23.314200
-0.463900 21.553000
-0.451700 23.084900
-0.439400 28.247000
-0.427200 36.956600
-0.415000 48.474600
-0.402700 61.240600
-0.390500 72.999600
-0.378300 81.337100
-0.366000 84.485700
-0.353800 82.029200
-0.341500 75.127000
-0.329300 66.153300
-0.317100 57.958800
-0.304800 53.060300
-0.292600 52.937800
-0.280400 57.516700
-0.268100 64.995800
-0.255900 72.275200
-0.243600 76.051100
-0.231400 74.188300
-0.219200 66.649800
-0.206900 55.427600
-0.194700 43.523700
-0.182400 33.617000
-0.170200 27.166500
-0.158000 24.301700
-0.145700 24.297200
-0.133500 26.158600
-0.121300 28.984800
-0.109000 32.089200
-0.096800 35.030100
-0.084500 37.617300
-0.072300 39.841400
-0.060100 41.707600
-0.047800 43.094200
-0.035600 43.769900
-0.023300 43.547000
-0.011100 42.394600
0.001100 40.389300
0.013400 37.574800
0.025600 33.916300
0.037800 29.437800
0.050100 24.431300
0.062300 19.532800
0.074600 15.555100
0.086800 13.158900
0.099000 12.566900
0.111300 13.505300
0.123500 15.400300
0.135800 17.679900
0.148000 19.961400
0.160200 22.004700
0.172500 23.526500
0.184700 24.100700
0.196900 23.286600
0.209200 20.905400
0.221400 17.230800
0.233700 12.928500
0.245900 8.779300
0.258100 5.373800
0.270400 2.956400
0.282600 1.458600
0.294900 0.644300
0.307100 0.254400
0.319300 0.089700
0.331600 0.028200
0.343800 0.007900
0.356000 0.002000
0.368300 0.000400
0.380500 0.000100
0.392800 0.000000
0.405000 0.000000
0.417200 0.000000
0.429500 0.000000
0.441700 0.000000
0.454000 0.000000
0.466200 0.000000
0.478400 0.000000
0.490700 0.000000
0.502900 0.000000
0.515100 0.000000
0.527400 0.000000
0.539600 0.000000
0.551900 0.000000
0.564100 0.000000
0.576300 0.000000
0.588600 0.000000
0.600800 0.000000
0.613100 0.000000
0.625300 0.000000
0.637500 0.000000
0.649800 0.000000
0.662000 0.000000
0.674200 0.000000
0.686500 0.000000
0.698700 0.000000
0.711000 0.000000
0.723200 0.000000
0.735400 0.000000
0.747700 0.000000
0.759900 0.000000
0.772100 0.000000
0.784400 0.000000
0.796600 0.000000
0.808900 0.000000
0.821100 0.000000
0.833300 0.000000
0.845600 0.000000
0.857800 0.000000
0.870100 0.000000
0.882300 0.000000
0.894500 0.000000
0.906800 0.000000
0.919000 0.000000
0.931200 0.000000
0.943500 0.000000
0.955700 0.000000
0.968000 0.000000
0.980200 0.000000
0.992400 0.000000
1.004700 0.000000
1.016900 0.000000
1.029200 0.000000
1.041400 0.000000
1.053600 0.000000
1.065900 0.000000
1.078100 0.000000
1.090300 0.000000
1.102600 0.000000
1.114800 0.000000
1.127100 0.000000
1.139300 0.000000
1.151500 0.000000
1.163800 0.000000
1.176000 0.000000
1.188300 0.000000
1.200500 0.000000
1.212700 0.000000
1.225000 0.000000
1.237200 0.000000
1.249400 0.000000
1.261700 0.000000
1.273900 0.000000
1.286200 0.000000
1.298400 0.000000
1.310600 0.000000
1.322900 0.000000
1.335100 0.000000
1.347400 0.000000
1.359600 0.000000
1.371800 0.000000
1.384100 0.000000
1.396300 0.000000
1.408500 0.000000
1.420800 0.000000
1.433000 0.000000
1.445300 0.000000
1.457500 0.000000
1.469700 0.000000
1.482000 0.000000
1.494200 0.000000
1.506500 0.000000
1.518700 0.000000
1.530900 0.000000
1.543200 0.000000
1.555400 0.000000
1.567600 0.000000
1.579900 0.000200
1.592100 0.001000
1.604400 0.003900
1.616600 0.013800
1.628800 0.042800
1.641100 0.118400
1.653300 0.290500
1.665600 0.633000
1.677800 1.225100
1.690000 2.105800
1.702300 3.214600
1.714500 4.358400
1.726700 5.248100
1.739000 5.612400
1.751200 5.330700
1.763500 4.496700
1.775700 3.368800
1.787900 2.241500
1.800200 1.324600
1.812400 0.695200
1.824600 0.324000
1.836900 0.134100
1.849100 0.049300
1.861400 0.016100
1.873600 0.004700
1.885800 0.001200
1.898100 0.000300
1.910300 0.000100
1.922600 0.000000
1.934800 0.000000
1.947000 0.000000
1.959300 0.000100
1.971500 0.000500
1.983700 0.002000
1.996000 0.008100
2.008200 0.028600
2.020500 0.090000
2.032700 0.252600
2.044900 0.631400
2.057200 1.406500
2.069400 2.793500
2.081700 4.950600
2.093900 7.834300
2.106100 11.079300
2.118400 14.014100
2.130600 15.870100
2.142800 16.111800
2.155100 14.705400
2.167300 12.162000
2.179600 9.341200
2.191800 7.145000
2.204000 6.255100
2.216300 6.974200
2.228500 9.145800
2.240800 12.143900
2.253000 14.995000
2.265200 16.683700
2.277500 16.559000
2.289700 14.616300
2.301900 11.463100
2.314200 7.985400
2.326400 4.940800
2.338700 2.715500
2.350900 1.327200
2.363100 0.582600
2.375400 0.248700
2.387600 0.157200
2.399900 0.238100
2.412100 0.515000
2.424300 1.086200
2.436600 2.098200
2.448800 3.709800
2.461000 6.052700
2.473300 9.194100
2.485500 13.098800
2.497800 17.580700
2.510000 22.259900
2.522200 26.588800
2.534500 30.005300
2.546700 32.180200
2.559000 33.214900
2.571200 33.625100
2.583400 34.067500
2.595700 34.937600
2.607900 36.069900
2.620100 36.740000
2.632400 36.008000
2.644600 33.230200
2.656900 28.445400
2.669100 22.415600
2.681300 16.325900
2.693600 11.359000
2.705800 8.378700
2.718100 7.805100
2.730300 9.602500
2.742500 13.280000
2.754800 17.934500
2.767000 22.462400
2.779200 25.974800
2.791500 28.205300
2.803700 29.577500
2.816000 30.794500
2.828200 32.211700
2.840400 33.471800
2.852700 33.688200
2.864900 32.025300
2.877200 28.244000
2.889400 22.859000
2.901600 16.872100
2.913900 11.315400
2.926100 6.884500
2.938300 3.819700
2.950600 2.012100
2.962800 1.213300
2.975100 1.216700
2.987300 1.932500
2.999500 3.337800
3.011800 5.342100
3.024000 7.652400
3.036200 9.748800
3.048500 11.032800
3.060700 11.089800
3.073000 9.900100
3.085200 7.849400
3.097400 5.527300
3.109700 3.456700
3.121900 1.919900
3.134200 0.947100
3.146400 0.414900
3.158600 0.161400
3.170900 0.055800
3.183100 0.017100
3.195300 0.004700
3.207600 0.001100
3.219800 0.000200
3.232100 0.000000
3.244300 0.000000
3.256500 0.000000
3.268800 0.000000
3.281000 0.000000
3.293300 0.000000
3.305500 0.000000
3.317700 0.000000
3.330000 0.000000
3.342200 0.000000
3.354400 0.000000
3.366700 0.000000
3.378900 0.000000
3.391200 0.000000
3.403400 0.000000
3.415600 0.000000
3.427900 0.000000
3.440100 0.000000
3.452400 0.000000
3.464600 0.000000
3.476800 0.000000
3.489100 0.000000
3.501300 0.000000
3.513500 0.000000
3.525800 0.000000
3.538000 0.000000
3.550300 0.000000
3.562500 0.000000
3.574700 0.000000
3.587000 0.000000
3.599200 0.000000
3.611500 0.000000
3.623700 0.000000
3.635900 0.000000
3.648200 0.000000
3.660400 0.000000
3.672600 0.000000
3.684900 0.000000
3.697100 0.000000
3.709400 0.000000
3.721600 0.000000
3.733800 0.000000
3.746100 0.000000
3.758300 0.000000
3.770600 0.000000
3.782800 0.000000
3.795000 0.000000
3.807300 0.000000
3.819500 0.000000
3.831700 0.000000
3.844000 0.000000
3.856200 0.000000
3.868500 0.000000
3.880700 0.000000
3.892900 0.000000
3.905200 0.000000
3.917400 0.000000
3.929700 0.000000
3.941900 0.000000
3.954100 0.000000
3.966400 0.000000
3.978600 0.000000
3.990800 0.000000
4.003100 0.000000
4.015300 0.000000
4.027600 0.000000
4.039800 0.000000
4.052000 0.000000
4.064300 0.000000
4.076500 0.000000
4.088700 0.000000
4.101000 0.000000
4.113200 0.000000
4.125500 0.000000
4.137700 0.000000
4.149900 0.000000
4.162200 0.000000
4.174400 0.000000
4.186700 0.000000
4.198900 0.000000
4.211100 0.000000
4.223400 0.000000
4.235600 0.000000
4.247800 0.000000
4.260100 0.000000
4.272300 0.000000
4.284600 0.000000
4.296800 0.000000
4.309000 0.000000
4.321300 0.000000
4.333500 0.000000
4.345800 0.000000
4.358000 0.000000
4.370200 0.000000
4.382500 0.000000
4.394700 0.000000
4.406900 0.000000
4.419200 0.000000
4.431400 0.000100
4.443700 0.000300
4.455900 0.001300
4.468100 0.005000
4.480400 0.017400
4.492600 0.053300
4.504900 0.145600
4.517100 0.355200
4.529300 0.773800
4.541600 1.509400
4.553800 2.643200
4.566000 4.169600
4.578300 5.947600
4.590500 7.702800
4.602800 9.092200
4.615000 9.810700
4.627200 9.691700
4.639500 8.763100
4.651700 7.238000
4.664000 5.443300
4.676200 3.712500
4.688400 2.287100
4.700700 1.268000
4.712900 0.630600
4.725100 0.280600
4.737400 0.111500
4.749600 0.039500
4.761900 0.012500
4.774100 0.003500
4.786300 0.000900
4.798600 0.000500
4.810800 0.001400
4.823100 0.005600
4.835300 0.019800
4.847500 0.062900
4.859800 0.178600
4.872000 0.454400
4.884200 1.036700
4.896500 2.125100
4.908700 3.919400
4.921000 6.515000
4.933200 9.780200
4.945400 13.291700
4.957700 16.403200
4.969900 18.451400
4.982200 19.003400
4.994400 18.010300
5.006600 15.791800
5.018900 12.892500
5.031100 9.916200
5.043300 7.410800
5.055600 5.805900
5.067800 5.358300
5.080100 6.080200
5.092300 7.678300
5.104500 9.580900
5.116800 11.112300
5.129000 11.781900
5.141200 11.536700
5.153500 10.795000
5.165700 10.199900
5.178000 10.227300
5.190200 10.900000
5.202400 11.801400
5.214700 12.380300
5.226900 12.336000
5.239200 11.815300
5.251400 11.287800
5.263600 11.203500
5.275900 11.694400
5.288100 12.534400
5.300300 13.362200
5.312600 13.967800
5.324800 14.414600
5.337100 14.928200
5.349300 15.693400
5.361500 16.765500
5.373800 18.157300
5.386000 19.968400
5.398300 22.379600
5.410500 25.481500
5.422700 29.078100
5.435000 32.624000
5.447200 35.341000
5.459400 36.454000
5.471700 35.465000
5.483900 32.390300
5.496200 27.864800
5.508400 23.013000
5.520600 19.066300
5.532900 16.858300
5.545100 16.449800
5.557400 17.105600
5.569600 17.670900
5.581800 17.158100
5.594100 15.217100
5.606300 12.241300
5.618500 9.108500
5.630800 6.782400
5.643000 6.007200
5.655300 7.169700
5.667500 10.237800
5.679700 14.701300
5.692000 19.576400
5.704200 23.606100
5.716500 25.679400
5.728700 25.280000
5.740900 22.702500
5.753200 18.914600
5.765400 15.183900
5.777600 12.674600
5.789900 12.137000
5.802100 13.696000
5.814400 16.753800
5.826600 20.102000
5.838800 22.323300
5.851100 22.374700
5.863300 20.047500
5.875600 16.011800
5.887800 11.427900
5.900000 7.405000
5.912300 4.640800
5.924500 3.372400
5.936700 3.519800
5.949000 4.818300
5.961200 6.848000
5.973500 9.023400
5.985700 10.674000
5.997900 11.255700
6.010200 10.596200
6.022400 9.005900
6.034700 7.184000
6.046900 5.988700
6.059100 6.207900
6.071400 8.385000
6.083600 12.664700
6.095800 18.640000
6.108100 25.304900
6.120300 31.277800
6.132600 35.314300
6.144800 36.864000
6.157000 36.292300
6.169300 34.580400
6.181500 32.697200
6.193700 31.078100
6.206000 29.535800
6.218200 27.594400
6.230500 24.974600
6.242700 21.921300
6.254900 19.210600
6.267200 17.849600
6.279400 18.619400
6.291700 21.680100
6.303900 26.435200
6.316100 31.730300
6.328400 36.283700
6.340600 39.125600
6.352800 39.844900
6.365100 38.599300
6.377300 35.975200
6.389600 32.798300
6.401800 29.909900
6.414000 27.908400
6.426300 26.945100
6.438500 26.729100
6.450800 26.798400
6.463000 26.886900
6.475200 27.097800
6.487500 27.728200
6.499700 28.896200
6.511900 30.309400
6.524200 31.389000
6.536400 31.638700
6.548700 30.930300
6.560900 29.487800
6.573100 27.648200
6.585400 25.658400
6.597600 23.678700
6.609900 21.937600
6.622100 20.833500
6.634300 20.827200
6.646600 22.158300
6.658800 24.585100
6.671000 27.361400
6.683300 29.510300
6.695500 30.260200
6.707800 29.416500
6.720000 27.481600
6.732200 25.450600
6.744500 24.351000
6.756700 24.732000
6.769000 26.392300
6.781200 28.539800
6.793400 30.304200
6.805700 31.256200
6.817900 31.563700
6.830100 31.698500
6.842400 31.940400
6.854600 32.057500
6.866900 31.394300
6.879100 29.308500
6.891300 25.668400
6.903600 21.078000
6.915800 16.678100
6.928100 13.653500
6.940300 12.742300
6.952500 13.995600
6.964800 16.842900
6.977000 20.356200
6.989200 23.564800
7.001500 25.718800
7.013700 26.457600
7.026000 25.854200
7.038200 24.308400
7.050400 22.323500
7.062700 20.290300
7.074900 18.417100
7.087200 16.820700
7.099400 15.640400
7.111600 15.030500
7.123900 15.025400
7.136100 15.407600
7.148300 15.716300
7.160600 15.423600
7.172800 14.185700
7.185100 12.023600
7.197300 9.327600
7.209500 6.690800
7.221800 4.685700
7.234000 3.710500
7.246300 3.946700
7.258500 5.373100
7.270700 7.765100
7.283000 10.671300
7.295200 13.434100
7.307400 15.325800
7.319700 15.787500
7.331900 14.661700
7.344200 12.275400
7.356400 9.317500
7.368600 6.593100
7.380900 4.812800
7.393100 4.523400
7.405300 6.141800
7.417600 9.961200
7.429800 16.031900
7.442100 23.962400
7.454300 32.805100
7.466500 41.175200
7.478800 47.592800
7.491000 50.894300
7.503300 50.546300
7.515500 46.797700
7.527700 40.671400
7.540000 33.772300
7.552200 27.879300
7.564400 24.393400
7.576700 23.870000
7.588900 25.886300
7.601200 29.321800
7.613400 32.880200
7.625600 35.548000
7.637900 36.781500
7.650100 36.438600
7.662400 34.634600
7.674600 31.681900
7.686800 28.111500
7.699100 24.651600
7.711300 22.064200
7.723500 20.879500
7.735800 21.174000
7.748000 22.528900
7.760300 24.201500
7.772500 25.427100
7.784700 25.710000
7.797000 24.960600
7.809200 23.412100
7.821500 21.381800
7.833700 19.057300
7.845900 16.465400
7.858200 13.629100
7.870400 10.751800
7.882600 8.257800
7.894900 6.646100
7.907100 6.258500
7.919400 7.096100
7.931600 8.776400
7.943800 10.665400
7.956100 12.151500
7.968300 12.938800
7.980600 13.180300
7.992800 13.346200
8.005000 13.914000
8.017300 15.114500
8.029500 16.918900
8.041700 19.225000
8.054000 22.028400
8.066200 25.413200
8.078500 29.407100
8.090700 33.875200
8.102900 38.537400
8.115200 43.015600
8.127400 46.797600
8.139700 49.186600
8.151900 49.457600
8.164100 47.310000
8.176400 43.361300
8.188600 39.226000
8.200800 36.923700
8.213100 37.853400
8.225300 41.944800
8.237600 47.560200
8.249800 52.260700
8.262000 53.994200
8.274300 52.003600
8.286500 46.997700
8.298800 40.653400
8.311000 34.865400
8.323200 31.108600
8.335500 30.032900
8.347700 31.294000
8.359900 33.685300
8.372200 35.628500
8.384400 35.880100
8.396700 34.076800
8.408900 30.789200
8.421100 27.089900
8.433400 23.989700
8.445600 22.109100
8.457800 21.658000
8.470100 22.525800
8.482300 24.314300
8.494600 26.376100
8.506800 28.009800
8.519000 28.787600
8.531300 28.761200
8.543500 28.343500
8.555800 27.961400
8.568000 27.800900
8.580200 27.860400
8.592500 28.197000
8.604700 29.055500
8.616900 30.702500
8.629200 33.115600
8.641400 35.857200
8.653700 38.302100
8.665900 40.035900
8.678100 41.056500
8.690400 41.585700
8.702600 41.669100
8.714900 40.949200
8.727100 38.846000
8.739300 35.029800
8.751600 29.820600
8.763800 24.195400
8.776000 19.371100
8.788300 16.227500
8.800500 14.928100
8.812800 14.943100
8.825000 15.419100
8.837200 15.644600
8.849500 15.358700
8.861700 14.784000
8.874000 14.433100
8.886200 14.821100
8.898400 16.211300
8.910700 18.479400
8.922900 21.137400
8.935100 23.500700
8.947400 24.940500
8.959600 25.140900
8.971900 24.266700
8.984100 22.939600
8.996300 21.970000
9.008600 21.930100
9.020800 22.815000
9.033100 24.041700
9.045300 24.820200
9.057500 24.643300
9.069800 23.546300
9.082000 21.976100
9.094200 20.429400
9.106500 19.182300
9.118700 18.310700
9.131000 17.923300
9.143200 18.356300
9.155400 20.120400
9.167700 23.580500
9.179900 28.536700
9.192200 33.993100
9.204400 38.364000
9.216600 40.131400
9.228900 38.629900
9.241100 34.456000
9.253300 29.189200
9.265600 24.569200
9.277800 21.643500
9.290100 20.403600
9.302300 20.082600
9.314500 19.856800
9.326800 19.451900
9.339000 19.252900
9.351300 19.888100
9.363500 21.631100
9.375700 24.080600
9.388000 26.342000
9.400200 27.545000
9.412400 27.300400
9.424700 25.811300
9.436900 23.665600
9.449200 21.547700
9.461400 20.051600
9.473600 19.596500
9.485900 20.363000
9.498100 22.225300
9.510300 24.723500
9.522600 27.122500
9.534800 28.577000
9.547100 28.394700
9.559300 26.330300
9.571500 22.748300
9.583800 18.502600
9.596000 14.556600
9.608300 11.581900
9.620500 9.809800
9.632700 9.210700
9.645000 9.815600
9.657200 11.884800
9.669400 15.757900
9.681700 21.461400
9.693900 28.353500
9.706200 35.100200
9.718400 40.085700
9.730600 42.086800
9.742900 40.841600
9.755100 37.175600
9.767400 32.595100
9.779600 28.569200
9.791800 25.896000
9.804100 24.483200
9.816300 23.613700
9.828500 22.500200
9.840800 20.811600
9.853000 18.908800
9.865300 17.692700
9.877500 18.134200
9.889700 20.695100
9.902000 24.921000
9.914200 29.457200
9.926500 32.562400
9.938700 32.912700
9.950900 30.272100
9.963200 25.640100
9.975400 20.788900
9.987600 17.452000
9.999900 16.580700
10.012100 17.987100
10.024400 20.494400
10.036600 22.515100
10.048800 22.810600
10.061100 21.078400
10.073300 18.067400
10.085600 15.173500
10.097800 13.748300
10.110000 14.471600
10.122300 17.060200
10.134500 20.418000
10.146700 23.174000
10.159000 24.379400
10.171200 24.008500
10.183500 22.966200
10.195700 22.577200
10.207900 23.850500
10.220200 26.920000
10.232400 30.930400
10.244700 34.397100
10.256900 35.868700
10.269100 34.594200
10.281400 30.868400
10.293600 25.865000
10.305800 21.034600
10.318100 17.409000
10.330300 15.202000
10.342600 13.902300
10.354800 12.742500
10.367000 11.220600
10.379300 9.367000
10.391500 7.655300
10.403800 6.676500
10.416000 6.789200
10.428200 7.912100
10.440500 9.528000
10.452700 10.890700
10.464900 11.352900
10.477200 10.661500
10.489400 9.060900
10.501700 7.147600
10.513900 5.567400
10.526100 4.731000
10.538400 4.677300
10.550600 5.114200
10.562800 5.588100
10.575100 5.696800
10.587300 5.254200
10.599600 4.336200
10.611800 3.199900
10.624000 2.141500
10.636300 1.383700
10.648500 1.044000
10.660800 1.161100
10.673000 1.722600
10.685200 2.653900
10.697500 3.783200
10.709700 4.835000
10.721900 5.499700
10.734200 5.558600
10.746400 4.990200
10.758700 3.978800
10.770900 2.817600
10.783100 1.772000
10.795400 0.989800
10.807600 0.491000
10.819900 0.216300
10.832100 0.084600
10.844300 0.029400
10.856600 0.009100
10.868800 0.002500
10.881000 0.000600
10.893300 0.000100
10.905500 0.000000
10.917800 0.000000
10.930000 0.000000
10.942200 0.000000
10.954500 0.000000
10.966700 0.000000
10.979000 0.000000
10.991200 0.000000
11.003400 0.000000
11.015700 0.000000
11.027900 0.000000
11.040100 0.000000
11.052400 0.000000
11.064600 0.000000
11.076900 0.000000
11.089100 0.000000
11.101300 0.000000
11.113600 0.000000
11.125800 0.000000
11.138100 0.000000
11.150300 0.000000
11.162500 0.000000
11.174800 0.000000
11.187000 0.000000
11.199200 0.000000
11.211500 0.000000
11.223700 0.000000
11.236000 0.000000
11.248200 0.000000
11.260400 0.000000
11.272700 0.000000
11.284900 0.000000
11.297200 0.000000
11.309400 0.000000
11.321600 0.000000
11.333900 0.000000
11.346100 0.000000
11.358300 0.000000
11.370600 0.000000
11.382800 0.000000
11.395100 0.000000
11.407300 0.000000
11.419500 0.000000
11.431800 0.000000
11.444000 0.000000
11.456300 0.000000
11.468500 0.000000
11.480700 0.000000
11.493000 0.000000
11.505200 0.000000
11.517400 0.000000
11.529700 0.000000
11.541900 0.000000
11.554200 0.000000
11.566400 0.000000
11.578600 0.000000
11.590900 0.000000
11.603100 0.000000
11.615400 0.000000
11.627600 0.000000
11.639800 0.000000
11.652100 0.000000
11.664300 0.000000
11.676500 0.000000
11.688800 0.000000
11.701000 0.000000
11.713300 0.000000
11.725500 0.000000
11.737700 0.000000
11.750000 0.000000
11.762200 0.000000
11.774400 0.000000
11.786700 0.000000
11.798900 0.000000
11.811200 0.000000
11.823400 0.000000
11.835600 0.000000
e
