set title 'mp-1010136 - Density of States'
set xlabel 'Energy (eV)'
set ylabel 'DOS (states/eV)'
set grid
set xrange [-10:10]
set yrange [0:11.299]
set xzeroaxis lt -1
set terminal png size 800,600
set output 'mp-1010136_dos_gnuplot.png'
plot '-' using 1:2 with lines title 'DOS'
-73.169300 0.000000
-73.058200 0.000000
-72.947100 0.000000
-72.836000 0.000000
-72.724900 0.000000
-72.613800 0.000000
-72.502700 0.000000
-72.391600 0.000000
-72.280500 0.000000
-72.169500 0.000000
-72.058400 0.000000
-71.947300 0.000000
-71.836200 0.000000
-71.725100 0.000000
-71.614000 0.000000
-71.502900 0.000000
-71.391800 0.000000
-71.280700 0.000000
-71.169600 0.000000
-71.058500 0.000000
-70.947500 0.000000
-70.836400 0.000000
-70.725300 0.000000
-70.614200 0.000000
-70.503100 0.000000
-70.392000 0.000000
-70.280900 0.000000
-70.169800 0.000000
-70.058700 0.000000
-69.947600 0.000000
-69.836500 0.000000
-69.725500 0.000000
-69.614400 0.000000
-69.503300 0.000000
-69.392200 0.000000
-69.281100 0.000000
-69.170000 0.000000
-69.058900 0.000000
-68.947800 0.000000
-68.836700 0.000000
-68.725600 0.000000
-68.614600 0.000000
-68.503500 0.000000
-68.392400 0.000000
-68.281300 0.000000
-68.170200 0.000000
-68.059100 0.000000
-67.948000 0.000000
-67.836900 0.000000
-67.725800 0.000000
-67.614700 0.000000
-67.503600 0.000000
-67.392600 0.000000
-67.281500 0.000000
-67.170400 0.000000
-67.059300 0.000000
-66.948200 0.000000
-66.837100 0.000000
-66.726000 0.000000
-66.614900 0.000000
-66.503800 0.000000
-66.392700 0.000000
-66.281700 0.000000
-66.170600 0.000000
-66.059500 0.000000
-65.948400 0.000000
-65.837300 0.000000
-65.726200 0.000000
-65.615100 0.000000
-65.504000 0.000000
-65.392900 0.000000
-65.281800 0.000000
-65.170700 0.000000
-65.059700 0.000000
-64.948600 0.000000
-64.837500 0.000000
-64.726400 0.000000
-64.615300 0.000000
-64.504200 0.000000
-64.393100 0.000000
-64.282000 0.000000
-64.170900 0.000000
-64.059800 0.000000
-63.948700 0.000000
-63.837700 0.000000
-63.726600 0.000000
-63.615500 0.000000
-63.504400 0.000000
-63.393300 0.000000
-63.282200 0.000000
-63.171100 0.000000
-63.060000 34.652400
-62.948900 0.000000
-62.837800 0.000000
-62.726800 0.000000
-62.615700 0.000000
-62.504600 0.000000
-62.393500 0.000000
-62.282400 0.000000
-62.171300 0.000000
-62.060200 0.000000
-61.949100 0.000000
-61.838000 0.000000
-61.726900 0.000000
-61.615800 0.000000
-61.504800 0.000000
-61.393700 0.000000
-61.282600 0.000000
-61.171500 0.000000
-61.060400 0.000000
-60.949300 0.000000
-60.838200 0.000000
-60.727100 0.000000
-60.616000 0.000000
-60.504900 0.000000
-60.393800 0.000000
-60.282800 0.000000
-60.171700 0.000000
-60.060600 0.000000
-59.949500 0.000000
-59.838400 0.000000
-59.727300 0.000000
-59.616200 0.000000
-59.505100 0.000000
-59.394000 0.000000
-59.282900 0.000000
-59.171900 0.000000
-59.060800 0.000000
-58.949700 0.000000
-58.838600 0.000000
-58.727500 0.000000
-58.616400 0.000000
-58.505300 0.000000
-58.394200 0.000000
-58.283100 0.000000
-58.172000 0.000000
-58.060900 0.000000
-57.949900 0.000000
-57.838800 0.000000
-57.727700 0.000000
-57.616600 0.000000
-57.505500 0.000000
-57.394400 0.000000
-57.283300 0.000000
-57.172200 0.000000
-57.061100 0.000000
-56.950000 0.000000
-56.838900 0.000000
-56.727900 0.000000
-56.616800 0.000000
-56.505700 0.000000
-56.394600 0.000000
-56.283500 0.000000
-56.172400 0.000000
-56.061300 0.000000
-55.950200 0.000000
-55.839100 0.000000
-55.728000 0.000000
-55.617000 0.000000
-55.505900 0.000000
-55.394800 0.000000
-55.283700 0.000000
-55.172600 0.000000
-55.061500 0.000000
-54.950400 0.000000
-54.839300 0.000000
-54.728200 0.000000
-54.617100 0.000000
-54.506000 0.000000
-54.395000 0.000000
-54.283900 0.000000
-54.172800 0.000000
-54.061700 0.000000
-53.950600 0.000000
-53.839500 0.000000
-53.728400 0.000000
-53.617300 0.000000
-53.506200 0.000000
-53.395100 0.000000
-53.284000 0.000000
-53.173000 0.000000
-53.061900 0.000000
-52.950800 0.000000
-52.839700 0.000000
-52.728600 0.000000
-52.617500 0.000000
-52.506400 0.000000
-52.395300 0.000000
-52.284200 0.000000
-52.173100 0.000000
-52.062100 0.000000
-51.951000 0.000000
-51.839900 0.000000
-51.728800 0.000000
-51.617700 0.000000
-51.506600 0.000000
-51.395500 0.000000
-51.284400 0.000000
-51.173300 0.000000
-51.062200 0.000000
-50.951100 0.000000
-50.840100 0.000000
-50.729000 0.000000
-50.617900 0.000000
-50.506800 0.000000
-50.395700 0.000000
-50.284600 0.000000
-50.173500 0.000000
-50.062400 0.000000
-49.951300 0.000000
-49.840200 0.000000
-49.729100 0.000000
-49.618100 0.000000
-49.507000 0.000000
-49.395900 0.000000
-49.284800 0.000000
-49.173700 0.000000
-49.062600 0.000000
-48.951500 0.000000
-48.840400 0.000000
-48.729300 0.000000
-48.618200 0.000000
-48.507200 0.000000
-48.396100 0.000000
-48.285000 0.000000
-48.173900 0.000000
-48.062800 0.000000
-47.951700 0.000000
-47.840600 0.000000
-47.729500 0.000000
-47.618400 0.000000
-47.507300 0.000000
-47.396200 0.000000
-47.285200 0.000000
-47.174100 0.000000
-47.063000 0.000000
-46.951900 0.000000
-46.840800 0.000000
-46.729700 0.000000
-46.618600 0.000000
-46.507500 0.000000
-46.396400 0.000000
-46.285300 0.000000
-46.174200 0.000000
-46.063200 0.000000
-45.952100 0.000000
-45.841000 0.000000
-45.729900 0.000000
-45.618800 0.000000
-45.507700 0.000000
-45.396600 0.000000
-45.285500 0.000000
-45.174400 0.000000
-45.063300 0.000000
-44.952300 0.000000
-44.841200 0.000000
-44.730100 0.000000
-44.619000 0.000000
-44.507900 0.000000
-44.396800 0.000000
-44.285700 0.000000
-44.174600 0.000000
-44.063500 0.000000
-43.952400 0.000000
-43.841300 0.000000
-43.730300 0.000000
-43.619200 0.000000
-43.508100 0.000000
-43.397000 0.000000
-43.285900 0.000000
-43.174800 0.000000
-43.063700 0.000000
-42.952600 0.000000
-42.841500 0.000000
-42.730400 0.000000
-42.619300 0.000000
-42.508300 0.000000
-42.397200 0.000000
-42.286100 0.000000
-42.175000 0.000000
-42.063900 0.000000
-41.952800 0.000000
-41.841700 0.000000
-41.730600 0.000000
-41.619500 0.000000
-41.508400 0.000000
-41.397400 0.000000
-41.286300 0.000000
-41.175200 0.000000
-41.064100 0.000000
-40.953000 0.000000
-40.841900 0.000000
-40.730800 0.000000
-40.619700 0.000000
-40.508600 0.000000
-40.397500 0.000000
-40.286400 0.000000
-40.175400 0.000000
-40.064300 0.000000
-39.953200 0.000000
-39.842100 0.000000
-39.731000 0.000000
-39.619900 0.000000
-39.508800 0.000000
-39.397700 0.000000
-39.286600 0.000000
-39.175500 0.000000
-39.064500 0.000000
-38.953400 0.000000
-38.842300 0.000000
-38.731200 0.000000
-38.620100 0.000000
-38.509000 0.000000
-38.397900 0.000000
-38.286800 0.000000
-38.175700 0.000000
-38.064600 0.000000
-37.953500 0.000000
-37.842500 0.000000
-37.731400 0.000000
-37.620300 0.000000
-37.509200 0.000000
-37.398100 0.000000
-37.287000 0.000000
-37.175900 0.000000
-37.064800 0.000000
-36.953700 0.000000
-36.842600 0.000000
-36.731500 0.000000
-36.620500 0.000000
-36.509400 0.000000
-36.398300 0.000000
-36.287200 0.000000
-36.176100 0.000000
-36.065000 0.000000
-35.953900 0.000000
-35.842800 0.000000
-35.731700 0.000000
-35.620600 0.000000
-35.509600 0.000000
-35.398500 0.000000
-35.287400 0.000000
-35.176300 0.000000
-35.065200 0.000000
-34.954100 0.000000
-34.843000 0.000000
-34.731900 0.000000
-34.620800 0.000000
-34.509700 0.000000
-34.398600 0.000000
-34.287600 0.000000
-34.176500 0.000000
-34.065400 0.000000
-33.954300 0.000000
-33.843200 0.000000
-33.732100 0.000000
-33.621000 0.000000
-33.509900 0.000000
-33.398800 0.000000
-33.287700 0.000000
-33.176600 0.000000
-33.065600 0.000000
-32.954500 0.000000
-32.843400 0.000000
-32.732300 0.000000
-32.621200 0.000000
-32.510100 0.000000
-32.399000 0.000000
-32.287900 0.000000
-32.176800 0.000000
-32.065700 0.000000
-31.954700 0.000000
-31.843600 0.000000
-31.732500 0.000000
-31.621400 0.000000
-31.510300 0.000000
-31.399200 0.000000
-31.288100 0.000000
-31.177000 0.000000
-31.065900 0.000000
-30.954800 0.000000
-30.843700 0.000000
-30.732700 0.000000
-30.621600 0.000000
-30.510500 0.000000
-30.399400 0.000000
-30.288300 0.000000
-30.177200 0.000000
-30.066100 0.000000
-29.955000 0.000000
-29.843900 0.000000
-29.732800 0.000000
-29.621700 0.000000
-29.510700 0.000000
-29.399600 0.000000
-29.288500 0.000000
-29.177400 0.000000
-29.066300 0.000000
-28.955200 0.000000
-28.844100 0.000000
-28.733000 0.000000
-28.621900 0.000000
-28.510800 0.000000
-28.399800 0.000000
-28.288700 0.000000
-28.177600 0.000000
-28.066500 0.000000
-27.955400 0.000000
-27.844300 0.000000
-27.733200 0.000000
-27.622100 0.000000
-27.511000 0.000000
-27.399900 0.000000
-27.288800 0.000000
-27.177800 0.000000
-27.066700 0.000000
-26.955600 0.000000
-26.844500 0.000000
-26.733400 0.000000
-26.622300 0.000000
-26.511200 0.000000
-26.400100 0.000000
-26.289000 0.000000
-26.177900 0.000000
-26.066800 0.000000
-25.955800 0.000000
-25.844700 0.000000
-25.733600 0.000000
-25.622500 0.000000
-25.511400 0.000000
-25.400300 0.000000
-25.289200 0.000000
-25.178100 0.000000
-25.067000 0.000000
-24.955900 0.000000
-24.844900 0.000000
-24.733800 0.000000
-24.622700 0.000000
-24.511600 0.000000
-24.400500 0.000000
-24.289400 0.000000
-24.178300 0.000000
-24.067200 0.000000
-23.956100 0.000000
-23.845000 0.000000
-23.733900 0.000000
-23.622900 0.000000
-23.511800 0.000000
-23.400700 0.000000
-23.289600 0.000000
-23.178500 0.000000
-23.067400 0.000000
-22.956300 0.000000
-22.845200 0.000000
-22.734100 0.000000
-22.623000 0.000000
-22.511900 0.000000
-22.400900 0.000000
-22.289800 0.000000
-22.178700 0.000000
-22.067600 0.000000
-21.956500 0.000000
-21.845400 0.000000
-21.734300 0.000000
-21.623200 0.000000
-21.512100 0.000000
-21.401000 0.000000
-21.290000 0.000000
-21.178900 0.000000
-21.067800 0.000000
-20.956700 0.000000
-20.845600 0.000000
-20.734500 0.000000
-20.623400 0.000000
-20.512300 0.000000
-20.401200 0.000000
-20.290100 0.000000
-20.179000 0.000000
-20.068000 0.000000
-19.956900 0.000000
-19.845800 0.000000
-19.734700 0.000000
-19.623600 0.000000
-19.512500 0.000000
-19.401400 0.000000
-19.290300 0.000000
-19.179200 0.000000
-19.068100 0.000000
-18.957000 0.000000
-18.846000 0.000000
-18.734900 0.000000
-18.623800 0.000000
-18.512700 0.000000
-18.401600 0.000000
-18.290500 0.000000
-18.179400 0.000000
-18.068300 0.000000
-17.957200 0.000000
-17.846100 0.000000
-17.735100 0.000000
-17.624000 0.000000
-17.512900 0.000000
-17.401800 0.000000
-17.290700 0.000000
-17.179600 0.000000
-17.068500 0.000000
-16.957400 0.000000
-16.846300 0.000000
-16.735200 0.000000
-16.624100 0.000000
-16.513100 0.000000
-16.402000 0.000000
-16.290900 0.000000
-16.179800 0.000000
-16.068700 0.000000
-15.957600 0.000000
-15.846500 0.000000
-15.735400 0.000000
-15.624300 0.000000
-15.513200 0.000000
-15.402100 0.000000
-15.291100 0.000000
-15.180000 0.000000
-15.068900 0.000000
-14.957800 0.000000
-14.846700 0.000000
-14.735600 0.000000
-14.624500 0.000000
-14.513400 0.000000
-14.402300 0.000000
-14.291200 0.000000
-14.180200 0.000000
-14.069100 0.000000
-13.958000 0.000000
-13.846900 0.000000
-13.735800 0.000000
-13.624700 0.000000
-13.513600 0.000000
-13.402500 0.000000
-13.291400 0.000000
-13.180300 0.000000
-13.069200 0.000000
-12.958200 0.000000
-12.847100 0.000000
-12.736000 0.000000
-12.624900 0.000000
-12.513800 0.000000
-12.402700 0.000000
-12.291600 0.000000
-12.180500 0.000000
-12.069400 0.000000
-11.958300 0.000000
-11.847300 0.000000
-11.736200 0.000000
-11.625100 0.000000
-11.514000 0.000000
-11.402900 0.000000
-11.291800 0.000000
-11.180700 0.000000
-11.069600 0.000000
-10.958500 0.000000
-10.847400 0.000000
-10.736300 0.000000
-10.625300 0.000000
-10.514200 0.000000
-10.403100 0.000000
-10.292000 0.000000
-10.180900 0.000000
-10.069800 0.000000
-9.958700 0.000000
-9.847600 0.000000
-9.736500 0.000000
-9.625400 0.000000
-9.514300 0.000000
-9.403300 0.000000
-9.292200 0.000000
-9.181100 0.000000
-9.070000 0.000000
-8.958900 0.000000
-8.847800 0.000000
-8.736700 0.000000
-8.625600 0.000000
-8.514500 0.000000
-8.403400 0.000000
-8.292400 0.000000
-8.181300 0.000000
-8.070200 0.000000
-7.959100 0.000000
-7.848000 0.000000
-7.736900 0.000000
-7.625800 0.000000
-7.514700 0.000000
-7.403600 0.000000
-7.292500 0.000000
-7.181400 0.000000
-7.070400 0.000000
-6.959300 0.000000
-6.848200 0.000000
-6.737100 0.000000
-6.626000 0.000000
-6.514900 0.000000
-6.403800 0.000000
-6.292700 0.000000
-6.181600 0.000000
-6.070500 0.000000
-5.959400 0.000000
-5.848400 0.000000
-5.737300 0.000000
-5.626200 0.000000
-5.515100 0.000000
-5.404000 0.000000
-5.292900 0.000000
-5.181800 0.000000
-5.070700 0.000000
-4.959600 0.000000
-4.848500 0.000000
-4.737500 0.000000
-4.626400 0.000000
-4.515300 0.000000
-4.404200 0.000000
-4.293100 0.000000
-4.182000 0.000000
-4.070900 0.000000
-3.959800 0.000000
-3.848700 0.000000
-3.737600 0.000000
-3.626500 0.000000
-3.515500 0.000000
-3.404400 0.000000
-3.293300 0.000000
-3.182200 0.000000
-3.071100 0.000000
-2.960000 0.000000
-2.848900 0.000000
-2.737800 0.000000
-2.626700 0.000000
-2.515600 0.000000
-2.404500 0.041800
-2.293500 0.030100
-2.182400 0.039400
-2.071300 0.046400
-1.960200 0.055200
-1.849100 0.060000
-1.738000 0.065800
-1.626900 0.071400
-1.515800 0.077500
-1.404700 0.081600
-1.293600 0.087100
-1.182600 0.092100
-1.071500 0.097700
-0.960400 0.102400
-0.849300 0.107100
-0.738200 0.111700
-0.627100 0.117400
-0.516000 0.123400
-0.404900 0.128300
-0.293800 0.133800
-0.182700 0.139900
-0.071600 0.145900
0.039400 0.152600
0.150500 0.160200
0.261600 0.167600
0.372700 0.175400
0.483800 0.184600
0.594900 0.194800
0.706000 0.205600
0.817100 0.218200
0.928200 0.233100
1.039300 0.250200
1.150400 0.270600
1.261400 0.296400
1.372500 0.325700
1.483600 0.365600
1.594700 0.425700
1.705800 0.526100
1.816900 0.740900
1.928000 0.932100
2.039100 0.960500
2.150200 1.013200
2.261300 1.166000
2.372300 1.558400
2.483400 1.954600
2.594500 2.038800
2.705600 1.592600
2.816700 1.063700
2.927800 0.793300
3.038900 3.690100
3.150000 4.097000
3.261100 3.398800
3.372200 3.518500
3.483300 3.420600
3.594300 4.921600
3.705400 3.754000
3.816500 2.342200
3.927600 1.343400
4.038700 1.160100
4.149800 1.307200
4.260900 1.588900
4.372000 2.558300
4.483100 4.118500
4.594200 4.696000
4.705300 5.482300
4.816300 10.272000
4.927400 4.631100
5.038500 3.470200
5.149600 2.931900
5.260700 2.724000
5.371800 1.717700
5.482900 0.436100
5.594000 0.395400
5.705100 0.384400
5.816200 0.367300
5.927200 0.348700
6.038300 0.345300
6.149400 0.343600
6.260500 0.339400
6.371600 0.340900
6.482700 0.335100
6.593800 0.329800
6.704900 0.325700
6.816000 0.321300
6.927100 0.317700
7.038200 0.314600
7.149200 0.310700
7.260300 0.304500
7.371400 0.295800
7.482500 0.291400
7.593600 0.285300
7.704700 0.280000
7.815800 0.275100
7.926900 0.271200
8.038000 0.266400
8.149100 0.261700
8.260200 0.255900
8.371200 0.248500
8.482300 0.242900
8.593400 0.235900
8.704500 0.230100
8.815600 0.224500
8.926700 0.219100
9.037800 0.213500
9.148900 0.208900
9.260000 0.203500
9.371100 0.197700
9.482100 0.190200
9.593200 0.183300
9.704300 0.176800
9.815400 0.170400
9.926500 0.164000
10.037600 0.159100
10.148700 0.151300
10.259800 0.145800
10.370900 0.140600
10.482000 0.134400
10.593100 0.128400
10.704100 0.123700
10.815200 0.131000
10.926300 0.167100
11.037400 0.151700
11.148500 0.161900
11.259600 0.159500
11.370700 0.158400
11.481800 0.170500
11.592900 0.240000
11.704000 0.289500
11.815100 0.312300
11.926100 0.332000
12.037200 0.347900
12.148300 0.365800
12.259400 0.395700
12.370500 0.402200
12.481600 0.403800
12.592700 0.374500
12.703800 0.360300
12.814900 0.355600
12.926000 0.348100
13.037000 0.334600
13.148100 0.324500
13.259200 0.317600
13.370300 0.314600
13.481400 0.314600
13.592500 0.320100
13.703600 0.328800
13.814700 0.335500
13.925800 0.338000
14.036900 0.348800
14.148000 0.363800
14.259000 0.369900
14.370100 0.369900
14.481200 0.367000
14.592300 0.362100
14.703400 0.355900
14.814500 0.355600
14.925600 0.357600
15.036700 0.358400
15.147800 0.360900
15.258900 0.358000
15.370000 0.357100
15.481000 0.356100
15.592100 0.356100
15.703200 0.355400
15.814300 0.357300
15.925400 0.364400
16.036500 0.361700
16.147600 0.358700
16.258700 0.356400
16.369800 0.355800
16.480900 0.356600
16.591900 0.357500
16.703000 0.357300
16.814100 0.356300
16.925200 0.358600
17.036300 0.354000
17.147400 0.352400
17.258500 0.349800
17.369600 0.347900
17.480700 0.346000
17.591800 0.343900
17.702900 0.344000
17.813900 0.343000
17.925000 0.342200
18.036100 0.343300
18.147200 0.342000
18.258300 0.340500
18.369400 0.338100
18.480500 0.336900
18.591600 0.335400
18.702700 0.333400
18.813800 0.331700
18.924800 0.330600
19.035900 0.329200
19.147000 0.327000
19.258100 0.326100
19.369200 0.322900
19.480300 0.320600
19.591400 0.318800
19.702500 0.317200
19.813600 0.316000
19.924700 0.319600
20.035800 0.326200
20.146800 0.329500
20.257900 0.332900
20.369000 0.340800
20.480100 0.348800
20.591200 0.354100
20.702300 0.359600
20.813400 0.365500
20.924500 0.373100
21.035600 0.373500
21.146700 0.377500
21.257800 0.383100
21.368800 0.388400
21.479900 0.391000
21.591000 0.394300
21.702100 0.399800
21.813200 0.405500
21.924300 0.403600
22.035400 0.405300
22.146500 0.410500
22.257600 0.414700
22.368700 0.416900
22.479700 0.418800
22.590800 0.422100
22.701900 0.426100
22.813000 0.431100
22.924100 0.440200
23.035200 0.444600
23.146300 0.447700
23.257400 0.453200
23.368500 0.460300
23.479600 0.470200
23.590700 0.480600
23.701700 0.504400
23.812800 0.559700
23.923900 0.553000
24.035000 0.535100
24.146100 0.523000
24.257200 0.521400
24.368300 0.513400
24.479400 0.504300
24.590500 0.501400
24.701600 0.498900
24.812700 0.497000
24.923700 0.494200
25.034800 0.484400
25.145900 0.480100
25.257000 0.477000
25.368100 0.479000
25.479200 0.485100
25.590300 0.491500
25.701400 0.490300
25.812500 0.474600
25.923600 0.461300
26.034600 0.448300
26.145700 0.436000
26.256800 0.423800
26.367900 0.414500
26.479000 0.408900
26.590100 0.401100
26.701200 0.382300
26.812300 0.367700
26.923400 0.354800
27.034500 0.345200
27.145600 0.336900
27.256600 0.329200
27.367700 0.321500
27.478800 0.312400
27.589900 0.302400
27.701000 0.299900
27.812100 0.283000
27.923200 0.271200
28.034300 0.258000
28.145400 0.264000
28.256500 0.275700
28.367600 0.283300
28.478600 0.289900
28.589700 0.300200
28.700800 0.312200
28.811900 0.325400
28.923000 0.344800
29.034100 0.382700
29.145200 0.410800
29.256300 0.445600
29.367400 0.466600
29.478500 0.491300
29.589500 0.501800
29.700600 0.510900
29.811700 0.498500
29.922800 0.485000
30.033900 0.477800
30.145000 0.446000
30.256100 0.434100
30.367200 0.431600
30.478300 0.454100
30.589400 0.451000
30.700500 0.446800
30.811500 0.440700
30.922600 0.439000
31.033700 0.438400
31.144800 0.424600
31.255900 0.416000
31.367000 0.417800
31.478100 0.416600
31.589200 0.436100
31.700300 0.464000
31.811400 0.479300
31.922500 0.486000
32.033500 0.486400
32.144600 0.475500
32.255700 0.493000
32.366800 0.502800
32.477900 0.503000
32.589000 0.512900
32.700100 0.543500
32.811200 0.557300
32.922300 0.557200
33.033400 0.562400
33.144400 0.577700
33.255500 0.580100
33.366600 0.567000
33.477700 0.543900
33.588800 0.505800
33.699900 0.481000
33.811000 0.467100
33.922100 0.458400
34.033200 0.450500
34.144300 0.447600
34.255400 0.446000
34.366400 0.424000
34.477500 0.429600
34.588600 0.461400
34.699700 0.474400
34.810800 0.495500
34.921900 0.519800
35.033000 0.544500
35.144100 0.564300
35.255200 0.562600
35.366300 0.571200
35.477400 0.582700
35.588400 0.566400
35.699500 0.560600
35.810600 0.548400
35.921700 0.542000
36.032800 0.540900
36.143900 0.541700
36.255000 0.536400
36.366100 0.530500
36.477200 0.523500
36.588300 0.520800
36.699300 0.515900
36.810400 0.509800
36.921500 0.503100
37.032600 0.504900
37.143700 0.497500
37.254800 0.492500
37.365900 0.487200
37.477000 0.489800
37.588100 0.491100
37.699200 0.496500
37.810300 0.504700
37.921300 0.506300
38.032400 0.512600
38.143500 0.519300
38.254600 0.524400
38.365700 0.534200
38.476800 0.545400
38.587900 0.554600
38.699000 0.567900
38.810100 0.583600
38.921200 0.601700
39.032300 0.630100
39.143300 0.664300
39.254400 0.693500
39.365500 0.739000
39.476600 0.805400
39.587700 0.906300
39.698800 1.038700
39.809900 1.238000
39.921000 1.568000
40.032100 2.394700
40.143200 5.316000
40.254200 2.277600
40.365300 1.542800
40.476400 1.410800
40.587500 1.081200
40.698600 0.975000
40.809700 0.908800
40.920800 0.861200
41.031900 0.813700
41.143000 0.772300
41.254100 0.735400
41.365200 0.704400
41.476200 0.685200
41.587300 0.669300
41.698400 0.654200
41.809500 0.644700
41.920600 0.633600
42.031700 0.617700
42.142800 0.597800
42.253900 0.583700
42.365000 0.569800
42.476100 0.550000
42.587200 0.541800
42.698200 0.541700
42.809300 0.538600
42.920400 0.534300
43.031500 0.535900
43.142600 0.539100
43.253700 0.540900
43.364800 0.547700
43.475900 0.541500
43.587000 0.536600
43.698100 0.531500
43.809100 0.527800
43.920200 0.523700
44.031300 0.522500
44.142400 0.523000
44.253500 0.526800
44.364600 0.525900
44.475700 0.528900
44.586800 0.535300
44.697900 0.545600
44.809000 0.553400
44.920100 0.562500
45.031100 0.571900
45.142200 0.577900
45.253300 0.588900
45.364400 0.597700
45.475500 0.604600
45.586600 0.610600
45.697700 0.622600
45.808800 0.620400
45.919900 0.601100
46.031000 0.575900
46.142000 0.562800
46.253100 0.551600
46.364200 0.572300
46.475300 0.587700
46.586400 0.596400
46.697500 0.598300
46.808600 0.597800
46.919700 0.599700
47.030800 0.602000
47.141900 0.599400
47.253000 0.595100
47.364000 0.592400
47.475100 0.587800
47.586200 0.582700
47.697300 0.575800
47.808400 0.558400
47.919500 0.542500
48.030600 0.529800
48.141700 0.527000
48.252800 0.527800
48.363900 0.527900
48.475000 0.529800
48.586000 0.540200
48.697100 0.532100
48.808200 0.542400
48.919300 0.557800
49.030400 0.566000
49.141500 0.570500
49.252600 0.572300
49.363700 0.573500
49.474800 0.584500
49.585900 0.602700
49.696900 0.615000
49.808000 0.627300
49.919100 0.635000
50.030200 0.646300
50.141300 0.649400
50.252400 0.628100
50.363500 0.610200
50.474600 0.601900
50.585700 0.594800
50.696800 0.591000
50.807900 0.588700
50.918900 0.585600
51.030000 0.587000
51.141100 0.589200
51.252200 0.582300
51.363300 0.596500
51.474400 0.607500
51.585500 0.619300
51.696600 0.636200
51.807700 0.644400
51.918800 0.649900
52.029900 0.652800
52.140900 0.656400
52.252000 0.657900
52.363100 0.656400
52.474200 0.655100
52.585300 0.657600
52.696400 0.658400
52.807500 0.649300
52.918600 0.648300
53.029700 0.649000
53.140800 0.644200
53.251800 0.640600
53.362900 0.644100
53.474000 0.641200
53.585100 0.637600
53.696200 0.633600
53.807300 0.627200
53.918400 0.617100
54.029500 0.608600
54.140600 0.604400
54.251700 0.604000
54.362800 0.608800
54.473800 0.617000
54.584900 0.622200
54.696000 0.629100
54.807100 0.634600
54.918200 0.633600
55.029300 0.635500
55.140400 0.632900
55.251500 0.641600
55.362600 0.624000
55.473700 0.629300
55.584800 0.656900
55.695800 0.649700
55.806900 0.653100
55.918000 0.652100
56.029100 0.652000
56.140200 0.657900
56.251300 0.665300
56.362400 0.669000
56.473500 0.675500
56.584600 0.671000
56.695700 0.670600
56.806700 0.671800
56.917800 0.672300
57.028900 0.667200
57.140000 0.651200
57.251100 0.651700
57.362200 0.660000
57.473300 0.662000
57.584400 0.657000
57.695500 0.667000
57.806600 0.675100
57.917700 0.678800
58.028700 0.688900
58.139800 0.698900
58.250900 0.697300
58.362000 0.686900
58.473100 0.677900
58.584200 0.673100
58.695300 0.671400
58.806400 0.674000
58.917500 0.664500
59.028600 0.656900
59.139700 0.641000
59.250700 0.634400
59.361800 0.624800
59.472900 0.604400
59.584000 0.596600
59.695100 0.595200
59.806200 0.596700
59.917300 0.601400
60.028400 0.609000
60.139500 0.620400
60.250600 0.628300
60.361600 0.636100
60.472700 0.638500
60.583800 0.643900
60.694900 0.642900
60.806000 0.643600
60.917100 0.641500
61.028200 0.637000
61.139300 0.624100
61.250400 0.610200
61.361500 0.607000
61.472600 0.608500
61.583600 0.608500
61.694700 0.598100
61.805800 0.565200
61.916900 0.557900
62.028000 0.566800
62.139100 0.591200
62.250200 0.598500
62.361300 0.613000
62.472400 0.630200
62.583500 0.644700
62.694600 0.667200
62.805600 0.689200
62.916700 0.709600
63.027800 0.725500
63.138900 0.740500
63.250000 0.746300
63.361100 0.748000
63.472200 0.747200
63.583300 0.752800
63.694400 0.741000
63.805500 0.729900
63.916500 0.711400
64.027600 0.693900
64.138700 0.679600
64.249800 0.667000
64.360900 0.656500
64.472000 0.653000
64.583100 0.657100
64.694200 0.672000
64.805300 0.699300
64.916400 0.726000
65.027500 0.738000
65.138500 0.744300
65.249600 0.743400
65.360700 0.720300
65.471800 0.694200
65.582900 0.681500
65.694000 0.679700
65.805100 0.681300
65.916200 0.700100
66.027300 0.721900
66.138400 0.751100
66.249500 0.758300
66.360500 0.752600
66.471600 0.746400
66.582700 0.751500
66.693800 0.753600
66.804900 0.750400
66.916000 0.742300
67.027100 0.732600
67.138200 0.731400
67.249300 0.733200
67.360400 0.735500
67.471400 0.731800
67.582500 0.725000
67.693600 0.722200
67.804700 0.722900
67.915800 0.702300
68.026900 0.689200
68.138000 0.686800
68.249100 0.678000
68.360200 0.674900
68.471300 0.672900
68.582400 0.668300
68.693400 0.672800
68.804500 0.678600
68.915600 0.688200
69.026700 0.702600
69.137800 0.719600
69.248900 0.735700
69.360000 0.742600
69.471100 0.757900
69.582200 0.766900
69.693300 0.778900
69.804400 0.763300
69.915400 0.752300
70.026500 0.742900
70.137600 0.728900
70.248700 0.714200
70.359800 0.699500
70.470900 0.680000
70.582000 0.667800
70.693100 0.659800
70.804200 0.661600
70.915300 0.669200
71.026300 0.675000
71.137400 0.712100
71.248500 0.730500
71.359600 0.740300
71.470700 0.749400
71.581800 0.761900
71.692900 0.773300
71.804000 0.781300
71.915100 0.777600
72.026200 0.758300
72.137300 0.736100
72.248300 0.713900
72.359400 0.697000
72.470500 0.678800
72.581600 0.666600
72.692700 0.667500
72.803800 0.679600
72.914900 0.694000
73.026000 0.709200
73.137100 0.718200
73.248200 0.726200
73.359200 0.744400
73.470300 0.751900
73.581400 0.751200
73.692500 0.737400
73.803600 0.724100
73.914700 0.700000
74.025800 0.685900
74.136900 0.664500
74.248000 0.662400
74.359100 0.670600
74.470200 0.672800
74.581200 0.677700
74.692300 0.685100
74.803400 0.704700
74.914500 0.732300
75.025600 0.752000
75.136700 0.772600
75.247800 0.814400
75.358900 0.884700
75.470000 0.938800
75.581100 0.919000
75.692200 0.877600
75.803200 0.851300
75.914300 0.823800
76.025400 0.815100
76.136500 0.800200
76.247600 0.758500
76.358700 0.744800
76.469800 0.728600
76.580900 0.719900
76.692000 0.700300
76.803100 0.676500
76.914100 0.666600
77.025200 0.681600
77.136300 0.691800
77.247400 0.674000
77.358500 0.666400
77.469600 0.657400
77.580700 0.654600
77.691800 0.661400
77.802900 0.657200
77.914000 0.649000
78.025100 0.628300
78.136100 0.621900
78.247200 0.634800
78.358300 0.661700
78.469400 0.680300
78.580500 0.712100
78.691600 0.737600
78.802700 0.756300
78.913800 0.762900
79.024900 0.778200
79.136000 0.800800
79.247100 0.812000
79.358100 0.791700
79.469200 0.757600
79.580300 0.734800
79.691400 0.725300
79.802500 0.721200
79.913600 0.724700
80.024700 0.726300
80.135800 0.725600
80.246900 0.722800
80.358000 0.727100
80.469000 0.724600
80.580100 0.724100
80.691200 0.722300
80.802300 0.734200
80.913400 0.756800
81.024500 0.768100
81.135600 0.775500
81.246700 0.778500
81.357800 0.782300
81.468900 0.762900
81.580000 0.749100
81.691000 0.745000
81.802100 0.726400
81.913200 0.709800
82.024300 0.710200
82.135400 0.691200
82.246500 0.678800
82.357600 0.675500
82.468700 0.671600
82.579800 0.665800
82.690900 0.663000
82.802000 0.665800
82.913000 0.661000
83.024100 0.670700
83.135200 0.681400
83.246300 0.687200
83.357400 0.709200
83.468500 0.707500
83.579600 0.713700
83.690700 0.729300
83.801800 0.751500
83.912900 0.767600
84.023900 0.772700
84.135000 0.780700
84.246100 0.779900
84.357200 0.778500
84.468300 0.780200
84.579400 0.777000
84.690500 0.746500
84.801600 0.721500
84.912700 0.700000
85.023800 0.686700
85.134900 0.681000
85.245900 0.679600
85.357000 0.686000
85.468100 0.696400
85.579200 0.714600
85.690300 0.723300
85.801400 0.724800
85.912500 0.740200
86.023600 0.777700
86.134700 0.784800
86.245800 0.791900
86.356900 0.775700
86.467900 0.754900
86.579000 0.756000
86.690100 0.771600
86.801200 0.808100
86.912300 0.856300
87.023400 0.897200
87.134500 0.932100
87.245600 0.918800
87.356700 0.904800
87.467800 0.907300
87.578800 0.895000
87.689900 0.852000
87.801000 0.836200
87.912100 0.825300
88.023200 0.793400
88.134300 0.760200
88.245400 0.743300
88.356500 0.738000
88.467600 0.745500
88.578700 0.751400
88.689800 0.762600
88.800800 0.771600
88.911900 0.802800
89.023000 0.823100
89.134100 0.831300
89.245200 0.838800
89.356300 0.813700
89.467400 0.794300
89.578500 0.777500
89.689600 0.760400
89.800700 0.749000
89.911800 0.725400
90.022800 0.709800
90.133900 0.701200
90.245000 0.705100
90.356100 0.714000
90.467200 0.734400
90.578300 0.744700
90.689400 0.765100
90.800500 0.785800
90.911600 0.792600
91.022700 0.797200
91.133700 0.792900
91.244800 0.770400
91.355900 0.762500
91.467000 0.765500
91.578100 0.763500
91.689200 0.757600
91.800300 0.772600
91.911400 0.779100
92.022500 0.785200
92.133600 0.782600
92.244700 0.793800
92.355700 0.810400
92.466800 0.816000
92.577900 0.820500
92.689000 0.824000
92.800100 0.853000
92.911200 0.856400
93.022300 0.860000
93.133400 0.863800
93.244500 0.845200
93.355600 0.842700
93.466700 0.845400
93.577700 0.858500
93.688800 0.864700
93.799900 0.860600
93.911000 0.852700
94.022100 0.822700
94.133200 0.808300
94.244300 0.803600
94.355400 0.808800
94.466500 0.825600
94.577600 0.841200
94.688600 0.856000
94.799700 0.865700
94.910800 0.883500
95.021900 0.889300
95.133000 0.873700
95.244100 0.876900
95.355200 0.887800
95.466300 0.909300
95.577400 0.919800
95.688500 0.934200
95.799600 0.939200
95.910600 0.916600
96.021700 0.896200
96.132800 0.882200
96.243900 0.866500
96.355000 0.857400
96.466100 0.846200
96.577200 0.841300
96.688300 0.832300
96.799400 0.823000
96.910500 0.817400
97.021600 0.800200
97.132600 0.799100
97.243700 0.794300
97.354800 0.794800
97.465900 0.798100
97.577000 0.820100
97.688100 0.833500
97.799200 0.845800
97.910300 0.872400
98.021400 0.887600
98.132500 0.868300
98.243500 0.865100
98.354600 0.848700
98.465700 0.832700
98.576800 0.843600
98.687900 0.856500
98.799000 0.850300
98.910100 0.831900
99.021200 0.821300
99.132300 0.817100
99.243400 0.812200
99.354500 0.811700
99.465500 0.812700
99.576600 0.828200
99.687700 0.845900
99.798800 0.860300
99.909900 0.868000
100.021000 0.883900
100.132100 0.902100
100.243200 0.874800
100.354300 0.847900
100.465400 0.824300
100.576400 0.810400
100.687500 0.785100
100.798600 0.777200
100.909700 0.768400
101.020800 0.763500
101.131900 0.762800
101.243000 0.762200
101.354100 0.771500
101.465200 0.790200
101.576300 0.813300
101.687400 0.843300
101.798400 0.903800
101.909500 0.913100
102.020600 0.913400
102.131700 0.916900
102.242800 0.909300
102.353900 0.891700
102.465000 0.841300
102.576100 0.808300
102.687200 0.790600
102.798300 0.758600
102.909400 0.715500
103.020400 0.684600
103.131500 0.666200
103.242600 0.665200
103.353700 0.671800
103.464800 0.680000
103.575900 0.696400
103.687000 0.720600
103.798100 0.744500
103.909200 0.771900
104.020300 0.788100
104.131300 0.806500
104.242400 0.814000
104.353500 0.824300
104.464600 0.776900
104.575700 0.778600
104.686800 0.797400
104.797900 0.835600
104.909000 0.861400
105.020100 0.857400
105.131200 0.837000
105.242300 0.811400
105.353300 0.808400
105.464400 0.823000
105.575500 0.869500
105.686600 0.860300
105.797700 0.844800
105.908800 0.824200
106.019900 0.814800
106.131000 0.816000
106.242100 0.796200
106.353200 0.795600
106.464300 0.826400
106.575300 0.850000
106.686400 0.859400
106.797500 0.849800
106.908600 0.838300
107.019700 0.838100
107.130800 0.833900
107.241900 0.824300
107.353000 0.818900
107.464100 0.804800
107.575200 0.803600
107.686200 0.795700
107.797300 0.792800
107.908400 0.779900
108.019500 0.765200
108.130600 0.768100
108.241700 0.765000
108.352800 0.769300
108.463900 0.741800
108.575000 0.736300
108.686100 0.735700
108.797200 0.755500
108.908200 0.779700
109.019300 0.800900
109.130400 0.817900
109.241500 0.834600
109.352600 0.852300
109.463700 0.878200
109.574800 0.897500
109.685900 0.901900
109.797000 0.893500
109.908100 0.892400
110.019200 0.901900
110.130200 0.906900
110.241300 0.882500
110.352400 0.872700
110.463500 0.878400
110.574600 0.880600
110.685700 0.882000
110.796800 0.896100
110.907900 0.932300
111.019000 0.958000
111.130100 0.967600
111.241100 0.971800
111.352200 0.979300
111.463300 0.982400
111.574400 0.972500
111.685500 0.965500
111.796600 0.967400
111.907700 0.942800
112.018800 0.900000
112.129900 0.877600
112.241000 0.856700
112.352100 0.832600
112.463100 0.813900
112.574200 0.796700
112.685300 0.767400
112.796400 0.766000
112.907500 0.788100
113.018600 0.805000
113.129700 0.831400
113.240800 0.878200
113.351900 0.882300
113.463000 0.883200
113.574100 0.914000
113.685100 0.917000
113.796200 0.934500
113.907300 0.934600
114.018400 0.917000
114.129500 0.914700
114.240600 0.913000
114.351700 0.906300
114.462800 0.878400
114.573900 0.852300
114.685000 0.857200
114.796000 0.886600
114.907100 0.927000
115.018200 0.910800
115.129300 0.907500
115.240400 0.905000
115.351500 0.902400
115.462600 0.905800
115.573700 0.943300
115.684800 0.969000
115.795900 0.976200
115.907000 0.952900
116.018000 0.931700
116.129100 0.921300
116.240200 0.911300
116.351300 0.896900
116.462400 0.909100
116.573500 0.914300
116.684600 0.928200
116.795700 0.946000
116.906800 0.948200
117.017900 0.952300
117.129000 0.939700
117.240000 0.922400
117.351100 0.907100
117.462200 0.898500
117.573300 0.891300
117.684400 0.882700
117.795500 0.878800
117.906600 0.880500
118.017700 0.871800
118.128800 0.872500
118.239900 0.884000
118.350900 0.893300
118.462000 0.901600
118.573100 0.912000
118.684200 0.923300
118.795300 0.905800
118.906400 0.896500
119.017500 0.902100
119.128600 0.919000
119.239700 0.935500
119.350800 0.894400
119.461900 0.879100
119.572900 0.867500
119.684000 0.856300
119.795100 0.823200
119.906200 0.800600
120.017300 0.798300
120.128400 0.800800
120.239500 0.806900
120.350600 0.862500
120.461700 0.845800
120.572800 0.879800
120.683900 0.881700
120.794900 0.867900
120.906000 0.846600
121.017100 0.842100
121.128200 0.856200
121.239300 0.864600
121.350400 0.869200
121.461500 0.876800
121.572600 0.868600
121.683700 0.867000
121.794800 0.881800
121.905800 0.877600
122.016900 0.886900
122.128000 0.879700
122.239100 0.873800
122.350200 0.877000
122.461300 0.891300
122.572400 0.893100
122.683500 0.890100
122.794600 0.870300
122.905700 0.864600
123.016800 0.864900
123.127800 0.858200
123.238900 0.845500
123.350000 0.825400
123.461100 0.814900
123.572200 0.812300
123.683300 0.796800
123.794400 0.755300
123.905500 0.713200
124.016600 0.674800
124.127700 0.645600
124.238800 0.604600
124.349800 0.576300
124.460900 0.551600
124.572000 0.532000
124.683100 0.502600
124.794200 0.463200
124.905300 0.444600
125.016400 0.430500
125.127500 0.407900
125.238600 0.393400
125.349700 0.380800
125.460700 0.385200
125.571800 0.394600
125.682900 0.389900
125.794000 0.358800
125.905100 0.325300
126.016200 0.293900
126.127300 0.253700
126.238400 0.226600
126.349500 0.206600
126.460600 0.189200
126.571700 0.173700
126.682700 0.157500
126.793800 0.141900
126.904900 0.130200
127.016000 0.120600
127.127100 0.116700
127.238200 0.108900
127.349300 0.098800
127.460400 0.089700
127.571500 0.080100
127.682600 0.070700
127.793600 0.061000
127.904700 0.054000
128.015800 0.048600
128.126900 0.044300
128.238000 0.040800
128.349100 0.038000
128.460200 0.036300
128.571300 0.035000
128.682400 0.033700
128.793500 0.032600
128.904600 0.031500
129.015600 0.030500
129.126700 0.029600
129.237800 0.028500
129.348900 0.027900
129.460000 0.027500
129.571100 0.027200
129.682200 0.026800
129.793300 0.026400
129.904400 0.026100
130.015500 0.025700
130.126600 0.025400
130.237600 0.025100
130.348700 0.024800
130.459800 0.024500
130.570900 0.024200
130.682000 0.024000
130.793100 0.023700
130.904200 0.023400
131.015300 0.023200
131.126400 0.022900
131.237500 0.022600
131.348500 0.022200
131.459600 0.021900
131.570700 0.021500
131.681800 0.021300
131.792900 0.021100
131.904000 0.020900
132.015100 0.020700
132.126200 0.020400
132.237300 0.020200
132.348400 0.020000
132.459500 0.019800
132.570500 0.019600
132.681600 0.019400
132.792700 0.019200
132.903800 0.019100
133.014900 0.019000
133.126000 0.018900
133.237100 0.018700
133.348200 0.018600
133.459300 0.018500
133.570400 0.018300
133.681500 0.018200
133.792500 0.018100
133.903600 0.018000
134.014700 0.017800
134.125800 0.017700
134.236900 0.017600
134.348000 0.017500
134.459100 0.017400
134.570200 0.017300
134.681300 0.017200
134.792400 0.017100
134.903400 0.017200
135.014500 0.017200
135.125600 0.017300
135.236700 0.019700
135.347800 0.024100
135.458900 0.022400
135.570000 0.020200
135.681100 0.017200
135.792200 0.016500
135.903300 0.015700
136.014400 0.015000
136.125400 0.014400
136.236500 0.013800
136.347600 0.013300
136.458700 0.012800
136.569800 0.012600
136.680900 0.012000
136.792000 0.011200
136.903100 0.010300
137.014200 0.009700
137.125300 0.009300
137.236400 0.008900
137.347400 0.008600
137.458500 0.008400
137.569600 0.008200
137.680700 0.008000
137.791800 0.007800
137.902900 0.009700
138.014000 0.008500
138.125100 0.005800
138.236200 0.005000
138.347300 0.004300
138.458300 0.003500
138.569400 0.002700
138.680500 0.001400
138.791600 0.001000
138.902700 0.000100
139.013800 0.000000
139.124900 0.000000
139.236000 0.000000
139.347100 0.000000
139.458200 0.000000
139.569300 0.000000
139.680300 0.000000
139.791400 0.000000
139.902500 0.000000
140.013600 0.000000
140.124700 0.000000
140.235800 0.000000
140.346900 0.000000
140.458000 0.000000
140.569100 0.000000
140.680200 0.000000
140.791300 0.000000
140.902300 0.000000
141.013400 0.000000
141.124500 0.000000
141.235600 0.000000
141.346700 0.000000
141.457800 0.000000
141.568900 0.000000
141.680000 0.000000
141.791100 0.000000
141.902200 0.000000
142.013200 0.000000
142.124300 0.000000
142.235400 0.000000
142.346500 0.000000
142.457600 0.000000
142.568700 0.000000
142.679800 0.000000
142.790900 0.000000
142.902000 0.000000
143.013100 0.000000
143.124200 0.000000
143.235200 0.000000
143.346300 0.000000
143.457400 0.000000
143.568500 0.000000
143.679600 0.000000
143.790700 0.000000
143.901800 0.000000
144.012900 0.000000
144.124000 0.000000
144.235100 0.000000
144.346200 0.000000
144.457200 0.000000
144.568300 0.000000
144.679400 0.000000
144.790500 0.000000
144.901600 0.000000
145.012700 0.000000
145.123800 0.000000
145.234900 0.000000
145.346000 0.000000
145.457100 0.000000
145.568100 0.000000
145.679200 0.000000
145.790300 0.000000
145.901400 0.000000
146.012500 0.000000
146.123600 0.000000
146.234700 0.000000
146.345800 0.000000
146.456900 0.000000
146.568000 0.000000
146.679100 0.000000
146.790100 0.000000
146.901200 0.000000
147.012300 0.000000
147.123400 0.000000
147.234500 0.000000
147.345600 0.000000
147.456700 0.000000
147.567800 0.000000
147.678900 0.000000
147.790000 0.000000
147.901100 0.000000
148.012100 0.000000
148.123200 0.000000
148.234300 0.000000
148.345400 0.000000
148.456500 0.000000
148.567600 0.000000
148.678700 0.000000
148.789800 0.000000
148.900900 0.000000
149.012000 0.000000
e
