set title 'mp-569610 - Density of States'
set xlabel 'Energy (eV)'
set ylabel 'DOS (states/eV)'
set grid
set xrange [-10:10]
set yrange [0:14.356]
set xzeroaxis lt -1
set terminal png size 800,600
set output 'mp-569610_dos_gnuplot.png'
plot '-' using 1:2 with lines title 'DOS'
-10.789000 0.000000
-10.775300 0.000000
-10.761600 0.000000
-10.747900 0.000000
-10.734200 0.000000
-10.720500 0.000000
-10.706800 0.000000
-10.693100 0.000000
-10.679300 0.000000
-10.665600 0.000000
-10.651900 0.000000
-10.638200 0.000000
-10.624500 0.000000
-10.610800 0.000000
-10.597100 0.000000
-10.583400 0.000000
-10.569700 0.000000
-10.556000 0.000000
-10.542200 0.000000
-10.528500 0.000000
-10.514800 0.000000
-10.501100 0.000000
-10.487400 0.000000
-10.473700 0.000000
-10.460000 0.000000
-10.446300 0.000000
-10.432600 0.000000
-10.418800 0.000000
-10.405100 0.000000
-10.391400 0.000000
-10.377700 0.000000
-10.364000 0.000000
-10.350300 0.000000
-10.336600 0.000000
-10.322900 0.000000
-10.309200 0.000000
-10.295500 0.000000
-10.281700 0.000000
-10.268000 0.000000
-10.254300 0.000000
-10.240600 0.000000
-10.226900 0.000000
-10.213200 0.000000
-10.199500 0.000000
-10.185800 0.000000
-10.172100 0.000000
-10.158400 0.000000
-10.144600 0.000000
-10.130900 0.000000
-10.117200 0.000000
-10.103500 0.000000
-10.089800 0.000000
-10.076100 0.000000
-10.062400 0.000000
-10.048700 0.000000
-10.035000 0.000000
-10.021200 0.000000
-10.007500 0.000000
-9.993800 0.000000
-9.980100 0.000000
-9.966400 0.000000
-9.952700 0.000000
-9.939000 0.000000
-9.925300 0.000000
-9.911600 0.000000
-9.897900 0.000000
-9.884100 0.000000
-9.870400 0.000000
-9.856700 0.000000
-9.843000 0.000000
-9.829300 0.000000
-9.815600 0.000000
-9.801900 0.000000
-9.788200 0.000000
-9.774500 0.000000
-9.760800 0.000000
-9.747000 0.000000
-9.733300 0.000000
-9.719600 0.000000
-9.705900 0.000000
-9.692200 0.000000
-9.678500 0.000000
-9.664800 0.000000
-9.651100 0.000000
-9.637400 0.000000
-9.623600 0.000000
-9.609900 0.000000
-9.596200 0.000000
-9.582500 0.000000
-9.568800 0.000000
-9.555100 0.000000
-9.541400 0.000300
-9.527700 0.050000
-9.514000 0.153500
-9.500300 0.164700
-9.486500 0.205500
-9.472800 0.244600
-9.459100 0.281100
-9.445400 0.318800
-9.431700 0.348700
-9.418000 0.385800
-9.404300 0.429600
-9.390600 0.501600
-9.376900 0.544400
-9.363100 0.515600
-9.349400 0.530200
-9.335700 0.535000
-9.322000 0.537800
-9.308300 0.533200
-9.294600 0.531600
-9.280900 0.538100
-9.267200 0.545200
-9.253500 0.552000
-9.239800 0.558000
-9.226000 0.563300
-9.212300 0.564500
-9.198600 0.568200
-9.184900 0.571400
-9.171200 0.576000
-9.157500 0.581500
-9.143800 0.587500
-9.130100 0.593400
-9.116400 0.599100
-9.102700 0.604500
-9.088900 0.609400
-9.075200 0.614000
-9.061500 0.620200
-9.047800 0.627200
-9.034100 0.634000
-9.020400 0.641000
-9.006700 0.648100
-8.993000 0.655700
-8.979300 0.663400
-8.965500 0.671300
-8.951800 0.679400
-8.938100 0.687500
-8.924400 0.695800
-8.910700 0.704300
-8.897000 0.713000
-8.883300 0.721800
-8.869600 0.731800
-8.855900 0.744000
-8.842200 0.756100
-8.828400 0.768700
-8.814700 0.781700
-8.801000 0.795300
-8.787300 0.809800
-8.773600 0.825800
-8.759900 0.842200
-8.746200 0.857100
-8.732500 0.872000
-8.718800 0.910100
-8.705100 1.094600
-8.691300 1.107800
-8.677600 1.196000
-8.663900 1.278400
-8.650200 1.343900
-8.636500 1.422800
-8.622800 1.506600
-8.609100 1.597900
-8.595400 1.690100
-8.581700 1.789400
-8.567900 1.895200
-8.554200 2.011000
-8.540500 2.152400
-8.526800 2.362300
-8.513100 2.665600
-8.499400 2.902300
-8.485700 3.297200
-8.472000 3.274300
-8.458300 3.260900
-8.444600 3.248700
-8.430800 3.062400
-8.417100 2.879900
-8.403400 2.861100
-8.389700 2.911900
-8.376000 2.879400
-8.362300 2.911800
-8.348600 2.967500
-8.334900 3.192500
-8.321200 4.741500
-8.307500 5.007500
-8.293700 4.974200
-8.280000 5.801100
-8.266300 8.315700
-8.252600 10.018300
-8.238900 5.726000
-8.225200 2.596900
-8.211500 0.000000
-8.197800 0.000000
-8.184100 0.000000
-8.170300 0.000000
-8.156600 0.000000
-8.142900 0.000000
-8.129200 0.000000
-8.115500 0.000000
-8.101800 0.000000
-8.088100 0.000000
-8.074400 0.000000
-8.060700 0.000000
-8.047000 0.000000
-8.033200 0.000000
-8.019500 0.000000
-8.005800 0.000000
-7.992100 0.000000
-7.978400 0.000000
-7.964700 0.000000
-7.951000 0.000000
-7.937300 0.000000
-7.923600 0.000000
-7.909900 0.000000
-7.896100 0.000000
-7.882400 0.000000
-7.868700 0.000000
-7.855000 0.000000
-7.841300 0.000000
-7.827600 0.000000
-7.813900 0.000000
-7.800200 0.000000
-7.786500 0.000000
-7.772700 0.000000
-7.759000 0.000000
-7.745300 0.000000
-7.731600 0.000000
-7.717900 0.000000
-7.704200 0.000000
-7.690500 0.000000
-7.676800 0.000000
-7.663100 0.000000
-7.649400 0.000000
-7.635600 0.000000
-7.621900 0.000000
-7.608200 0.000000
-7.594500 0.000000
-7.580800 0.000000
-7.567100 0.000000
-7.553400 0.000000
-7.539700 0.000000
-7.526000 0.000000
-7.512300 0.000000
-7.498500 0.000000
-7.484800 0.000000
-7.471100 0.000000
-7.457400 0.000000
-7.443700 0.000000
-7.430000 0.000000
-7.416300 0.000000
-7.402600 0.000000
-7.388900 0.000000
-7.375100 0.000000
-7.361400 0.000000
-7.347700 0.000000
-7.334000 0.000000
-7.320300 0.000000
-7.306600 0.000000
-7.292900 0.000000
-7.279200 0.000000
-7.265500 0.000000
-7.251800 0.000000
-7.238000 0.000000
-7.224300 0.000000
-7.210600 0.000000
-7.196900 0.000000
-7.183200 0.000000
-7.169500 0.000000
-7.155800 0.000000
-7.142100 0.000000
-7.128400 0.000000
-7.114600 0.000000
-7.100900 0.000000
-7.087200 0.000000
-7.073500 0.000000
-7.059800 0.000000
-7.046100 0.000000
-7.032400 0.000000
-7.018700 0.000000
-7.005000 0.000000
-6.991300 0.000000
-6.977500 0.000000
-6.963800 0.000000
-6.950100 0.000000
-6.936400 0.000000
-6.922700 0.000000
-6.909000 0.000000
-6.895300 0.000000
-6.881600 0.000000
-6.867900 0.000000
-6.854200 0.000000
-6.840400 0.000000
-6.826700 0.000000
-6.813000 0.000000
-6.799300 0.000000
-6.785600 0.000000
-6.771900 0.000000
-6.758200 0.000000
-6.744500 0.000000
-6.730800 0.000000
-6.717000 0.000000
-6.703300 0.000000
-6.689600 0.000000
-6.675900 0.000000
-6.662200 0.000000
-6.648500 0.000000
-6.634800 0.000000
-6.621100 0.000000
-6.607400 0.000000
-6.593700 0.000000
-6.579900 0.000000
-6.566200 0.000000
-6.552500 0.000000
-6.538800 0.000000
-6.525100 0.000000
-6.511400 0.000000
-6.497700 0.000000
-6.484000 0.000000
-6.470300 0.000000
-6.456600 0.000000
-6.442800 0.000000
-6.429100 0.000000
-6.415400 0.000000
-6.401700 0.000000
-6.388000 0.000000
-6.374300 0.000000
-6.360600 0.000000
-6.346900 0.000000
-6.333200 0.000000
-6.319400 0.000000
-6.305700 0.000000
-6.292000 0.000000
-6.278300 0.000000
-6.264600 0.000000
-6.250900 0.000000
-6.237200 0.000000
-6.223500 0.000000
-6.209800 0.000000
-6.196100 0.000000
-6.182300 0.000000
-6.168600 0.000000
-6.154900 0.000000
-6.141200 0.000000
-6.127500 0.000000
-6.113800 0.000000
-6.100100 0.000000
-6.086400 0.000000
-6.072700 0.000000
-6.059000 0.000000
-6.045200 0.000000
-6.031500 0.000000
-6.017800 0.000000
-6.004100 0.000000
-5.990400 0.000000
-5.976700 0.000000
-5.963000 0.000000
-5.949300 0.000000
-5.935600 0.000000
-5.921800 0.000000
-5.908100 0.000000
-5.894400 0.000000
-5.880700 0.000000
-5.867000 0.000000
-5.853300 0.000000
-5.839600 0.000000
-5.825900 0.000000
-5.812200 0.000000
-5.798500 0.000000
-5.784700 0.000000
-5.771000 0.000000
-5.757300 0.000000
-5.743600 0.000000
-5.729900 0.000000
-5.716200 0.000000
-5.702500 0.000000
-5.688800 0.000000
-5.675100 0.000000
-5.661400 0.000000
-5.647600 0.000000
-5.633900 0.000000
-5.620200 0.000000
-5.606500 0.000000
-5.592800 0.000000
-5.579100 0.000000
-5.565400 0.000000
-5.551700 0.000000
-5.538000 0.000000
-5.524200 0.000000
-5.510500 0.000000
-5.496800 0.000000
-5.483100 0.000000
-5.469400 0.000000
-5.455700 0.000000
-5.442000 0.000000
-5.428300 0.000000
-5.414600 0.000000
-5.400900 0.000000
-5.387100 0.000000
-5.373400 0.000000
-5.359700 0.000000
-5.346000 0.000000
-5.332300 0.000000
-5.318600 0.000000
-5.304900 0.000000
-5.291200 0.000000
-5.277500 0.000000
-5.263800 0.000000
-5.250000 0.000000
-5.236300 0.000000
-5.222600 0.000000
-5.208900 0.000000
-5.195200 0.000000
-5.181500 0.000000
-5.167800 0.000000
-5.154100 0.000000
-5.140400 0.000000
-5.126600 0.000000
-5.112900 0.000000
-5.099200 0.000000
-5.085500 0.000000
-5.071800 0.000000
-5.058100 0.000000
-5.044400 0.000000
-5.030700 0.000000
-5.017000 0.000000
-5.003300 0.000000
-4.989500 0.000000
-4.975800 0.000000
-4.962100 0.000000
-4.948400 0.000000
-4.934700 0.000000
-4.921000 0.000000
-4.907300 0.000000
-4.893600 0.000000
-4.879900 0.000000
-4.866200 0.000000
-4.852400 0.000000
-4.838700 0.000000
-4.825000 0.000000
-4.811300 0.000000
-4.797600 0.000000
-4.783900 0.000000
-4.770200 0.000000
-4.756500 0.000000
-4.742800 0.000000
-4.729000 0.000000
-4.715300 0.000000
-4.701600 0.000000
-4.687900 0.000000
-4.674200 0.000000
-4.660500 0.000000
-4.646800 0.000000
-4.633100 0.000000
-4.619400 0.000000
-4.605700 0.000000
-4.591900 0.000000
-4.578200 0.000000
-4.564500 0.000000
-4.550800 0.000000
-4.537100 0.000000
-4.523400 0.000000
-4.509700 0.000000
-4.496000 0.000000
-4.482300 0.000000
-4.468500 0.000000
-4.454800 0.000000
-4.441100 0.000000
-4.427400 0.000000
-4.413700 0.000000
-4.400000 0.000000
-4.386300 0.000000
-4.372600 0.000000
-4.358900 0.000000
-4.345200 0.000000
-4.331400 0.000000
-4.317700 0.000000
-4.304000 0.000000
-4.290300 0.000000
-4.276600 0.000000
-4.262900 0.000000
-4.249200 0.000000
-4.235500 0.000000
-4.221800 0.000000
-4.208100 0.000000
-4.194300 0.000000
-4.180600 0.000000
-4.166900 0.000000
-4.153200 0.000000
-4.139500 0.000000
-4.125800 0.000000
-4.112100 0.000000
-4.098400 0.000000
-4.084700 0.000000
-4.070900 0.000000
-4.057200 0.000000
-4.043500 0.000000
-4.029800 0.000000
-4.016100 0.000000
-4.002400 0.000000
-3.988700 0.000000
-3.975000 0.000000
-3.961300 0.000000
-3.947600 0.000000
-3.933800 0.000000
-3.920100 0.000000
-3.906400 0.000000
-3.892700 0.000000
-3.879000 0.000000
-3.865300 0.000000
-3.851600 0.000000
-3.837900 0.000000
-3.824200 0.000000
-3.810500 0.000000
-3.796700 0.000000
-3.783000 0.000000
-3.769300 0.000000
-3.755600 0.000000
-3.741900 0.000000
-3.728200 0.000000
-3.714500 0.000000
-3.700800 0.000000
-3.687100 0.000000
-3.673300 0.000000
-3.659600 0.000000
-3.645900 0.000000
-3.632200 0.000000
-3.618500 0.000000
-3.604800 0.000000
-3.591100 0.000000
-3.577400 0.000000
-3.563700 0.000000
-3.550000 0.000000
-3.536200 0.000000
-3.522500 0.000000
-3.508800 0.000000
-3.495100 0.000000
-3.481400 0.000000
-3.467700 0.000000
-3.454000 0.000000
-3.440300 0.000000
-3.426600 0.000000
-3.412900 0.000000
-3.399100 0.000000
-3.385400 0.000000
-3.371700 0.000000
-3.358000 0.000000
-3.344300 0.000000
-3.330600 0.000000
-3.316900 0.000000
-3.303200 0.000000
-3.289500 0.000000
-3.275700 0.000000
-3.262000 0.000000
-3.248300 0.000000
-3.234600 0.000000
-3.220900 0.000000
-3.207200 0.000000
-3.193500 0.000000
-3.179800 0.000000
-3.166100 0.000000
-3.152400 0.000000
-3.138600 0.000000
-3.124900 0.000000
-3.111200 0.000000
-3.097500 0.000000
-3.083800 0.000000
-3.070100 0.000000
-3.056400 0.000000
-3.042700 0.000000
-3.029000 0.000000
-3.015300 0.000000
-3.001500 0.000000
-2.987800 0.000000
-2.974100 0.000000
-2.960400 0.000000
-2.946700 0.000000
-2.933000 0.000000
-2.919300 0.000000
-2.905600 0.000000
-2.891900 0.000000
-2.878100 0.000000
-2.864400 0.000000
-2.850700 0.000000
-2.837000 0.000000
-2.823300 0.000000
-2.809600 0.000000
-2.795900 0.000000
-2.782200 0.000000
-2.768500 0.000000
-2.754800 0.000000
-2.741000 0.000000
-2.727300 0.000000
-2.713600 0.000000
-2.699900 0.000000
-2.686200 0.000000
-2.672500 0.000000
-2.658800 0.000000
-2.645100 0.000000
-2.631400 0.000000
-2.617700 0.000000
-2.603900 0.000000
-2.590200 0.000000
-2.576500 0.000000
-2.562800 0.000000
-2.549100 0.000000
-2.535400 0.000000
-2.521700 0.000000
-2.508000 0.000000
-2.494300 0.000000
-2.480500 0.000000
-2.466800 0.000000
-2.453100 0.000000
-2.439400 0.000000
-2.425700 0.000000
-2.412000 0.000000
-2.398300 0.000000
-2.384600 0.000000
-2.370900 0.000000
-2.357200 0.000000
-2.343400 0.000000
-2.329700 0.000000
-2.316000 0.000000
-2.302300 0.000000
-2.288600 0.000000
-2.274900 0.000000
-2.261200 0.000000
-2.247500 0.000000
-2.233800 0.000000
-2.220100 0.000000
-2.206300 0.000000
-2.192600 0.000000
-2.178900 0.000000
-2.165200 0.000000
-2.151500 0.000000
-2.137800 0.000000
-2.124100 0.000000
-2.110400 0.000000
-2.096700 0.000000
-2.082900 0.000000
-2.069200 0.000000
-2.055500 0.000000
-2.041800 0.000000
-2.028100 0.000000
-2.014400 0.000000
-2.000700 0.000000
-1.987000 0.000000
-1.973300 0.000000
-1.959600 0.000000
-1.945800 0.000000
-1.932100 0.000000
-1.918400 0.000000
-1.904700 0.000000
-1.891000 0.000000
-1.877300 0.000000
-1.863600 0.000000
-1.849900 0.000000
-1.836200 0.000000
-1.822400 0.000000
-1.808700 0.000000
-1.795000 0.000000
-1.781300 0.000000
-1.767600 0.000000
-1.753900 0.000000
-1.740200 0.000000
-1.726500 0.000000
-1.712800 0.000000
-1.699100 0.000000
-1.685300 0.000000
-1.671600 0.000000
-1.657900 0.000000
-1.644200 0.000000
-1.630500 0.000000
-1.616800 0.000000
-1.603100 0.000000
-1.589400 0.000000
-1.575700 0.000000
-1.562000 0.000000
-1.548200 0.000000
-1.534500 0.000000
-1.520800 0.000000
-1.507100 0.000000
-1.493400 0.000000
-1.479700 0.000000
-1.466000 0.000000
-1.452300 0.000000
-1.438600 0.000000
-1.424800 0.000000
-1.411100 0.000000
-1.397400 0.000000
-1.383700 0.000000
-1.370000 0.000000
-1.356300 0.000000
-1.342600 0.000000
-1.328900 0.000000
-1.315200 0.000000
-1.301500 0.000000
-1.287700 0.046400
-1.274000 0.135200
-1.260300 0.256400
-1.246600 0.394600
-1.232900 0.471800
-1.219200 0.554400
-1.205500 0.632200
-1.191800 0.692900
-1.178100 0.730400
-1.164400 0.733400
-1.150600 0.709900
-1.136900 0.700000
-1.123200 0.705500
-1.109500 0.730100
-1.095800 0.756800
-1.082100 0.771600
-1.068400 0.783200
-1.054700 0.795000
-1.041000 0.808100
-1.027200 0.826600
-1.013500 0.843900
-0.999800 0.857100
-0.986100 0.889400
-0.972400 0.923100
-0.958700 0.949900
-0.945000 0.974000
-0.931300 1.004800
-0.917600 1.034000
-0.903900 1.061800
-0.890100 1.089700
-0.876400 1.126300
-0.862700 1.205300
-0.849000 1.314900
-0.835300 1.487100
-0.821600 1.927700
-0.807900 1.867500
-0.794200 1.641700
-0.780500 1.418100
-0.766800 1.259100
-0.753000 1.123700
-0.739300 1.038500
-0.725600 0.980300
-0.711900 0.954200
-0.698200 0.880600
-0.684500 0.889100
-0.670800 0.898300
-0.657100 0.898200
-0.643400 0.887900
-0.629600 0.885300
-0.615900 0.890800
-0.602200 0.902200
-0.588500 0.923800
-0.574800 0.954100
-0.561100 0.994900
-0.547400 1.053100
-0.533700 1.112800
-0.520000 1.144000
-0.506300 1.175700
-0.492500 1.195400
-0.478800 1.154100
-0.465100 1.271300
-0.451400 1.475000
-0.437700 1.477800
-0.424000 1.554000
-0.410300 1.692900
-0.396600 1.749700
-0.382900 1.690600
-0.369200 1.693300
-0.355400 1.732000
-0.341700 1.889700
-0.328000 2.092400
-0.314300 2.599600
-0.300600 2.520300
-0.286900 2.629400
-0.273200 2.576000
-0.259500 2.384800
-0.245800 2.296200
-0.232000 2.186400
-0.218300 2.154000
-0.204600 2.121500
-0.190900 2.089800
-0.177200 2.117900
-0.163500 2.276200
-0.149800 2.043300
-0.136100 1.915900
-0.122400 2.043300
-0.108700 2.214700
-0.094900 2.405300
-0.081200 2.563800
-0.067500 2.455700
-0.053800 1.590700
-0.040100 1.378200
-0.026400 1.328600
-0.012700 1.152600
0.001000 1.074600
0.014700 1.023400
0.028400 0.996700
0.042200 0.962500
0.055900 0.921800
0.069600 0.889800
0.083300 0.869700
0.097000 0.858800
0.110700 0.851400
0.124400 0.845300
0.138100 0.849500
0.151800 0.845300
0.165600 0.840300
0.179300 0.836600
0.193000 0.838500
0.206700 0.836900
0.220400 0.840000
0.234100 0.842900
0.247800 0.846400
0.261500 0.885400
0.275200 1.001900
0.288900 1.195700
0.302700 1.258900
0.316400 1.299100
0.330100 1.336600
0.343800 1.446900
0.357500 1.495800
0.371200 1.549200
0.384900 1.600700
0.398600 1.646400
0.412300 1.693100
0.426100 1.735000
0.439800 1.802700
0.453500 1.899800
0.467200 2.017700
0.480900 2.151000
0.494600 2.240900
0.508300 2.306900
0.522000 2.394700
0.535700 2.649500
0.549400 2.848500
0.563200 3.037900
0.576900 3.579800
0.590600 4.415400
0.604300 7.402000
0.618000 7.221500
0.631700 9.045000
0.645400 8.908300
0.659100 13.050500
0.672800 5.996200
0.686500 5.729400
0.700300 5.774500
0.714000 5.349400
0.727700 5.249600
0.741400 4.217100
0.755100 3.637000
0.768800 3.133500
0.782500 1.895600
0.796200 1.532700
0.809900 1.517800
0.823700 1.601600
0.837400 1.698000
0.851100 1.924900
0.864800 2.156800
0.878500 2.135600
0.892200 2.184800
0.905900 2.084300
0.919600 2.211900
0.933300 1.893500
0.947000 1.626700
0.960800 1.453600
0.974500 1.288300
0.988200 1.132900
1.001900 1.023500
1.015600 1.009300
1.029300 1.095900
1.043000 1.117500
1.056700 1.111400
1.070400 1.125800
1.084100 1.163300
1.097900 1.215600
1.111600 1.184100
1.125300 1.194300
1.139000 1.204200
1.152700 1.213800
1.166400 1.231700
1.180100 1.276600
1.193800 1.342000
1.207500 1.454000
1.221300 1.552700
1.235000 1.654900
1.248700 1.754000
1.262400 1.833100
1.276100 1.858900
1.289800 1.920600
1.303500 1.988000
1.317200 2.044700
1.330900 2.131900
1.344600 2.151400
1.358400 2.291100
1.372100 2.496300
1.385800 2.573500
1.399500 2.562200
1.413200 2.541400
1.426900 2.502300
1.440600 2.405600
1.454300 2.380900
1.468000 4.365200
1.481700 3.238100
1.495500 3.281700
1.509200 3.470500
1.522900 3.647100
1.536600 3.430500
1.550300 3.440300
1.564000 3.433200
1.577700 3.570900
1.591400 4.013000
1.605100 3.938100
1.618900 3.791400
1.632600 3.885100
1.646300 4.166600
1.660000 4.581200
1.673700 5.028900
1.687400 5.189300
1.701100 5.391900
1.714800 5.673400
1.728500 6.776500
1.742200 6.453600
1.756000 5.686000
1.769700 4.150700
1.783400 3.033400
1.797100 2.706000
1.810800 2.361300
1.824500 2.050800
1.838200 1.784900
1.851900 1.602400
1.865600 1.483500
1.879300 1.396700
1.893100 1.402400
1.906800 1.292200
1.920500 1.137900
1.934200 1.057300
1.947900 1.069100
1.961600 0.983300
1.975300 0.871500
1.989000 0.780500
2.002700 0.744500
2.016500 0.718700
2.030200 0.702100
2.043900 0.950600
2.057600 1.449700
2.071300 2.015700
2.085000 3.163200
2.098700 7.656200
2.112400 7.287900
2.126100 5.729600
2.139800 5.133100
2.153600 4.642400
2.167300 4.588500
2.181000 4.430100
2.194700 4.323000
2.208400 4.341100
2.222100 4.176700
2.235800 3.950400
2.249500 3.660200
2.263200 3.048700
2.276900 2.853800
2.290700 3.487600
2.304400 3.515100
2.318100 3.259300
2.331800 2.993900
2.345500 2.949800
2.359200 2.940000
2.372900 3.174100
2.386600 2.844700
2.400300 2.514400
2.414100 2.355700
2.427800 2.212400
2.441500 2.077500
2.455200 1.961600
2.468900 1.892100
2.482600 1.838800
2.496300 1.775100
2.510000 1.692700
2.523700 1.614600
2.537400 1.558000
2.551200 1.515100
2.564900 1.477200
2.578600 1.451300
2.592300 1.428800
2.606000 1.406700
2.619700 1.343000
2.633400 1.291000
2.647100 1.239500
2.660800 1.202300
2.674500 1.172300
2.688300 1.151600
2.702000 1.136000
2.715700 1.126200
2.729400 1.121200
2.743100 1.089200
2.756800 1.060800
2.770500 1.036000
2.784200 1.013500
2.797900 0.990000
2.811700 0.961800
2.825400 0.945200
2.839100 0.895100
2.852800 0.880700
2.866500 0.871100
2.880200 0.863100
2.893900 0.853700
2.907600 0.842100
2.921300 0.828300
2.935000 0.811900
2.948800 0.795100
2.962500 0.783000
2.976200 0.784200
2.989900 0.796200
3.003600 0.807800
3.017300 0.827200
3.031000 0.835200
3.044700 0.756300
3.058400 0.722900
3.072200 0.730000
3.085900 0.804900
3.099600 0.869000
3.113300 0.916500
3.127000 1.009400
3.140700 1.099200
3.154400 1.200900
3.168100 1.280800
3.181800 1.301900
3.195500 1.268300
3.209300 1.315000
3.223000 1.336700
3.236700 1.296000
3.250400 1.255200
3.264100 1.248300
3.277800 1.267000
3.291500 1.313300
3.305200 1.200000
3.318900 1.164400
3.332600 1.159100
3.346400 1.191000
3.360100 1.230400
3.373800 1.255700
3.387500 1.251600
3.401200 1.269800
3.414900 1.307100
3.428600 1.345900
3.442300 1.398600
3.456000 1.452000
3.469800 1.505300
3.483500 1.558300
3.497200 1.640400
3.510900 1.725900
3.524600 1.729100
3.538300 1.828000
3.552000 1.775700
3.565700 1.792000
3.579400 1.830300
3.593100 1.893400
3.606900 1.955000
3.620600 1.979700
3.634300 2.097300
3.648000 2.074600
3.661700 2.037400
3.675400 1.922900
3.689100 1.850300
3.702800 1.829500
3.716500 1.834500
3.730200 1.826300
3.744000 1.877900
3.757700 1.932300
3.771400 1.994100
3.785100 2.112800
3.798800 2.278800
3.812500 2.444800
3.826200 2.629100
3.839900 2.861200
3.853600 3.174400
3.867400 3.431200
3.881100 4.172500
3.894800 4.754300
3.908500 4.842200
3.922200 4.456600
3.935900 3.606000
3.949600 3.122800
3.963300 2.647600
3.977000 2.521100
3.990700 2.413400
4.004500 2.124400
4.018200 1.936900
4.031900 1.856300
4.045600 1.764900
4.059300 1.680400
4.073000 1.604500
4.086700 1.530200
4.100400 1.453700
4.114100 1.370300
4.127800 1.269100
4.141600 1.150400
4.155300 1.019300
4.169000 0.917000
4.182700 0.826200
4.196400 0.747400
4.210100 0.689900
4.223800 0.671800
4.237500 0.685400
4.251200 0.659100
4.265000 0.604900
4.278700 0.546800
4.292400 0.537800
4.306100 0.535000
4.319800 0.418300
4.333500 0.326900
4.347200 0.261600
4.360900 0.208800
4.374600 0.166400
4.388300 0.100700
4.402100 0.024700
4.415800 0.000000
4.429500 0.000000
4.443200 0.000000
4.456900 0.000000
4.470600 0.000000
4.484300 0.000000
4.498000 0.000000
4.511700 0.000000
4.525400 0.000000
4.539200 0.000000
4.552900 0.000000
4.566600 0.000000
4.580300 0.000000
4.594000 0.000000
4.607700 0.000000
4.621400 0.000000
4.635100 0.000000
4.648800 0.000000
4.662600 0.000000
4.676300 0.000000
4.690000 0.000000
4.703700 0.000000
4.717400 0.000000
4.731100 0.000000
4.744800 0.000000
4.758500 0.000000
4.772200 0.000000
4.785900 0.000000
4.799700 0.000000
4.813400 0.000000
4.827100 0.000000
4.840800 0.000000
4.854500 0.000000
4.868200 0.000000
4.881900 0.000000
4.895600 0.000000
4.909300 0.000000
4.923000 0.000000
4.936800 0.000000
4.950500 0.000000
4.964200 0.000000
4.977900 0.000000
4.991600 0.000000
5.005300 0.000000
5.019000 0.000000
5.032700 0.000000
5.046400 0.000000
5.060200 0.000000
5.073900 0.000000
5.087600 0.000000
5.101300 0.000000
5.115000 0.000000
5.128700 0.000000
5.142400 0.000000
5.156100 0.000000
5.169800 0.000000
5.183500 0.000000
5.197300 0.000000
5.211000 0.000000
5.224700 0.000000
5.238400 0.000000
5.252100 0.000000
5.265800 0.000000
5.279500 0.000000
5.293200 0.000000
5.306900 0.000000
5.320600 0.000000
5.334400 0.000000
5.348100 0.000000
5.361800 0.000000
5.375500 0.000000
5.389200 0.000000
5.402900 0.000000
5.416600 0.000000
5.430300 0.000000
5.444000 0.000000
5.457800 0.000000
5.471500 0.000000
5.485200 0.000000
5.498900 0.000000
5.512600 0.000000
5.526300 0.000000
5.540000 0.000000
5.553700 0.000000
5.567400 0.000000
5.581100 0.000000
5.594900 0.000000
5.608600 0.000000
5.622300 0.000000
5.636000 0.000000
5.649700 0.000000
5.663400 0.000000
5.677100 0.000000
5.690800 0.000000
5.704500 0.000000
5.718300 0.000000
5.732000 0.000000
5.745700 0.000000
5.759400 0.000000
5.773100 0.000000
5.786800 0.000000
5.800500 0.000000
5.814200 0.000000
5.827900 0.000000
5.841600 0.000000
5.855400 0.000000
5.869100 0.000000
5.882800 0.000000
5.896500 0.000000
5.910200 0.000000
5.923900 0.000000
5.937600 0.000000
5.951300 0.000000
5.965000 0.000000
5.978700 0.000000
5.992500 0.000000
6.006200 0.000000
6.019900 0.000000
6.033600 0.000000
6.047300 0.000000
6.061000 0.000000
6.074700 0.000000
6.088400 0.000000
6.102100 0.000000
6.115900 0.000000
6.129600 0.000000
6.143300 0.000000
6.157000 0.000000
6.170700 0.000000
6.184400 0.000000
6.198100 0.000000
6.211800 0.000000
6.225500 0.000000
6.239200 0.000000
6.253000 0.000000
6.266700 0.000000
6.280400 0.000000
6.294100 0.000000
6.307800 0.000000
6.321500 0.000000
6.335200 0.000000
6.348900 0.000000
6.362600 0.000000
6.376300 0.000000
6.390100 0.000000
6.403800 0.000000
6.417500 0.000000
6.431200 0.000000
6.444900 0.000000
6.458600 0.000000
6.472300 0.000000
6.486000 0.000000
6.499700 0.000000
6.513500 0.000000
6.527200 0.000000
6.540900 0.000000
6.554600 0.000000
6.568300 0.000000
6.582000 0.000000
6.595700 0.000000
6.609400 0.000000
6.623100 0.000000
6.636800 0.000000
6.650600 0.000000
6.664300 0.000000
6.678000 0.000000
6.691700 0.000000
6.705400 0.000000
6.719100 0.000000
6.732800 0.000000
6.746500 0.000000
6.760200 0.000000
6.773900 0.000000
6.787700 0.000000
6.801400 0.000000
6.815100 0.000000
6.828800 0.000000
6.842500 0.000000
6.856200 0.000000
6.869900 0.000000
6.883600 0.000000
6.897300 0.000000
6.911100 0.000000
6.924800 0.000000
6.938500 0.000000
6.952200 0.000000
6.965900 0.000000
6.979600 0.000000
6.993300 0.000000
7.007000 0.000000
7.020700 0.000000
7.034400 0.004400
7.048200 0.026800
7.061900 0.063200
7.075600 0.098200
7.089300 0.130300
7.103000 0.159000
7.116700 0.185400
7.130400 0.210500
7.144100 0.235400
7.157800 0.256600
7.171500 0.274600
7.185300 0.287500
7.199000 0.294100
7.212700 0.294300
7.226400 0.301800
7.240100 0.316300
7.253800 0.333200
7.267500 0.352000
7.281200 0.372200
7.294900 0.393900
7.308700 0.413200
7.322400 0.426700
7.336100 0.433600
7.349800 0.436700
7.363500 0.439400
7.377200 0.442000
7.390900 0.444100
7.404600 0.447600
7.418300 0.452800
7.432000 0.457500
7.445800 0.462300
7.459500 0.467000
7.473200 0.471400
7.486900 0.475400
7.500600 0.495000
7.514300 0.507000
7.528000 0.525800
7.541700 0.547000
7.555400 0.572400
7.569100 0.614500
7.582900 0.668300
7.596600 0.715900
7.610300 0.762300
7.624000 0.798700
7.637700 0.820000
7.651400 0.807700
7.665100 0.787400
7.678800 0.759100
7.692500 0.738500
7.706300 0.736400
7.720000 0.737300
7.733700 0.737100
7.747400 0.735700
7.761100 0.732700
7.774800 0.727300
7.788500 0.717200
7.802200 0.704400
7.815900 0.693200
7.829600 0.685500
7.843400 0.681000
7.857100 0.679000
7.870800 0.678400
7.884500 0.673400
7.898200 0.670300
7.911900 0.666100
7.925600 0.663500
7.939300 0.660400
7.953000 0.656600
7.966700 0.655200
7.980500 0.655100
7.994200 0.655200
8.007900 0.655400
8.021600 0.655600
8.035300 0.655100
8.049000 0.653500
8.062700 0.650300
8.076400 0.646700
8.090100 0.645200
8.103900 0.644500
8.117600 0.642700
8.131300 0.640800
8.145000 0.639200
8.158700 0.638300
8.172400 0.637800
8.186100 0.637900
8.199800 0.639200
8.213500 0.641700
8.227200 0.645700
8.241000 0.653700
8.254700 0.661500
8.268400 0.667400
8.282100 0.670600
8.295800 0.672900
8.309500 0.676300
8.323200 0.681100
8.336900 0.681600
8.350600 0.678200
8.364400 0.670000
8.378100 0.650800
8.391800 0.626300
8.405500 0.612800
8.419200 0.624800
8.432900 0.662700
8.446600 0.581700
8.460300 0.562300
8.474000 0.549800
8.487700 0.528900
8.501500 0.508600
8.515200 0.502100
8.528900 0.498800
8.542600 0.495100
8.556300 0.492000
8.570000 0.490300
8.583700 0.489800
8.597400 0.478800
8.611100 0.491000
8.624800 0.505300
8.638600 0.517400
8.652300 0.525000
8.666000 0.525600
8.679700 0.518900
8.693400 0.518500
8.707100 0.517700
8.720800 0.512700
8.734500 0.523200
8.748200 0.533200
8.762000 0.542700
8.775700 0.552000
8.789400 0.538400
8.803100 0.505000
8.816800 0.461400
8.830500 0.434000
8.844200 0.423200
8.857900 0.431900
8.871600 0.448300
8.885300 0.472000
8.899100 0.494000
8.912800 0.523700
8.926500 0.547500
8.940200 0.488400
8.953900 0.494700
8.967600 0.503600
8.981300 0.513400
8.995000 0.523700
9.008700 0.535300
9.022400 0.534300
9.036200 0.541100
9.049900 0.549000
9.063600 0.562700
9.077300 0.575100
9.091000 0.584800
9.104700 0.592900
9.118400 0.601400
9.132100 0.609600
9.145800 0.617600
9.159600 0.628200
9.173300 0.641700
9.187000 0.656000
9.200700 0.671000
9.214400 0.687200
9.228100 0.706700
9.241800 0.729600
9.255500 0.757100
9.269200 0.853100
9.282900 0.907400
9.296700 0.954000
9.310400 0.995300
9.324100 1.027600
9.337800 1.042400
9.351500 1.055500
9.365200 1.066000
9.378900 1.074200
9.392600 1.069100
9.406300 1.051200
9.420000 1.051200
9.433800 1.052700
9.447500 1.052000
9.461200 1.051400
9.474900 1.049400
9.488600 1.081900
9.502300 1.065800
9.516000 1.052900
9.529700 1.039000
9.543400 1.027300
9.557200 1.019500
9.570900 1.019900
9.584600 1.015400
9.598300 1.009400
9.612000 1.003000
9.625700 0.996500
9.639400 0.989700
9.653100 0.993600
9.666800 1.010700
9.680500 1.031700
9.694300 1.051300
9.708000 1.069400
9.721700 1.085700
9.735400 1.196600
9.749100 1.148100
9.762800 1.169900
9.776500 1.185100
9.790200 1.193700
9.803900 1.204000
9.817600 1.218200
9.831400 1.236200
9.845100 1.253500
9.858800 1.269400
9.872500 1.293100
9.886200 1.318900
9.899900 1.349300
9.913600 1.374800
9.927300 1.393100
9.941000 1.411800
9.954800 1.417300
9.968500 1.387500
9.982200 1.344300
9.995900 1.288300
10.009600 1.260700
10.023300 1.310100
10.037000 1.339000
10.050700 1.376400
10.064400 1.429500
10.078100 1.423200
10.091900 1.426600
10.105600 1.430300
10.119300 1.431600
10.133000 1.429600
10.146700 1.424000
10.160400 1.427200
10.174100 1.408700
10.187800 1.431600
10.201500 1.462700
10.215200 1.499300
10.229000 1.522600
10.242700 1.551900
10.256400 1.597300
10.270100 1.772500
10.283800 1.911700
10.297500 1.832600
10.311200 1.903200
10.324900 2.025600
10.338600 1.982100
10.352400 1.977200
10.366100 1.884200
10.379800 1.757200
10.393500 1.611000
10.407200 1.445100
10.420900 1.380300
10.434600 1.341400
10.448300 1.303200
10.462000 1.257100
10.475700 1.221600
10.489500 1.196700
10.503200 1.179100
10.516900 1.167100
10.530600 1.162500
10.544300 1.163700
10.558000 1.169000
10.571700 1.182000
10.585400 1.197700
10.599100 1.212200
10.612900 1.225200
10.626600 1.238000
10.640300 1.255500
10.654000 1.292100
10.667700 1.325300
10.681400 1.348900
10.695100 1.369600
10.708800 1.375100
10.722500 1.388600
10.736200 1.402100
10.750000 1.392900
10.763700 1.396900
10.777400 1.399900
10.791100 1.402500
10.804800 1.404500
10.818500 1.413400
10.832200 1.432000
10.845900 1.458800
10.859600 1.511900
10.873300 1.667800
10.887100 1.679700
10.900800 1.752100
10.914500 1.844300
10.928200 1.968000
10.941900 2.143100
10.955600 2.414400
10.969300 2.598700
10.983000 2.676100
10.996700 2.476000
11.010500 2.336900
11.024200 2.208600
11.037900 2.139500
11.051600 2.119500
11.065300 2.084100
11.079000 1.940400
11.092700 1.854000
11.106400 1.771600
11.120100 1.692900
11.133800 1.650300
11.147600 1.602700
11.161300 1.575200
11.175000 1.512400
11.188700 1.440700
11.202400 1.388900
11.216100 1.349500
11.229800 1.325300
11.243500 1.324000
11.257200 1.435100
11.270900 1.432600
11.284700 1.402100
11.298400 1.419200
11.312100 1.448800
11.325800 1.511400
11.339500 1.548100
11.353200 1.612700
11.366900 1.667600
11.380600 1.713600
11.394300 1.755500
11.408100 1.767500
11.421800 1.772600
11.435500 1.765300
11.449200 1.747000
11.462900 1.733900
11.476600 1.813600
11.490300 1.852300
11.504000 1.651000
11.517700 1.642700
11.531400 1.662700
11.545200 1.701700
11.558900 1.732400
11.572600 1.753600
11.586300 1.779100
11.600000 1.768900
11.613700 1.711600
11.627400 1.618400
11.641100 1.516700
11.654800 1.458300
11.668500 1.399100
11.682300 1.331000
11.696000 1.284100
11.709700 1.228400
11.723400 1.163500
11.737100 1.106200
11.750800 1.061100
11.764500 1.022800
11.778200 0.985500
11.791900 0.949300
11.805700 0.928300
11.819400 0.928400
11.833100 0.951100
11.846800 0.950200
11.860500 0.949600
11.874200 0.970400
11.887900 1.006400
11.901600 1.038200
11.915300 1.074200
11.929000 1.116000
11.942800 1.159200
11.956500 1.199200
11.970200 1.236200
11.983900 1.273900
11.997600 1.334800
12.011300 1.412600
12.025000 1.393600
12.038700 1.392000
12.052400 1.374700
12.066100 1.350500
12.079900 1.322800
12.093600 1.299600
12.107300 1.309700
12.121000 1.280000
12.134700 1.240000
12.148400 1.181200
12.162100 1.113600
12.175800 1.006500
12.189500 0.946500
12.203300 0.898200
12.217000 0.860300
12.230700 0.828600
12.244400 0.800000
12.258100 0.772800
12.271800 0.746800
12.285500 0.722000
12.299200 0.699200
12.312900 0.683700
12.326600 0.671800
12.340400 0.694100
12.354100 0.664900
12.367800 0.657700
12.381500 0.653600
12.395200 0.652100
12.408900 0.657300
12.422600 0.633600
12.436300 0.629200
12.450000 0.619600
12.463700 0.614500
12.477500 0.619200
12.491200 0.634000
12.504900 0.642100
12.518600 0.656500
12.532300 0.681500
12.546000 0.715800
12.559700 0.754700
12.573400 0.800600
12.587100 0.851200
12.600900 0.911800
12.614600 1.000200
12.628300 1.074400
12.642000 1.149700
12.655700 1.217200
12.669400 1.258900
12.683100 1.298600
12.696800 1.304300
12.710500 1.317700
12.724200 1.327000
12.738000 1.331600
12.751700 1.338700
12.765400 1.383600
12.779100 1.413900
12.792800 1.450400
12.806500 1.479200
12.820200 1.496600
12.833900 1.497400
12.847600 1.506600
12.861300 1.521200
12.875100 1.452900
12.888800 1.453800
12.902500 1.471600
12.916200 1.526300
12.929900 1.592000
12.943600 1.626400
12.957300 1.640000
12.971000 1.632500
12.984700 1.617200
12.998500 1.595300
13.012200 1.582500
13.025900 1.589500
13.039600 1.606300
13.053300 1.603600
13.067000 1.621900
13.080700 1.509500
13.094400 1.448700
13.108100 1.408900
13.121800 1.375400
13.135600 1.340100
13.149300 1.307600
13.163000 1.244200
13.176700 1.197600
13.190400 1.170900
13.204100 1.140700
13.217800 1.097700
13.231500 1.072900
13.245200 1.045200
13.259000 1.037500
13.272700 0.948500
13.286400 0.881900
13.300100 0.818900
13.313800 0.755700
13.327500 0.707000
13.341200 0.669500
13.354900 0.634100
13.368600 0.603600
13.382300 0.582000
13.396100 0.569400
13.409800 0.559800
13.423500 0.550500
13.437200 0.541500
13.450900 0.533900
13.464600 0.527600
13.478300 0.523300
13.492000 0.521800
13.505700 0.516400
13.519400 0.510500
13.533200 0.504600
13.546900 0.498300
13.560600 0.493000
13.574300 0.480000
13.588000 0.460700
13.601700 0.445700
13.615400 0.430700
13.629100 0.414300
13.642800 0.397900
13.656600 0.382800
13.670300 0.369500
13.684000 0.357700
13.697700 0.346800
13.711400 0.336400
13.725100 0.326700
13.738800 0.317500
13.752500 0.309600
13.766200 0.303300
13.779900 0.298100
13.793700 0.293500
13.807400 0.289000
13.821100 0.284700
13.834800 0.280500
13.848500 0.276600
13.862200 0.272800
13.875900 0.269100
13.889600 0.265700
13.903300 0.262300
13.917000 0.259100
13.930800 0.256000
13.944500 0.253000
13.958200 0.250100
13.971900 0.247400
13.985600 0.244500
13.999300 0.241600
14.013000 0.238700
14.026700 0.235900
14.040400 0.233100
14.054200 0.230400
14.067900 0.227800
14.081600 0.225700
14.095300 0.224600
14.109000 0.224400
14.122700 0.227400
14.136400 0.232800
14.150100 0.240500
14.163800 0.250200
14.177500 0.259400
14.191300 0.272000
14.205000 0.282400
14.218700 0.286500
14.232400 0.281200
14.246100 0.277100
14.259800 0.274800
14.273500 0.272200
14.287200 0.269200
14.300900 0.265900
14.314600 0.262200
14.328400 0.258200
14.342100 0.253800
14.355800 0.248900
14.369500 0.243700
14.383200 0.238000
14.396900 0.231800
14.410600 0.225300
14.424300 0.218500
14.438000 0.208900
14.451800 0.194500
14.465500 0.179200
14.479200 0.165300
14.492900 0.152500
14.506600 0.138200
14.520300 0.128300
14.534000 0.121600
14.547700 0.115500
14.561400 0.109800
14.575100 0.104500
14.588900 0.099400
14.602600 0.094500
14.616300 0.089800
14.630000 0.085300
14.643700 0.080900
14.657400 0.076700
14.671100 0.072600
14.684800 0.068800
14.698500 0.065100
14.712200 0.061900
14.726000 0.059800
14.739700 0.057800
14.753400 0.055800
14.767100 0.053800
14.780800 0.051800
14.794500 0.049700
14.808200 0.047700
14.821900 0.045700
14.835600 0.043700
14.849400 0.041700
14.863100 0.039700
14.876800 0.037800
14.890500 0.035900
14.904200 0.033900
14.917900 0.031900
14.931600 0.029900
14.945300 0.027800
14.959000 0.025600
14.972700 0.023400
14.986500 0.021100
15.000200 0.018900
15.013900 0.016800
15.027600 0.014600
15.041300 0.012600
15.055000 0.010700
15.068700 0.008900
15.082400 0.007200
15.096100 0.005600
15.109800 0.004100
15.123600 0.002800
15.137300 0.001600
15.151000 0.000700
15.164700 0.000100
15.178400 0.000000
15.192100 0.000000
15.205800 0.000000
15.219500 0.000000
15.233200 0.000000
15.247000 0.000000
15.260700 0.000000
15.274400 0.000000
15.288100 0.000000
15.301800 0.000000
15.315500 0.000000
15.329200 0.000000
15.342900 0.000000
15.356600 0.000000
15.370300 0.000000
15.384100 0.000000
15.397800 0.000000
15.411500 0.000000
15.425200 0.000000
15.438900 0.000000
15.452600 0.000000
15.466300 0.000000
15.480000 0.000000
15.493700 0.000000
15.507400 0.000000
15.521200 0.000000
15.534900 0.000000
15.548600 0.000000
15.562300 0.000000
15.576000 0.000000
15.589700 0.000000
15.603400 0.000000
15.617100 0.000000
15.630800 0.000000
15.644600 0.000000
15.658300 0.000000
15.672000 0.000000
15.685700 0.000000
15.699400 0.000000
15.713100 0.000000
15.726800 0.000000
15.740500 0.000000
15.754200 0.000000
15.767900 0.000000
15.781700 0.000000
15.795400 0.000000
15.809100 0.000000
15.822800 0.000000
15.836500 0.000000
15.850200 0.000000
15.863900 0.000000
15.877600 0.000000
15.891300 0.000000
15.905100 0.000000
15.918800 0.000000
15.932500 0.000000
15.946200 0.000000
15.959900 0.000000
15.973600 0.000000
15.987300 0.000000
16.001000 0.000000
16.014700 0.000000
16.028400 0.000000
16.042200 0.000000
16.055900 0.000000
16.069600 0.000000
16.083300 0.000000
16.097000 0.000000
16.110700 0.000000
16.124400 0.000000
16.138100 0.000000
16.151800 0.000000
16.165500 0.000000
16.179300 0.000000
16.193000 0.000000
16.206700 0.000000
16.220400 0.000000
16.234100 0.000000
16.247800 0.000000
16.261500 0.000000
16.275200 0.000000
16.288900 0.000000
16.302700 0.000000
16.316400 0.000000
16.330100 0.000000
16.343800 0.000000
16.357500 0.000000
16.371200 0.000000
16.384900 0.000000
16.398600 0.000000
16.412300 0.000000
16.426000 0.000000
16.439800 0.000000
16.453500 0.000000
16.467200 0.000000
16.480900 0.000000
16.494600 0.000000
16.508300 0.000000
16.522000 0.000000
16.535700 0.000000
16.549400 0.000000
16.563100 0.000000
16.576900 0.000000
16.590600 0.000000
16.604300 0.000000
16.618000 0.000000
16.631700 0.000000
e
