set title 'mp-27760 - Density of States'
set xlabel 'Energy (eV)'
set ylabel 'DOS (states/eV)'
set grid
set xrange [-10:10]
set yrange [0:11.667]
set xzeroaxis lt -1
set terminal png size 800,600
set output 'mp-27760_dos_gnuplot.png'
plot '-' using 1:2 with lines title 'DOS'
-32.655100 0.000000
-32.620500 0.000000
-32.585900 0.000000
-32.551300 0.000000
-32.516700 0.000000
-32.482100 0.000000
-32.447500 0.000000
-32.412900 0.000000
-32.378300 0.000000
-32.343600 0.000000
-32.309000 0.000000
-32.274400 0.000000
-32.239800 0.000000
-32.205200 0.000000
-32.170600 0.000000
-32.136000 0.000000
-32.101400 0.000000
-32.066800 0.000000
-32.032200 0.000000
-31.997500 0.000000
-31.962900 0.000000
-31.928300 0.000000
-31.893700 0.000000
-31.859100 0.000000
-31.824500 0.000000
-31.789900 0.000000
-31.755300 0.000000
-31.720700 0.000000
-31.686100 0.000000
-31.651400 0.000000
-31.616800 0.000000
-31.582200 0.000000
-31.547600 0.000000
-31.513000 0.000000
-31.478400 0.000000
-31.443800 0.000000
-31.409200 0.000000
-31.374600 0.000000
-31.340000 0.000000
-31.305400 0.000000
-31.270700 0.000000
-31.236100 0.000000
-31.201500 0.000000
-31.166900 0.000000
-31.132300 0.000000
-31.097700 0.000000
-31.063100 0.000000
-31.028500 0.000000
-30.993900 0.000000
-30.959300 0.000000
-30.924600 0.000000
-30.890000 0.000000
-30.855400 0.000000
-30.820800 0.000000
-30.786200 0.000000
-30.751600 0.000000
-30.717000 0.000000
-30.682400 0.000000
-30.647800 0.000000
-30.613200 0.000000
-30.578500 0.000000
-30.543900 0.000000
-30.509300 0.000000
-30.474700 0.000000
-30.440100 0.000000
-30.405500 0.000000
-30.370900 0.000000
-30.336300 0.000000
-30.301700 0.000000
-30.267100 0.000000
-30.232400 0.000000
-30.197800 0.000000
-30.163200 0.000000
-30.128600 0.000000
-30.094000 0.000000
-30.059400 0.000000
-30.024800 0.000000
-29.990200 0.000000
-29.955600 0.000000
-29.921000 0.000000
-29.886400 0.000000
-29.851700 0.000000
-29.817100 0.000000
-29.782500 0.000000
-29.747900 0.000000
-29.713300 0.000000
-29.678700 0.000000
-29.644100 0.000000
-29.609500 0.000000
-29.574900 0.000000
-29.540300 0.000000
-29.505600 20.066400
-29.471000 0.000000
-29.436400 0.000000
-29.401800 0.000000
-29.367200 0.000000
-29.332600 0.000000
-29.298000 0.000000
-29.263400 0.000000
-29.228800 0.000000
-29.194200 0.000000
-29.159500 0.000000
-29.124900 0.000000
-29.090300 0.000000
-29.055700 0.000000
-29.021100 0.000000
-28.986500 0.000000
-28.951900 0.000000
-28.917300 0.000000
-28.882700 0.000000
-28.848100 0.000000
-28.813400 0.000000
-28.778800 0.000000
-28.744200 0.000000
-28.709600 0.000000
-28.675000 0.000000
-28.640400 0.000000
-28.605800 0.000000
-28.571200 0.000000
-28.536600 0.000000
-28.502000 0.000000
-28.467300 0.000000
-28.432700 0.000000
-28.398100 0.000000
-28.363500 0.000000
-28.328900 0.000000
-28.294300 0.000000
-28.259700 0.000000
-28.225100 0.000000
-28.190500 0.000000
-28.155900 0.000000
-28.121300 0.000000
-28.086600 0.000000
-28.052000 0.000000
-28.017400 0.000000
-27.982800 0.000000
-27.948200 0.000000
-27.913600 0.000000
-27.879000 0.000000
-27.844400 0.000000
-27.809800 0.000000
-27.775200 0.000000
-27.740500 0.000000
-27.705900 0.000000
-27.671300 0.000000
-27.636700 0.000000
-27.602100 0.000000
-27.567500 0.000000
-27.532900 0.000000
-27.498300 0.000000
-27.463700 0.000000
-27.429100 0.000000
-27.394400 0.000000
-27.359800 0.000000
-27.325200 0.000000
-27.290600 0.000000
-27.256000 0.000000
-27.221400 0.000000
-27.186800 0.000000
-27.152200 0.000000
-27.117600 0.000000
-27.083000 0.000000
-27.048300 0.000000
-27.013700 0.000000
-26.979100 0.000000
-26.944500 0.000000
-26.909900 0.000000
-26.875300 0.000000
-26.840700 0.000000
-26.806100 0.000000
-26.771500 0.000000
-26.736900 0.000000
-26.702300 0.000000
-26.667600 0.000000
-26.633000 0.000000
-26.598400 0.000000
-26.563800 0.000000
-26.529200 0.000000
-26.494600 0.000000
-26.460000 0.000000
-26.425400 0.000000
-26.390800 0.000000
-26.356200 0.000000
-26.321500 0.000000
-26.286900 0.000000
-26.252300 0.000000
-26.217700 0.000000
-26.183100 0.000000
-26.148500 0.000000
-26.113900 0.000000
-26.079300 0.000000
-26.044700 0.000000
-26.010100 0.000000
-25.975400 0.000000
-25.940800 0.000000
-25.906200 0.000000
-25.871600 0.000000
-25.837000 0.000000
-25.802400 0.000000
-25.767800 0.000000
-25.733200 0.000000
-25.698600 0.000000
-25.664000 0.000000
-25.629300 0.000000
-25.594700 0.000000
-25.560100 0.000000
-25.525500 0.000000
-25.490900 0.000000
-25.456300 0.000000
-25.421700 0.000000
-25.387100 0.000000
-25.352500 0.000000
-25.317900 0.000000
-25.283200 0.000000
-25.248600 0.000000
-25.214000 0.000000
-25.179400 0.000000
-25.144800 0.000000
-25.110200 0.000000
-25.075600 0.000000
-25.041000 0.000000
-25.006400 0.000000
-24.971800 0.000000
-24.937200 0.000000
-24.902500 0.000000
-24.867900 0.000000
-24.833300 0.000000
-24.798700 0.000000
-24.764100 0.000000
-24.729500 0.000000
-24.694900 0.000000
-24.660300 0.000000
-24.625700 0.000000
-24.591100 0.000000
-24.556400 0.000000
-24.521800 0.000000
-24.487200 0.000000
-24.452600 0.000000
-24.418000 0.000000
-24.383400 0.000000
-24.348800 0.000000
-24.314200 0.000000
-24.279600 0.000000
-24.245000 0.000000
-24.210300 0.000000
-24.175700 0.000000
-24.141100 0.000000
-24.106500 0.000000
-24.071900 0.000000
-24.037300 0.000000
-24.002700 0.000000
-23.968100 0.000000
-23.933500 0.000000
-23.898900 0.000000
-23.864200 0.000000
-23.829600 0.000000
-23.795000 0.000000
-23.760400 0.000000
-23.725800 0.000000
-23.691200 0.000000
-23.656600 0.000000
-23.622000 0.000000
-23.587400 0.000000
-23.552800 0.000000
-23.518200 0.000000
-23.483500 0.000000
-23.448900 0.000000
-23.414300 0.000000
-23.379700 0.000000
-23.345100 0.000000
-23.310500 0.000000
-23.275900 0.000000
-23.241300 0.000000
-23.206700 0.000000
-23.172100 0.000000
-23.137400 0.000000
-23.102800 0.000000
-23.068200 0.000000
-23.033600 0.000000
-22.999000 0.000000
-22.964400 0.000000
-22.929800 0.000000
-22.895200 0.000000
-22.860600 0.000000
-22.826000 0.000000
-22.791300 0.000000
-22.756700 0.000000
-22.722100 0.000000
-22.687500 0.000000
-22.652900 0.000000
-22.618300 0.000000
-22.583700 0.000000
-22.549100 0.000000
-22.514500 0.000000
-22.479900 0.000000
-22.445200 0.000000
-22.410600 0.000000
-22.376000 0.000000
-22.341400 0.000000
-22.306800 0.000000
-22.272200 0.000000
-22.237600 0.000000
-22.203000 0.000000
-22.168400 0.000000
-22.133800 0.000000
-22.099100 0.000000
-22.064500 0.000000
-22.029900 0.000000
-21.995300 0.000000
-21.960700 0.000000
-21.926100 0.000000
-21.891500 0.000000
-21.856900 0.000000
-21.822300 0.000000
-21.787700 0.000000
-21.753100 0.000000
-21.718400 0.000000
-21.683800 0.000000
-21.649200 0.000000
-21.614600 0.000000
-21.580000 0.000000
-21.545400 0.000000
-21.510800 0.000000
-21.476200 0.000000
-21.441600 0.000000
-21.407000 0.000000
-21.372300 0.000000
-21.337700 0.000000
-21.303100 0.000000
-21.268500 0.000000
-21.233900 0.000000
-21.199300 0.000000
-21.164700 0.000000
-21.130100 0.000000
-21.095500 0.000000
-21.060900 0.000000
-21.026200 0.000000
-20.991600 0.000000
-20.957000 0.000000
-20.922400 0.000000
-20.887800 0.000000
-20.853200 0.000000
-20.818600 0.000000
-20.784000 0.000000
-20.749400 0.000000
-20.714800 0.000000
-20.680100 0.000000
-20.645500 0.000000
-20.610900 0.000000
-20.576300 0.000000
-20.541700 0.000000
-20.507100 0.000000
-20.472500 0.000000
-20.437900 0.000000
-20.403300 0.000000
-20.368700 0.000000
-20.334100 0.000000
-20.299400 0.000000
-20.264800 0.000000
-20.230200 0.000000
-20.195600 0.000000
-20.161000 0.000000
-20.126400 0.000000
-20.091800 0.000000
-20.057200 0.000000
-20.022600 0.000000
-19.988000 0.000000
-19.953300 0.000000
-19.918700 0.000000
-19.884100 0.000000
-19.849500 0.000000
-19.814900 0.000000
-19.780300 0.000000
-19.745700 0.000000
-19.711100 0.000000
-19.676500 0.000000
-19.641900 0.000000
-19.607200 0.000000
-19.572600 0.000000
-19.538000 0.000000
-19.503400 0.000000
-19.468800 0.000000
-19.434200 0.000000
-19.399600 0.000000
-19.365000 0.000000
-19.330400 0.000000
-19.295800 0.000000
-19.261100 0.000000
-19.226500 0.000000
-19.191900 0.000000
-19.157300 0.000000
-19.122700 0.000000
-19.088100 0.000000
-19.053500 0.000000
-19.018900 0.000000
-18.984300 0.000000
-18.949700 0.000000
-18.915000 0.000000
-18.880400 0.000000
-18.845800 0.000000
-18.811200 0.000000
-18.776600 0.000000
-18.742000 0.000000
-18.707400 0.000000
-18.672800 0.000000
-18.638200 0.000000
-18.603600 0.000000
-18.569000 0.000000
-18.534300 0.000000
-18.499700 0.000000
-18.465100 0.000000
-18.430500 0.000000
-18.395900 0.000000
-18.361300 0.000000
-18.326700 0.000000
-18.292100 0.000000
-18.257500 0.000000
-18.222900 0.000000
-18.188200 0.000000
-18.153600 0.000000
-18.119000 0.000000
-18.084400 0.000000
-18.049800 0.000000
-18.015200 0.000000
-17.980600 0.000000
-17.946000 0.000000
-17.911400 0.000000
-17.876800 0.000000
-17.842100 0.000000
-17.807500 0.000000
-17.772900 0.000000
-17.738300 0.000000
-17.703700 0.000000
-17.669100 0.000000
-17.634500 0.000000
-17.599900 0.000000
-17.565300 0.000000
-17.530700 0.000000
-17.496000 0.000000
-17.461400 0.000000
-17.426800 0.000000
-17.392200 0.000000
-17.357600 0.000000
-17.323000 0.000000
-17.288400 0.000000
-17.253800 0.000000
-17.219200 0.000000
-17.184600 0.000000
-17.150000 0.000000
-17.115300 0.000000
-17.080700 0.000000
-17.046100 0.000000
-17.011500 0.000000
-16.976900 0.000000
-16.942300 0.000000
-16.907700 0.000000
-16.873100 0.000000
-16.838500 0.000000
-16.803900 0.000000
-16.769200 0.000000
-16.734600 0.000000
-16.700000 0.000000
-16.665400 0.000000
-16.630800 0.000000
-16.596200 0.000000
-16.561600 0.000000
-16.527000 0.000000
-16.492400 0.000000
-16.457800 0.000000
-16.423100 0.000000
-16.388500 0.000000
-16.353900 0.000000
-16.319300 0.000000
-16.284700 0.000000
-16.250100 0.000000
-16.215500 0.000000
-16.180900 0.000000
-16.146300 0.000000
-16.111700 0.000000
-16.077000 0.000000
-16.042400 0.000000
-16.007800 0.000000
-15.973200 0.000000
-15.938600 0.000000
-15.904000 0.000000
-15.869400 0.000000
-15.834800 0.000000
-15.800200 0.000000
-15.765600 0.000000
-15.730900 0.000000
-15.696300 0.000000
-15.661700 0.000000
-15.627100 0.000000
-15.592500 0.000000
-15.557900 0.000000
-15.523300 0.000000
-15.488700 0.000000
-15.454100 0.000000
-15.419500 0.000000
-15.384900 0.000000
-15.350200 0.000000
-15.315600 0.000000
-15.281000 0.000000
-15.246400 0.000000
-15.211800 0.000000
-15.177200 0.000000
-15.142600 0.000000
-15.108000 0.000000
-15.073400 0.000000
-15.038800 0.000000
-15.004100 0.000000
-14.969500 0.000000
-14.934900 0.000000
-14.900300 0.000000
-14.865700 0.000000
-14.831100 0.000000
-14.796500 0.000000
-14.761900 0.000000
-14.727300 0.000000
-14.692700 0.000000
-14.658000 0.000000
-14.623400 0.000000
-14.588800 0.000000
-14.554200 0.000000
-14.519600 0.000000
-14.485000 0.000000
-14.450400 0.000000
-14.415800 0.000000
-14.381200 0.000000
-14.346600 0.000000
-14.311900 0.000000
-14.277300 0.000000
-14.242700 0.000000
-14.208100 0.000000
-14.173500 0.000000
-14.138900 0.000000
-14.104300 0.000000
-14.069700 0.000000
-14.035100 0.000000
-14.000500 0.000000
-13.965900 0.000000
-13.931200 0.000000
-13.896600 0.000000
-13.862000 0.000000
-13.827400 0.000000
-13.792800 0.000000
-13.758200 0.000000
-13.723600 0.000000
-13.689000 0.000000
-13.654400 0.000000
-13.619800 0.000000
-13.585100 0.000000
-13.550500 0.000000
-13.515900 0.000000
-13.481300 0.000000
-13.446700 0.000000
-13.412100 0.000000
-13.377500 0.000000
-13.342900 0.000000
-13.308300 0.000000
-13.273700 0.000000
-13.239000 0.000000
-13.204400 0.000000
-13.169800 0.000000
-13.135200 0.000000
-13.100600 0.000000
-13.066000 0.000000
-13.031400 0.000000
-12.996800 0.000000
-12.962200 0.000000
-12.927600 0.000000
-12.892900 0.000000
-12.858300 0.000000
-12.823700 0.000000
-12.789100 0.000000
-12.754500 0.000000
-12.719900 0.000000
-12.685300 0.000000
-12.650700 0.000000
-12.616100 0.000000
-12.581500 0.000000
-12.546800 0.000000
-12.512200 0.000000
-12.477600 0.000000
-12.443000 0.000000
-12.408400 0.000000
-12.373800 0.000000
-12.339200 0.000000
-12.304600 0.000000
-12.270000 0.000000
-12.235400 0.000000
-12.200800 0.000000
-12.166100 0.000000
-12.131500 0.000000
-12.096900 0.000000
-12.062300 0.000000
-12.027700 0.000000
-11.993100 0.000000
-11.958500 0.000000
-11.923900 1.401100
-11.889300 11.338000
-11.854700 19.506200
-11.820000 36.933600
-11.785400 15.449100
-11.750800 21.981300
-11.716200 26.613300
-11.681600 26.625900
-11.647000 21.903800
-11.612400 46.840900
-11.577800 37.268300
-11.543200 50.231700
-11.508600 15.505500
-11.473900 0.000000
-11.439300 0.000000
-11.404700 0.000000
-11.370100 0.000000
-11.335500 0.000000
-11.300900 0.000000
-11.266300 0.000000
-11.231700 0.000000
-11.197100 0.000000
-11.162500 0.000000
-11.127800 0.000000
-11.093200 0.000000
-11.058600 0.000000
-11.024000 0.000000
-10.989400 0.000000
-10.954800 0.000000
-10.920200 0.000000
-10.885600 0.000000
-10.851000 0.000000
-10.816400 0.000000
-10.781800 0.000000
-10.747100 0.000000
-10.712500 0.000000
-10.677900 0.000000
-10.643300 0.000000
-10.608700 0.000000
-10.574100 0.000000
-10.539500 0.000000
-10.504900 0.000000
-10.470300 0.000000
-10.435700 0.000000
-10.401000 0.000000
-10.366400 0.000000
-10.331800 0.000000
-10.297200 0.000000
-10.262600 0.000000
-10.228000 0.000000
-10.193400 0.000000
-10.158800 0.000000
-10.124200 0.000000
-10.089600 0.000000
-10.054900 0.000000
-10.020300 0.000000
-9.985700 0.000000
-9.951100 0.000000
-9.916500 0.000000
-9.881900 0.000000
-9.847300 0.000000
-9.812700 0.000000
-9.778100 0.000000
-9.743500 0.000000
-9.708800 0.000000
-9.674200 0.000000
-9.639600 0.000000
-9.605000 0.000000
-9.570400 0.000000
-9.535800 0.000000
-9.501200 0.000000
-9.466600 0.000000
-9.432000 0.000000
-9.397400 0.000000
-9.362700 0.000000
-9.328100 0.000000
-9.293500 0.000000
-9.258900 0.000000
-9.224300 0.000000
-9.189700 0.000000
-9.155100 0.000000
-9.120500 0.000000
-9.085900 0.000000
-9.051300 0.000000
-9.016700 0.000000
-8.982000 0.000000
-8.947400 0.000000
-8.912800 0.000000
-8.878200 0.000000
-8.843600 0.000000
-8.809000 0.000000
-8.774400 0.000000
-8.739800 0.000000
-8.705200 0.000000
-8.670600 0.000000
-8.635900 0.000000
-8.601300 0.000000
-8.566700 0.000000
-8.532100 0.000000
-8.497500 0.000000
-8.462900 0.000000
-8.428300 0.000000
-8.393700 0.000000
-8.359100 0.000000
-8.324500 0.000000
-8.289800 0.000000
-8.255200 0.000000
-8.220600 0.000000
-8.186000 0.000000
-8.151400 0.000000
-8.116800 0.000000
-8.082200 0.000000
-8.047600 0.000000
-8.013000 0.000000
-7.978400 0.000000
-7.943700 0.000000
-7.909100 0.000000
-7.874500 0.000000
-7.839900 0.000000
-7.805300 0.000000
-7.770700 0.000000
-7.736100 0.000000
-7.701500 0.000000
-7.666900 0.000000
-7.632300 0.000000
-7.597700 0.000000
-7.563000 0.000000
-7.528400 0.000000
-7.493800 0.000000
-7.459200 0.000000
-7.424600 0.000000
-7.390000 0.000000
-7.355400 0.000000
-7.320800 0.000000
-7.286200 0.000000
-7.251600 0.000000
-7.216900 0.000000
-7.182300 0.000000
-7.147700 0.000000
-7.113100 0.000000
-7.078500 0.000000
-7.043900 0.000000
-7.009300 0.000000
-6.974700 0.000000
-6.940100 0.000000
-6.905500 0.000000
-6.870800 0.000000
-6.836200 0.000000
-6.801600 0.000000
-6.767000 0.000000
-6.732400 0.000000
-6.697800 0.000000
-6.663200 0.000000
-6.628600 0.000000
-6.594000 0.000000
-6.559400 0.000000
-6.524700 0.000000
-6.490100 0.000000
-6.455500 0.000000
-6.420900 0.000000
-6.386300 0.000000
-6.351700 0.000000
-6.317100 0.000000
-6.282500 0.000000
-6.247900 0.000000
-6.213300 0.000000
-6.178600 0.000000
-6.144000 0.000000
-6.109400 0.000000
-6.074800 0.000000
-6.040200 0.000000
-6.005600 0.000000
-5.971000 0.000000
-5.936400 0.000000
-5.901800 0.000000
-5.867200 0.000000
-5.832600 0.000000
-5.797900 0.000000
-5.763300 0.000000
-5.728700 0.000000
-5.694100 0.000000
-5.659500 0.000000
-5.624900 0.000000
-5.590300 0.000000
-5.555700 0.000000
-5.521100 0.000000
-5.486500 0.000000
-5.451800 0.000000
-5.417200 0.000000
-5.382600 0.000000
-5.348000 0.000000
-5.313400 0.000000
-5.278800 0.000000
-5.244200 0.000000
-5.209600 0.000000
-5.175000 0.000000
-5.140400 0.000000
-5.105700 0.000000
-5.071100 0.000000
-5.036500 0.000000
-5.001900 0.000000
-4.967300 0.000000
-4.932700 0.000000
-4.898100 0.000000
-4.863500 0.000000
-4.828900 0.010100
-4.794300 0.065300
-4.759600 0.138100
-4.725000 0.221000
-4.690400 0.289700
-4.655800 0.328200
-4.621200 0.341600
-4.586600 0.368600
-4.552000 0.408100
-4.517400 0.450000
-4.482800 0.489000
-4.448200 0.532200
-4.413500 0.578200
-4.378900 0.615300
-4.344300 0.644900
-4.309700 0.682400
-4.275100 0.721100
-4.240500 0.762700
-4.205900 0.808300
-4.171300 0.861400
-4.136700 0.909900
-4.102100 0.953800
-4.067500 0.996300
-4.032800 1.051100
-3.998200 1.121900
-3.963600 1.144900
-3.929000 1.245500
-3.894400 1.340800
-3.859800 1.424300
-3.825200 1.511700
-3.790600 1.605200
-3.756000 1.720000
-3.721400 1.848000
-3.686700 2.016400
-3.652100 2.209800
-3.617500 2.483600
-3.582900 3.483500
-3.548300 4.123500
-3.513700 3.411300
-3.479100 2.811600
-3.444500 2.589200
-3.409900 2.328800
-3.375300 2.132500
-3.340600 2.069500
-3.306000 1.986600
-3.271400 1.872300
-3.236800 1.929300
-3.202200 1.586000
-3.167600 1.659700
-3.133000 1.320100
-3.098400 1.049000
-3.063800 0.940400
-3.029200 0.961300
-2.994500 1.056200
-2.959900 1.223700
-2.925300 1.397900
-2.890700 1.675900
-2.856100 2.090200
-2.821500 2.061900
-2.786900 1.984700
-2.752300 2.015200
-2.717700 2.043100
-2.683100 2.096300
-2.648500 2.150300
-2.613800 2.161100
-2.579200 2.141300
-2.544600 2.207100
-2.510000 2.288300
-2.475400 2.417900
-2.440800 2.594000
-2.406200 2.462400
-2.371600 2.559100
-2.337000 1.841900
-2.302400 1.576000
-2.267700 1.373200
-2.233100 1.184000
-2.198500 1.037400
-2.163900 0.858500
-2.129300 0.289400
-2.094700 0.114200
-2.060100 0.036700
-2.025500 0.002000
-1.990900 0.000000
-1.956300 0.000300
-1.921600 0.025500
-1.887000 0.090800
-1.852400 0.234600
-1.817800 0.450100
-1.783200 0.706800
-1.748600 0.947100
-1.714000 1.087700
-1.679400 1.230700
-1.644800 1.466700
-1.610200 1.779800
-1.575500 2.116500
-1.540900 2.478600
-1.506300 2.442000
-1.471700 2.570300
-1.437100 2.351700
-1.402500 2.062600
-1.367900 1.965300
-1.333300 1.845200
-1.298700 1.757500
-1.264100 1.702900
-1.229400 1.654700
-1.194800 1.639400
-1.160200 1.627000
-1.125600 1.679400
-1.091000 1.495700
-1.056400 1.322900
-1.021800 1.177100
-0.987200 1.079300
-0.952600 1.005300
-0.918000 0.938300
-0.883400 0.877100
-0.848700 0.811000
-0.814100 0.770400
-0.779500 0.732600
-0.744900 0.706400
-0.710300 0.677200
-0.675700 0.670800
-0.641100 0.658900
-0.606500 0.612200
-0.571900 0.617400
-0.537300 0.651100
-0.502600 0.711600
-0.468000 0.786700
-0.433400 0.758800
-0.398800 0.746200
-0.364200 0.725300
-0.329600 0.698600
-0.295000 0.730800
-0.260400 0.774600
-0.225800 0.776300
-0.191200 0.739800
-0.156500 0.740500
-0.121900 0.752700
-0.087300 0.765800
-0.052700 0.775500
-0.018100 0.776500
0.016500 0.781100
0.051100 0.789800
0.085700 0.794600
0.120300 0.787100
0.154900 0.792600
0.189600 0.800100
0.224200 0.812000
0.258800 0.840600
0.293400 0.866700
0.328000 0.890300
0.362600 0.893800
0.397200 0.932500
0.431800 1.004300
0.466400 1.056200
0.501000 1.099100
0.535600 1.137400
0.570300 1.183000
0.604900 1.227000
0.639500 1.275000
0.674100 1.337000
0.708700 1.832300
0.743300 2.490100
0.777900 3.315700
0.812500 2.898800
0.847100 1.961500
0.881700 1.687900
0.916400 1.565400
0.951000 1.497100
0.985600 1.408200
1.020200 1.283400
1.054800 1.064600
1.089400 0.892300
1.124000 0.790300
1.158600 0.736500
1.193200 0.692200
1.227800 0.660800
1.262500 0.617300
1.297100 0.576200
1.331700 0.535200
1.366300 0.493200
1.400900 0.499400
1.435500 0.431400
1.470100 0.363800
1.504700 0.314200
1.539300 0.302000
1.573900 0.291000
1.608600 0.280700
1.643200 0.270600
1.677800 0.260700
1.712400 0.251100
1.747000 0.241600
1.781600 0.242900
1.816200 0.277600
1.850800 0.350000
1.885400 0.478500
1.920000 0.664900
1.954700 0.908200
1.989300 1.353900
2.023900 1.557300
2.058500 1.935100
2.093100 2.375500
2.127700 2.875200
2.162300 3.387500
2.196900 3.888300
2.231500 3.880000
2.266100 4.746600
2.300700 6.144400
2.335400 4.644000
2.370000 4.076300
2.404600 3.832900
2.439200 2.871600
2.473800 7.732300
2.508400 4.861300
2.543000 4.618800
2.577600 4.883700
2.612200 5.005300
2.646800 5.032800
2.681500 5.020800
2.716100 3.924400
2.750700 3.474600
2.785300 3.099400
2.819900 2.548800
2.854500 2.340700
2.889100 2.167000
2.923700 2.017600
2.958300 1.866800
2.992900 1.883600
3.027600 1.782100
3.062200 1.995800
3.096800 3.124600
3.131400 4.065400
3.166000 4.121400
3.200600 4.035400
3.235200 3.754800
3.269800 3.401300
3.304400 3.306100
3.339000 3.380700
3.373700 3.159900
3.408300 2.811200
3.442900 2.625700
3.477500 2.468800
3.512100 2.310100
3.546700 2.155300
3.581300 2.040600
3.615900 2.015400
3.650500 2.144900
3.685100 1.717500
3.719700 1.617800
3.754400 1.570400
3.789000 2.022700
3.823600 1.395400
3.858200 1.397300
3.892800 1.495900
3.927400 1.517700
3.962000 1.599700
3.996600 1.679500
4.031200 1.515700
4.065800 1.585100
4.100500 1.537000
4.135100 1.657900
4.169700 2.001400
4.204300 2.688300
4.238900 3.565800
4.273500 4.841900
4.308100 6.191900
4.342700 9.551000
4.377300 10.606400
4.411900 9.495600
4.446600 7.241800
4.481200 5.742700
4.515800 5.680200
4.550400 5.297100
4.585000 5.178300
4.619600 5.215500
4.654200 5.086800
4.688800 4.492700
4.723400 4.111200
4.758000 3.798700
4.792700 3.560600
4.827300 3.465000
4.861900 3.357800
4.896500 3.188500
4.931100 3.028700
4.965700 3.013300
5.000300 2.967600
5.034900 2.473300
5.069500 2.201700
5.104100 2.102200
5.138800 2.040000
5.173400 1.995400
5.208000 1.970200
5.242600 1.861400
5.277200 1.764600
5.311800 1.652700
5.346400 1.533700
5.381000 1.454300
5.415600 1.378100
5.450200 1.378000
5.484800 1.375400
5.519500 1.372900
5.554100 1.378300
5.588700 1.328700
5.623300 1.300300
5.657900 1.300200
5.692500 1.379800
5.727100 1.506300
5.761700 1.511600
5.796300 1.490300
5.830900 1.429200
5.865600 1.496600
5.900200 1.710300
5.934800 1.701900
5.969400 1.653500
6.004000 1.646700
6.038600 1.675400
6.073200 1.642600
6.107800 1.900100
6.142400 1.913500
6.177000 1.996700
6.211700 2.105500
6.246300 2.284700
6.280900 2.421900
6.315500 2.551100
6.350100 2.621700
6.384700 2.548800
6.419300 2.661500
6.453900 2.763200
6.488500 2.848000
6.523100 2.982800
6.557800 3.111200
6.592400 3.125200
6.627000 3.234500
6.661600 3.335700
6.696200 3.317300
6.730800 3.281900
6.765400 3.258800
6.800000 3.060000
6.834600 2.926600
6.869200 3.051700
6.903800 3.000300
6.938500 3.031300
6.973100 3.138500
7.007700 2.907300
7.042300 2.696100
7.076900 2.581900
7.111500 2.477600
7.146100 2.407500
7.180700 2.384800
7.215300 2.355600
7.249900 2.336000
7.284600 2.636600
7.319200 2.878200
7.353800 3.106500
7.388400 3.078000
7.423000 3.182600
7.457600 3.409900
7.492200 3.685400
7.526800 3.947600
7.561400 4.256000
7.596000 4.439000
7.630700 4.544200
7.665300 4.376200
7.699900 3.957300
7.734500 3.627600
7.769100 3.359000
7.803700 2.911800
7.838300 2.785500
7.872900 2.755900
7.907500 2.959000
7.942100 3.474700
7.976800 3.338100
8.011400 3.511800
8.046000 3.619500
8.080600 3.725700
8.115200 3.813900
8.149800 4.116300
8.184400 4.064900
8.219000 3.937800
8.253600 3.795500
8.288200 3.772300
8.322900 3.822200
8.357500 3.840500
8.392100 3.821300
8.426700 3.709100
8.461300 3.632200
8.495900 3.556700
8.530500 3.797800
8.565100 3.777900
8.599700 3.743000
8.634300 3.781600
8.668900 4.063600
8.703600 3.898200
8.738200 4.013200
8.772800 4.379200
8.807400 4.715600
8.842000 4.552400
8.876600 4.205500
8.911200 4.163400
8.945800 4.331500
8.980400 4.624700
9.015000 4.755500
9.049700 4.565400
9.084300 4.671100
9.118900 4.387800
9.153500 4.497500
9.188100 4.781000
9.222700 5.519300
9.257300 5.638900
9.291900 5.678200
9.326500 5.740000
9.361100 5.825500
9.395800 5.661400
9.430400 5.258900
9.465000 4.964600
9.499600 4.801500
9.534200 4.896200
9.568800 5.353200
9.603400 5.343300
9.638000 5.175700
9.672600 4.848100
9.707200 5.224800
9.741900 5.758300
9.776500 6.104800
9.811100 6.345800
9.845700 5.357500
9.880300 5.317900
9.914900 5.382800
9.949500 5.401700
9.984100 5.517100
10.018700 6.062700
10.053300 6.229000
10.087900 6.437700
10.122600 7.166700
10.157200 7.151900
10.191800 6.339000
10.226400 5.882100
10.261000 5.796800
10.295600 5.944600
10.330200 6.096300
10.364800 6.643600
10.399400 6.788900
10.434000 7.040500
10.468700 7.663600
10.503300 7.842800
10.537900 6.863500
10.572500 5.632800
10.607100 5.274700
10.641700 5.093600
10.676300 5.430000
10.710900 5.391400
10.745500 5.319700
10.780100 5.226900
10.814800 5.190900
10.849400 4.992000
10.884000 4.968200
10.918600 5.080200
10.953200 4.861000
10.987800 4.779900
11.022400 4.406800
11.057000 4.392100
11.091600 5.649000
11.126200 5.484000
11.160900 5.479200
11.195500 5.398000
11.230100 5.082800
11.264700 4.748300
11.299300 4.458900
11.333900 4.576300
11.368500 4.553700
11.403100 4.314300
11.437700 4.291700
11.472300 4.322800
11.507000 3.981200
11.541600 3.950800
11.576200 3.847400
11.610800 3.495500
11.645400 3.544100
11.680000 3.690600
11.714600 4.107100
11.749200 5.115800
11.783800 6.636900
11.818400 5.598900
11.853000 5.729900
11.887700 5.919200
11.922300 5.672000
11.956900 5.462400
11.991500 4.780800
12.026100 4.405400
12.060700 4.088900
12.095300 3.834000
12.129900 3.767900
12.164500 3.789500
12.199100 3.796100
12.233800 3.804200
12.268400 3.964400
12.303000 4.138900
12.337600 4.264400
12.372200 4.073800
12.406800 3.976400
12.441400 3.909300
12.476000 3.883700
12.510600 3.931500
12.545200 4.533600
12.579900 4.739100
12.614500 4.461000
12.649100 4.348600
12.683700 4.324200
12.718300 4.392800
12.752900 4.512300
12.787500 4.432300
12.822100 4.473300
12.856700 4.577500
12.891300 4.617800
12.926000 4.899500
12.960600 4.742400
12.995200 4.884600
13.029800 5.232700
13.064400 5.122800
13.099000 5.096800
13.133600 5.064300
13.168200 4.735700
13.202800 4.227000
13.237400 3.951900
13.272000 3.866000
13.306700 3.915600
13.341300 4.092600
13.375900 4.743900
13.410500 4.002100
13.445100 3.530600
13.479700 3.317500
13.514300 3.096900
13.548900 2.939800
13.583500 2.966400
13.618100 3.055300
13.652800 3.213900
13.687400 3.482900
13.722000 3.770400
13.756600 3.995800
13.791200 3.854800
13.825800 3.630000
13.860400 3.533300
13.895000 3.764900
13.929600 3.621200
13.964200 3.164600
13.998900 5.972800
14.033500 5.682800
14.068100 4.718900
14.102700 4.102400
14.137300 3.897500
14.171900 3.963200
14.206500 3.597900
14.241100 3.489700
14.275700 3.305100
14.310300 3.056200
14.345000 2.633300
14.379600 2.146100
14.414200 2.079300
14.448800 2.445300
14.483400 3.043900
14.518000 3.722400
14.552600 4.589200
14.587200 4.735200
14.621800 4.707000
14.656400 4.495500
14.691100 4.243900
14.725700 4.783700
14.760300 4.156000
14.794900 3.670800
14.829500 3.673400
14.864100 3.536700
14.898700 3.342300
14.933300 3.306400
14.967900 3.278600
15.002500 3.231200
15.037100 3.474300
15.071800 3.876700
15.106400 3.854500
15.141000 3.792400
15.175600 3.747800
15.210200 3.669800
15.244800 3.607500
15.279400 3.523600
15.314000 3.781200
15.348600 4.068800
15.383200 3.691400
15.417900 3.096900
15.452500 2.693900
15.487100 2.551800
15.521700 2.740400
15.556300 3.071400
15.590900 3.164400
15.625500 3.416000
15.660100 3.627200
15.694700 3.802800
15.729300 4.005600
15.764000 4.211200
15.798600 4.652800
15.833200 5.395900
15.867800 4.317000
15.902400 4.201900
15.937000 4.434600
15.971600 4.963600
16.006200 5.136700
16.040800 5.281300
16.075400 4.656200
16.110100 4.991300
16.144700 4.211500
16.179300 3.696300
16.213900 3.196600
16.248500 3.019300
16.283100 2.962600
16.317700 2.842500
16.352300 3.025200
16.386900 3.350400
16.421500 3.873300
16.456100 4.343500
16.490800 4.243200
16.525400 3.939800
16.560000 3.790500
16.594600 3.699500
16.629200 3.767800
16.663800 3.776900
16.698400 3.731400
16.733000 3.636100
16.767600 3.432800
16.802200 3.148500
16.836900 2.753600
16.871500 2.769500
16.906100 2.918300
16.940700 3.279700
16.975300 4.418500
17.009900 4.375700
17.044500 4.950000
17.079100 5.230300
17.113700 5.000000
17.148300 4.668400
17.183000 4.438400
17.217600 4.254400
17.252200 4.045500
17.286800 3.393100
17.321400 3.297700
17.356000 3.676300
17.390600 3.947100
17.425200 4.673700
17.459800 4.898600
17.494400 5.984700
17.529100 4.857300
17.563700 4.130900
17.598300 3.807400
17.632900 3.731400
17.667500 3.688300
17.702100 3.642000
17.736700 3.622100
17.771300 3.601800
17.805900 3.627600
17.840500 3.697900
17.875200 3.738800
17.909800 4.138900
17.944400 3.972000
17.979000 3.874500
18.013600 3.906500
18.048200 4.107900
18.082800 4.518100
18.117400 5.646900
18.152000 4.753400
18.186600 4.972900
18.221200 5.716800
18.255900 5.492500
18.290500 4.274200
18.325100 4.091400
18.359700 4.417800
18.394300 4.721400
18.428900 4.088300
18.463500 4.307700
18.498100 4.187300
18.532700 4.207500
18.567300 4.086200
18.602000 4.030800
18.636600 4.001100
18.671200 4.482300
18.705800 4.578900
18.740400 4.469300
18.775000 4.604700
18.809600 4.150100
18.844200 4.372900
18.878800 3.585000
18.913400 3.752600
18.948100 3.901600
18.982700 3.712100
19.017300 3.990700
19.051900 4.240000
19.086500 4.126700
19.121100 4.137800
19.155700 4.247600
19.190300 4.449000
19.224900 4.760700
19.259500 4.566800
19.294200 5.551700
19.328800 5.380600
19.363400 5.856900
19.398000 5.747300
19.432600 5.385300
19.467200 5.196400
19.501800 5.034800
19.536400 4.728300
19.571000 4.737400
19.605600 4.748500
19.640200 4.743300
19.674900 4.811200
19.709500 4.183100
19.744100 3.528700
19.778700 3.539600
19.813300 3.603000
19.847900 4.024200
19.882500 4.314600
19.917100 4.321400
19.951700 4.338600
19.986300 5.214900
20.021000 4.891700
20.055600 4.754100
20.090200 4.796400
20.124800 4.874100
20.159400 4.956100
20.194000 5.058300
20.228600 4.867200
20.263200 4.637100
20.297800 4.614900
20.332400 4.532500
20.367100 4.502500
20.401700 4.428800
20.436300 4.304400
20.470900 4.219900
20.505500 4.207400
20.540100 4.223800
20.574700 4.235600
20.609300 4.204900
20.643900 3.952800
20.678500 3.977200
20.713200 3.947100
20.747800 3.783700
20.782400 3.777800
20.817000 3.748900
20.851600 3.732200
20.886200 3.767500
20.920800 3.884600
20.955400 4.196400
20.990000 4.585000
21.024600 4.851200
21.059300 4.414900
21.093900 4.326800
21.128500 4.505100
21.163100 4.690400
21.197700 4.653200
21.232300 5.688100
21.266900 4.901300
21.301500 4.667600
21.336100 4.515700
21.370700 4.520200
21.405300 4.509800
21.440000 4.593500
21.474600 3.971200
21.509200 3.979600
21.543800 4.298700
21.578400 4.512900
21.613000 4.689700
21.647600 4.854700
21.682200 5.085700
21.716800 5.470200
21.751400 5.714600
21.786100 5.903000
21.820700 5.803700
21.855300 5.336500
21.889900 5.072500
21.924500 4.515600
21.959100 4.168400
21.993700 3.934200
22.028300 3.786000
22.062900 3.982800
22.097500 4.022300
22.132200 3.852200
22.166800 3.718800
22.201400 3.680300
22.236000 3.931800
22.270600 4.116800
22.305200 4.684900
22.339800 4.498700
22.374400 4.399300
22.409000 4.481200
22.443600 4.643200
22.478300 4.864600
22.512900 5.405600
22.547500 6.174400
22.582100 5.998900
22.616700 5.099800
22.651300 4.687300
22.685900 4.750000
22.720500 4.540800
22.755100 4.688000
22.789700 5.090100
22.824300 5.050500
22.859000 5.049200
22.893600 5.406300
22.928200 5.819600
22.962800 6.359200
22.997400 6.453700
23.032000 6.226900
23.066600 6.031800
23.101200 5.934200
23.135800 5.681300
23.170400 5.488400
23.205100 5.386200
23.239700 5.851700
23.274300 5.363500
23.308900 5.100000
23.343500 4.846000
23.378100 4.702000
23.412700 4.582100
23.447300 4.567400
23.481900 4.580400
23.516500 4.502400
23.551200 4.432100
23.585800 4.423800
23.620400 4.436500
23.655000 4.394000
23.689600 4.337200
23.724200 4.217400
23.758800 4.151300
23.793400 4.211100
23.828000 4.370300
23.862600 4.582700
23.897300 4.557500
23.931900 4.521800
23.966500 4.573100
24.001100 4.584900
24.035700 4.520800
24.070300 4.324700
24.104900 4.287100
24.139500 4.363400
24.174100 4.542500
24.208700 4.801000
24.243400 4.956900
24.278000 5.080300
24.312600 4.742400
24.347200 4.718500
24.381800 4.761300
24.416400 5.063400
24.451000 5.226200
24.485600 4.724900
24.520200 4.474600
24.554800 4.384100
24.589400 4.715500
24.624100 4.771400
24.658700 4.651200
24.693300 4.527900
24.727900 4.736900
24.762500 5.360000
24.797100 5.057100
24.831700 5.247400
24.866300 5.290400
24.900900 5.297300
24.935500 5.183400
24.970200 5.123200
25.004800 5.132700
25.039400 5.359900
25.074000 5.941400
25.108600 6.259400
25.143200 6.046500
25.177800 5.526600
25.212400 5.232900
25.247000 4.811300
25.281600 4.548900
25.316300 4.409700
25.350900 4.289600
25.385500 4.172600
25.420100 4.294400
25.454700 4.267600
25.489300 4.260800
25.523900 4.273300
25.558500 4.326400
25.593100 4.320800
25.627700 4.558100
25.662400 4.369300
25.697000 4.294200
25.731600 4.466200
25.766200 4.029100
25.800800 4.115400
25.835400 4.325800
25.870000 4.217800
25.904600 3.970400
25.939200 3.747500
25.973800 3.708200
26.008500 3.704400
26.043100 3.880000
26.077700 3.997900
26.112300 3.951100
26.146900 4.112000
26.181500 4.383400
26.216100 4.671300
26.250700 5.346200
26.285300 6.061100
26.319900 6.428600
26.354500 6.726100
26.389200 6.069800
26.423800 5.793200
26.458400 5.511700
26.493000 5.549300
26.527600 5.344500
26.562200 5.260900
26.596800 4.999800
26.631400 4.786800
26.666000 4.923100
26.700600 5.152600
26.735300 5.311600
26.769900 5.243100
26.804500 5.420600
26.839100 5.308500
26.873700 5.193000
26.908300 5.170200
26.942900 5.249300
26.977500 5.388400
27.012100 5.555400
27.046700 5.320700
27.081400 5.119400
27.116000 5.116400
27.150600 5.248800
27.185200 5.120400
27.219800 5.156600
27.254400 5.687700
27.289000 5.648700
27.323600 5.589800
27.358200 4.766000
27.392800 4.515200
27.427500 4.162400
27.462100 4.094600
27.496700 4.036700
27.531300 4.068000
27.565900 5.106600
27.600500 5.609200
27.635100 6.353400
27.669700 6.306700
27.704300 5.771700
27.738900 5.436200
27.773500 5.176900
27.808200 5.083000
27.842800 5.317200
27.877400 5.307900
27.912000 5.310300
27.946600 5.536800
27.981200 5.972400
28.015800 5.719400
28.050400 5.064800
28.085000 4.692500
28.119600 4.883500
28.154300 5.139200
28.188900 5.519000
28.223500 6.263100
28.258100 6.391600
28.292700 6.445100
28.327300 6.653800
28.361900 6.513900
28.396500 6.422700
28.431100 6.379500
28.465700 6.462000
28.500400 5.748900
28.535000 5.210400
28.569600 5.244000
28.604200 5.563400
28.638800 5.761900
28.673400 5.774000
28.708000 5.830400
28.742600 6.334800
28.777200 6.118700
28.811800 5.781300
28.846500 5.869000
28.881100 5.766400
28.915700 6.434800
28.950300 6.333700
28.984900 6.459700
29.019500 5.993000
29.054100 6.075200
29.088700 6.565400
29.123300 6.926300
29.157900 6.668000
29.192600 6.590900
29.227200 6.362400
29.261800 5.284700
29.296400 4.823400
29.331000 5.427500
29.365600 5.071700
29.400200 5.622300
29.434800 5.495900
29.469400 5.573300
29.504000 6.113400
29.538600 5.795600
29.573300 5.302100
29.607900 4.899700
29.642500 4.634700
29.677100 4.720600
29.711700 4.697100
29.746300 4.658500
29.780900 4.655800
29.815500 4.746600
29.850100 5.253700
29.884700 5.612900
29.919400 6.119700
29.954000 6.165900
29.988600 6.019800
30.023200 5.927000
30.057800 5.719100
30.092400 5.094500
30.127000 4.697500
30.161600 4.931600
30.196200 5.790300
30.230800 6.192800
30.265500 6.444600
30.300100 6.898200
30.334700 5.702800
30.369300 4.957700
30.403900 4.804700
30.438500 4.727400
30.473100 4.902600
30.507700 5.375400
30.542300 5.747800
30.576900 6.178200
30.611600 6.454900
30.646200 6.430800
30.680800 5.732700
30.715400 5.427000
30.750000 5.567900
30.784600 5.456700
30.819200 5.329000
30.853800 5.512300
30.888400 5.316000
30.923000 5.185500
30.957600 5.176700
30.992300 4.957800
31.026900 5.112100
31.061500 6.038700
31.096100 5.759400
31.130700 5.844100
31.165300 5.900200
31.199900 6.125700
31.234500 6.448500
31.269100 5.971300
31.303700 5.638500
31.338400 5.820900
31.373000 6.150300
31.407600 6.063100
31.442200 6.024400
31.476800 6.140200
31.511400 6.076900
31.546000 5.561900
31.580600 5.460100
31.615200 5.474600
31.649800 5.867200
31.684500 5.885400
31.719100 5.879800
31.753700 5.889400
31.788300 6.167300
31.822900 6.556000
31.857500 6.618700
31.892100 6.513800
31.926700 6.579300
31.961300 6.812000
31.995900 6.621300
32.030600 6.285800
32.065200 6.001600
32.099800 5.907800
32.134400 5.775500
32.169000 5.645400
32.203600 5.379400
32.238200 5.021700
32.272800 4.940700
32.307400 4.792600
32.342000 4.672000
32.376700 4.630500
32.411300 4.627000
32.445900 4.649300
32.480500 4.777900
32.515100 4.680200
32.549700 3.821300
32.584300 3.427100
32.618900 3.397200
32.653500 3.506900
32.688100 3.403900
32.722700 2.901100
32.757400 2.529800
32.792000 2.077900
32.826600 1.551700
32.861200 1.163100
32.895800 0.915000
32.930400 0.755400
32.965000 0.632800
32.999600 0.526900
33.034200 0.442400
33.068800 0.338700
33.103500 0.224500
33.138100 0.126900
33.172700 0.078800
33.207300 0.061900
33.241900 0.047500
33.276500 0.034300
33.311100 0.021900
33.345700 0.010400
33.380300 0.002800
33.414900 0.000000
33.449600 0.000000
33.484200 0.000000
33.518800 0.000000
33.553400 0.000000
33.588000 0.000000
33.622600 0.000000
33.657200 0.000000
33.691800 0.000000
33.726400 0.000000
33.761000 0.000000
33.795700 0.000000
33.830300 0.000000
33.864900 0.000000
33.899500 0.000000
33.934100 0.000000
33.968700 0.000000
34.003300 0.000000
34.037900 0.000000
34.072500 0.000000
34.107100 0.000000
34.141700 0.000000
34.176400 0.000000
34.211000 0.000000
34.245600 0.000000
34.280200 0.000000
34.314800 0.000000
34.349400 0.000000
34.384000 0.000000
34.418600 0.000000
34.453200 0.000000
34.487800 0.000000
34.522500 0.000000
34.557100 0.000000
34.591700 0.000000
34.626300 0.000000
34.660900 0.000000
34.695500 0.000000
34.730100 0.000000
34.764700 0.000000
34.799300 0.000000
34.833900 0.000000
34.868600 0.000000
34.903200 0.000000
34.937800 0.000000
34.972400 0.000000
35.007000 0.000000
35.041600 0.000000
35.076200 0.000000
35.110800 0.000000
35.145400 0.000000
35.180000 0.000000
35.214700 0.000000
35.249300 0.000000
35.283900 0.000000
35.318500 0.000000
35.353100 0.000000
35.387700 0.000000
35.422300 0.000000
35.456900 0.000000
35.491500 0.000000
35.526100 0.000000
35.560800 0.000000
35.595400 0.000000
35.630000 0.000000
35.664600 0.000000
35.699200 0.000000
35.733800 0.000000
35.768400 0.000000
35.803000 0.000000
35.837600 0.000000
35.872200 0.000000
35.906800 0.000000
35.941500 0.000000
35.976100 0.000000
36.010700 0.000000
36.045300 0.000000
36.079900 0.000000
36.114500 0.000000
36.149100 0.000000
36.183700 0.000000
36.218300 0.000000
36.252900 0.000000
36.287600 0.000000
36.322200 0.000000
36.356800 0.000000
36.391400 0.000000
36.426000 0.000000
36.460600 0.000000
36.495200 0.000000
36.529800 0.000000
36.564400 0.000000
e
