set title 'mp-1186176 - Density of States'
set xlabel 'Energy (eV)'
set ylabel 'DOS (states/eV)'
set grid
set xrange [-10:10]
set yrange [0:4.010]
set xzeroaxis lt -1
set terminal png size 800,600
set output 'mp-1186176_dos_gnuplot.png'
plot '-' using 1:2 with lines title 'DOS'
-20.362600 0.000000
-20.338500 0.000000
-20.314400 0.000000
-20.290300 0.000000
-20.266300 0.000000
-20.242200 0.000000
-20.218100 0.000000
-20.194100 0.000000
-20.170000 0.000000
-20.145900 0.000000
-20.121900 0.000000
-20.097800 0.000000
-20.073700 0.000000
-20.049700 0.000000
-20.025600 0.000000
-20.001500 0.000000
-19.977500 0.000000
-19.953400 0.000000
-19.929300 0.000000
-19.905300 0.000000
-19.881200 0.000000
-19.857100 0.000000
-19.833100 0.000000
-19.809000 0.000000
-19.784900 0.000000
-19.760900 0.000000
-19.736800 0.000000
-19.712700 0.000000
-19.688600 0.000000
-19.664600 0.000000
-19.640500 0.000000
-19.616400 0.000000
-19.592400 0.000000
-19.568300 0.000000
-19.544200 0.000000
-19.520200 0.000000
-19.496100 0.000000
-19.472000 0.000000
-19.448000 0.000000
-19.423900 0.000000
-19.399800 0.000000
-19.375800 0.000000
-19.351700 0.000000
-19.327600 0.000000
-19.303600 0.000000
-19.279500 0.000000
-19.255400 0.000000
-19.231400 0.000000
-19.207300 0.000000
-19.183200 0.000000
-19.159200 0.000000
-19.135100 0.000000
-19.111000 0.000000
-19.086900 0.000000
-19.062900 0.000000
-19.038800 0.000000
-19.014700 0.000000
-18.990700 0.000000
-18.966600 0.000000
-18.942500 0.000000
-18.918500 0.000000
-18.894400 0.000000
-18.870300 0.000000
-18.846300 0.000000
-18.822200 0.000000
-18.798100 0.000000
-18.774100 0.000000
-18.750000 0.000000
-18.725900 0.000000
-18.701900 0.000000
-18.677800 0.000000
-18.653700 0.000000
-18.629700 0.000000
-18.605600 0.000000
-18.581500 0.000000
-18.557500 0.000000
-18.533400 0.000000
-18.509300 0.000000
-18.485300 0.000000
-18.461200 0.000000
-18.437100 0.000000
-18.413000 0.000000
-18.389000 0.000000
-18.364900 0.000000
-18.340800 0.000200
-18.316800 0.005500
-18.292700 0.079600
-18.268600 0.740000
-18.244600 4.392300
-18.220500 16.666000
-18.196400 40.466100
-18.172400 62.915900
-18.148300 62.660200
-18.124200 39.974800
-18.100200 16.330000
-18.076100 4.268700
-18.052000 0.713400
-18.028000 0.076100
-18.003900 0.005200
-17.979800 0.000200
-17.955800 0.000000
-17.931700 0.000000
-17.907600 0.000000
-17.883600 0.000000
-17.859500 0.000000
-17.835400 0.000000
-17.811300 0.000000
-17.787300 0.000000
-17.763200 0.000000
-17.739100 0.000000
-17.715100 0.000000
-17.691000 0.000000
-17.666900 0.000000
-17.642900 0.000000
-17.618800 0.000000
-17.594700 0.000000
-17.570700 0.000000
-17.546600 0.000000
-17.522500 0.000000
-17.498500 0.000000
-17.474400 0.000000
-17.450300 0.000000
-17.426300 0.000000
-17.402200 0.000000
-17.378100 0.000000
-17.354100 0.000000
-17.330000 0.000000
-17.305900 0.000000
-17.281900 0.000000
-17.257800 0.000000
-17.233700 0.000000
-17.209600 0.000000
-17.185600 0.000000
-17.161500 0.000000
-17.137400 0.000000
-17.113400 0.000000
-17.089300 0.000000
-17.065200 0.000000
-17.041200 0.000000
-17.017100 0.000000
-16.993000 0.000000
-16.969000 0.000000
-16.944900 0.000000
-16.920800 0.000000
-16.896800 0.000000
-16.872700 0.000000
-16.848600 0.000000
-16.824600 0.000000
-16.800500 0.000000
-16.776400 0.000000
-16.752400 0.000000
-16.728300 0.000000
-16.704200 0.000000
-16.680200 0.000000
-16.656100 0.000000
-16.632000 0.000000
-16.608000 0.000000
-16.583900 0.000000
-16.559800 0.000000
-16.535700 0.000000
-16.511700 0.000000
-16.487600 0.000000
-16.463500 0.000000
-16.439500 0.000000
-16.415400 0.000000
-16.391300 0.000000
-16.367300 0.000000
-16.343200 0.000000
-16.319100 0.000000
-16.295100 0.000000
-16.271000 0.000000
-16.246900 0.000000
-16.222900 0.000000
-16.198800 0.000000
-16.174700 0.000000
-16.150700 0.000000
-16.126600 0.000000
-16.102500 0.000000
-16.078500 0.000000
-16.054400 0.000000
-16.030300 0.000000
-16.006300 0.000000
-15.982200 0.000000
-15.958100 0.000000
-15.934000 0.000000
-15.910000 0.000000
-15.885900 0.000000
-15.861800 0.000000
-15.837800 0.000000
-15.813700 0.000000
-15.789600 0.000000
-15.765600 0.000000
-15.741500 0.000000
-15.717400 0.000000
-15.693400 0.000000
-15.669300 0.000000
-15.645200 0.000000
-15.621200 0.000000
-15.597100 0.000000
-15.573000 0.000000
-15.549000 0.000000
-15.524900 0.000000
-15.500800 0.000000
-15.476800 0.000100
-15.452700 0.001300
-15.428600 0.021600
-15.404600 0.234500
-15.380500 1.710600
-15.356400 8.428500
-15.332300 28.257800
-15.308300 64.924000
-15.284200 103.288100
-15.260100 116.964200
-15.236100 103.440400
-15.212000 91.660900
-15.187900 104.672800
-15.163900 133.712200
-15.139800 151.336900
-15.115700 138.887500
-15.091700 101.014400
-15.067600 58.041100
-15.043500 26.553200
-15.019500 9.741200
-14.995400 2.833000
-14.971300 0.631000
-14.947300 0.102900
-14.923200 0.011800
-14.899100 0.000900
-14.875100 0.000000
-14.851000 0.000000
-14.826900 0.000000
-14.802900 0.000000
-14.778800 0.000000
-14.754700 0.000000
-14.730700 0.000000
-14.706600 0.000000
-14.682500 0.000000
-14.658400 0.000000
-14.634400 0.000000
-14.610300 0.000000
-14.586200 0.000000
-14.562200 0.000000
-14.538100 0.000000
-14.514000 0.000000
-14.490000 0.000000
-14.465900 0.000000
-14.441800 0.000000
-14.417800 0.000000
-14.393700 0.000000
-14.369600 0.000000
-14.345600 0.000000
-14.321500 0.000000
-14.297400 0.000000
-14.273400 0.000000
-14.249300 0.000000
-14.225200 0.000000
-14.201200 0.000000
-14.177100 0.000000
-14.153000 0.000000
-14.129000 0.000000
-14.104900 0.000000
-14.080800 0.000000
-14.056700 0.000000
-14.032700 0.000000
-14.008600 0.000000
-13.984500 0.000000
-13.960500 0.000000
-13.936400 0.000000
-13.912300 0.000000
-13.888300 0.000000
-13.864200 0.000000
-13.840100 0.000000
-13.816100 0.000000
-13.792000 0.000000
-13.767900 0.000000
-13.743900 0.000000
-13.719800 0.000000
-13.695700 0.000000
-13.671700 0.000000
-13.647600 0.000000
-13.623500 0.000000
-13.599500 0.000000
-13.575400 0.000000
-13.551300 0.000000
-13.527300 0.000000
-13.503200 0.000000
-13.479100 0.000000
-13.455000 0.000000
-13.431000 0.000000
-13.406900 0.000000
-13.382800 0.000000
-13.358800 0.000000
-13.334700 0.000000
-13.310600 0.000000
-13.286600 0.000000
-13.262500 0.000000
-13.238400 0.000000
-13.214400 0.000000
-13.190300 0.000000
-13.166200 0.000000
-13.142200 0.000000
-13.118100 0.000000
-13.094000 0.000000
-13.070000 0.000000
-13.045900 0.000000
-13.021800 0.000000
-12.997800 0.000000
-12.973700 0.000000
-12.949600 0.000000
-12.925600 0.000000
-12.901500 0.000000
-12.877400 0.000000
-12.853400 0.000000
-12.829300 0.000000
-12.805200 0.000000
-12.781100 0.000000
-12.757100 0.000000
-12.733000 0.000000
-12.708900 0.000000
-12.684900 0.000000
-12.660800 0.000000
-12.636700 0.000000
-12.612700 0.000000
-12.588600 0.000000
-12.564500 0.000000
-12.540500 0.000000
-12.516400 0.000000
-12.492300 0.000000
-12.468300 0.000000
-12.444200 0.000000
-12.420100 0.000000
-12.396100 0.000000
-12.372000 0.000000
-12.347900 0.000000
-12.323900 0.000000
-12.299800 0.000000
-12.275700 0.000000
-12.251700 0.000000
-12.227600 0.000000
-12.203500 0.000000
-12.179400 0.000000
-12.155400 0.000000
-12.131300 0.000000
-12.107200 0.000000
-12.083200 0.000000
-12.059100 0.000000
-12.035000 0.000000
-12.011000 0.000000
-11.986900 0.000000
-11.962800 0.000000
-11.938800 0.000000
-11.914700 0.000000
-11.890600 0.000000
-11.866600 0.000000
-11.842500 0.000000
-11.818400 0.000000
-11.794400 0.000000
-11.770300 0.000000
-11.746200 0.000000
-11.722200 0.000000
-11.698100 0.000000
-11.674000 0.000000
-11.650000 0.000000
-11.625900 0.000000
-11.601800 0.000000
-11.577700 0.000000
-11.553700 0.000000
-11.529600 0.000000
-11.505500 0.000000
-11.481500 0.000000
-11.457400 0.000000
-11.433300 0.000000
-11.409300 0.000000
-11.385200 0.000000
-11.361100 0.000000
-11.337100 0.000000
-11.313000 0.000000
-11.288900 0.000000
-11.264900 0.000000
-11.240800 0.000000
-11.216700 0.000000
-11.192700 0.000000
-11.168600 0.000000
-11.144500 0.000000
-11.120500 0.000000
-11.096400 0.000000
-11.072300 0.000000
-11.048300 0.000000
-11.024200 0.000000
-11.000100 0.000000
-10.976100 0.000000
-10.952000 0.000000
-10.927900 0.000000
-10.903800 0.000000
-10.879800 0.000000
-10.855700 0.000000
-10.831600 0.000000
-10.807600 0.000000
-10.783500 0.000000
-10.759400 0.000000
-10.735400 0.000000
-10.711300 0.000000
-10.687200 0.000000
-10.663200 0.000000
-10.639100 0.000000
-10.615000 0.000000
-10.591000 0.000000
-10.566900 0.000000
-10.542800 0.000000
-10.518800 0.000000
-10.494700 0.000000
-10.470600 0.000000
-10.446600 0.000000
-10.422500 0.000000
-10.398400 0.000000
-10.374400 0.000000
-10.350300 0.000000
-10.326200 0.000000
-10.302100 0.000000
-10.278100 0.000000
-10.254000 0.000000
-10.229900 0.000000
-10.205900 0.000000
-10.181800 0.000000
-10.157700 0.000000
-10.133700 0.000000
-10.109600 0.000000
-10.085500 0.000000
-10.061500 0.000000
-10.037400 0.000000
-10.013300 0.000000
-9.989300 0.000000
-9.965200 0.000000
-9.941100 0.000000
-9.917100 0.000000
-9.893000 0.000000
-9.868900 0.000000
-9.844900 0.000000
-9.820800 0.000000
-9.796700 0.000000
-9.772700 0.000000
-9.748600 0.000000
-9.724500 0.000000
-9.700400 0.000000
-9.676400 0.000000
-9.652300 0.000000
-9.628200 0.000000
-9.604200 0.000000
-9.580100 0.000000
-9.556000 0.000000
-9.532000 0.000000
-9.507900 0.000000
-9.483800 0.000000
-9.459800 0.000000
-9.435700 0.000000
-9.411600 0.000000
-9.387600 0.000000
-9.363500 0.000000
-9.339400 0.000000
-9.315400 0.000000
-9.291300 0.000000
-9.267200 0.000000
-9.243200 0.000000
-9.219100 0.000000
-9.195000 0.000000
-9.171000 0.000000
-9.146900 0.000000
-9.122800 0.000000
-9.098800 0.000000
-9.074700 0.000000
-9.050600 0.000000
-9.026500 0.000000
-9.002500 0.000000
-8.978400 0.000000
-8.954300 0.000000
-8.930300 0.000000
-8.906200 0.000000
-8.882100 0.000000
-8.858100 0.000000
-8.834000 0.000000
-8.809900 0.000000
-8.785900 0.000000
-8.761800 0.000000
-8.737700 0.000000
-8.713700 0.000000
-8.689600 0.000000
-8.665500 0.000000
-8.641500 0.000000
-8.617400 0.000000
-8.593300 0.000000
-8.569300 0.000000
-8.545200 0.000000
-8.521100 0.000000
-8.497100 0.000000
-8.473000 0.000000
-8.448900 0.000000
-8.424800 0.000000
-8.400800 0.000000
-8.376700 0.000000
-8.352600 0.000000
-8.328600 0.000000
-8.304500 0.000000
-8.280400 0.000000
-8.256400 0.000000
-8.232300 0.000000
-8.208200 0.000000
-8.184200 0.000000
-8.160100 0.000000
-8.136000 0.000000
-8.112000 0.000000
-8.087900 0.000000
-8.063800 0.000000
-8.039800 0.000000
-8.015700 0.000000
-7.991600 0.000000
-7.967600 0.000000
-7.943500 0.000000
-7.919400 0.000000
-7.895400 0.000000
-7.871300 0.000000
-7.847200 0.000000
-7.823100 0.000000
-7.799100 0.000000
-7.775000 0.000000
-7.750900 0.000000
-7.726900 0.000000
-7.702800 0.000000
-7.678700 0.000000
-7.654700 0.000000
-7.630600 0.000000
-7.606500 0.000000
-7.582500 0.000000
-7.558400 0.000000
-7.534300 0.000000
-7.510300 0.000000
-7.486200 0.000000
-7.462100 0.000000
-7.438100 0.000000
-7.414000 0.000000
-7.389900 0.000000
-7.365900 0.000000
-7.341800 0.000000
-7.317700 0.000000
-7.293700 0.000000
-7.269600 0.000000
-7.245500 0.000000
-7.221500 0.000000
-7.197400 0.000000
-7.173300 0.000000
-7.149200 0.000000
-7.125200 0.000000
-7.101100 0.000000
-7.077000 0.000000
-7.053000 0.000000
-7.028900 0.000000
-7.004800 0.000000
-6.980800 0.000000
-6.956700 0.000000
-6.932600 0.000000
-6.908600 0.000000
-6.884500 0.000000
-6.860400 0.000000
-6.836400 0.000000
-6.812300 0.000000
-6.788200 0.000000
-6.764200 0.000000
-6.740100 0.000000
-6.716000 0.000000
-6.692000 0.000000
-6.667900 0.000000
-6.643800 0.000000
-6.619800 0.000000
-6.595700 0.000000
-6.571600 0.000000
-6.547500 0.000000
-6.523500 0.000000
-6.499400 0.000000
-6.475300 0.000000
-6.451300 0.000000
-6.427200 0.000000
-6.403100 0.000000
-6.379100 0.000000
-6.355000 0.000000
-6.330900 0.000000
-6.306900 0.000000
-6.282800 0.000000
-6.258700 0.000000
-6.234700 0.000000
-6.210600 0.000000
-6.186500 0.000000
-6.162500 0.000000
-6.138400 0.000000
-6.114300 0.000000
-6.090300 0.000000
-6.066200 0.000000
-6.042100 0.000000
-6.018100 0.000000
-5.994000 0.000000
-5.969900 0.000000
-5.945800 0.000000
-5.921800 0.000000
-5.897700 0.000000
-5.873600 0.000000
-5.849600 0.000000
-5.825500 0.000000
-5.801400 0.000000
-5.777400 0.000000
-5.753300 0.000000
-5.729200 0.000000
-5.705200 0.000000
-5.681100 0.000000
-5.657000 0.000000
-5.633000 0.000000
-5.608900 0.000000
-5.584800 0.000000
-5.560800 0.000000
-5.536700 0.000000
-5.512600 0.000000
-5.488600 0.000000
-5.464500 0.000000
-5.440400 0.000000
-5.416400 0.000000
-5.392300 0.000000
-5.368200 0.000000
-5.344200 0.000000
-5.320100 0.000000
-5.296000 0.000000
-5.271900 0.000000
-5.247900 0.000000
-5.223800 0.000000
-5.199700 0.000000
-5.175700 0.000000
-5.151600 0.000000
-5.127500 0.000000
-5.103500 0.000000
-5.079400 0.000000
-5.055300 0.000000
-5.031300 0.000000
-5.007200 0.000000
-4.983100 0.000000
-4.959100 0.000000
-4.935000 0.000000
-4.910900 0.000000
-4.886900 0.000000
-4.862800 0.000000
-4.838700 0.000000
-4.814700 0.000000
-4.790600 0.000000
-4.766500 0.000000
-4.742500 0.000000
-4.718400 0.000000
-4.694300 0.000000
-4.670200 0.000000
-4.646200 0.000000
-4.622100 0.000000
-4.598000 0.000000
-4.574000 0.000000
-4.549900 0.000000
-4.525800 0.000000
-4.501800 0.000000
-4.477700 0.000000
-4.453600 0.000000
-4.429600 0.000000
-4.405500 0.000000
-4.381400 0.000000
-4.357400 0.000000
-4.333300 0.000000
-4.309200 0.000000
-4.285200 0.000000
-4.261100 0.000000
-4.237000 0.000000
-4.213000 0.000000
-4.188900 0.000000
-4.164800 0.000000
-4.140800 0.000000
-4.116700 0.000000
-4.092600 0.000000
-4.068500 0.000000
-4.044500 0.000000
-4.020400 0.000000
-3.996300 0.000000
-3.972300 0.000000
-3.948200 0.000200
-3.924100 0.001200
-3.900100 0.006000
-3.876000 0.019700
-3.851900 0.045000
-3.827900 0.078300
-3.803800 0.116400
-3.779700 0.167800
-3.755700 0.251700
-3.731600 0.355700
-3.707500 0.397100
-3.683500 0.317100
-3.659400 0.191800
-3.635300 0.155000
-3.611300 0.262500
-3.587200 0.448400
-3.563100 0.578500
-3.539100 0.591700
-3.515000 0.566300
-3.490900 0.597900
-3.466900 0.637600
-3.442800 0.552400
-3.418700 0.364500
-3.394600 0.242600
-3.370600 0.265200
-3.346500 0.396200
-3.322400 0.596500
-3.298400 0.785600
-3.274300 0.849900
-3.250200 0.822900
-3.226200 0.844000
-3.202100 0.888000
-3.178000 0.782700
-3.154000 0.520500
-3.129900 0.319200
-3.105800 0.357000
-3.081800 0.605800
-3.057700 0.896300
-3.033600 1.064800
-3.009600 1.068500
-2.985500 1.002900
-2.961400 0.957500
-2.937400 0.876700
-2.913300 0.712500
-2.889200 0.580300
-2.865200 0.582500
-2.841100 0.670000
-2.817000 0.790600
-2.792900 0.940600
-2.768900 1.077900
-2.744800 1.194000
-2.720700 1.311300
-2.696700 1.338000
-2.672600 1.153600
-2.648500 0.833800
-2.624500 0.655100
-2.600400 0.836100
-2.576300 1.279500
-2.552300 1.613400
-2.528200 1.572800
-2.504100 1.282700
-2.480100 1.027100
-2.456000 0.863600
-2.431900 0.667800
-2.407900 0.456000
-2.383800 0.396300
-2.359700 0.552200
-2.335700 0.801500
-2.311600 1.022800
-2.287500 1.267100
-2.263500 1.634200
-2.239400 2.039400
-2.215300 2.234000
-2.191200 2.024300
-2.167200 1.464200
-2.143100 0.849800
-2.119000 0.500500
-2.095000 0.560500
-2.070900 0.929500
-2.046800 1.325700
-2.022800 1.517900
-1.998700 1.473300
-1.974600 1.257400
-1.950600 0.949400
-1.926500 0.641800
-1.902400 0.414000
-1.878400 0.340200
-1.854300 0.436100
-1.830200 0.557700
-1.806200 0.565700
-1.782100 0.580300
-1.758000 0.798100
-1.734000 1.158700
-1.709900 1.431600
-1.685800 1.461200
-1.661800 1.233000
-1.637700 0.889700
-1.613600 0.630900
-1.589600 0.543500
-1.565500 0.595300
-1.541400 0.687700
-1.517300 0.732000
-1.493300 0.733400
-1.469200 0.756200
-1.445100 0.868600
-1.421100 1.079600
-1.397000 1.321700
-1.372900 1.553200
-1.348900 1.767300
-1.324800 1.948200
-1.300700 2.056100
-1.276700 1.991400
-1.252600 1.717300
-1.228500 1.424600
-1.204500 1.349200
-1.180400 1.474500
-1.156300 1.592300
-1.132300 1.520200
-1.108200 1.253100
-1.084100 1.003500
-1.060100 0.972400
-1.036000 1.115900
-1.011900 1.281200
-0.987900 1.410500
-0.963800 1.493600
-0.939700 1.525900
-0.915600 1.545300
-0.891600 1.582000
-0.867500 1.555900
-0.843400 1.322900
-0.819400 0.938900
-0.795300 0.736200
-0.771200 0.963400
-0.747200 1.467400
-0.723100 1.792800
-0.699000 1.617300
-0.675000 1.123300
-0.650900 0.772300
-0.626800 0.785000
-0.602800 1.099100
-0.578700 1.548100
-0.554600 1.878500
-0.530600 1.930300
-0.506500 1.765500
-0.482400 1.525700
-0.458400 1.353300
-0.434300 1.248900
-0.410200 1.071500
-0.386200 0.887400
-0.362100 0.915300
-0.338000 1.130900
-0.313900 1.345100
-0.289900 1.510200
-0.265800 1.683400
-0.241700 1.865900
-0.217700 1.944100
-0.193600 1.730600
-0.169500 1.226500
-0.145500 0.748900
-0.121400 0.625100
-0.097300 0.876600
-0.073300 1.262300
-0.049200 1.556500
-0.025100 1.696300
-0.001100 1.731400
0.023000 1.742500
0.047100 1.727100
0.071100 1.627700
0.095200 1.525800
0.119300 1.563200
0.143300 1.742200
0.167400 2.012400
0.191500 2.291300
0.215500 2.362900
0.239600 2.171100
0.263700 2.009700
0.287700 2.025000
0.311800 1.999900
0.335900 1.774600
0.360000 1.404600
0.384000 1.078000
0.408100 1.046500
0.432200 1.341400
0.456200 1.659600
0.480300 1.749300
0.504400 1.693600
0.528400 1.735400
0.552500 1.920500
0.576600 1.960100
0.600600 1.653000
0.624700 1.307200
0.648800 1.343000
0.672800 1.699700
0.696900 1.974800
0.721000 1.977200
0.745000 1.901600
0.769100 1.984100
0.793200 2.136900
0.817200 2.062700
0.841300 1.690400
0.865400 1.252100
0.889400 0.950300
0.913500 0.812400
0.937600 0.814900
0.961700 0.903500
0.985700 0.961300
1.009800 0.959900
1.033900 0.988400
1.057900 1.027900
1.082000 0.949100
1.106100 0.785800
1.130100 0.717100
1.154200 0.746100
1.178300 0.709500
1.202300 0.576100
1.226400 0.476900
1.250500 0.512900
1.274500 0.644600
1.298600 0.708800
1.322700 0.592500
1.346700 0.392200
1.370800 0.287600
1.394900 0.311200
1.418900 0.360900
1.443000 0.372300
1.467100 0.359200
1.491100 0.346600
1.515200 0.349000
1.539300 0.361200
1.563400 0.358300
1.587400 0.332200
1.611500 0.293600
1.635600 0.252800
1.659600 0.227500
1.683700 0.214100
1.707800 0.177900
1.731800 0.132400
1.755900 0.140600
1.780000 0.211800
1.804000 0.274700
1.828100 0.266000
1.852200 0.198300
1.876200 0.124200
1.900300 0.073700
1.924400 0.049600
1.948400 0.046400
1.972500 0.048500
1.996600 0.043200
2.020600 0.039400
2.044700 0.050300
2.068800 0.074000
2.092800 0.104900
2.116900 0.138200
2.141000 0.156600
2.165000 0.144300
2.189100 0.113600
2.213200 0.096600
2.237300 0.097600
2.261300 0.088500
2.285400 0.070400
2.309500 0.099300
2.333500 0.232800
2.357600 0.439300
2.381700 0.587000
2.405700 0.620500
2.429800 0.629700
2.453900 0.641900
2.477900 0.601300
2.502000 0.536100
2.526100 0.484100
2.550100 0.419500
2.574200 0.347700
2.598300 0.299100
2.622300 0.276200
2.646400 0.269800
2.670500 0.305600
2.694500 0.464000
2.718600 0.796300
2.742700 1.217400
2.766700 1.510900
2.790800 1.509900
2.814900 1.249200
2.839000 0.884200
2.863000 0.545800
2.887100 0.342600
2.911200 0.388500
2.935200 0.708800
2.959300 1.166200
2.983400 1.560400
3.007400 1.769400
3.031500 1.772800
3.055600 1.674500
3.079600 1.620100
3.103700 1.595900
3.127800 1.494300
3.151800 1.293900
3.175900 1.050900
3.200000 0.860500
3.224000 0.850100
3.248100 1.120600
3.272200 1.635500
3.296200 2.220700
3.320300 2.654600
3.344400 2.775500
3.368400 2.656600
3.392500 2.461300
3.416600 2.212100
3.440700 2.020300
3.464700 2.088400
3.488800 2.348000
3.512900 2.526700
3.536900 2.493300
3.561000 2.335800
3.585100 2.222900
3.609100 2.307500
3.633200 2.603600
3.657300 2.821100
3.681300 2.629000
3.705400 2.186100
3.729500 1.986500
3.753500 2.116100
3.777600 2.191800
3.801700 2.068200
3.825700 1.936500
3.849800 1.835600
3.873900 1.747200
3.897900 1.850200
3.922000 2.185500
3.946100 2.425100
3.970100 2.383100
3.994200 2.396200
4.018300 2.654100
4.042300 2.709400
4.066400 2.283400
4.090500 1.816400
4.114600 1.721300
4.138600 1.833800
4.162700 1.826100
4.186800 1.640100
4.210800 1.509000
4.234900 1.719000
4.259000 2.238400
4.283000 2.692500
4.307100 2.889900
4.331200 3.019500
4.355200 3.153200
4.379300 3.103300
4.403400 2.814000
4.427400 2.379400
4.451500 1.853200
4.475600 1.391900
4.499600 1.165300
4.523700 1.072700
4.547800 0.991900
4.571800 1.035900
4.595900 1.301600
4.620000 1.780800
4.644000 2.424800
4.668100 2.953700
4.692200 3.137900
4.716300 3.279100
4.740300 3.604700
4.764400 3.645100
4.788500 3.041700
4.812500 2.233400
4.836600 1.773100
4.860700 1.680600
4.884700 1.685000
4.908800 1.605700
4.932900 1.430600
4.956900 1.278900
4.981000 1.251900
5.005100 1.304500
5.029100 1.342500
5.053200 1.344700
5.077300 1.379500
5.101300 1.518700
5.125400 1.689800
5.149500 1.739100
5.173500 1.721700
5.197600 1.834800
5.221700 2.011400
5.245700 2.026100
5.269800 1.909600
5.293900 1.890500
5.318000 2.087300
5.342000 2.438300
5.366100 2.786100
5.390200 2.958500
5.414200 2.879600
5.438300 2.615900
5.462400 2.306000
5.486400 2.029500
5.510500 1.755200
5.534600 1.495500
5.558600 1.359000
5.582700 1.327900
5.606800 1.244300
5.630800 1.089000
5.654900 1.020500
5.679000 1.209000
5.703000 1.665900
5.727100 2.126000
5.751200 2.304100
5.775200 2.216600
5.799300 2.049400
5.823400 1.911700
5.847400 1.797700
5.871500 1.726200
5.895600 1.850600
5.919600 2.177000
5.943700 2.374900
5.967800 2.216400
5.991900 1.898300
6.015900 1.677000
6.040000 1.615000
6.064100 1.740800
6.088100 1.957000
6.112200 1.965800
6.136300 1.606100
6.160300 1.078800
6.184400 0.715600
6.208500 0.636100
6.232500 0.748200
6.256600 0.974100
6.280700 1.374500
6.304700 1.981600
6.328800 2.546100
6.352900 2.725600
6.376900 2.519400
6.401000 2.303200
6.425100 2.350300
6.449100 2.454900
6.473200 2.308400
6.497300 2.023300
6.521300 1.942000
6.545400 2.082700
6.569500 2.069800
6.593600 1.737500
6.617600 1.442700
6.641700 1.499500
6.665800 1.754000
6.689800 1.971200
6.713900 2.125000
6.738000 2.145500
6.762000 1.981900
6.786100 1.811200
6.810200 1.758100
6.834200 1.724300
6.858300 1.650400
6.882400 1.654700
6.906400 1.792300
6.930500 1.901200
6.954600 1.813800
6.978600 1.540900
7.002700 1.278800
7.026800 1.329500
7.050800 1.762700
7.074900 2.215600
7.099000 2.368900
7.123000 2.339000
7.147100 2.360300
7.171200 2.427000
7.195300 2.404300
7.219300 2.339800
7.243400 2.424500
7.267500 2.660800
7.291500 2.740200
7.315600 2.399300
7.339700 1.871400
7.363700 1.674800
7.387800 1.969700
7.411900 2.348400
7.435900 2.373900
7.460000 2.131500
7.484100 1.965800
7.508100 2.000100
7.532200 2.156200
7.556300 2.301900
7.580300 2.262700
7.604400 1.946700
7.628500 1.562600
7.652500 1.514300
7.676600 1.910700
7.700700 2.358600
7.724700 2.453700
7.748800 2.272500
7.772900 2.181800
7.796900 2.359800
7.821000 2.577600
7.845100 2.494100
7.869200 2.128500
7.893200 1.764100
7.917300 1.591900
7.941400 1.676200
7.965400 1.962600
7.989500 2.247800
8.013600 2.364700
8.037600 2.319200
8.061700 2.214000
8.085800 2.149200
8.109800 2.136000
8.133900 2.120900
8.158000 2.054900
8.182000 1.921400
8.206100 1.808000
8.230200 1.885600
8.254200 2.214900
8.278300 2.599800
8.302400 2.835200
8.326400 2.987100
8.350500 3.144800
8.374600 3.214000
8.398600 3.124200
8.422700 2.923800
8.446800 2.726200
8.470900 2.629700
8.494900 2.605100
8.519000 2.654300
8.543100 2.843200
8.567100 3.005700
8.591200 2.917600
8.615300 2.675000
8.639300 2.500700
8.663400 2.473700
8.687500 2.563100
8.711500 2.658500
8.735600 2.639900
8.759700 2.559500
8.783700 2.598000
8.807800 2.753300
8.831900 2.810600
8.855900 2.667600
8.880000 2.502900
8.904100 2.646200
8.928100 3.158300
8.952200 3.511800
8.976300 3.141100
9.000300 2.228500
9.024400 1.450600
9.048500 1.207900
9.072500 1.464500
9.096600 1.975900
9.120700 2.449000
9.144800 2.709700
9.168800 2.766800
9.192900 2.681800
9.217000 2.481100
9.241000 2.222100
9.265100 1.988500
9.289200 1.821200
9.313200 1.724300
9.337300 1.691300
9.361400 1.756200
9.385400 1.997900
9.409500 2.428200
9.433600 2.931700
9.457600 3.316800
9.481700 3.391900
9.505800 3.060800
9.529800 2.499900
9.553900 2.076500
9.578000 1.918300
9.602000 1.897300
9.626100 1.983200
9.650200 2.223000
9.674200 2.484300
9.698300 2.542800
9.722400 2.345400
9.746500 2.002300
9.770500 1.667200
9.794600 1.445400
9.818700 1.374100
9.842700 1.475500
9.866800 1.673100
9.890900 1.783200
9.914900 1.730700
9.939000 1.648800
9.963100 1.682500
9.987100 1.751900
10.011200 1.694100
10.035300 1.592500
10.059300 1.677200
10.083400 1.923700
10.107500 2.137900
10.131500 2.337800
10.155600 2.585600
10.179700 2.777400
10.203700 2.910900
10.227800 3.106200
10.251900 3.297600
10.275900 3.276600
10.300000 3.061200
10.324100 2.950300
10.348200 3.101200
10.372200 3.270100
10.396300 3.170900
10.420400 2.826200
10.444400 2.426800
10.468500 2.245800
10.492600 2.511200
10.516600 2.997800
10.540700 3.115500
10.564800 2.669600
10.588800 2.124700
10.612900 1.877400
10.637000 1.825000
10.661000 1.813300
10.685100 1.905800
10.709200 2.114700
10.733200 2.262000
10.757300 2.253400
10.781400 2.295000
10.805400 2.566300
10.829500 2.783400
10.853600 2.499600
10.877600 1.867800
10.901700 1.573300
10.925800 1.924200
10.949800 2.537400
10.973900 2.909800
10.998000 2.919200
11.022100 2.759000
11.046100 2.595400
11.070200 2.476200
11.094300 2.504400
11.118300 2.770300
11.142400 3.124300
11.166500 3.359000
11.190500 3.418600
11.214600 3.223400
11.238700 2.763100
11.262700 2.295600
11.286800 2.027200
11.310900 1.924600
11.334900 1.905300
11.359000 1.879700
11.383100 1.738400
11.407100 1.472600
11.431200 1.245800
11.455300 1.255800
11.479300 1.565200
11.503400 2.062200
11.527500 2.496000
11.551500 2.589200
11.575600 2.265100
11.599700 1.789700
11.623800 1.518000
11.647800 1.547800
11.671900 1.733700
11.696000 1.881500
11.720000 1.881300
11.744100 1.743800
11.768200 1.561200
11.792200 1.456600
11.816300 1.515000
11.840400 1.654000
11.864400 1.673900
11.888500 1.568700
11.912600 1.569400
11.936600 1.774700
11.960700 1.994400
11.984800 2.006500
12.008800 1.858900
12.032900 1.824600
12.057000 2.042800
12.081000 2.325100
12.105100 2.392300
12.129200 2.271400
12.153200 2.264400
12.177300 2.504500
12.201400 2.720400
12.225500 2.556600
12.249500 2.094800
12.273600 1.766500
12.297700 1.757500
12.321700 1.921000
12.345800 2.142800
12.369900 2.358800
12.393900 2.401700
12.418000 2.192200
12.442100 1.950000
12.466100 1.974700
12.490200 2.363000
12.514300 2.906800
12.538300 3.138600
12.562400 2.827700
12.586500 2.378400
12.610500 2.242600
12.634600 2.349900
12.658700 2.460400
12.682700 2.488900
12.706800 2.444600
12.730900 2.359700
12.754900 2.207500
12.779000 1.978600
12.803100 1.817500
12.827100 1.858600
12.851200 1.929000
12.875300 1.768100
12.899400 1.529900
12.923400 1.541000
12.947500 1.782800
12.971600 2.020300
12.995600 2.113700
13.019700 2.120700
13.043800 2.186800
13.067800 2.223700
13.091900 1.978300
13.116000 1.509200
13.140000 1.153300
13.164100 1.079400
13.188200 1.229300
13.212200 1.531700
13.236300 1.944700
13.260400 2.389200
13.284400 2.716100
13.308500 2.799300
13.332600 2.766000
13.356600 3.038200
13.380700 3.824600
13.404800 4.599000
13.428800 4.708000
13.452900 4.288500
13.477000 3.918200
13.501100 3.773500
13.525100 3.565500
13.549200 3.057500
13.573300 2.330300
13.597300 1.682000
13.621400 1.430100
13.645500 1.601700
13.669500 1.807700
13.693600 1.687100
13.717700 1.403400
13.741700 1.371300
13.765800 1.651400
13.789900 2.000900
13.813900 2.314400
13.838000 2.576100
13.862100 2.659800
13.886100 2.600100
13.910200 2.639900
13.934300 2.834100
13.958300 2.963500
13.982400 2.851500
14.006500 2.567700
14.030500 2.314100
14.054600 2.272000
14.078700 2.471000
14.102800 2.763100
14.126800 3.016900
14.150900 3.144000
14.175000 3.109200
14.199000 3.123300
14.223100 3.372600
14.247200 3.636600
14.271200 3.575300
14.295300 3.219700
14.319400 2.903400
14.343400 2.813600
14.367500 2.860500
14.391600 2.866200
14.415600 2.769900
14.439700 2.705300
14.463800 2.841200
14.487800 3.134700
14.511900 3.391300
14.536000 3.566800
14.560000 3.864100
14.584100 4.527400
14.608200 5.383700
14.632200 5.793600
14.656300 5.315500
14.680400 4.138300
14.704400 2.895300
14.728500 2.158300
14.752600 1.989700
14.776700 2.098400
14.800700 2.304000
14.824800 2.572900
14.848900 2.864800
14.872900 3.122500
14.897000 3.235300
14.921100 3.133600
14.945100 2.908500
14.969200 2.686500
14.993300 2.531800
15.017300 2.483200
15.041400 2.570500
15.065500 2.779200
15.089500 3.044700
15.113600 3.326300
15.137700 3.601900
15.161700 3.835300
15.185800 3.990300
15.209900 3.949700
15.233900 3.649400
15.258000 3.253300
15.282100 2.921400
15.306100 2.729000
15.330200 2.754800
15.354300 2.957200
15.378400 3.143300
15.402400 3.147800
15.426500 2.970300
15.450600 2.769600
15.474600 2.799400
15.498700 3.163200
15.522800 3.563800
15.546800 3.608600
15.570900 3.297300
15.595000 2.928100
15.619000 2.725500
15.643100 2.736700
15.667200 2.864500
15.691200 2.977500
15.715300 3.109000
15.739400 3.426100
15.763400 3.924300
15.787500 4.293300
15.811600 4.277000
15.835600 3.991400
15.859700 3.618100
15.883800 3.134100
15.907800 2.611700
15.931900 2.303900
15.956000 2.379300
15.980100 2.861100
16.004100 3.528400
16.028200 3.922700
16.052300 3.812700
16.076300 3.404900
16.100400 3.035500
16.124500 2.883900
16.148500 2.962900
16.172600 3.228800
16.196700 3.566300
16.220700 3.785000
16.244800 3.815600
16.268900 3.700800
16.292900 3.399600
16.317000 2.966300
16.341100 2.559300
16.365100 2.193400
16.389200 1.872100
16.413300 1.716200
16.437300 1.849100
16.461400 2.257800
16.485500 2.717400
16.509500 2.932200
16.533600 2.785000
16.557700 2.444400
16.581700 2.211800
16.605800 2.207000
16.629900 2.259100
16.654000 2.175400
16.678000 2.031300
16.702100 1.987600
16.726200 2.006700
16.750200 1.972000
16.774300 1.816400
16.798400 1.526000
16.822400 1.299200
16.846500 1.503400
16.870600 2.175500
16.894600 2.796200
16.918700 2.890000
16.942800 2.603900
16.966800 2.339400
16.990900 2.205100
17.015000 2.137800
17.039000 2.199500
17.063100 2.470700
17.087200 2.831900
17.111200 3.070600
17.135300 3.106900
17.159400 3.064500
17.183400 3.084100
17.207500 3.104600
17.231600 3.033100
17.255700 3.015000
17.279700 3.234200
17.303800 3.585300
17.327900 3.837700
17.351900 3.912100
17.376000 3.840900
17.400100 3.687700
17.424100 3.514500
17.448200 3.309200
17.472300 3.004400
17.496300 2.574400
17.520400 2.190400
17.544500 2.142200
17.568500 2.396500
17.592600 2.650400
17.616700 2.866300
17.640700 3.168400
17.664800 3.372700
17.688900 3.292600
17.712900 3.204900
17.737000 3.434800
17.761100 3.848900
17.785100 4.032100
17.809200 3.805500
17.833300 3.459800
17.857400 3.312200
17.881400 3.266700
17.905500 3.139300
17.929600 3.001900
17.953600 3.014700
17.977700 3.177600
18.001800 3.245600
18.025800 3.052700
18.049900 2.882400
18.074000 3.149100
18.098000 3.883700
18.122100 4.685200
18.146200 5.089200
18.170200 5.009300
18.194300 4.663100
18.218400 4.273800
18.242400 4.021100
18.266500 3.900400
18.290600 3.658000
18.314600 3.163600
18.338700 2.667000
18.362800 2.469100
18.386800 2.630800
18.410900 2.967900
18.435000 3.150700
18.459000 3.083600
18.483100 3.019600
18.507200 3.083200
18.531300 3.116600
18.555300 3.056600
18.579400 3.053600
18.603500 3.129300
18.627500 3.165200
18.651600 3.279600
18.675700 3.582200
18.699700 3.840700
18.723800 3.886900
18.747900 3.881600
18.771900 4.124000
18.796000 4.759300
18.820100 5.416000
18.844100 5.450500
18.868200 4.828800
18.892300 4.148300
18.916300 3.808000
18.940400 3.669900
18.964500 3.380600
18.988500 2.909700
19.012600 2.616600
19.036700 2.671600
19.060700 2.902400
19.084800 3.203400
19.108900 3.505700
19.133000 3.584900
19.157000 3.427000
19.181100 3.326700
19.205200 3.381200
19.229200 3.385500
19.253300 3.248900
19.277400 3.234000
19.301400 3.575700
19.325500 4.026400
19.349600 4.174900
19.373600 3.881600
19.397700 3.284400
19.421800 2.753200
19.445800 2.692200
19.469900 3.187800
19.494000 3.949100
19.518000 4.531800
19.542100 4.621100
19.566200 4.250700
19.590200 3.683300
19.614300 3.058200
19.638400 2.357500
19.662400 1.759500
19.686500 1.619700
19.710600 2.001100
19.734700 2.597200
19.758700 3.126800
19.782800 3.538300
19.806900 3.841500
19.830900 4.042300
19.855000 4.312000
19.879100 4.806500
19.903100 5.246100
19.927200 5.132200
19.951300 4.556600
19.975300 4.290500
19.999400 4.639100
20.023500 4.899100
20.047500 4.474400
20.071600 3.751200
20.095700 3.383300
20.119700 3.440900
20.143800 3.548700
20.167900 3.418900
20.191900 3.183100
20.216000 3.120400
20.240100 3.173300
20.264100 3.185300
20.288200 3.221600
20.312300 3.269100
20.336300 3.182200
20.360400 3.078200
20.384500 3.170000
20.408600 3.252900
20.432600 3.099100
20.456700 2.905100
20.480800 2.827500
20.504800 2.802700
20.528900 2.898000
20.553000 3.305500
20.577000 3.971700
20.601100 4.478100
20.625200 4.485700
20.649200 4.154800
20.673300 3.888200
20.697400 3.903900
20.721400 4.089300
20.745500 4.077400
20.769600 3.758700
20.793600 3.553200
20.817700 3.716800
20.841800 3.960400
20.865800 4.061200
20.889900 4.143500
20.914000 4.260900
20.938000 4.182300
20.962100 3.687800
20.986200 2.907700
21.010300 2.304900
21.034300 2.332700
21.058400 2.952200
21.082500 3.565000
21.106500 3.754800
21.130600 3.727500
21.154700 3.774700
21.178700 3.814500
21.202800 3.645200
21.226900 3.290900
21.250900 2.920900
21.275000 2.714200
21.299100 2.812300
21.323100 3.186800
21.347200 3.752200
21.371300 4.467900
21.395300 5.099900
21.419400 5.383800
21.443500 5.326200
21.467500 4.919200
21.491600 4.080700
21.515700 3.142200
21.539700 2.720000
21.563800 2.954700
21.587900 3.330500
21.612000 3.360000
21.636000 3.092500
21.660100 2.827900
21.684200 2.708700
21.708200 2.631000
21.732300 2.414300
21.756400 2.126400
21.780400 2.117800
21.804500 2.670500
21.828600 3.630100
21.852600 4.363700
21.876700 4.383300
21.900800 3.917000
21.924800 3.506400
21.948900 3.364400
21.973000 3.387200
21.997000 3.378800
22.021100 3.214700
22.045200 3.147900
22.069200 3.629600
22.093300 4.572500
22.117400 5.234000
22.141400 5.060000
22.165500 4.299000
22.189600 3.606800
22.213600 3.363100
22.237700 3.429900
22.261800 3.408900
22.285900 3.196800
22.309900 3.032900
22.334000 2.971500
22.358100 2.854300
22.382100 2.677700
22.406200 2.541900
22.430300 2.435700
22.454300 2.248000
22.478400 1.930800
22.502500 1.599600
22.526500 1.378500
22.550600 1.303700
22.574700 1.411400
22.598700 1.686100
22.622800 1.959900
22.646900 2.030000
22.670900 1.871900
22.695000 1.660800
22.719100 1.568600
22.743100 1.624300
22.767200 1.812200
22.791300 2.068300
22.815300 2.192200
22.839400 2.088300
22.863500 1.930100
22.887600 1.810400
22.911600 1.581200
22.935700 1.222500
22.959800 0.969700
22.983800 0.940800
23.007900 0.986300
23.032000 1.013100
23.056000 1.104800
23.080100 1.238600
23.104200 1.213600
23.128200 0.973400
23.152300 0.797500
23.176400 0.970600
23.200400 1.354000
23.224500 1.542600
23.248600 1.346500
23.272600 0.897300
23.296700 0.457500
23.320800 0.221800
23.344800 0.191600
23.368900 0.230000
23.393000 0.239100
23.417000 0.281300
23.441100 0.474800
23.465200 0.768200
23.489300 0.945700
23.513300 0.916700
23.537400 0.831700
23.561500 0.813900
23.585500 0.788100
23.609600 0.672300
23.633700 0.542100
23.657700 0.515600
23.681800 0.552800
23.705900 0.495200
23.729900 0.315100
23.754000 0.147800
23.778100 0.100100
23.802100 0.185800
23.826200 0.378600
23.850300 0.625100
23.874300 0.828100
23.898400 0.882600
23.922500 0.759200
23.946500 0.518500
23.970600 0.268900
23.994700 0.100700
24.018700 0.027600
24.042800 0.014500
24.066900 0.042400
24.090900 0.113300
24.115000 0.196300
24.139100 0.218600
24.163200 0.160100
24.187200 0.092000
24.211300 0.080200
24.235400 0.122500
24.259400 0.181900
24.283500 0.221500
24.307600 0.222800
24.331600 0.229800
24.355700 0.327800
24.379800 0.502100
24.403800 0.620300
24.427900 0.598800
24.452000 0.463300
24.476000 0.290800
24.500100 0.167100
24.524200 0.117800
24.548200 0.102700
24.572300 0.110400
24.596400 0.180400
24.620400 0.309500
24.644500 0.412400
24.668600 0.414200
24.692600 0.323200
24.716700 0.195300
24.740800 0.091700
24.764900 0.055800
24.788900 0.104400
24.813000 0.218500
24.837100 0.317700
24.861100 0.315600
24.885200 0.225600
24.909300 0.131900
24.933300 0.076700
24.957400 0.045000
24.981500 0.021700
25.005500 0.007300
25.029600 0.001600
25.053700 0.000200
25.077700 0.000000
25.101800 0.000000
25.125900 0.000000
25.149900 0.000000
25.174000 0.000000
25.198100 0.000000
25.222100 0.000000
25.246200 0.000000
25.270300 0.000000
25.294300 0.000000
25.318400 0.000000
25.342500 0.000000
25.366600 0.000000
25.390600 0.000000
25.414700 0.000000
25.438800 0.000000
25.462800 0.000000
25.486900 0.000400
25.511000 0.002500
25.535000 0.009900
25.559100 0.025200
25.583200 0.041000
25.607200 0.042700
25.631300 0.028400
25.655400 0.012100
25.679400 0.003300
25.703500 0.000600
25.727600 0.000100
25.751600 0.000000
25.775700 0.000000
25.799800 0.000000
25.823800 0.000000
25.847900 0.000000
25.872000 0.000000
25.896000 0.000000
25.920100 0.000000
25.944200 0.000000
25.968200 0.000000
25.992300 0.000000
26.016400 0.000000
26.040500 0.000000
26.064500 0.000000
26.088600 0.000000
26.112700 0.000000
26.136700 0.000000
26.160800 0.000000
26.184900 0.000000
26.208900 0.000000
26.233000 0.000000
26.257100 0.000000
26.281100 0.000000
26.305200 0.000000
26.329300 0.000000
26.353300 0.000000
26.377400 0.000000
26.401500 0.000000
26.425500 0.000000
26.449600 0.000000
26.473700 0.000000
26.497700 0.000000
26.521800 0.000000
26.545900 0.000000
26.569900 0.000000
26.594000 0.000000
26.618100 0.000000
26.642200 0.000000
26.666200 0.000000
26.690300 0.000000
26.714400 0.000000
26.738400 0.000000
26.762500 0.000000
26.786600 0.000000
26.810600 0.000000
26.834700 0.000000
26.858800 0.000000
26.882800 0.000000
26.906900 0.000000
26.931000 0.000000
26.955000 0.000000
26.979100 0.000000
27.003200 0.000000
27.027200 0.000000
27.051300 0.000000
27.075400 0.000000
27.099400 0.000000
27.123500 0.000000
27.147600 0.000000
27.171600 0.000000
27.195700 0.000000
27.219800 0.000000
27.243900 0.000000
27.267900 0.000000
27.292000 0.000000
27.316100 0.000000
27.340100 0.000000
27.364200 0.000000
27.388300 0.000000
27.412300 0.000000
27.436400 0.000000
27.460500 0.000000
27.484500 0.000000
27.508600 0.000000
27.532700 0.000000
27.556700 0.000000
27.580800 0.000000
27.604900 0.000000
27.628900 0.000000
27.653000 0.000000
27.677100 0.000000
27.701100 0.000000
27.725200 0.000000
27.749300 0.000000
27.773300 0.000000
e
