set title 'mp-6949 - Density of States'
set xlabel 'Energy (eV)'
set ylabel 'DOS (states/eV)'
set grid
set xrange [-10:10]
set yrange [0:77.976]
set xzeroaxis lt -1
set terminal png size 800,600
set output 'mp-6949_dos_gnuplot.png'
plot '-' using 1:2 with lines title 'DOS'
-24.506000 0.000000
-24.477200 0.000000
-24.448300 0.000000
-24.419500 0.000000
-24.390700 0.000000
-24.361800 0.000000
-24.333000 0.000000
-24.304100 0.000000
-24.275300 0.000000
-24.246500 0.000000
-24.217600 0.000000
-24.188800 0.000000
-24.159900 0.000000
-24.131100 0.000000
-24.102300 0.000000
-24.073400 0.000000
-24.044600 0.000000
-24.015700 0.000000
-23.986900 0.000000
-23.958100 0.000000
-23.929200 0.000000
-23.900400 0.000000
-23.871500 0.000000
-23.842700 0.000000
-23.813900 0.000000
-23.785000 0.000000
-23.756200 0.000000
-23.727300 0.000000
-23.698500 0.000000
-23.669700 0.000000
-23.640800 0.000000
-23.612000 0.000000
-23.583100 0.000000
-23.554300 0.000000
-23.525500 0.000000
-23.496600 0.000000
-23.467800 0.000000
-23.438900 0.000000
-23.410100 0.000000
-23.381300 0.000000
-23.352400 0.000000
-23.323600 0.000000
-23.294700 0.000000
-23.265900 0.000000
-23.237100 0.000000
-23.208200 0.000000
-23.179400 0.000000
-23.150500 0.000000
-23.121700 0.000000
-23.092900 0.000000
-23.064000 0.000000
-23.035200 0.000000
-23.006300 0.000000
-22.977500 0.000000
-22.948700 0.000000
-22.919800 0.000000
-22.891000 0.000000
-22.862100 0.000000
-22.833300 0.000000
-22.804500 0.000000
-22.775600 0.000000
-22.746800 0.000000
-22.717900 0.000000
-22.689100 0.000000
-22.660300 0.000000
-22.631400 0.000000
-22.602600 0.000000
-22.573700 0.000000
-22.544900 0.000000
-22.516100 0.000000
-22.487200 0.000000
-22.458400 0.000000
-22.429500 0.000000
-22.400700 0.000000
-22.371900 0.000000
-22.343000 0.000000
-22.314200 0.000000
-22.285300 0.000000
-22.256500 0.000000
-22.227700 0.000000
-22.198800 0.000000
-22.170000 0.000000
-22.141100 0.000000
-22.112300 0.000000
-22.083500 0.000000
-22.054600 0.000000
-22.025800 0.000000
-21.996900 0.000000
-21.968100 0.000000
-21.939300 0.000000
-21.910400 0.000000
-21.881600 0.011300
-21.852700 1.632700
-21.823900 3.491800
-21.795100 5.100600
-21.766200 6.954100
-21.737400 12.245900
-21.708500 17.543800
-21.679700 20.293500
-21.650900 0.000000
-21.622000 24.491700
-21.593200 17.758500
-21.564300 11.194600
-21.535500 12.235500
-21.506700 24.183000
-21.477800 16.272400
-21.449000 49.789400
-21.420100 132.830900
-21.391300 24.039100
-21.362500 0.000000
-21.333600 0.000000
-21.304800 0.000000
-21.275900 0.000000
-21.247100 0.000000
-21.218300 0.000000
-21.189400 0.000000
-21.160600 0.000000
-21.131700 0.000000
-21.102900 0.000000
-21.074100 0.000000
-21.045200 0.000000
-21.016400 0.000000
-20.987500 0.000000
-20.958700 0.000000
-20.929900 0.000000
-20.901000 0.000000
-20.872200 0.000000
-20.843300 0.000000
-20.814500 0.000000
-20.785700 0.000000
-20.756800 0.000000
-20.728000 0.000000
-20.699100 0.000000
-20.670300 0.000000
-20.641500 0.000000
-20.612600 0.000000
-20.583800 0.000000
-20.554900 0.000000
-20.526100 0.000000
-20.497300 0.000000
-20.468400 0.000000
-20.439600 0.000000
-20.410700 0.000000
-20.381900 0.000000
-20.353100 0.000000
-20.324200 0.000000
-20.295400 0.000000
-20.266500 0.000000
-20.237700 0.000000
-20.208900 0.000000
-20.180000 0.000000
-20.151200 0.000000
-20.122300 0.000000
-20.093500 0.000000
-20.064700 0.000000
-20.035800 0.000000
-20.007000 0.000000
-19.978100 0.000000
-19.949300 0.000000
-19.920500 0.000000
-19.891600 0.000000
-19.862800 0.000000
-19.833900 0.000000
-19.805100 0.000000
-19.776300 0.000000
-19.747400 0.000000
-19.718600 0.000000
-19.689700 0.000000
-19.660900 0.000000
-19.632100 0.000000
-19.603200 0.000000
-19.574400 0.000000
-19.545500 0.000000
-19.516700 0.000000
-19.487900 0.000000
-19.459000 0.000000
-19.430200 0.000000
-19.401300 0.000000
-19.372500 0.000000
-19.343700 0.000000
-19.314800 0.000000
-19.286000 0.000000
-19.257100 0.000000
-19.228300 0.000000
-19.199400 0.000000
-19.170600 0.000000
-19.141800 0.000000
-19.112900 0.000000
-19.084100 0.000000
-19.055200 0.000000
-19.026400 0.000000
-18.997600 0.000000
-18.968700 0.000000
-18.939900 0.000000
-18.911000 0.000000
-18.882200 0.000000
-18.853400 0.000000
-18.824500 0.000000
-18.795700 0.000000
-18.766800 0.000000
-18.738000 0.000000
-18.709200 0.000000
-18.680300 0.000000
-18.651500 0.000000
-18.622600 0.000000
-18.593800 0.000000
-18.565000 0.000000
-18.536100 0.000000
-18.507300 0.000000
-18.478400 0.000000
-18.449600 0.000000
-18.420800 0.000000
-18.391900 0.000000
-18.363100 0.000000
-18.334200 0.000000
-18.305400 0.000000
-18.276600 0.000000
-18.247700 0.000000
-18.218900 0.000000
-18.190000 0.000000
-18.161200 0.000000
-18.132400 0.000000
-18.103500 0.000000
-18.074700 0.000000
-18.045800 0.000000
-18.017000 0.000000
-17.988200 0.000000
-17.959300 0.000000
-17.930500 0.000000
-17.901600 0.000000
-17.872800 0.000000
-17.844000 0.000000
-17.815100 0.000000
-17.786300 0.000000
-17.757400 0.000000
-17.728600 0.000000
-17.699800 0.000000
-17.670900 0.000000
-17.642100 0.000000
-17.613200 0.000000
-17.584400 0.000000
-17.555600 0.000000
-17.526700 0.000000
-17.497900 0.000000
-17.469000 0.000000
-17.440200 0.000000
-17.411400 0.000000
-17.382500 0.000000
-17.353700 0.000000
-17.324800 0.000000
-17.296000 0.000000
-17.267200 0.000000
-17.238300 0.000000
-17.209500 0.000000
-17.180600 0.000000
-17.151800 0.000000
-17.123000 0.000000
-17.094100 0.000000
-17.065300 0.000000
-17.036400 0.000000
-17.007600 0.000000
-16.978800 0.000000
-16.949900 0.000000
-16.921100 0.000000
-16.892200 0.000000
-16.863400 0.000000
-16.834600 0.000000
-16.805700 0.000000
-16.776900 0.000000
-16.748000 0.000000
-16.719200 0.000000
-16.690400 0.000000
-16.661500 0.000000
-16.632700 0.000000
-16.603800 0.000000
-16.575000 0.000000
-16.546200 0.000000
-16.517300 0.000000
-16.488500 0.000000
-16.459600 0.000000
-16.430800 0.000000
-16.402000 0.000000
-16.373100 0.000000
-16.344300 0.000000
-16.315400 0.000000
-16.286600 0.000000
-16.257800 0.000000
-16.228900 0.000000
-16.200100 0.000000
-16.171200 0.000000
-16.142400 0.000000
-16.113600 0.000000
-16.084700 0.000000
-16.055900 0.000000
-16.027000 0.000000
-15.998200 0.000000
-15.969400 0.000000
-15.940500 0.000000
-15.911700 0.000000
-15.882800 0.000000
-15.854000 0.000000
-15.825200 0.000000
-15.796300 0.000000
-15.767500 0.000000
-15.738600 0.000000
-15.709800 0.000000
-15.681000 0.000000
-15.652100 0.000000
-15.623300 0.000000
-15.594400 0.000000
-15.565600 0.000000
-15.536800 0.000000
-15.507900 0.000000
-15.479100 0.000000
-15.450200 0.000000
-15.421400 0.000000
-15.392600 0.000000
-15.363700 0.000000
-15.334900 0.000000
-15.306000 0.000000
-15.277200 0.000000
-15.248400 0.000000
-15.219500 0.000000
-15.190700 0.000000
-15.161800 0.000000
-15.133000 0.000000
-15.104200 0.000000
-15.075300 0.000000
-15.046500 0.000000
-15.017600 0.000000
-14.988800 0.000000
-14.960000 0.000000
-14.931100 0.000000
-14.902300 0.000000
-14.873400 0.000000
-14.844600 0.000000
-14.815800 0.000000
-14.786900 0.000000
-14.758100 0.000000
-14.729200 0.000000
-14.700400 0.000000
-14.671600 0.000000
-14.642700 0.000000
-14.613900 0.000000
-14.585000 0.000000
-14.556200 0.000000
-14.527400 0.000000
-14.498500 0.000000
-14.469700 0.000000
-14.440800 0.000000
-14.412000 0.000000
-14.383200 0.000000
-14.354300 0.000000
-14.325500 0.000000
-14.296600 0.000000
-14.267800 0.000000
-14.239000 0.000000
-14.210100 0.000000
-14.181300 0.000000
-14.152400 0.000000
-14.123600 0.000000
-14.094800 0.000000
-14.065900 0.000000
-14.037100 0.000000
-14.008200 0.000000
-13.979400 0.000000
-13.950600 0.000000
-13.921700 0.000000
-13.892900 0.000000
-13.864000 0.000000
-13.835200 0.000000
-13.806400 0.000000
-13.777500 0.000000
-13.748700 0.000000
-13.719800 0.000000
-13.691000 0.000000
-13.662200 0.000000
-13.633300 0.000000
-13.604500 0.000000
-13.575600 0.000000
-13.546800 0.000000
-13.518000 0.000000
-13.489100 0.000000
-13.460300 0.000000
-13.431400 0.000000
-13.402600 0.000000
-13.373800 0.000000
-13.344900 0.000000
-13.316100 0.000000
-13.287200 0.000000
-13.258400 0.000000
-13.229600 0.000000
-13.200700 0.000000
-13.171900 0.000000
-13.143000 0.000000
-13.114200 0.000000
-13.085400 0.000000
-13.056500 0.000000
-13.027700 0.000000
-12.998800 0.000000
-12.970000 0.000000
-12.941200 0.000000
-12.912300 0.000000
-12.883500 0.000000
-12.854600 2.561500
-12.825800 7.020200
-12.797000 12.229400
-12.768100 11.844100
-12.739300 9.989400
-12.710400 9.435500
-12.681600 8.210300
-12.652800 6.313300
-12.623900 6.554000
-12.595100 12.744500
-12.566200 14.164100
-12.537400 15.970700
-12.508600 9.701500
-12.479700 4.773600
-12.450900 1.187000
-12.422000 36.515300
-12.393200 80.553000
-12.364400 103.658200
-12.335500 113.592800
-12.306700 11.204800
-12.277800 8.961700
-12.249000 16.287700
-12.220200 81.497800
-12.191300 4.316000
-12.162500 3.737000
-12.133600 5.032700
-12.104800 6.043900
-12.076000 6.771200
-12.047100 7.215200
-12.018300 7.376200
-11.989400 8.355800
-11.960600 8.006800
-11.931800 9.424300
-11.902900 6.754500
-11.874100 4.270600
-11.845200 1.972400
-11.816400 0.000000
-11.787600 0.000000
-11.758700 0.000000
-11.729900 0.000000
-11.701000 0.000000
-11.672200 0.000000
-11.643400 0.000000
-11.614500 0.000000
-11.585700 0.000000
-11.556800 0.000000
-11.528000 0.000000
-11.499200 0.000000
-11.470300 0.000000
-11.441500 0.000000
-11.412600 0.000000
-11.383800 0.000000
-11.355000 0.000000
-11.326100 0.000000
-11.297300 0.000000
-11.268400 0.000000
-11.239600 0.000000
-11.210800 0.000000
-11.181900 0.000000
-11.153100 0.000000
-11.124200 0.000000
-11.095400 0.000000
-11.066600 0.000000
-11.037700 0.000000
-11.008900 0.000000
-10.980000 0.000000
-10.951200 0.000000
-10.922400 0.000000
-10.893500 0.000000
-10.864700 0.000000
-10.835800 0.000000
-10.807000 0.000000
-10.778200 0.000000
-10.749300 0.000000
-10.720500 0.000000
-10.691600 0.000000
-10.662800 0.000000
-10.634000 0.000000
-10.605100 0.000000
-10.576300 0.000000
-10.547400 0.000000
-10.518600 0.000000
-10.489800 0.000000
-10.460900 0.000000
-10.432100 0.000000
-10.403200 0.000000
-10.374400 0.000000
-10.345600 0.000000
-10.316700 0.000000
-10.287900 0.000000
-10.259000 0.000000
-10.230200 0.000000
-10.201400 0.000000
-10.172500 0.000000
-10.143700 0.000000
-10.114800 0.000000
-10.086000 0.000000
-10.057200 0.000000
-10.028300 0.000000
-9.999500 0.000000
-9.970600 0.000000
-9.941800 0.000000
-9.912900 0.000000
-9.884100 0.000000
-9.855300 0.000000
-9.826400 0.000000
-9.797600 0.000000
-9.768700 0.000000
-9.739900 0.000000
-9.711100 0.000000
-9.682200 0.000000
-9.653400 0.000000
-9.624500 0.000000
-9.595700 0.000000
-9.566900 0.000000
-9.538000 0.000000
-9.509200 0.000000
-9.480300 0.000000
-9.451500 0.000000
-9.422700 0.000000
-9.393800 0.000000
-9.365000 0.000000
-9.336100 0.000000
-9.307300 0.000000
-9.278500 0.000000
-9.249600 0.000000
-9.220800 0.000000
-9.191900 0.000000
-9.163100 0.000000
-9.134300 0.000000
-9.105400 0.000000
-9.076600 0.000000
-9.047700 0.000000
-9.018900 0.000000
-8.990100 0.000000
-8.961200 0.000000
-8.932400 0.000000
-8.903500 0.000000
-8.874700 0.000000
-8.845900 0.000000
-8.817000 0.000000
-8.788200 0.000000
-8.759300 0.000000
-8.730500 0.000000
-8.701700 0.000000
-8.672800 0.000000
-8.644000 0.000000
-8.615100 0.000000
-8.586300 0.000000
-8.557500 0.000000
-8.528600 0.000000
-8.499800 0.000000
-8.470900 0.000000
-8.442100 0.000000
-8.413300 0.000000
-8.384400 0.000000
-8.355600 0.000000
-8.326700 0.000000
-8.297900 0.000000
-8.269100 0.000000
-8.240200 0.000000
-8.211400 0.000000
-8.182500 0.000000
-8.153700 0.000000
-8.124900 0.000000
-8.096000 0.000000
-8.067200 0.000000
-8.038300 0.000000
-8.009500 0.000000
-7.980700 0.000000
-7.951800 0.000000
-7.923000 0.000000
-7.894100 0.000000
-7.865300 0.000000
-7.836500 0.000000
-7.807600 0.000000
-7.778800 0.000000
-7.749900 0.000000
-7.721100 0.000000
-7.692300 0.000000
-7.663400 0.000000
-7.634600 0.000000
-7.605700 0.000000
-7.576900 0.000000
-7.548100 0.000000
-7.519200 0.000000
-7.490400 0.000000
-7.461500 0.000000
-7.432700 0.000000
-7.403900 0.000000
-7.375000 0.000000
-7.346200 0.000000
-7.317300 0.000000
-7.288500 0.000000
-7.259700 0.000000
-7.230800 0.000000
-7.202000 0.000000
-7.173100 0.000000
-7.144300 0.000000
-7.115500 0.000000
-7.086600 0.000000
-7.057800 0.000000
-7.028900 0.000000
-7.000100 0.000000
-6.971300 0.000000
-6.942400 0.000000
-6.913600 0.000000
-6.884700 0.000000
-6.855900 0.000000
-6.827100 0.000000
-6.798200 0.000000
-6.769400 0.010600
-6.740500 0.071900
-6.711700 0.188000
-6.682900 0.358700
-6.654000 0.584000
-6.625200 0.808000
-6.596300 0.773900
-6.567500 0.768700
-6.538700 0.828200
-6.509800 0.891700
-6.481000 0.957900
-6.452100 1.026800
-6.423300 1.098400
-6.394500 1.172700
-6.365600 1.249200
-6.336800 1.322200
-6.307900 1.387200
-6.279100 1.439800
-6.250300 1.480000
-6.221400 1.507800
-6.192600 1.529600
-6.163700 1.667400
-6.134900 1.805800
-6.106100 1.940100
-6.077200 2.083500
-6.048400 2.211100
-6.019500 2.318700
-5.990700 2.406100
-5.961900 2.473500
-5.933000 2.520800
-5.904200 2.558100
-5.875300 2.613300
-5.846500 2.630700
-5.817700 2.956600
-5.788800 3.438000
-5.760000 3.490800
-5.731100 5.070800
-5.702300 3.855100
-5.673500 2.402800
-5.644600 1.210100
-5.615800 0.435300
-5.586900 1.783300
-5.558100 1.446200
-5.529300 1.307800
-5.500400 1.767900
-5.471600 2.184100
-5.442700 2.457600
-5.413900 2.588500
-5.385100 2.709200
-5.356200 2.871900
-5.327400 3.006600
-5.298500 3.113200
-5.269700 3.191600
-5.240900 4.974300
-5.212000 3.606200
-5.183200 2.926000
-5.154300 2.730200
-5.125500 2.432600
-5.096700 2.168900
-5.067800 2.040600
-5.039000 1.878800
-5.010100 1.757400
-4.981300 1.723200
-4.952500 1.695800
-4.923600 1.657900
-4.894800 1.584900
-4.865900 1.501900
-4.837100 1.408900
-4.808300 1.305800
-4.779400 1.192700
-4.750600 1.069500
-4.721700 0.924000
-4.692900 0.713300
-4.664100 0.450300
-4.635200 0.314900
-4.606400 0.356900
-4.577500 0.579800
-4.548700 0.996200
-4.519900 1.606500
-4.491000 2.404800
-4.462200 3.091300
-4.433300 3.870100
-4.404500 5.858300
-4.375700 10.469900
-4.346800 8.997200
-4.318000 6.969400
-4.289100 6.128100
-4.260300 5.835700
-4.231500 5.623700
-4.202600 5.372400
-4.173800 5.120800
-4.144900 4.884500
-4.116100 4.736800
-4.087300 4.870800
-4.058400 5.223100
-4.029600 4.915000
-4.000700 4.849200
-3.971900 5.884400
-3.943100 5.223400
-3.914200 5.180300
-3.885400 5.175200
-3.856500 4.880400
-3.827700 4.762100
-3.798900 3.940600
-3.770000 2.417000
-3.741200 0.970500
-3.712300 1.022400
-3.683500 1.213100
-3.654700 1.457500
-3.625800 1.755800
-3.597000 2.107800
-3.568100 2.513500
-3.539300 2.973100
-3.510500 3.486400
-3.481600 5.312900
-3.452800 6.118600
-3.423900 5.366600
-3.395100 4.423700
-3.366300 3.633700
-3.337400 3.289600
-3.308600 2.898400
-3.279700 2.460300
-3.250900 1.975100
-3.222100 2.109700
-3.193200 2.209900
-3.164400 3.087900
-3.135500 5.011700
-3.106700 6.255600
-3.077900 7.255100
-3.049000 8.597200
-3.020200 15.618900
-2.991300 8.932900
-2.962500 70.886900
-2.933700 22.720200
-2.904800 25.134100
-2.876000 20.925200
-2.847100 21.478100
-2.818300 13.317900
-2.789500 10.741200
-2.760600 9.510500
-2.731800 5.089900
-2.702900 4.326600
-2.674100 5.882500
-2.645300 8.221300
-2.616400 9.852600
-2.587600 13.079600
-2.558700 20.072600
-2.529900 12.727000
-2.501100 4.406700
-2.472200 16.137400
-2.443400 17.525500
-2.414500 23.735500
-2.385700 16.374800
-2.356900 8.689600
-2.328000 18.866500
-2.299200 23.002900
-2.270300 15.900700
-2.241500 15.798300
-2.212700 22.078700
-2.183800 18.233100
-2.155000 35.061700
-2.126100 40.834700
-2.097300 18.972400
-2.068500 39.465100
-2.039600 32.829200
-2.010800 34.829200
-1.981900 36.766400
-1.953100 9.846200
-1.924300 51.009200
-1.895400 19.487800
-1.866600 30.878200
-1.837700 29.584400
-1.808900 3.485500
-1.780100 0.000000
-1.751200 0.000000
-1.722400 0.000000
-1.693500 0.000000
-1.664700 0.000000
-1.635900 0.000000
-1.607000 0.000000
-1.578200 0.000000
-1.549300 0.000000
-1.520500 0.000000
-1.491700 0.000000
-1.462800 0.000000
-1.434000 0.000000
-1.405100 0.000000
-1.376300 0.000000
-1.347500 0.000000
-1.318600 0.000000
-1.289800 0.000000
-1.260900 0.000000
-1.232100 0.000000
-1.203300 0.000000
-1.174400 0.000000
-1.145600 0.000000
-1.116700 0.000000
-1.087900 0.000000
-1.059100 0.000000
-1.030200 0.000000
-1.001400 0.000000
-0.972500 0.000000
-0.943700 0.000000
-0.914900 0.000000
-0.886000 0.000000
-0.857200 0.000000
-0.828300 0.000000
-0.799500 0.000000
-0.770700 0.000000
-0.741800 0.000000
-0.713000 0.000000
-0.684100 0.000000
-0.655300 0.000000
-0.626400 0.000000
-0.597600 0.000000
-0.568800 0.000000
-0.539900 0.000000
-0.511100 0.000000
-0.482200 0.000000
-0.453400 0.000000
-0.424600 0.000000
-0.395700 0.000000
-0.366900 0.000000
-0.338000 0.000000
-0.309200 0.000000
-0.280400 0.000000
-0.251500 0.000000
-0.222700 0.000000
-0.193800 0.000000
-0.165000 0.000000
-0.136200 0.000000
-0.107300 0.000000
-0.078500 0.000000
-0.049600 0.000000
-0.020800 0.000000
0.008000 0.000000
0.036900 0.000000
0.065700 0.000000
0.094600 0.000000
0.123400 0.000000
0.152200 0.000000
0.181100 0.000000
0.209900 0.000000
0.238800 0.000000
0.267600 0.000000
0.296400 0.000000
0.325300 0.000000
0.354100 0.000000
0.383000 0.000000
0.411800 0.000000
0.440600 0.000000
0.469500 0.000000
0.498300 0.000000
0.527200 0.000000
0.556000 0.000000
0.584800 0.000000
0.613700 0.000000
0.642500 0.000000
0.671400 0.000000
0.700200 0.000000
0.729000 0.000000
0.757900 0.000000
0.786700 0.000000
0.815600 0.000000
0.844400 0.000000
0.873200 0.000000
0.902100 0.000000
0.930900 0.000000
0.959800 0.000000
0.988600 0.000000
1.017400 0.000000
1.046300 0.000000
1.075100 0.000000
1.104000 0.000000
1.132800 0.000000
1.161600 0.000000
1.190500 0.000000
1.219300 0.000000
1.248200 0.000000
1.277000 0.000000
1.305800 0.000000
1.334700 0.000000
1.363500 0.000000
1.392400 0.000000
1.421200 0.000000
1.450000 0.000000
1.478900 0.000000
1.507700 0.000000
1.536600 0.000000
1.565400 0.000000
1.594200 0.000000
1.623100 0.000000
1.651900 0.000000
1.680800 0.000000
1.709600 0.000000
1.738400 0.000000
1.767300 0.000000
1.796100 0.000000
1.825000 0.000000
1.853800 0.000000
1.882600 0.000000
1.911500 0.000000
1.940300 0.000000
1.969200 0.000000
1.998000 0.000000
2.026800 0.000000
2.055700 0.000000
2.084500 0.000000
2.113400 0.000000
2.142200 0.000000
2.171000 0.000000
2.199900 0.000000
2.228700 0.000000
2.257600 0.001100
2.286400 0.004000
2.315200 0.008600
2.344100 0.014900
2.372900 0.023000
2.401800 0.032800
2.430600 0.044400
2.459400 0.057700
2.488300 0.072700
2.517100 0.089500
2.546000 0.108100
2.574800 0.128400
2.603600 0.150400
2.632500 0.174200
2.661300 0.199700
2.690200 0.227000
2.719000 0.256000
2.747800 0.281100
2.776700 0.276700
2.805500 0.275200
2.834400 0.276800
2.863200 0.281400
2.892000 0.289000
2.920900 0.299300
2.949700 0.310000
2.978600 0.320900
3.007400 0.331900
3.036200 0.343000
3.065100 0.354200
3.093900 0.365500
3.122800 0.377000
3.151600 0.388600
3.180400 0.400200
3.209300 0.412000
3.238100 0.424000
3.267000 0.436000
3.295800 0.448100
3.324600 0.460400
3.353500 0.472800
3.382300 0.485300
3.411200 0.497900
3.440000 0.510700
3.468800 0.523500
3.497700 0.536600
3.526500 0.550000
3.555400 0.563900
3.584200 0.578000
3.613000 0.592600
3.641900 0.607500
3.670700 0.622900
3.699600 0.638500
3.728400 0.654600
3.757200 0.671000
3.786100 0.687800
3.814900 0.705000
3.843800 0.722800
3.872600 0.742500
3.901400 0.765700
3.930300 0.792900
3.959100 0.827000
3.988000 0.870300
4.016800 0.919800
4.045600 0.967400
4.074500 1.012900
4.103300 1.056500
4.132200 1.098100
4.161000 1.137700
4.189800 1.175400
4.218700 1.211000
4.247500 1.244600
4.276400 1.278500
4.305200 1.326800
4.334000 1.369700
4.362900 1.407200
4.391700 1.439200
4.420600 1.465800
4.449400 1.487000
4.478200 1.502700
4.507100 1.513000
4.535900 1.517800
4.564800 1.517300
4.593600 1.511200
4.622400 1.499800
4.651300 1.482900
4.680100 7.060700
4.709000 8.021800
4.737800 3.428600
4.766600 0.997100
4.795500 0.005800
4.824300 0.000000
4.853200 0.000000
4.882000 0.000000
4.910800 0.000000
4.939700 0.000000
4.968500 0.000000
4.997400 0.000000
5.026200 0.000000
5.055000 0.008300
5.083900 0.157800
5.112700 0.419700
5.141600 0.680400
5.170400 0.912500
5.199200 1.115800
5.228100 1.290400
5.256900 1.436300
5.285800 1.553500
5.314600 1.642000
5.343400 1.701700
5.372300 1.732700
5.401100 1.757500
5.430000 1.765000
5.458800 1.774900
5.487600 1.810400
5.516500 1.836900
5.545300 2.818700
5.574200 2.443300
5.603000 2.124100
5.631800 1.861000
5.660700 1.654000
5.689500 1.503100
5.718400 1.474800
5.747200 1.470500
5.776000 1.463400
5.804900 1.453600
5.833700 1.441000
5.862600 1.425600
5.891400 1.407500
5.920200 1.386600
5.949100 1.362900
5.977900 1.336500
6.006800 1.300700
6.035600 1.203100
6.064400 1.091700
6.093300 0.994800
6.122100 0.912500
6.151000 0.844700
6.179800 0.791400
6.208600 0.746200
6.237500 0.703800
6.266300 0.664200
6.295200 0.627500
6.324000 0.597400
6.352800 0.578800
6.381700 0.560300
6.410500 0.542200
6.439400 0.524300
6.468200 0.506800
6.497000 0.489400
6.525900 0.472400
6.554700 0.455600
6.583600 0.439100
6.612400 0.422900
6.641200 0.406900
6.670100 0.391200
6.698900 0.375800
6.727800 0.360700
6.756600 0.345800
6.785400 0.331200
6.814300 0.314700
6.843100 0.292100
6.872000 0.257300
6.900800 0.225100
6.929600 0.207900
6.958500 0.191400
6.987300 0.175600
7.016200 0.160400
7.045000 0.146000
7.073800 0.132200
7.102700 0.119100
7.131500 0.106700
7.160400 0.095000
7.189200 0.083900
7.218000 0.073600
7.246900 0.063900
7.275700 0.054900
7.304600 0.046600
7.333400 0.039000
7.362200 0.032000
7.391100 0.025800
7.419900 0.020200
7.448800 0.015300
7.477600 0.011000
7.506400 0.007500
7.535300 0.004600
7.564100 0.002500
7.593000 0.001000
7.621800 0.000200
7.650600 0.000000
7.679500 0.000000
7.708300 0.000000
7.737200 0.000000
7.766000 0.000000
7.794800 0.000000
7.823700 0.000000
7.852500 0.000000
7.881400 0.000000
7.910200 0.000000
7.939000 0.000000
7.967900 0.000000
7.996700 0.000000
8.025600 0.000000
8.054400 0.405700
8.083200 1.086700
8.112100 1.177600
8.140900 0.940100
8.169800 1.068100
8.198600 1.220300
8.227400 1.396900
8.256300 1.597700
8.285100 1.812500
8.314000 1.935400
8.342800 2.019000
8.371600 2.063300
8.400500 2.068200
8.429300 2.033700
8.458200 2.170000
8.487000 2.344500
8.515800 2.541600
8.544700 3.398700
8.573500 3.262400
8.602400 3.204700
8.631200 3.370600
8.660000 3.512000
8.688900 3.625700
8.717700 3.711800
8.746600 3.770200
8.775400 3.995800
8.804300 4.262000
8.833100 4.496300
8.861900 5.049500
8.890800 4.321300
8.919600 3.788900
8.948500 3.811700
8.977300 3.886900
9.006100 3.913800
9.035000 3.891100
9.063800 3.818800
9.092700 3.710500
9.121500 3.626000
9.150300 3.796400
9.179200 3.832600
9.208000 3.841700
9.236900 3.864300
9.265700 3.900200
9.294500 3.924000
9.323400 3.865500
9.352200 3.758200
9.381100 3.609700
9.409900 3.414600
9.438700 3.187700
9.467600 2.957200
9.496400 2.748400
9.525300 2.778800
9.554100 2.918700
9.582900 3.076700
9.611800 3.254900
9.640600 3.451800
9.669500 3.665600
9.698300 3.896300
9.727100 4.174900
9.756000 4.401300
9.784800 4.319300
9.813700 3.903800
9.842500 3.193500
9.871300 2.846800
9.900200 1.744400
9.929000 1.442900
9.957900 1.181200
9.986700 0.956200
10.015500 0.765200
10.044400 0.608200
10.073200 0.485200
10.102100 0.396300
10.130900 0.341400
10.159700 0.314600
10.188600 0.311000
10.217400 0.324200
10.246300 0.398200
10.275100 0.559200
10.303900 0.814000
10.332800 1.141000
10.361600 1.168600
10.390500 1.145500
10.419300 1.149800
10.448100 1.219800
10.477000 1.354700
10.505800 1.484700
10.534700 1.599600
10.563500 1.709400
10.592300 1.884500
10.621200 3.260400
10.650000 4.220600
10.678900 3.762200
10.707700 3.647400
10.736500 3.581800
10.765400 3.514500
10.794200 3.460000
10.823100 3.418300
10.851900 3.389600
10.880700 3.388300
10.909600 3.425400
10.938400 3.649000
10.967300 3.928300
10.996100 4.127300
11.024900 4.226000
11.053800 4.224500
11.082600 4.117000
11.111500 3.970900
11.140300 3.806300
11.169100 3.722100
11.198000 3.661100
11.226800 3.599600
11.255700 3.389600
11.284500 3.140200
11.313300 3.067300
11.342200 3.035200
11.371000 3.108100
11.399900 3.171700
11.428700 3.223600
11.457500 3.487300
11.486400 3.809200
11.515200 4.120500
11.544100 4.428200
11.572900 4.836500
11.601700 5.233700
11.630600 6.088400
11.659400 5.955800
11.688300 5.733800
11.717100 5.422000
11.745900 5.156900
11.774800 5.094000
11.803600 5.089400
11.832500 5.344000
11.861300 6.051300
11.890100 6.328700
11.919000 6.263400
11.947800 6.263300
11.976700 5.899400
12.005500 3.672100
12.034300 3.212800
12.063200 2.901600
12.092000 2.727700
12.120900 2.651800
12.149700 2.800300
12.178500 3.057400
12.207400 3.325200
12.236200 4.474900
12.265100 6.949400
12.293900 7.231500
12.322700 5.808100
12.351600 4.091300
12.380400 2.908800
12.409300 1.669300
12.438100 1.404600
12.466900 1.273200
12.495800 1.159500
12.524600 1.126200
12.553500 1.340300
12.582300 2.199600
12.611100 3.115900
12.640000 3.818700
12.668800 4.304000
12.697700 4.575400
12.726500 5.472500
12.755300 5.256800
12.784200 5.003500
12.813000 4.699500
12.841900 4.344900
12.870700 3.929700
12.899500 3.478600
12.928400 3.042100
12.957200 2.626100
12.986100 2.208000
13.014900 1.794200
13.043700 1.385200
13.072600 1.022600
13.101400 0.862200
13.130300 0.783200
13.159100 0.754600
13.187900 0.774100
13.216800 0.817500
13.245600 0.883800
13.274500 0.970300
13.303300 1.076900
13.332100 1.203500
13.361000 1.350200
13.389800 1.479700
13.418700 1.578800
13.447500 2.014100
13.476300 2.785500
13.505200 3.635100
13.534000 4.823000
13.562900 6.474600
13.591700 7.726000
13.620500 8.426900
13.649400 8.084400
13.678200 6.757900
13.707100 3.924000
13.735900 3.235800
13.764700 3.141000
13.793600 3.038200
13.822400 2.943000
13.851300 2.904900
13.880100 2.989200
13.908900 3.231900
13.937800 3.646400
13.966600 4.178600
13.995500 4.657100
14.024300 5.183500
14.053100 5.613000
14.082000 6.054400
14.110800 6.562200
14.139700 6.679300
14.168500 6.273200
14.197300 6.062300
14.226200 3.920500
14.255000 2.779600
14.283900 2.528400
14.312700 2.483600
14.341500 2.461000
14.370400 2.491600
14.399200 2.936000
14.428100 3.393500
14.456900 3.549000
14.485700 3.356900
14.514600 3.107400
14.543400 3.036400
14.572300 2.982500
14.601100 3.525500
14.629900 3.743600
14.658800 3.930300
14.687600 4.071400
14.716500 4.162500
14.745300 4.221600
14.774100 6.932100
14.803000 4.368700
14.831800 4.291400
14.860700 4.093900
14.889500 3.941400
14.918300 3.833800
14.947200 3.771200
14.976000 3.767000
15.004900 3.988700
15.033700 4.490000
15.062500 4.744700
15.091400 5.447400
15.120200 5.264300
15.149100 3.623700
15.177900 2.824600
15.206700 2.696400
15.235600 2.628100
15.264400 2.668500
15.293300 2.681800
15.322100 2.690300
15.350900 2.712700
15.379800 2.763900
15.408600 2.894000
15.437500 3.010000
15.466300 3.053500
15.495100 3.022000
15.524000 2.921100
15.552800 2.823800
15.581700 2.749400
15.610500 2.680800
15.639300 2.616100
15.668200 2.555200
15.697000 2.498200
15.725900 2.445100
15.754700 2.389200
15.783500 2.373300
15.812400 2.457100
15.841200 2.845300
15.870100 3.990800
15.898900 5.890100
15.927700 5.601500
15.956600 5.481600
15.985400 5.119700
16.014300 4.475300
16.043100 2.875600
16.071900 2.421300
16.100800 2.341700
16.129600 2.236600
16.158500 2.181900
16.187300 2.189100
16.216100 2.216300
16.245000 2.263600
16.273800 2.330800
16.302700 2.418100
16.331500 2.525400
16.360300 2.652700
16.389200 2.800000
16.418000 2.967400
16.446900 3.154800
16.475700 3.362100
16.504500 1.980500
16.533400 1.880300
16.562200 1.888500
16.591100 1.940700
16.619900 1.992500
16.648700 2.044200
16.677600 2.091000
16.706400 2.128100
16.735300 2.287600
16.764100 2.302800
16.792900 2.308500
16.821800 2.279400
16.850600 2.215400
16.879500 2.166400
16.908300 2.124000
16.937100 2.048900
16.966000 1.915900
16.994800 1.820900
17.023700 1.741700
17.052500 1.738100
17.081300 1.716400
17.110200 1.788600
17.139000 1.914600
17.167900 2.244000
17.196700 2.631700
17.225500 2.939100
17.254400 3.171800
17.283200 3.406900
17.312100 3.576800
17.340900 3.664200
17.369700 3.669000
17.398600 3.651300
17.427400 3.795300
17.456300 3.960500
17.485100 4.147000
17.513900 4.371900
17.542800 4.628900
17.571600 4.728600
17.600500 4.665500
17.629300 4.479000
17.658100 4.169100
17.687000 3.738600
17.715800 3.162700
17.744700 3.070000
17.773500 3.307300
17.802300 3.138100
17.831200 2.571100
17.860000 2.065600
17.888900 1.591000
17.917700 1.120600
17.946500 1.676800
17.975400 2.242800
18.004200 2.890200
18.033100 3.604000
18.061900 4.361800
18.090800 4.924100
18.119600 5.325500
18.148400 5.726000
18.177300 5.449300
18.206100 4.814100
18.235000 4.491100
18.263800 4.134500
18.292600 3.852200
18.321500 3.638700
18.350300 3.502500
18.379200 3.453200
18.408000 3.445900
18.436800 3.475800
18.465700 3.558000
18.494500 2.325900
18.523400 2.687400
18.552200 4.109700
18.581000 5.140200
18.609900 5.690300
18.638700 5.772000
18.667600 5.751600
18.696400 5.413800
18.725200 4.504100
18.754100 3.750300
18.782900 3.580900
18.811800 3.806300
18.840600 4.011800
18.869400 4.125400
18.898300 4.237000
18.927100 4.364300
18.956000 5.062000
18.984800 6.055800
19.013600 6.696200
19.042500 6.940000
19.071300 6.863800
19.100200 4.207100
19.129000 3.943900
19.157800 5.187400
19.186700 5.341400
19.215500 5.359800
19.244400 5.290100
19.273200 5.620900
19.302000 5.492800
19.330900 5.303300
19.359700 5.074300
19.388600 4.797800
19.417400 4.406900
19.446200 4.106200
19.475100 3.819400
19.503900 3.527400
19.532800 3.227900
19.561600 2.914700
19.590400 2.692000
19.619300 2.525800
19.648100 2.395800
19.677000 2.316500
19.705800 2.280400
19.734600 2.339800
19.763500 2.474000
19.792300 2.599300
19.821200 2.732600
19.850000 2.914800
19.878800 3.082000
19.907700 3.234100
19.936500 3.213500
19.965400 3.110600
19.994200 3.034500
20.023000 2.973600
20.051900 2.914200
20.080700 2.839500
20.109600 2.754700
20.138400 2.669000
20.167200 2.582600
20.196100 2.495300
20.224900 8.214400
20.253800 2.579700
20.282600 2.541000
20.311400 3.867100
20.340300 3.641100
20.369100 3.691200
20.398000 3.513900
20.426800 3.303600
20.455600 3.136200
20.484500 2.990200
20.513300 2.865600
20.542200 2.762500
20.571000 2.680600
20.599800 2.616200
20.628700 2.567500
20.657500 2.528200
20.686400 2.365200
20.715200 2.344700
20.744000 2.342000
20.772900 2.335700
20.801700 2.323400
20.830600 2.324700
20.859400 2.336000
20.888200 2.347300
20.917100 2.357100
20.945900 2.365200
20.974800 2.371900
21.003600 2.378100
21.032400 2.383900
21.061300 2.389100
21.090100 2.394400
21.119000 2.403700
21.147800 2.431100
21.176600 2.480200
21.205500 2.552700
21.234300 2.667200
21.263200 2.830800
21.292000 3.046500
21.320800 3.509100
21.349700 4.266100
21.378500 5.320000
21.407400 7.127900
21.436200 9.989400
21.465000 5.132700
21.493900 4.436700
21.522700 4.131500
21.551600 3.942900
21.580400 3.808200
21.609200 3.694000
21.638100 3.386800
21.666900 3.053900
21.695800 2.783800
21.724600 2.648300
21.753400 2.637700
21.782300 2.826400
21.811100 3.063000
21.840000 3.276900
21.868800 3.468100
21.897600 3.713600
21.926500 4.155600
21.955300 4.631900
21.984200 5.227500
22.013000 4.570800
22.041800 3.995900
22.070700 3.832700
22.099500 3.665200
22.128400 3.480300
22.157200 3.275000
22.186000 3.087200
22.214900 3.047200
22.243700 3.097800
22.272600 3.162100
22.301400 3.237600
22.330200 3.341700
22.359100 3.434100
22.387900 3.470700
22.416800 7.267600
22.445600 1.917800
22.474400 2.051200
22.503300 2.225200
22.532100 2.398800
22.561000 2.573800
22.589800 2.750800
22.618600 2.929700
22.647500 3.110700
22.676300 3.459300
22.705200 4.459400
22.734000 3.597100
22.762800 4.256500
22.791700 4.467500
22.820500 4.663000
22.849400 4.843100
22.878200 5.007600
22.907000 5.135700
22.935900 4.942100
22.964700 3.440900
22.993600 3.931600
23.022400 4.213400
23.051200 4.286800
23.080100 4.454200
23.108900 4.836900
23.137800 5.129900
23.166600 5.274600
23.195400 5.206400
23.224300 4.489300
23.253100 4.089900
23.282000 3.781800
23.310800 3.584700
23.339600 3.706600
23.368500 3.791700
23.397300 3.905000
23.426200 3.758300
23.455000 3.632200
23.483800 3.532200
23.512700 3.386500
23.541500 3.322700
23.570400 3.358700
23.599200 3.488400
23.628000 3.709000
23.656900 4.020300
23.685700 4.418100
23.714600 4.753100
23.743400 4.905400
23.772200 4.962200
23.801100 5.013500
23.829900 5.188400
23.858800 5.367200
23.887600 5.457200
23.916400 5.482600
23.945300 5.452100
23.974100 4.610500
24.003000 3.816800
24.031800 3.282200
24.060600 3.011100
24.089500 3.026800
24.118300 3.104600
24.147200 3.197100
24.176000 3.393900
24.204800 3.817000
24.233700 4.256300
24.262500 4.938900
24.291400 5.471800
24.320200 5.601200
24.349000 5.433600
24.377900 5.023900
24.406700 4.506600
24.435600 4.134700
24.464400 3.711700
24.493200 3.237700
24.522100 3.374700
24.550900 3.860000
24.579800 4.351200
24.608600 4.238600
24.637400 3.557400
24.666300 3.684600
24.695100 3.667100
24.724000 3.476200
24.752800 3.514800
24.781600 3.750300
24.810500 3.926800
24.839300 4.009900
24.868200 3.328000
24.897000 2.209200
24.925800 2.170300
24.954700 2.622300
24.983500 3.101300
25.012400 5.848100
25.041200 7.067300
25.070000 8.430700
25.098900 8.070800
25.127700 7.560400
25.156600 6.952900
25.185400 6.303500
25.214200 5.856800
25.243100 5.411000
25.271900 4.477100
25.300800 3.735500
25.329600 3.932900
25.358400 4.450400
25.387300 4.890800
25.416100 5.205700
25.445000 5.268400
25.473800 5.269800
25.502600 5.406600
25.531500 5.492600
25.560300 5.510900
25.589200 5.479100
25.618000 5.396400
25.646800 5.433400
25.675700 5.614200
25.704500 5.948000
25.733400 4.375500
25.762200 3.855700
25.791000 4.996800
25.819900 7.359900
25.848700 9.775400
25.877600 11.245500
25.906400 9.274400
25.935200 3.515900
25.964100 2.795600
25.992900 2.962800
26.021800 3.236500
26.050600 3.554200
26.079400 3.732900
26.108300 3.714700
26.137100 3.785000
26.166000 3.977600
26.194800 4.176900
26.223600 4.404300
26.252500 4.568400
26.281300 4.570700
26.310200 4.382200
26.339000 4.096100
26.367800 3.866600
26.396700 3.745800
26.425500 3.863200
26.454400 4.039500
26.483200 4.278300
26.512000 4.592800
26.540900 4.986300
26.569700 5.350000
26.598600 5.626500
26.627400 5.908000
26.656200 6.206900
26.685100 6.552600
26.713900 6.971200
26.742800 5.837200
26.771600 5.058600
26.800400 4.994100
26.829300 4.819000
26.858100 4.497700
26.887000 4.033600
26.915800 3.464100
26.944600 3.392100
26.973500 3.422000
27.002300 3.438500
27.031200 3.439400
27.060000 3.833400
27.088800 5.378400
27.117700 5.527500
27.146500 4.870100
27.175400 4.740900
27.204200 4.648300
27.233000 3.658600
27.261900 3.363300
27.290700 3.609600
27.319600 4.353300
27.348400 8.380600
27.377300 7.573100
27.406100 8.295000
27.434900 8.843700
27.463800 8.576300
27.492600 8.083300
27.521500 7.259100
27.550300 6.080600
27.579100 4.789400
27.608000 3.478400
27.636800 2.351100
27.665700 2.535800
27.694500 3.081400
27.723300 4.068800
27.752200 4.871400
27.781000 5.464800
27.809900 5.917800
27.838700 6.305900
27.867500 6.849400
27.896400 6.951100
27.925200 7.087800
27.954100 7.349400
27.982900 7.741800
28.011700 8.362100
28.040600 9.855000
28.069400 10.540600
28.098300 9.875200
28.127100 6.554500
28.155900 4.691300
28.184800 4.530500
28.213600 5.041400
28.242500 5.159500
28.271300 5.368300
28.300100 6.508100
28.329000 10.295600
28.357800 9.146200
28.386700 8.915100
28.415500 7.040900
28.444300 6.139900
28.473200 12.444500
28.502000 8.286000
28.530900 8.430100
28.559700 8.507700
28.588500 8.188900
28.617400 7.768800
28.646200 7.592600
28.675100 8.781800
28.703900 5.437700
28.732700 4.799300
28.761600 4.388200
28.790400 4.196400
28.819300 4.212400
28.848100 4.399000
28.876900 4.977000
28.905800 6.137000
28.934600 7.299400
28.963500 8.330000
28.992300 9.380800
29.021100 9.946400
29.050000 9.467800
29.078800 8.414700
29.107700 7.067600
29.136500 5.594500
29.165300 4.988000
29.194200 5.143100
29.223000 5.845400
29.251900 6.528300
29.280700 6.681300
29.309500 6.674200
29.338400 7.063100
29.367200 7.045600
29.396100 5.893500
29.424900 4.819800
29.453700 4.218700
29.482600 3.924500
29.511400 4.288900
29.540300 4.568600
29.569100 4.950200
29.597900 5.318200
29.626800 5.670600
29.655600 6.117300
29.684500 6.374900
29.713300 6.250500
29.742100 6.479500
29.771000 6.612800
29.799800 6.792000
29.828700 4.770700
29.857500 4.298100
29.886300 3.914400
29.915200 3.610100
29.944000 3.374800
29.972900 3.274400
30.001700 3.306700
30.030500 3.568600
30.059400 3.799500
30.088200 3.424200
30.117100 3.714700
30.145900 2.663000
30.174700 1.283400
30.203600 1.093400
30.232400 0.918600
30.261300 0.759000
30.290100 0.614600
30.318900 0.485400
30.347800 0.371500
30.376600 0.272800
30.405500 0.189300
30.434300 0.121000
30.463100 0.067900
30.492000 0.030100
30.520800 0.007500
30.549700 0.000000
30.578500 0.000000
30.607300 0.000000
30.636200 0.000000
30.665000 0.000000
30.693900 0.000000
30.722700 0.000000
30.751500 0.000000
30.780400 0.000000
30.809200 0.000000
30.838100 0.000000
30.866900 0.000000
30.895700 0.000000
30.924600 0.000000
30.953400 0.000000
30.982300 0.000000
31.011100 0.000000
31.039900 0.000000
31.068800 0.000000
31.097600 0.000000
31.126500 0.000000
31.155300 0.000000
31.184100 0.000000
31.213000 0.000000
31.241800 0.000000
31.270700 0.000000
31.299500 0.000000
31.328300 0.000000
31.357200 0.000000
31.386000 0.000000
31.414900 0.000000
31.443700 0.000000
31.472500 0.000000
31.501400 0.000000
31.530200 0.000000
31.559100 0.000000
31.587900 0.000000
31.616700 0.000000
31.645600 0.000000
31.674400 0.000000
31.703300 0.000000
31.732100 0.000000
31.760900 0.000000
31.789800 0.000000
31.818600 0.000000
31.847500 0.000000
31.876300 0.000000
31.905100 0.000000
31.934000 0.000000
31.962800 0.000000
31.991700 0.000000
32.020500 0.000000
32.049300 0.000000
32.078200 0.000000
32.107000 0.000000
32.135900 0.000000
32.164700 0.000000
32.193500 0.000000
32.222400 0.000000
32.251200 0.000000
32.280100 0.000000
32.308900 0.000000
32.337700 0.000000
32.366600 0.000000
32.395400 0.000000
32.424300 0.000000
32.453100 0.000000
32.481900 0.000000
32.510800 0.000000
32.539600 0.000000
32.568500 0.000000
32.597300 0.000000
32.626100 0.000000
32.655000 0.000000
32.683800 0.000000
32.712700 0.000000
32.741500 0.000000
32.770300 0.000000
32.799200 0.000000
32.828000 0.000000
32.856900 0.000000
32.885700 0.000000
32.914500 0.000000
32.943400 0.000000
32.972200 0.000000
33.001100 0.000000
33.029900 0.000000
33.058700 0.000000
33.087600 0.000000
33.116400 0.000000
33.145300 0.000000
33.174100 0.000000
e
