set title 'mp-1183303 - Density of States'
set xlabel 'Energy (eV)'
set ylabel 'DOS (states/eV)'
set grid
set xrange [-10:10]
set yrange [0:10.005]
set xzeroaxis lt -1
set terminal png size 800,600
set output 'mp-1183303_dos_gnuplot.png'
plot '-' using 1:2 with lines title 'DOS'
-28.052000 0.000000
-28.018600 0.000000
-27.985300 0.000000
-27.951900 0.000000
-27.918500 0.000000
-27.885200 0.000000
-27.851800 0.000000
-27.818500 0.000000
-27.785100 0.000000
-27.751700 0.000000
-27.718400 0.000000
-27.685000 0.000000
-27.651700 0.000000
-27.618300 0.000000
-27.585000 0.000000
-27.551600 0.000000
-27.518200 0.000000
-27.484900 0.000000
-27.451500 0.000000
-27.418200 0.000000
-27.384800 0.000000
-27.351400 0.000000
-27.318100 0.000000
-27.284700 0.000000
-27.251400 0.000000
-27.218000 0.000000
-27.184700 0.000000
-27.151300 0.000000
-27.117900 0.000000
-27.084600 0.000000
-27.051200 0.000000
-27.017900 0.000000
-26.984500 0.000000
-26.951200 0.000000
-26.917800 0.000000
-26.884400 0.000000
-26.851100 0.000000
-26.817700 0.000000
-26.784400 0.000000
-26.751000 0.000000
-26.717600 0.000000
-26.684300 0.000000
-26.650900 0.000000
-26.617600 0.000000
-26.584200 0.000000
-26.550900 0.000000
-26.517500 0.000000
-26.484100 0.000000
-26.450800 0.000000
-26.417400 0.000000
-26.384100 0.000000
-26.350700 0.000000
-26.317300 0.000000
-26.284000 0.000000
-26.250600 0.000000
-26.217300 0.000000
-26.183900 0.000000
-26.150600 0.000000
-26.117200 0.000000
-26.083800 0.000000
-26.050500 0.000000
-26.017100 0.000000
-25.983800 0.000000
-25.950400 0.000000
-25.917000 0.000000
-25.883700 0.000000
-25.850300 0.000000
-25.817000 0.000000
-25.783600 0.000000
-25.750300 0.000000
-25.716900 0.000000
-25.683500 0.000000
-25.650200 0.000000
-25.616800 0.000000
-25.583500 0.000000
-25.550100 0.000000
-25.516700 0.000000
-25.483400 0.000000
-25.450000 0.000000
-25.416700 0.000000
-25.383300 0.000000
-25.350000 0.000000
-25.316600 0.000000
-25.283200 0.000000
-25.249900 0.000000
-25.216500 0.000000
-25.183200 0.000000
-25.149800 0.000000
-25.116500 0.000400
-25.083100 0.007000
-25.049700 0.055800
-25.016400 0.238300
-24.983000 0.616000
-24.949700 1.146700
-24.916300 1.856200
-24.882900 3.017900
-24.849600 4.926200
-24.816200 6.714800
-24.782900 6.303100
-24.749500 3.652700
-24.716200 1.210800
-24.682800 0.212600
-24.649400 0.018400
-24.616100 0.000700
-24.582700 0.000000
-24.549400 0.000000
-24.516000 0.000000
-24.482600 0.000000
-24.449300 0.000000
-24.415900 0.000000
-24.382600 0.000000
-24.349200 0.000000
-24.315900 0.000000
-24.282500 0.000000
-24.249100 0.000000
-24.215800 0.000000
-24.182400 0.000000
-24.149100 0.000000
-24.115700 0.000000
-24.082300 0.000000
-24.049000 0.000000
-24.015600 0.000000
-23.982300 0.000000
-23.948900 0.000000
-23.915600 0.000000
-23.882200 0.000000
-23.848800 0.000000
-23.815500 0.000000
-23.782100 0.000000
-23.748800 0.000000
-23.715400 0.000000
-23.682000 0.000000
-23.648700 0.000000
-23.615300 0.000000
-23.582000 0.000000
-23.548600 0.000000
-23.515300 0.000000
-23.481900 0.000000
-23.448500 0.000000
-23.415200 0.000000
-23.381800 0.000000
-23.348500 0.000000
-23.315100 0.000000
-23.281800 0.000000
-23.248400 0.000000
-23.215000 0.000000
-23.181700 0.000000
-23.148300 0.000000
-23.115000 0.000000
-23.081600 0.000000
-23.048200 0.000000
-23.014900 0.000000
-22.981500 0.000000
-22.948200 0.000000
-22.914800 0.000000
-22.881500 0.000000
-22.848100 0.000000
-22.814700 0.000000
-22.781400 0.000000
-22.748000 0.000000
-22.714700 0.000000
-22.681300 0.000000
-22.647900 0.000000
-22.614600 0.000000
-22.581200 0.000000
-22.547900 0.000000
-22.514500 0.000000
-22.481200 0.000000
-22.447800 0.000000
-22.414400 0.000000
-22.381100 0.000000
-22.347700 0.000100
-22.314400 0.004600
-22.281000 0.092000
-22.247600 0.853000
-22.214300 3.789000
-22.180900 8.343000
-22.147600 9.388900
-22.114200 5.510000
-22.080900 1.698700
-22.047500 0.274400
-22.014100 0.022900
-21.980800 0.001000
-21.947400 0.000000
-21.914100 0.000000
-21.880700 0.000000
-21.847300 0.000000
-21.814000 0.000000
-21.780600 0.000100
-21.747300 0.001600
-21.713900 0.018000
-21.680600 0.105400
-21.647200 0.349300
-21.613800 0.764100
-21.580500 1.381200
-21.547100 2.614300
-21.513800 5.201500
-21.480400 8.688500
-21.447100 10.929700
-21.413700 10.926200
-21.380300 9.057600
-21.347000 5.957600
-21.313600 2.872300
-21.280300 0.905800
-21.246900 0.165400
-21.213500 0.016000
-21.180200 0.000800
-21.146800 0.000000
-21.113500 0.000000
-21.080100 0.000000
-21.046800 0.000000
-21.013400 0.000000
-20.980000 0.000000
-20.946700 0.000000
-20.913300 0.000000
-20.880000 0.000000
-20.846600 0.000000
-20.813200 0.000000
-20.779900 0.000000
-20.746500 0.000000
-20.713200 0.000000
-20.679800 0.000000
-20.646500 0.000000
-20.613100 0.000000
-20.579700 0.000000
-20.546400 0.000000
-20.513000 0.000000
-20.479700 0.000000
-20.446300 0.000000
-20.412900 0.000000
-20.379600 0.000000
-20.346200 0.000000
-20.312900 0.000000
-20.279500 0.000000
-20.246200 0.000000
-20.212800 0.000000
-20.179400 0.000000
-20.146100 0.000000
-20.112700 0.000000
-20.079400 0.000000
-20.046000 0.000000
-20.012700 0.000000
-19.979300 0.000000
-19.945900 0.000000
-19.912600 0.000000
-19.879200 0.000000
-19.845900 0.000000
-19.812500 0.000000
-19.779100 0.000000
-19.745800 0.000000
-19.712400 0.000000
-19.679100 0.000000
-19.645700 0.000000
-19.612400 0.000000
-19.579000 0.000000
-19.545600 0.000000
-19.512300 0.000000
-19.478900 0.000000
-19.445600 0.000000
-19.412200 0.000000
-19.378800 0.000000
-19.345500 0.000000
-19.312100 0.000000
-19.278800 0.000000
-19.245400 0.000000
-19.212100 0.000000
-19.178700 0.000000
-19.145300 0.000000
-19.112000 0.000000
-19.078600 0.000000
-19.045300 0.000000
-19.011900 0.000000
-18.978500 0.000000
-18.945200 0.000000
-18.911800 0.000000
-18.878500 0.000000
-18.845100 0.000000
-18.811800 0.000000
-18.778400 0.000000
-18.745000 0.000000
-18.711700 0.000000
-18.678300 0.000000
-18.645000 0.000000
-18.611600 0.000000
-18.578200 0.000000
-18.544900 0.000000
-18.511500 0.000000
-18.478200 0.000000
-18.444800 0.000000
-18.411500 0.000000
-18.378100 0.000000
-18.344700 0.000000
-18.311400 0.000000
-18.278000 0.000000
-18.244700 0.000000
-18.211300 0.000000
-18.178000 0.000000
-18.144600 0.000000
-18.111200 0.000000
-18.077900 0.000000
-18.044500 0.000000
-18.011200 0.000000
-17.977800 0.000000
-17.944400 0.000000
-17.911100 0.000000
-17.877700 0.000000
-17.844400 0.000000
-17.811000 0.000000
-17.777700 0.000000
-17.744300 0.000000
-17.710900 0.000000
-17.677600 0.000000
-17.644200 0.000000
-17.610900 0.000000
-17.577500 0.000000
-17.544100 0.000000
-17.510800 0.000000
-17.477400 0.000000
-17.444100 0.000000
-17.410700 0.000000
-17.377400 0.000000
-17.344000 0.000000
-17.310600 0.000000
-17.277300 0.000000
-17.243900 0.000000
-17.210600 0.000000
-17.177200 0.000000
-17.143800 0.000000
-17.110500 0.000000
-17.077100 0.000000
-17.043800 0.000000
-17.010400 0.000000
-16.977100 0.000000
-16.943700 0.000000
-16.910300 0.000000
-16.877000 0.000000
-16.843600 0.000000
-16.810300 0.000000
-16.776900 0.000000
-16.743500 0.000000
-16.710200 0.000000
-16.676800 0.000000
-16.643500 0.000000
-16.610100 0.000000
-16.576800 0.000000
-16.543400 0.000000
-16.510000 0.000000
-16.476700 0.000000
-16.443300 0.000000
-16.410000 0.000000
-16.376600 0.000000
-16.343300 0.000000
-16.309900 0.000000
-16.276500 0.000000
-16.243200 0.000000
-16.209800 0.000000
-16.176500 0.000000
-16.143100 0.000000
-16.109700 0.000000
-16.076400 0.000000
-16.043000 0.000000
-16.009700 0.000000
-15.976300 0.000000
-15.943000 0.000000
-15.909600 0.000000
-15.876200 0.000000
-15.842900 0.000000
-15.809500 0.000000
-15.776200 0.000000
-15.742800 0.000000
-15.709400 0.000000
-15.676100 0.000000
-15.642700 0.000000
-15.609400 0.000000
-15.576000 0.000000
-15.542700 0.000000
-15.509300 0.000000
-15.475900 0.000000
-15.442600 0.000000
-15.409200 0.000000
-15.375900 0.000000
-15.342500 0.000000
-15.309100 0.000000
-15.275800 0.000000
-15.242400 0.000000
-15.209100 0.000000
-15.175700 0.000000
-15.142400 0.000000
-15.109000 0.000000
-15.075600 0.000000
-15.042300 0.000000
-15.008900 0.000000
-14.975600 0.000000
-14.942200 0.000000
-14.908800 0.000000
-14.875500 0.000000
-14.842100 0.000000
-14.808800 0.000000
-14.775400 0.000000
-14.742100 0.000000
-14.708700 0.000000
-14.675300 0.000000
-14.642000 0.000000
-14.608600 0.000000
-14.575300 0.000000
-14.541900 0.000000
-14.508600 0.000000
-14.475200 0.000000
-14.441800 0.000000
-14.408500 0.000000
-14.375100 0.000000
-14.341800 0.000000
-14.308400 0.000000
-14.275000 0.000000
-14.241700 0.000000
-14.208300 0.000000
-14.175000 0.000000
-14.141600 0.000000
-14.108300 0.000000
-14.074900 0.000000
-14.041500 0.000000
-14.008200 0.000000
-13.974800 0.000000
-13.941500 0.000000
-13.908100 0.000000
-13.874700 0.000000
-13.841400 0.000000
-13.808000 0.000000
-13.774700 0.000000
-13.741300 0.000000
-13.708000 0.000000
-13.674600 0.000000
-13.641200 0.000000
-13.607900 0.000000
-13.574500 0.000000
-13.541200 0.000000
-13.507800 0.000000
-13.474400 0.000000
-13.441100 0.000000
-13.407700 0.000000
-13.374400 0.000000
-13.341000 0.000000
-13.307700 0.000000
-13.274300 0.000000
-13.240900 0.000000
-13.207600 0.000000
-13.174200 0.000000
-13.140900 0.000000
-13.107500 0.000000
-13.074200 0.000000
-13.040800 0.000000
-13.007400 0.000000
-12.974100 0.000000
-12.940700 0.000000
-12.907400 0.000000
-12.874000 0.000000
-12.840600 0.000000
-12.807300 0.000000
-12.773900 0.000000
-12.740600 0.000000
-12.707200 0.000000
-12.673900 0.000000
-12.640500 0.000000
-12.607100 0.000000
-12.573800 0.000000
-12.540400 0.000000
-12.507100 0.000000
-12.473700 0.000000
-12.440300 0.000000
-12.407000 0.000000
-12.373600 0.000000
-12.340300 0.000000
-12.306900 0.000000
-12.273600 0.000000
-12.240200 0.000000
-12.206800 0.000000
-12.173500 0.000000
-12.140100 0.000000
-12.106800 0.000000
-12.073400 0.000000
-12.040000 0.000000
-12.006700 0.000000
-11.973300 0.000000
-11.940000 0.000000
-11.906600 0.000000
-11.873300 0.000000
-11.839900 0.000000
-11.806500 0.000000
-11.773200 0.000000
-11.739800 0.000000
-11.706500 0.000000
-11.673100 0.000000
-11.639700 0.000000
-11.606400 0.000000
-11.573000 0.000000
-11.539700 0.000000
-11.506300 0.000000
-11.473000 0.000000
-11.439600 0.000000
-11.406200 0.000000
-11.372900 0.000000
-11.339500 0.000000
-11.306200 0.000000
-11.272800 0.000000
-11.239500 0.000000
-11.206100 0.000000
-11.172700 0.000000
-11.139400 0.000000
-11.106000 0.000000
-11.072700 0.000000
-11.039300 0.000000
-11.005900 0.000000
-10.972600 0.000000
-10.939200 0.000000
-10.905900 0.000000
-10.872500 0.000000
-10.839200 0.000000
-10.805800 0.000000
-10.772400 0.000000
-10.739100 0.000000
-10.705700 0.000000
-10.672400 0.000000
-10.639000 0.000000
-10.605600 0.000000
-10.572300 0.000400
-10.538900 0.005700
-10.505600 0.040900
-10.472200 0.157000
-10.438900 0.363100
-10.405500 0.607400
-10.372100 0.860500
-10.338800 1.123200
-10.305400 1.503500
-10.272100 2.079100
-10.238700 3.154300
-10.205300 5.171500
-10.172000 7.620400
-10.138600 9.316600
-10.105300 9.927000
-10.071900 9.955400
-10.038600 9.413300
-10.005200 8.428200
-9.971800 7.406600
-9.938500 5.976300
-9.905100 3.779200
-9.871800 1.786500
-9.838400 0.757700
-9.805000 0.338900
-9.771700 0.126700
-9.738300 0.029700
-9.705000 0.003700
-9.671600 0.000200
-9.638300 0.000000
-9.604900 0.000000
-9.571500 0.000000
-9.538200 0.000000
-9.504800 0.000000
-9.471500 0.000000
-9.438100 0.000000
-9.404800 0.000000
-9.371400 0.000000
-9.338000 0.000000
-9.304700 0.000000
-9.271300 0.000000
-9.238000 0.000000
-9.204600 0.000000
-9.171200 0.000000
-9.137900 0.000000
-9.104500 0.000000
-9.071200 0.000000
-9.037800 0.000000
-9.004500 0.000000
-8.971100 0.000000
-8.937700 0.000000
-8.904400 0.000000
-8.871000 0.000000
-8.837700 0.000000
-8.804300 0.000000
-8.770900 0.000000
-8.737600 0.000000
-8.704200 0.000000
-8.670900 0.000000
-8.637500 0.000000
-8.604200 0.000000
-8.570800 0.000000
-8.537400 0.000000
-8.504100 0.000000
-8.470700 0.000000
-8.437400 0.000000
-8.404000 0.000000
-8.370600 0.000000
-8.337300 0.000000
-8.303900 0.000000
-8.270600 0.000000
-8.237200 0.000000
-8.203900 0.000000
-8.170500 0.000000
-8.137100 0.000000
-8.103800 0.000000
-8.070400 0.000000
-8.037100 0.000000
-8.003700 0.000000
-7.970300 0.000000
-7.937000 0.000000
-7.903600 0.000000
-7.870300 0.000000
-7.836900 0.000000
-7.803600 0.000000
-7.770200 0.000000
-7.736800 0.000000
-7.703500 0.000000
-7.670100 0.000000
-7.636800 0.000000
-7.603400 0.000000
-7.570100 0.000000
-7.536700 0.000000
-7.503300 0.000000
-7.470000 0.000000
-7.436600 0.000000
-7.403300 0.000000
-7.369900 0.000000
-7.336500 0.000000
-7.303200 0.000000
-7.269800 0.000000
-7.236500 0.000000
-7.203100 0.000000
-7.169800 0.000000
-7.136400 0.000000
-7.103000 0.000000
-7.069700 0.000000
-7.036300 0.000000
-7.003000 0.000000
-6.969600 0.000000
-6.936200 0.000000
-6.902900 0.000000
-6.869500 0.000000
-6.836200 0.000000
-6.802800 0.000000
-6.769500 0.000000
-6.736100 0.000000
-6.702700 0.000000
-6.669400 0.000000
-6.636000 0.000000
-6.602700 0.000000
-6.569300 0.000000
-6.535900 0.000000
-6.502600 0.000000
-6.469200 0.000000
-6.435900 0.000000
-6.402500 0.000000
-6.369200 0.000000
-6.335800 0.000000
-6.302400 0.000000
-6.269100 0.000000
-6.235700 0.000000
-6.202400 0.000000
-6.169000 0.000000
-6.135600 0.000000
-6.102300 0.000000
-6.068900 0.000000
-6.035600 0.000000
-6.002200 0.000000
-5.968900 0.000000
-5.935500 0.000000
-5.902100 0.000000
-5.868800 0.000000
-5.835400 0.000000
-5.802100 0.000000
-5.768700 0.000000
-5.735400 0.000000
-5.702000 0.000000
-5.668600 0.000000
-5.635300 0.000000
-5.601900 0.000000
-5.568600 0.000000
-5.535200 0.000000
-5.501800 0.000000
-5.468500 0.000000
-5.435100 0.000000
-5.401800 0.000000
-5.368400 0.000000
-5.335100 0.000000
-5.301700 0.000000
-5.268300 0.000000
-5.235000 0.000000
-5.201600 0.000000
-5.168300 0.000000
-5.134900 0.000000
-5.101500 0.000000
-5.068200 0.000000
-5.034800 0.000000
-5.001500 0.000000
-4.968100 0.000000
-4.934800 0.000000
-4.901400 0.000000
-4.868000 0.000000
-4.834700 0.000000
-4.801300 0.000200
-4.768000 0.003100
-4.734600 0.024000
-4.701200 0.097600
-4.667900 0.250200
-4.634500 0.492200
-4.601200 0.903700
-4.567800 1.744700
-4.534500 2.936600
-4.501100 3.702300
-4.467700 3.554200
-4.434400 2.958000
-4.401000 2.391700
-4.367700 1.883000
-4.334300 1.598900
-4.301000 1.448600
-4.267600 1.192400
-4.234200 1.003200
-4.200900 0.946800
-4.167500 0.903000
-4.134200 0.935700
-4.100800 1.001900
-4.067400 1.085900
-4.034100 1.227600
-4.000700 1.308500
-3.967400 1.448800
-3.934000 1.802400
-3.900700 2.123400
-3.867300 2.275600
-3.833900 2.487600
-3.800600 2.771400
-3.767200 3.082800
-3.733900 3.468100
-3.700500 3.830800
-3.667100 4.080400
-3.633800 4.332900
-3.600400 4.223200
-3.567100 3.613200
-3.533700 2.933300
-3.500400 2.421300
-3.467000 2.151000
-3.433600 2.158100
-3.400300 2.289700
-3.366900 2.279500
-3.333600 2.112600
-3.300200 2.017100
-3.266800 2.128100
-3.233500 2.338400
-3.200100 2.546200
-3.166800 2.841200
-3.133400 3.315600
-3.100100 4.032400
-3.066700 5.003200
-3.033300 5.922700
-3.000000 6.001300
-2.966600 5.545900
-2.933300 5.399700
-2.899900 5.602800
-2.866500 6.122500
-2.833200 6.350500
-2.799800 5.781100
-2.766500 5.088000
-2.733100 4.689900
-2.699800 4.309000
-2.666400 3.992700
-2.633000 4.127500
-2.599700 5.095400
-2.566300 6.285100
-2.533000 6.527400
-2.499600 6.566800
-2.466300 7.559300
-2.432900 8.796100
-2.399500 9.095300
-2.366200 8.511400
-2.332800 7.835900
-2.299500 6.858500
-2.266100 5.248200
-2.232700 3.571800
-2.199400 2.271900
-2.166000 1.417500
-2.132700 0.866400
-2.099300 0.451000
-2.066000 0.164400
-2.032600 0.035900
-1.999200 0.004200
-1.965900 0.000200
-1.932500 0.000000
-1.899200 0.000000
-1.865800 0.000000
-1.832400 0.000000
-1.799100 0.000000
-1.765700 0.000000
-1.732400 0.000000
-1.699000 0.000000
-1.665700 0.000000
-1.632300 0.000000
-1.598900 0.000000
-1.565600 0.000000
-1.532200 0.000000
-1.498900 0.000000
-1.465500 0.000000
-1.432100 0.000000
-1.398800 0.000000
-1.365400 0.000000
-1.332100 0.000000
-1.298700 0.000000
-1.265400 0.000000
-1.232000 0.000000
-1.198600 0.000000
-1.165300 0.000000
-1.131900 0.000000
-1.098600 0.000000
-1.065200 0.000000
-1.031800 0.000000
-0.998500 0.000000
-0.965100 0.000000
-0.931800 0.000000
-0.898400 0.000000
-0.865100 0.000000
-0.831700 0.000000
-0.798300 0.000000
-0.765000 0.000000
-0.731600 0.000000
-0.698300 0.000000
-0.664900 0.000000
-0.631600 0.000000
-0.598200 0.000000
-0.564800 0.000000
-0.531500 0.000000
-0.498100 0.000000
-0.464800 0.000000
-0.431400 0.000000
-0.398000 0.000000
-0.364700 0.000000
-0.331300 0.000000
-0.298000 0.000000
-0.264600 0.000000
-0.231300 0.000000
-0.197900 0.000000
-0.164500 0.000000
-0.131200 0.000000
-0.097800 0.000000
-0.064500 0.000000
-0.031100 0.000000
0.002300 0.000000
0.035600 0.000000
0.069000 0.000000
0.102300 0.000000
0.135700 0.000000
0.169000 0.000000
0.202400 0.000000
0.235800 0.000000
0.269100 0.000000
0.302500 0.000000
0.335800 0.000000
0.369200 0.000000
0.402600 0.000000
0.435900 0.000000
0.469300 0.000000
0.502600 0.000000
0.536000 0.000000
0.569300 0.000000
0.602700 0.000000
0.636100 0.000000
0.669400 0.000000
0.702800 0.000000
0.736100 0.000000
0.769500 0.000000
0.802900 0.000000
0.836200 0.000000
0.869600 0.000000
0.902900 0.000000
0.936300 0.000000
0.969600 0.000000
1.003000 0.000000
1.036400 0.000000
1.069700 0.000000
1.103100 0.000000
1.136400 0.000000
1.169800 0.000000
1.203100 0.000000
1.236500 0.000000
1.269900 0.000000
1.303200 0.000000
1.336600 0.000000
1.369900 0.000000
1.403300 0.000000
1.436700 0.000000
1.470000 0.000000
1.503400 0.000000
1.536700 0.000000
1.570100 0.000000
1.603400 0.000000
1.636800 0.000000
1.670200 0.000000
1.703500 0.000000
1.736900 0.000000
1.770200 0.000000
1.803600 0.000000
1.837000 0.000000
1.870300 0.000000
1.903700 0.000000
1.937000 0.000000
1.970400 0.000000
2.003700 0.000000
2.037100 0.000000
2.070500 0.000000
2.103800 0.000000
2.137200 0.000000
2.170500 0.000000
2.203900 0.000000
2.237300 0.000000
2.270600 0.000000
2.304000 0.000000
2.337300 0.000000
2.370700 0.000000
2.404000 0.000000
2.437400 0.000000
2.470800 0.000000
2.504100 0.000000
2.537500 0.000000
2.570800 0.000000
2.604200 0.000000
2.637600 0.000000
2.670900 0.000000
2.704300 0.000000
2.737600 0.000000
2.771000 0.000000
2.804300 0.000000
2.837700 0.000000
2.871100 0.000000
2.904400 0.000000
2.937800 0.000000
2.971100 0.000000
3.004500 0.000000
3.037800 0.000000
3.071200 0.000000
3.104600 0.000000
3.137900 0.000000
3.171300 0.000000
3.204600 0.000000
3.238000 0.000000
3.271400 0.000000
3.304700 0.000000
3.338100 0.000000
3.371400 0.000000
3.404800 0.000000
3.438100 0.000000
3.471500 0.000000
3.504900 0.000000
3.538200 0.000000
3.571600 0.000000
3.604900 0.000000
3.638300 0.000000
3.671700 0.000000
3.705000 0.000000
3.738400 0.000000
3.771700 0.000000
3.805100 0.000000
3.838400 0.000000
3.871800 0.000000
3.905200 0.000000
3.938500 0.000000
3.971900 0.000000
4.005200 0.000000
4.038600 0.000000
4.072000 0.000000
4.105300 0.000000
4.138700 0.000000
4.172000 0.000000
4.205400 0.000000
4.238700 0.000000
4.272100 0.000000
4.305500 0.000000
4.338800 0.000000
4.372200 0.000000
4.405500 0.000000
4.438900 0.000000
4.472200 0.000000
4.505600 0.000000
4.539000 0.000000
4.572300 0.000000
4.605700 0.000000
4.639000 0.000000
4.672400 0.000000
4.705800 0.000000
4.739100 0.000000
4.772500 0.000000
4.805800 0.000000
4.839200 0.000000
4.872500 0.000000
4.905900 0.000000
4.939300 0.000000
4.972600 0.000000
5.006000 0.000000
5.039300 0.000000
5.072700 0.000000
5.106100 0.000000
5.139400 0.000000
5.172800 0.000000
5.206100 0.000000
5.239500 0.000000
5.272800 0.000000
5.306200 0.000000
5.339600 0.000000
5.372900 0.000000
5.406300 0.000000
5.439600 0.000000
5.473000 0.000000
5.506400 0.000000
5.539700 0.000000
5.573100 0.000000
5.606400 0.000000
5.639800 0.000000
5.673100 0.000000
5.706500 0.000000
5.739900 0.000000
5.773200 0.000000
5.806600 0.000000
5.839900 0.000200
5.873300 0.001800
5.906700 0.007600
5.940000 0.016900
5.973400 0.025800
6.006700 0.029400
6.040100 0.027800
6.073400 0.052200
6.106800 0.098900
6.140200 0.095900
6.173500 0.047100
6.206900 0.019900
6.240200 0.036000
6.273600 0.076900
6.306900 0.110900
6.340300 0.127700
6.373700 0.154600
6.407000 0.225100
6.440400 0.276900
6.473700 0.265900
6.507100 0.268500
6.540500 0.307900
6.573800 0.360500
6.607200 0.444700
6.640500 0.572000
6.673900 0.613300
6.707200 0.534000
6.740600 0.521400
6.774000 0.602600
6.807300 0.682000
6.840700 0.718100
6.874000 0.659700
6.907400 0.619100
6.940800 0.668400
6.974100 0.878000
7.007500 1.272900
7.040800 1.552000
7.074200 1.494700
7.107500 1.253900
7.140900 1.226400
7.174300 1.525800
7.207600 1.946100
7.241000 2.332700
7.274300 2.374700
7.307700 1.976800
7.341100 1.641700
7.374400 1.710000
7.407800 1.967600
7.441100 2.163600
7.474500 2.196800
7.507800 2.062400
7.541200 2.092300
7.574600 2.222500
7.607900 2.045200
7.641300 1.784400
7.674600 1.895500
7.708000 2.421100
7.741400 2.709600
7.774700 2.435600
7.808100 2.089700
7.841400 1.884900
7.874800 1.765100
7.908100 1.702900
7.941500 1.745300
7.974900 2.048300
8.008200 2.419000
8.041600 2.401300
8.074900 1.963000
8.108300 1.490400
8.141600 1.362700
8.175000 1.415300
8.208400 1.313100
8.241700 1.296400
8.275100 1.686600
8.308400 2.295800
8.341800 2.666500
8.375200 2.716600
8.408500 2.669300
8.441900 2.905800
8.475200 3.245000
8.508600 3.274900
8.541900 2.930300
8.575300 2.219200
8.608700 1.630300
8.642000 1.449800
8.675400 1.495100
8.708700 1.365400
8.742100 1.082000
8.775500 0.982200
8.808800 0.923200
8.842200 0.909400
8.875500 1.061300
8.908900 1.124100
8.942200 1.058100
8.975600 1.159600
9.009000 1.532400
9.042300 2.237600
9.075700 3.027300
9.109000 3.382800
9.142400 3.197500
9.175800 2.856000
9.209100 2.576700
9.242500 2.203800
9.275800 1.912100
9.309200 1.760500
9.342500 1.595600
9.375900 1.426600
9.409300 1.199100
9.442600 0.982400
9.476000 0.859700
9.509300 0.718100
9.542700 0.549200
9.576100 0.462600
9.609400 0.481400
9.642800 0.437100
9.676100 0.320300
9.709500 0.325900
9.742800 0.392900
9.776200 0.297800
9.809600 0.128100
9.842900 0.089400
9.876300 0.155300
9.909600 0.187700
9.943000 0.195300
9.976300 0.220700
10.009700 0.202200
10.043100 0.227800
10.076400 0.313100
10.109800 0.304900
10.143100 0.274600
10.176500 0.358800
10.209900 0.461500
10.243200 0.399800
10.276600 0.234800
10.309900 0.170600
10.343300 0.213200
10.376600 0.281300
10.410000 0.284300
10.443400 0.219400
10.476700 0.182800
10.510100 0.196000
10.543400 0.165800
10.576800 0.097800
10.610200 0.103500
10.643500 0.172900
10.676900 0.215400
10.710200 0.244300
10.743600 0.291600
10.776900 0.344200
10.810300 0.339400
10.843700 0.277700
10.877000 0.284500
10.910400 0.377300
10.943700 0.349400
10.977100 0.182400
11.010500 0.112900
11.043800 0.190400
11.077200 0.286400
11.110500 0.300000
11.143900 0.229200
11.177200 0.206800
11.210600 0.273700
11.244000 0.316600
11.277300 0.313900
11.310700 0.377900
11.344000 0.484400
11.377400 0.463500
11.410700 0.410800
11.444100 0.476900
11.477500 0.489100
11.510800 0.405900
11.544200 0.332800
11.577500 0.263100
11.610900 0.274100
11.644300 0.342800
11.677600 0.374100
11.711000 0.442700
11.744300 0.488300
11.777700 0.449100
11.811000 0.444700
11.844400 0.423700
11.877800 0.396900
11.911100 0.426100
11.944500 0.468900
11.977800 0.468500
12.011200 0.416900
12.044600 0.365100
12.077900 0.347300
12.111300 0.358100
12.144600 0.401200
12.178000 0.465900
12.211300 0.529700
12.244700 0.520400
12.278100 0.433100
12.311400 0.401100
12.344800 0.384200
12.378100 0.343400
12.411500 0.389100
12.444900 0.444700
12.478200 0.398500
12.511600 0.345900
12.544900 0.292800
12.578300 0.218800
12.611600 0.217300
12.645000 0.399700
12.678400 0.624800
12.711700 0.642800
12.745100 0.561800
12.778400 0.561100
12.811800 0.532100
12.845200 0.507000
12.878500 0.688300
12.911900 0.789200
12.945200 0.584200
12.978600 0.375900
13.011900 0.363800
13.045300 0.555600
13.078700 0.714100
13.112000 0.640900
13.145400 0.575900
13.178700 0.699000
13.212100 0.864000
13.245400 0.887800
13.278800 0.791200
13.312200 0.747100
13.345500 0.797200
13.378900 0.789300
13.412200 0.686100
13.445600 0.571600
13.479000 0.530000
13.512300 0.535400
13.545700 0.489500
13.579000 0.475100
13.612400 0.499000
13.645700 0.493600
13.679100 0.481300
13.712500 0.538900
13.745800 0.638800
13.779200 0.648900
13.812500 0.597300
13.845900 0.711500
13.879300 1.051800
13.912600 1.226200
13.946000 1.036000
13.979300 0.917200
14.012700 0.999200
14.046000 0.968200
14.079400 0.857700
14.112800 0.787300
14.146100 0.803500
14.179500 0.929800
14.212800 1.098100
14.246200 1.223500
14.279600 1.182000
14.312900 1.117400
14.346300 1.103700
14.379600 1.029900
14.413000 0.921300
14.446300 0.802600
14.479700 0.625100
14.513100 0.375000
14.546400 0.168100
14.579800 0.115400
14.613100 0.185400
14.646500 0.259100
14.679900 0.260800
14.713200 0.199800
14.746600 0.162600
14.779900 0.203400
14.813300 0.285200
14.846600 0.302000
14.880000 0.197200
14.913400 0.091200
14.946700 0.099900
14.980100 0.207400
15.013400 0.373800
15.046800 0.528700
15.080100 0.572100
15.113500 0.556300
15.146900 0.614700
15.180200 0.694900
15.213600 0.772600
15.246900 0.925900
15.280300 1.013600
15.313700 0.938700
15.347000 0.888700
15.380400 0.873300
15.413700 0.788800
15.447100 0.742000
15.480400 0.942900
15.513800 1.289300
15.547200 1.481000
15.580500 1.452900
15.613900 1.310600
15.647200 1.280700
15.680600 1.489600
15.714000 1.703500
15.747300 1.790200
15.780700 1.807400
15.814000 1.778000
15.847400 1.699300
15.880700 1.522100
15.914100 1.317000
15.947500 1.225000
15.980800 1.213900
16.014200 1.243200
16.047500 1.460700
16.080900 1.704300
16.114300 1.739000
16.147600 1.626100
16.181000 1.565600
16.214300 1.778500
16.247700 1.960800
16.281000 1.840600
16.314400 1.545200
16.347800 1.510100
16.381100 1.874400
16.414500 2.116800
16.447800 1.760500
16.481200 1.266600
16.514600 1.089500
16.547900 1.065900
16.581300 1.245800
16.614600 1.459200
16.648000 1.442300
16.681300 1.433000
16.714700 1.496100
16.748100 1.416100
16.781400 1.239200
16.814800 1.139200
16.848100 1.034800
16.881500 0.872600
16.914800 0.709700
16.948200 0.611000
16.981600 0.623900
17.014900 0.640200
17.048300 0.752200
17.081600 1.032600
17.115000 1.170300
17.148400 1.187300
17.181700 1.335000
17.215100 1.417200
17.248400 1.287300
17.281800 1.076000
17.315100 0.886400
17.348500 0.764100
17.381900 0.674800
17.415200 0.778000
17.448600 1.059600
17.481900 1.171500
17.515300 1.132200
17.548700 1.217800
17.582000 1.338400
17.615400 1.443600
17.648700 1.461900
17.682100 1.252800
17.715400 1.032100
17.748800 0.979200
17.782200 1.081400
17.815500 1.257900
17.848900 1.304100
17.882200 1.044300
17.915600 0.829500
17.949000 0.988400
17.982300 1.106400
18.015700 1.153200
18.049000 1.254500
18.082400 1.195900
18.115700 1.115800
18.149100 1.089300
18.182500 1.037300
18.215800 1.037300
18.249200 1.102100
18.282500 1.034400
18.315900 0.913600
18.349300 0.905300
18.382600 0.917300
18.416000 0.860400
18.449300 0.671400
18.482700 0.492500
18.516000 0.488300
18.549400 0.559900
18.582800 0.576600
18.616100 0.558100
18.649500 0.624500
18.682800 0.764200
18.716200 0.869300
18.749500 0.879700
18.782900 0.858500
18.816300 0.836000
18.849600 0.810600
18.883000 0.809600
18.916300 0.833600
18.949700 0.924700
18.983100 1.050400
19.016400 1.097300
19.049800 1.185300
19.083100 1.405700
19.116500 1.519100
19.149800 1.389700
19.183200 1.362100
19.216600 1.567400
19.249900 1.747000
19.283300 1.703100
19.316600 1.391500
19.350000 1.027700
19.383400 0.875100
19.416700 0.989200
19.450100 1.131700
19.483400 1.026700
19.516800 0.911400
19.550100 0.938800
19.583500 0.989700
19.616900 0.990800
19.650200 0.866000
19.683600 0.726200
19.716900 0.804800
19.750300 0.919600
19.783700 0.814600
19.817000 0.691600
19.850400 0.734400
19.883700 0.886700
19.917100 0.972000
19.950400 0.913700
19.983800 0.981700
20.017200 1.087900
20.050500 0.997800
20.083900 0.933200
20.117200 1.083200
20.150600 1.335000
20.183900 1.481200
20.217300 1.516000
20.250700 1.477700
20.284000 1.328100
20.317400 1.103500
20.350700 1.133600
20.384100 1.362600
20.417500 1.469500
20.450800 1.485500
20.484200 1.566800
20.517500 1.519100
20.550900 1.278600
20.584200 1.221700
20.617600 1.326000
20.651000 1.373800
20.684300 1.388800
20.717700 1.341700
20.751000 1.258700
20.784400 1.269800
20.817800 1.236300
20.851100 1.140900
20.884500 1.189300
20.917800 1.245100
20.951200 1.218800
20.984500 1.156300
21.017900 1.033100
21.051300 1.012200
21.084600 1.164100
21.118000 1.339300
21.151300 1.405000
21.184700 1.278700
21.218100 1.001600
21.251400 0.825400
21.284800 0.884900
21.318100 1.167500
21.351500 1.505000
21.384800 1.642300
21.418200 1.559200
21.451600 1.306900
21.484900 0.999900
21.518300 0.878100
21.551600 0.994400
21.585000 1.104600
21.618400 1.087900
21.651700 1.088100
21.685100 1.107700
21.718400 1.175600
21.751800 1.342200
21.785100 1.493100
21.818500 1.517500
21.851900 1.513300
21.885200 1.551100
21.918600 1.485300
21.951900 1.276000
21.985300 1.144300
22.018600 1.151200
22.052000 1.314300
22.085400 1.428100
22.118700 1.347700
22.152100 1.123200
22.185400 0.886000
22.218800 0.859400
22.252200 1.071000
22.285500 1.239300
22.318900 1.247600
22.352200 1.129600
22.385600 0.981100
22.418900 0.987900
22.452300 1.165700
22.485700 1.284900
22.519000 1.123400
22.552400 0.923600
22.585700 0.901800
22.619100 0.928900
22.652500 1.040400
22.685800 1.350400
22.719200 1.687800
22.752500 1.784800
22.785900 1.769700
22.819200 1.687800
22.852600 1.421600
22.886000 1.119100
22.919300 1.014000
22.952700 1.114400
22.986000 1.128000
23.019400 1.052300
23.052800 1.148500
23.086100 1.355100
23.119500 1.375300
23.152800 1.316600
23.186200 1.359400
23.219500 1.398600
23.252900 1.540000
23.286300 1.564400
23.319600 1.379600
23.353000 1.469500
23.386300 1.656000
23.419700 1.568600
23.453100 1.371200
23.486400 1.298600
23.519800 1.343400
23.553100 1.219900
23.586500 1.038400
23.619800 1.099300
23.653200 1.161700
23.686600 0.943100
23.719900 0.692300
23.753300 0.700100
23.786600 0.916100
23.820000 1.064600
23.853300 1.006700
23.886700 0.871400
23.920100 0.733800
23.953400 0.740400
23.986800 0.841300
24.020100 0.835400
24.053500 0.746800
24.086900 0.666200
24.120200 0.706800
24.153600 0.863700
24.186900 1.042900
24.220300 1.219200
24.253600 1.365400
24.287000 1.372700
24.320400 1.125100
24.353700 0.916900
24.387100 0.891400
24.420400 0.923400
24.453800 1.074100
24.487200 1.173900
24.520500 1.151800
24.553900 1.270100
24.587200 1.551400
24.620600 1.739400
24.653900 1.533900
24.687300 1.002300
24.720700 0.628700
24.754000 0.720600
24.787400 1.076400
24.820700 1.271100
24.854100 1.217100
24.887500 0.976800
24.920800 0.668100
24.954200 0.583200
24.987500 0.689300
25.020900 0.765500
25.054200 0.835100
25.087600 0.848100
25.121000 0.729900
25.154300 0.680100
25.187700 0.857700
25.221000 1.132100
25.254400 1.285700
25.287800 1.224100
25.321100 1.020000
25.354500 0.853100
25.387800 0.742500
25.421200 0.613200
25.454500 0.588700
25.487900 0.741100
25.521300 0.909400
25.554600 0.992600
25.588000 0.875100
25.621300 0.668700
25.654700 0.582400
25.688000 0.621900
25.721400 0.808600
25.754800 1.152300
25.788100 1.473500
25.821500 1.531000
25.854800 1.283700
25.888200 0.916500
25.921600 0.683200
25.954900 0.663200
25.988300 0.781300
26.021600 1.029100
26.055000 1.464900
26.088300 1.824300
26.121700 1.603400
26.155100 1.057100
26.188400 0.784800
26.221800 0.740300
26.255100 0.769700
26.288500 0.950000
26.321900 1.066000
26.355200 1.018400
26.388600 1.077200
26.421900 1.142600
26.455300 1.061200
26.488600 1.092600
26.522000 1.258400
26.555400 1.378400
26.588700 1.438800
26.622100 1.367200
26.655400 1.147400
26.688800 1.043700
26.722200 1.052500
26.755500 0.921600
26.788900 0.751200
26.822200 0.826700
26.855600 1.101600
26.888900 1.200500
26.922300 1.002400
26.955700 0.890600
26.989000 1.084000
27.022400 1.211200
27.055700 1.044500
27.089100 0.762300
27.122400 0.598400
27.155800 0.682600
27.189200 0.943400
27.222500 1.205100
27.255900 1.235800
27.289200 1.101100
27.322600 0.980000
27.356000 0.954400
27.389300 0.974200
27.422700 0.925400
27.456000 0.872900
27.489400 0.924200
27.522700 1.100900
27.556100 1.206500
27.589500 1.129200
27.622800 1.076200
27.656200 1.301000
27.689500 1.599100
27.722900 1.498400
27.756300 1.134600
27.789600 0.933500
27.823000 1.024400
27.856300 1.171200
27.889700 1.200400
27.923000 1.194700
27.956400 1.191900
27.989800 1.262400
28.023100 1.396300
28.056500 1.387700
28.089800 1.231300
28.123200 0.994700
28.156600 0.854500
28.189900 1.025500
28.223300 1.328500
28.256600 1.320800
28.290000 1.109600
28.323300 1.093000
28.356700 1.174600
28.390100 1.312100
28.423400 1.502700
28.456800 1.576100
28.490100 1.650500
28.523500 1.681900
28.556900 1.507700
28.590200 1.319100
28.623600 1.180000
28.656900 1.085900
28.690300 1.176600
28.723600 1.417800
28.757000 1.619100
28.790400 1.645300
28.823700 1.649600
28.857100 1.739000
28.890400 1.755500
28.923800 1.647800
28.957100 1.587500
28.990500 1.707500
29.023900 1.667500
29.057200 1.421700
29.090600 1.330800
29.123900 1.480900
29.157300 1.624000
29.190700 1.620800
29.224000 1.476500
29.257400 1.289500
29.290700 1.251300
29.324100 1.345700
29.357400 1.372300
29.390800 1.322400
29.424200 1.246600
29.457500 1.232700
29.490900 1.408000
29.524200 1.578500
29.557600 1.510500
29.591000 1.287500
29.624300 1.090800
29.657700 1.123400
29.691000 1.329000
29.724400 1.465700
29.757700 1.375200
29.791100 1.182100
29.824500 1.148300
29.857800 1.267800
29.891200 1.497500
29.924500 1.783700
29.957900 1.902600
29.991300 1.772700
30.024600 1.510500
30.058000 1.397700
30.091300 1.594700
30.124700 1.743800
30.158000 1.569400
30.191400 1.405100
30.224800 1.575700
30.258100 1.794400
30.291500 1.711100
30.324800 1.615400
30.358200 1.553500
30.391600 1.409300
30.424900 1.360900
30.458300 1.319400
30.491600 1.379100
30.525000 1.647100
30.558300 1.688400
30.591700 1.468900
30.625100 1.372100
30.658400 1.425800
30.691800 1.507700
30.725100 1.594600
30.758500 1.595100
30.791800 1.471200
30.825200 1.428600
30.858600 1.603200
30.891900 1.722900
30.925300 1.522600
30.958600 1.209400
30.992000 0.970800
31.025400 0.958900
31.058700 1.111600
31.092100 1.289800
31.125400 1.317100
31.158800 1.087300
31.192100 0.876400
31.225500 0.981800
31.258900 1.224700
31.292200 1.241500
31.325600 1.105000
31.358900 0.996900
31.392300 1.072400
31.425700 1.362500
31.459000 1.611700
31.492400 1.559200
31.525700 1.372600
31.559100 1.370200
31.592400 1.502000
31.625800 1.546900
31.659200 1.566600
31.692500 1.603200
31.725900 1.507500
31.759200 1.457800
31.792600 1.567200
31.826000 1.627600
31.859300 1.641500
31.892700 1.768300
31.926000 1.616500
31.959400 1.128600
31.992700 0.908600
32.026100 1.077800
32.059500 1.420200
32.092800 1.653400
32.126200 1.389800
32.159500 0.862100
32.192900 0.700500
32.226300 1.042400
32.259600 1.530200
32.293000 1.764900
32.326300 1.636700
32.359700 1.270400
32.393000 0.976000
32.426400 0.972400
32.459800 1.006900
32.493100 1.100200
32.526500 1.421100
32.559800 1.592200
32.593200 1.500800
32.626500 1.388600
32.659900 1.270800
32.693300 1.227800
32.726600 1.478200
32.760000 1.674700
32.793300 1.431400
32.826700 1.127500
32.860100 1.035700
32.893400 1.123600
32.926800 1.492000
32.960100 1.936200
32.993500 2.062100
33.026800 2.004400
33.060200 1.899200
33.093600 1.688400
33.126900 1.482000
33.160300 1.319800
33.193600 1.321400
33.227000 1.391800
33.260400 1.432500
33.293700 1.541700
33.327100 1.508100
33.360400 1.218900
33.393800 1.103400
33.427100 1.281500
33.460500 1.552100
33.493900 1.795300
33.527200 1.809400
33.560600 1.651300
33.593900 1.655900
33.627300 1.790100
33.660700 1.933500
33.694000 2.107200
33.727400 2.255300
33.760700 2.230400
33.794100 2.173200
33.827400 2.192100
33.860800 2.061200
33.894200 1.836300
33.927500 1.719300
33.960900 1.646700
33.994200 1.600500
34.027600 1.594800
34.061000 1.518300
34.094300 1.391000
34.127700 1.382900
34.161000 1.413400
34.194400 1.423300
34.227700 1.508800
34.261100 1.611700
34.294500 1.620800
34.327800 1.493600
34.361200 1.293800
34.394500 1.129100
34.427900 1.141500
34.461200 1.258500
34.494600 1.239600
34.528000 1.012400
34.561300 0.778400
34.594700 0.699700
34.628000 0.717100
34.661400 0.624800
34.694800 0.440600
34.728100 0.312800
34.761500 0.310400
34.794800 0.408900
34.828200 0.494800
34.861500 0.554800
34.894900 0.648300
34.928300 0.646800
34.961600 0.501200
34.995000 0.297100
35.028300 0.155400
35.061700 0.185300
35.095100 0.299800
35.128400 0.335900
35.161800 0.310000
35.195100 0.296900
35.228500 0.313100
35.261800 0.357300
35.295200 0.307100
35.328600 0.166700
35.361900 0.120700
35.395300 0.147000
35.428600 0.166000
35.462000 0.149900
35.495400 0.083100
35.528700 0.045300
35.562100 0.077600
35.595400 0.099800
35.628800 0.057900
35.662100 0.014600
35.695500 0.001600
35.728900 0.000100
35.762200 0.000000
35.795600 0.000000
35.828900 0.000000
35.862300 0.000000
35.895600 0.000000
35.929000 0.000000
35.962400 0.000000
35.995700 0.000000
36.029100 0.000000
36.062400 0.000000
36.095800 0.000000
36.129200 0.000000
36.162500 0.000000
36.195900 0.000000
36.229200 0.000000
36.262600 0.000000
36.295900 0.000000
36.329300 0.000000
36.362700 0.000000
36.396000 0.000000
36.429400 0.000000
36.462700 0.000000
36.496100 0.000000
36.529500 0.000000
36.562800 0.000000
36.596200 0.000000
36.629500 0.000000
36.662900 0.000000
36.696200 0.000000
36.729600 0.000000
36.763000 0.000000
36.796300 0.000000
36.829700 0.000000
36.863000 0.000000
36.896400 0.000000
36.929800 0.000000
36.963100 0.000000
36.996500 0.000000
37.029800 0.000000
37.063200 0.000000
37.096500 0.000000
37.129900 0.000000
37.163300 0.000000
37.196600 0.000000
37.230000 0.000000
37.263300 0.000000
37.296700 0.000000
37.330100 0.000000
37.363400 0.000000
37.396800 0.000000
37.430100 0.000000
37.463500 0.000000
37.496800 0.000000
37.530200 0.000000
37.563600 0.000000
37.596900 0.000000
37.630300 0.000000
37.663600 0.000000
37.697000 0.000000
37.730300 0.000000
37.763700 0.000000
37.797100 0.000000
37.830400 0.000000
37.863800 0.000000
37.897100 0.000000
37.930500 0.000000
37.963900 0.000000
37.997200 0.000000
38.030600 0.000000
38.063900 0.000000
38.097300 0.000000
38.130600 0.000000
38.164000 0.000000
38.197400 0.000000
38.230700 0.000000
38.264100 0.000000
38.297400 0.000000
38.330800 0.000000
38.364200 0.000000
38.397500 0.000000
38.430900 0.000000
38.464200 0.000000
38.497600 0.000000
38.530900 0.000000
38.564300 0.000000
38.597700 0.000000
38.631000 0.000000
38.664400 0.000000
e
