set title 'mp-1186158 - Density of States'
set xlabel 'Energy (eV)'
set ylabel 'DOS (states/eV)'
set grid
set xrange [-10:10]
set yrange [0:93.352]
set xzeroaxis lt -1
set terminal png size 800,600
set output 'mp-1186158_dos_gnuplot.png'
plot '-' using 1:2 with lines title 'DOS'
-20.967000 0.000000
-20.942100 0.000000
-20.917200 0.000000
-20.892200 0.000000
-20.867300 0.000000
-20.842400 0.000000
-20.817500 0.000000
-20.792600 0.000000
-20.767700 0.000000
-20.742700 0.000000
-20.717800 0.000000
-20.692900 0.000000
-20.668000 0.000000
-20.643100 0.000000
-20.618200 0.000000
-20.593200 0.000000
-20.568300 0.000000
-20.543400 0.000000
-20.518500 0.000000
-20.493600 0.000000
-20.468700 0.000000
-20.443700 0.000000
-20.418800 0.000000
-20.393900 0.000000
-20.369000 0.000000
-20.344100 0.000000
-20.319200 0.000000
-20.294200 0.000000
-20.269300 0.000000
-20.244400 0.000000
-20.219500 0.000000
-20.194600 0.000000
-20.169700 0.000000
-20.144700 0.000000
-20.119800 0.000000
-20.094900 0.000000
-20.070000 0.000000
-20.045100 0.000000
-20.020200 0.000000
-19.995200 0.000000
-19.970300 0.000000
-19.945400 0.000000
-19.920500 0.000000
-19.895600 0.000000
-19.870700 0.000000
-19.845700 0.000000
-19.820800 0.000000
-19.795900 0.000000
-19.771000 0.000000
-19.746100 0.000000
-19.721200 0.000000
-19.696200 0.000000
-19.671300 0.000000
-19.646400 0.000000
-19.621500 0.000000
-19.596600 0.000000
-19.571700 0.000000
-19.546700 0.000000
-19.521800 0.000000
-19.496900 0.000000
-19.472000 0.000000
-19.447100 0.000000
-19.422100 0.000000
-19.397200 0.000000
-19.372300 0.000000
-19.347400 0.000000
-19.322500 0.000000
-19.297600 0.000000
-19.272600 0.000000
-19.247700 0.000000
-19.222800 0.000000
-19.197900 0.000000
-19.173000 0.000000
-19.148100 0.000000
-19.123100 0.000000
-19.098200 0.000000
-19.073300 0.000000
-19.048400 0.000000
-19.023500 0.000000
-18.998600 0.000000
-18.973600 0.000000
-18.948700 0.000000
-18.923800 0.000000
-18.898900 0.000000
-18.874000 0.000100
-18.849100 0.002800
-18.824100 0.048700
-18.799200 0.530200
-18.774300 3.574800
-18.749400 14.939200
-18.724500 38.743900
-18.699600 62.412200
-18.674600 62.477600
-18.649700 38.865700
-18.624800 15.017300
-18.599900 3.600900
-18.575000 0.535200
-18.550100 0.049200
-18.525100 0.002800
-18.500200 0.000100
-18.475300 0.000000
-18.450400 0.000000
-18.425500 0.000000
-18.400600 0.000000
-18.375600 0.000000
-18.350700 0.000000
-18.325800 0.000000
-18.300900 0.000000
-18.276000 0.000000
-18.251100 0.000000
-18.226100 0.000000
-18.201200 0.000000
-18.176300 0.000000
-18.151400 0.000000
-18.126500 0.000000
-18.101600 0.000000
-18.076600 0.000000
-18.051700 0.000000
-18.026800 0.000000
-18.001900 0.000000
-17.977000 0.000000
-17.952100 0.000000
-17.927100 0.000000
-17.902200 0.000000
-17.877300 0.000000
-17.852400 0.000000
-17.827500 0.000000
-17.802600 0.000000
-17.777600 0.000000
-17.752700 0.000000
-17.727800 0.000000
-17.702900 0.000000
-17.678000 0.000000
-17.653100 0.000000
-17.628100 0.000000
-17.603200 0.000000
-17.578300 0.000000
-17.553400 0.000000
-17.528500 0.000000
-17.503600 0.000000
-17.478600 0.000000
-17.453700 0.000000
-17.428800 0.000000
-17.403900 0.000000
-17.379000 0.000000
-17.354000 0.000000
-17.329100 0.000000
-17.304200 0.000000
-17.279300 0.000000
-17.254400 0.000000
-17.229500 0.000000
-17.204500 0.000000
-17.179600 0.000000
-17.154700 0.000000
-17.129800 0.000000
-17.104900 0.000000
-17.080000 0.000000
-17.055000 0.000000
-17.030100 0.000000
-17.005200 0.000000
-16.980300 0.000000
-16.955400 0.000000
-16.930500 0.000000
-16.905500 0.000000
-16.880600 0.000000
-16.855700 0.000000
-16.830800 0.000000
-16.805900 0.000000
-16.781000 0.000000
-16.756000 0.000000
-16.731100 0.000000
-16.706200 0.000000
-16.681300 0.000000
-16.656400 0.000000
-16.631500 0.000000
-16.606500 0.000000
-16.581600 0.000000
-16.556700 0.000000
-16.531800 0.000000
-16.506900 0.000000
-16.482000 0.000000
-16.457000 0.000000
-16.432100 0.000000
-16.407200 0.000000
-16.382300 0.000000
-16.357400 0.000000
-16.332500 0.000000
-16.307500 0.000000
-16.282600 0.000000
-16.257700 0.000000
-16.232800 0.000000
-16.207900 0.000000
-16.183000 0.000000
-16.158000 0.000000
-16.133100 0.000000
-16.108200 0.000000
-16.083300 0.000000
-16.058400 0.000000
-16.033500 0.000000
-16.008500 0.000000
-15.983600 0.000000
-15.958700 0.000000
-15.933800 0.000000
-15.908900 0.000000
-15.884000 0.000000
-15.859000 0.000000
-15.834100 0.000000
-15.809200 0.000000
-15.784300 0.000000
-15.759400 0.000000
-15.734500 0.000000
-15.709500 0.000000
-15.684600 0.000000
-15.659700 0.000000
-15.634800 0.000000
-15.609900 0.000000
-15.585000 0.000000
-15.560000 0.000000
-15.535100 0.000000
-15.510200 0.000000
-15.485300 0.000000
-15.460400 0.000000
-15.435500 0.000000
-15.410500 0.000000
-15.385600 0.000000
-15.360700 0.000000
-15.335800 0.000000
-15.310900 0.000000
-15.285900 0.000000
-15.261000 0.000000
-15.236100 0.000000
-15.211200 0.000000
-15.186300 0.000000
-15.161400 0.000000
-15.136400 0.000000
-15.111500 0.000000
-15.086600 0.000000
-15.061700 0.000000
-15.036800 0.000000
-15.011900 0.000000
-14.986900 0.000000
-14.962000 0.000000
-14.937100 0.000000
-14.912200 0.000000
-14.887300 0.000000
-14.862400 0.000000
-14.837400 0.000000
-14.812500 0.000000
-14.787600 0.000000
-14.762700 0.000000
-14.737800 0.000000
-14.712900 0.000000
-14.687900 0.000000
-14.663000 0.000000
-14.638100 0.000000
-14.613200 0.000000
-14.588300 0.000000
-14.563400 0.000000
-14.538400 0.000000
-14.513500 0.000000
-14.488600 0.000000
-14.463700 0.000000
-14.438800 0.000000
-14.413900 0.000000
-14.388900 0.000000
-14.364000 0.000000
-14.339100 0.000000
-14.314200 0.000000
-14.289300 0.000000
-14.264400 0.000000
-14.239400 0.000000
-14.214500 0.000000
-14.189600 0.000000
-14.164700 0.000000
-14.139800 0.000000
-14.114900 0.000000
-14.089900 0.000000
-14.065000 0.000000
-14.040100 0.000000
-14.015200 0.000000
-13.990300 0.000000
-13.965400 0.000000
-13.940400 0.000000
-13.915500 0.000000
-13.890600 0.000000
-13.865700 0.000000
-13.840800 0.000000
-13.815900 0.000000
-13.790900 0.000000
-13.766000 0.000000
-13.741100 0.000000
-13.716200 0.000000
-13.691300 0.000000
-13.666400 0.000000
-13.641400 0.000000
-13.616500 0.000000
-13.591600 0.000000
-13.566700 0.000000
-13.541800 0.000000
-13.516900 0.000000
-13.491900 0.000000
-13.467000 0.000000
-13.442100 0.000000
-13.417200 0.000000
-13.392300 0.000000
-13.367400 0.000000
-13.342400 0.000000
-13.317500 0.000000
-13.292600 0.000000
-13.267700 0.000000
-13.242800 0.000000
-13.217800 0.000000
-13.192900 0.000000
-13.168000 0.000000
-13.143100 0.000000
-13.118200 0.000000
-13.093300 0.000000
-13.068300 0.000000
-13.043400 0.000000
-13.018500 0.000000
-12.993600 0.000000
-12.968700 0.000000
-12.943800 0.000000
-12.918800 0.000000
-12.893900 0.000000
-12.869000 0.000000
-12.844100 0.000000
-12.819200 0.000000
-12.794300 0.000000
-12.769300 0.000000
-12.744400 0.000000
-12.719500 0.000000
-12.694600 0.000000
-12.669700 0.000000
-12.644800 0.000000
-12.619800 0.000000
-12.594900 0.000000
-12.570000 0.000000
-12.545100 0.000000
-12.520200 0.000000
-12.495300 0.000000
-12.470300 0.000000
-12.445400 0.000000
-12.420500 0.000000
-12.395600 0.000000
-12.370700 0.000000
-12.345800 0.000000
-12.320800 0.000000
-12.295900 0.000000
-12.271000 0.000000
-12.246100 0.000000
-12.221200 0.000000
-12.196300 0.000000
-12.171300 0.000000
-12.146400 0.000000
-12.121500 0.000000
-12.096600 0.000000
-12.071700 0.000000
-12.046800 0.000000
-12.021800 0.000000
-11.996900 0.000000
-11.972000 0.000000
-11.947100 0.000000
-11.922200 0.000000
-11.897300 0.000000
-11.872300 0.000000
-11.847400 0.000000
-11.822500 0.000000
-11.797600 0.000000
-11.772700 0.000000
-11.747800 0.000000
-11.722800 0.000000
-11.697900 0.000000
-11.673000 0.000000
-11.648100 0.000000
-11.623200 0.000000
-11.598300 0.000000
-11.573300 0.000000
-11.548400 0.000000
-11.523500 0.000000
-11.498600 0.000000
-11.473700 0.000000
-11.448800 0.000000
-11.423800 0.000000
-11.398900 0.000000
-11.374000 0.000000
-11.349100 0.000000
-11.324200 0.000000
-11.299200 0.000000
-11.274300 0.000000
-11.249400 0.000000
-11.224500 0.000000
-11.199600 0.000000
-11.174700 0.000000
-11.149700 0.000000
-11.124800 0.000000
-11.099900 0.000000
-11.075000 0.000000
-11.050100 0.000000
-11.025200 0.000000
-11.000200 0.000000
-10.975300 0.000000
-10.950400 0.000000
-10.925500 0.000000
-10.900600 0.000000
-10.875700 0.000000
-10.850700 0.000000
-10.825800 0.000000
-10.800900 0.000000
-10.776000 0.000000
-10.751100 0.000000
-10.726200 0.000000
-10.701200 0.000000
-10.676300 0.000000
-10.651400 0.000000
-10.626500 0.000000
-10.601600 0.000000
-10.576700 0.000000
-10.551700 0.000000
-10.526800 0.000000
-10.501900 0.000000
-10.477000 0.000000
-10.452100 0.000000
-10.427200 0.000000
-10.402200 0.000000
-10.377300 0.000000
-10.352400 0.000000
-10.327500 0.000000
-10.302600 0.000000
-10.277700 0.000000
-10.252700 0.000000
-10.227800 0.000000
-10.202900 0.000000
-10.178000 0.000000
-10.153100 0.000000
-10.128200 0.000000
-10.103200 0.000000
-10.078300 0.000000
-10.053400 0.000000
-10.028500 0.000000
-10.003600 0.000000
-9.978700 0.000000
-9.953700 0.000000
-9.928800 0.000000
-9.903900 0.000000
-9.879000 0.000000
-9.854100 0.000000
-9.829200 0.000000
-9.804200 0.000000
-9.779300 0.000000
-9.754400 0.000000
-9.729500 0.000000
-9.704600 0.000000
-9.679700 0.000000
-9.654700 0.000000
-9.629800 0.000000
-9.604900 0.000000
-9.580000 0.000000
-9.555100 0.000000
-9.530200 0.000000
-9.505200 0.000000
-9.480300 0.000000
-9.455400 0.000000
-9.430500 0.000000
-9.405600 0.000000
-9.380700 0.000000
-9.355700 0.000000
-9.330800 0.000000
-9.305900 0.000000
-9.281000 0.000000
-9.256100 0.000000
-9.231100 0.000000
-9.206200 0.000000
-9.181300 0.000500
-9.156400 0.006900
-9.131500 0.057200
-9.106600 0.315000
-9.081600 1.212900
-9.056700 3.509100
-9.031800 8.352400
-9.006900 17.454200
-8.982000 32.017300
-8.957100 49.804500
-8.932100 64.970100
-8.907200 73.931900
-8.882300 78.800500
-8.857400 81.815200
-8.832500 81.876400
-8.807600 79.911700
-8.782600 80.194100
-8.757700 83.219200
-8.732800 84.865700
-8.707900 82.924300
-8.683000 78.299900
-8.658100 71.586900
-8.633100 60.799200
-8.608200 44.294700
-8.583300 25.876700
-8.558400 11.870100
-8.533500 4.363500
-8.508600 1.306700
-8.483600 0.307400
-8.458700 0.052700
-8.433800 0.006200
-8.408900 0.000500
-8.384000 0.000000
-8.359100 0.000000
-8.334100 0.000000
-8.309200 0.000000
-8.284300 0.000000
-8.259400 0.000000
-8.234500 0.000000
-8.209600 0.000000
-8.184600 0.000000
-8.159700 0.000000
-8.134800 0.000000
-8.109900 0.000000
-8.085000 0.000000
-8.060100 0.000000
-8.035100 0.000000
-8.010200 0.000000
-7.985300 0.000000
-7.960400 0.000000
-7.935500 0.000000
-7.910600 0.000000
-7.885600 0.000000
-7.860700 0.000000
-7.835800 0.000000
-7.810900 0.000000
-7.786000 0.000000
-7.761100 0.000000
-7.736100 0.000000
-7.711200 0.000000
-7.686300 0.000000
-7.661400 0.000000
-7.636500 0.000000
-7.611600 0.000000
-7.586600 0.000000
-7.561700 0.000000
-7.536800 0.000000
-7.511900 0.000000
-7.487000 0.000000
-7.462100 0.000000
-7.437100 0.000000
-7.412200 0.000000
-7.387300 0.000000
-7.362400 0.000000
-7.337500 0.000000
-7.312600 0.000000
-7.287600 0.000000
-7.262700 0.000000
-7.237800 0.000000
-7.212900 0.000000
-7.188000 0.000000
-7.163000 0.000000
-7.138100 0.000000
-7.113200 0.000000
-7.088300 0.000000
-7.063400 0.000000
-7.038500 0.000000
-7.013500 0.000000
-6.988600 0.000000
-6.963700 0.000000
-6.938800 0.000000
-6.913900 0.000000
-6.889000 0.000000
-6.864000 0.000000
-6.839100 0.000000
-6.814200 0.000000
-6.789300 0.000000
-6.764400 0.000000
-6.739500 0.000000
-6.714500 0.000000
-6.689600 0.000000
-6.664700 0.000000
-6.639800 0.000000
-6.614900 0.000000
-6.590000 0.000000
-6.565000 0.000000
-6.540100 0.000000
-6.515200 0.000000
-6.490300 0.000000
-6.465400 0.000000
-6.440500 0.000000
-6.415500 0.000000
-6.390600 0.000000
-6.365700 0.000000
-6.340800 0.000000
-6.315900 0.000000
-6.291000 0.000000
-6.266000 0.000000
-6.241100 0.000000
-6.216200 0.000000
-6.191300 0.000000
-6.166400 0.000000
-6.141500 0.000000
-6.116500 0.000000
-6.091600 0.000000
-6.066700 0.000000
-6.041800 0.000000
-6.016900 0.000000
-5.992000 0.000000
-5.967000 0.000000
-5.942100 0.000000
-5.917200 0.000000
-5.892300 0.000000
-5.867400 0.000000
-5.842500 0.000000
-5.817500 0.000000
-5.792600 0.000000
-5.767700 0.000000
-5.742800 0.000000
-5.717900 0.000000
-5.693000 0.000000
-5.668000 0.000000
-5.643100 0.000000
-5.618200 0.000000
-5.593300 0.000000
-5.568400 0.000000
-5.543500 0.000000
-5.518500 0.000000
-5.493600 0.000000
-5.468700 0.000000
-5.443800 0.000000
-5.418900 0.000000
-5.394000 0.000000
-5.369000 0.000000
-5.344100 0.000000
-5.319200 0.000000
-5.294300 0.000000
-5.269400 0.000000
-5.244500 0.000000
-5.219500 0.000000
-5.194600 0.000000
-5.169700 0.000000
-5.144800 0.000000
-5.119900 0.000000
-5.094900 0.000000
-5.070000 0.000000
-5.045100 0.000000
-5.020200 0.000000
-4.995300 0.000000
-4.970400 0.000000
-4.945400 0.000000
-4.920500 0.000000
-4.895600 0.000000
-4.870700 0.000000
-4.845800 0.000000
-4.820900 0.000000
-4.795900 0.000000
-4.771000 0.000000
-4.746100 0.000000
-4.721200 0.000000
-4.696300 0.000000
-4.671400 0.000000
-4.646400 0.000000
-4.621500 0.000000
-4.596600 0.000000
-4.571700 0.000000
-4.546800 0.000000
-4.521900 0.000000
-4.496900 0.000000
-4.472000 0.000000
-4.447100 0.000000
-4.422200 0.000000
-4.397300 0.000000
-4.372400 0.000000
-4.347400 0.000000
-4.322500 0.000000
-4.297600 0.000000
-4.272700 0.000000
-4.247800 0.000000
-4.222900 0.000000
-4.197900 0.000000
-4.173000 0.000000
-4.148100 0.000000
-4.123200 0.000000
-4.098300 0.000000
-4.073400 0.000000
-4.048400 0.000000
-4.023500 0.000000
-3.998600 0.000000
-3.973700 0.000000
-3.948800 0.000000
-3.923900 0.000000
-3.898900 0.000000
-3.874000 0.000000
-3.849100 0.000000
-3.824200 0.000000
-3.799300 0.000000
-3.774400 0.000000
-3.749400 0.000000
-3.724500 0.000000
-3.699600 0.000000
-3.674700 0.000000
-3.649800 0.000000
-3.624900 0.000000
-3.599900 0.000000
-3.575000 0.000000
-3.550100 0.000000
-3.525200 0.000000
-3.500300 0.000000
-3.475400 0.000000
-3.450400 0.000000
-3.425500 0.000000
-3.400600 0.000000
-3.375700 0.000000
-3.350800 0.000000
-3.325900 0.000000
-3.300900 0.000000
-3.276000 0.000000
-3.251100 0.000000
-3.226200 0.000000
-3.201300 0.000000
-3.176400 0.000000
-3.151400 0.000000
-3.126500 0.000000
-3.101600 0.000000
-3.076700 0.000000
-3.051800 0.000000
-3.026800 0.000000
-3.001900 0.000000
-2.977000 0.000000
-2.952100 0.000000
-2.927200 0.000000
-2.902300 0.000000
-2.877300 0.000400
-2.852400 0.002500
-2.827500 0.010800
-2.802600 0.030000
-2.777700 0.058700
-2.752800 0.090800
-2.727800 0.126100
-2.702900 0.178700
-2.678000 0.271700
-2.653100 0.372400
-2.628200 0.376600
-2.603300 0.259400
-2.578300 0.136600
-2.553400 0.126200
-2.528500 0.253500
-2.503600 0.441200
-2.478700 0.558600
-2.453800 0.555300
-2.428800 0.513800
-2.403900 0.543300
-2.379000 0.611400
-2.354100 0.555100
-2.329200 0.356400
-2.304300 0.197400
-2.279300 0.190800
-2.254400 0.294600
-2.229500 0.454200
-2.204600 0.642200
-2.179700 0.771600
-2.154800 0.778000
-2.129800 0.763000
-2.104900 0.830000
-2.080000 0.860400
-2.055100 0.691400
-2.030200 0.405800
-2.005300 0.230000
-1.980300 0.275800
-1.955400 0.488600
-1.930500 0.746300
-1.905600 0.951500
-1.880700 1.024200
-1.855800 0.955100
-1.830800 0.853500
-1.805900 0.779900
-1.781000 0.692800
-1.756100 0.586200
-1.731200 0.531900
-1.706300 0.575200
-1.681300 0.665300
-1.656400 0.763900
-1.631500 0.859500
-1.606600 0.890300
-1.581700 0.894500
-1.556800 1.013500
-1.531800 1.192900
-1.506900 1.208500
-1.482000 0.970100
-1.457100 0.644000
-1.432200 0.552500
-1.407300 0.864500
-1.382300 1.341000
-1.357400 1.559600
-1.332500 1.396100
-1.307600 1.068400
-1.282700 0.830600
-1.257800 0.744300
-1.232800 0.668100
-1.207900 0.503100
-1.183000 0.346100
-1.158100 0.338500
-1.133200 0.502200
-1.108300 0.756200
-1.083300 0.996500
-1.058400 1.202900
-1.033500 1.429200
-1.008600 1.669000
-0.983700 1.844200
-0.958700 1.829600
-0.933800 1.517300
-0.908900 1.010900
-0.884000 0.606700
-0.859100 0.497100
-0.834200 0.663300
-0.809200 0.932700
-0.784300 1.100000
-0.759400 1.129100
-0.734500 1.112200
-0.709600 1.084500
-0.684700 0.998200
-0.659700 0.815000
-0.634800 0.574600
-0.609900 0.380900
-0.585000 0.344100
-0.560100 0.456700
-0.535200 0.546100
-0.510200 0.520000
-0.485300 0.543600
-0.460400 0.748400
-0.435500 1.006200
-0.410600 1.183300
-0.385700 1.279200
-0.360700 1.262700
-0.335800 1.099900
-0.310900 0.861800
-0.286000 0.680400
-0.261100 0.670900
-0.236200 0.856700
-0.211200 1.105500
-0.186300 1.183000
-0.161400 1.007300
-0.136500 0.774200
-0.111600 0.694600
-0.086700 0.843700
-0.061700 1.173900
-0.036800 1.449700
-0.011900 1.492600
0.013000 1.459200
0.037900 1.514400
0.062800 1.533600
0.087800 1.474500
0.112700 1.549700
0.137600 1.704100
0.162500 1.665600
0.187400 1.519400
0.212300 1.369000
0.237300 1.066600
0.262200 0.710300
0.287100 0.563700
0.312000 0.608200
0.336900 0.683800
0.361800 0.802900
0.386800 1.089500
0.411700 1.492900
0.436600 1.804200
0.461500 1.920400
0.486400 1.759500
0.511300 1.277900
0.536300 0.749700
0.561200 0.510700
0.586100 0.555200
0.611000 0.684200
0.635900 0.798400
0.660800 0.894400
0.685800 0.953700
0.710700 1.010300
0.735600 1.127100
0.760500 1.214100
0.785400 1.199800
0.810300 1.215100
0.835300 1.286400
0.860200 1.239200
0.885100 1.074700
0.910000 1.052000
0.934900 1.289200
0.959800 1.527100
0.984800 1.451700
1.009700 1.101100
1.034600 0.754000
1.059500 0.574200
1.084400 0.549200
1.109400 0.656600
1.134300 0.909200
1.159200 1.213100
1.184100 1.387900
1.209000 1.373700
1.233900 1.250700
1.258900 1.169300
1.283800 1.277700
1.308700 1.562500
1.333600 1.823200
1.358500 1.901900
1.383400 1.861500
1.408400 1.921600
1.433300 2.182500
1.458200 2.329800
1.483100 1.974400
1.508000 1.284200
1.532900 0.761900
1.557900 0.616900
1.582800 0.763400
1.607700 1.030300
1.632600 1.206800
1.657500 1.327300
1.682400 1.664800
1.707400 2.144300
1.732300 2.308100
1.757200 1.945900
1.782100 1.399200
1.807000 1.147700
1.831900 1.182300
1.856900 1.113900
1.881800 0.848800
1.906700 0.677700
1.931600 0.807000
1.956500 1.092600
1.981400 1.206400
2.006400 1.129800
2.031300 1.166000
2.056200 1.368900
2.081100 1.543800
2.106000 1.636800
2.130900 1.637100
2.155900 1.488700
2.180800 1.291300
2.205700 1.252200
2.230600 1.471700
2.255500 1.767200
2.280400 1.792400
2.305400 1.511800
2.330300 1.210700
2.355200 1.079200
2.380100 1.108500
2.405000 1.153600
2.429900 1.087100
2.454900 0.984300
2.479800 0.991100
2.504700 1.081300
2.529600 1.115200
2.554500 1.117100
2.579400 1.216300
2.604400 1.372000
2.629300 1.405900
2.654200 1.212900
2.679100 0.907700
2.704000 0.745700
2.728900 0.801500
2.753900 0.871000
2.778800 0.789400
2.803700 0.624700
2.828600 0.523300
2.853500 0.528200
2.878400 0.592000
2.903400 0.704600
2.928300 0.902000
2.953200 1.100300
2.978100 1.132500
3.003000 1.001800
3.028000 0.839700
3.052900 0.768000
3.077800 0.847300
3.102700 0.946500
3.127600 0.952700
3.152500 0.984600
3.177500 1.100500
3.202400 1.175700
3.227300 1.117300
3.252200 0.997300
3.277100 0.964800
3.302000 1.002200
3.327000 0.972700
3.351900 0.926500
3.376800 0.978000
3.401700 0.986800
3.426600 0.822200
3.451500 0.659900
3.476500 0.630400
3.501400 0.644900
3.526300 0.716500
3.551200 0.981300
3.576100 1.383900
3.601000 1.586700
3.626000 1.334600
3.650900 0.892200
3.675800 0.797500
3.700700 1.245500
3.725600 1.906700
3.750500 2.203200
3.775500 1.865200
3.800400 1.244000
3.825300 0.845700
3.850200 0.758700
3.875100 0.806300
3.900000 0.890700
3.925000 0.926500
3.949900 0.850900
3.974800 0.790900
3.999700 0.959500
4.024600 1.494300
4.049500 2.220900
4.074500 2.576300
4.099400 2.251000
4.124300 1.632500
4.149200 1.328900
4.174100 1.623300
4.199000 2.268700
4.224000 2.658400
4.248900 2.535300
4.273800 2.312100
4.298700 2.353200
4.323600 2.435300
4.348500 2.340700
4.373500 2.257000
4.398400 2.196000
4.423300 1.905100
4.448200 1.437000
4.473100 1.113900
4.498000 1.107600
4.523000 1.317500
4.547900 1.472900
4.572800 1.390000
4.597700 1.236800
4.622600 1.291500
4.647500 1.516400
4.672500 1.723200
4.697400 1.895800
4.722300 2.076900
4.747200 2.245600
4.772100 2.367400
4.797000 2.350100
4.822000 2.142000
4.846900 1.897300
4.871800 1.791000
4.896700 1.765400
4.921600 1.673800
4.946500 1.469600
4.971500 1.189100
4.996400 1.006300
5.021300 1.123700
5.046200 1.519900
5.071100 1.980300
5.096100 2.292800
5.121000 2.445000
5.145900 2.681500
5.170800 3.056100
5.195700 3.104400
5.220600 2.541400
5.245600 1.910000
5.270500 1.824700
5.295400 2.040600
5.320300 1.955200
5.345200 1.614300
5.370100 1.475000
5.395100 1.474700
5.420000 1.222500
5.444900 0.822300
5.469800 0.710200
5.494700 1.032400
5.519600 1.683100
5.544600 2.539400
5.569500 3.241200
5.594400 3.307400
5.619300 2.787800
5.644200 2.106100
5.669100 1.514900
5.694100 1.213400
5.719000 1.402800
5.743900 2.023700
5.768800 2.660800
5.793700 2.874700
5.818600 2.633800
5.843600 2.177200
5.868500 1.664500
5.893400 1.178800
5.918300 0.819800
5.943200 0.717500
5.968100 0.977600
5.993100 1.440300
6.018000 1.680900
6.042900 1.571700
6.067800 1.445700
6.092700 1.488900
6.117600 1.540800
6.142600 1.528800
6.167500 1.525100
6.192400 1.488900
6.217300 1.343700
6.242200 1.166200
6.267100 1.141800
6.292100 1.416700
6.317000 1.905700
6.341900 2.287700
6.366800 2.443400
6.391700 2.539500
6.416600 2.596600
6.441600 2.483900
6.466500 2.229800
6.491400 1.995700
6.516300 1.834600
6.541200 1.704600
6.566100 1.636000
6.591100 1.707500
6.616000 1.836200
6.640900 1.815700
6.665800 1.644700
6.690700 1.534600
6.715600 1.546900
6.740600 1.556500
6.765500 1.550100
6.790400 1.686600
6.815300 2.050400
6.840200 2.425300
6.865100 2.447400
6.890100 2.126600
6.915000 1.880700
6.939900 1.857600
6.964800 1.772700
6.989700 1.502100
7.014600 1.302300
7.039600 1.376000
7.064500 1.532000
7.089400 1.457500
7.114300 1.157600
7.139200 0.989000
7.164200 1.276600
7.189100 1.843000
7.214000 2.127400
7.238900 1.892200
7.263800 1.468800
7.288700 1.297000
7.313700 1.518600
7.338600 1.908800
7.363500 2.061900
7.388400 1.781900
7.413300 1.308900
7.438200 1.108400
7.463200 1.490900
7.488100 2.320100
7.513000 2.969700
7.537900 2.931800
7.562800 2.437300
7.587700 2.035700
7.612700 2.014400
7.637600 2.298800
7.662500 2.481100
7.687400 2.238200
7.712300 1.747500
7.737200 1.421600
7.762200 1.457200
7.787100 1.702800
7.812000 1.883800
7.836900 1.919300
7.861800 1.914100
7.886700 1.955400
7.911700 2.017900
7.936600 2.089900
7.961500 2.144800
7.986400 1.962800
8.011300 1.461100
8.036200 0.982400
8.061200 0.893700
8.086100 1.212200
8.111000 1.738500
8.135900 2.203800
8.160800 2.292700
8.185700 1.988800
8.210700 1.761500
8.235600 1.983600
8.260500 2.445600
8.285400 2.727800
8.310300 2.685400
8.335200 2.389500
8.360200 2.009000
8.385100 1.905000
8.410000 2.406700
8.434900 3.186300
8.459800 3.419700
8.484700 2.906200
8.509700 2.174600
8.534600 1.597400
8.559500 1.267900
8.584400 1.299600
8.609300 1.695800
8.634200 2.189800
8.659200 2.398600
8.684100 2.209600
8.709000 1.981500
8.733900 2.007100
8.758800 2.042400
8.783700 1.874600
8.808700 1.801100
8.833600 2.020000
8.858500 2.244000
8.883400 2.110800
8.908300 1.643600
8.933200 1.356700
8.958200 1.704100
8.983100 2.552300
9.008000 3.285900
9.032900 3.291000
9.057800 2.578500
9.082700 1.753500
9.107700 1.264100
9.132600 1.189300
9.157500 1.499100
9.182400 2.066300
9.207300 2.704100
9.232300 3.205800
9.257200 3.256600
9.282100 2.730300
9.307000 2.115000
9.331900 2.068900
9.356800 2.589500
9.381800 3.055100
9.406700 3.037100
9.431600 2.703000
9.456500 2.380800
9.481400 2.204400
9.506300 2.304100
9.531300 2.791500
9.556200 3.361400
9.581100 3.408800
9.606000 2.774700
9.630900 1.976000
9.655800 1.599600
9.680800 1.777700
9.705700 2.245800
9.730600 2.597900
9.755500 2.510300
9.780400 2.140500
9.805300 2.053800
9.830300 2.405500
9.855200 2.740200
9.880100 2.692100
9.905000 2.329700
9.929900 1.968000
9.954800 1.856600
9.979800 2.021800
10.004700 2.444300
10.029600 3.013800
10.054500 3.357500
10.079400 3.218100
10.104300 2.861800
10.129300 2.735600
10.154200 2.829200
10.179100 2.774200
10.204000 2.529800
10.228900 2.452500
10.253800 2.696500
10.278800 2.956500
10.303700 2.901000
10.328600 2.612300
10.353500 2.437500
10.378400 2.537900
10.403300 2.654300
10.428300 2.393300
10.453200 1.759700
10.478100 1.210100
10.503000 1.127700
10.527900 1.453700
10.552800 1.893700
10.577800 2.204500
10.602700 2.291600
10.627600 2.251700
10.652500 2.207200
10.677400 2.176500
10.702300 2.149400
10.727300 2.062600
10.752200 1.839200
10.777100 1.622700
10.802000 1.659600
10.826900 1.954900
10.851800 2.377400
10.876800 2.770900
10.901700 2.936700
10.926600 2.942900
10.951500 2.965400
10.976400 2.875500
11.001300 2.635700
11.026300 2.509100
11.051200 2.511200
11.076100 2.336100
11.101000 1.887000
11.125900 1.441600
11.150800 1.275500
11.175800 1.375200
11.200700 1.630100
11.225600 2.031700
11.250500 2.484800
11.275400 2.781700
11.300400 2.927100
11.325300 3.098200
11.350200 3.365700
11.375100 3.643800
11.400000 3.677000
11.424900 3.312700
11.449900 2.813200
11.474800 2.466800
11.499700 2.257900
11.524600 2.225200
11.549500 2.601100
11.574400 3.331900
11.599400 3.887600
11.624300 3.795900
11.649200 3.154200
11.674100 2.427500
11.699000 1.952400
11.723900 1.831100
11.748900 1.999000
11.773800 2.224800
11.798700 2.262300
11.823600 2.090100
11.848500 1.864400
11.873400 1.652100
11.898400 1.492200
11.923300 1.476200
11.948200 1.540900
11.973100 1.549600
11.998000 1.516600
12.022900 1.490000
12.047900 1.549600
12.072800 1.878900
12.097700 2.389900
12.122600 2.667800
12.147500 2.536400
12.172400 2.259900
12.197400 2.233400
12.222300 2.606400
12.247200 3.065500
12.272100 3.154400
12.297000 2.817600
12.321900 2.343500
12.346900 2.022000
12.371800 1.997200
12.396700 2.215600
12.421600 2.420900
12.446500 2.404500
12.471400 2.264300
12.496400 2.264600
12.521300 2.588800
12.546200 3.056200
12.571100 3.249500
12.596000 3.158200
12.620900 3.122800
12.645900 3.187600
12.670800 3.133300
12.695700 2.885200
12.720600 2.492400
12.745500 2.112000
12.770400 1.995500
12.795400 2.189400
12.820300 2.465200
12.845200 2.533300
12.870100 2.334900
12.895000 2.125800
12.919900 1.968100
12.944900 1.623400
12.969800 1.192200
12.994700 1.132300
13.019600 1.554800
13.044500 2.046400
13.069400 2.276000
13.094400 2.335300
13.119300 2.381200
13.144200 2.409800
13.169100 2.416900
13.194000 2.457500
13.218900 2.556500
13.243900 2.713400
13.268800 2.840900
13.293700 2.815700
13.318600 2.756600
13.343500 2.803200
13.368500 2.796300
13.393400 2.680600
13.418300 2.629200
13.443200 2.625000
13.468100 2.741000
13.493000 3.177100
13.518000 3.557800
13.542900 3.464100
13.567800 3.157000
13.592700 2.879800
13.617600 2.573600
13.642500 2.241600
13.667500 1.869100
13.692400 1.508300
13.717300 1.374200
13.742200 1.458500
13.767100 1.524100
13.792000 1.560900
13.817000 1.716700
13.841900 1.892400
13.866800 1.906400
13.891700 1.863800
13.916600 1.985200
13.941500 2.245000
13.966500 2.418200
13.991400 2.377600
14.016300 2.150600
14.041200 1.920700
14.066100 2.039800
14.091000 2.574000
14.116000 3.046000
14.140900 3.087400
14.165800 2.885900
14.190700 2.824400
14.215600 3.072100
14.240500 3.472600
14.265500 3.762900
14.290400 3.804200
14.315300 3.535500
14.340200 3.113300
14.365100 2.952900
14.390000 3.151500
14.415000 3.339600
14.439900 3.267000
14.464800 3.017400
14.489700 2.746400
14.514600 2.434500
14.539500 2.058700
14.564500 1.887100
14.589400 2.117000
14.614300 2.425800
14.639200 2.385700
14.664100 2.098900
14.689000 1.955100
14.714000 2.017200
14.738900 2.049100
14.763800 1.951000
14.788700 1.846900
14.813600 1.845900
14.838500 1.859700
14.863500 1.732300
14.888400 1.549000
14.913300 1.463300
14.938200 1.483000
14.963100 1.646000
14.988000 1.946100
15.013000 2.295200
15.037900 2.746700
15.062800 3.370600
15.087700 4.090200
15.112600 4.788200
15.137500 5.193400
15.162500 4.942200
15.187400 4.126300
15.212300 3.346600
15.237200 3.017800
15.262100 2.980400
15.287000 2.934300
15.312000 2.840900
15.336900 2.908700
15.361800 3.301500
15.386700 3.726900
15.411600 3.821700
15.436600 3.804900
15.461500 4.027100
15.486400 4.335700
15.511300 4.266700
15.536200 3.703400
15.561100 3.110300
15.586100 2.817900
15.611000 2.703100
15.635900 2.665100
15.660800 2.753400
15.685700 3.000600
15.710600 3.300400
15.735600 3.413900
15.760500 3.255600
15.785400 3.076300
15.810300 3.141500
15.835200 3.357200
15.860100 3.423900
15.885100 3.262500
15.910000 3.075500
15.934900 3.040400
15.959800 3.172200
15.984700 3.380600
16.009600 3.467400
16.034600 3.293600
16.059500 3.040700
16.084400 3.000600
16.109300 3.095200
16.134200 2.968100
16.159100 2.582100
16.184100 2.355700
16.209000 2.622500
16.233900 3.230300
16.258800 3.743700
16.283700 3.890700
16.308600 3.799400
16.333600 3.682000
16.358500 3.503200
16.383400 3.329600
16.408300 3.373900
16.433200 3.469900
16.458100 3.404900
16.483100 3.563300
16.508000 4.236000
16.532900 4.951600
16.557800 5.131300
16.582700 4.775500
16.607600 4.396300
16.632600 4.436100
16.657500 4.730800
16.682400 4.705700
16.707300 4.053800
16.732200 3.019600
16.757100 2.115700
16.782100 1.764200
16.807000 1.961000
16.831900 2.344400
16.856800 2.689000
16.881700 2.941400
16.906600 3.022200
16.931600 3.015600
16.956500 3.097500
16.981400 3.098000
17.006300 2.727100
17.031200 2.183000
17.056100 2.046900
17.081100 2.599000
17.106000 3.481700
17.130900 4.077200
17.155800 4.100200
17.180700 3.842500
17.205600 3.673100
17.230600 3.427600
17.255500 2.857700
17.280400 2.181000
17.305300 1.743900
17.330200 1.698100
17.355200 2.008000
17.380100 2.447000
17.405000 2.719800
17.429900 2.734500
17.454800 2.636800
17.479700 2.530300
17.504700 2.400100
17.529600 2.371400
17.554500 2.495900
17.579400 2.396000
17.604300 1.888600
17.629200 1.457600
17.654200 1.530900
17.679100 1.950300
17.704000 2.363100
17.728900 2.576400
17.753800 2.511200
17.778700 2.240800
17.803700 1.952900
17.828600 1.777200
17.853500 1.796100
17.878400 1.942200
17.903300 2.082000
17.928200 2.280600
17.953200 2.561900
17.978100 2.811600
18.003000 3.065000
18.027900 3.375600
18.052800 3.550300
18.077700 3.429800
18.102700 3.216100
18.127600 3.042700
18.152500 2.734800
18.177400 2.293500
18.202300 1.954900
18.227200 1.852900
18.252200 1.965900
18.277100 2.290800
18.302000 2.780000
18.326900 3.102200
18.351800 3.008400
18.376700 2.820700
18.401700 3.010100
18.426600 3.522700
18.451500 3.879300
18.476400 3.772300
18.501300 3.318300
18.526200 2.835600
18.551200 2.549700
18.576100 2.565300
18.601000 2.887800
18.625900 3.317700
18.650800 3.640300
18.675700 3.860400
18.700700 3.952800
18.725600 3.737300
18.750500 3.244200
18.775400 2.801600
18.800300 2.640800
18.825200 2.629600
18.850200 2.555500
18.875100 2.494500
18.900000 2.640000
18.924900 2.941400
18.949800 3.136100
18.974700 3.110300
18.999700 3.009500
19.024600 2.981200
19.049500 3.086000
19.074400 3.412000
19.099300 3.889200
19.124200 4.197100
19.149200 4.148800
19.174100 3.796600
19.199000 3.288100
19.223900 2.896500
19.248800 2.854800
19.273700 3.100500
19.298700 3.490800
19.323600 3.864500
19.348500 3.886300
19.373400 3.532500
19.398300 3.271500
19.423300 3.310200
19.448200 3.377300
19.473100 3.287600
19.498000 2.998100
19.522900 2.537700
19.547800 2.366200
19.572800 2.984300
19.597700 4.018700
19.622600 4.559700
19.647500 4.390600
19.672400 4.007200
19.697300 3.769200
19.722300 3.728300
19.747200 3.710600
19.772100 3.489600
19.797000 3.171800
19.821900 2.996900
19.846800 2.951200
19.871800 2.970700
19.896700 3.132700
19.921600 3.365500
19.946500 3.288100
19.971400 2.806400
19.996300 2.445500
20.021300 2.635500
20.046200 3.294300
20.071100 4.083700
20.096000 4.754200
20.120900 5.172300
20.145800 5.042300
20.170800 4.354600
20.195700 3.725700
20.220600 3.545700
20.245500 3.531500
20.270400 3.323400
20.295300 2.966500
20.320300 2.745300
20.345200 2.789100
20.370100 3.095100
20.395000 3.523500
20.419900 3.687700
20.444800 3.512300
20.469800 3.487800
20.494700 3.787700
20.519600 3.950000
20.544500 3.672700
20.569400 3.151100
20.594300 2.701300
20.619300 2.471700
20.644200 2.457300
20.669100 2.441000
20.694000 2.194100
20.718900 1.965200
20.743800 2.192800
20.768800 2.891100
20.793700 3.706100
20.818600 4.356600
20.843500 4.830100
20.868400 5.182500
20.893300 5.311600
20.918300 5.002300
20.943200 4.350400
20.968100 3.920400
20.993000 4.021200
21.017900 4.247000
21.042800 3.991000
21.067800 3.254500
21.092700 2.674000
21.117600 2.724200
21.142500 3.329600
21.167400 4.132200
21.192300 4.763600
21.217300 4.882700
21.242200 4.328600
21.267100 3.368000
21.292000 2.535400
21.316900 2.146600
21.341800 2.086600
21.366800 2.087000
21.391700 2.066700
21.416600 2.207400
21.441500 2.834400
21.466400 4.014000
21.491400 5.086400
21.516300 5.194700
21.541200 4.398700
21.566100 3.560900
21.591000 3.287800
21.615900 3.583600
21.640900 4.172200
21.665800 4.649000
21.690700 4.779000
21.715600 4.633400
21.740500 4.153900
21.765400 3.334500
21.790400 2.633600
21.815300 2.476100
21.840200 2.778900
21.865100 3.215100
21.890000 3.601700
21.914900 3.865200
21.939900 3.837600
21.964800 3.462600
21.989700 3.079900
22.014600 3.076500
22.039500 3.361400
22.064400 3.613100
22.089400 3.868400
22.114300 4.219400
22.139200 4.379600
22.164100 4.073400
22.189000 3.368100
22.213900 2.535600
22.238900 1.979500
22.263800 2.157200
22.288700 3.074100
22.313600 3.989900
22.338500 4.121800
22.363400 3.576900
22.388400 3.061500
22.413300 2.931800
22.438200 3.065600
22.463100 3.320500
22.488000 3.710100
22.512900 4.078500
22.537900 4.026300
22.562800 3.496900
22.587700 2.964000
22.612600 2.848500
22.637500 3.126200
22.662400 3.447300
22.687400 3.496700
22.712300 3.303600
22.737200 3.094600
22.762100 3.006500
22.787000 3.161600
22.811900 3.706500
22.836900 4.444400
22.861800 4.821500
22.886700 4.626900
22.911600 4.232900
22.936500 3.977800
22.961400 3.771400
22.986400 3.518800
23.011300 3.406200
23.036200 3.607100
23.061100 4.061000
23.086000 4.346200
23.110900 4.077000
23.135900 3.492300
23.160800 3.016900
23.185700 2.786300
23.210600 2.792700
23.235500 2.908500
23.260400 2.992000
23.285400 3.043800
23.310300 3.072100
23.335200 2.959300
23.360100 2.696200
23.385000 2.483600
23.409900 2.357000
23.434900 2.201600
23.459800 2.083300
23.484700 2.056900
23.509600 2.043400
23.534500 1.951200
23.559500 1.680600
23.584400 1.284700
23.609300 0.946500
23.634200 0.787300
23.659100 0.923700
23.684000 1.404100
23.709000 1.936300
23.733900 2.086000
23.758800 1.818700
23.783700 1.497500
23.808600 1.406500
23.833500 1.488400
23.858500 1.576900
23.883400 1.642400
23.908300 1.628600
23.933200 1.477500
23.958100 1.419100
23.983000 1.650800
24.008000 1.857500
24.032900 1.670400
24.057800 1.217700
24.082700 0.824100
24.107600 0.660300
24.132500 0.714900
24.157500 0.800300
24.182400 0.734200
24.207300 0.596000
24.232200 0.569000
24.257100 0.628800
24.282000 0.637600
24.307000 0.574000
24.331900 0.526400
24.356800 0.589200
24.381700 0.805200
24.406600 1.058800
24.431500 1.131200
24.456500 1.021200
24.481400 0.910100
24.506300 0.794700
24.531200 0.578400
24.556100 0.348100
24.581000 0.236200
24.606000 0.271200
24.630900 0.450300
24.655800 0.706600
24.680700 0.837900
24.705600 0.729300
24.730500 0.568400
24.755500 0.578000
24.780400 0.685500
24.805300 0.669900
24.830200 0.521500
24.855100 0.421600
24.880000 0.411900
24.905000 0.367700
24.929900 0.258300
24.954800 0.153200
24.979700 0.082500
25.004600 0.049400
25.029500 0.057800
25.054500 0.083500
25.079400 0.084600
25.104300 0.054400
25.129200 0.026200
25.154100 0.032100
25.179000 0.097500
25.204000 0.230800
25.228900 0.375800
25.253800 0.441000
25.278700 0.429700
25.303600 0.421600
25.328500 0.396900
25.353500 0.285400
25.378400 0.147400
25.403300 0.092200
25.428200 0.135600
25.453100 0.216600
25.478000 0.292000
25.503000 0.374500
25.527900 0.433100
25.552800 0.381600
25.577700 0.231800
25.602600 0.093300
25.627600 0.024400
25.652500 0.004200
25.677400 0.001300
25.702300 0.006300
25.727200 0.029600
25.752100 0.086500
25.777100 0.158800
25.802000 0.189800
25.826900 0.165900
25.851800 0.138700
25.876700 0.141700
25.901600 0.172400
25.926600 0.207400
25.951500 0.208500
25.976400 0.175500
26.001300 0.138300
26.026200 0.106100
26.051100 0.077000
26.076100 0.049200
26.101000 0.024200
26.125900 0.008100
26.150800 0.001700
26.175700 0.000200
26.200600 0.000000
26.225600 0.000000
26.250500 0.000000
26.275400 0.000000
26.300300 0.000000
26.325200 0.000000
26.350100 0.000000
26.375100 0.000000
26.400000 0.000000
26.424900 0.000000
26.449800 0.000000
26.474700 0.000000
26.499600 0.000300
26.524600 0.002000
26.549500 0.008900
26.574400 0.024200
26.599300 0.040700
26.624200 0.042500
26.649100 0.027600
26.674100 0.011100
26.699000 0.002800
26.723900 0.000400
26.748800 0.000000
26.773700 0.000000
26.798600 0.000000
26.823600 0.000000
26.848500 0.000000
26.873400 0.000000
26.898300 0.000000
26.923200 0.000000
26.948100 0.000000
26.973100 0.000000
26.998000 0.000000
27.022900 0.000000
27.047800 0.000000
27.072700 0.000000
27.097600 0.000000
27.122600 0.000000
27.147500 0.000000
27.172400 0.000000
27.197300 0.000000
27.222200 0.000000
27.247100 0.000000
27.272100 0.000000
27.297000 0.000000
27.321900 0.000000
27.346800 0.000000
27.371700 0.000000
27.396600 0.000000
27.421600 0.000000
27.446500 0.000000
27.471400 0.000000
27.496300 0.000000
27.521200 0.000000
27.546100 0.000000
27.571100 0.000000
27.596000 0.000000
27.620900 0.000000
27.645800 0.000000
27.670700 0.000000
27.695700 0.000000
27.720600 0.000000
27.745500 0.000000
27.770400 0.000000
27.795300 0.000000
27.820200 0.000000
27.845200 0.000000
27.870100 0.000000
27.895000 0.000000
27.919900 0.000000
27.944800 0.000000
27.969700 0.000000
27.994700 0.000000
28.019600 0.000000
28.044500 0.000000
28.069400 0.000000
28.094300 0.000000
28.119200 0.000000
28.144200 0.000000
28.169100 0.000000
28.194000 0.000000
28.218900 0.000000
28.243800 0.000000
28.268700 0.000000
28.293700 0.000000
28.318600 0.000000
28.343500 0.000000
28.368400 0.000000
28.393300 0.000000
28.418200 0.000000
28.443200 0.000000
28.468100 0.000000
28.493000 0.000000
28.517900 0.000000
28.542800 0.000000
28.567700 0.000000
28.592700 0.000000
28.617600 0.000000
28.642500 0.000000
28.667400 0.000000
28.692300 0.000000
28.717200 0.000000
28.742200 0.000000
28.767100 0.000000
28.792000 0.000000
28.816900 0.000000
28.841800 0.000000
28.866700 0.000000
e
