set title 'mp-623532 - Density of States'
set xlabel 'Energy (eV)'
set ylabel 'DOS (states/eV)'
set grid
set xrange [-10:10]
set yrange [0:51.457]
set xzeroaxis lt -1
set terminal png size 800,600
set output 'mp-623532_dos_gnuplot.png'
plot '-' using 1:2 with lines title 'DOS'
-43.815200 0.000000
-43.765800 0.000000
-43.716500 0.000000
-43.667100 0.000000
-43.617800 0.000000
-43.568400 0.000000
-43.519100 0.000000
-43.469700 0.000000
-43.420300 0.000000
-43.371000 0.000000
-43.321600 0.000000
-43.272300 0.000000
-43.222900 0.000000
-43.173600 0.000000
-43.124200 0.000000
-43.074900 0.000000
-43.025500 0.000000
-42.976100 0.000000
-42.926800 0.000000
-42.877400 0.000000
-42.828100 0.000000
-42.778700 0.000000
-42.729400 0.000000
-42.680000 0.000000
-42.630600 0.000000
-42.581300 0.000000
-42.531900 0.000000
-42.482600 0.000000
-42.433200 0.000000
-42.383900 0.000000
-42.334500 0.000000
-42.285200 0.000000
-42.235800 0.000000
-42.186400 0.000000
-42.137100 0.000000
-42.087700 0.000000
-42.038400 0.000000
-41.989000 0.000000
-41.939700 0.000000
-41.890300 0.000000
-41.841000 0.000000
-41.791600 0.000000
-41.742200 0.000000
-41.692900 0.000000
-41.643500 0.000000
-41.594200 0.000000
-41.544800 0.000000
-41.495500 0.000000
-41.446100 0.000000
-41.396700 0.000000
-41.347400 0.000000
-41.298000 0.000000
-41.248700 0.000000
-41.199300 0.000000
-41.150000 0.000000
-41.100600 0.000000
-41.051300 0.000000
-41.001900 0.000000
-40.952500 0.000000
-40.903200 0.000000
-40.853800 0.000000
-40.804500 0.000000
-40.755100 0.000000
-40.705800 0.000000
-40.656400 0.000000
-40.607100 0.000000
-40.557700 0.000000
-40.508300 0.000000
-40.459000 0.000000
-40.409600 0.000000
-40.360300 0.000000
-40.310900 0.000000
-40.261600 0.000000
-40.212200 0.000000
-40.162800 0.000000
-40.113500 0.000000
-40.064100 0.000000
-40.014800 0.000000
-39.965400 0.000000
-39.916100 0.000000
-39.866700 0.000000
-39.817400 0.000000
-39.768000 0.000000
-39.718600 0.000000
-39.669300 0.000000
-39.619900 0.000000
-39.570600 0.000000
-39.521200 0.000000
-39.471900 0.000000
-39.422500 0.000000
-39.373200 0.000000
-39.323800 3.387400
-39.274400 0.000000
-39.225100 0.000000
-39.175700 0.000000
-39.126400 0.000000
-39.077000 0.000000
-39.027700 0.000000
-38.978300 0.000000
-38.928900 0.000000
-38.879600 0.000000
-38.830200 0.000000
-38.780900 0.000000
-38.731500 0.000000
-38.682200 0.000000
-38.632800 0.000000
-38.583500 0.000000
-38.534100 0.000000
-38.484700 0.000000
-38.435400 0.000000
-38.386000 0.000000
-38.336700 0.000000
-38.287300 0.000000
-38.238000 0.000000
-38.188600 0.000000
-38.139300 0.000000
-38.089900 0.000000
-38.040500 0.000000
-37.991200 0.000000
-37.941800 0.000000
-37.892500 0.000000
-37.843100 0.000000
-37.793800 0.000000
-37.744400 0.000000
-37.695000 0.000000
-37.645700 0.000000
-37.596300 0.000000
-37.547000 0.000000
-37.497600 0.000000
-37.448300 0.000000
-37.398900 0.000000
-37.349600 0.000000
-37.300200 0.000000
-37.250800 0.000000
-37.201500 0.000000
-37.152100 0.000000
-37.102800 0.000000
-37.053400 0.000000
-37.004100 0.000000
-36.954700 0.000000
-36.905400 0.000000
-36.856000 0.000000
-36.806600 0.000000
-36.757300 0.000000
-36.707900 0.000000
-36.658600 0.000000
-36.609200 0.000000
-36.559900 0.000000
-36.510500 0.000000
-36.461100 0.000000
-36.411800 0.000000
-36.362400 0.000000
-36.313100 0.000000
-36.263700 0.000000
-36.214400 0.000000
-36.165000 0.000000
-36.115700 0.000000
-36.066300 0.000000
-36.016900 0.000000
-35.967600 0.000000
-35.918200 0.000000
-35.868900 0.000000
-35.819500 0.000000
-35.770200 0.000000
-35.720800 0.000000
-35.671500 0.000000
-35.622100 0.000000
-35.572700 0.000000
-35.523400 0.000000
-35.474000 0.000000
-35.424700 0.000000
-35.375300 0.000000
-35.326000 0.000000
-35.276600 0.000000
-35.227200 0.000000
-35.177900 0.000000
-35.128500 0.000000
-35.079200 0.000000
-35.029800 0.000000
-34.980500 0.000000
-34.931100 0.000000
-34.881800 0.000000
-34.832400 0.000000
-34.783000 0.000000
-34.733700 0.000000
-34.684300 0.000000
-34.635000 0.000000
-34.585600 0.000000
-34.536300 0.000000
-34.486900 0.000000
-34.437600 0.000000
-34.388200 0.000000
-34.338800 0.000000
-34.289500 0.000000
-34.240100 0.000000
-34.190800 0.000000
-34.141400 0.000000
-34.092100 0.000000
-34.042700 0.000000
-33.993300 0.000000
-33.944000 0.000000
-33.894600 0.000000
-33.845300 0.000000
-33.795900 0.000000
-33.746600 0.000000
-33.697200 0.000000
-33.647900 0.000000
-33.598500 0.000000
-33.549100 0.000000
-33.499800 0.000000
-33.450400 0.000000
-33.401100 0.000000
-33.351700 0.000000
-33.302400 0.000000
-33.253000 0.000000
-33.203700 0.000000
-33.154300 0.000000
-33.104900 0.000000
-33.055600 0.000000
-33.006200 0.000000
-32.956900 0.000000
-32.907500 0.000000
-32.858200 0.000000
-32.808800 0.000000
-32.759400 0.000000
-32.710100 0.000000
-32.660700 0.000000
-32.611400 0.000000
-32.562000 0.000000
-32.512700 0.000000
-32.463300 0.000000
-32.414000 0.000000
-32.364600 0.000000
-32.315200 0.000000
-32.265900 0.000000
-32.216500 0.000000
-32.167200 0.000000
-32.117800 0.000000
-32.068500 0.000000
-32.019100 0.000000
-31.969800 0.000000
-31.920400 0.000000
-31.871000 0.000000
-31.821700 0.000000
-31.772300 0.000000
-31.723000 0.000000
-31.673600 0.000000
-31.624300 0.000000
-31.574900 0.000000
-31.525500 0.000000
-31.476200 0.000000
-31.426800 0.000000
-31.377500 0.000000
-31.328100 0.000000
-31.278800 0.000000
-31.229400 0.000000
-31.180100 0.000000
-31.130700 0.000000
-31.081300 0.000000
-31.032000 0.000000
-30.982600 0.000000
-30.933300 0.000000
-30.883900 0.000000
-30.834600 0.000000
-30.785200 0.000000
-30.735900 0.000000
-30.686500 0.000000
-30.637100 0.000000
-30.587800 0.000000
-30.538400 0.000000
-30.489100 0.000000
-30.439700 0.000000
-30.390400 0.000000
-30.341000 0.000000
-30.291600 0.000000
-30.242300 0.000000
-30.192900 0.000000
-30.143600 0.000000
-30.094200 0.000000
-30.044900 0.000000
-29.995500 0.000000
-29.946200 0.000000
-29.896800 0.000000
-29.847400 0.000000
-29.798100 0.000000
-29.748700 0.000000
-29.699400 0.000000
-29.650000 0.000000
-29.600700 0.000000
-29.551300 0.000000
-29.502000 0.000000
-29.452600 0.000000
-29.403200 0.000000
-29.353900 0.000000
-29.304500 0.000000
-29.255200 0.000000
-29.205800 0.000000
-29.156500 0.000000
-29.107100 0.000000
-29.057700 0.000000
-29.008400 0.000000
-28.959000 0.000000
-28.909700 0.000000
-28.860300 0.000000
-28.811000 0.000000
-28.761600 0.000000
-28.712300 0.000000
-28.662900 0.000000
-28.613500 0.000000
-28.564200 0.000000
-28.514800 0.000000
-28.465500 0.000000
-28.416100 0.000000
-28.366800 0.000000
-28.317400 0.000000
-28.268100 0.000000
-28.218700 0.000000
-28.169300 0.000000
-28.120000 0.000000
-28.070600 0.000000
-28.021300 0.000000
-27.971900 0.000000
-27.922600 0.000000
-27.873200 0.000000
-27.823800 0.000000
-27.774500 0.000000
-27.725100 0.000000
-27.675800 0.000000
-27.626400 0.000000
-27.577100 0.000000
-27.527700 0.000000
-27.478400 0.000000
-27.429000 0.000000
-27.379600 0.000000
-27.330300 0.000000
-27.280900 0.000000
-27.231600 0.000000
-27.182200 0.000000
-27.132900 0.000000
-27.083500 0.000000
-27.034200 0.000000
-26.984800 0.000000
-26.935400 0.000000
-26.886100 0.000000
-26.836700 0.000000
-26.787400 0.000000
-26.738000 0.000000
-26.688700 0.000000
-26.639300 0.000000
-26.589900 0.000000
-26.540600 0.000000
-26.491200 0.000000
-26.441900 0.000000
-26.392500 0.000000
-26.343200 0.000000
-26.293800 0.000000
-26.244500 0.000000
-26.195100 0.000000
-26.145700 0.000000
-26.096400 0.000000
-26.047000 0.000000
-25.997700 0.000000
-25.948300 0.000000
-25.899000 0.000000
-25.849600 0.000000
-25.800300 0.000000
-25.750900 0.000000
-25.701500 0.000000
-25.652200 0.000000
-25.602800 0.000000
-25.553500 0.000000
-25.504100 0.000000
-25.454800 0.000000
-25.405400 0.000000
-25.356000 0.000000
-25.306700 0.000000
-25.257300 0.000000
-25.208000 0.000000
-25.158600 0.000000
-25.109300 0.000000
-25.059900 0.000000
-25.010600 0.000000
-24.961200 0.000000
-24.911800 0.000000
-24.862500 0.000000
-24.813100 0.000000
-24.763800 0.000000
-24.714400 0.000000
-24.665100 0.000000
-24.615700 0.000000
-24.566400 0.000000
-24.517000 0.000000
-24.467600 0.000000
-24.418300 0.000000
-24.368900 0.000000
-24.319600 0.000000
-24.270200 0.000000
-24.220900 0.000000
-24.171500 0.000000
-24.122100 0.000000
-24.072800 0.000000
-24.023400 0.000000
-23.974100 0.000000
-23.924700 0.000000
-23.875400 0.000000
-23.826000 0.000000
-23.776700 0.000000
-23.727300 0.000000
-23.677900 0.000000
-23.628600 0.000000
-23.579200 0.000000
-23.529900 0.000000
-23.480500 0.000000
-23.431200 0.000000
-23.381800 0.000000
-23.332500 0.000000
-23.283100 0.000000
-23.233700 0.000000
-23.184400 0.000000
-23.135000 0.000000
-23.085700 0.000000
-23.036300 0.000000
-22.987000 0.000000
-22.937600 0.000000
-22.888200 0.000000
-22.838900 0.000000
-22.789500 0.000000
-22.740200 0.000000
-22.690800 0.000000
-22.641500 0.000000
-22.592100 0.000000
-22.542800 0.000000
-22.493400 0.000000
-22.444000 0.000000
-22.394700 0.000000
-22.345300 0.000000
-22.296000 0.000000
-22.246600 0.000000
-22.197300 0.000000
-22.147900 0.000000
-22.098600 0.000000
-22.049200 0.000000
-21.999800 0.000000
-21.950500 0.000000
-21.901100 0.000000
-21.851800 0.000000
-21.802400 0.000000
-21.753100 0.000000
-21.703700 0.000000
-21.654300 0.000000
-21.605000 0.000000
-21.555600 0.000000
-21.506300 0.000000
-21.456900 0.000000
-21.407600 0.000000
-21.358200 0.000000
-21.308900 0.000000
-21.259500 0.000000
-21.210100 0.000000
-21.160800 0.000000
-21.111400 0.000000
-21.062100 0.000000
-21.012700 0.000000
-20.963400 0.000000
-20.914000 0.000000
-20.864700 0.000000
-20.815300 0.000000
-20.765900 0.000000
-20.716600 0.000000
-20.667200 0.000000
-20.617900 0.000000
-20.568500 0.000000
-20.519200 0.000000
-20.469800 0.000000
-20.420400 0.000000
-20.371100 0.000000
-20.321700 0.000000
-20.272400 0.000000
-20.223000 0.000000
-20.173700 0.000000
-20.124300 0.000000
-20.075000 0.000000
-20.025600 0.000000
-19.976200 0.000000
-19.926900 0.000000
-19.877500 0.000000
-19.828200 0.000000
-19.778800 0.000000
-19.729500 0.000000
-19.680100 0.000000
-19.630700 0.000000
-19.581400 0.000000
-19.532000 0.000000
-19.482700 0.000000
-19.433300 0.000000
-19.384000 0.000000
-19.334600 0.000000
-19.285300 0.000000
-19.235900 0.000000
-19.186500 0.000000
-19.137200 0.000000
-19.087800 0.000000
-19.038500 0.000000
-18.989100 0.000000
-18.939800 0.000000
-18.890400 0.000000
-18.841100 0.000000
-18.791700 0.000000
-18.742300 0.000000
-18.693000 0.000000
-18.643600 0.000000
-18.594300 0.000000
-18.544900 0.000000
-18.495600 0.000000
-18.446200 0.000000
-18.396800 0.000000
-18.347500 1.063100
-18.298100 5.430900
-18.248800 8.591100
-18.199400 1.817500
-18.150100 4.500600
-18.100700 5.448800
-18.051400 11.202900
-18.002000 12.494600
-17.952600 7.819600
-17.903300 0.000000
-17.853900 0.000000
-17.804600 0.000000
-17.755200 0.000000
-17.705900 0.000000
-17.656500 0.000000
-17.607200 0.000000
-17.557800 0.000000
-17.508400 0.000000
-17.459100 0.000000
-17.409700 0.000000
-17.360400 0.000000
-17.311000 0.000000
-17.261700 0.000000
-17.212300 0.000000
-17.162900 0.000000
-17.113600 0.000000
-17.064200 0.000000
-17.014900 0.000000
-16.965500 0.000000
-16.916200 0.000000
-16.866800 0.000000
-16.817500 0.000000
-16.768100 0.000000
-16.718700 0.000000
-16.669400 0.000000
-16.620000 0.000000
-16.570700 0.000000
-16.521300 0.000000
-16.472000 0.000000
-16.422600 0.000000
-16.373300 0.000000
-16.323900 0.000000
-16.274500 0.000000
-16.225200 0.000000
-16.175800 0.000000
-16.126500 0.000000
-16.077100 0.000000
-16.027800 0.000000
-15.978400 0.000000
-15.929000 0.000000
-15.879700 0.000000
-15.830300 0.000000
-15.781000 0.000000
-15.731600 0.000000
-15.682300 0.000000
-15.632900 0.000000
-15.583600 0.000000
-15.534200 0.000000
-15.484800 0.000000
-15.435500 0.000000
-15.386100 0.000000
-15.336800 0.000000
-15.287400 0.000000
-15.238100 0.000000
-15.188700 0.000000
-15.139400 0.000000
-15.090000 0.000000
-15.040600 0.000000
-14.991300 0.000000
-14.941900 0.000000
-14.892600 0.000000
-14.843200 0.000000
-14.793900 0.000000
-14.744500 0.000000
-14.695100 0.000000
-14.645800 0.000000
-14.596400 0.000000
-14.547100 0.000000
-14.497700 0.000000
-14.448400 0.000000
-14.399000 0.000000
-14.349700 0.000000
-14.300300 0.000000
-14.250900 0.000000
-14.201600 0.000000
-14.152200 0.000000
-14.102900 0.000000
-14.053500 0.000000
-14.004200 0.000000
-13.954800 0.000000
-13.905500 0.000000
-13.856100 0.000000
-13.806700 0.000000
-13.757400 0.000000
-13.708000 0.000000
-13.658700 0.000000
-13.609300 0.000000
-13.560000 0.000000
-13.510600 0.000000
-13.461200 0.000000
-13.411900 0.000000
-13.362500 0.000000
-13.313200 0.000000
-13.263800 0.000000
-13.214500 0.000000
-13.165100 0.000000
-13.115800 0.000000
-13.066400 0.000000
-13.017000 0.000000
-12.967700 0.000000
-12.918300 0.000000
-12.869000 0.000000
-12.819600 0.000000
-12.770300 0.000000
-12.720900 0.000000
-12.671600 0.000000
-12.622200 0.000000
-12.572800 0.000000
-12.523500 0.000000
-12.474100 0.000000
-12.424800 0.000000
-12.375400 0.000000
-12.326100 0.000000
-12.276700 0.000000
-12.227300 0.000000
-12.178000 0.000000
-12.128600 0.000000
-12.079300 0.000000
-12.029900 0.000000
-11.980600 0.000000
-11.931200 0.000000
-11.881900 0.000000
-11.832500 0.000000
-11.783100 0.000000
-11.733800 0.000000
-11.684400 0.000000
-11.635100 0.000000
-11.585700 0.000000
-11.536400 0.000000
-11.487000 0.000000
-11.437700 0.000000
-11.388300 0.000000
-11.338900 0.000000
-11.289600 0.000000
-11.240200 0.000000
-11.190900 0.000000
-11.141500 0.000000
-11.092200 0.000000
-11.042800 0.000000
-10.993400 0.000000
-10.944100 0.000000
-10.894700 0.000000
-10.845400 0.000000
-10.796000 0.000000
-10.746700 0.000000
-10.697300 0.000000
-10.648000 0.000000
-10.598600 0.000000
-10.549200 0.000000
-10.499900 0.000000
-10.450500 0.000000
-10.401200 0.000000
-10.351800 0.000000
-10.302500 0.000000
-10.253100 0.000000
-10.203800 0.000000
-10.154400 0.000000
-10.105000 0.000000
-10.055700 0.000000
-10.006300 0.000000
-9.957000 0.000000
-9.907600 0.000000
-9.858300 0.000000
-9.808900 0.000000
-9.759500 0.000000
-9.710200 0.000000
-9.660800 0.000000
-9.611500 0.000000
-9.562100 0.000000
-9.512800 0.000000
-9.463400 0.000000
-9.414100 0.000000
-9.364700 0.000000
-9.315300 0.000000
-9.266000 0.000000
-9.216600 0.000000
-9.167300 0.000000
-9.117900 0.000000
-9.068600 0.000000
-9.019200 0.000000
-8.969900 0.000000
-8.920500 0.000000
-8.871100 0.000000
-8.821800 0.000000
-8.772400 0.000000
-8.723100 0.000000
-8.673700 0.000000
-8.624400 0.000000
-8.575000 0.000000
-8.525600 0.000000
-8.476300 0.000000
-8.426900 0.000000
-8.377600 0.000000
-8.328200 0.000000
-8.278900 0.000000
-8.229500 0.000000
-8.180200 0.000000
-8.130800 0.000000
-8.081400 0.000000
-8.032100 0.000000
-7.982700 0.000000
-7.933400 0.000000
-7.884000 0.000000
-7.834700 0.000000
-7.785300 0.000000
-7.736000 0.000000
-7.686600 0.000000
-7.637200 0.000000
-7.587900 0.000000
-7.538500 0.000000
-7.489200 0.000000
-7.439800 0.000000
-7.390500 0.000000
-7.341100 0.000000
-7.291700 0.000000
-7.242400 0.000000
-7.193000 0.000000
-7.143700 0.000000
-7.094300 0.000000
-7.045000 0.000000
-6.995600 0.000000
-6.946300 0.000000
-6.896900 0.000000
-6.847500 0.000000
-6.798200 0.000000
-6.748800 0.000000
-6.699500 0.000000
-6.650100 0.000000
-6.600800 0.000000
-6.551400 0.000000
-6.502100 0.000000
-6.452700 0.000000
-6.403300 0.000000
-6.354000 0.000000
-6.304600 0.000000
-6.255300 0.000000
-6.205900 0.000000
-6.156600 0.000000
-6.107200 0.000000
-6.057800 0.000000
-6.008500 0.000000
-5.959100 0.000000
-5.909800 0.000000
-5.860400 0.000000
-5.811100 0.000000
-5.761700 0.000000
-5.712400 0.000000
-5.663000 0.000000
-5.613600 0.000000
-5.564300 0.000000
-5.514900 0.000000
-5.465600 0.000000
-5.416200 0.000000
-5.366900 0.000000
-5.317500 0.000000
-5.268200 0.000000
-5.218800 0.000000
-5.169400 0.000000
-5.120100 0.000000
-5.070700 0.000000
-5.021400 0.000000
-4.972000 0.000000
-4.922700 0.000000
-4.873300 0.000000
-4.823900 0.000000
-4.774600 0.000000
-4.725200 0.000000
-4.675900 0.000000
-4.626500 0.000000
-4.577200 0.000000
-4.527800 0.000000
-4.478500 0.000000
-4.429100 0.000000
-4.379700 0.000000
-4.330400 0.000000
-4.281000 0.000000
-4.231700 0.000000
-4.182300 0.000000
-4.133000 0.000000
-4.083600 0.000000
-4.034300 0.000000
-3.984900 0.000000
-3.935500 0.000000
-3.886200 0.000000
-3.836800 0.000000
-3.787500 0.000000
-3.738100 0.000000
-3.688800 0.000000
-3.639400 0.000000
-3.590000 0.000000
-3.540700 0.000000
-3.491300 0.000000
-3.442000 0.000000
-3.392600 0.000000
-3.343300 0.000000
-3.293900 0.000000
-3.244600 0.000000
-3.195200 0.000000
-3.145800 0.000000
-3.096500 0.000000
-3.047100 0.000000
-2.997800 0.000000
-2.948400 0.000000
-2.899100 0.000000
-2.849700 0.000000
-2.800400 0.000000
-2.751000 0.000000
-2.701600 0.000000
-2.652300 0.000000
-2.602900 0.000000
-2.553600 0.000000
-2.504200 0.000000
-2.454900 0.000000
-2.405500 0.000000
-2.356100 0.000000
-2.306800 0.000000
-2.257400 0.000000
-2.208100 0.011100
-2.158700 0.024500
-2.109400 0.028200
-2.060000 0.033100
-2.010700 0.040200
-1.961300 0.043500
-1.911900 0.046700
-1.862600 0.051100
-1.813200 0.055900
-1.763900 0.059500
-1.714500 0.062500
-1.665200 0.066000
-1.615800 0.069600
-1.566500 0.073400
-1.517100 0.077800
-1.467700 0.080900
-1.418400 0.084000
-1.369000 0.087300
-1.319700 0.090900
-1.270300 0.094800
-1.221000 0.098800
-1.171600 0.102600
-1.122200 0.106000
-1.072900 0.109800
-1.023500 0.113700
-0.974200 0.117700
-0.924800 0.121800
-0.875500 0.125900
-0.826100 0.130500
-0.776800 0.135100
-0.727400 0.139700
-0.678000 0.144400
-0.628700 0.149100
-0.579300 0.154200
-0.530000 0.159700
-0.480600 0.165400
-0.431300 0.171400
-0.381900 0.177700
-0.332600 0.184100
-0.283200 0.191100
-0.233800 0.198900
-0.184500 0.206900
-0.135100 0.215300
-0.085800 0.224100
-0.036400 0.234200
0.012900 0.245900
0.062300 0.259500
0.111700 0.274600
0.161000 0.291000
0.210400 0.309200
0.259700 0.332100
0.309100 0.383300
0.358400 0.416500
0.407800 0.419500
0.457100 0.428100
0.506500 0.435300
0.555900 0.451700
0.605200 0.466000
0.654600 0.500900
0.703900 0.583200
0.753300 0.609800
0.802600 0.602000
0.852000 0.612300
0.901300 0.606200
0.950700 0.612800
1.000100 0.625700
1.049400 0.641200
1.098800 0.653000
1.148100 0.678800
1.197500 0.737100
1.246800 0.778000
1.296200 0.873900
1.345600 0.777300
1.394900 1.764100
1.444300 19.921600
1.493600 24.086200
1.543000 46.779400
1.592300 22.710600
1.641700 41.128500
1.691000 2.979500
1.740400 1.687600
1.789800 1.352300
1.839100 1.251900
1.888500 1.135700
1.937800 0.636400
1.987200 0.717900
2.036500 0.833000
2.085900 0.934600
2.135200 0.981500
2.184600 1.002900
2.234000 0.991100
2.283300 0.998500
2.332700 1.006300
2.382000 0.943900
2.431400 0.861600
2.480700 0.896400
2.530100 0.912900
2.579500 1.010300
2.628800 1.129700
2.678200 1.252900
2.727500 1.068000
2.776900 0.923700
2.826200 0.909100
2.875600 0.917200
2.924900 0.941700
2.974300 0.966500
3.023700 0.998200
3.073000 1.063600
3.122400 1.092000
3.171700 1.065800
3.221100 1.016700
3.270400 0.952200
3.319800 0.921300
3.369100 0.890700
3.418500 0.849100
3.467900 0.832700
3.517200 0.795900
3.566600 0.730300
3.615900 0.674400
3.665300 0.631200
3.714600 0.599300
3.764000 0.569900
3.813400 0.528700
3.862700 0.482400
3.912100 0.496800
3.961400 0.479800
4.010800 0.522100
4.060100 0.608200
4.109500 0.673400
4.158800 0.805800
4.208200 1.035500
4.257600 0.954400
4.306900 0.788100
4.356300 0.681800
4.405600 0.654400
4.455000 0.645400
4.504300 0.606600
4.553700 0.604300
4.603000 0.606400
4.652400 0.620000
4.701800 0.635000
4.751100 0.749900
4.800500 0.770900
4.849800 0.780600
4.899200 0.847800
4.948500 0.971600
4.997900 0.956900
5.047300 0.789600
5.096600 0.861700
5.146000 0.739800
5.195300 0.693500
5.244700 0.672900
5.294000 0.659700
5.343400 0.649000
5.392700 0.626600
5.442100 0.594500
5.491500 0.570500
5.540800 0.557300
5.590200 0.553400
5.639500 0.523100
5.688900 0.491400
5.738200 0.471700
5.787600 0.479200
5.836900 0.458200
5.886300 0.493300
5.935700 0.633600
5.985000 0.585900
6.034400 0.577900
6.083700 0.562000
6.133100 0.561100
6.182400 0.570500
6.231800 0.565800
6.281200 0.576200
6.330500 0.586200
6.379900 0.594200
6.429200 0.602800
6.478600 0.617600
6.527900 0.634200
6.577300 0.654000
6.626600 0.676200
6.676000 0.701400
6.725400 0.764400
6.774700 0.841300
6.824100 0.963300
6.873400 0.996000
6.922800 0.969300
6.972100 0.960300
7.021500 0.944100
7.070800 0.924500
7.120200 0.965400
7.169600 0.947600
7.218900 0.946600
7.268300 0.925200
7.317600 0.839900
7.367000 0.872600
7.416300 0.947100
7.465700 1.017300
7.515100 1.051700
7.564400 1.085700
7.613800 1.104900
7.663100 1.221500
7.712500 0.990800
7.761800 1.062400
7.811200 1.082500
7.860500 0.822800
7.909900 0.626700
7.959300 0.541800
8.008600 0.466200
8.058000 0.372000
8.107300 0.336300
8.156700 0.303800
8.206000 0.267500
8.255400 0.221900
8.304800 0.148100
8.354100 0.109200
8.403500 0.107200
8.452800 0.149300
8.502200 0.322900
8.551500 0.519800
8.600900 0.740500
8.650200 0.667000
8.699600 0.623000
8.749000 0.606300
8.798300 0.604900
8.847700 0.601000
8.897000 0.589200
8.946400 0.582200
8.995700 0.563300
9.045100 0.524500
9.094400 0.493800
9.143800 0.469200
9.193200 0.438700
9.242500 0.424800
9.291900 0.412900
9.341200 0.420500
9.390600 0.453200
9.439900 0.498000
9.489300 0.453800
9.538700 0.456800
9.588000 0.456400
9.637400 0.454000
9.686700 0.450600
9.736100 0.461500
9.785400 0.450300
9.834800 0.442000
9.884100 0.396200
9.933500 0.375600
9.982900 0.361900
10.032200 0.351600
10.081600 0.324000
10.130900 0.325900
10.180300 0.326400
10.229600 0.329500
10.279000 0.347600
10.328300 0.357400
10.377700 0.369300
10.427100 0.383300
10.476400 0.394700
10.525800 0.406200
10.575100 0.423200
10.624500 0.444100
10.673800 0.468300
10.723200 0.517700
10.772600 0.506400
10.821900 0.509200
10.871300 0.506500
10.920600 0.510400
10.970000 0.517100
11.019300 0.527600
11.068700 0.536900
11.118000 0.546900
11.167400 0.557100
11.216800 0.576300
11.266100 0.591600
11.315500 0.582700
11.364800 0.589000
11.414200 0.603300
11.463500 0.610000
11.512900 0.621500
11.562200 0.633700
11.611600 0.616600
11.661000 0.636900
11.710300 0.678200
11.759700 0.761200
11.809000 0.864500
11.858400 0.853800
11.907700 0.891200
11.957100 0.871500
12.006500 0.816700
12.055800 0.754500
12.105200 0.723000
12.154500 0.698100
12.203900 0.755500
12.253200 0.889400
12.302600 0.987900
12.351900 0.993200
12.401300 0.982900
12.450700 0.986200
12.500000 1.018500
12.549400 1.015800
12.598700 1.033000
12.648100 0.975000
12.697400 0.849800
12.746800 0.749400
12.796100 0.657600
12.845500 0.618900
12.894900 0.563300
12.944200 0.532200
12.993600 0.504600
13.042900 0.475100
13.092300 0.413800
13.141600 0.413700
13.191000 0.379900
13.240400 0.403600
13.289700 0.363700
13.339100 0.372000
13.388400 0.516800
13.437800 0.524200
13.487100 0.535700
13.536500 0.548500
13.585800 0.593200
13.635200 0.645400
13.684600 0.660600
13.733900 0.711100
13.783300 0.620400
13.832600 0.630900
13.882000 0.620400
13.931300 0.630200
13.980700 0.643200
14.030000 0.657100
14.079400 0.689400
14.128800 0.725700
14.178100 0.739400
14.227500 0.751200
14.276800 0.742700
14.326200 0.745400
14.375500 0.744400
14.424900 0.756000
14.474300 0.775500
14.523600 0.799000
14.573000 0.792700
14.622300 0.790700
14.671700 0.810200
14.721000 0.787000
14.770400 0.752400
14.819700 0.743100
14.869100 0.646200
14.918500 0.521300
14.967800 0.412000
15.017200 0.355800
15.066500 0.311300
15.115900 0.276300
15.165200 0.249300
15.214600 0.228000
15.263900 0.209500
15.313300 0.184000
15.362700 0.184500
15.412000 0.210000
15.461400 0.236100
15.510700 0.262000
15.560100 0.256900
15.609400 0.268300
15.658800 0.283300
15.708200 0.296000
15.757500 0.311200
15.806900 0.337100
15.856200 0.351900
15.905600 0.371500
15.954900 0.396000
16.004300 0.458800
16.053600 0.525900
16.103000 0.536200
16.152400 0.502300
16.201700 0.503000
16.251100 0.505700
16.300400 0.509300
16.349800 0.512400
16.399100 0.506500
16.448500 0.511000
16.497800 0.477400
16.547200 0.455200
16.596600 0.435300
16.645900 0.416500
16.695300 0.420100
16.744600 0.422700
16.794000 0.436100
16.843300 0.469500
16.892700 0.524800
16.942100 0.730100
16.991400 0.577100
17.040800 0.586400
17.090100 0.594700
17.139500 0.618000
17.188800 0.630700
17.238200 0.637100
17.287500 0.623700
17.336900 0.612300
17.386300 0.615500
17.435600 0.589100
17.485000 0.598200
17.534300 0.568300
17.583700 0.556600
17.633000 0.561400
17.682400 0.571200
17.731700 0.614700
17.781100 0.610700
17.830500 0.605600
17.879800 0.625000
17.929200 0.651700
17.978500 0.685700
18.027900 0.707000
18.077200 0.724500
18.126600 0.727300
18.176000 0.741700
18.225300 0.757400
18.274700 0.802600
18.324000 0.817500
18.373400 0.849400
18.422700 1.018500
18.472100 0.926700
18.521400 0.918800
18.570800 0.993000
18.620200 1.011800
18.669500 1.072300
18.718900 1.094400
18.768200 1.087100
18.817600 1.061900
18.866900 1.071700
18.916300 1.088600
18.965600 1.146200
19.015000 1.203400
19.064400 1.319600
19.113700 1.219300
19.163100 0.859100
19.212400 0.740800
19.261800 0.649700
19.311100 0.598300
19.360500 0.569100
19.409900 0.564100
19.459200 0.563000
19.508600 0.561400
19.557900 0.509800
19.607300 0.494400
19.656600 0.503700
19.706000 0.517600
19.755300 0.552400
19.804700 0.547400
19.854100 0.520300
19.903400 0.500600
19.952800 0.483000
20.002100 0.473000
20.051500 0.478100
20.100800 0.495000
20.150200 0.520300
20.199500 0.637900
20.248900 0.710800
20.298300 0.708500
20.347600 0.689900
20.397000 0.665600
20.446300 0.717900
20.495700 0.630700
20.545000 0.629200
20.594400 0.621200
20.643800 0.801200
20.693100 0.861700
20.742500 0.780400
20.791800 0.719700
20.841200 0.705900
20.890500 0.688900
20.939900 0.681700
20.989200 0.690700
21.038600 0.710900
21.088000 0.728500
21.137300 0.757900
21.186700 0.776800
21.236000 0.764200
21.285400 0.732800
21.334700 0.689800
21.384100 0.636600
21.433400 0.579100
21.482800 0.545300
21.532200 0.522600
21.581500 0.494900
21.630900 0.476600
21.680200 0.496000
21.729600 0.584500
21.778900 0.674400
21.828300 0.731500
21.877700 0.780100
21.927000 0.796900
21.976400 0.814200
22.025700 0.747400
22.075100 0.734400
22.124400 0.727100
22.173800 0.727300
22.223100 0.727100
22.272500 0.743200
22.321900 0.744700
22.371200 0.762500
22.420600 0.804000
22.469900 0.806600
22.519300 0.752200
22.568600 0.741800
22.618000 0.741600
22.667300 0.749300
22.716700 0.743600
22.766100 0.736900
22.815400 0.725300
22.864800 0.751000
22.914100 0.748700
22.963500 0.792400
23.012800 0.808800
23.062200 0.839500
23.111600 0.859700
23.160900 0.951300
23.210300 0.922900
23.259600 0.955300
23.309000 0.973600
23.358300 0.933400
23.407700 0.958500
23.457000 0.988000
23.506400 1.045100
23.555800 1.071800
23.605100 1.069200
23.654500 1.047200
23.703800 1.008500
23.753200 0.951300
23.802500 0.888000
23.851900 0.837000
23.901200 0.785000
23.950600 0.736000
24.000000 0.699800
24.049300 0.610700
24.098700 0.554200
24.148000 0.521100
24.197400 0.511900
24.246700 0.528300
24.296100 0.533600
24.345500 0.581500
24.394800 0.687700
24.444200 0.834000
24.493500 1.008200
24.542900 1.079000
24.592200 0.960600
24.641600 0.761400
24.690900 0.693400
24.740300 0.686300
24.789700 0.690300
24.839000 0.674700
24.888400 0.689200
24.937700 0.707500
24.987100 0.718100
25.036400 0.728100
25.085800 0.785900
25.135100 0.748900
25.184500 0.733700
25.233900 0.669800
25.283200 0.658900
25.332600 0.654400
25.381900 0.631400
25.431300 0.611200
25.480600 0.617200
25.530000 0.648000
25.579400 0.640100
25.628700 0.634400
25.678100 0.646800
25.727400 0.667300
25.776800 0.657700
25.826100 0.667500
25.875500 0.687500
25.924800 0.698500
25.974200 0.717700
26.023600 0.753400
26.072900 0.791000
26.122300 0.802400
26.171600 0.809400
26.221000 0.826400
26.270300 0.848100
26.319700 0.859100
26.369000 0.882100
26.418400 0.948900
26.467800 0.953000
26.517100 0.934000
26.566500 0.876300
26.615800 0.790600
26.665200 0.730000
26.714500 0.680800
26.763900 0.638300
26.813300 0.623900
26.862600 0.638700
26.912000 0.639800
26.961300 0.650400
27.010700 0.737800
27.060000 0.720900
27.109400 0.713600
27.158700 0.702300
27.208100 0.685300
27.257500 0.701600
27.306800 0.705800
27.356200 0.716500
27.405500 0.728500
27.454900 0.763200
27.504200 0.821300
27.553600 0.857200
27.602900 0.891700
27.652300 0.894600
27.701700 0.914400
27.751000 0.918800
27.800400 0.945100
27.849700 0.923800
27.899100 0.973900
27.948400 0.922800
27.997800 0.880800
28.047200 0.831000
28.096500 0.824200
28.145900 0.835400
28.195200 0.884400
28.244600 0.931800
28.293900 0.919400
28.343300 0.913300
28.392600 0.909800
28.442000 0.880900
28.491400 0.862000
28.540700 0.849100
28.590100 0.794800
28.639400 0.789100
28.688800 0.798300
28.738100 0.792700
28.787500 0.728900
28.836800 0.696300
28.886200 0.643300
28.935600 0.567400
28.984900 0.541300
29.034300 0.522200
29.083600 0.539400
29.133000 0.564000
29.182300 0.585000
29.231700 0.613700
29.281100 0.654300
29.330400 0.687000
29.379800 0.723700
29.429100 0.772200
29.478500 0.809300
29.527800 0.845900
29.577200 0.936000
29.626500 1.017300
29.675900 0.998800
29.725300 0.997200
29.774600 1.012200
29.824000 1.053500
29.873300 1.032200
29.922700 0.990000
29.972000 0.943800
30.021400 0.924600
30.070700 0.885400
30.120100 0.888200
30.169500 0.881700
30.218800 0.878300
30.268200 0.887100
30.317500 0.907400
30.366900 0.914100
30.416200 0.947100
30.465600 0.933500
30.515000 0.968400
30.564300 0.881000
30.613700 0.843400
30.663000 0.778700
30.712400 0.774600
30.761700 0.757000
30.811100 0.739500
30.860400 0.720100
30.909800 0.712300
30.959200 0.710300
31.008500 0.705300
31.057900 0.769500
31.107200 0.765400
31.156600 0.821800
31.205900 0.798400
31.255300 0.817500
31.304600 0.733000
31.354000 0.642000
31.403400 0.618500
31.452700 0.621000
31.502100 0.638100
31.551400 0.677000
31.600800 0.723300
31.650100 0.743000
31.699500 0.788700
31.748900 0.828400
31.798200 0.846700
31.847600 0.873600
31.896900 0.901400
31.946300 0.913600
31.995600 0.924900
32.045000 0.917000
32.094300 0.914000
32.143700 0.885500
32.193100 0.861300
32.242400 0.808700
32.291800 0.798900
32.341100 0.790200
32.390500 0.776400
32.439800 0.763200
32.489200 0.786000
32.538500 0.831100
32.587900 0.847400
32.637300 0.864400
32.686600 0.888500
32.736000 0.905900
32.785300 0.894700
32.834700 0.934800
32.884000 0.953600
32.933400 1.007600
32.982800 0.993300
33.032100 0.972300
33.081500 0.868800
33.130800 0.856900
33.180200 0.859900
33.229500 0.916100
33.278900 1.057500
33.328200 1.021600
33.377600 0.985000
33.427000 0.994700
33.476300 0.987000
33.525700 0.900400
33.575000 0.853400
33.624400 0.823400
33.673700 1.050000
33.723100 0.880500
33.772400 0.852800
33.821800 0.854700
33.871200 0.880400
33.920500 0.960200
33.969900 1.016200
34.019200 0.978200
34.068600 0.939900
34.117900 0.922900
34.167300 0.907100
34.216700 0.905600
34.266000 0.921300
34.315400 0.958400
34.364700 0.968600
34.414100 0.976000
34.463400 0.983500
34.512800 0.971900
34.562100 0.927900
34.611500 0.941900
34.660900 0.923900
34.710200 0.895700
34.759600 0.864100
34.808900 0.870200
34.858300 0.847900
34.907600 0.800200
34.957000 0.791900
35.006400 0.799700
35.055700 0.808200
35.105100 0.828100
35.154400 0.872100
35.203800 0.897300
35.253100 0.918100
35.302500 0.918300
35.351800 0.928800
35.401200 0.935700
35.450600 0.929000
35.499900 0.910300
35.549300 0.868800
35.598600 0.843300
35.648000 0.844300
35.697300 0.800800
35.746700 0.791900
35.796000 0.811700
35.845400 0.853200
35.894800 0.874500
35.944100 0.967900
35.993500 0.951500
36.042800 0.949200
36.092200 0.908700
36.141500 0.855900
36.190900 0.913000
36.240300 0.921400
36.289600 0.908700
36.339000 0.892800
36.388300 0.888200
36.437700 0.837200
36.487000 0.829600
36.536400 0.829400
36.585700 0.869100
36.635100 0.813700
36.684500 0.799900
36.733800 0.794300
36.783200 0.787600
36.832500 0.823800
36.881900 0.815500
36.931200 0.825500
36.980600 0.808700
37.029900 0.825900
37.079300 0.912000
37.128700 0.868900
37.178000 0.889600
37.227400 0.910500
37.276700 0.929800
37.326100 0.917800
37.375400 0.949100
37.424800 0.983600
37.474200 0.866600
37.523500 0.759700
37.572900 0.700500
37.622200 0.703900
37.671600 0.721200
37.720900 0.717300
37.770300 0.712700
37.819600 0.766300
37.869000 0.753500
37.918400 0.778000
37.967700 0.851800
38.017100 0.867000
38.066400 0.879700
38.115800 0.873400
38.165100 0.908200
38.214500 0.868800
38.263800 0.888700
38.313200 0.922100
38.362600 0.975800
38.411900 1.027800
38.461300 1.023000
38.510600 1.004800
38.560000 0.997400
38.609300 1.035800
38.658700 1.020200
38.708100 0.985100
38.757400 0.921300
38.806800 0.882700
38.856100 0.979800
38.905500 1.004000
38.954800 0.979300
39.004200 0.956500
39.053500 0.965900
39.102900 0.991000
39.152300 0.979100
39.201600 0.873700
39.251000 0.826700
39.300300 0.777400
39.349700 0.749700
39.399000 0.712000
39.448400 0.657500
39.497700 0.552100
39.547100 0.516500
39.596500 0.537600
39.645800 0.553200
39.695200 0.616600
39.744500 0.654700
39.793900 0.747300
39.843200 0.838400
39.892600 0.926300
39.942000 0.957200
39.991300 1.034900
40.040700 1.116400
40.090000 1.378400
40.139400 1.397300
40.188700 1.431200
40.238100 1.466200
40.287400 1.366600
40.336800 1.244900
40.386200 1.148800
40.435500 1.081100
40.484900 1.046800
40.534200 1.112700
40.583600 1.095800
40.632900 1.168300
40.682300 1.252900
40.731600 1.427300
40.781000 1.514900
40.830400 1.483500
40.879700 1.390800
40.929100 1.316800
40.978400 1.207600
41.027800 1.131100
41.077100 1.126600
41.126500 1.081700
41.175900 1.108300
41.225200 1.172900
41.274600 1.213600
41.323900 1.340500
41.373300 1.355400
41.422600 1.392600
41.472000 1.336600
41.521300 1.152400
41.570700 1.105500
41.620100 1.084300
41.669400 1.049100
41.718800 1.019900
41.768100 0.993800
41.817500 1.028200
41.866800 0.956700
41.916200 0.938500
41.965500 0.906000
42.014900 0.906700
42.064300 0.872200
42.113600 0.860300
42.163000 0.883300
42.212300 0.866800
42.261700 0.851500
42.311000 0.803400
42.360400 0.792400
42.409800 0.742800
42.459100 0.720800
42.508500 0.712600
42.557800 0.718200
42.607200 0.699900
42.656500 0.673900
42.705900 0.697400
42.755200 0.680900
42.804600 0.702500
42.854000 0.729000
42.903300 0.786900
42.952700 0.867100
43.002000 0.898100
43.051400 0.887800
43.100700 0.869800
43.150100 0.861400
43.199400 0.864200
43.248800 0.854200
43.298200 0.817900
43.347500 0.776000
43.396900 0.799400
43.446200 0.836300
43.495600 0.895800
43.544900 0.926100
43.594300 1.037400
43.643700 1.185000
43.693000 1.224900
43.742400 1.196600
43.791700 1.184600
43.841100 1.182300
43.890400 1.151900
43.939800 1.094200
43.989100 1.086700
44.038500 1.089100
44.087900 1.093000
44.137200 1.167300
44.186600 1.074300
44.235900 0.958500
44.285300 0.907000
44.334600 0.932900
44.384000 0.993800
44.433300 1.104600
44.482700 1.165400
44.532100 1.223500
44.581400 1.525500
44.630800 1.317500
44.680100 1.172900
44.729500 1.089900
44.778800 1.058900
44.828200 1.007400
44.877600 0.949100
44.926900 0.929100
44.976300 0.932800
45.025600 1.027000
45.075000 1.044400
45.124300 1.030600
45.173700 0.989000
45.223000 0.873900
45.272400 0.848800
45.321800 0.846300
45.371100 0.874500
45.420500 0.888100
45.469800 0.921500
45.519200 0.947400
45.568500 0.957800
45.617900 0.975400
45.667200 0.986100
45.716600 1.004800
45.766000 0.986000
45.815300 0.952000
45.864700 0.904500
45.914000 0.858800
45.963400 0.830800
46.012700 0.818900
46.062100 0.808000
46.111500 0.743200
46.160800 0.707500
46.210200 0.692300
46.259500 0.704100
46.308900 0.715100
46.358200 0.735000
46.407600 0.749000
46.456900 0.799800
46.506300 0.841300
46.555700 0.938000
46.605000 1.005800
46.654400 1.016100
46.703700 0.995100
46.753100 0.984600
46.802400 0.959900
46.851800 0.958500
46.901100 0.935600
46.950500 0.925700
46.999900 0.938300
47.049200 0.978200
47.098600 0.904200
47.147900 0.871600
47.197300 0.837100
47.246600 0.860700
47.296000 0.830400
47.345400 0.734700
47.394700 0.691900
47.444100 0.673900
47.493400 0.633600
47.542800 0.550000
47.592100 0.496500
47.641500 0.466000
47.690800 0.441000
47.740200 0.421300
47.789600 0.404300
47.838900 0.389300
47.888300 0.381600
47.937600 0.375400
47.987000 0.371000
48.036300 0.370200
48.085700 0.359000
48.135000 0.351000
48.184400 0.334400
48.233800 0.313200
48.283100 0.283000
48.332500 0.292800
48.381800 0.236500
48.431200 0.214900
48.480500 0.234800
48.529900 0.203100
48.579300 0.165800
48.628600 0.149200
48.678000 0.132300
48.727300 0.123000
48.776700 0.111600
48.826000 0.095500
48.875400 0.075600
48.924700 0.057900
48.974100 0.037700
49.023500 0.026100
49.072800 0.020300
49.122200 0.014200
49.171500 0.002100
49.220900 0.000000
49.270200 0.000000
49.319600 0.000000
49.368900 0.000000
49.418300 0.000000
49.467700 0.000000
49.517000 0.000000
49.566400 0.000000
49.615700 0.000000
49.665100 0.000000
49.714400 0.000000
49.763800 0.000000
49.813200 0.000000
49.862500 0.000000
49.911900 0.000000
49.961200 0.000000
50.010600 0.000000
50.059900 0.000000
50.109300 0.000000
50.158600 0.000000
50.208000 0.000000
50.257400 0.000000
50.306700 0.000000
50.356100 0.000000
50.405400 0.000000
50.454800 0.000000
50.504100 0.000000
50.553500 0.000000
50.602800 0.000000
50.652200 0.000000
50.701600 0.000000
50.750900 0.000000
50.800300 0.000000
50.849600 0.000000
50.899000 0.000000
50.948300 0.000000
50.997700 0.000000
51.047100 0.000000
51.096400 0.000000
51.145800 0.000000
51.195100 0.000000
51.244500 0.000000
51.293800 0.000000
51.343200 0.000000
51.392500 0.000000
51.441900 0.000000
51.491300 0.000000
51.540600 0.000000
51.590000 0.000000
51.639300 0.000000
51.688700 0.000000
51.738000 0.000000
51.787400 0.000000
51.836700 0.000000
51.886100 0.000000
51.935500 0.000000
51.984800 0.000000
52.034200 0.000000
52.083500 0.000000
52.132900 0.000000
52.182200 0.000000
52.231600 0.000000
52.281000 0.000000
52.330300 0.000000
52.379700 0.000000
52.429000 0.000000
52.478400 0.000000
52.527700 0.000000
52.577100 0.000000
52.626400 0.000000
52.675800 0.000000
52.725200 0.000000
52.774500 0.000000
52.823900 0.000000
52.873200 0.000000
52.922600 0.000000
52.971900 0.000000
53.021300 0.000000
53.070600 0.000000
53.120000 0.000000
53.169400 0.000000
53.218700 0.000000
53.268100 0.000000
53.317400 0.000000
53.366800 0.000000
53.416100 0.000000
53.465500 0.000000
53.514900 0.000000
53.564200 0.000000
53.613600 0.000000
53.662900 0.000000
53.712300 0.000000
53.761600 0.000000
53.811000 0.000000
53.860300 0.000000
53.909700 0.000000
53.959100 0.000000
54.008400 0.000000
54.057800 0.000000
54.107100 0.000000
54.156500 0.000000
54.205800 0.000000
54.255200 0.000000
54.304500 0.000000
54.353900 0.000000
54.403300 0.000000
54.452600 0.000000
54.502000 0.000000
54.551300 0.000000
54.600700 0.000000
54.650000 0.000000
54.699400 0.000000
54.748800 0.000000
54.798100 0.000000
54.847500 0.000000
54.896800 0.000000
e
