set title 'mp-1008394 - Density of States'
set xlabel 'Energy (eV)'
set ylabel 'DOS (states/eV)'
set grid
set xrange [-10:10]
set yrange [0:35.018]
set xzeroaxis lt -1
set terminal png size 800,600
set output 'mp-1008394_dos_gnuplot.png'
plot '-' using 1:2 with lines title 'DOS'
-20.322600 0.000000
-20.300600 0.000000
-20.278500 0.000000
-20.256500 0.000000
-20.234400 0.000000
-20.212400 0.000000
-20.190400 0.000000
-20.168300 0.000000
-20.146300 0.000000
-20.124200 0.000000
-20.102200 0.000000
-20.080200 0.000000
-20.058100 0.000000
-20.036100 0.000000
-20.014000 0.000000
-19.992000 0.000000
-19.969900 0.000000
-19.947900 0.000000
-19.925900 0.000000
-19.903800 0.000000
-19.881800 0.000000
-19.859700 0.000000
-19.837700 0.000000
-19.815700 0.000000
-19.793600 0.000000
-19.771600 0.000000
-19.749500 0.000000
-19.727500 0.000000
-19.705400 0.000000
-19.683400 0.000000
-19.661400 0.000000
-19.639300 0.000000
-19.617300 0.000000
-19.595200 0.000000
-19.573200 0.000000
-19.551200 0.000000
-19.529100 0.000000
-19.507100 0.000000
-19.485000 0.000000
-19.463000 0.000000
-19.440900 0.000000
-19.418900 0.000000
-19.396900 0.000000
-19.374800 0.000000
-19.352800 0.000000
-19.330700 0.000000
-19.308700 0.000000
-19.286700 0.000000
-19.264600 0.000000
-19.242600 0.000000
-19.220500 0.000000
-19.198500 0.000000
-19.176400 0.000000
-19.154400 0.000000
-19.132400 0.000000
-19.110300 0.000000
-19.088300 0.000000
-19.066200 0.000000
-19.044200 0.000000
-19.022200 0.000000
-19.000100 0.000000
-18.978100 0.000000
-18.956000 0.000000
-18.934000 0.000000
-18.911900 0.000000
-18.889900 0.000000
-18.867900 0.000000
-18.845800 0.000000
-18.823800 0.000000
-18.801700 0.000000
-18.779700 0.000000
-18.757700 0.000000
-18.735600 0.000000
-18.713600 0.000000
-18.691500 0.000000
-18.669500 0.000000
-18.647400 0.000000
-18.625400 0.000000
-18.603400 0.000000
-18.581300 0.000000
-18.559300 0.000000
-18.537200 0.000000
-18.515200 0.000000
-18.493200 0.000000
-18.471100 0.000000
-18.449100 0.000000
-18.427000 0.000000
-18.405000 0.000000
-18.382900 0.000000
-18.360900 0.000000
-18.338900 0.000000
-18.316800 0.030000
-18.294800 3.239200
-18.272700 8.754300
-18.250700 15.767700
-18.228700 19.710800
-18.206600 14.764900
-18.184600 15.224200
-18.162500 14.494400
-18.140500 71.689600
-18.118400 15.176500
-18.096400 1.899000
-18.074400 0.000000
-18.052300 0.000000
-18.030300 0.000000
-18.008200 0.000000
-17.986200 0.000000
-17.964200 0.000000
-17.942100 0.000000
-17.920100 0.000000
-17.898000 0.000000
-17.876000 0.000000
-17.853900 0.000000
-17.831900 0.000000
-17.809900 0.000000
-17.787800 0.000000
-17.765800 0.000000
-17.743700 0.000000
-17.721700 0.000000
-17.699700 0.000000
-17.677600 0.000000
-17.655600 0.000000
-17.633500 0.000000
-17.611500 0.000000
-17.589400 0.000000
-17.567400 0.000000
-17.545400 0.000000
-17.523300 0.000000
-17.501300 0.000000
-17.479200 0.000000
-17.457200 0.000000
-17.435200 0.000000
-17.413100 0.000000
-17.391100 0.000000
-17.369000 0.000000
-17.347000 0.000000
-17.324900 0.000000
-17.302900 0.000000
-17.280900 0.000000
-17.258800 0.000000
-17.236800 0.000000
-17.214700 0.000000
-17.192700 0.000000
-17.170700 0.000000
-17.148600 0.000000
-17.126600 0.000000
-17.104500 0.000000
-17.082500 0.000000
-17.060400 0.000000
-17.038400 0.000000
-17.016400 0.000000
-16.994300 0.000000
-16.972300 0.000000
-16.950200 0.000000
-16.928200 0.000000
-16.906200 0.000000
-16.884100 0.000000
-16.862100 0.000000
-16.840000 0.000000
-16.818000 0.000000
-16.795900 0.000000
-16.773900 0.000000
-16.751900 0.000000
-16.729800 0.000000
-16.707800 0.000000
-16.685700 0.000000
-16.663700 0.000000
-16.641700 0.000000
-16.619600 0.000000
-16.597600 0.000000
-16.575500 0.000000
-16.553500 0.000000
-16.531400 0.000000
-16.509400 0.000000
-16.487400 0.000000
-16.465300 0.000000
-16.443300 0.000000
-16.421200 0.000000
-16.399200 0.000000
-16.377200 0.000000
-16.355100 0.000000
-16.333100 0.000000
-16.311000 0.000000
-16.289000 0.000000
-16.266900 0.000000
-16.244900 0.000000
-16.222900 0.000000
-16.200800 0.000000
-16.178800 0.000000
-16.156700 0.000000
-16.134700 0.000000
-16.112700 0.000000
-16.090600 0.000000
-16.068600 0.000000
-16.046500 0.000000
-16.024500 0.000000
-16.002400 0.000000
-15.980400 0.000000
-15.958400 0.000000
-15.936300 0.000000
-15.914300 0.000000
-15.892200 0.000000
-15.870200 0.000000
-15.848200 0.000000
-15.826100 0.000000
-15.804100 0.000000
-15.782000 0.000000
-15.760000 0.000000
-15.737900 0.000000
-15.715900 0.000000
-15.693900 0.000000
-15.671800 0.000000
-15.649800 0.000000
-15.627700 0.000000
-15.605700 0.000000
-15.583700 0.000000
-15.561600 0.000000
-15.539600 0.000000
-15.517500 0.000000
-15.495500 0.000000
-15.473400 0.000000
-15.451400 0.000000
-15.429400 0.000000
-15.407300 0.000000
-15.385300 0.000000
-15.363200 0.000000
-15.341200 0.000000
-15.319200 0.000000
-15.297100 0.000000
-15.275100 0.000000
-15.253000 0.000000
-15.231000 0.000000
-15.208900 0.000000
-15.186900 0.000000
-15.164900 0.000000
-15.142800 0.000000
-15.120800 0.000000
-15.098700 0.000000
-15.076700 0.000000
-15.054700 0.000000
-15.032600 0.000000
-15.010600 0.000000
-14.988500 0.000000
-14.966500 0.000000
-14.944400 0.000000
-14.922400 0.000000
-14.900400 0.000000
-14.878300 0.000000
-14.856300 0.000000
-14.834200 0.000000
-14.812200 0.000000
-14.790200 0.000000
-14.768100 0.000000
-14.746100 0.000000
-14.724000 0.000000
-14.702000 0.000000
-14.679900 0.000000
-14.657900 0.000000
-14.635900 0.000000
-14.613800 0.000000
-14.591800 0.000000
-14.569700 0.000000
-14.547700 0.000000
-14.525700 0.000000
-14.503600 0.000000
-14.481600 0.000000
-14.459500 0.000000
-14.437500 0.000000
-14.415400 0.000000
-14.393400 0.440300
-14.371400 1.452900
-14.349300 2.809800
-14.327300 4.251000
-14.305200 5.369500
-14.283200 6.499800
-14.261200 11.323400
-14.239100 11.984300
-14.217100 14.439400
-14.195000 9.792500
-14.173000 12.491600
-14.150900 14.072700
-14.128900 0.000000
-14.106900 0.000000
-14.084800 60.791800
-14.062800 12.691600
-14.040700 7.460800
-14.018700 8.855600
-13.996700 9.437500
-13.974600 14.218800
-13.952600 6.910500
-13.930500 6.037500
-13.908500 5.042000
-13.886400 4.124100
-13.864400 3.284000
-13.842400 2.077500
-13.820300 0.238500
-13.798300 0.000000
-13.776200 0.000000
-13.754200 0.000000
-13.732200 0.000000
-13.710100 0.000000
-13.688100 0.000000
-13.666000 0.000000
-13.644000 0.000000
-13.621900 0.000000
-13.599900 0.000000
-13.577900 0.000000
-13.555800 0.000000
-13.533800 0.000000
-13.511700 0.000000
-13.489700 0.000000
-13.467700 0.000000
-13.445600 0.000000
-13.423600 0.000000
-13.401500 0.000000
-13.379500 0.000000
-13.357400 0.000000
-13.335400 0.000000
-13.313400 0.000000
-13.291300 0.000000
-13.269300 0.000000
-13.247200 0.000000
-13.225200 0.000000
-13.203200 0.000000
-13.181100 0.000000
-13.159100 0.000000
-13.137000 0.000000
-13.115000 0.000000
-13.092900 0.000000
-13.070900 0.000000
-13.048900 0.000000
-13.026800 0.000000
-13.004800 0.000000
-12.982700 0.000000
-12.960700 0.000000
-12.938700 0.000000
-12.916600 0.000000
-12.894600 0.000000
-12.872500 0.000000
-12.850500 0.000000
-12.828400 0.000000
-12.806400 0.000000
-12.784400 0.000000
-12.762300 0.000000
-12.740300 0.000000
-12.718200 0.000000
-12.696200 0.000000
-12.674200 0.000000
-12.652100 0.000000
-12.630100 0.000000
-12.608000 0.000000
-12.586000 0.000000
-12.563900 0.000000
-12.541900 0.000000
-12.519900 0.000000
-12.497800 0.000000
-12.475800 0.000000
-12.453700 0.000000
-12.431700 0.000000
-12.409700 0.000000
-12.387600 0.000000
-12.365600 0.000000
-12.343500 0.000000
-12.321500 0.000000
-12.299400 0.000000
-12.277400 0.000000
-12.255400 0.000000
-12.233300 0.000000
-12.211300 0.000000
-12.189200 0.000000
-12.167200 0.000000
-12.145200 0.000000
-12.123100 0.000000
-12.101100 0.000000
-12.079000 0.000000
-12.057000 0.000000
-12.034900 0.000000
-12.012900 0.000000
-11.990900 0.000000
-11.968800 0.000000
-11.946800 0.000000
-11.924700 0.000000
-11.902700 0.000000
-11.880700 0.000000
-11.858600 0.000000
-11.836600 0.000000
-11.814500 0.000000
-11.792500 0.000000
-11.770400 0.000000
-11.748400 0.000000
-11.726400 0.000000
-11.704300 0.000000
-11.682300 0.000000
-11.660200 0.000000
-11.638200 0.000000
-11.616200 0.000000
-11.594100 0.000000
-11.572100 0.000000
-11.550000 0.000000
-11.528000 0.000000
-11.505900 0.000000
-11.483900 0.000000
-11.461900 0.000000
-11.439800 0.000000
-11.417800 0.000000
-11.395700 0.000000
-11.373700 0.000000
-11.351700 0.000000
-11.329600 0.000000
-11.307600 0.000000
-11.285500 0.000000
-11.263500 0.000000
-11.241400 0.000000
-11.219400 0.000000
-11.197400 0.000000
-11.175300 0.000000
-11.153300 0.000000
-11.131200 0.000000
-11.109200 0.000000
-11.087200 0.000000
-11.065100 0.000000
-11.043100 0.000000
-11.021000 0.000000
-10.999000 0.000000
-10.976900 0.000000
-10.954900 0.000000
-10.932900 0.000000
-10.910800 0.000000
-10.888800 0.000000
-10.866700 0.000000
-10.844700 0.000000
-10.822700 0.000000
-10.800600 0.000000
-10.778600 0.000000
-10.756500 0.000000
-10.734500 0.000000
-10.712400 0.000000
-10.690400 0.000000
-10.668400 0.000000
-10.646300 0.000000
-10.624300 0.000000
-10.602200 0.000000
-10.580200 0.000000
-10.558200 0.000000
-10.536100 0.000000
-10.514100 0.000000
-10.492000 0.000000
-10.470000 0.000000
-10.447900 0.000000
-10.425900 0.000000
-10.403900 0.000000
-10.381800 0.000000
-10.359800 0.000000
-10.337700 0.000000
-10.315700 0.000000
-10.293700 0.000000
-10.271600 0.000000
-10.249600 0.000000
-10.227500 0.000000
-10.205500 0.000000
-10.183400 0.000000
-10.161400 0.000000
-10.139400 0.000000
-10.117300 0.000000
-10.095300 0.000000
-10.073200 0.000000
-10.051200 0.000000
-10.029200 0.000000
-10.007100 0.000000
-9.985100 0.000000
-9.963000 0.000000
-9.941000 0.000000
-9.918900 0.000000
-9.896900 0.000000
-9.874900 0.000000
-9.852800 0.000000
-9.830800 0.000000
-9.808700 0.000000
-9.786700 0.000000
-9.764700 0.000000
-9.742600 0.000000
-9.720600 0.000000
-9.698500 0.000000
-9.676500 0.000000
-9.654400 0.000000
-9.632400 0.000000
-9.610400 0.000000
-9.588300 0.000000
-9.566300 0.000000
-9.544200 0.000000
-9.522200 0.000000
-9.500200 0.000000
-9.478100 0.000000
-9.456100 0.000000
-9.434000 0.000000
-9.412000 0.000000
-9.389900 0.000000
-9.367900 0.000000
-9.345900 0.000000
-9.323800 0.000000
-9.301800 0.000000
-9.279700 0.000000
-9.257700 0.000000
-9.235700 0.000000
-9.213600 0.000000
-9.191600 0.000000
-9.169500 0.000000
-9.147500 0.000000
-9.125400 0.000000
-9.103400 0.000000
-9.081400 0.000000
-9.059300 0.000000
-9.037300 0.000000
-9.015200 0.000000
-8.993200 0.000000
-8.971200 0.000000
-8.949100 0.000000
-8.927100 0.000000
-8.905000 0.000000
-8.883000 0.000000
-8.860900 0.000000
-8.838900 0.000000
-8.816900 0.000000
-8.794800 0.000000
-8.772800 0.000000
-8.750700 0.000000
-8.728700 0.000000
-8.706700 0.000000
-8.684600 0.000000
-8.662600 0.000000
-8.640500 0.000000
-8.618500 0.000000
-8.596400 0.000000
-8.574400 0.000000
-8.552400 0.000000
-8.530300 0.000000
-8.508300 0.000000
-8.486200 0.000000
-8.464200 0.000000
-8.442200 0.000000
-8.420100 0.000000
-8.398100 0.000000
-8.376000 0.000000
-8.354000 0.000000
-8.331900 0.000000
-8.309900 0.000000
-8.287900 0.000000
-8.265800 0.000000
-8.243800 0.000000
-8.221700 0.000000
-8.199700 0.000000
-8.177700 0.000000
-8.155600 0.000000
-8.133600 0.000000
-8.111500 0.000000
-8.089500 0.000000
-8.067400 0.000000
-8.045400 0.000000
-8.023400 0.000000
-8.001300 0.000000
-7.979300 0.000000
-7.957200 0.000000
-7.935200 0.000000
-7.913200 0.000000
-7.891100 0.000000
-7.869100 0.000000
-7.847000 0.000000
-7.825000 0.000000
-7.802900 0.000000
-7.780900 0.000000
-7.758900 0.000000
-7.736800 0.000000
-7.714800 0.000000
-7.692700 0.000000
-7.670700 0.000000
-7.648700 0.000000
-7.626600 0.000000
-7.604600 0.000000
-7.582500 0.000000
-7.560500 0.000000
-7.538400 0.000000
-7.516400 0.000000
-7.494400 0.000000
-7.472300 0.000000
-7.450300 0.000000
-7.428200 0.000000
-7.406200 0.000000
-7.384200 0.000000
-7.362100 0.000000
-7.340100 0.000000
-7.318000 0.000000
-7.296000 0.000000
-7.273900 0.000000
-7.251900 0.000000
-7.229900 0.000000
-7.207800 0.008200
-7.185800 0.416900
-7.163700 0.905900
-7.141700 1.491600
-7.119700 2.322300
-7.097600 3.011200
-7.075600 3.540100
-7.053500 4.048000
-7.031500 4.497200
-7.009400 4.925100
-6.987400 5.388300
-6.965400 7.723500
-6.943300 11.042900
-6.921300 11.481900
-6.899200 9.305700
-6.877200 6.409000
-6.855200 5.937500
-6.833100 5.584900
-6.811100 0.000000
-6.789000 0.000000
-6.767000 0.000000
-6.744900 0.496900
-6.722900 13.585600
-6.700900 4.734800
-6.678800 3.473600
-6.656800 3.419000
-6.634700 3.396900
-6.612700 3.407200
-6.590700 3.616800
-6.568600 3.984400
-6.546600 4.110200
-6.524500 4.191900
-6.502500 4.229600
-6.480400 7.189800
-6.458400 7.722600
-6.436400 3.271400
-6.414300 3.025400
-6.392300 2.788900
-6.370200 2.562900
-6.348200 2.347500
-6.326200 2.142700
-6.304100 1.948400
-6.282100 1.764800
-6.260000 1.591600
-6.238000 1.328400
-6.215900 0.944400
-6.193900 0.539500
-6.171900 0.163200
-6.149800 0.000000
-6.127800 0.000000
-6.105700 0.000000
-6.083700 0.000000
-6.061700 0.000000
-6.039600 0.000000
-6.017600 0.000000
-5.995500 0.000000
-5.973500 0.000000
-5.951400 0.000000
-5.929400 0.000000
-5.907400 0.000000
-5.885300 0.000000
-5.863300 0.000000
-5.841200 0.000000
-5.819200 0.000000
-5.797200 0.000000
-5.775100 0.000000
-5.753100 0.000000
-5.731000 0.000000
-5.709000 0.000000
-5.686900 0.000000
-5.664900 0.000000
-5.642900 0.000000
-5.620800 0.000000
-5.598800 0.000000
-5.576700 0.000000
-5.554700 0.000000
-5.532700 0.000000
-5.510600 0.000000
-5.488600 0.000000
-5.466500 0.000000
-5.444500 0.000000
-5.422400 0.000000
-5.400400 0.000000
-5.378400 0.000000
-5.356300 0.000000
-5.334300 0.000000
-5.312200 0.000000
-5.290200 0.000000
-5.268200 0.000000
-5.246100 0.000000
-5.224100 0.000000
-5.202000 0.000000
-5.180000 0.000000
-5.157900 0.056900
-5.135900 0.468900
-5.113900 0.728100
-5.091800 1.012600
-5.069800 2.313900
-5.047700 5.339300
-5.025700 5.108800
-5.003700 5.586000
-4.981600 8.879400
-4.959600 11.440100
-4.937500 15.279300
-4.915500 11.115400
-4.893400 11.324200
-4.871400 12.791600
-4.849400 11.072800
-4.827300 9.494600
-4.805300 7.904200
-4.783200 6.920700
-4.761200 6.854300
-4.739200 7.028500
-4.717100 7.686000
-4.695100 9.161300
-4.673000 10.138800
-4.651000 11.355600
-4.628900 12.882900
-4.606900 14.095300
-4.584900 15.069500
-4.562800 17.224400
-4.540800 21.578700
-4.518700 20.335200
-4.496700 14.723900
-4.474700 13.792300
-4.452600 11.923300
-4.430600 10.747700
-4.408500 10.039000
-4.386500 8.765300
-4.364400 6.685100
-4.342400 4.415100
-4.320400 3.067600
-4.298300 0.289600
-4.276300 0.000000
-4.254200 0.000000
-4.232200 0.000000
-4.210200 0.000000
-4.188100 0.000000
-4.166100 0.000000
-4.144000 0.000000
-4.122000 0.000000
-4.099900 0.000000
-4.077900 0.000000
-4.055900 0.000000
-4.033800 0.000000
-4.011800 0.000000
-3.989700 0.000000
-3.967700 0.000000
-3.945700 0.000000
-3.923600 0.000000
-3.901600 0.000000
-3.879500 0.000000
-3.857500 0.000000
-3.835400 0.000000
-3.813400 0.000000
-3.791400 0.000000
-3.769300 0.000000
-3.747300 0.000000
-3.725200 0.000000
-3.703200 0.000000
-3.681200 0.000000
-3.659100 0.000000
-3.637100 0.000000
-3.615000 0.000000
-3.593000 0.000000
-3.570900 0.000000
-3.548900 0.000000
-3.526900 0.000000
-3.504800 0.000000
-3.482800 0.000000
-3.460700 0.000000
-3.438700 0.000000
-3.416700 0.000000
-3.394600 0.000000
-3.372600 0.000000
-3.350500 0.000000
-3.328500 0.000000
-3.306400 0.000000
-3.284400 0.000000
-3.262400 0.000000
-3.240300 0.000000
-3.218300 0.000000
-3.196200 0.000000
-3.174200 0.000000
-3.152200 0.000000
-3.130100 0.000000
-3.108100 0.000000
-3.086000 0.000000
-3.064000 0.000000
-3.041900 0.000000
-3.019900 0.000000
-2.997900 0.000000
-2.975800 0.000000
-2.953800 0.000000
-2.931700 0.000000
-2.909700 0.000000
-2.887700 0.000000
-2.865600 0.000000
-2.843600 0.000000
-2.821500 0.000000
-2.799500 0.000000
-2.777400 0.000000
-2.755400 0.000000
-2.733400 0.000000
-2.711300 0.000000
-2.689300 0.000000
-2.667200 0.000000
-2.645200 0.000000
-2.623200 0.000000
-2.601100 0.185400
-2.579100 0.342900
-2.557000 0.528100
-2.535000 0.742700
-2.512900 1.103400
-2.490900 1.820500
-2.468900 3.098600
-2.446800 4.923400
-2.424800 7.883900
-2.402700 9.930900
-2.380700 11.648600
-2.358700 12.969000
-2.336600 12.383900
-2.314600 11.487700
-2.292500 11.252600
-2.270500 11.045200
-2.248400 10.650800
-2.226400 10.101800
-2.204400 12.478500
-2.182300 8.536000
-2.160300 8.846100
-2.138200 6.359900
-2.116200 6.242800
-2.094200 6.648200
-2.072100 7.525300
-2.050100 16.051000
-2.028000 31.834200
-2.006000 25.128800
-1.983900 22.961200
-1.961900 24.422300
-1.939900 17.286300
-1.917800 13.261800
-1.895800 10.379600
-1.873700 7.846700
-1.851700 5.936300
-1.829700 4.051700
-1.807600 2.369900
-1.785600 1.360400
-1.763500 0.428400
-1.741500 0.002400
-1.719400 0.000000
-1.697400 0.000000
-1.675400 0.000000
-1.653300 0.000000
-1.631300 0.000000
-1.609200 0.000000
-1.587200 0.000000
-1.565200 0.000000
-1.543100 0.000000
-1.521100 0.000000
-1.499000 0.000000
-1.477000 0.000000
-1.454900 0.000000
-1.432900 0.000000
-1.410900 0.000000
-1.388800 0.000000
-1.366800 0.000000
-1.344700 0.000000
-1.322700 0.000000
-1.300700 0.000000
-1.278600 0.000000
-1.256600 0.000000
-1.234500 0.000000
-1.212500 0.000000
-1.190400 0.000000
-1.168400 0.000000
-1.146400 0.000000
-1.124300 0.000000
-1.102300 0.000000
-1.080200 0.000000
-1.058200 0.000000
-1.036200 0.000000
-1.014100 0.000000
-0.992100 0.000000
-0.970000 0.000000
-0.948000 0.000000
-0.925900 0.000000
-0.903900 0.000000
-0.881900 0.000000
-0.859800 0.000000
-0.837800 0.000000
-0.815700 0.000000
-0.793700 0.000000
-0.771700 0.000000
-0.749600 0.000000
-0.727600 0.000000
-0.705500 0.000000
-0.683500 0.000000
-0.661400 0.000000
-0.639400 0.000000
-0.617400 0.000000
-0.595300 0.000000
-0.573300 0.000000
-0.551200 0.000000
-0.529200 0.000000
-0.507200 0.000000
-0.485100 0.000000
-0.463100 0.000000
-0.441000 0.000000
-0.419000 0.000000
-0.396900 0.000000
-0.374900 0.000000
-0.352900 0.000000
-0.330800 0.000000
-0.308800 0.000000
-0.286700 0.000000
-0.264700 0.000000
-0.242700 0.000000
-0.220600 0.000000
-0.198600 0.000000
-0.176500 0.000000
-0.154500 0.000000
-0.132400 0.000000
-0.110400 0.000000
-0.088400 0.000000
-0.066300 0.000000
-0.044300 0.000000
-0.022200 0.000000
-0.000200 0.000000
0.021800 0.000000
0.043900 0.000000
0.065900 0.000000
0.088000 0.000000
0.110000 0.000000
0.132100 0.000000
0.154100 0.000000
0.176100 0.000000
0.198200 0.000000
0.220200 0.000000
0.242300 0.000000
0.264300 0.000000
0.286300 0.000000
0.308400 0.000000
0.330400 0.000000
0.352500 0.000000
0.374500 0.000000
0.396600 0.000000
0.418600 0.000000
0.440600 0.000000
0.462700 0.000000
0.484700 0.000000
0.506800 0.000000
0.528800 0.000000
0.550800 0.011200
0.572900 0.137500
0.594900 0.360100
0.617000 0.668000
0.639000 1.072100
0.661100 1.543200
0.683100 1.977400
0.705100 2.351000
0.727200 2.618300
0.749200 2.908200
0.771300 3.564700
0.793300 4.886900
0.815300 5.616100
0.837400 6.884200
0.859400 5.971500
0.881500 4.843600
0.903500 4.938300
0.925600 4.895800
0.947600 4.572200
0.969600 4.354700
0.991700 4.317800
1.013700 5.449500
1.035800 5.837900
1.057800 3.291800
1.079800 2.753500
1.101900 2.302400
1.123900 8.358300
1.146000 4.149700
1.168000 4.600000
1.190100 5.195300
1.212100 8.084000
1.234100 11.073800
1.256200 6.998500
1.278200 6.973100
1.300300 6.120600
1.322300 5.236900
1.344300 4.688600
1.366400 4.146000
1.388400 3.521600
1.410500 2.847200
1.432500 2.127100
1.454600 1.213100
1.476600 0.478800
1.498600 0.045800
1.520700 0.000000
1.542700 0.000000
1.564800 0.000000
1.586800 0.000000
1.608800 0.000000
1.630900 0.000000
1.652900 0.000000
1.675000 0.000000
1.697000 0.000000
1.719100 0.000000
1.741100 0.000000
1.763100 0.000000
1.785200 0.000000
1.807200 0.000000
1.829300 0.000000
1.851300 0.000000
1.873300 0.000000
1.895400 0.000000
1.917400 0.000000
1.939500 0.000000
1.961500 0.000000
1.983600 0.000000
2.005600 0.000000
2.027600 0.000000
2.049700 0.000000
2.071700 0.000000
2.093800 0.000000
2.115800 0.000000
2.137800 0.000000
2.159900 0.000000
2.181900 0.000000
2.204000 0.000000
2.226000 0.000000
2.248100 0.000000
2.270100 0.000000
2.292100 0.000000
2.314200 0.000000
2.336200 0.000000
2.358300 0.000000
2.380300 0.000000
2.402300 0.000000
2.424400 0.000000
2.446400 0.000000
2.468500 0.000000
2.490500 0.000000
2.512600 0.000000
2.534600 0.000000
2.556600 0.000000
2.578700 0.000000
2.600700 0.000000
2.622800 0.000000
2.644800 0.000000
2.666800 0.000000
2.688900 0.000000
2.710900 0.000000
2.733000 0.000000
2.755000 0.000000
2.777100 0.000000
2.799100 0.000000
2.821100 0.000000
2.843200 0.000000
2.865200 0.000000
2.887300 0.000000
2.909300 0.000000
2.931300 0.000000
2.953400 0.000000
2.975400 0.000000
2.997500 0.000000
3.019500 0.000000
3.041600 0.000000
3.063600 0.000000
3.085600 0.000000
3.107700 0.000000
3.129700 0.000000
3.151800 0.000000
3.173800 0.000000
3.195800 0.000000
3.217900 0.000000
3.239900 0.000000
3.262000 0.000000
3.284000 0.000000
3.306100 0.000000
3.328100 0.000000
3.350100 0.000000
3.372200 0.000000
3.394200 0.000000
3.416300 0.000000
3.438300 0.000000
3.460300 0.000000
3.482400 0.000000
3.504400 0.000000
3.526500 0.000000
3.548500 0.000000
3.570600 0.000000
3.592600 0.000000
3.614600 0.000000
3.636700 0.000000
3.658700 0.000000
3.680800 0.000000
3.702800 0.000000
3.724800 0.000000
3.746900 0.000000
3.768900 0.000000
3.791000 0.000000
3.813000 0.000000
3.835100 0.000000
3.857100 0.000000
3.879100 0.000000
3.901200 0.000000
3.923200 0.000000
3.945300 0.000000
3.967300 0.000000
3.989300 0.000000
4.011400 0.000000
4.033400 0.000000
4.055500 0.000000
4.077500 0.000000
4.099600 0.000000
4.121600 0.000000
4.143600 0.000000
4.165700 0.000000
4.187700 0.000000
4.209800 0.000000
4.231800 0.000000
4.253800 0.000000
4.275900 0.000000
4.297900 0.000000
4.320000 0.000000
4.342000 0.000000
4.364100 0.000000
4.386100 0.000000
4.408100 0.000000
4.430200 0.000900
4.452200 0.004300
4.474300 0.010100
4.496300 0.018300
4.518300 0.029000
4.540400 0.042100
4.562400 0.057600
4.584500 0.075600
4.606500 0.096000
4.628600 0.118900
4.650600 0.144200
4.672600 0.171900
4.694700 0.213800
4.716700 0.266200
4.738800 0.321600
4.760800 0.375700
4.782800 0.418500
4.804900 0.451700
4.826900 0.476300
4.849000 0.497200
4.871000 0.515100
4.893100 0.529900
4.915100 0.541700
4.937100 0.550500
4.959200 0.511900
4.981200 0.499200
5.003300 0.488600
5.025300 0.480000
5.047300 0.506300
5.069400 0.555800
5.091400 0.616100
5.113500 0.676400
5.135500 0.736600
5.157600 0.796800
5.179600 0.856900
5.201600 0.916900
5.223700 0.976900
5.245700 1.036900
5.267800 1.096800
5.289800 1.156600
5.311800 1.216400
5.333900 1.188700
5.355900 1.132800
5.378000 1.051900
5.400000 1.019800
5.422100 1.033600
5.444100 1.047700
5.466100 1.061400
5.488200 1.075500
5.510200 1.090300
5.532300 1.106000
5.554300 1.122700
5.576300 1.140700
5.598400 1.160000
5.620400 1.180600
5.642500 1.206800
5.664500 1.233000
5.686600 1.257600
5.708600 1.281200
5.730600 1.304800
5.752700 1.328400
5.774700 1.352000
5.796800 1.375700
5.818800 1.399400
5.840800 1.423300
5.862900 1.446900
5.884900 1.470800
5.907000 1.494900
5.929000 1.519200
5.951100 1.545000
5.973100 1.572500
5.995100 1.600800
6.017200 1.630000
6.039200 1.666700
6.061300 1.717500
6.083300 1.876100
6.105300 2.035100
6.127400 2.191700
6.149400 2.345200
6.171500 2.495700
6.193500 2.643100
6.215600 2.951800
6.237600 3.029000
6.259600 3.043800
6.281700 3.049300
6.303700 3.167400
6.325800 3.263100
6.347800 3.385900
6.369800 3.279300
6.391900 3.184500
6.413900 3.102300
6.436000 3.035100
6.458000 2.984900
6.480100 2.952200
6.502100 2.943400
6.524100 2.930800
6.546200 2.935400
6.568200 2.984600
6.590300 2.955600
6.612300 2.759100
6.634300 2.547600
6.656400 2.388800
6.678400 2.323200
6.700500 2.317200
6.722500 2.298800
6.744600 2.253600
6.766600 2.185100
6.788600 2.217700
6.810700 2.103300
6.832700 2.277200
6.854800 2.028800
6.876800 1.800000
6.898800 1.601600
6.920900 1.588600
6.942900 1.384300
6.965000 1.196900
6.987000 1.026600
7.009100 0.873300
7.031100 0.751300
7.053100 0.695800
7.075200 0.676900
7.097200 0.658100
7.119300 0.641600
7.141300 0.647600
7.163300 0.681400
7.185400 0.753200
7.207400 0.914500
7.229500 1.129000
7.251500 1.386900
7.273600 1.830700
7.295600 2.875900
7.317600 3.688700
7.339700 4.585700
7.361700 5.711000
7.383800 7.047900
7.405800 8.140300
7.427800 9.611600
7.449900 6.417000
7.471900 5.479600
7.494000 4.633900
7.516000 4.443800
7.538100 4.394400
7.560100 4.634300
7.582100 5.289600
7.604200 6.701100
7.626200 7.699600
7.648300 8.545000
7.670300 9.294900
7.692300 8.868000
7.714400 6.695900
7.736400 6.586300
7.758500 6.058400
7.780500 5.406900
7.802600 4.833000
7.824600 4.336600
7.846600 4.064000
7.868700 3.754000
7.890700 3.499200
7.912800 3.329300
7.934800 3.197000
7.956800 2.658800
7.978900 2.541700
8.000900 2.462000
8.023000 2.252400
8.045000 2.274500
8.067100 2.270700
8.089100 2.229300
8.111100 2.123900
8.133200 2.124400
8.155200 2.174900
8.177300 2.323800
8.199300 2.503900
8.221300 2.712300
8.243400 3.367700
8.265400 6.240500
8.287500 5.463900
8.309500 4.824600
8.331600 4.838100
8.353600 5.385700
8.375600 5.831400
8.397700 6.338800
8.419700 7.296500
8.441800 7.499500
8.463800 7.054100
8.485800 7.237900
8.507900 6.900900
8.529900 5.909600
8.552000 5.276300
8.574000 5.223900
8.596100 4.801600
8.618100 4.684400
8.640100 4.861400
8.662200 5.103500
8.684200 5.275400
8.706300 5.291300
8.728300 6.976000
8.750300 4.864400
8.772400 4.725600
8.794400 4.601300
8.816500 4.503700
8.838500 4.389300
8.860600 4.371000
8.882600 4.221000
8.904600 4.147400
8.926700 4.073300
8.948700 3.980300
8.970800 3.873700
8.992800 4.172200
9.014800 3.971600
9.036900 3.872700
9.058900 3.880000
9.081000 4.260000
9.103000 4.766300
9.125100 5.278800
9.147100 5.723800
9.169100 5.746400
9.191200 5.589100
9.213200 5.172800
9.235300 4.027000
9.257300 2.580300
9.279300 2.105700
9.301400 1.726100
9.323400 3.292100
9.345500 3.824800
9.367500 3.660800
9.389600 3.831100
9.411600 4.837400
9.433600 5.061800
9.455700 5.205400
9.477700 5.302400
9.499800 5.408100
9.521800 5.352900
9.543800 5.574700
9.565900 6.166600
9.587900 6.160600
9.610000 5.704900
9.632000 5.167800
9.654100 4.558500
9.676100 4.172500
9.698100 3.680700
9.720200 3.321600
9.742200 2.992000
9.764300 2.685000
9.786300 2.461300
9.808300 2.324700
9.830400 2.222600
9.852400 2.136100
9.874500 2.057300
9.896500 2.096700
9.918600 2.041900
9.940600 1.997700
9.962600 1.962400
9.984700 1.955600
10.006700 1.984200
10.028800 2.168000
10.050800 2.624000
10.072800 4.153600
10.094900 5.035000
10.116900 5.208300
10.139000 5.400100
10.161000 6.025600
10.183100 5.815700
10.205100 5.890200
10.227100 6.796800
10.249200 6.216600
10.271200 6.083100
10.293300 5.938900
10.315300 5.718800
10.337300 5.424300
10.359400 5.044000
10.381400 4.704800
10.403500 4.385300
10.425500 4.182900
10.447600 4.301400
10.469600 4.961500
10.491600 4.311700
10.513700 4.256400
10.535700 4.283900
10.557800 4.787300
10.579800 5.216400
10.601800 5.149100
10.623900 6.850500
10.645900 7.170000
10.668000 11.087400
10.690000 4.197100
10.712100 3.495400
10.734100 3.129900
10.756100 3.029700
10.778200 2.956000
10.800200 2.879800
10.822300 2.775400
10.844300 2.668800
10.866300 2.593400
10.888400 2.526500
10.910400 2.470400
10.932500 2.432100
10.954500 2.415200
10.976600 2.406500
10.998600 2.401800
11.020600 2.419100
11.042700 2.462100
11.064700 2.508200
11.086800 2.558400
11.108800 2.612100
11.130800 2.671200
11.152900 2.734000
11.174900 2.804800
11.197000 2.883200
11.219000 2.967100
11.241100 3.051700
11.263100 3.135200
11.285100 3.210900
11.307200 3.226400
11.329200 3.238200
11.351300 3.249900
11.373300 3.311500
11.395300 3.376200
11.417400 3.461000
11.439400 3.554100
11.461500 3.645000
11.483500 3.844200
11.505600 3.881900
11.527600 3.924700
11.549600 3.977200
11.571700 4.039300
11.593700 4.110800
11.615800 4.396300
11.637800 4.458800
11.659800 4.713200
11.681900 5.044300
11.703900 5.317100
11.726000 5.667000
11.748000 5.963200
11.770100 6.586300
11.792100 5.890900
11.814100 5.144200
11.836200 4.538800
11.858200 3.983700
11.880300 3.573400
11.902300 3.304700
11.924300 3.231800
11.946400 3.021400
11.968400 3.026900
11.990500 3.421700
12.012500 3.930700
12.034600 3.081000
12.056600 3.198600
12.078600 3.444800
12.100700 4.060500
12.122700 4.348400
12.144800 4.638800
12.166800 5.009000
12.188800 5.242300
12.210900 5.819400
12.232900 6.504200
12.255000 8.066200
12.277000 5.985600
12.299100 5.531700
12.321100 5.488700
12.343100 5.400600
12.365200 5.409100
12.387200 5.381900
12.409300 5.320100
12.431300 5.258500
12.453300 5.261300
12.475400 5.278200
12.497400 5.273200
12.519500 4.970700
12.541500 4.681700
12.563600 4.691600
12.585600 4.840600
12.607600 4.958400
12.629700 5.949000
12.651700 5.744400
12.673800 6.432600
12.695800 3.364200
12.717800 3.453500
12.739900 3.803200
12.761900 4.116400
12.784000 4.402600
12.806000 4.722700
12.828100 4.727400
12.850100 5.051000
12.872100 5.039200
12.894200 5.469300
12.916200 5.838800
12.938300 6.122800
12.960300 6.976200
12.982300 6.765400
13.004400 5.572700
13.026400 4.810600
13.048500 4.574600
13.070500 4.626200
13.092500 4.029700
13.114600 3.527500
13.136600 3.414900
13.158700 3.346800
13.180700 2.992000
13.202800 4.948800
13.224800 3.243800
13.246800 3.408700
13.268900 3.962600
13.290900 4.438200
13.313000 4.939300
13.335000 5.703400
13.357000 6.037000
13.379100 6.295000
13.401100 6.464800
13.423200 6.865800
13.445200 6.849500
13.467300 6.574100
13.489300 6.316200
13.511300 6.473400
13.533400 5.626900
13.555400 4.659200
13.577500 4.099700
13.599500 4.180400
13.621500 6.916100
13.643600 6.986200
13.665600 6.426500
13.687700 5.308800
13.709700 4.799200
13.731800 4.323600
13.753800 4.054800
13.775800 3.859300
13.797900 3.676800
13.819900 4.405000
13.842000 4.866900
13.864000 7.826000
13.886000 6.255300
13.908100 6.351700
13.930100 6.407500
13.952200 5.645100
13.974200 5.335300
13.996300 4.848200
14.018300 4.463200
14.040300 4.153500
14.062400 3.977900
14.084400 3.901100
14.106500 3.897100
14.128500 3.356300
14.150500 3.194400
14.172600 3.121200
14.194600 2.998100
14.216700 3.160300
14.238700 3.333400
14.260800 3.360600
14.282800 3.391000
14.304800 3.432100
14.326900 3.557800
14.348900 3.636000
14.371000 3.360100
14.393000 3.437800
14.415000 3.470000
14.437100 3.477300
14.459100 3.291300
14.481200 3.638400
14.503200 3.771000
14.525300 3.429500
14.547300 3.218400
14.569300 2.756800
14.591400 3.005000
14.613400 3.427200
14.635500 3.909400
14.657500 4.494000
14.679500 5.316600
14.701600 5.729100
14.723600 5.877400
14.745700 5.868700
14.767700 5.930700
14.789800 6.266900
14.811800 6.557200
14.833800 6.795000
14.855900 8.107500
14.877900 7.074600
14.900000 6.518000
14.922000 5.879500
14.944000 5.239000
14.966100 4.908900
14.988100 5.450100
15.010200 5.226200
15.032200 5.252300
15.054300 5.467000
15.076300 5.748800
15.098300 6.097800
15.120400 5.661100
15.142400 5.636300
15.164500 5.954400
15.186500 6.602300
15.208500 6.602800
15.230600 6.276100
15.252600 6.469100
15.274700 5.851000
15.296700 6.174600
15.318800 4.672000
15.340800 4.481000
15.362800 4.406900
15.384900 4.597600
15.406900 4.342500
15.429000 4.102000
15.451000 4.271400
15.473000 4.457300
15.495100 4.645900
15.517100 4.563300
15.539200 4.818300
15.561200 4.490100
15.583300 4.382600
15.605300 4.303900
15.627300 4.239400
15.649400 4.185300
15.671400 4.140800
15.693500 4.171000
15.715500 4.474200
15.737500 4.561900
15.759600 4.954600
15.781600 5.926400
15.803700 6.927500
15.825700 5.061100
15.847800 3.997000
15.869800 3.581100
15.891800 3.302200
15.913900 3.148900
15.935900 3.106400
15.958000 3.095700
15.980000 3.085500
16.002000 3.064300
16.024100 3.033100
16.046100 2.993000
16.068200 2.944200
16.090200 2.889700
16.112300 2.830800
16.134300 2.767400
16.156300 3.140000
16.178400 3.104200
16.200400 3.061900
16.222500 3.041500
16.244500 3.027900
16.266500 3.021000
16.288600 3.072400
16.310600 3.215700
16.332700 3.497400
16.354700 3.793100
16.376800 4.110500
16.398800 4.086400
16.420800 4.392800
16.442900 4.130900
16.464900 4.334700
16.487000 4.399300
16.509000 4.413300
16.531000 4.340600
16.553100 4.212900
16.575100 4.024100
16.597200 3.806300
16.619200 3.578600
16.641300 3.370600
16.663300 3.228200
16.685300 3.843400
16.707400 3.856000
16.729400 3.892000
16.751500 3.952200
16.773500 4.036800
16.795500 4.389300
16.817600 3.846100
16.839600 3.869700
16.861700 3.914400
16.883700 3.965800
16.905800 4.018200
16.927800 4.070400
16.949800 4.880100
16.971900 4.569600
16.993900 4.220600
17.016000 4.611800
17.038000 4.506100
17.060000 4.363500
17.082100 4.232400
17.104100 4.198600
17.126200 4.202000
17.148200 4.244000
17.170300 4.336100
17.192300 4.689600
17.214300 5.531000
17.236400 4.719500
17.258400 4.875600
17.280500 5.014300
17.302500 4.839500
17.324500 4.741900
17.346600 4.745900
17.368600 4.951800
17.390700 4.734600
17.412700 4.587900
17.434800 4.384800
17.456800 4.250200
17.478800 4.171000
17.500900 3.807400
17.522900 3.426800
17.545000 3.062500
17.567000 2.743300
17.589000 2.463800
17.611100 2.326000
17.633100 2.377700
17.655200 3.177200
17.677200 3.556200
17.699300 3.682300
17.721300 3.747700
17.743300 3.695600
17.765400 3.720100
17.787400 3.728800
17.809500 3.683500
17.831500 3.593800
17.853500 3.484600
17.875600 3.424800
17.897600 3.352700
17.919700 3.241000
17.941700 3.944500
17.963800 2.462600
17.985800 2.271900
18.007800 2.108000
18.029900 2.067600
18.051900 2.681600
18.074000 4.117000
18.096000 5.269300
18.118000 6.144800
18.140100 5.645600
18.162100 7.647600
18.184200 5.770700
18.206200 4.787300
18.228300 4.543600
18.250300 5.256400
18.272300 5.339300
18.294400 5.567300
18.316400 6.132300
18.338500 5.901800
18.360500 5.860900
18.382500 5.440100
18.404600 5.472500
18.426600 4.757900
18.448700 5.057800
18.470700 5.755700
18.492800 5.971900
18.514800 6.349900
18.536800 6.909800
18.558900 7.660800
18.580900 8.164100
18.603000 7.940100
18.625000 7.187800
18.647000 6.119000
18.669100 5.133100
18.691100 4.801000
18.713200 4.365800
18.735200 4.122700
18.757300 4.019800
18.779300 4.191200
18.801300 4.288100
18.823400 4.556800
18.845400 5.715500
18.867500 9.501300
18.889500 6.120300
18.911500 6.074500
18.933600 6.027800
18.955600 5.925100
18.977700 5.575300
18.999700 5.061900
19.021800 4.524600
19.043800 4.136700
19.065800 4.021200
19.087900 3.976400
19.109900 3.950200
19.132000 3.810800
19.154000 3.869600
19.176000 3.944100
19.198100 4.035300
19.220100 4.764500
19.242200 4.690200
19.264200 5.095000
19.286300 5.447400
19.308300 4.993800
19.330300 5.397800
19.352400 5.542500
19.374400 5.765000
19.396500 5.712800
19.418500 5.988500
19.440500 5.620300
19.462600 5.342300
19.484600 5.150100
19.506700 5.042200
19.528700 5.023300
19.550800 5.152700
19.572800 5.302100
19.594800 5.561200
19.616900 5.894500
19.638900 6.035400
19.661000 6.073000
19.683000 6.082600
19.705000 6.134400
19.727100 5.858800
19.749100 6.086900
19.771200 6.130300
19.793200 5.123900
19.815300 5.048100
19.837300 4.808800
19.859300 4.609600
19.881400 4.566600
19.903400 3.726100
19.925500 3.466900
19.947500 3.435700
19.969500 3.412700
19.991600 3.374000
20.013600 3.364400
20.035700 3.308900
20.057700 3.243900
20.079800 3.176700
20.101800 3.109500
20.123800 3.042100
20.145900 2.996300
20.167900 2.921700
20.190000 2.840700
20.212000 3.024600
20.234000 2.929100
20.256100 2.831800
20.278100 2.732700
20.300200 2.631200
20.322200 2.526900
20.344300 2.418600
20.366300 2.313900
20.388300 2.242200
20.410400 2.167900
20.432400 2.091200
20.454500 2.019900
20.476500 2.057400
20.498500 1.911100
20.520600 1.763500
20.542600 1.616000
20.564700 1.517200
20.586700 1.432900
20.608800 1.345700
20.630800 1.259800
20.652800 1.175000
20.674900 1.091400
20.696900 1.008700
20.719000 0.926800
20.741000 0.845500
20.763000 0.764900
20.785100 0.684900
20.807100 0.605200
20.829200 0.528200
20.851200 0.459600
20.873300 0.402200
20.895300 0.346800
20.917300 0.297000
20.939400 0.261200
20.961400 0.236900
20.983500 0.214300
21.005500 0.193400
21.027500 0.174200
21.049600 0.156700
21.071600 0.140900
21.093700 0.126700
21.115700 0.114200
21.137800 0.103400
21.159800 0.094100
21.181800 0.085900
21.203900 0.078000
21.225900 0.070600
21.248000 0.063700
21.270000 0.057100
21.292000 0.050900
21.314100 0.045200
21.336100 0.039800
21.358200 0.034900
21.380200 0.030400
21.402300 0.026300
21.424300 0.022600
21.446300 0.019300
21.468400 0.016500
21.490400 0.014000
21.512500 0.011800
21.534500 0.009800
21.556500 0.007900
21.578600 0.006300
21.600600 0.004800
21.622700 0.003600
21.644700 0.002500
21.666800 0.001600
21.688800 0.000900
21.710800 0.000400
21.732900 0.000100
21.754900 0.000000
21.777000 0.000000
21.799000 0.000000
21.821000 0.000000
21.843100 0.000000
21.865100 0.000000
21.887200 0.000000
21.909200 0.000000
21.931300 0.000000
21.953300 0.000000
21.975300 0.000000
21.997400 0.000000
22.019400 0.000000
22.041500 0.000000
22.063500 0.000000
22.085500 0.000000
22.107600 0.000000
22.129600 0.000000
22.151700 0.000000
22.173700 0.000000
22.195800 0.000000
22.217800 0.000000
22.239800 0.000000
22.261900 0.000000
22.283900 0.000000
22.306000 0.000000
22.328000 0.000000
22.350000 0.000000
22.372100 0.000000
22.394100 0.000000
22.416200 0.000000
22.438200 0.000000
22.460300 0.000000
22.482300 0.000000
22.504300 0.000000
22.526400 0.000000
22.548400 0.000000
22.570500 0.000000
22.592500 0.000000
22.614500 0.000000
22.636600 0.000000
22.658600 0.000000
22.680700 0.000000
22.702700 0.000000
22.724800 0.000000
22.746800 0.000000
22.768800 0.000000
22.790900 0.000000
22.812900 0.000000
22.835000 0.000000
22.857000 0.000000
22.879000 0.000000
22.901100 0.000000
22.923100 0.000000
22.945200 0.000000
22.967200 0.000000
22.989300 0.000000
23.011300 0.000000
23.033300 0.000000
23.055400 0.000000
23.077400 0.000000
23.099500 0.000000
23.121500 0.000000
23.143500 0.000000
23.165600 0.000000
23.187600 0.000000
23.209700 0.000000
23.231700 0.000000
23.253800 0.000000
23.275800 0.000000
23.297800 0.000000
23.319900 0.000000
23.341900 0.000000
23.364000 0.000000
23.386000 0.000000
23.408000 0.000000
23.430100 0.000000
23.452100 0.000000
23.474200 0.000000
23.496200 0.000000
23.518300 0.000000
23.540300 0.000000
23.562300 0.000000
23.584400 0.000000
23.606400 0.000000
23.628500 0.000000
23.650500 0.000000
23.672500 0.000000
23.694600 0.000000
23.716600 0.000000
23.738700 0.000000
23.760700 0.000000
e
