set title 'mp-6947 - Density of States'
set xlabel 'Energy (eV)'
set ylabel 'DOS (states/eV)'
set grid
set xrange [-10:10]
set yrange [0:5.400]
set xzeroaxis lt -1
set terminal png size 800,600
set output 'mp-6947_dos_gnuplot.png'
plot '-' using 1:2 with lines title 'DOS'
-16.306400 0.000000
-16.286200 0.000000
-16.266000 0.000000
-16.245900 0.000000
-16.225700 0.000000
-16.205500 0.000000
-16.185400 0.000000
-16.165200 0.000000
-16.145000 0.000000
-16.124800 0.000000
-16.104700 0.000000
-16.084500 0.000000
-16.064300 0.000000
-16.044100 0.000000
-16.024000 0.000000
-16.003800 0.000000
-15.983600 0.000000
-15.963500 0.000000
-15.943300 0.000000
-15.923100 0.000000
-15.902900 0.000000
-15.882800 0.000000
-15.862600 0.000000
-15.842400 0.000000
-15.822300 0.000000
-15.802100 0.000000
-15.781900 0.000000
-15.761700 0.000000
-15.741600 0.000000
-15.721400 0.000000
-15.701200 0.000000
-15.681100 0.000000
-15.660900 0.000000
-15.640700 0.000000
-15.620500 0.000000
-15.600400 0.000000
-15.580200 0.000000
-15.560000 0.000000
-15.539800 0.000000
-15.519700 0.000000
-15.499500 0.000000
-15.479300 0.000000
-15.459200 0.000000
-15.439000 0.000000
-15.418800 0.000000
-15.398600 0.000000
-15.378500 0.000000
-15.358300 0.000000
-15.338100 0.000000
-15.318000 0.000000
-15.297800 0.000000
-15.277600 0.000000
-15.257400 0.000000
-15.237300 0.000000
-15.217100 0.000000
-15.196900 0.000000
-15.176800 0.000000
-15.156600 0.000000
-15.136400 0.000000
-15.116200 0.000000
-15.096100 0.000000
-15.075900 0.000000
-15.055700 0.000000
-15.035600 0.000000
-15.015400 0.000000
-14.995200 0.000000
-14.975000 0.000000
-14.954900 0.000000
-14.934700 0.000000
-14.914500 0.000000
-14.894300 0.000000
-14.874200 0.000000
-14.854000 0.000000
-14.833800 0.000000
-14.813700 0.000000
-14.793500 0.000000
-14.773300 0.000000
-14.753100 0.000000
-14.733000 0.000000
-14.712800 0.000000
-14.692600 0.000000
-14.672500 0.000000
-14.652300 0.000000
-14.632100 0.000000
-14.611900 0.000000
-14.591800 0.000000
-14.571600 0.000000
-14.551400 0.000000
-14.531300 0.000000
-14.511100 0.000000
-14.490900 0.000000
-14.470700 0.000400
-14.450600 0.054100
-14.430400 0.134100
-14.410200 0.147400
-14.390000 0.179700
-14.369900 0.220700
-14.349700 0.243100
-14.329500 0.251600
-14.309400 0.271800
-14.289200 0.292200
-14.269000 0.312100
-14.248800 0.334800
-14.228700 0.353200
-14.208500 0.363200
-14.188300 0.376800
-14.168200 0.390600
-14.148000 0.403500
-14.127800 0.418700
-14.107600 0.435700
-14.087500 0.453200
-14.067300 0.469300
-14.047100 0.480500
-14.027000 0.490200
-14.006800 0.501800
-13.986600 0.513500
-13.966400 0.525600
-13.946300 0.538800
-13.926100 0.552500
-13.905900 0.566300
-13.885800 0.580100
-13.865600 0.593400
-13.845400 0.606600
-13.825200 0.617800
-13.805100 0.628600
-13.784900 0.639900
-13.764700 0.651000
-13.744500 0.662300
-13.724400 0.674100
-13.704200 0.685900
-13.684000 0.698400
-13.663900 0.711700
-13.643700 0.725400
-13.623500 0.739200
-13.603300 0.752200
-13.583200 0.765300
-13.563000 0.776300
-13.542800 0.787300
-13.522700 0.798300
-13.502500 0.809800
-13.482300 0.822700
-13.462100 0.835700
-13.442000 0.849000
-13.421800 0.862500
-13.401600 0.876100
-13.381500 0.889800
-13.361300 0.903800
-13.341100 0.917700
-13.320900 0.931400
-13.300800 0.946200
-13.280600 0.961500
-13.260400 0.975600
-13.240200 0.990200
-13.220100 1.004900
-13.199900 1.019700
-13.179700 1.034800
-13.159600 1.050100
-13.139400 1.065500
-13.119200 1.083900
-13.099000 1.102100
-13.078900 1.120700
-13.058700 1.140700
-13.038500 1.161100
-13.018400 1.181400
-12.998200 1.202200
-12.978000 1.223400
-12.957800 1.249300
-12.937700 1.277300
-12.917500 1.307300
-12.897300 1.338300
-12.877200 1.370600
-12.857000 1.404000
-12.836800 1.503500
-12.816600 1.545000
-12.796500 1.555900
-12.776300 1.569600
-12.756100 1.586600
-12.736000 1.579700
-12.715800 1.575200
-12.695600 1.578500
-12.675400 1.574000
-12.655300 1.573200
-12.635100 1.573100
-12.614900 1.573400
-12.594700 1.579300
-12.574600 1.589400
-12.554400 1.594200
-12.534200 1.592100
-12.514100 1.594300
-12.493900 1.596100
-12.473700 1.599500
-12.453500 1.603100
-12.433400 1.605600
-12.413200 1.606500
-12.393000 1.606900
-12.372900 1.609700
-12.352700 1.617400
-12.332500 1.626800
-12.312300 1.637100
-12.292200 1.647100
-12.272000 1.648300
-12.251800 1.656900
-12.231700 1.664700
-12.211500 1.672700
-12.191300 1.681900
-12.171100 1.691100
-12.151000 1.699900
-12.130800 1.711500
-12.110600 1.724000
-12.090400 1.736100
-12.070300 1.749400
-12.050100 1.903300
-12.029900 1.876300
-12.009800 1.894600
-11.989600 1.895100
-11.969400 1.905700
-11.949200 1.908000
-11.929100 1.915000
-11.908900 1.936400
-11.888700 1.959600
-11.868600 1.981100
-11.848400 2.010100
-11.828200 2.028000
-11.808000 2.051500
-11.787900 2.070500
-11.767700 2.114100
-11.747500 2.395800
-11.727400 2.546700
-11.707200 2.683900
-11.687000 2.827600
-11.666800 3.225400
-11.646700 4.766300
-11.626500 3.971900
-11.606300 3.955900
-11.586200 2.060600
-11.566000 1.722100
-11.545800 1.513800
-11.525600 1.365800
-11.505500 1.316500
-11.485300 1.213500
-11.465100 1.082900
-11.444900 0.993300
-11.424800 0.919300
-11.404600 0.851600
-11.384400 0.787800
-11.364300 0.741200
-11.344100 0.709800
-11.323900 0.683700
-11.303700 0.768300
-11.283600 0.918100
-11.263400 0.981800
-11.243200 1.033900
-11.223100 1.076800
-11.202900 1.189900
-11.182700 1.197500
-11.162500 1.251800
-11.142400 1.284400
-11.122200 1.373400
-11.102000 1.433800
-11.081900 1.497700
-11.061700 1.668200
-11.041500 1.729900
-11.021300 1.884800
-11.001200 2.299400
-10.981000 2.292000
-10.960800 2.298700
-10.940600 2.287700
-10.920500 2.321100
-10.900300 2.342800
-10.880100 2.369900
-10.860000 2.414100
-10.839800 2.463000
-10.819600 2.512900
-10.799400 2.578300
-10.779300 2.659800
-10.759100 2.748700
-10.738900 2.839800
-10.718800 2.930300
-10.698600 3.030100
-10.678400 3.160500
-10.658200 3.319500
-10.638100 3.490300
-10.617900 3.681200
-10.597700 3.897000
-10.577600 4.146300
-10.557400 4.450900
-10.537200 4.943100
-10.517000 5.638000
-10.496900 10.215800
-10.476700 13.254800
-10.456500 12.735000
-10.436400 12.689600
-10.416200 12.203400
-10.396000 13.998300
-10.375800 13.327000
-10.355700 10.163600
-10.335500 4.047000
-10.315300 1.747400
-10.295100 1.272700
-10.275000 0.992400
-10.254800 0.474500
-10.234600 0.000000
-10.214500 0.000000
-10.194300 0.000000
-10.174100 0.000000
-10.153900 0.000000
-10.133800 0.000000
-10.113600 0.000000
-10.093400 0.000000
-10.073300 0.000000
-10.053100 0.000000
-10.032900 0.000000
-10.012700 0.000000
-9.992600 0.000000
-9.972400 0.000000
-9.952200 0.000000
-9.932100 0.000000
-9.911900 0.000000
-9.891700 0.000000
-9.871500 0.000000
-9.851400 0.000000
-9.831200 0.000000
-9.811000 0.000000
-9.790800 0.000000
-9.770700 0.000000
-9.750500 0.000000
-9.730300 0.000000
-9.710200 0.000000
-9.690000 0.000000
-9.669800 0.000000
-9.649600 0.000000
-9.629500 0.000000
-9.609300 0.000000
-9.589100 0.000000
-9.569000 0.000000
-9.548800 0.000000
-9.528600 0.000000
-9.508400 0.000000
-9.488300 0.000000
-9.468100 0.000000
-9.447900 0.000000
-9.427800 0.000000
-9.407600 0.000000
-9.387400 0.000000
-9.367200 0.000000
-9.347100 0.000000
-9.326900 0.000000
-9.306700 0.000000
-9.286600 0.000000
-9.266400 0.000000
-9.246200 0.000000
-9.226000 0.000000
-9.205900 0.000000
-9.185700 0.000000
-9.165500 0.000000
-9.145300 0.000000
-9.125200 0.000000
-9.105000 0.000000
-9.084800 0.000000
-9.064700 0.000000
-9.044500 0.000000
-9.024300 0.000000
-9.004100 0.000000
-8.984000 0.000000
-8.963800 0.000000
-8.943600 0.000000
-8.923500 0.000000
-8.903300 0.000000
-8.883100 0.000000
-8.862900 0.000000
-8.842800 0.000000
-8.822600 0.000000
-8.802400 0.000000
-8.782300 0.000000
-8.762100 0.000000
-8.741900 0.000000
-8.721700 0.000000
-8.701600 0.000000
-8.681400 0.000000
-8.661200 0.000000
-8.641100 0.000000
-8.620900 0.000000
-8.600700 0.000000
-8.580500 0.000000
-8.560400 0.000000
-8.540200 0.000000
-8.520000 0.000000
-8.499800 0.000000
-8.479700 0.000000
-8.459500 0.000000
-8.439300 0.000000
-8.419200 0.000000
-8.399000 0.000000
-8.378800 0.000000
-8.358600 0.000000
-8.338500 0.000000
-8.318300 0.000000
-8.298100 0.000000
-8.278000 0.000000
-8.257800 0.000000
-8.237600 0.000000
-8.217400 0.000000
-8.197300 0.000000
-8.177100 0.000000
-8.156900 0.000000
-8.136800 0.000000
-8.116600 0.000000
-8.096400 0.000000
-8.076200 0.000000
-8.056100 0.000000
-8.035900 0.000000
-8.015700 0.000000
-7.995500 0.000000
-7.975400 0.000000
-7.955200 0.000000
-7.935000 0.000000
-7.914900 0.000000
-7.894700 0.000000
-7.874500 0.000000
-7.854300 0.000000
-7.834200 0.000000
-7.814000 0.000000
-7.793800 0.000000
-7.773700 0.000000
-7.753500 0.000000
-7.733300 0.000000
-7.713100 0.000000
-7.693000 0.000000
-7.672800 0.000000
-7.652600 0.000000
-7.632500 0.000000
-7.612300 0.000000
-7.592100 0.000000
-7.571900 0.000000
-7.551800 0.000000
-7.531600 0.000000
-7.511400 0.000000
-7.491300 0.000000
-7.471100 0.000000
-7.450900 0.000000
-7.430700 0.000000
-7.410600 0.000000
-7.390400 0.000000
-7.370200 0.000000
-7.350000 0.000000
-7.329900 0.000000
-7.309700 0.000000
-7.289500 0.000000
-7.269400 0.000000
-7.249200 0.000000
-7.229000 0.000000
-7.208800 0.000000
-7.188700 0.000000
-7.168500 0.000000
-7.148300 0.000000
-7.128200 0.000000
-7.108000 0.000000
-7.087800 0.000000
-7.067600 0.000000
-7.047500 0.000000
-7.027300 0.000000
-7.007100 0.000000
-6.987000 0.000000
-6.966800 0.000000
-6.946600 0.000000
-6.926400 0.000000
-6.906300 0.000000
-6.886100 0.000000
-6.865900 0.000000
-6.845700 0.000000
-6.825600 0.000000
-6.805400 0.000000
-6.785200 0.000000
-6.765100 0.000000
-6.744900 0.000000
-6.724700 0.000000
-6.704500 0.000000
-6.684400 0.000000
-6.664200 0.000000
-6.644000 0.000000
-6.623900 0.000000
-6.603700 0.000000
-6.583500 0.000000
-6.563300 0.000000
-6.543200 0.000000
-6.523000 0.000000
-6.502800 0.000000
-6.482700 0.000000
-6.462500 0.000000
-6.442300 0.000000
-6.422100 0.000000
-6.402000 0.000000
-6.381800 0.000000
-6.361600 0.000000
-6.341500 0.000000
-6.321300 0.000000
-6.301100 0.000000
-6.280900 0.000000
-6.260800 0.000000
-6.240600 0.000000
-6.220400 0.000000
-6.200200 0.000000
-6.180100 0.000000
-6.159900 0.000000
-6.139700 0.000000
-6.119600 0.000000
-6.099400 0.000000
-6.079200 0.000000
-6.059000 0.000000
-6.038900 0.000000
-6.018700 0.000000
-5.998500 0.000000
-5.978400 0.000000
-5.958200 0.000000
-5.938000 0.000000
-5.917800 0.000000
-5.897700 0.000000
-5.877500 0.000000
-5.857300 0.000000
-5.837200 0.000000
-5.817000 0.000000
-5.796800 0.000000
-5.776600 0.000000
-5.756500 0.000000
-5.736300 0.000000
-5.716100 0.000000
-5.695900 0.000000
-5.675800 0.000000
-5.655600 0.000000
-5.635400 0.000000
-5.615300 0.000000
-5.595100 0.000000
-5.574900 0.000000
-5.554700 0.000000
-5.534600 0.000000
-5.514400 0.000000
-5.494200 0.000000
-5.474100 0.000000
-5.453900 0.000000
-5.433700 0.000000
-5.413500 0.000000
-5.393400 0.000000
-5.373200 0.000000
-5.353000 0.000000
-5.332900 0.000000
-5.312700 0.000000
-5.292500 0.000000
-5.272300 0.000000
-5.252200 0.000000
-5.232000 0.000000
-5.211800 0.000000
-5.191700 0.000000
-5.171500 0.000000
-5.151300 0.000000
-5.131100 0.000000
-5.111000 0.000000
-5.090800 0.000000
-5.070600 0.000000
-5.050400 0.000000
-5.030300 0.000000
-5.010100 0.000000
-4.989900 0.000000
-4.969800 0.000000
-4.949600 0.000000
-4.929400 0.000000
-4.909200 0.000000
-4.889100 0.000000
-4.868900 0.000000
-4.848700 0.000000
-4.828600 0.000000
-4.808400 0.000000
-4.788200 0.000000
-4.768000 0.000000
-4.747900 0.000000
-4.727700 0.000000
-4.707500 0.000000
-4.687400 0.000000
-4.667200 0.000000
-4.647000 0.000000
-4.626800 0.000000
-4.606700 0.000000
-4.586500 0.000000
-4.566300 0.000000
-4.546100 0.000000
-4.526000 0.000000
-4.505800 0.000000
-4.485600 0.000000
-4.465500 0.000000
-4.445300 0.000000
-4.425100 0.000000
-4.404900 0.000000
-4.384800 0.000000
-4.364600 0.000000
-4.344400 0.000000
-4.324300 0.000000
-4.304100 0.000000
-4.283900 0.000000
-4.263700 0.000000
-4.243600 0.000000
-4.223400 0.000000
-4.203200 0.000000
-4.183100 0.000000
-4.162900 0.000000
-4.142700 0.000000
-4.122500 0.000000
-4.102400 0.000000
-4.082200 0.000000
-4.062000 0.000000
-4.041900 0.000000
-4.021700 0.000000
-4.001500 0.000000
-3.981300 0.000000
-3.961200 0.000000
-3.941000 0.000000
-3.920800 0.000000
-3.900600 0.000000
-3.880500 0.000000
-3.860300 0.000000
-3.840100 0.000000
-3.820000 0.000000
-3.799800 0.000000
-3.779600 0.000000
-3.759400 0.000000
-3.739300 0.000000
-3.719100 0.000000
-3.698900 0.000000
-3.678800 0.000000
-3.658600 0.000000
-3.638400 0.000000
-3.618200 0.000000
-3.598100 0.000000
-3.577900 0.000000
-3.557700 0.000000
-3.537600 0.000000
-3.517400 0.000000
-3.497200 0.000000
-3.477000 0.000000
-3.456900 0.000000
-3.436700 0.000000
-3.416500 0.000000
-3.396300 0.000000
-3.376200 0.000000
-3.356000 0.000000
-3.335800 0.000000
-3.315700 0.000000
-3.295500 0.000000
-3.275300 0.000000
-3.255100 0.000000
-3.235000 0.000000
-3.214800 0.000000
-3.194600 0.000000
-3.174500 0.000000
-3.154300 0.000000
-3.134100 0.000000
-3.113900 0.000000
-3.093800 0.000000
-3.073600 0.000000
-3.053400 0.000000
-3.033300 0.000000
-3.013100 0.000000
-2.992900 0.000000
-2.972700 0.000000
-2.952600 0.000000
-2.932400 0.000000
-2.912200 0.000000
-2.892100 0.000000
-2.871900 0.004800
-2.851700 0.067000
-2.831500 0.148300
-2.811400 0.179900
-2.791200 0.198200
-2.771000 0.226200
-2.750800 0.278900
-2.730700 0.387000
-2.710500 0.439400
-2.690300 0.490600
-2.670200 0.545100
-2.650000 0.615300
-2.629800 0.650600
-2.609600 0.692100
-2.589500 0.725200
-2.569300 0.766800
-2.549100 0.808600
-2.529000 0.848200
-2.508800 0.872500
-2.488600 0.902400
-2.468400 0.937200
-2.448300 0.973100
-2.428100 1.005600
-2.407900 1.038900
-2.387800 1.076600
-2.367600 1.114400
-2.347400 1.148800
-2.327200 1.184400
-2.307100 1.217900
-2.286900 1.248500
-2.266700 1.286500
-2.246500 1.329000
-2.226400 1.375600
-2.206200 1.430200
-2.186000 1.491300
-2.165900 1.565500
-2.145700 1.670700
-2.125500 1.793600
-2.105300 1.878900
-2.085200 1.849900
-2.065000 1.819900
-2.044800 1.796300
-2.024700 1.785300
-2.004500 1.767300
-1.984300 1.750600
-1.964100 1.743000
-1.944000 1.737100
-1.923800 1.736900
-1.903600 1.729300
-1.883500 1.718100
-1.863300 1.711600
-1.843100 1.711300
-1.822900 1.701200
-1.802800 1.754600
-1.782600 1.632700
-1.762400 1.572200
-1.742300 1.550400
-1.722100 1.533900
-1.701900 1.524800
-1.681700 1.516700
-1.661600 1.508700
-1.641400 1.502100
-1.621200 1.495200
-1.601000 1.489600
-1.580900 1.487100
-1.560700 1.486700
-1.540500 1.487800
-1.520400 1.489100
-1.500200 1.484500
-1.480000 1.475900
-1.459800 1.723200
-1.439700 1.605900
-1.419500 1.749400
-1.399300 1.666200
-1.379200 1.661000
-1.359000 1.654300
-1.338800 1.636900
-1.318600 1.628200
-1.298500 1.631200
-1.278300 1.623100
-1.258100 1.613600
-1.238000 1.601600
-1.217800 1.591200
-1.197600 1.593300
-1.177400 1.598800
-1.157300 1.564200
-1.137100 1.495400
-1.116900 1.476100
-1.096700 1.457200
-1.076600 1.439600
-1.056400 1.422600
-1.036200 1.405600
-1.016100 1.388300
-0.995900 1.370000
-0.975700 1.353800
-0.955500 1.339200
-0.935400 1.330500
-0.915200 1.323400
-0.895000 1.314700
-0.874900 1.305000
-0.854700 1.294400
-0.834500 1.283000
-0.814300 1.271100
-0.794200 1.258800
-0.774000 1.246800
-0.753800 1.235200
-0.733700 1.224600
-0.713500 1.214400
-0.693300 1.204400
-0.673100 1.194800
-0.653000 1.185300
-0.632800 1.177100
-0.612600 1.168600
-0.592500 1.159300
-0.572300 1.148700
-0.552100 1.139400
-0.531900 1.128600
-0.511800 1.117700
-0.491600 1.107700
-0.471400 1.098300
-0.451200 1.088600
-0.431100 1.078600
-0.410900 1.068200
-0.390700 1.058300
-0.370600 1.049800
-0.350400 1.043000
-0.330200 1.039900
-0.310000 1.039200
-0.289900 1.033500
-0.269700 1.030300
-0.249500 1.070500
-0.229400 1.122800
-0.209200 1.191800
-0.189000 1.286700
-0.168800 1.390500
-0.148700 1.463600
-0.128500 1.571400
-0.108300 1.780200
-0.088200 1.943700
-0.068000 2.008500
-0.047800 2.067200
-0.027600 2.118200
-0.007500 2.183600
0.012700 2.212000
0.032900 2.261900
0.053100 2.247700
0.073200 2.262700
0.093400 2.309600
0.113600 2.393000
0.133700 2.471300
0.153900 2.596900
0.174100 2.536600
0.194300 2.527900
0.214400 2.454800
0.234600 2.520600
0.254800 2.176200
0.274900 2.115800
0.295100 2.061900
0.315300 2.003700
0.335500 1.963500
0.355600 1.934000
0.375800 1.909200
0.396000 1.881700
0.416100 1.856000
0.436300 1.836900
0.456500 1.829300
0.476700 1.838300
0.496800 1.866300
0.517000 1.870000
0.537200 1.894700
0.557300 1.851100
0.577500 1.804900
0.597700 1.766200
0.617900 1.747300
0.638000 1.754300
0.658200 1.766500
0.678400 1.784400
0.698600 1.770800
0.718700 1.781500
0.738900 1.788700
0.759100 1.788000
0.779200 1.792300
0.799400 1.808400
0.819600 1.830700
0.839800 1.857100
0.859900 1.885900
0.880100 1.901100
0.900300 1.910800
0.920400 1.922800
0.940600 1.942700
0.960800 1.986400
0.981000 2.031800
1.001100 2.064300
1.021300 2.100900
1.041500 2.219800
1.061600 2.038300
1.081800 2.015700
1.102000 2.012900
1.122200 2.022800
1.142300 2.043700
1.162500 2.071300
1.182700 2.110400
1.202900 2.158100
1.223000 2.280700
1.243200 2.241600
1.263400 2.215000
1.283500 2.223300
1.303700 2.237400
1.323900 2.246700
1.344100 2.254700
1.364200 2.316200
1.384400 2.445900
1.404600 2.430300
1.424700 2.444100
1.444900 2.515800
1.465100 2.674000
1.485300 2.955400
1.505400 3.272600
1.525600 3.573200
1.545800 3.403400
1.565900 3.147400
1.586100 2.997700
1.606300 2.917500
1.626500 2.879500
1.646600 2.963900
1.666800 2.834500
1.687000 2.750700
1.707100 2.750200
1.727300 2.740300
1.747500 2.745500
1.767700 2.755100
1.787800 2.753300
1.808000 2.861400
1.828200 2.766800
1.848400 2.787300
1.868500 2.817100
1.888700 2.829700
1.908900 2.814900
1.929000 2.821200
1.949200 2.904100
1.969400 2.899000
1.989600 2.863800
2.009700 2.869800
2.029900 2.875600
2.050100 2.797900
2.070200 2.707500
2.090400 2.622800
2.110600 2.557900
2.130800 2.530400
2.150900 2.516600
2.171100 2.506600
2.191300 2.512700
2.211400 2.545700
2.231600 2.571200
2.251800 2.606700
2.272000 2.591300
2.292100 2.507900
2.312300 2.449800
2.332500 2.434600
2.352600 2.435500
2.372800 2.441200
2.393000 2.452000
2.413200 2.476100
2.433300 2.497500
2.453500 2.503000
2.473700 2.553200
2.493900 2.595200
2.514000 2.635200
2.534200 2.670600
2.554400 2.666500
2.574500 2.637200
2.594700 2.620500
2.614900 2.602200
2.635100 2.602500
2.655200 2.624500
2.675400 2.655500
2.695600 2.685200
2.715700 2.637900
2.735900 2.597200
2.756100 2.559100
2.776300 2.501200
2.796400 2.434900
2.816600 2.405700
2.836800 2.397900
2.856900 2.385600
2.877100 2.375800
2.897300 2.374200
2.917500 2.360600
2.937600 2.344300
2.957800 2.341000
2.978000 2.346200
2.998200 2.346400
3.018300 2.369500
3.038500 2.363300
3.058700 2.382300
3.078800 2.388300
3.099000 2.347800
3.119200 2.340000
3.139400 2.332800
3.159500 2.344000
3.179700 2.376200
3.199900 2.391000
3.220000 2.401900
3.240200 2.422900
3.260400 2.527300
3.280600 2.727600
3.300700 2.873000
3.320900 3.020400
3.341100 3.098200
3.361200 3.116400
3.381400 3.140600
3.401600 3.166000
3.421800 3.136800
3.441900 3.094900
3.462100 3.082400
3.482300 3.063200
3.502400 3.071600
3.522600 3.075500
3.542800 3.096500
3.563000 3.140500
3.583100 3.185500
3.603300 3.189700
3.623500 3.187500
3.643700 3.207900
3.663800 3.240700
3.684000 3.275400
3.704200 3.283600
3.724300 3.277200
3.744500 3.233200
3.764700 3.128300
3.784900 2.980400
3.805000 2.897600
3.825200 2.771200
3.845400 2.705300
3.865500 2.703000
3.885700 2.683200
3.905900 2.685700
3.926100 2.765000
3.946200 2.837600
3.966400 2.926600
3.986600 3.054300
4.006700 3.197800
4.026900 3.375200
4.047100 3.571100
4.067300 3.769000
4.087400 3.911500
4.107600 4.152500
4.127800 4.338100
4.148000 4.319000
4.168100 4.366300
4.188300 4.379500
4.208500 4.371800
4.228600 4.394300
4.248800 4.419400
4.269000 4.447100
4.289200 4.445700
4.309300 4.326900
4.329500 4.193700
4.349700 4.145200
4.369800 4.283700
4.390000 4.436200
4.410200 4.531400
4.430400 4.633000
4.450500 4.745500
4.470700 4.909500
4.490900 4.812500
4.511000 4.287500
4.531200 3.889500
4.551400 3.752300
4.571600 3.783700
4.591700 4.003800
4.611900 4.223300
4.632100 4.294900
4.652200 4.049300
4.672400 3.944300
4.692600 3.680500
4.712800 3.331000
4.732900 2.738200
4.753100 2.385200
4.773300 2.277100
4.793500 2.234000
4.813600 2.206800
4.833800 2.192100
4.854000 2.175200
4.874100 2.107000
4.894300 2.126800
4.914500 2.143500
4.934700 2.121200
4.954800 2.087500
4.975000 2.070300
4.995200 2.054500
5.015300 2.049200
5.035500 2.049900
5.055700 2.062300
5.075900 2.396300
5.096000 2.312900
5.116200 2.317400
5.136400 2.352700
5.156500 2.401900
5.176700 2.535400
5.196900 2.774900
5.217100 2.792400
5.237200 2.834600
5.257400 2.825700
5.277600 2.768800
5.297800 2.652600
5.317900 2.618700
5.338100 2.655800
5.358300 2.740200
5.378400 2.866200
5.398600 2.971600
5.418800 3.051300
5.439000 3.193300
5.459100 3.401400
5.479300 3.683300
5.499500 4.086900
5.519600 4.689500
5.539800 4.233500
5.560000 4.259200
5.580200 4.030700
5.600300 3.972100
5.620500 3.988200
5.640700 3.944000
5.660800 3.783400
5.681000 3.759400
5.701200 3.626400
5.721400 3.446300
5.741500 3.347600
5.761700 3.240100
5.781900 3.177700
5.802000 3.165000
5.822200 3.152800
5.842400 3.020200
5.862600 3.020200
5.882700 3.045200
5.902900 3.069600
5.923100 3.080500
5.943300 3.139000
5.963400 3.286400
5.983600 3.270200
6.003800 3.356100
6.023900 3.587600
6.044100 3.812300
6.064300 4.001900
6.084500 4.438300
6.104600 4.516600
6.124800 4.498100
6.145000 4.552200
6.165100 4.537400
6.185300 4.562300
6.205500 4.606300
6.225700 4.626200
6.245800 4.720300
6.266000 4.832300
6.286200 4.614400
6.306300 4.632700
6.326500 4.162900
6.346700 3.962400
6.366900 3.823100
6.387000 3.746200
6.407200 3.664000
6.427400 3.579200
6.447600 3.531000
6.467700 3.477300
6.487900 3.417000
6.508100 3.349900
6.528200 3.347600
6.548400 3.314800
6.568600 3.247600
6.588800 3.178200
6.608900 3.139000
6.629100 3.112800
6.649300 3.138300
6.669400 3.063400
6.689600 2.766000
6.709800 2.552300
6.730000 2.398300
6.750100 2.245300
6.770300 2.081400
6.790500 1.915400
6.810600 1.807500
6.830800 1.649100
6.851000 1.516400
6.871200 1.372200
6.891300 1.171600
6.911500 1.130200
6.931700 1.087000
6.951800 1.037500
6.972000 0.987200
6.992200 0.950900
7.012400 0.916200
7.032500 0.885000
7.052700 0.853800
7.072900 0.820700
7.093100 0.785800
7.113200 0.761200
7.133400 0.735300
7.153600 0.707900
7.173700 0.680700
7.193900 0.651200
7.214100 0.618900
7.234300 0.592200
7.254400 0.567000
7.274600 0.541000
7.294800 0.515000
7.314900 0.491500
7.335100 0.472700
7.355300 0.456300
7.375500 0.439200
7.395600 0.420000
7.415800 0.390300
7.436000 0.362100
7.456100 0.341300
7.476300 0.323000
7.496500 0.304000
7.516700 0.282600
7.536800 0.268500
7.557000 0.253600
7.577200 0.235900
7.597400 0.205400
7.617500 0.180000
7.637700 0.161000
7.657900 0.136400
7.678000 0.122200
7.698200 0.089100
7.718400 0.029300
7.738600 0.000300
7.758700 0.000000
7.778900 0.000000
7.799100 0.000000
7.819200 0.000000
7.839400 0.000000
7.859600 0.000000
7.879800 0.000000
7.899900 0.000000
7.920100 0.000000
7.940300 0.000000
7.960400 0.000000
7.980600 0.000000
8.000800 0.000000
8.021000 0.000000
8.041100 0.000000
8.061300 0.000000
8.081500 0.000000
8.101600 0.000000
8.121800 0.000000
8.142000 0.000000
8.162200 0.000000
8.182300 0.000000
8.202500 0.000000
8.222700 0.000000
8.242900 0.000000
8.263000 0.000000
8.283200 0.000000
8.303400 0.000000
8.323500 0.000000
8.343700 0.000000
8.363900 0.000000
8.384100 0.000000
8.404200 0.000000
8.424400 0.000000
8.444600 0.000000
8.464700 0.000000
8.484900 0.000000
8.505100 0.000000
8.525300 0.000000
8.545400 0.000000
8.565600 0.000000
8.585800 0.000000
8.605900 0.000000
8.626100 0.000000
8.646300 0.000000
8.666500 0.000000
8.686600 0.000000
8.706800 0.000000
8.727000 0.000000
8.747200 0.000000
8.767300 0.000000
8.787500 0.000000
8.807700 0.000000
8.827800 0.000000
8.848000 0.000000
8.868200 0.000000
8.888400 0.000000
8.908500 0.000000
8.928700 0.000000
8.948900 0.000000
8.969000 0.000000
8.989200 0.000000
9.009400 0.000000
9.029600 0.000000
9.049700 0.000000
9.069900 0.000000
9.090100 0.000000
9.110200 0.000000
9.130400 0.000000
9.150600 0.000000
9.170800 0.000000
9.190900 0.000000
9.211100 0.000000
9.231300 0.000000
9.251400 0.000000
9.271600 0.000000
9.291800 0.000000
9.312000 0.000000
9.332100 0.000000
9.352300 0.000000
9.372500 0.000000
9.392700 0.000000
9.412800 0.000000
9.433000 0.000000
9.453200 0.000000
9.473300 0.000000
9.493500 0.000000
9.513700 0.000000
9.533900 0.000000
9.554000 0.000000
9.574200 0.000000
9.594400 0.000000
9.614500 0.000000
9.634700 0.000000
9.654900 0.000000
9.675100 0.000000
9.695200 0.000000
9.715400 0.000000
9.735600 0.000000
9.755700 0.000000
9.775900 0.000000
9.796100 0.000000
9.816300 0.000000
9.836400 0.000000
9.856600 0.000000
9.876800 0.000000
9.897000 0.000000
9.917100 0.000000
9.937300 0.000000
9.957500 0.000000
9.977600 0.000000
9.997800 0.000000
10.018000 0.000000
10.038200 0.000000
10.058300 0.000000
10.078500 0.000000
10.098700 0.000000
10.118800 0.000000
10.139000 0.000000
10.159200 0.000000
10.179400 0.000000
10.199500 0.000000
10.219700 0.000000
10.239900 0.000000
10.260000 0.000000
10.280200 0.000000
10.300400 0.000000
10.320600 0.000000
10.340700 0.000000
10.360900 0.000000
10.381100 0.000000
10.401200 0.000000
10.421400 0.000000
10.441600 0.000000
10.461800 0.000000
10.481900 0.000000
10.502100 0.000000
10.522300 0.000000
10.542500 0.000000
10.562600 0.000000
10.582800 0.000000
10.603000 0.000000
10.623100 0.000000
10.643300 0.000000
10.663500 0.000000
10.683700 0.000000
10.703800 0.000000
10.724000 0.000000
10.744200 0.000000
10.764300 0.000000
10.784500 0.000000
10.804700 0.000000
10.824900 0.000000
10.845000 0.000000
10.865200 0.000000
10.885400 0.000000
10.905500 0.000000
10.925700 0.000000
10.945900 0.000000
10.966100 0.000000
10.986200 0.000000
11.006400 0.000000
11.026600 0.000000
11.046800 0.000000
11.066900 0.000000
11.087100 0.000000
11.107300 0.000000
11.127400 0.000000
11.147600 0.000000
11.167800 0.000000
11.188000 0.000000
11.208100 0.000000
11.228300 0.000000
11.248500 0.000000
11.268600 0.000000
11.288800 0.000000
11.309000 0.000000
11.329200 0.000000
11.349300 0.000000
11.369500 0.000000
11.389700 0.000000
11.409800 0.000000
11.430000 0.000000
11.450200 0.000000
11.470400 0.000000
11.490500 0.000000
11.510700 0.000000
11.530900 0.000000
11.551000 0.000000
11.571200 0.000000
11.591400 0.000000
11.611600 0.000000
11.631700 0.000000
11.651900 0.000000
11.672100 0.000000
11.692300 0.000000
11.712400 0.000000
11.732600 0.000000
11.752800 0.000000
11.772900 0.000000
11.793100 0.000000
11.813300 0.000000
11.833500 0.000000
11.853600 0.000000
11.873800 0.000000
11.894000 0.000000
11.914100 0.000000
11.934300 0.000000
11.954500 0.000000
11.974700 0.000000
11.994800 0.000000
12.015000 0.000000
12.035200 0.000000
12.055300 0.000000
12.075500 0.000000
12.095700 0.000000
12.115900 0.000000
12.136000 0.000000
12.156200 0.000000
12.176400 0.000000
12.196600 0.000000
12.216700 0.000000
12.236900 0.000000
12.257100 0.000000
12.277200 0.000000
12.297400 0.000000
12.317600 0.000000
12.337800 0.000000
12.357900 0.000000
12.378100 0.000000
12.398300 0.000000
12.418400 0.000000
12.438600 0.000000
12.458800 0.000000
12.479000 0.000000
12.499100 0.000000
12.519300 0.000000
12.539500 0.000000
12.559600 0.000000
12.579800 0.000000
12.600000 0.000000
12.620200 0.000000
12.640300 0.000000
12.660500 0.000000
12.680700 0.000000
12.700800 0.000000
12.721000 0.000000
12.741200 0.000000
12.761400 0.000100
12.781500 0.001300
12.801700 0.004200
12.821900 0.008800
12.842100 0.015000
12.862200 0.022800
12.882400 0.029800
12.902600 0.035000
12.922700 0.038600
12.942900 0.040500
12.963100 0.041500
12.983300 0.043000
13.003400 0.045200
13.023600 0.048200
13.043800 0.051900
13.063900 0.055800
13.084100 0.059800
13.104300 0.063900
13.124500 0.067800
13.144600 0.071200
13.164800 0.074000
13.185000 0.076200
13.205100 0.078400
13.225300 0.080800
13.245500 0.083500
13.265700 0.086700
13.285800 0.089700
13.306000 0.092800
13.326200 0.095900
13.346300 0.098900
13.366500 0.102000
13.386700 0.105100
13.406900 0.108400
13.427000 0.111900
13.447200 0.115600
13.467400 0.119600
13.487600 0.123700
13.507700 0.127800
13.527900 0.131700
13.548100 0.135500
13.568200 0.139300
13.588400 0.143000
13.608600 0.146600
13.628800 0.150200
13.648900 0.153700
13.669100 0.158000
13.689300 0.162400
13.709400 0.167000
13.729600 0.171600
13.749800 0.175800
13.770000 0.180100
13.790100 0.184700
13.810300 0.189800
13.830500 0.194900
13.850600 0.199900
13.870800 0.205200
13.891000 0.210900
13.911200 0.216900
13.931300 0.223100
13.951500 0.229200
13.971700 0.235400
13.991900 0.241600
14.012000 0.247700
14.032200 0.253700
14.052400 0.259700
14.072500 0.265600
14.092700 0.272000
14.112900 0.279900
14.133100 0.288300
14.153200 0.296900
14.173400 0.305000
14.193600 0.312900
14.213700 0.320900
14.233900 0.329000
14.254100 0.337500
14.274300 0.346600
14.294400 0.356400
14.314600 0.366800
14.334800 0.378800
14.354900 0.396700
14.375100 0.419300
14.395300 0.440500
14.415500 0.460600
14.435600 0.482700
14.455800 0.506800
14.476000 0.531100
14.496100 0.551200
14.516300 0.568400
14.536500 0.587200
14.556700 0.617000
14.576800 0.694400
14.597000 0.789600
14.617200 0.831100
14.637400 0.881600
14.657500 0.936500
14.677700 0.985000
14.697900 1.041400
14.718000 1.108500
14.738200 1.167100
14.758400 1.255600
14.778600 1.310900
14.798700 1.354200
14.818900 1.392300
14.839100 1.414700
14.859200 1.454000
14.879400 1.496600
14.899600 1.541400
14.919800 1.587300
14.939900 1.636200
14.960100 1.681800
14.980300 1.733100
15.000400 1.787400
15.020600 1.845300
15.040800 1.916700
15.061000 1.994400
15.081100 2.090600
15.101300 2.234000
15.121500 2.426400
15.141700 2.473500
15.161800 2.477800
15.182000 2.458100
15.202200 2.422800
15.222300 2.410800
15.242500 2.535500
15.262700 2.627500
15.282900 2.665500
15.303000 2.687900
15.323200 2.625800
15.343400 2.608400
15.363500 2.566900
15.383700 2.562200
15.403900 2.562100
15.424100 2.561400
15.444200 2.523100
15.464400 2.489300
15.484600 2.410600
15.504700 2.270500
15.524900 2.192600
15.545100 2.129200
15.565300 2.067900
15.585400 2.017100
15.605600 1.980300
15.625800 1.945300
15.645900 1.908500
15.666100 1.868100
15.686300 1.824600
15.706500 1.780800
15.726600 1.745900
15.746800 1.719900
15.767000 1.694100
15.787200 1.668800
15.807300 1.643500
15.827500 1.614800
15.847700 1.585900
15.867800 1.559700
15.888000 1.533800
15.908200 1.517800
15.928400 1.505400
15.948500 1.524900
15.968700 1.547800
15.988900 1.575400
16.009000 1.613900
16.029200 1.647700
16.049400 1.650200
16.069600 1.633800
16.089700 1.617900
16.109900 1.598300
16.130100 1.579800
16.150200 1.544000
16.170400 1.515100
16.190600 1.577600
16.210800 1.352900
16.230900 1.340100
16.251100 1.337700
16.271300 1.339300
16.291500 1.342600
16.311600 1.350200
16.331800 1.354100
16.352000 1.353300
16.372100 1.350300
16.392300 1.348400
16.412500 1.354200
16.432700 1.360400
16.452800 1.364300
16.473000 1.369900
16.493200 1.379700
16.513300 1.397400
16.533500 1.457500
16.553700 1.695500
16.573900 1.567500
16.594000 1.487200
16.614200 1.463500
16.634400 1.447600
16.654500 1.451500
16.674700 1.458100
16.694900 1.455800
16.715100 1.449200
16.735200 1.433500
16.755400 1.409300
16.775600 1.390200
16.795700 1.375000
16.815900 1.363800
16.836100 1.353400
16.856300 1.346300
16.876400 1.340900
16.896600 1.336500
16.916800 1.334000
16.937000 1.332500
16.957100 1.330000
16.977300 1.320700
16.997500 1.307400
17.017600 1.294600
17.037800 1.282300
17.058000 1.268700
17.078200 1.254200
17.098300 1.241400
17.118500 1.230500
17.138700 1.221600
17.158800 1.215800
17.179000 1.215900
17.199200 1.217400
17.219400 1.239100
17.239500 1.277200
17.259700 1.335700
17.279900 1.426800
17.300000 1.471700
17.320200 1.504500
17.340400 1.548900
17.360600 1.607600
17.380700 1.600400
17.400900 1.613300
17.421100 1.629200
17.441300 1.644900
17.461400 1.672400
17.481600 1.677500
17.501800 1.673900
17.521900 1.683200
17.542100 1.688700
17.562300 1.608100
17.582500 1.552500
17.602600 1.564000
17.622800 1.596400
17.643000 1.635200
17.663100 1.711900
17.683300 1.766200
17.703500 1.823300
17.723700 1.883600
17.743800 1.957200
17.764000 2.047800
17.784200 2.160300
17.804300 2.347200
17.824500 2.615700
17.844700 2.823400
17.864900 2.996400
17.885000 2.897900
17.905200 2.551200
17.925400 2.312500
17.945500 2.136200
17.965700 2.008700
17.985900 1.944400
18.006100 1.901500
18.026200 1.869100
18.046400 1.849400
18.066600 1.836600
18.086800 1.833300
18.106900 1.858000
18.127100 1.882800
18.147300 1.863100
18.167400 1.820900
18.187600 1.801200
18.207800 1.779700
18.228000 1.760500
18.248100 1.741400
18.268300 1.723300
18.288500 1.709800
18.308600 1.706800
18.328800 1.706600
18.349000 1.708700
18.369200 1.713900
18.389300 1.728000
18.409500 1.745800
18.429700 1.776000
18.449800 1.900000
18.470000 1.862100
18.490200 1.868800
18.510400 1.885600
18.530500 1.943500
18.550700 2.173800
18.570900 2.334400
18.591100 2.377500
18.611200 2.309000
18.631400 2.243100
18.651600 2.280600
18.671700 2.330500
18.691900 2.390600
18.712100 2.454700
18.732300 2.521200
18.752400 2.600900
18.772600 2.685900
18.792800 2.762700
18.812900 2.835800
18.833100 2.890200
18.853300 2.950500
18.873500 3.056800
18.893600 3.076700
18.913800 2.956600
18.934000 2.836200
18.954100 2.829700
18.974300 2.856000
18.994500 2.850600
19.014700 2.769200
19.034800 2.772500
19.055000 2.772900
19.075200 2.586100
19.095300 2.496300
19.115500 2.423800
19.135700 2.361200
19.155900 2.306100
19.176000 2.140500
19.196200 2.070000
19.216400 2.025700
19.236600 1.974900
19.256700 1.882700
19.276900 1.837300
19.297100 1.903000
19.317200 2.050700
19.337400 2.244500
19.357600 2.469500
19.377800 2.381600
19.397900 2.319400
19.418100 2.384600
19.438300 2.511500
19.458400 2.917700
19.478600 2.710500
19.498800 2.734700
19.519000 2.795000
19.539100 2.908900
19.559300 2.920800
19.579500 2.931900
19.599600 2.941300
19.619800 2.890000
19.640000 2.853200
19.660200 2.800200
19.680300 2.745800
19.700500 2.714300
19.720700 2.702500
19.740900 2.708900
19.761000 2.744400
19.781200 2.747400
19.801400 2.762100
19.821500 2.799800
19.841700 2.853600
19.861900 3.158600
19.882100 3.321700
19.902200 3.415200
19.922400 3.457400
19.942600 3.418700
19.962700 3.477100
19.982900 3.579000
20.003100 3.662100
20.023300 3.634500
20.043400 3.550300
20.063600 3.442100
20.083800 3.314200
20.103900 3.164800
20.124100 3.022200
20.144300 3.070600
20.164500 3.012900
20.184600 2.975900
20.204800 2.953100
20.225000 2.933700
20.245100 2.857300
20.265300 2.789100
20.285500 2.716000
20.305700 2.650500
20.325800 2.599100
20.346000 2.551800
20.366200 2.532400
20.386400 2.556400
20.406500 2.586600
20.426700 2.607400
20.446900 2.664500
20.467000 2.772900
20.487200 2.782900
20.507400 2.745500
20.527600 2.736200
20.547700 2.736200
20.567900 2.765100
20.588100 2.759900
20.608200 2.795900
20.628400 2.813200
20.648600 2.813600
20.668800 2.818300
20.688900 2.787000
20.709100 2.780200
20.729300 2.816700
20.749400 2.909700
20.769600 2.996500
20.789800 3.103000
20.810000 3.217200
20.830100 3.409900
20.850300 3.535200
20.870500 3.732300
20.890700 3.953000
20.910800 4.054200
20.931000 3.861100
20.951200 3.773200
20.971300 3.688400
20.991500 3.614700
21.011700 3.508200
21.031900 3.447300
21.052000 3.428000
21.072200 3.475200
21.092400 3.353500
21.112500 3.332600
21.132700 3.341500
21.152900 3.220600
21.173100 3.228600
21.193200 3.317200
21.213400 3.402700
21.233600 3.472600
21.253700 3.533800
21.273900 3.685900
21.294100 3.783200
21.314300 3.576900
21.334400 3.029500
21.354600 2.696200
21.374800 2.472200
21.394900 2.326700
21.415100 2.154700
21.435300 1.979700
21.455500 1.761800
21.475600 1.620800
21.495800 1.509500
21.516000 1.434700
21.536200 1.367000
21.556300 1.299400
21.576500 1.242600
21.596700 1.205200
21.616800 1.181100
21.637000 1.144900
21.657200 1.179100
21.677400 1.135900
21.697500 1.104200
21.717700 1.110100
21.737900 1.028400
21.758000 0.979200
21.778200 0.922700
21.798400 0.858800
21.818600 0.798200
21.838700 0.669500
21.858900 0.565000
21.879100 0.452600
21.899200 0.335800
21.919400 0.264200
21.939600 0.203300
21.959800 0.172500
21.979900 0.150200
22.000100 0.129100
22.020300 0.109600
22.040500 0.090800
22.060600 0.077400
22.080800 0.063300
22.101000 0.048500
22.121100 0.025000
22.141300 0.012500
22.161500 0.005700
22.181700 0.001600
22.201800 0.000000
22.222000 0.000000
22.242200 0.000000
22.262300 0.000000
22.282500 0.000000
22.302700 0.000000
22.322900 0.000000
22.343000 0.000000
22.363200 0.000000
22.383400 0.000000
22.403500 0.000000
22.423700 0.000000
22.443900 0.000000
22.464100 0.000000
22.484200 0.000000
22.504400 0.000000
22.524600 0.000000
22.544700 0.000000
22.564900 0.000000
22.585100 0.000000
22.605300 0.000000
22.625400 0.000000
22.645600 0.000000
22.665800 0.000000
22.686000 0.000000
22.706100 0.000000
22.726300 0.000000
22.746500 0.000000
22.766600 0.000000
22.786800 0.000000
22.807000 0.000000
22.827200 0.000000
22.847300 0.000000
22.867500 0.000000
22.887700 0.000000
22.907800 0.000000
22.928000 0.000000
22.948200 0.000000
22.968400 0.000000
22.988500 0.000000
23.008700 0.000000
23.028900 0.000000
23.049000 0.000000
23.069200 0.000000
23.089400 0.000000
23.109600 0.000000
23.129700 0.000000
23.149900 0.000000
23.170100 0.000000
23.190300 0.000000
23.210400 0.000000
23.230600 0.000000
23.250800 0.000000
23.270900 0.000000
23.291100 0.000000
23.311300 0.000000
23.331500 0.000000
23.351600 0.000000
23.371800 0.000000
23.392000 0.000000
23.412100 0.000000
23.432300 0.000000
23.452500 0.000000
23.472700 0.000000
23.492800 0.000000
23.513000 0.000000
23.533200 0.000000
23.553300 0.000000
23.573500 0.000000
23.593700 0.000000
23.613900 0.000000
23.634000 0.000000
23.654200 0.000000
23.674400 0.000000
23.694500 0.000000
23.714700 0.000000
23.734900 0.000000
23.755100 0.000000
23.775200 0.000000
23.795400 0.000000
23.815600 0.000000
23.835800 0.000000
23.855900 0.000000
23.876100 0.000000
23.896300 0.000000
23.916400 0.000000
23.936600 0.000000
23.956800 0.000000
23.977000 0.000000
23.997100 0.000000
24.017300 0.000000
24.037500 0.000000
e
