set title 'mp-1091391 - Density of States'
set xlabel 'Energy (eV)'
set ylabel 'DOS (states/eV)'
set grid
set xrange [-10:10]
set yrange [0:486.782]
set xzeroaxis lt -1
set terminal png size 800,600
set output 'mp-1091391_dos_gnuplot.png'
plot '-' using 1:2 with lines title 'DOS'
-25.749700 0.000000
-25.725200 0.000000
-25.700700 0.000000
-25.676300 0.000000
-25.651800 0.000000
-25.627400 0.000000
-25.602900 0.000000
-25.578400 0.000000
-25.554000 0.000000
-25.529500 0.000000
-25.505000 0.000000
-25.480600 0.000000
-25.456100 0.000000
-25.431700 0.000000
-25.407200 0.000000
-25.382700 0.000000
-25.358300 0.000000
-25.333800 0.000000
-25.309400 0.000000
-25.284900 0.000000
-25.260400 0.000000
-25.236000 0.000000
-25.211500 0.000000
-25.187100 0.000000
-25.162600 0.000000
-25.138100 0.000000
-25.113700 0.000000
-25.089200 0.000000
-25.064700 0.000000
-25.040300 0.000000
-25.015800 0.000000
-24.991400 0.000000
-24.966900 0.000000
-24.942400 0.000000
-24.918000 0.000000
-24.893500 0.000000
-24.869100 0.000000
-24.844600 0.000000
-24.820100 0.000000
-24.795700 0.000000
-24.771200 0.000000
-24.746700 0.000000
-24.722300 0.000000
-24.697800 0.000000
-24.673400 0.000000
-24.648900 0.000000
-24.624400 0.000000
-24.600000 0.000000
-24.575500 0.000000
-24.551100 0.000000
-24.526600 0.000000
-24.502100 0.000000
-24.477700 0.000000
-24.453200 0.000000
-24.428800 0.000000
-24.404300 0.000000
-24.379800 0.000000
-24.355400 0.000000
-24.330900 0.000000
-24.306400 0.000000
-24.282000 0.000000
-24.257500 0.000000
-24.233100 0.000000
-24.208600 0.000000
-24.184100 0.000000
-24.159700 0.000000
-24.135200 0.000000
-24.110800 0.000000
-24.086300 0.000000
-24.061800 0.000000
-24.037400 0.000000
-24.012900 0.000000
-23.988500 0.000000
-23.964000 0.000000
-23.939500 0.000000
-23.915100 0.000000
-23.890600 0.000000
-23.866100 0.000000
-23.841700 0.000000
-23.817200 0.000000
-23.792800 0.000000
-23.768300 0.000000
-23.743800 0.000000
-23.719400 0.000000
-23.694900 0.000000
-23.670500 0.000000
-23.646000 0.000000
-23.621500 0.000000
-23.597100 0.000000
-23.572600 0.000000
-23.548100 0.000000
-23.523700 0.000000
-23.499200 0.000000
-23.474800 0.000000
-23.450300 0.000000
-23.425800 0.000000
-23.401400 0.000000
-23.376900 0.000000
-23.352500 0.000000
-23.328000 0.000000
-23.303500 0.000000
-23.279100 0.000000
-23.254600 0.000000
-23.230200 0.000000
-23.205700 0.000000
-23.181200 0.000000
-23.156800 0.000000
-23.132300 0.000000
-23.107800 0.000000
-23.083400 0.000000
-23.058900 0.000000
-23.034500 0.000000
-23.010000 0.000000
-22.985500 0.000000
-22.961100 0.000000
-22.936600 0.000000
-22.912200 0.000000
-22.887700 0.000000
-22.863200 0.000000
-22.838800 0.000000
-22.814300 0.000000
-22.789800 0.000000
-22.765400 0.000000
-22.740900 0.000000
-22.716500 0.000000
-22.692000 0.000000
-22.667500 0.000000
-22.643100 0.000000
-22.618600 0.000000
-22.594200 0.000000
-22.569700 0.000000
-22.545200 0.000000
-22.520800 0.000000
-22.496300 0.000000
-22.471900 0.000000
-22.447400 0.000000
-22.422900 0.000000
-22.398500 0.000000
-22.374000 0.000000
-22.349500 0.000000
-22.325100 0.000000
-22.300600 0.000000
-22.276200 0.000000
-22.251700 0.000000
-22.227200 0.000000
-22.202800 0.000000
-22.178300 0.000000
-22.153900 0.000000
-22.129400 0.000000
-22.104900 0.000000
-22.080500 0.000000
-22.056000 0.000000
-22.031600 0.000000
-22.007100 0.000000
-21.982600 0.000000
-21.958200 0.000000
-21.933700 0.000000
-21.909200 0.000000
-21.884800 0.000000
-21.860300 0.000000
-21.835900 0.000000
-21.811400 0.000000
-21.786900 0.000000
-21.762500 0.000000
-21.738000 0.000000
-21.713600 0.000000
-21.689100 0.000000
-21.664600 0.000000
-21.640200 0.000000
-21.615700 0.000000
-21.591200 0.000000
-21.566800 0.000000
-21.542300 0.000000
-21.517900 0.000000
-21.493400 0.000000
-21.468900 0.000000
-21.444500 0.000000
-21.420000 0.000000
-21.395600 0.000000
-21.371100 0.000000
-21.346600 0.000000
-21.322200 0.000000
-21.297700 0.000000
-21.273300 0.000000
-21.248800 0.000000
-21.224300 0.000000
-21.199900 0.000000
-21.175400 0.000000
-21.150900 0.000000
-21.126500 0.000000
-21.102000 0.000000
-21.077600 0.000000
-21.053100 0.000000
-21.028600 0.000000
-21.004200 0.000000
-20.979700 0.000000
-20.955300 0.000000
-20.930800 0.000000
-20.906300 0.000000
-20.881900 0.000000
-20.857400 0.000000
-20.833000 0.000000
-20.808500 0.000000
-20.784000 0.000000
-20.759600 0.000000
-20.735100 0.000000
-20.710600 0.000000
-20.686200 0.000000
-20.661700 0.000000
-20.637300 0.000000
-20.612800 0.000000
-20.588300 0.000000
-20.563900 0.000000
-20.539400 0.000000
-20.515000 0.000000
-20.490500 0.000000
-20.466000 0.000000
-20.441600 0.000000
-20.417100 0.000000
-20.392600 0.000000
-20.368200 0.000000
-20.343700 0.000000
-20.319300 0.000000
-20.294800 0.000000
-20.270300 0.000000
-20.245900 0.000000
-20.221400 0.000000
-20.197000 0.000000
-20.172500 0.000000
-20.148000 0.000000
-20.123600 0.000000
-20.099100 0.000000
-20.074700 0.000000
-20.050200 0.000000
-20.025700 0.000000
-20.001300 0.000000
-19.976800 0.000000
-19.952300 0.000000
-19.927900 0.000000
-19.903400 0.000000
-19.879000 0.000000
-19.854500 0.000000
-19.830000 0.000000
-19.805600 0.000000
-19.781100 0.000000
-19.756700 0.000000
-19.732200 0.000000
-19.707700 0.000000
-19.683300 0.000000
-19.658800 0.000000
-19.634400 0.000000
-19.609900 0.000000
-19.585400 0.000000
-19.561000 0.000000
-19.536500 0.000000
-19.512000 0.000000
-19.487600 0.000000
-19.463100 0.000000
-19.438700 0.000000
-19.414200 0.000000
-19.389700 0.000000
-19.365300 0.000000
-19.340800 0.000000
-19.316400 0.000000
-19.291900 0.000000
-19.267400 0.000000
-19.243000 0.000000
-19.218500 0.000000
-19.194000 0.000000
-19.169600 0.000000
-19.145100 0.000000
-19.120700 0.000000
-19.096200 0.000000
-19.071700 0.000000
-19.047300 0.000000
-19.022800 0.000000
-18.998400 0.000000
-18.973900 0.000000
-18.949400 0.000000
-18.925000 0.000000
-18.900500 0.000000
-18.876100 0.000000
-18.851600 0.000000
-18.827100 0.000000
-18.802700 0.000000
-18.778200 0.000000
-18.753700 0.000000
-18.729300 0.000000
-18.704800 0.000000
-18.680400 0.000000
-18.655900 0.000000
-18.631400 0.000000
-18.607000 0.000000
-18.582500 0.000000
-18.558100 0.000000
-18.533600 0.000000
-18.509100 0.000000
-18.484700 0.000000
-18.460200 0.000000
-18.435700 0.000000
-18.411300 0.000000
-18.386800 0.000000
-18.362400 0.000000
-18.337900 0.000000
-18.313400 0.000000
-18.289000 0.000000
-18.264500 0.000000
-18.240100 0.000000
-18.215600 0.000000
-18.191100 0.000000
-18.166700 0.000000
-18.142200 0.000000
-18.117800 0.000000
-18.093300 0.000000
-18.068800 0.000000
-18.044400 0.000000
-18.019900 0.000000
-17.995400 0.000000
-17.971000 0.000000
-17.946500 0.000000
-17.922100 0.000000
-17.897600 0.000000
-17.873100 0.000000
-17.848700 0.000000
-17.824200 0.000000
-17.799800 0.000000
-17.775300 0.000000
-17.750800 0.000000
-17.726400 0.000000
-17.701900 0.000000
-17.677500 0.000000
-17.653000 0.000000
-17.628500 0.000000
-17.604100 0.000000
-17.579600 0.000000
-17.555100 0.000000
-17.530700 0.000000
-17.506200 0.000000
-17.481800 0.000000
-17.457300 0.000000
-17.432800 0.000000
-17.408400 0.000000
-17.383900 0.000000
-17.359500 0.000000
-17.335000 0.000000
-17.310500 0.000000
-17.286100 0.000000
-17.261600 0.000000
-17.237100 0.000000
-17.212700 0.000000
-17.188200 0.000000
-17.163800 0.000000
-17.139300 0.000000
-17.114800 0.000000
-17.090400 0.000000
-17.065900 0.000000
-17.041500 0.000000
-17.017000 0.000000
-16.992500 0.000000
-16.968100 0.000000
-16.943600 0.000000
-16.919200 0.000000
-16.894700 0.000000
-16.870200 0.000000
-16.845800 0.000000
-16.821300 0.000000
-16.796800 0.000000
-16.772400 0.000000
-16.747900 0.000000
-16.723500 0.000000
-16.699000 0.000000
-16.674500 0.000000
-16.650100 0.000000
-16.625600 0.000000
-16.601200 0.000000
-16.576700 0.000000
-16.552200 0.000000
-16.527800 0.000000
-16.503300 0.000000
-16.478900 0.000000
-16.454400 0.000000
-16.429900 0.000000
-16.405500 0.000000
-16.381000 0.000000
-16.356500 0.000000
-16.332100 0.000000
-16.307600 0.000000
-16.283200 0.000000
-16.258700 0.000000
-16.234200 0.000000
-16.209800 0.000000
-16.185300 0.000000
-16.160900 0.000000
-16.136400 0.000000
-16.111900 0.000000
-16.087500 0.000000
-16.063000 0.000000
-16.038500 0.000000
-16.014100 0.000000
-15.989600 0.000000
-15.965200 0.000000
-15.940700 0.000000
-15.916200 0.000000
-15.891800 0.000000
-15.867300 0.000000
-15.842900 0.000000
-15.818400 0.000000
-15.793900 0.000000
-15.769500 0.000000
-15.745000 0.000000
-15.720600 0.000000
-15.696100 0.000000
-15.671600 0.000000
-15.647200 0.000000
-15.622700 0.000000
-15.598200 0.000000
-15.573800 0.000000
-15.549300 0.000000
-15.524900 0.000000
-15.500400 0.000000
-15.475900 0.000000
-15.451500 0.000000
-15.427000 0.000000
-15.402600 0.000000
-15.378100 0.000000
-15.353600 0.000000
-15.329200 0.000000
-15.304700 0.000000
-15.280300 0.000000
-15.255800 0.000000
-15.231300 0.000000
-15.206900 0.000000
-15.182400 0.000000
-15.157900 0.000000
-15.133500 0.000000
-15.109000 0.000000
-15.084600 0.000000
-15.060100 0.000000
-15.035600 0.000000
-15.011200 0.000000
-14.986700 0.000000
-14.962300 0.000000
-14.937800 0.000000
-14.913300 0.000000
-14.888900 0.000000
-14.864400 0.000000
-14.839900 0.000000
-14.815500 0.000000
-14.791000 0.000000
-14.766600 0.000000
-14.742100 0.000000
-14.717600 0.000000
-14.693200 0.000000
-14.668700 0.000000
-14.644300 0.000000
-14.619800 0.000000
-14.595300 0.000000
-14.570900 0.000000
-14.546400 0.000000
-14.522000 0.000000
-14.497500 0.000000
-14.473000 0.000000
-14.448600 0.000000
-14.424100 0.000000
-14.399600 0.000000
-14.375200 0.000000
-14.350700 0.000000
-14.326300 0.000000
-14.301800 0.000000
-14.277300 0.000000
-14.252900 0.000000
-14.228400 0.000000
-14.204000 0.000000
-14.179500 0.000000
-14.155000 0.000000
-14.130600 0.000000
-14.106100 0.000000
-14.081600 0.000000
-14.057200 0.000000
-14.032700 0.000000
-14.008300 0.000000
-13.983800 0.000000
-13.959300 0.000000
-13.934900 0.000000
-13.910400 0.000000
-13.886000 0.000000
-13.861500 0.000000
-13.837000 0.000000
-13.812600 0.000000
-13.788100 0.000000
-13.763700 0.000000
-13.739200 0.000000
-13.714700 0.000000
-13.690300 0.000000
-13.665800 0.000000
-13.641300 0.000000
-13.616900 0.000000
-13.592400 0.000000
-13.568000 0.000000
-13.543500 0.000000
-13.519000 0.000000
-13.494600 0.000000
-13.470100 0.000000
-13.445700 0.000000
-13.421200 0.000000
-13.396700 0.000000
-13.372300 0.000000
-13.347800 0.000000
-13.323400 0.000000
-13.298900 0.000000
-13.274400 0.000000
-13.250000 0.000000
-13.225500 0.000000
-13.201000 0.000000
-13.176600 0.000000
-13.152100 0.000000
-13.127700 0.000000
-13.103200 0.000000
-13.078700 0.000000
-13.054300 0.000000
-13.029800 0.000000
-13.005400 0.000000
-12.980900 0.000000
-12.956400 0.000000
-12.932000 0.000000
-12.907500 0.000000
-12.883000 0.000000
-12.858600 0.000000
-12.834100 0.000000
-12.809700 0.000000
-12.785200 0.000000
-12.760700 0.000000
-12.736300 0.000000
-12.711800 0.000000
-12.687400 0.000000
-12.662900 0.000000
-12.638400 0.000000
-12.614000 0.000000
-12.589500 0.000000
-12.565100 0.000000
-12.540600 0.000000
-12.516100 0.000000
-12.491700 0.000000
-12.467200 0.000000
-12.442700 0.000000
-12.418300 0.000000
-12.393800 0.000000
-12.369400 0.000000
-12.344900 0.000000
-12.320400 0.000000
-12.296000 0.000000
-12.271500 0.000000
-12.247100 0.000000
-12.222600 0.000000
-12.198100 0.000000
-12.173700 0.000000
-12.149200 0.000000
-12.124800 0.000000
-12.100300 0.000000
-12.075800 0.000000
-12.051400 0.000000
-12.026900 0.000000
-12.002400 0.000000
-11.978000 0.000000
-11.953500 0.000000
-11.929100 0.000000
-11.904600 0.000000
-11.880100 0.000000
-11.855700 0.000000
-11.831200 0.000000
-11.806800 0.000000
-11.782300 0.000000
-11.757800 0.000000
-11.733400 0.000000
-11.708900 0.000000
-11.684400 0.000000
-11.660000 0.000000
-11.635500 0.000000
-11.611100 0.000000
-11.586600 0.000000
-11.562100 0.000000
-11.537700 0.000000
-11.513200 0.000000
-11.488800 0.000000
-11.464300 0.000000
-11.439800 0.000000
-11.415400 0.000000
-11.390900 0.000000
-11.366500 0.000000
-11.342000 0.000000
-11.317500 0.000000
-11.293100 0.000000
-11.268600 0.000000
-11.244100 0.000000
-11.219700 0.000000
-11.195200 0.000000
-11.170800 0.000000
-11.146300 0.000000
-11.121800 0.000000
-11.097400 0.000000
-11.072900 0.000000
-11.048500 0.000000
-11.024000 0.000000
-10.999500 0.000000
-10.975100 0.000000
-10.950600 0.000000
-10.926200 0.000000
-10.901700 0.000000
-10.877200 0.000000
-10.852800 0.000000
-10.828300 0.000000
-10.803800 0.000000
-10.779400 0.000000
-10.754900 0.000000
-10.730500 0.000000
-10.706000 0.000000
-10.681500 0.000000
-10.657100 0.000000
-10.632600 0.000000
-10.608200 0.000000
-10.583700 0.000000
-10.559200 0.000000
-10.534800 0.000000
-10.510300 0.000000
-10.485800 0.000000
-10.461400 0.000000
-10.436900 0.000000
-10.412500 0.000000
-10.388000 0.000000
-10.363500 0.000000
-10.339100 0.000000
-10.314600 0.000000
-10.290200 0.000000
-10.265700 0.000000
-10.241200 0.000000
-10.216800 0.000000
-10.192300 0.000000
-10.167900 0.000000
-10.143400 0.000000
-10.118900 0.000000
-10.094500 0.000000
-10.070000 0.000000
-10.045500 0.000000
-10.021100 0.000000
-9.996600 0.000000
-9.972200 0.000000
-9.947700 0.000000
-9.923200 0.000000
-9.898800 0.000000
-9.874300 0.000000
-9.849900 0.000000
-9.825400 0.000000
-9.800900 0.000000
-9.776500 0.000000
-9.752000 0.000000
-9.727500 0.000000
-9.703100 0.000000
-9.678600 0.000000
-9.654200 0.000000
-9.629700 0.000000
-9.605200 0.000000
-9.580800 0.000000
-9.556300 0.000000
-9.531900 0.000000
-9.507400 0.000000
-9.482900 0.000000
-9.458500 0.000000
-9.434000 0.000000
-9.409600 0.000000
-9.385100 0.000000
-9.360600 0.000000
-9.336200 0.000000
-9.311700 0.000000
-9.287200 0.000000
-9.262800 0.000000
-9.238300 0.000000
-9.213900 0.000000
-9.189400 0.000000
-9.164900 0.000000
-9.140500 0.000000
-9.116000 0.000000
-9.091600 0.000000
-9.067100 0.000000
-9.042600 0.000000
-9.018200 0.000000
-8.993700 0.000000
-8.969300 0.000000
-8.944800 0.000000
-8.920300 0.000000
-8.895900 102.508100
-8.871400 44.096600
-8.846900 101.884400
-8.822500 33.561600
-8.798000 442.528700
-8.773600 0.000000
-8.749100 0.000000
-8.724600 0.000000
-8.700200 0.000000
-8.675700 0.000000
-8.651300 0.000000
-8.626800 0.000000
-8.602300 0.000000
-8.577900 0.000000
-8.553400 0.000000
-8.528900 0.000000
-8.504500 0.000000
-8.480000 0.000000
-8.455600 0.000000
-8.431100 0.000000
-8.406600 0.000000
-8.382200 0.000000
-8.357700 0.000000
-8.333300 0.000000
-8.308800 0.000000
-8.284300 0.000000
-8.259900 0.000000
-8.235400 0.000000
-8.211000 0.000000
-8.186500 0.000000
-8.162000 0.000000
-8.137600 0.000000
-8.113100 0.000000
-8.088600 0.000000
-8.064200 0.000000
-8.039700 0.000000
-8.015300 0.000000
-7.990800 0.000000
-7.966300 0.000000
-7.941900 0.000000
-7.917400 0.000000
-7.893000 0.000000
-7.868500 0.000000
-7.844000 0.000000
-7.819600 0.000000
-7.795100 0.000000
-7.770700 0.000000
-7.746200 0.000000
-7.721700 0.000000
-7.697300 0.000000
-7.672800 0.000000
-7.648300 0.000000
-7.623900 0.000000
-7.599400 0.000000
-7.575000 0.000000
-7.550500 0.000000
-7.526000 0.000000
-7.501600 0.000000
-7.477100 0.000000
-7.452700 0.000000
-7.428200 0.000000
-7.403700 0.000000
-7.379300 0.000000
-7.354800 0.000000
-7.330300 0.000000
-7.305900 0.000000
-7.281400 0.000000
-7.257000 0.000000
-7.232500 0.000000
-7.208000 0.000000
-7.183600 0.000000
-7.159100 0.000000
-7.134700 0.000000
-7.110200 0.000000
-7.085700 0.000000
-7.061300 0.000000
-7.036800 0.000000
-7.012400 0.000000
-6.987900 0.000000
-6.963400 0.000000
-6.939000 0.000000
-6.914500 0.000000
-6.890000 0.000000
-6.865600 0.000000
-6.841100 25.087600
-6.816700 63.300800
-6.792200 115.485300
-6.767700 103.096700
-6.743300 192.170300
-6.718800 141.529400
-6.694400 101.379500
-6.669900 113.917900
-6.645400 98.547800
-6.621000 93.742400
-6.596500 100.532700
-6.572100 115.135600
-6.547600 79.615400
-6.523100 80.595200
-6.498700 105.631700
-6.474200 77.142200
-6.449700 77.405700
-6.425300 62.751000
-6.400800 96.217500
-6.376400 96.013200
-6.351900 83.318300
-6.327400 129.159000
-6.303000 145.437400
-6.278500 66.779500
-6.254100 122.028100
-6.229600 102.046800
-6.205100 56.695000
-6.180700 113.163200
-6.156200 66.499000
-6.131700 74.092300
-6.107300 108.349800
-6.082800 70.272800
-6.058400 0.000000
-6.033900 0.000000
-6.009400 0.000000
-5.985000 0.000000
-5.960500 0.000000
-5.936100 0.000000
-5.911600 0.000000
-5.887100 0.000000
-5.862700 0.000000
-5.838200 0.000000
-5.813800 0.000000
-5.789300 0.000000
-5.764800 0.000000
-5.740400 0.000000
-5.715900 0.000000
-5.691400 0.000000
-5.667000 0.000000
-5.642500 0.000000
-5.618100 0.000000
-5.593600 0.000000
-5.569100 0.000000
-5.544700 0.000000
-5.520200 0.000000
-5.495800 0.000000
-5.471300 0.000000
-5.446800 0.000000
-5.422400 0.000000
-5.397900 0.000000
-5.373400 0.000000
-5.349000 0.000000
-5.324500 0.000000
-5.300100 0.000000
-5.275600 0.000000
-5.251100 0.000000
-5.226700 0.000000
-5.202200 0.000000
-5.177800 0.000000
-5.153300 0.000000
-5.128800 0.000000
-5.104400 0.000000
-5.079900 0.000000
-5.055500 0.000000
-5.031000 0.000000
-5.006500 0.000000
-4.982100 0.000000
-4.957600 0.000000
-4.933100 0.000000
-4.908700 0.000000
-4.884200 0.000000
-4.859800 0.000000
-4.835300 0.000000
-4.810800 0.000000
-4.786400 0.000000
-4.761900 0.000000
-4.737500 0.000000
-4.713000 0.000000
-4.688500 0.000000
-4.664100 0.000000
-4.639600 0.000000
-4.615200 0.000000
-4.590700 0.000000
-4.566200 0.000000
-4.541800 0.000000
-4.517300 0.000000
-4.492800 0.000000
-4.468400 0.000000
-4.443900 0.000000
-4.419500 0.000000
-4.395000 0.000000
-4.370500 0.000000
-4.346100 0.000000
-4.321600 0.000000
-4.297200 0.000000
-4.272700 0.000000
-4.248200 0.000000
-4.223800 0.000000
-4.199300 0.000000
-4.174800 0.000000
-4.150400 0.000000
-4.125900 0.000000
-4.101500 0.000000
-4.077000 0.000000
-4.052500 0.000000
-4.028100 0.000000
-4.003600 0.000000
-3.979200 0.036400
-3.954700 0.168900
-3.930200 0.398300
-3.905800 0.542500
-3.881300 0.616700
-3.856900 0.674200
-3.832400 0.750200
-3.807900 0.830800
-3.783500 0.916000
-3.759000 0.986900
-3.734500 1.063300
-3.710100 1.160900
-3.685600 1.282500
-3.661200 1.389900
-3.636700 1.464100
-3.612200 1.495200
-3.587800 1.484500
-3.563300 1.532500
-3.538900 1.571400
-3.514400 1.614600
-3.489900 1.591500
-3.465500 1.617800
-3.441000 1.666600
-3.416600 1.715400
-3.392100 1.764000
-3.367600 1.809400
-3.343200 2.135900
-3.318700 1.966400
-3.294200 1.918400
-3.269800 1.858000
-3.245300 1.961900
-3.220900 2.181200
-3.196400 2.054700
-3.171900 2.042700
-3.147500 1.946600
-3.123000 1.844400
-3.098600 1.860800
-3.074100 1.877400
-3.049600 1.894000
-3.025200 1.918500
-3.000700 1.938300
-2.976200 1.947700
-2.951800 1.947500
-2.927300 1.938900
-2.902900 1.946900
-2.878400 1.991700
-2.853900 2.052900
-2.829500 2.123300
-2.805000 2.202500
-2.780600 2.290100
-2.756100 2.387000
-2.731600 2.505000
-2.707200 2.703300
-2.682700 2.959200
-2.658300 3.221900
-2.633800 3.574900
-2.609300 4.164000
-2.584900 3.961300
-2.560400 3.299300
-2.535900 2.960300
-2.511500 2.755100
-2.487000 2.513200
-2.462600 2.303900
-2.438100 2.196700
-2.413600 2.188700
-2.389200 2.277200
-2.364700 2.388200
-2.340300 2.460800
-2.315800 2.491400
-2.291300 2.487700
-2.266900 2.425000
-2.242400 2.459800
-2.218000 2.601200
-2.193500 2.917100
-2.169000 3.338400
-2.144600 3.482400
-2.120100 3.722700
-2.095600 3.225400
-2.071200 2.524400
-2.046700 2.154500
-2.022300 2.249700
-1.997800 2.552300
-1.973300 2.902900
-1.948900 3.218400
-1.924400 3.422500
-1.900000 3.571000
-1.875500 3.584100
-1.851000 3.621300
-1.826600 3.815900
-1.802100 3.817100
-1.777600 3.750300
-1.753200 3.676800
-1.728700 3.666100
-1.704300 4.124100
-1.679800 4.200700
-1.655300 3.995100
-1.630900 3.763400
-1.606400 3.873100
-1.582000 3.904500
-1.557500 3.903500
-1.533000 3.794300
-1.508600 3.685000
-1.484100 3.701400
-1.459700 4.132500
-1.435200 4.104500
-1.410700 4.267100
-1.386300 4.415600
-1.361800 4.433700
-1.337300 4.465700
-1.312900 4.080600
-1.288400 3.812500
-1.264000 3.509800
-1.239500 3.392600
-1.215000 3.509800
-1.190600 3.690800
-1.166100 4.077800
-1.141700 4.425300
-1.117200 4.654900
-1.092700 4.736300
-1.068300 4.639300
-1.043800 4.310700
-1.019400 4.010000
-0.994900 3.931000
-0.970400 3.889800
-0.946000 3.872800
-0.921500 3.894500
-0.897000 3.955100
-0.872600 4.024100
-0.848100 4.804200
-0.823700 4.791300
-0.799200 3.973100
-0.774700 3.498000
-0.750300 3.128200
-0.725800 2.831800
-0.701400 2.908300
-0.676900 2.975300
-0.652400 2.932300
-0.628000 2.885900
-0.603500 2.957900
-0.579000 3.093200
-0.554600 3.254100
-0.530100 3.623700
-0.505700 4.559100
-0.481200 5.631200
-0.456700 5.446600
-0.432300 4.932700
-0.407800 4.274100
-0.383400 3.667400
-0.358900 3.277600
-0.334400 3.113400
-0.310000 3.017600
-0.285500 2.881800
-0.261100 2.751600
-0.236600 2.621800
-0.212100 2.486300
-0.187700 2.365100
-0.163200 2.332600
-0.138700 2.343900
-0.114300 2.418800
-0.089800 2.548000
-0.065400 2.743300
-0.040900 3.055800
-0.016400 3.490300
0.008000 3.793000
0.032500 3.944600
0.056900 3.997000
0.081400 3.897500
0.105900 3.610900
0.130300 3.362900
0.154800 3.156600
0.179300 3.067500
0.203700 3.020800
0.228200 2.944700
0.252600 2.916500
0.277100 2.891100
0.301600 2.873800
0.326000 2.886500
0.350500 2.948600
0.374900 3.023700
0.399400 3.104500
0.423900 3.214800
0.448300 3.360900
0.472800 3.573200
0.497200 3.884000
0.521700 4.123700
0.546200 4.243600
0.570600 3.424200
0.595100 3.249600
0.619600 3.077700
0.644000 2.952300
0.668500 2.902200
0.692900 2.873600
0.717400 2.902200
0.741900 3.012400
0.766300 3.102600
0.790800 3.128800
0.815200 3.181400
0.839700 3.187900
0.864200 3.183800
0.888600 3.137800
0.913100 3.123600
0.937500 3.157300
0.962000 3.224400
0.986500 3.241200
1.010900 3.182900
1.035400 3.105000
1.059900 3.029400
1.084300 2.858400
1.108800 2.681200
1.133200 2.494000
1.157700 2.341300
1.182200 2.198100
1.206600 2.071500
1.231100 1.923100
1.255500 1.705600
1.280000 1.578100
1.304500 1.517200
1.328900 1.462300
1.353400 1.409500
1.377900 1.351800
1.402300 1.287200
1.426800 1.225700
1.451200 1.171500
1.475700 1.124100
1.500200 1.073900
1.524600 1.025100
1.549100 0.977800
1.573500 0.931900
1.598000 0.891500
1.622500 0.854000
1.646900 0.819200
1.671400 0.778700
1.695800 0.739200
1.720300 0.700500
1.744800 0.624600
1.769200 0.605800
1.793700 0.587400
1.818200 0.569300
1.842600 0.551500
1.867100 0.542800
1.891500 0.520700
1.916000 0.487100
1.940500 0.442300
1.964900 0.391800
1.989400 0.321800
2.013800 0.251100
2.038300 0.181600
2.062800 0.114400
2.087200 0.054100
2.111700 0.013400
2.136100 0.000000
2.160600 0.000000
2.185100 0.000000
2.209500 0.000000
2.234000 0.000000
2.258500 0.000000
2.282900 0.000000
2.307400 0.000000
2.331800 0.000000
2.356300 0.000000
2.380800 0.000000
2.405200 0.000000
2.429700 0.000000
2.454100 0.000000
2.478600 0.000000
2.503100 0.000000
2.527500 0.000000
2.552000 0.000000
2.576500 0.000000
2.600900 0.000000
2.625400 0.000000
2.649800 0.000000
2.674300 0.000000
2.698800 0.000000
2.723200 0.000000
2.747700 0.000000
2.772100 0.000000
2.796600 0.000000
2.821100 0.000000
2.845500 0.078100
2.870000 0.425200
2.894400 1.663200
2.918900 2.074500
2.943400 2.229400
2.967800 2.510200
2.992300 2.851400
3.016800 3.175600
3.041200 3.300300
3.065700 3.287600
3.090100 3.549900
3.114600 3.590300
3.139100 3.757700
3.163500 4.057200
3.188000 4.524500
3.212400 5.747000
3.236900 5.992100
3.261400 6.183100
3.285800 6.425400
3.310300 5.843700
3.334700 4.375600
3.359200 4.195000
3.383700 2.137800
3.408100 1.848100
3.432600 2.375200
3.457100 3.309900
3.481500 4.882400
3.506000 5.722400
3.530400 7.114700
3.554900 9.330500
3.579400 8.631800
3.603800 8.174200
3.628300 6.511900
3.652700 4.210700
3.677200 3.743600
3.701700 4.033900
3.726100 4.811800
3.750600 6.400800
3.775100 7.824400
3.799500 8.335500
3.824000 7.217000
3.848400 6.586600
3.872900 6.262200
3.897400 6.852400
3.921800 7.215600
3.946300 7.678900
3.970700 7.556100
3.995200 7.282100
4.019700 6.757800
4.044100 6.442800
4.068600 6.845900
4.093000 7.313300
4.117500 8.026600
4.142000 8.367300
4.166400 8.271500
4.190900 8.254100
4.215400 7.456600
4.239800 6.693000
4.264300 6.156300
4.288700 6.653600
4.313200 6.249800
4.337700 6.370000
4.362100 6.566000
4.386600 6.662400
4.411000 6.224900
4.435500 5.021800
4.460000 4.179200
4.484400 3.927100
4.508900 3.915400
4.533400 3.836600
4.557800 3.612600
4.582300 3.611000
4.606700 3.845800
4.631200 4.306900
4.655700 5.372000
4.680100 6.426800
4.704600 8.319500
4.729000 8.752500
4.753500 8.945600
4.778000 8.029800
4.802400 6.784500
4.826900 6.125400
4.851300 5.676100
4.875800 5.203800
4.900300 5.180200
4.924700 5.030900
4.949200 5.082200
4.973700 5.000600
4.998100 4.627900
5.022600 4.071300
5.047000 4.042100
5.071500 4.154400
5.096000 3.885700
5.120400 3.532300
5.144900 2.859200
5.169300 2.815400
5.193800 2.908700
5.218300 3.313900
5.242700 4.150400
5.267200 5.236600
5.291600 5.935100
5.316100 6.329300
5.340600 6.357200
5.365000 6.319500
5.389500 6.205700
5.414000 6.022000
5.438400 5.629800
5.462900 5.213500
5.487300 5.443600
5.511800 5.872500
5.536300 6.752900
5.560700 7.217700
5.585200 7.228900
5.609600 6.083400
5.634100 5.463100
5.658600 5.338600
5.683000 5.508800
5.707500 5.970800
5.732000 6.489600
5.756400 6.814000
5.780900 6.899300
5.805300 6.713400
5.829800 6.379300
5.854300 6.349900
5.878700 6.526900
5.903200 6.663100
5.927600 6.563500
5.952100 6.368600
5.976600 6.083500
6.001000 5.999600
6.025500 6.048600
6.049900 6.515600
6.074400 7.849300
6.098900 8.202400
6.123300 8.119400
6.147800 7.818400
6.172300 6.810400
6.196700 6.064300
6.221200 5.800300
6.245600 5.678700
6.270100 5.286800
6.294600 5.380200
6.319000 5.622100
6.343500 5.467000
6.367900 5.750700
6.392400 6.221400
6.416900 6.835200
6.441300 6.635400
6.465800 7.724800
6.490200 8.366900
6.514700 8.627800
6.539200 9.249200
6.563600 8.923900
6.588100 7.872800
6.612600 7.112400
6.637000 7.311100
6.661500 7.229200
6.685900 7.183400
6.710400 7.348600
6.734900 8.184200
6.759300 9.188700
6.783800 8.954400
6.808200 8.030200
6.832700 6.881200
6.857200 6.450600
6.881600 6.851600
6.906100 6.934700
6.930600 7.068500
6.955000 7.988600
6.979500 8.335200
7.003900 7.911100
7.028400 7.883400
7.052900 8.077300
7.077300 8.012200
7.101800 8.582900
7.126200 7.724800
7.150700 7.743200
7.175200 7.398100
7.199600 7.327100
7.224100 7.613100
7.248500 7.599200
7.273000 7.456500
7.297500 7.281900
7.321900 7.181700
7.346400 6.844600
7.370900 6.751200
7.395300 7.118800
7.419800 7.402500
7.444200 8.390300
7.468700 9.181900
7.493200 9.468800
7.517600 9.015800
7.542100 8.201600
7.566500 7.319000
7.591000 7.705600
7.615500 8.781800
7.639900 10.561200
7.664400 9.683500
7.688800 9.439300
7.713300 9.757100
7.737800 10.135000
7.762200 8.422700
7.786700 7.185700
7.811200 6.378400
7.835600 6.464500
7.860100 6.848500
7.884500 8.313700
7.909000 10.363100
7.933500 9.820500
7.957900 9.064400
7.982400 8.488300
8.006800 7.788000
8.031300 7.577000
8.055800 7.725600
8.080200 8.286600
8.104700 9.339900
8.129200 9.989400
8.153600 9.383400
8.178100 8.462300
8.202500 8.711200
8.227000 8.726100
8.251500 9.274800
8.275900 9.330300
8.300400 9.012700
8.324800 8.607300
8.349300 8.079400
8.373800 7.637300
8.398200 7.395600
8.422700 7.459200
8.447100 7.746300
8.471600 8.136300
8.496100 8.873700
8.520500 9.974900
8.545000 11.633600
8.569500 11.220100
8.593900 9.391900
8.618400 9.057700
8.642800 8.759800
8.667300 9.124500
8.691800 10.236200
8.716200 10.848400
8.740700 9.157300
8.765100 8.896200
8.789600 9.685200
8.814100 8.086200
8.838500 7.799900
8.863000 8.072600
8.887500 8.315400
8.911900 8.614700
8.936400 9.633600
8.960800 9.602000
8.985300 8.989000
9.009800 8.204700
9.034200 8.462500
9.058700 8.245300
9.083100 8.112000
9.107600 8.370000
9.132100 8.401500
9.156500 8.628000
9.181000 8.733700
9.205400 8.889200
9.229900 9.206500
9.254400 8.183100
9.278800 7.776500
9.303300 7.703000
9.327800 7.796800
9.352200 8.031100
9.376700 7.376500
9.401100 6.641900
9.425600 6.260700
9.450100 5.889100
9.474500 5.355700
9.499000 5.507200
9.523400 6.769500
9.547900 7.105500
9.572400 7.641400
9.596800 8.087400
9.621300 8.743400
9.645700 8.919400
9.670200 8.287600
9.694700 7.704000
9.719100 7.000700
9.743600 6.116600
9.768100 5.259400
9.792500 5.578600
9.817000 6.147800
9.841400 6.994100
9.865900 7.963500
9.890400 9.074900
9.914800 9.810000
9.939300 9.059300
9.963700 8.077800
9.988200 7.586600
10.012700 6.787700
10.037100 6.643200
10.061600 7.358000
10.086100 8.469800
10.110500 10.234800
10.135000 9.442200
10.159400 8.793200
10.183900 7.776600
10.208400 7.208500
10.232800 6.946700
10.257300 6.891900
10.281700 6.979400
10.306200 7.299600
10.330700 8.129800
10.355100 8.830500
10.379600 8.596900
10.404000 7.563800
10.428500 6.410400
10.453000 5.613600
10.477400 5.361200
10.501900 5.475300
10.526400 5.929900
10.550800 7.134000
10.575300 8.156100
10.599700 9.744300
10.624200 10.185600
10.648700 10.112300
10.673100 9.393800
10.697600 8.296300
10.722000 7.101500
10.746500 6.977200
10.771000 7.445300
10.795400 8.679800
10.819900 10.441500
10.844300 9.909200
10.868800 8.926000
10.893300 7.800100
10.917700 6.611500
10.942200 5.675200
10.966700 6.401700
10.991100 7.398400
11.015600 8.669700
11.040000 9.636600
11.064500 10.300400
11.089000 9.937800
11.113400 9.312100
11.137900 8.421200
11.162300 7.324900
11.186800 8.532900
11.211300 9.460500
11.235700 9.802100
11.260200 8.496600
11.284700 7.258500
11.309100 6.808600
11.333600 6.682700
11.358000 5.798500
11.382500 6.052100
11.407000 6.545100
11.431400 7.198600
11.455900 8.705500
11.480300 8.345600
11.504800 8.169200
11.529300 7.734200
11.553700 7.254300
11.578200 6.670400
11.602600 6.580400
11.627100 6.828900
11.651600 7.781600
11.676000 8.938500
11.700500 8.880800
11.725000 8.820700
11.749400 8.954500
11.773900 8.952200
11.798300 8.432100
11.822800 7.921600
11.847300 7.478000
11.871700 6.059900
11.896200 5.228500
11.920600 4.949400
11.945100 6.704700
11.969600 6.718300
11.994000 7.568300
12.018500 8.565400
12.042900 9.523200
12.067400 9.574000
12.091900 8.964400
12.116300 8.732700
12.140800 7.512800
12.165300 6.653500
12.189700 6.465200
12.214200 7.123400
12.238600 8.630500
12.263100 8.669300
12.287600 8.978800
12.312000 8.950300
12.336500 10.452700
12.360900 10.613900
12.385400 9.277200
12.409900 7.598200
12.434300 6.530800
12.458800 6.140200
12.483300 6.763400
12.507700 7.564300
12.532200 9.041200
12.556600 9.495100
12.581100 10.112300
12.605600 10.417600
12.630000 9.527400
12.654500 7.737500
12.678900 6.882500
12.703400 6.594500
12.727900 6.774200
12.752300 7.461300
12.776800 8.424500
12.801200 9.241000
12.825700 8.900900
12.850200 8.469500
12.874600 7.621700
12.899100 6.963100
12.923600 6.868900
12.948000 7.194800
12.972500 7.896900
12.996900 7.882300
13.021400 8.018500
13.045900 7.883200
13.070300 7.890500
13.094800 7.061100
13.119200 7.251700
13.143700 7.673300
13.168200 7.943200
13.192600 8.156400
13.217100 8.480700
13.241600 8.570600
13.266000 8.373200
13.290500 8.154600
13.314900 7.819200
13.339400 7.338800
13.363900 6.995700
13.388300 7.052000
13.412800 6.774500
13.437200 6.601900
13.461700 6.412100
13.486200 6.668800
13.510600 7.113100
13.535100 7.168900
13.559500 7.588000
13.584000 8.141000
13.608500 8.273000
13.632900 8.108100
13.657400 7.445900
13.681900 7.217200
13.706300 7.214900
13.730800 7.104600
13.755200 6.733300
13.779700 6.619400
13.804200 6.892900
13.828600 7.485100
13.853100 7.713100
13.877500 8.005700
13.902000 8.092500
13.926500 8.362600
13.950900 8.518900
13.975400 8.423200
13.999800 8.001400
14.024300 6.932800
14.048800 6.287200
14.073200 6.638900
14.097700 6.530700
14.122200 6.427400
14.146600 6.557700
14.171100 7.195100
14.195500 7.850200
14.220000 8.528200
14.244500 8.449900
14.268900 8.979500
14.293400 9.878300
14.317800 9.282100
14.342300 8.059600
14.366800 7.497100
14.391200 8.177200
14.415700 8.566300
14.440200 8.411500
14.464600 7.471300
14.489100 6.621400
14.513500 6.393500
14.538000 6.736400
14.562500 7.426700
14.586900 8.642900
14.611400 11.024000
14.635800 11.036300
14.660300 8.829000
14.684800 7.222800
14.709200 6.934300
14.733700 6.982000
14.758100 7.153200
14.782600 7.415300
14.807100 7.460000
14.831500 6.842200
14.856000 5.936700
14.880500 5.593900
14.904900 5.502000
14.929400 5.953400
14.953800 6.541500
14.978300 7.899600
15.002800 10.298100
15.027200 8.959500
15.051700 9.797400
15.076100 9.840700
15.100600 9.041300
15.125100 7.983300
15.149500 7.251500
15.174000 7.406300
15.198400 7.982100
15.222900 9.152800
15.247400 9.424000
15.271800 9.686800
15.296300 10.230400
15.320800 9.610600
15.345200 8.405400
15.369700 7.322200
15.394100 6.584400
15.418600 6.291600
15.443100 6.984900
15.467500 7.418200
15.492000 7.909400
15.516400 8.822600
15.540900 9.184700
15.565400 9.114600
15.589800 9.364000
15.614300 9.071900
15.638800 9.110300
15.663200 9.308900
15.687700 9.322700
15.712100 10.250500
15.736600 9.143800
15.761100 8.083300
15.785500 7.016700
15.810000 6.345300
15.834400 6.809900
15.858900 6.396000
15.883400 6.880200
15.907800 6.857700
15.932300 6.619500
15.956700 7.285200
15.981200 8.009600
16.005700 8.209500
16.030100 8.299800
16.054600 8.203300
16.079100 7.453700
16.103500 6.864600
16.128000 6.737500
16.152400 6.803000
16.176900 6.959700
16.201400 7.211700
16.225800 8.362000
16.250300 9.968800
16.274700 8.884200
16.299200 8.695000
16.323700 8.413000
16.348100 9.105800
16.372600 8.756300
16.397000 8.588300
16.421500 9.148300
16.446000 10.129900
16.470400 10.061500
16.494900 10.291700
16.519400 9.526900
16.543800 10.831600
16.568300 10.045100
16.592700 8.825100
16.617200 8.664800
16.641700 9.097100
16.666100 10.177700
16.690600 10.138200
16.715000 9.219400
16.739500 9.011500
16.764000 8.401400
16.788400 8.540700
16.812900 8.159800
16.837400 7.594800
16.861800 7.122100
16.886300 7.106000
16.910700 7.206100
16.935200 7.976800
16.959700 9.424800
16.984100 10.632600
17.008600 11.694300
17.033000 9.387300
17.057500 8.736700
17.082000 8.407000
17.106400 9.256000
17.130900 10.085700
17.155300 11.170500
17.179800 11.070100
17.204300 11.284400
17.228700 11.115800
17.253200 11.585500
17.277700 11.774100
17.302100 11.636800
17.326600 11.878500
17.351000 12.752300
17.375500 12.433600
17.400000 11.833400
17.424400 11.791500
17.448900 10.855900
17.473300 10.738600
17.497800 11.057600
17.522300 11.212300
17.546700 11.260300
17.571200 12.579400
17.595700 12.993300
17.620100 12.372100
17.644600 12.685800
17.669000 11.411300
17.693500 11.002100
17.718000 10.864500
17.742400 10.728900
17.766900 11.094700
17.791300 11.212300
17.815800 11.976600
17.840300 12.706600
17.864700 14.085700
17.889200 12.854400
17.913600 12.527900
17.938100 12.128700
17.962600 12.871800
17.987000 12.050700
18.011500 11.802400
18.036000 11.777700
18.060400 10.829700
18.084900 10.346800
18.109300 9.853600
18.133800 10.882800
18.158300 11.887100
18.182700 11.407100
18.207200 11.472600
18.231600 10.224800
18.256100 10.077000
18.280600 10.884100
18.305000 11.735100
18.329500 12.439000
18.353900 12.256300
18.378400 12.358300
18.402900 11.958900
18.427300 11.032100
18.451800 10.674000
18.476300 11.123200
18.500700 11.578700
18.525200 13.122500
18.549600 11.973000
18.574100 11.508400
18.598600 10.339600
18.623000 9.999800
18.647500 10.061600
18.671900 10.822800
18.696400 11.988400
18.720900 12.590900
18.745300 12.291300
18.769800 12.001800
18.794300 10.867300
18.818700 11.017100
18.843200 11.475100
18.867600 12.493200
18.892100 11.375300
18.916600 11.281300
18.941000 11.631100
18.965500 11.809400
18.989900 11.424800
19.014400 11.143100
19.038900 11.022400
19.063300 11.326300
19.087800 11.393500
19.112200 11.246200
19.136700 10.939600
19.161200 10.968100
19.185600 10.917100
19.210100 11.242000
19.234600 11.722400
19.259000 13.304900
19.283500 13.071500
19.307900 12.457500
19.332400 12.280500
19.356900 12.411600
19.381300 12.583500
19.405800 12.778800
19.430200 11.779700
19.454700 10.647600
19.479200 10.170700
19.503600 9.822300
19.528100 9.889100
19.552500 10.076700
19.577000 10.564200
19.601500 10.473000
19.625900 10.974100
19.650400 11.032200
19.674900 11.232600
19.699300 11.013700
19.723800 10.546800
19.748200 10.070700
19.772700 9.996400
19.797200 9.996700
19.821600 10.151200
19.846100 11.004600
19.870500 11.315400
19.895000 11.594000
19.919500 10.916800
19.943900 10.370700
19.968400 10.449900
19.992900 10.876500
20.017300 10.926800
20.041800 10.625800
20.066200 10.687200
20.090700 9.553900
20.115200 9.616800
20.139600 10.267800
20.164100 10.576600
20.188500 10.222700
20.213000 9.049100
20.237500 8.283300
20.261900 7.761000
20.286400 7.301700
20.310800 6.838300
20.335300 6.256700
20.359800 5.952200
20.384200 5.464300
20.408700 5.165200
20.433200 5.008300
20.457600 5.054100
20.482100 4.496000
20.506500 4.099500
20.531000 3.524100
20.555500 3.225600
20.579900 3.208300
20.604400 2.945000
20.628800 2.770900
20.653300 2.562400
20.677800 2.435800
20.702200 2.406200
20.726700 2.125700
20.751100 1.768900
20.775600 1.402300
20.800100 0.929800
20.824500 0.702900
20.849000 0.522400
20.873500 0.359700
20.897900 0.254600
20.922400 0.163300
20.946800 0.002400
20.971300 0.000000
20.995800 0.000000
21.020200 0.000000
21.044700 0.000000
21.069100 0.000000
21.093600 0.000000
21.118100 0.000000
21.142500 0.000000
21.167000 0.000000
21.191500 0.000000
21.215900 0.000000
21.240400 0.000000
21.264800 0.000000
21.289300 0.000000
21.313800 0.000000
21.338200 0.000000
21.362700 0.000000
21.387100 0.000000
21.411600 0.000000
21.436100 0.000000
21.460500 0.000000
21.485000 0.000000
21.509400 0.000000
21.533900 0.000000
21.558400 0.000000
21.582800 0.000000
21.607300 0.000000
21.631800 0.000000
21.656200 0.000000
21.680700 0.000000
21.705100 0.000000
21.729600 0.000000
21.754100 0.000000
21.778500 0.000000
21.803000 0.000000
21.827400 0.000000
21.851900 0.000000
21.876400 0.000000
21.900800 0.000000
21.925300 0.000000
21.949800 0.000000
21.974200 0.000000
21.998700 0.000000
22.023100 0.000000
22.047600 0.000000
22.072100 0.000000
22.096500 0.000000
22.121000 0.000000
22.145400 0.000000
22.169900 0.000000
22.194400 0.000000
22.218800 0.000000
22.243300 0.000000
22.267700 0.000000
22.292200 0.000000
22.316700 0.000000
22.341100 0.000000
22.365600 0.000000
22.390100 0.000000
22.414500 0.000000
22.439000 0.000000
22.463400 0.000000
22.487900 0.000000
22.512400 0.000000
22.536800 0.000000
22.561300 0.000000
22.585700 0.000000
22.610200 0.000000
22.634700 0.000000
22.659100 0.000000
22.683600 0.000000
22.708000 0.000000
22.732500 0.000000
22.757000 0.000000
22.781400 0.000000
22.805900 0.000000
22.830400 0.000000
22.854800 0.000000
22.879300 0.000000
22.903700 0.000000
22.928200 0.000000
22.952700 0.000000
22.977100 0.000000
23.001600 0.000000
23.026000 0.000000
23.050500 0.000000
23.075000 0.000000
23.099400 0.000000
23.123900 0.000000
23.148400 0.000000
23.172800 0.000000
e
