set title 'mp-1873 - Density of States'
set xlabel 'Energy (eV)'
set ylabel 'DOS (states/eV)'
set grid
set xrange [-10:10]
set yrange [0:30.655]
set xzeroaxis lt -1
set terminal png size 800,600
set output 'mp-1873_dos_gnuplot.png'
plot '-' using 1:2 with lines title 'DOS'
-25.308600 0.000000
-25.284200 0.000000
-25.259800 0.000000
-25.235400 0.000000
-25.211000 0.000000
-25.186600 0.000000
-25.162200 0.000000
-25.137700 0.000000
-25.113300 0.000000
-25.088900 0.000000
-25.064500 0.000000
-25.040100 0.000000
-25.015700 0.000000
-24.991300 0.000000
-24.966900 0.000000
-24.942400 0.000000
-24.918000 0.000000
-24.893600 0.000000
-24.869200 0.000000
-24.844800 0.000000
-24.820400 0.000000
-24.796000 0.000000
-24.771500 0.000000
-24.747100 0.000000
-24.722700 0.000000
-24.698300 0.000000
-24.673900 0.000000
-24.649500 0.000000
-24.625100 0.000000
-24.600600 0.000000
-24.576200 0.000000
-24.551800 0.000000
-24.527400 0.000000
-24.503000 0.000000
-24.478600 0.000000
-24.454200 0.000000
-24.429700 0.000000
-24.405300 0.000000
-24.380900 0.000000
-24.356500 0.000000
-24.332100 0.000000
-24.307700 0.000000
-24.283300 0.000000
-24.258900 0.000000
-24.234400 0.000000
-24.210000 0.000000
-24.185600 0.000000
-24.161200 0.000000
-24.136800 0.000000
-24.112400 0.000000
-24.088000 0.000000
-24.063500 0.000000
-24.039100 0.000000
-24.014700 0.000000
-23.990300 0.000000
-23.965900 0.000000
-23.941500 0.000000
-23.917100 0.000000
-23.892600 0.000000
-23.868200 0.000000
-23.843800 0.000000
-23.819400 0.000000
-23.795000 0.000000
-23.770600 0.000000
-23.746200 0.000000
-23.721800 0.000000
-23.697300 0.000000
-23.672900 0.000000
-23.648500 0.000000
-23.624100 0.000000
-23.599700 0.000000
-23.575300 0.000000
-23.550900 0.000000
-23.526400 0.000000
-23.502000 0.000000
-23.477600 0.000000
-23.453200 0.000000
-23.428800 0.000000
-23.404400 0.000000
-23.380000 0.000000
-23.355500 0.000000
-23.331100 0.000000
-23.306700 0.000000
-23.282300 0.000000
-23.257900 0.000000
-23.233500 0.000000
-23.209100 0.000000
-23.184600 0.000000
-23.160200 0.000000
-23.135800 0.000000
-23.111400 0.000000
-23.087000 0.023700
-23.062600 0.822900
-23.038200 1.247000
-23.013800 1.650500
-22.989300 1.932200
-22.964900 2.308900
-22.940500 2.605700
-22.916100 2.960700
-22.891700 3.339100
-22.867300 3.717400
-22.842900 4.184200
-22.818400 5.148800
-22.794000 5.127000
-22.769600 5.162300
-22.745200 6.859200
-22.720800 7.978800
-22.696400 9.383700
-22.672000 9.920500
-22.647500 10.567200
-22.623100 12.179000
-22.598700 13.326300
-22.574300 15.854800
-22.549900 15.046700
-22.525500 7.634000
-22.501100 5.179500
-22.476700 3.379500
-22.452200 1.972800
-22.427800 14.304200
-22.403400 89.539600
-22.379000 50.388000
-22.354600 24.553800
-22.330200 0.000000
-22.305800 0.000000
-22.281300 0.000000
-22.256900 0.000000
-22.232500 0.000000
-22.208100 0.000000
-22.183700 0.000000
-22.159300 0.000000
-22.134900 0.000000
-22.110400 0.000000
-22.086000 0.000000
-22.061600 0.000000
-22.037200 0.000000
-22.012800 0.000000
-21.988400 0.000000
-21.964000 0.000000
-21.939500 0.000000
-21.915100 0.000000
-21.890700 0.000000
-21.866300 0.000000
-21.841900 0.000000
-21.817500 0.000000
-21.793100 0.000000
-21.768700 0.000000
-21.744200 0.000000
-21.719800 0.000000
-21.695400 0.000000
-21.671000 0.000000
-21.646600 0.000000
-21.622200 0.000000
-21.597800 0.000000
-21.573300 0.000000
-21.548900 0.000000
-21.524500 0.000000
-21.500100 0.000000
-21.475700 0.000000
-21.451300 0.000000
-21.426900 0.000000
-21.402400 0.000000
-21.378000 0.000000
-21.353600 0.000000
-21.329200 0.000000
-21.304800 0.000000
-21.280400 0.000000
-21.256000 0.000000
-21.231600 0.000000
-21.207100 0.000000
-21.182700 0.000000
-21.158300 0.000000
-21.133900 0.000000
-21.109500 0.000000
-21.085100 0.000000
-21.060700 0.000000
-21.036200 0.000000
-21.011800 0.000000
-20.987400 0.000000
-20.963000 0.000000
-20.938600 0.000000
-20.914200 0.000000
-20.889800 0.000000
-20.865300 0.000000
-20.840900 0.000000
-20.816500 0.000000
-20.792100 0.000000
-20.767700 0.000000
-20.743300 0.000000
-20.718900 0.000000
-20.694400 0.000000
-20.670000 0.000000
-20.645600 0.000000
-20.621200 0.000000
-20.596800 0.000000
-20.572400 0.000000
-20.548000 0.000000
-20.523600 0.000000
-20.499100 0.000000
-20.474700 0.000000
-20.450300 0.000000
-20.425900 0.000000
-20.401500 0.000000
-20.377100 0.000000
-20.352700 0.000000
-20.328200 0.000000
-20.303800 0.000000
-20.279400 0.000000
-20.255000 0.000000
-20.230600 0.000000
-20.206200 0.000000
-20.181800 0.000000
-20.157300 0.000000
-20.132900 0.000000
-20.108500 0.000000
-20.084100 0.000000
-20.059700 0.000000
-20.035300 0.000000
-20.010900 0.000000
-19.986500 0.000000
-19.962000 0.000000
-19.937600 0.000000
-19.913200 0.000000
-19.888800 0.000000
-19.864400 0.000000
-19.840000 0.000000
-19.815600 0.000000
-19.791100 0.000000
-19.766700 0.000000
-19.742300 0.000000
-19.717900 0.000000
-19.693500 0.000000
-19.669100 0.000000
-19.644700 0.000000
-19.620200 0.000000
-19.595800 0.000000
-19.571400 0.000000
-19.547000 0.000000
-19.522600 0.000000
-19.498200 0.000000
-19.473800 0.000000
-19.449300 0.000000
-19.424900 0.000000
-19.400500 0.000000
-19.376100 0.000000
-19.351700 0.000000
-19.327300 0.000000
-19.302900 0.000000
-19.278500 0.000000
-19.254000 0.000000
-19.229600 0.000000
-19.205200 0.000000
-19.180800 0.000000
-19.156400 0.000000
-19.132000 0.000000
-19.107600 0.000000
-19.083100 0.000000
-19.058700 0.000000
-19.034300 0.000000
-19.009900 0.000000
-18.985500 0.000000
-18.961100 0.000000
-18.936700 0.000000
-18.912200 0.000000
-18.887800 0.000000
-18.863400 0.000000
-18.839000 0.000000
-18.814600 0.000000
-18.790200 0.000000
-18.765800 0.000000
-18.741400 0.000000
-18.716900 0.000000
-18.692500 0.000000
-18.668100 0.000000
-18.643700 0.000000
-18.619300 0.000000
-18.594900 0.000000
-18.570500 0.000000
-18.546000 0.000000
-18.521600 0.000000
-18.497200 0.000000
-18.472800 0.000000
-18.448400 0.000000
-18.424000 0.000000
-18.399600 0.000000
-18.375100 0.000000
-18.350700 0.000000
-18.326300 0.000000
-18.301900 0.000000
-18.277500 0.000000
-18.253100 0.000000
-18.228700 0.000000
-18.204200 0.000000
-18.179800 0.000000
-18.155400 0.000000
-18.131000 0.000000
-18.106600 0.000000
-18.082200 0.000000
-18.057800 0.000000
-18.033400 0.000000
-18.008900 0.000000
-17.984500 0.000000
-17.960100 0.000000
-17.935700 0.000000
-17.911300 0.000000
-17.886900 0.000000
-17.862500 0.000000
-17.838000 0.000000
-17.813600 0.000000
-17.789200 0.000000
-17.764800 0.000000
-17.740400 0.000000
-17.716000 0.000000
-17.691600 0.000000
-17.667100 0.000000
-17.642700 0.000000
-17.618300 0.000000
-17.593900 0.000000
-17.569500 0.000000
-17.545100 0.000000
-17.520700 0.000000
-17.496300 0.000000
-17.471800 0.000000
-17.447400 0.000000
-17.423000 0.000000
-17.398600 0.000000
-17.374200 0.000000
-17.349800 0.000000
-17.325400 0.000000
-17.300900 0.000000
-17.276500 0.000000
-17.252100 0.000000
-17.227700 0.000000
-17.203300 0.000000
-17.178900 0.000000
-17.154500 0.000000
-17.130000 0.000000
-17.105600 0.000000
-17.081200 0.000000
-17.056800 0.000000
-17.032400 0.000000
-17.008000 0.000000
-16.983600 0.000000
-16.959100 0.000000
-16.934700 0.000000
-16.910300 0.000000
-16.885900 0.000000
-16.861500 0.000000
-16.837100 0.000000
-16.812700 0.000000
-16.788300 0.000000
-16.763800 0.000000
-16.739400 0.000000
-16.715000 0.000000
-16.690600 0.000000
-16.666200 0.000000
-16.641800 0.000000
-16.617400 0.000000
-16.592900 0.000000
-16.568500 0.000000
-16.544100 0.000000
-16.519700 0.000000
-16.495300 0.000000
-16.470900 0.000000
-16.446500 0.000000
-16.422000 0.000000
-16.397600 0.000000
-16.373200 0.000000
-16.348800 0.000000
-16.324400 0.000000
-16.300000 0.000000
-16.275600 0.000000
-16.251200 0.000000
-16.226700 0.000000
-16.202300 0.000000
-16.177900 0.000000
-16.153500 0.000000
-16.129100 0.000000
-16.104700 0.000000
-16.080300 0.000000
-16.055800 0.000000
-16.031400 0.000000
-16.007000 0.000000
-15.982600 0.000000
-15.958200 0.000000
-15.933800 0.000000
-15.909400 0.000000
-15.884900 0.000000
-15.860500 0.000000
-15.836100 0.000000
-15.811700 0.000000
-15.787300 0.000000
-15.762900 0.000000
-15.738500 0.000000
-15.714000 0.000000
-15.689600 0.000000
-15.665200 0.000000
-15.640800 0.000000
-15.616400 0.000000
-15.592000 0.000000
-15.567600 0.000000
-15.543200 0.000000
-15.518700 0.000000
-15.494300 0.000000
-15.469900 0.000000
-15.445500 0.000000
-15.421100 0.000000
-15.396700 0.000000
-15.372300 0.000000
-15.347800 0.000000
-15.323400 0.000000
-15.299000 0.000000
-15.274600 0.000000
-15.250200 0.000000
-15.225800 0.000000
-15.201400 0.000000
-15.176900 0.000000
-15.152500 0.000000
-15.128100 0.000000
-15.103700 0.000000
-15.079300 0.000000
-15.054900 0.000000
-15.030500 0.000000
-15.006100 0.000000
-14.981600 0.000000
-14.957200 0.000000
-14.932800 0.000000
-14.908400 0.000000
-14.884000 0.000000
-14.859600 0.000000
-14.835200 0.000000
-14.810700 0.000000
-14.786300 0.000000
-14.761900 0.000000
-14.737500 0.000000
-14.713100 0.000000
-14.688700 0.000000
-14.664300 0.000000
-14.639800 0.000000
-14.615400 0.000000
-14.591000 0.000000
-14.566600 0.000000
-14.542200 0.000000
-14.517800 0.000000
-14.493400 0.000000
-14.468900 0.000000
-14.444500 0.000000
-14.420100 0.000000
-14.395700 0.000000
-14.371300 0.000000
-14.346900 0.000000
-14.322500 0.000000
-14.298100 0.000000
-14.273600 0.000000
-14.249200 0.000000
-14.224800 0.000000
-14.200400 0.000000
-14.176000 0.000000
-14.151600 0.000000
-14.127200 0.000000
-14.102700 0.000000
-14.078300 0.000000
-14.053900 0.000000
-14.029500 0.000000
-14.005100 0.000000
-13.980700 0.000000
-13.956300 0.000000
-13.931800 0.000000
-13.907400 0.000000
-13.883000 0.000000
-13.858600 0.000000
-13.834200 0.000000
-13.809800 0.000000
-13.785400 0.000000
-13.761000 0.000000
-13.736500 0.000000
-13.712100 0.000000
-13.687700 0.000000
-13.663300 0.000000
-13.638900 0.000000
-13.614500 0.000000
-13.590100 0.000000
-13.565600 0.000000
-13.541200 0.000000
-13.516800 0.000000
-13.492400 0.000000
-13.468000 0.000000
-13.443600 0.000000
-13.419200 0.000000
-13.394700 0.000000
-13.370300 0.000000
-13.345900 0.000000
-13.321500 0.000000
-13.297100 0.000000
-13.272700 0.000000
-13.248300 0.000000
-13.223800 0.000000
-13.199400 0.000000
-13.175000 0.000000
-13.150600 0.000000
-13.126200 0.000000
-13.101800 0.000000
-13.077400 0.000000
-13.053000 0.000000
-13.028500 0.000000
-13.004100 0.000000
-12.979700 0.000000
-12.955300 0.000000
-12.930900 0.000000
-12.906500 0.000000
-12.882100 0.000000
-12.857600 0.000000
-12.833200 0.000000
-12.808800 0.000000
-12.784400 0.000000
-12.760000 0.000000
-12.735600 0.000000
-12.711200 0.000000
-12.686700 0.000000
-12.662300 0.000000
-12.637900 0.000000
-12.613500 0.000000
-12.589100 0.000000
-12.564700 0.000000
-12.540300 0.000000
-12.515900 0.000000
-12.491400 0.000000
-12.467000 0.000000
-12.442600 0.000000
-12.418200 0.000000
-12.393800 0.000000
-12.369400 0.000000
-12.345000 0.000000
-12.320500 0.000000
-12.296100 0.000000
-12.271700 0.000000
-12.247300 0.000000
-12.222900 0.000000
-12.198500 0.000000
-12.174100 0.000000
-12.149600 0.000000
-12.125200 0.000000
-12.100800 0.000000
-12.076400 0.000000
-12.052000 0.000000
-12.027600 0.000000
-12.003200 0.000000
-11.978700 0.000000
-11.954300 0.000000
-11.929900 0.000000
-11.905500 0.000000
-11.881100 0.000000
-11.856700 0.000000
-11.832300 0.000000
-11.807900 0.000000
-11.783400 0.000000
-11.759000 0.000000
-11.734600 0.000000
-11.710200 0.000000
-11.685800 0.000000
-11.661400 0.000000
-11.637000 0.000000
-11.612500 0.000000
-11.588100 0.000000
-11.563700 0.000000
-11.539300 0.000000
-11.514900 0.000000
-11.490500 0.000000
-11.466100 0.000000
-11.441600 0.000000
-11.417200 0.000000
-11.392800 0.000000
-11.368400 0.000000
-11.344000 0.000000
-11.319600 0.000000
-11.295200 0.000000
-11.270800 0.000000
-11.246300 0.000000
-11.221900 0.000000
-11.197500 0.000000
-11.173100 0.000000
-11.148700 0.000000
-11.124300 0.000000
-11.099900 0.000000
-11.075400 0.000000
-11.051000 0.000000
-11.026600 0.000000
-11.002200 0.000000
-10.977800 0.000000
-10.953400 0.000000
-10.929000 0.000000
-10.904500 0.000000
-10.880100 0.000000
-10.855700 0.000000
-10.831300 0.000000
-10.806900 0.000000
-10.782500 0.000000
-10.758100 0.000000
-10.733600 0.000000
-10.709200 0.000000
-10.684800 0.000000
-10.660400 0.000000
-10.636000 0.000000
-10.611600 0.000000
-10.587200 0.000000
-10.562800 0.000000
-10.538300 0.000000
-10.513900 0.000000
-10.489500 0.000000
-10.465100 0.000000
-10.440700 0.000000
-10.416300 0.000000
-10.391900 0.000000
-10.367400 0.000000
-10.343000 0.000000
-10.318600 0.000000
-10.294200 0.000000
-10.269800 0.000000
-10.245400 0.000000
-10.221000 0.000000
-10.196500 0.000000
-10.172100 0.000000
-10.147700 0.000000
-10.123300 0.000000
-10.098900 0.000000
-10.074500 0.000000
-10.050100 0.000000
-10.025700 0.000000
-10.001200 0.000000
-9.976800 0.000000
-9.952400 0.000000
-9.928000 0.000000
-9.903600 0.000000
-9.879200 0.000000
-9.854800 0.000000
-9.830300 0.000000
-9.805900 0.000000
-9.781500 0.000000
-9.757100 0.000000
-9.732700 0.000000
-9.708300 0.000000
-9.683900 0.000000
-9.659400 0.000000
-9.635000 0.000000
-9.610600 0.000000
-9.586200 0.000000
-9.561800 0.000000
-9.537400 0.000000
-9.513000 0.000000
-9.488500 0.000000
-9.464100 0.000000
-9.439700 0.000000
-9.415300 0.000000
-9.390900 0.000000
-9.366500 0.000000
-9.342100 0.000000
-9.317700 0.000000
-9.293200 0.000000
-9.268800 0.000000
-9.244400 0.000000
-9.220000 0.000000
-9.195600 0.000000
-9.171200 0.000000
-9.146800 0.000000
-9.122300 0.000000
-9.097900 0.000000
-9.073500 0.000000
-9.049100 0.000000
-9.024700 0.000000
-9.000300 0.000000
-8.975900 0.000000
-8.951400 0.000000
-8.927000 0.000000
-8.902600 0.000000
-8.878200 0.000000
-8.853800 0.000000
-8.829400 0.000000
-8.805000 0.000000
-8.780600 0.000000
-8.756100 0.000000
-8.731700 0.000000
-8.707300 0.000000
-8.682900 0.000000
-8.658500 0.000000
-8.634100 0.000000
-8.609700 0.000000
-8.585200 0.000000
-8.560800 0.000000
-8.536400 0.000000
-8.512000 0.000000
-8.487600 0.000000
-8.463200 0.000000
-8.438800 0.000000
-8.414300 0.000000
-8.389900 0.000000
-8.365500 0.000000
-8.341100 0.000000
-8.316700 0.000000
-8.292300 0.000000
-8.267900 0.000000
-8.243400 0.000000
-8.219000 0.000000
-8.194600 0.000000
-8.170200 0.000000
-8.145800 0.000000
-8.121400 0.000000
-8.097000 0.000000
-8.072600 0.000000
-8.048100 0.000000
-8.023700 0.000000
-7.999300 0.000000
-7.974900 0.000000
-7.950500 0.000000
-7.926100 0.000000
-7.901700 0.000000
-7.877200 0.000000
-7.852800 0.000000
-7.828400 0.000000
-7.804000 0.000000
-7.779600 0.000000
-7.755200 0.000000
-7.730800 0.000000
-7.706300 0.000000
-7.681900 0.000000
-7.657500 0.000000
-7.633100 0.000000
-7.608700 0.000000
-7.584300 0.000000
-7.559900 0.000000
-7.535500 0.000000
-7.511000 0.000000
-7.486600 0.000000
-7.462200 0.000000
-7.437800 0.000000
-7.413400 0.006400
-7.389000 0.144400
-7.364600 0.213100
-7.340100 0.271200
-7.315700 0.351500
-7.291300 0.393100
-7.266900 0.446900
-7.242500 0.499100
-7.218100 0.566300
-7.193700 0.644000
-7.169200 0.710000
-7.144800 0.802200
-7.120400 0.882500
-7.096000 1.019500
-7.071600 1.184100
-7.047200 1.478700
-7.022800 2.347800
-6.998300 2.686900
-6.973900 2.759400
-6.949500 2.767700
-6.925100 2.809700
-6.900700 2.854500
-6.876300 2.925400
-6.851900 2.962600
-6.827500 3.031900
-6.803000 3.113200
-6.778600 3.252200
-6.754200 3.368900
-6.729800 3.558800
-6.705400 3.961400
-6.681000 6.200600
-6.656600 5.810600
-6.632100 5.996500
-6.607700 6.081000
-6.583300 6.344200
-6.558900 6.861500
-6.534500 7.978800
-6.510100 6.909500
-6.485700 6.504000
-6.461200 6.640000
-6.436800 6.469500
-6.412400 5.466600
-6.388000 4.867200
-6.363600 4.616600
-6.339200 4.478300
-6.314800 4.242300
-6.290400 5.757200
-6.265900 4.045300
-6.241500 4.705600
-6.217100 6.171900
-6.192700 5.870900
-6.168300 5.526000
-6.143900 6.745300
-6.119500 14.985700
-6.095000 21.300300
-6.070600 20.964200
-6.046200 21.269200
-6.021800 24.752000
-5.997400 22.982200
-5.973000 9.594200
-5.948600 3.175100
-5.924100 3.183800
-5.899700 3.695400
-5.875300 4.157300
-5.850900 4.789100
-5.826500 5.153500
-5.802100 4.841400
-5.777700 4.791600
-5.753200 4.715600
-5.728800 5.278300
-5.704400 6.061000
-5.680000 7.362100
-5.655600 7.652100
-5.631200 8.040300
-5.606800 7.436800
-5.582400 7.919000
-5.557900 7.904600
-5.533500 8.361200
-5.509100 10.101800
-5.484700 6.893600
-5.460300 6.579600
-5.435900 6.380300
-5.411500 6.236300
-5.387000 6.062100
-5.362600 6.268500
-5.338200 8.010700
-5.313800 10.107200
-5.289400 10.582000
-5.265000 9.814300
-5.240600 8.897500
-5.216100 8.720800
-5.191700 9.057200
-5.167300 9.485300
-5.142900 9.587900
-5.118500 10.131700
-5.094100 11.395700
-5.069700 11.783500
-5.045300 13.544200
-5.020800 12.666800
-4.996400 12.286400
-4.972000 15.157600
-4.947600 14.789400
-4.923200 19.941000
-4.898800 16.280800
-4.874400 15.766200
-4.849900 15.437400
-4.825500 16.357100
-4.801100 16.827400
-4.776700 19.181900
-4.752300 12.215500
-4.727900 15.351400
-4.703500 13.286800
-4.679000 10.469800
-4.654600 9.979600
-4.630200 9.411500
-4.605800 6.775300
-4.581400 7.254800
-4.557000 8.046400
-4.532600 9.788800
-4.508100 27.868400
-4.483700 22.820200
-4.459300 16.392800
-4.434900 14.900400
-4.410500 14.869600
-4.386100 13.143700
-4.361700 9.903200
-4.337300 5.142500
-4.312800 6.060500
-4.288400 7.875600
-4.264000 7.522900
-4.239600 7.424400
-4.215200 7.617400
-4.190800 8.129800
-4.166400 8.210100
-4.141900 8.625300
-4.117500 7.161400
-4.093100 6.911600
-4.068700 5.423500
-4.044300 5.605200
-4.019900 5.383600
-3.995500 5.264300
-3.971000 5.232800
-3.946600 5.170500
-3.922200 5.092800
-3.897800 5.083600
-3.873400 5.257800
-3.849000 5.426800
-3.824600 5.360200
-3.800200 5.138300
-3.775700 4.630200
-3.751300 4.532100
-3.726900 4.206400
-3.702500 3.872100
-3.678100 4.005200
-3.653700 4.141100
-3.629300 4.956800
-3.604800 7.330800
-3.580400 10.105100
-3.556000 9.866900
-3.531600 9.216900
-3.507200 8.963500
-3.482800 8.182800
-3.458400 7.842200
-3.433900 7.701100
-3.409500 7.655400
-3.385100 7.577000
-3.360700 7.808800
-3.336300 7.927300
-3.311900 6.322100
-3.287500 5.695300
-3.263000 8.694500
-3.238600 6.488400
-3.214200 4.036400
-3.189800 5.585300
-3.165400 8.262700
-3.141000 8.897400
-3.116600 9.479200
-3.092200 10.257000
-3.067700 10.783700
-3.043300 11.704200
-3.018900 13.242700
-2.994500 16.924500
-2.970100 18.011500
-2.945700 19.231200
-2.921300 20.034700
-2.896800 26.052700
-2.872400 23.631800
-2.848000 21.004300
-2.823600 13.309200
-2.799200 11.709600
-2.774800 14.086100
-2.750400 9.070000
-2.725900 8.417500
-2.701500 7.549000
-2.677100 5.481000
-2.652700 4.444700
-2.628300 3.634200
-2.603900 3.253700
-2.579500 3.190700
-2.555100 3.057300
-2.530600 3.167100
-2.506200 3.422700
-2.481800 3.460700
-2.457400 3.552400
-2.433000 3.686100
-2.408600 3.778400
-2.384200 3.710100
-2.359700 3.905300
-2.335300 4.071800
-2.310900 4.312000
-2.286500 4.506700
-2.262100 4.844900
-2.237700 5.034100
-2.213300 5.329100
-2.188800 5.592500
-2.164400 6.109700
-2.140000 6.602500
-2.115600 8.388200
-2.091200 8.852100
-2.066800 13.678900
-2.042400 11.380400
-2.017900 8.123800
-1.993500 4.541400
-1.969100 4.531800
-1.944700 4.700100
-1.920300 5.013100
-1.895900 5.570400
-1.871500 6.709000
-1.847100 9.677500
-1.822600 8.184800
-1.798200 5.743700
-1.773800 1.597800
-1.749400 0.000000
-1.725000 0.000000
-1.700600 0.000000
-1.676200 0.000000
-1.651700 0.000000
-1.627300 0.000000
-1.602900 0.000000
-1.578500 0.000000
-1.554100 0.000000
-1.529700 0.000000
-1.505300 0.000000
-1.480800 0.000000
-1.456400 0.000000
-1.432000 0.000000
-1.407600 0.000000
-1.383200 0.000000
-1.358800 0.000000
-1.334400 0.000000
-1.310000 0.000000
-1.285500 0.000000
-1.261100 0.000000
-1.236700 0.000000
-1.212300 0.000000
-1.187900 0.000000
-1.163500 0.000000
-1.139100 0.000000
-1.114600 0.000000
-1.090200 0.000000
-1.065800 0.000000
-1.041400 0.000000
-1.017000 0.000000
-0.992600 0.000000
-0.968200 0.000000
-0.943700 0.000000
-0.919300 0.000000
-0.894900 0.000000
-0.870500 0.000000
-0.846100 0.000000
-0.821700 0.000000
-0.797300 0.000000
-0.772800 0.000000
-0.748400 0.000000
-0.724000 0.000000
-0.699600 0.000000
-0.675200 0.000000
-0.650800 0.000000
-0.626400 0.000000
-0.602000 0.000000
-0.577500 0.000000
-0.553100 0.000000
-0.528700 0.000000
-0.504300 0.000000
-0.479900 0.000000
-0.455500 0.000000
-0.431100 0.000000
-0.406600 0.000000
-0.382200 0.000000
-0.357800 0.000000
-0.333400 0.000000
-0.309000 0.000000
-0.284600 0.000000
-0.260200 0.000000
-0.235700 0.000000
-0.211300 0.000000
-0.186900 0.000000
-0.162500 0.000000
-0.138100 0.000000
-0.113700 0.000000
-0.089300 0.000000
-0.064900 0.000000
-0.040400 0.000000
-0.016000 0.000000
0.008400 0.000000
0.032800 0.000000
0.057200 0.000000
0.081600 0.000000
0.106000 0.000000
0.130500 0.000000
0.154900 0.000000
0.179300 0.000000
0.203700 0.000000
0.228100 0.000000
0.252500 0.000000
0.276900 0.000000
0.301400 0.000000
0.325800 0.000000
0.350200 0.000000
0.374600 0.000000
0.399000 0.000000
0.423400 0.000000
0.447800 0.000000
0.472300 0.000000
0.496700 0.000000
0.521100 0.000000
0.545500 0.000000
0.569900 0.000000
0.594300 0.000000
0.618700 0.000000
0.643100 0.000000
0.667600 0.000000
0.692000 0.000000
0.716400 0.000000
0.740800 0.000000
0.765200 0.000000
0.789600 0.000000
0.814000 0.000000
0.838500 0.000000
0.862900 0.000000
0.887300 0.000000
0.911700 0.000000
0.936100 0.000000
0.960500 0.000000
0.984900 0.000000
1.009400 0.000000
1.033800 0.000000
1.058200 0.000000
1.082600 0.000000
1.107000 0.000000
1.131400 0.000000
1.155800 0.000000
1.180200 0.000000
1.204700 0.000000
1.229100 0.000000
1.253500 0.000000
1.277900 0.000000
1.302300 0.000000
1.326700 0.000000
1.351100 0.000000
1.375600 0.000000
1.400000 0.000000
1.424400 0.000000
1.448800 0.000000
1.473200 0.000000
1.497600 0.000000
1.522000 0.000000
1.546500 0.000000
1.570900 0.000000
1.595300 0.000000
1.619700 0.000000
1.644100 0.000000
1.668500 0.000000
1.692900 0.000000
1.717400 0.000000
1.741800 0.001800
1.766200 0.007800
1.790600 0.017900
1.815000 0.031900
1.839400 0.044800
1.863800 0.053600
1.888200 0.058200
1.912700 0.059700
1.937100 0.062100
1.961500 0.066100
1.985900 0.071800
2.010300 0.078200
2.034700 0.084800
2.059100 0.091500
2.083600 0.097300
2.108000 0.102000
2.132400 0.105300
2.156800 0.107900
2.181200 0.110700
2.205600 0.114300
2.230000 0.118500
2.254500 0.122800
2.278900 0.127100
2.303300 0.131300
2.327700 0.135600
2.352100 0.139800
2.376500 0.144100
2.400900 0.148600
2.425300 0.153400
2.449800 0.158200
2.474200 0.162700
2.498600 0.166900
2.523000 0.171100
2.547400 0.175200
2.571800 0.179300
2.596200 0.183100
2.620700 0.186900
2.645100 0.190700
2.669500 0.194600
2.693900 0.198500
2.718300 0.202600
2.742700 0.206800
2.767100 0.211400
2.791600 0.216200
2.816000 0.221100
2.840400 0.226000
2.864800 0.231000
2.889200 0.235900
2.913600 0.240600
2.938000 0.245100
2.962500 0.249400
2.986900 0.253900
3.011300 0.258300
3.035700 0.262900
3.060100 0.267500
3.084500 0.272000
3.108900 0.276400
3.133300 0.281200
3.157800 0.286300
3.182200 0.291400
3.206600 0.296400
3.231000 0.301500
3.255400 0.306600
3.279800 0.311800
3.304200 0.317000
3.328700 0.322200
3.353100 0.327500
3.377500 0.332700
3.401900 0.338000
3.426300 0.343400
3.450700 0.348700
3.475100 0.353900
3.499600 0.359200
3.524000 0.365000
3.548400 0.371000
3.572800 0.377000
3.597200 0.383000
3.621600 0.389000
3.646000 0.394900
3.670400 0.400800
3.694900 0.406600
3.719300 0.412500
3.743700 0.418300
3.768100 0.424200
3.792500 0.430400
3.816900 0.436800
3.841300 0.443300
3.865800 0.449900
3.890200 0.456400
3.914600 0.463200
3.939000 0.470400
3.963400 0.512900
3.987800 0.561000
4.012200 0.567200
4.036700 0.552200
4.061100 0.550400
4.085500 0.556900
4.109900 0.562900
4.134300 0.564100
4.158700 0.564000
4.183100 0.564100
4.207600 0.562500
4.232000 0.563500
4.256400 0.565400
4.280800 0.567100
4.305200 0.568600
4.329600 0.568700
4.354000 0.570300
4.378400 0.572200
4.402900 0.573900
4.427300 0.575400
4.451700 0.575400
4.476100 0.574100
4.500500 0.574900
4.524900 0.614100
4.549300 0.682100
4.573800 0.703400
4.598200 0.692300
4.622600 0.708600
4.647000 0.725700
4.671400 0.735600
4.695800 0.746100
4.720200 0.763500
4.744700 0.773200
4.769100 0.785200
4.793500 0.799800
4.817900 0.817000
4.842300 0.834200
4.866700 0.850500
4.891100 0.867000
4.915500 0.884200
4.940000 0.902800
4.964400 0.928000
4.988800 0.982400
5.013200 0.989000
5.037600 0.985600
5.062000 1.066100
5.086400 1.242600
5.110900 1.115800
5.135300 1.128900
5.159700 1.139200
5.184100 1.145600
5.208500 1.125900
5.232900 1.132400
5.257300 1.149200
5.281800 1.168000
5.306200 1.163300
5.330600 1.164400
5.355000 1.160600
5.379400 1.166000
5.403800 1.170400
5.428200 1.174300
5.452700 1.179100
5.477100 1.184400
5.501500 1.189400
5.525900 1.192300
5.550300 1.199900
5.574700 1.208300
5.599100 1.217800
5.623500 1.228200
5.648000 1.234300
5.672400 1.243700
5.696800 1.255700
5.721200 1.270200
5.745600 1.281800
5.770000 1.293300
5.794400 1.305100
5.818900 1.317300
5.843300 1.326600
5.867700 1.337600
5.892100 1.352100
5.916500 1.368300
5.940900 1.386600
5.965300 1.431600
5.989800 1.460900
6.014200 1.488400
6.038600 1.556500
6.063000 1.665100
6.087400 1.744200
6.111800 1.829300
6.136200 1.932000
6.160600 2.078100
6.185100 2.279400
6.209500 1.818000
6.233900 1.684100
6.258300 1.551500
6.282700 1.467900
6.307100 1.420200
6.331500 1.375800
6.356000 1.323700
6.380400 1.280100
6.404800 1.248800
6.429200 1.221400
6.453600 1.195700
6.478000 1.172600
6.502400 1.155700
6.526900 1.137500
6.551300 1.284800
6.575700 1.269300
6.600100 1.304700
6.624500 1.356800
6.648900 1.415800
6.673300 1.420300
6.697800 1.505200
6.722200 1.724100
6.746600 2.286300
6.771000 1.370100
6.795400 1.164800
6.819800 1.081300
6.844200 1.017400
6.868600 0.963000
6.893100 0.916200
6.917500 0.885900
6.941900 0.810800
6.966300 0.822900
6.990700 0.757400
7.015100 0.705800
7.039500 0.663400
7.064000 0.632900
7.088400 0.590200
7.112800 0.547600
7.137200 0.510400
7.161600 0.474700
7.186000 0.465100
7.210400 0.445600
7.234900 0.392100
7.259300 0.340100
7.283700 0.292900
7.308100 0.250400
7.332500 0.225100
7.356900 0.213400
7.381300 0.138700
7.405700 0.062200
7.430200 0.045400
7.454600 0.068500
7.479000 0.100400
7.503400 0.185600
7.527800 0.248900
7.552200 0.254900
7.576600 0.270000
7.601100 0.334000
7.625500 0.368300
7.649900 0.385800
7.674300 0.419600
7.698700 0.446500
7.723100 0.494300
7.747500 0.525400
7.772000 0.541300
7.796400 0.571800
7.820800 0.614600
7.845200 0.662700
7.869600 0.702500
7.894000 0.731300
7.918400 0.814900
7.942900 0.901100
7.967300 0.955700
7.991700 0.956400
8.016100 0.952400
8.040500 0.959300
8.064900 0.971600
8.089300 0.983700
8.113700 0.999800
8.138200 1.016800
8.162600 1.033000
8.187000 1.045400
8.211400 1.053900
8.235800 1.062400
8.260200 1.075800
8.284600 1.091800
8.309100 1.109000
8.333500 1.126700
8.357900 1.146100
8.382300 1.166500
8.406700 1.188100
8.431100 1.210000
8.455500 1.232800
8.480000 1.254900
8.504400 1.277100
8.528800 1.303300
8.553200 1.543500
8.577600 1.932900
8.602000 2.057900
8.626400 2.050800
8.650800 2.111400
8.675300 2.202400
8.699700 2.283100
8.724100 2.394800
8.748500 2.525600
8.772900 2.647600
8.797300 2.854800
8.821700 3.179900
8.846200 3.082500
8.870600 2.778200
8.895000 2.667600
8.919400 2.682800
8.943800 2.702800
8.968200 2.730400
8.992600 2.757400
9.017100 2.800800
9.041500 2.945500
9.065900 3.192400
9.090300 3.241700
9.114700 3.201900
9.139100 2.956800
9.163500 2.894200
9.188000 2.900500
9.212400 3.065000
9.236800 2.909500
9.261200 3.011300
9.285600 2.856200
9.310000 2.602400
9.334400 2.439800
9.358800 2.270000
9.383300 2.117700
9.407700 1.998000
9.432100 1.886500
9.456500 1.795200
9.480900 1.762800
9.505300 1.740200
9.529700 1.691400
9.554200 1.622300
9.578600 1.559400
9.603000 1.491500
9.627400 1.468900
9.651800 1.409500
9.676200 1.368900
9.700600 1.340100
9.725100 1.316100
9.749500 1.316800
9.773900 1.296400
9.798300 1.151100
9.822700 1.078800
9.847100 1.032800
9.871500 0.982000
9.895900 0.915000
9.920400 0.828000
9.944800 0.756000
9.969200 0.642900
9.993600 0.580900
10.018000 0.630200
10.042400 0.674100
10.066800 0.695800
10.091300 0.680900
10.115700 0.716800
10.140100 0.714900
10.164500 0.736300
10.188900 0.773200
10.213300 0.831300
10.237700 0.919900
10.262200 0.955000
10.286600 1.018500
10.311000 1.089000
10.335400 1.211800
10.359800 1.311600
10.384200 1.377300
10.408600 1.451000
10.433100 1.395300
10.457500 1.416500
10.481900 1.460400
10.506300 1.599600
10.530700 1.445200
10.555100 1.497300
10.579500 1.505000
10.603900 1.559900
10.628400 1.580500
10.652800 1.585900
10.677200 1.634500
10.701600 1.719200
10.726000 1.891500
10.750400 2.054200
10.774800 2.012000
10.799300 2.008400
10.823700 2.064900
10.848100 2.300500
10.872500 2.509700
10.896900 3.288100
10.921300 3.032600
10.945700 2.809600
10.970200 2.583800
10.994600 2.387600
11.019000 2.262800
11.043400 2.222900
11.067800 2.320900
11.092200 2.538900
11.116600 2.554000
11.141000 2.467800
11.165500 2.430500
11.189900 2.419900
11.214300 2.343400
11.238700 2.333900
11.263100 2.330700
11.287500 2.359700
11.311900 2.334900
11.336400 2.310100
11.360800 2.298700
11.385200 2.300100
11.409600 2.314700
11.434000 2.331300
11.458400 2.371500
11.482800 2.559200
11.507300 2.508900
11.531700 2.514300
11.556100 2.510500
11.580500 2.507800
11.604900 2.508600
11.629300 2.504900
11.653700 2.426600
11.678200 2.397300
11.702600 2.377500
11.727000 2.544500
11.751400 2.517200
11.775800 2.347500
11.800200 2.225300
11.824600 2.055400
11.849000 2.128300
11.873500 2.163900
11.897900 2.160900
11.922300 2.179500
11.946700 2.231700
11.971100 2.334100
11.995500 2.434800
12.019900 2.508600
12.044400 2.637700
12.068800 2.895300
12.093200 3.140700
12.117600 3.380100
12.142000 3.575600
12.166400 3.544400
12.190800 3.491700
12.215300 3.475200
12.239700 3.483900
12.264100 3.652800
12.288500 3.843100
12.312900 3.948500
12.337300 3.853900
12.361700 3.848500
12.386100 4.003100
12.410600 3.805100
12.435000 3.950000
12.459400 4.297400
12.483800 4.834300
12.508200 4.732800
12.532600 4.548400
12.557000 4.624500
12.581500 4.139200
12.605900 3.931700
12.630300 4.040700
12.654700 3.958300
12.679100 3.352800
12.703500 2.829000
12.727900 2.510800
12.752400 2.482700
12.776800 2.515300
12.801200 2.726500
12.825600 2.890400
12.850000 3.034800
12.874400 2.793800
12.898800 2.539300
12.923300 2.492000
12.947700 2.424300
12.972100 2.338600
12.996500 2.299400
13.020900 2.281400
13.045300 2.267100
13.069700 2.272600
13.094100 2.272600
13.118600 2.306900
13.143000 2.379800
13.167400 2.461000
13.191800 2.444700
13.216200 2.484500
13.240600 2.535600
13.265000 2.596900
13.289500 2.654800
13.313900 2.678100
13.338300 2.714600
13.362700 2.735100
13.387100 2.762100
13.411500 2.811700
13.435900 2.824500
13.460400 2.856600
13.484800 2.872800
13.509200 2.930100
13.533600 2.984600
13.558000 3.049000
13.582400 3.070600
13.606800 3.167200
13.631200 3.357600
13.655700 3.398400
13.680100 3.341500
13.704500 3.310100
13.728900 3.272900
13.753300 3.430700
13.777700 3.193900
13.802100 3.156800
13.826600 3.068300
13.851000 2.947700
13.875400 2.908900
13.899800 2.909700
13.924200 2.955000
13.948600 2.970600
13.973000 2.958200
13.997500 2.914000
14.021900 2.865400
14.046300 2.895600
14.070700 2.974000
14.095100 3.005000
14.119500 3.021900
14.143900 3.023800
14.168400 3.024700
14.192800 3.058900
14.217200 3.015000
14.241600 3.036800
14.266000 3.008900
14.290400 2.989600
14.314800 2.999200
14.339200 3.109800
14.363700 3.173300
14.388100 3.219100
14.412500 3.318500
14.436900 3.486800
14.461300 3.666100
14.485700 3.808400
14.510100 4.017700
14.534600 3.567200
14.559000 3.507700
14.583400 3.202500
14.607800 2.875000
14.632200 2.494700
14.656600 2.312200
14.681000 2.219100
14.705500 2.124600
14.729900 2.062600
14.754300 1.943500
14.778700 1.841700
14.803100 1.812700
14.827500 1.796300
14.851900 1.794800
14.876300 1.836400
14.900800 1.728100
14.925200 1.631500
14.949600 1.555800
14.974000 1.497800
14.998400 1.446900
15.022800 1.410800
15.047200 1.379100
15.071700 1.352700
15.096100 1.334700
15.120500 1.302000
15.144900 1.337800
15.169300 1.303500
15.193700 1.270000
15.218100 1.247400
15.242600 1.200900
15.267000 1.206200
15.291400 1.205900
15.315800 1.233300
15.340200 1.264300
15.364600 1.297700
15.389000 1.332400
15.413500 1.368200
15.437900 1.410800
15.462300 1.457500
15.486700 1.514700
15.511100 1.593500
15.535500 1.618500
15.559900 1.674900
15.584300 1.739100
15.608800 1.809900
15.633200 1.884100
15.657600 1.964800
15.682000 2.075900
15.706400 2.261000
15.730800 2.436100
15.755200 2.557300
15.779700 2.677900
15.804100 2.757200
15.828500 2.739400
15.852900 2.581300
15.877300 2.349400
15.901700 2.165200
15.926100 2.080200
15.950600 1.994700
15.975000 1.924700
15.999400 1.862400
16.023800 1.790300
16.048200 1.731900
16.072600 1.714500
16.097000 1.704300
16.121400 1.705800
16.145900 1.703100
16.170300 1.687400
16.194700 1.706300
16.219100 1.723200
16.243500 1.727200
16.267900 1.751100
16.292300 1.767800
16.316800 1.910900
16.341200 1.956100
16.365600 1.990200
16.390000 1.782500
16.414400 1.774700
16.438800 1.803100
16.463200 1.824200
16.487700 1.801000
16.512100 1.749900
16.536500 1.704200
16.560900 1.742400
16.585300 1.657700
16.609700 1.588800
16.634100 1.544900
16.658600 1.511800
16.683000 1.482100
16.707400 1.451600
16.731800 1.432700
16.756200 1.416100
16.780600 1.399400
16.805000 1.384600
16.829400 1.374600
16.853900 1.363700
16.878300 1.357300
16.902700 1.342200
16.927100 1.328300
16.951500 1.314400
16.975900 1.306700
17.000300 1.296700
17.024800 1.290200
17.049200 1.305200
17.073600 1.328000
17.098000 1.256200
17.122400 1.203300
17.146800 1.173100
17.171200 1.150400
17.195700 1.150300
17.220100 1.136700
17.244500 1.139900
17.268900 1.193200
17.293300 1.187300
17.317700 1.234400
17.342100 1.246900
17.366500 1.270800
17.391000 1.301900
17.415400 1.335400
17.439800 1.323300
17.464200 1.322500
17.488600 1.357200
17.513000 1.371200
17.537400 1.399500
17.561900 1.439400
17.586300 1.556800
17.610700 1.593000
17.635100 1.483400
17.659500 1.497500
17.683900 1.556100
17.708300 1.701100
17.732800 1.789500
17.757200 1.942600
17.781600 1.458600
17.806000 1.415300
17.830400 1.381900
17.854800 1.356500
17.879200 1.344200
17.903700 1.287800
17.928100 1.234200
17.952500 1.245700
17.976900 1.254300
18.001300 1.279900
18.025700 1.336400
18.050100 1.432600
18.074500 1.393500
18.099000 1.420300
18.123400 1.441300
18.147800 1.463700
18.172200 1.505900
18.196600 1.536800
18.221000 1.579500
18.245400 1.612100
18.269900 1.587500
18.294300 1.583600
18.318700 1.594300
18.343100 1.619300
18.367500 1.601800
18.391900 1.610400
18.416300 1.604500
18.440800 1.614000
18.465200 1.617500
18.489600 1.684000
18.514000 1.575400
18.538400 1.561500
18.562800 1.546100
18.587200 1.545600
18.611600 1.530400
18.636100 1.515900
18.660500 1.533200
18.684900 1.525200
18.709300 1.532000
18.733700 1.544400
18.758100 1.559100
18.782500 1.581200
18.807000 1.586000
18.831400 1.586600
18.855800 1.583300
18.880200 1.578600
18.904600 1.590200
18.929000 1.596600
18.953400 1.614000
18.977900 1.633100
19.002300 1.627900
19.026700 1.622000
19.051100 1.616000
19.075500 1.611700
19.099900 1.616500
19.124300 1.623500
19.148800 1.595600
19.173200 1.609800
19.197600 1.629200
19.222000 1.605000
19.246400 1.556900
19.270800 1.620400
19.295200 1.638300
19.319600 1.541700
19.344100 1.372900
19.368500 1.215600
19.392900 1.151100
19.417300 1.097800
19.441700 1.039300
19.466100 0.967500
19.490500 0.891800
19.515000 0.810900
19.539400 0.717200
19.563800 0.654000
19.588200 0.586300
19.612600 0.450700
19.637000 0.365900
19.661400 0.320700
19.685900 0.287500
19.710300 0.263600
19.734700 0.251300
19.759100 0.239300
19.783500 0.227300
19.807900 0.215500
19.832300 0.203900
19.856700 0.191200
19.881200 0.179400
19.905600 0.168600
19.930000 0.159300
19.954400 0.151200
19.978800 0.144400
20.003200 0.138600
20.027600 0.133900
20.052100 0.129200
20.076500 0.124400
20.100900 0.119300
20.125300 0.114300
20.149700 0.109400
20.174100 0.104500
20.198500 0.099700
20.223000 0.095100
20.247400 0.090800
20.271800 0.086600
20.296200 0.082600
20.320600 0.079100
20.345000 0.075900
20.369400 0.072700
20.393900 0.069800
20.418300 0.066900
20.442700 0.064300
20.467100 0.062100
20.491500 0.060100
20.515900 0.058600
20.540300 0.057200
20.564700 0.056000
20.589200 0.054800
20.613600 0.053700
20.638000 0.052700
20.662400 0.051700
20.686800 0.049500
20.711200 0.044100
20.735600 0.042300
20.760100 0.040600
20.784500 0.038900
20.808900 0.037200
20.833300 0.035600
20.857700 0.033900
20.882100 0.032300
20.906500 0.030700
20.931000 0.029100
20.955400 0.027000
20.979800 0.025500
21.004200 0.024700
21.028600 0.021800
21.053000 0.012200
21.077400 0.008700
21.101800 0.006900
21.126300 0.005300
21.150700 0.003900
21.175100 0.002700
21.199500 0.001800
21.223900 0.001000
21.248300 0.000500
21.272700 0.000100
21.297200 0.000000
21.321600 0.000000
21.346000 0.000000
21.370400 0.000000
21.394800 0.000000
21.419200 0.000000
21.443600 0.000000
21.468100 0.000000
21.492500 0.000000
21.516900 0.000000
21.541300 0.000000
21.565700 0.000000
21.590100 0.000000
21.614500 0.000000
21.639000 0.000000
21.663400 0.000000
21.687800 0.000000
21.712200 0.000000
21.736600 0.000000
21.761000 0.000000
21.785400 0.000000
21.809800 0.000000
21.834300 0.000000
21.858700 0.000000
21.883100 0.000000
21.907500 0.000000
21.931900 0.000000
21.956300 0.000000
21.980700 0.000000
22.005200 0.000000
22.029600 0.000000
22.054000 0.000000
22.078400 0.000000
22.102800 0.000000
22.127200 0.000000
22.151600 0.000000
22.176100 0.000000
22.200500 0.000000
22.224900 0.000000
22.249300 0.000000
22.273700 0.000000
22.298100 0.000000
22.322500 0.000000
22.347000 0.000000
22.371400 0.000000
22.395800 0.000000
22.420200 0.000000
22.444600 0.000000
22.469000 0.000000
22.493400 0.000000
22.517800 0.000000
22.542300 0.000000
22.566700 0.000000
22.591100 0.000000
22.615500 0.000000
22.639900 0.000000
22.664300 0.000000
22.688700 0.000000
22.713200 0.000000
22.737600 0.000000
22.762000 0.000000
22.786400 0.000000
22.810800 0.000000
22.835200 0.000000
22.859600 0.000000
22.884100 0.000000
22.908500 0.000000
22.932900 0.000000
22.957300 0.000000
22.981700 0.000000
23.006100 0.000000
23.030500 0.000000
23.054900 0.000000
23.079400 0.000000
23.103800 0.000000
23.128200 0.000000
23.152600 0.000000
23.177000 0.000000
23.201400 0.000000
23.225800 0.000000
23.250300 0.000000
23.274700 0.000000
23.299100 0.000000
23.323500 0.000000
23.347900 0.000000
23.372300 0.000000
23.396700 0.000000
23.421200 0.000000
23.445600 0.000000
23.470000 0.000000
23.494400 0.000000
23.518800 0.000000
e
