set title 'mp-1219285 - Density of States'
set xlabel 'Energy (eV)'
set ylabel 'DOS (states/eV)'
set grid
set xrange [-10:10]
set yrange [0:14.660]
set xzeroaxis lt -1
set terminal png size 800,600
set output 'mp-1219285_dos_gnuplot.png'
plot '-' using 1:2 with lines title 'DOS'
-59.963200 0.000000
-59.904600 0.000000
-59.845900 0.000000
-59.787300 0.000000
-59.728600 0.000000
-59.670000 0.000000
-59.611300 0.000000
-59.552700 0.000000
-59.494000 0.000000
-59.435400 0.000000
-59.376700 0.000000
-59.318100 0.000000
-59.259400 0.000000
-59.200800 0.000000
-59.142100 0.000000
-59.083500 0.000000
-59.024800 0.000000
-58.966200 0.000000
-58.907500 0.000000
-58.848900 0.000000
-58.790200 0.000000
-58.731600 0.000000
-58.672900 0.000000
-58.614300 0.000000
-58.555700 0.000000
-58.497000 0.000000
-58.438400 0.000000
-58.379700 0.000000
-58.321100 0.000000
-58.262400 0.000000
-58.203800 0.000000
-58.145100 0.000000
-58.086500 0.000000
-58.027800 0.000000
-57.969200 0.000000
-57.910500 0.000000
-57.851900 0.000000
-57.793200 0.000000
-57.734600 0.000000
-57.675900 0.000000
-57.617300 0.000000
-57.558600 0.000000
-57.500000 0.000000
-57.441300 0.000000
-57.382700 0.000000
-57.324000 0.000000
-57.265400 0.000000
-57.206800 0.000000
-57.148100 0.000000
-57.089500 0.000000
-57.030800 0.000000
-56.972200 0.000000
-56.913500 0.000000
-56.854900 0.000000
-56.796200 0.000000
-56.737600 0.000000
-56.678900 0.000000
-56.620300 0.000000
-56.561600 0.000000
-56.503000 0.000000
-56.444300 0.000000
-56.385700 0.000000
-56.327000 0.000000
-56.268400 0.000000
-56.209700 0.000000
-56.151100 0.000000
-56.092400 0.000000
-56.033800 0.000000
-55.975100 0.000000
-55.916500 0.000000
-55.857800 0.000000
-55.799200 0.000000
-55.740600 0.000000
-55.681900 0.000000
-55.623300 0.000000
-55.564600 0.000000
-55.506000 0.000000
-55.447300 0.000000
-55.388700 0.000000
-55.330000 0.000000
-55.271400 0.000000
-55.212700 0.000000
-55.154100 0.000000
-55.095400 0.000000
-55.036800 0.000000
-54.978100 0.000000
-54.919500 0.000000
-54.860800 0.000000
-54.802200 0.000000
-54.743500 0.000000
-54.684900 0.000000
-54.626200 39.653700
-54.567600 0.000000
-54.508900 0.000000
-54.450300 0.000000
-54.391700 0.000000
-54.333000 36.022200
-54.274400 97.645400
-54.215700 0.000000
-54.157100 0.000000
-54.098400 0.000000
-54.039800 45.989400
-53.981100 46.915300
-53.922500 0.000000
-53.863800 0.000000
-53.805200 0.000000
-53.746500 0.000000
-53.687900 0.000000
-53.629200 0.000000
-53.570600 0.000000
-53.511900 0.000000
-53.453300 0.000000
-53.394600 0.000000
-53.336000 0.000000
-53.277300 0.000000
-53.218700 0.000000
-53.160000 0.000000
-53.101400 0.000000
-53.042700 0.000000
-52.984100 0.000000
-52.925500 0.000000
-52.866800 0.000000
-52.808200 0.000000
-52.749500 0.000000
-52.690900 0.000000
-52.632200 0.000000
-52.573600 0.000000
-52.514900 0.000000
-52.456300 0.000000
-52.397600 0.000000
-52.339000 0.000000
-52.280300 0.000000
-52.221700 0.000000
-52.163000 0.000000
-52.104400 0.000000
-52.045700 0.000000
-51.987100 0.000000
-51.928400 0.000000
-51.869800 0.000000
-51.811100 0.000000
-51.752500 0.000000
-51.693800 0.000000
-51.635200 0.000000
-51.576600 0.000000
-51.517900 0.000000
-51.459300 0.000000
-51.400600 0.000000
-51.342000 0.000000
-51.283300 0.000000
-51.224700 0.000000
-51.166000 0.000000
-51.107400 0.000000
-51.048700 0.000000
-50.990100 0.000000
-50.931400 0.000000
-50.872800 0.000000
-50.814100 0.000000
-50.755500 0.000000
-50.696800 0.000000
-50.638200 0.000000
-50.579500 0.000000
-50.520900 0.000000
-50.462200 0.000000
-50.403600 0.000000
-50.344900 0.000000
-50.286300 0.000000
-50.227600 0.000000
-50.169000 0.000000
-50.110400 0.000000
-50.051700 0.000000
-49.993100 0.000000
-49.934400 0.000000
-49.875800 0.000000
-49.817100 0.000000
-49.758500 0.000000
-49.699800 0.000000
-49.641200 0.000000
-49.582500 0.000000
-49.523900 0.000000
-49.465200 0.000000
-49.406600 0.000000
-49.347900 0.000000
-49.289300 0.000000
-49.230600 0.000000
-49.172000 0.000000
-49.113300 0.000000
-49.054700 0.000000
-48.996000 0.000000
-48.937400 0.000000
-48.878700 0.000000
-48.820100 0.000000
-48.761500 0.000000
-48.702800 0.000000
-48.644200 0.000000
-48.585500 0.000000
-48.526900 0.000000
-48.468200 0.000000
-48.409600 0.000000
-48.350900 0.000000
-48.292300 0.000000
-48.233600 0.000000
-48.175000 0.000000
-48.116300 0.000000
-48.057700 0.000000
-47.999000 0.000000
-47.940400 0.000000
-47.881700 0.000000
-47.823100 0.000000
-47.764400 0.000000
-47.705800 0.000000
-47.647100 0.000000
-47.588500 0.000000
-47.529800 0.000000
-47.471200 0.000000
-47.412500 0.000000
-47.353900 0.000000
-47.295300 0.000000
-47.236600 0.000000
-47.178000 0.000000
-47.119300 0.000000
-47.060700 0.000000
-47.002000 0.000000
-46.943400 0.000000
-46.884700 0.000000
-46.826100 0.000000
-46.767400 0.000000
-46.708800 0.000000
-46.650100 0.000000
-46.591500 0.000000
-46.532800 0.000000
-46.474200 0.000000
-46.415500 0.000000
-46.356900 0.000000
-46.298200 0.000000
-46.239600 0.000000
-46.180900 0.000000
-46.122300 0.000000
-46.063600 0.000000
-46.005000 0.000000
-45.946400 0.000000
-45.887700 0.000000
-45.829100 0.000000
-45.770400 0.000000
-45.711800 0.000000
-45.653100 0.000000
-45.594500 0.000000
-45.535800 0.000000
-45.477200 0.000000
-45.418500 0.000000
-45.359900 0.000000
-45.301200 0.000000
-45.242600 0.000000
-45.183900 0.000000
-45.125300 0.000000
-45.066600 0.000000
-45.008000 0.000000
-44.949300 0.000000
-44.890700 0.000000
-44.832000 0.000000
-44.773400 0.000000
-44.714700 0.000000
-44.656100 0.000000
-44.597500 0.000000
-44.538800 0.000000
-44.480200 0.000000
-44.421500 0.000000
-44.362900 0.000000
-44.304200 0.000000
-44.245600 0.000000
-44.186900 0.000000
-44.128300 0.000000
-44.069600 0.000000
-44.011000 0.000000
-43.952300 0.000000
-43.893700 0.000000
-43.835000 0.000000
-43.776400 0.000000
-43.717700 0.000000
-43.659100 0.000000
-43.600400 0.000000
-43.541800 0.000000
-43.483100 0.000000
-43.424500 0.000000
-43.365800 0.000000
-43.307200 0.000000
-43.248500 0.000000
-43.189900 0.000000
-43.131300 0.000000
-43.072600 0.000000
-43.014000 0.000000
-42.955300 0.000000
-42.896700 0.000000
-42.838000 0.000000
-42.779400 0.000000
-42.720700 0.000000
-42.662100 0.000000
-42.603400 0.000000
-42.544800 0.000000
-42.486100 0.000000
-42.427500 0.000000
-42.368800 0.000000
-42.310200 0.000000
-42.251500 0.000000
-42.192900 0.000000
-42.134200 0.000000
-42.075600 0.000000
-42.016900 0.000000
-41.958300 0.000000
-41.899600 0.000000
-41.841000 0.000000
-41.782400 0.000000
-41.723700 0.000000
-41.665100 0.000000
-41.606400 0.000000
-41.547800 0.000000
-41.489100 0.000000
-41.430500 0.000000
-41.371800 0.000000
-41.313200 0.000000
-41.254500 0.000000
-41.195900 0.000000
-41.137200 0.000000
-41.078600 0.000000
-41.019900 0.000000
-40.961300 0.000000
-40.902600 0.000000
-40.844000 0.000000
-40.785300 0.000000
-40.726700 0.000000
-40.668000 0.000000
-40.609400 0.000000
-40.550700 0.000000
-40.492100 0.000000
-40.433400 0.000000
-40.374800 0.000000
-40.316200 0.000000
-40.257500 0.000000
-40.198900 0.000000
-40.140200 0.000000
-40.081600 0.000000
-40.022900 0.000000
-39.964300 0.000000
-39.905600 0.000000
-39.847000 0.000000
-39.788300 0.000000
-39.729700 0.000000
-39.671000 0.000000
-39.612400 0.000000
-39.553700 0.000000
-39.495100 0.000000
-39.436400 0.000000
-39.377800 0.000000
-39.319100 0.000000
-39.260500 0.000000
-39.201800 0.000000
-39.143200 0.000000
-39.084500 0.000000
-39.025900 0.000000
-38.967300 0.000000
-38.908600 0.000000
-38.850000 0.000000
-38.791300 0.000000
-38.732700 0.000000
-38.674000 0.000000
-38.615400 0.000000
-38.556700 0.000000
-38.498100 0.000000
-38.439400 0.000000
-38.380800 0.000000
-38.322100 0.000000
-38.263500 0.000000
-38.204800 0.000000
-38.146200 0.000000
-38.087500 0.000000
-38.028900 0.000000
-37.970200 0.000000
-37.911600 0.000000
-37.852900 0.000000
-37.794300 0.000000
-37.735600 0.000000
-37.677000 0.000000
-37.618300 0.000000
-37.559700 0.000000
-37.501100 0.000000
-37.442400 0.000000
-37.383800 0.000000
-37.325100 0.000000
-37.266500 0.000000
-37.207800 0.000000
-37.149200 0.000000
-37.090500 0.000000
-37.031900 0.000000
-36.973200 0.000000
-36.914600 0.000000
-36.855900 0.000000
-36.797300 0.000000
-36.738600 0.000000
-36.680000 0.000000
-36.621300 0.000000
-36.562700 0.000000
-36.504000 0.000000
-36.445400 0.000000
-36.386700 0.000000
-36.328100 0.000000
-36.269400 0.000000
-36.210800 0.000000
-36.152200 0.000000
-36.093500 0.000000
-36.034900 0.000000
-35.976200 0.000000
-35.917600 0.000000
-35.858900 0.000000
-35.800300 0.000000
-35.741600 0.000000
-35.683000 0.000000
-35.624300 0.000000
-35.565700 0.000000
-35.507000 0.000000
-35.448400 0.000000
-35.389700 0.000000
-35.331100 0.000000
-35.272400 0.000000
-35.213800 0.000000
-35.155100 0.000000
-35.096500 0.000000
-35.037800 0.000000
-34.979200 0.000000
-34.920500 0.000000
-34.861900 0.000000
-34.803200 0.000000
-34.744600 0.000000
-34.686000 0.000000
-34.627300 0.000000
-34.568700 0.000000
-34.510000 0.000000
-34.451400 0.000000
-34.392700 0.000000
-34.334100 0.000000
-34.275400 0.000000
-34.216800 0.000000
-34.158100 0.000000
-34.099500 0.000000
-34.040800 0.000000
-33.982200 0.000000
-33.923500 0.000000
-33.864900 0.000000
-33.806200 0.000000
-33.747600 0.000000
-33.688900 0.000000
-33.630300 0.000000
-33.571600 0.000000
-33.513000 0.000000
-33.454300 0.000000
-33.395700 0.000000
-33.337100 0.000000
-33.278400 0.000000
-33.219800 0.000000
-33.161100 0.000000
-33.102500 0.000000
-33.043800 0.000000
-32.985200 0.000000
-32.926500 0.000000
-32.867900 0.000000
-32.809200 0.000000
-32.750600 0.000000
-32.691900 0.000000
-32.633300 0.000000
-32.574600 0.000000
-32.516000 0.000000
-32.457300 0.000000
-32.398700 0.000000
-32.340000 0.000000
-32.281400 0.000000
-32.222700 0.000000
-32.164100 0.000000
-32.105400 0.000000
-32.046800 0.000000
-31.988100 0.000000
-31.929500 0.000000
-31.870900 0.000000
-31.812200 0.000000
-31.753600 0.000000
-31.694900 0.000000
-31.636300 0.000000
-31.577600 0.000000
-31.519000 0.000000
-31.460300 0.000000
-31.401700 0.000000
-31.343000 0.000000
-31.284400 0.000000
-31.225700 0.000000
-31.167100 0.000000
-31.108400 0.000000
-31.049800 0.000000
-30.991100 0.000000
-30.932500 0.000000
-30.873800 0.000000
-30.815200 0.000000
-30.756500 0.000000
-30.697900 0.000000
-30.639200 0.000000
-30.580600 0.000000
-30.522000 0.000000
-30.463300 0.000000
-30.404700 0.000000
-30.346000 0.000000
-30.287400 0.000000
-30.228700 0.000000
-30.170100 0.000000
-30.111400 0.000000
-30.052800 0.000000
-29.994100 0.000000
-29.935500 0.000000
-29.876800 0.000000
-29.818200 0.000000
-29.759500 0.000000
-29.700900 0.000000
-29.642200 0.000000
-29.583600 0.000000
-29.524900 0.000000
-29.466300 0.000000
-29.407600 0.000000
-29.349000 0.000000
-29.290300 0.000000
-29.231700 0.000000
-29.173000 0.000000
-29.114400 0.000000
-29.055800 0.000000
-28.997100 0.000000
-28.938500 0.000000
-28.879800 0.000000
-28.821200 0.000000
-28.762500 0.000000
-28.703900 0.000000
-28.645200 0.000000
-28.586600 0.000000
-28.527900 0.000000
-28.469300 0.000000
-28.410600 0.000000
-28.352000 0.000000
-28.293300 0.000000
-28.234700 0.000000
-28.176000 0.000000
-28.117400 0.000000
-28.058700 0.000000
-28.000100 0.000000
-27.941400 0.000000
-27.882800 0.000000
-27.824100 0.000000
-27.765500 0.000000
-27.706900 0.000000
-27.648200 0.000000
-27.589600 0.000000
-27.530900 0.000000
-27.472300 0.000000
-27.413600 0.000000
-27.355000 0.000000
-27.296300 0.000000
-27.237700 0.000000
-27.179000 0.000000
-27.120400 0.000000
-27.061700 0.000000
-27.003100 0.000000
-26.944400 0.000000
-26.885800 0.000000
-26.827100 0.000000
-26.768500 0.000000
-26.709800 0.000000
-26.651200 0.000000
-26.592500 0.000000
-26.533900 0.000000
-26.475200 0.000000
-26.416600 0.000000
-26.357900 0.000000
-26.299300 0.000000
-26.240700 0.000000
-26.182000 0.000000
-26.123400 0.000000
-26.064700 0.000000
-26.006100 0.000000
-25.947400 0.000000
-25.888800 0.000000
-25.830100 0.000000
-25.771500 0.000000
-25.712800 0.000000
-25.654200 0.000000
-25.595500 0.000000
-25.536900 0.000000
-25.478200 0.000000
-25.419600 0.000000
-25.360900 0.000000
-25.302300 0.000000
-25.243600 0.000000
-25.185000 0.000000
-25.126300 0.000000
-25.067700 0.000000
-25.009000 0.000000
-24.950400 0.000000
-24.891800 0.000000
-24.833100 0.000000
-24.774500 0.000000
-24.715800 0.000000
-24.657200 0.000000
-24.598500 0.000000
-24.539900 0.000000
-24.481200 0.000000
-24.422600 0.000000
-24.363900 0.000000
-24.305300 0.000000
-24.246600 0.000000
-24.188000 0.000000
-24.129300 0.000000
-24.070700 0.000000
-24.012000 0.000000
-23.953400 0.000000
-23.894700 0.000000
-23.836100 0.000000
-23.777400 0.000000
-23.718800 0.000000
-23.660100 0.000000
-23.601500 0.000000
-23.542900 0.000000
-23.484200 0.000000
-23.425600 0.000000
-23.366900 0.000000
-23.308300 0.000000
-23.249600 0.000000
-23.191000 0.000000
-23.132300 0.000000
-23.073700 0.000000
-23.015000 0.000000
-22.956400 0.000000
-22.897700 0.000000
-22.839100 0.000000
-22.780400 0.000000
-22.721800 0.000000
-22.663100 0.000000
-22.604500 0.000000
-22.545800 0.000000
-22.487200 0.000000
-22.428500 0.000000
-22.369900 0.000000
-22.311200 0.000000
-22.252600 0.000000
-22.193900 0.000000
-22.135300 0.000000
-22.076700 0.000000
-22.018000 0.000000
-21.959400 0.000000
-21.900700 0.000000
-21.842100 0.000000
-21.783400 0.000000
-21.724800 0.000000
-21.666100 0.000000
-21.607500 0.000000
-21.548800 0.000000
-21.490200 0.000000
-21.431500 0.000000
-21.372900 0.000000
-21.314200 0.000000
-21.255600 0.000000
-21.196900 0.000000
-21.138300 0.000000
-21.079600 0.000000
-21.021000 0.000000
-20.962300 0.000000
-20.903700 0.000000
-20.845000 0.000000
-20.786400 0.000000
-20.727800 0.000000
-20.669100 0.000000
-20.610500 0.000000
-20.551800 0.000000
-20.493200 0.000000
-20.434500 0.000000
-20.375900 0.000000
-20.317200 0.000000
-20.258600 0.000000
-20.199900 0.000000
-20.141300 0.000000
-20.082600 0.000000
-20.024000 0.000000
-19.965300 0.000000
-19.906700 0.000000
-19.848000 0.000000
-19.789400 0.000000
-19.730700 0.000000
-19.672100 0.000000
-19.613400 0.000000
-19.554800 0.000000
-19.496100 0.000000
-19.437500 0.000000
-19.378800 0.000000
-19.320200 0.000000
-19.261600 0.000000
-19.202900 0.000000
-19.144300 0.000000
-19.085600 0.000000
-19.027000 0.000000
-18.968300 0.000000
-18.909700 0.000000
-18.851000 0.000000
-18.792400 0.000000
-18.733700 0.000000
-18.675100 0.000000
-18.616400 0.000000
-18.557800 0.000000
-18.499100 0.000000
-18.440500 0.000000
-18.381800 0.000000
-18.323200 0.000000
-18.264500 0.000000
-18.205900 0.000000
-18.147200 0.000000
-18.088600 0.000000
-18.029900 0.000000
-17.971300 0.000000
-17.912700 0.000000
-17.854000 0.000000
-17.795400 0.000000
-17.736700 0.000000
-17.678100 0.000000
-17.619400 0.000000
-17.560800 0.000000
-17.502100 0.000000
-17.443500 0.000000
-17.384800 0.000000
-17.326200 0.000000
-17.267500 0.000000
-17.208900 0.000000
-17.150200 0.000000
-17.091600 0.000000
-17.032900 0.000000
-16.974300 0.000000
-16.915600 0.000000
-16.857000 0.000000
-16.798300 0.000000
-16.739700 0.000000
-16.681000 0.000000
-16.622400 0.000000
-16.563700 0.000000
-16.505100 0.000000
-16.446500 0.000000
-16.387800 0.000000
-16.329200 0.000000
-16.270500 0.000000
-16.211900 0.000000
-16.153200 0.000000
-16.094600 0.000000
-16.035900 0.000000
-15.977300 0.000000
-15.918600 0.000000
-15.860000 0.000000
-15.801300 0.000000
-15.742700 0.000000
-15.684000 0.000000
-15.625400 0.000000
-15.566700 0.000000
-15.508100 0.000000
-15.449400 0.000000
-15.390800 0.000000
-15.332100 0.000000
-15.273500 0.000000
-15.214800 0.000000
-15.156200 0.000000
-15.097600 0.000000
-15.038900 0.000000
-14.980300 0.000000
-14.921600 0.000000
-14.863000 0.000000
-14.804300 0.000000
-14.745700 0.000000
-14.687000 0.000000
-14.628400 0.000000
-14.569700 0.000000
-14.511100 0.000000
-14.452400 0.000000
-14.393800 0.000000
-14.335100 0.000000
-14.276500 0.000000
-14.217800 0.000000
-14.159200 0.000000
-14.100500 0.000000
-14.041900 0.000000
-13.983200 0.000000
-13.924600 0.000000
-13.865900 0.000000
-13.807300 0.000000
-13.748600 0.000000
-13.690000 0.000000
-13.631400 0.000000
-13.572700 0.000000
-13.514100 0.000000
-13.455400 0.000000
-13.396800 0.000000
-13.338100 0.000000
-13.279500 0.000000
-13.220800 0.000000
-13.162200 0.000000
-13.103500 0.000000
-13.044900 0.000000
-12.986200 0.000000
-12.927600 0.000000
-12.868900 0.000000
-12.810300 0.000000
-12.751600 0.000000
-12.693000 0.000000
-12.634300 0.000000
-12.575700 0.000000
-12.517000 0.000000
-12.458400 0.000000
-12.399700 0.000000
-12.341100 0.000000
-12.282500 0.000000
-12.223800 0.000000
-12.165200 0.000000
-12.106500 0.000000
-12.047900 0.000000
-11.989200 0.000000
-11.930600 0.000000
-11.871900 0.000000
-11.813300 0.000000
-11.754600 0.000000
-11.696000 0.000000
-11.637300 0.000000
-11.578700 0.000000
-11.520000 0.000000
-11.461400 0.000000
-11.402700 0.000000
-11.344100 0.000000
-11.285400 0.000000
-11.226800 0.000000
-11.168100 0.000000
-11.109500 0.000000
-11.050800 0.000000
-10.992200 0.000000
-10.933500 0.000000
-10.874900 0.000000
-10.816300 0.000000
-10.757600 0.000000
-10.699000 0.000000
-10.640300 0.000000
-10.581700 0.000000
-10.523000 0.000000
-10.464400 0.000000
-10.405700 0.000000
-10.347100 0.000000
-10.288400 0.000000
-10.229800 0.000000
-10.171100 0.000000
-10.112500 0.000000
-10.053800 0.000000
-9.995200 0.000000
-9.936500 0.000000
-9.877900 0.000000
-9.819200 0.000000
-9.760600 0.000000
-9.701900 0.000000
-9.643300 0.000000
-9.584600 0.000000
-9.526000 0.000000
-9.467400 0.000000
-9.408700 0.000000
-9.350100 0.000000
-9.291400 0.000000
-9.232800 0.000000
-9.174100 0.000000
-9.115500 0.000000
-9.056800 0.000000
-8.998200 0.000000
-8.939500 0.000000
-8.880900 0.000000
-8.822200 0.000000
-8.763600 0.000000
-8.704900 0.000000
-8.646300 0.000000
-8.587600 0.000000
-8.529000 0.000000
-8.470300 0.000000
-8.411700 0.000000
-8.353000 0.000000
-8.294400 0.000000
-8.235700 0.000000
-8.177100 0.000000
-8.118400 0.000000
-8.059800 0.000000
-8.001200 0.000000
-7.942500 0.000000
-7.883900 0.000000
-7.825200 0.000000
-7.766600 0.000000
-7.707900 0.000000
-7.649300 0.000000
-7.590600 0.000000
-7.532000 0.000000
-7.473300 0.000000
-7.414700 0.000000
-7.356000 0.000000
-7.297400 0.000000
-7.238700 0.000000
-7.180100 0.000000
-7.121400 0.000000
-7.062800 0.000000
-7.004100 0.000000
-6.945500 0.000000
-6.886800 0.000000
-6.828200 0.000000
-6.769500 0.000000
-6.710900 0.000000
-6.652300 0.000000
-6.593600 0.000000
-6.535000 0.000000
-6.476300 0.000000
-6.417700 0.000000
-6.359000 0.000000
-6.300400 0.000000
-6.241700 0.000000
-6.183100 0.000000
-6.124400 0.000000
-6.065800 0.000000
-6.007100 0.000000
-5.948500 0.000000
-5.889800 0.000000
-5.831200 0.000000
-5.772500 0.000000
-5.713900 0.000000
-5.655200 0.000000
-5.596600 0.000000
-5.537900 0.000000
-5.479300 0.000000
-5.420600 0.000000
-5.362000 0.000000
-5.303300 0.000000
-5.244700 0.000000
-5.186100 0.000000
-5.127400 0.000000
-5.068800 0.000000
-5.010100 0.000000
-4.951500 0.000000
-4.892800 0.000000
-4.834200 0.000000
-4.775500 0.000000
-4.716900 0.000000
-4.658200 0.069800
-4.599600 0.243300
-4.540900 0.332100
-4.482300 0.227500
-4.423600 0.242200
-4.365000 0.256800
-4.306300 0.271500
-4.247700 0.283600
-4.189000 0.266500
-4.130400 0.248900
-4.071700 0.245700
-4.013100 0.250900
-3.954400 0.256200
-3.895800 0.261500
-3.837200 0.266700
-3.778500 0.272000
-3.719900 0.277300
-3.661200 0.259900
-3.602600 0.259000
-3.543900 0.258200
-3.485300 0.257400
-3.426600 0.256500
-3.368000 0.257700
-3.309300 0.260500
-3.250700 0.263300
-3.192000 0.266100
-3.133400 0.268900
-3.074700 0.271700
-3.016100 0.274500
-2.957400 0.273800
-2.898800 0.267600
-2.840100 0.261700
-2.781500 0.262300
-2.722800 0.263100
-2.664200 0.263900
-2.605500 0.264600
-2.546900 0.265400
-2.488200 0.266100
-2.429600 0.266900
-2.371000 0.268600
-2.312300 0.270400
-2.253700 0.272200
-2.195000 0.274100
-2.136400 0.275900
-2.077700 0.277700
-2.019100 0.279500
-1.960400 0.272300
-1.901800 0.271600
-1.843100 0.270800
-1.784500 0.270000
-1.725800 0.269800
-1.667200 0.270700
-1.608500 0.271700
-1.549900 0.272600
-1.491200 0.273600
-1.432600 0.274500
-1.373900 0.275500
-1.315300 0.276400
-1.256600 0.277400
-1.198000 0.278400
-1.139300 0.279700
-1.080700 0.281100
-1.022100 0.282400
-0.963400 0.283800
-0.904800 0.283300
-0.846100 0.281200
-0.787500 0.279800
-0.728800 0.280200
-0.670200 0.280500
-0.611500 0.280900
-0.552900 0.281300
-0.494200 0.281700
-0.435600 0.282100
-0.376900 0.282800
-0.318300 0.283800
-0.259600 0.284800
-0.201000 0.285800
-0.142300 0.286800
-0.083700 0.287800
-0.025000 0.288800
0.033600 0.289800
0.092300 0.290800
0.150900 0.291800
0.209600 0.292900
0.268200 0.294100
0.326800 0.295400
0.385500 0.300200
0.444100 0.333200
0.502800 0.380600
0.561400 0.391200
0.620100 0.405000
0.678700 0.421700
0.737400 0.439400
0.796000 0.457900
0.854700 0.476300
0.913300 0.491000
0.972000 0.505700
1.030600 0.523400
1.089300 0.547500
1.147900 0.692600
1.206600 0.661000
1.265200 0.644600
1.323900 0.627800
1.382500 0.610400
1.441200 0.592000
1.499800 0.567600
1.558500 0.544300
1.617100 0.522900
1.675800 0.503300
1.734400 0.484400
1.793000 0.473400
1.851700 0.712700
1.910300 0.670500
1.969000 0.632100
2.027600 0.579000
2.086300 0.525300
2.144900 0.502600
2.203600 0.520900
2.262200 0.562200
2.320900 0.610200
2.379500 0.657500
2.438200 0.704700
2.496800 0.752700
2.555500 0.801400
2.614100 0.850300
2.672800 0.899300
2.731400 0.736300
2.790100 0.751500
2.848700 0.766900
2.907400 0.782700
2.966000 0.799000
3.024700 0.815600
3.083300 0.832400
3.141900 0.809100
3.200600 0.832700
3.259200 0.948100
3.317900 1.339100
3.376500 1.006800
3.435200 1.039700
3.493800 1.090300
3.552500 1.141900
3.611100 1.174300
3.669800 1.212700
3.728400 1.271000
3.787100 1.335300
3.845700 1.369200
3.904400 1.385900
3.963000 1.389000
4.021700 1.368300
4.080300 1.316000
4.139000 1.212100
4.197600 1.132600
4.256300 1.081900
4.314900 1.094500
4.373600 1.225100
4.432200 1.777500
4.490900 3.572500
4.549500 2.890000
4.608100 2.632400
4.666800 2.485500
4.725400 2.434700
4.784100 2.694500
4.842700 3.369600
4.901400 3.056000
4.960000 1.972600
5.018700 1.802600
5.077300 1.871500
5.136000 2.310100
5.194600 2.763400
5.253300 2.568500
5.311900 3.320700
5.370600 5.396200
5.429200 5.596100
5.487900 3.730400
5.546500 3.266400
5.605200 3.386200
5.663800 4.153800
5.722500 5.546500
5.781100 3.285700
5.839800 5.349400
5.898400 5.424200
5.957000 5.619500
6.015700 6.584500
6.074300 5.365500
6.133000 4.542100
6.191600 6.832000
6.250300 6.888200
6.308900 9.643800
6.367600 8.487100
6.426200 10.033100
6.484900 5.434100
6.543500 5.501500
6.602200 6.380300
6.660800 7.149600
6.719500 7.226000
6.778100 6.572200
6.836800 7.685000
6.895400 6.899800
6.954100 6.761800
7.012700 7.926400
7.071400 8.296000
7.130000 10.309200
7.188700 9.302800
7.247300 12.407800
7.306000 12.223000
7.364600 13.172700
7.423200 8.179200
7.481900 7.866700
7.540500 8.949600
7.599200 6.578600
7.657800 5.413900
7.716500 5.323100
7.775100 8.025900
7.833800 5.885000
7.892400 5.769800
7.951100 7.415100
8.009700 10.416300
8.068400 8.674000
8.127000 7.307200
8.185700 6.938500
8.244300 9.580100
8.303000 6.892600
8.361600 6.155600
8.420300 6.250400
8.478900 6.995600
8.537600 6.311300
8.596200 6.523100
8.654900 7.241000
8.713500 8.467200
8.772100 13.327300
8.830800 7.957900
8.889400 5.353100
8.948100 6.052300
9.006700 8.205200
9.065400 2.753600
9.124000 3.909400
9.182700 3.824700
9.241300 3.800400
9.300000 4.214100
9.358600 2.799700
9.417300 2.263900
9.475900 2.015100
9.534600 1.862200
9.593200 1.736000
9.651900 1.650600
9.710500 1.509500
9.769200 1.374400
9.827800 1.495900
9.886500 1.742400
9.945100 1.844200
10.003800 1.568900
10.062400 1.459300
10.121100 1.498100
10.179700 1.563400
10.238300 1.602000
10.297000 1.588900
10.355600 1.547300
10.414300 1.531100
10.472900 1.521200
10.531600 1.548200
10.590200 1.643200
10.648900 1.333700
10.707500 1.350300
10.766200 1.613500
10.824800 2.098500
10.883500 1.710100
10.942100 1.696900
11.000800 1.351200
11.059400 1.143300
11.118100 0.948600
11.176700 0.836000
11.235400 0.728000
11.294000 0.652000
11.352700 0.628500
11.411300 0.643400
11.470000 0.828800
11.528600 0.773400
11.587200 0.698300
11.645900 0.783500
11.704500 0.881600
11.763200 0.950500
11.821800 1.023700
11.880500 1.142400
11.939100 1.078100
11.997800 1.185500
12.056400 1.190500
12.115100 1.217100
12.173700 1.208700
12.232400 1.153500
12.291000 1.053400
12.349700 0.985000
12.408300 0.938100
12.467000 0.891100
12.525600 0.876800
12.584300 0.860300
12.642900 0.941200
12.701600 1.036100
12.760200 1.174000
12.818900 1.354900
12.877500 1.509600
12.936200 1.295900
12.994800 1.058800
13.053400 1.034200
13.112100 1.064000
13.170700 0.992700
13.229400 0.985300
13.288000 0.993400
13.346700 1.014400
13.405300 1.035800
13.464000 1.087600
13.522600 1.099300
13.581300 1.101200
13.639900 1.108200
13.698600 1.077000
13.757200 1.270200
13.815900 0.965400
13.874500 0.915000
13.933200 0.845000
13.991800 0.782500
14.050500 0.756200
14.109100 0.768600
14.167800 0.812600
14.226400 0.945100
14.285100 1.229400
14.343700 1.304900
14.402300 1.279400
14.461000 1.369000
14.519600 1.276800
14.578300 1.189000
14.636900 1.217000
14.695600 1.367200
14.754200 1.368600
14.812900 1.405300
14.871500 1.432300
14.930200 1.487400
14.988800 1.539300
15.047500 1.686900
15.106100 1.656500
15.164800 1.660300
15.223400 1.680800
15.282100 1.664300
15.340700 1.614900
15.399400 1.618400
15.458000 1.655900
15.516700 1.704800
15.575300 1.848400
15.634000 1.764600
15.692600 1.750300
15.751300 1.680700
15.809900 1.470500
15.868500 1.328100
15.927200 1.247600
15.985800 1.214300
16.044500 1.231100
16.103100 1.206600
16.161800 1.240300
16.220400 1.249800
16.279100 1.252400
16.337700 1.262300
16.396400 1.266900
16.455000 1.227900
16.513700 1.354700
16.572300 1.433100
16.631000 1.472800
16.689600 1.485000
16.748300 1.481200
16.806900 1.460200
16.865600 1.310600
16.924200 1.330800
16.982900 1.344800
17.041500 1.347900
17.100200 1.352700
17.158800 1.305000
17.217400 1.282900
17.276100 1.298400
17.334700 1.295300
17.393400 1.437000
17.452000 1.291600
17.510700 1.285000
17.569300 1.268200
17.628000 1.228200
17.686600 1.190200
17.745300 1.259300
17.803900 1.232500
17.862600 1.215900
17.921200 1.205700
17.979900 1.134600
18.038500 1.097100
18.097200 1.074700
18.155800 1.080200
18.214500 1.115000
18.273100 1.091200
18.331800 1.097800
18.390400 1.148800
18.449100 1.195100
18.507700 1.252500
18.566400 1.305000
18.625000 1.375900
18.683600 1.378600
18.742300 1.299700
18.800900 1.322500
18.859600 1.374400
18.918200 1.417700
18.976900 1.456400
19.035500 1.518000
19.094200 1.566500
19.152800 1.590000
19.211500 1.580800
19.270100 1.551300
19.328800 1.532700
19.387400 1.538800
19.446100 1.486800
19.504700 1.478400
19.563400 1.460300
19.622000 1.464000
19.680700 1.479000
19.739300 1.571100
19.798000 1.521900
19.856600 1.523200
19.915300 1.661800
19.973900 1.737100
20.032500 1.762900
20.091200 1.560800
20.149800 1.490600
20.208500 1.452400
20.267100 1.410700
20.325800 1.364700
20.384400 1.325300
20.443100 1.334700
20.501700 1.371200
20.560400 1.385000
20.619000 1.410200
20.677700 1.515700
20.736300 1.524500
20.795000 1.544300
20.853600 1.594200
20.912300 1.626000
20.970900 1.611600
21.029600 1.696200
21.088200 1.760700
21.146900 1.866800
21.205500 1.916100
21.264200 1.935600
21.322800 1.948800
21.381400 1.906100
21.440100 1.813800
21.498700 1.792400
21.557400 1.744300
21.616000 1.735800
21.674700 1.768200
21.733300 1.748100
21.792000 1.735400
21.850600 1.801100
21.909300 1.820500
21.967900 1.775800
22.026600 1.722800
22.085200 1.721700
22.143900 1.837000
22.202500 1.961500
22.261200 1.789600
22.319800 1.748800
22.378500 1.741600
22.437100 1.762400
22.495800 1.761800
22.554400 1.753800
22.613100 1.725200
22.671700 1.701300
22.730400 1.707200
22.789000 1.671800
22.847600 1.644300
22.906300 1.620800
22.964900 1.616800
23.023600 1.616100
23.082200 1.704000
23.140900 1.700700
23.199500 1.679500
23.258200 1.683300
23.316800 1.660700
23.375500 1.637400
23.434100 1.643000
23.492800 2.162900
23.551400 2.037600
23.610100 1.755600
23.668700 1.568100
23.727400 1.402800
23.786000 1.390700
23.844700 1.420500
23.903300 1.467800
23.962000 1.521000
24.020600 1.567900
24.079300 1.608500
24.137900 1.683900
24.196500 1.783400
24.255200 1.774400
24.313800 1.776400
24.372500 1.712500
24.431100 1.671700
24.489800 1.612800
24.548400 1.586700
24.607100 1.567200
24.665700 1.550300
24.724400 1.546200
24.783000 1.554300
24.841700 1.578100
24.900300 1.614900
24.959000 1.618100
25.017600 1.589600
25.076300 1.538500
25.134900 1.545000
25.193600 1.560600
25.252200 1.579900
25.310900 1.617100
25.369500 1.683900
25.428200 1.682700
25.486800 1.687100
25.545500 1.707800
25.604100 1.719200
25.662700 1.709900
25.721400 1.667200
25.780000 1.621800
25.838700 1.596100
25.897300 1.556500
25.956000 1.570300
26.014600 1.619900
26.073300 1.581500
26.131900 1.546200
26.190600 1.495800
26.249200 1.422500
26.307900 1.370200
26.366500 1.325700
26.425200 1.305700
26.483800 1.307800
26.542500 1.322100
26.601100 1.339600
26.659800 1.357400
26.718400 1.375300
26.777100 1.393300
26.835700 1.420000
26.894400 1.457200
26.953000 1.477900
27.011600 1.490500
27.070300 1.520900
27.128900 1.532400
27.187600 1.510900
27.246200 1.517700
27.304900 1.544600
27.363500 1.579800
27.422200 1.594400
27.480800 1.596700
27.539500 1.656900
27.598100 1.668800
27.656800 1.657500
27.715400 1.622100
27.774100 1.616600
27.832700 1.582400
27.891400 1.576900
27.950000 1.611000
28.008700 1.686600
28.067300 1.668500
28.126000 1.621100
28.184600 1.541800
28.243300 1.514700
28.301900 1.526800
28.360600 1.523300
28.419200 1.628000
28.477800 1.572900
28.536500 1.628000
28.595100 1.718400
28.653800 1.769600
28.712400 1.758100
28.771100 1.752500
28.829700 1.767100
28.888400 1.744900
28.947000 1.681300
29.005700 1.662900
29.064300 1.651900
29.123000 1.646600
29.181600 1.635300
29.240300 1.647500
29.298900 1.745600
29.357600 1.687000
29.416200 1.567800
29.474900 1.551100
29.533500 1.563400
29.592200 1.531900
29.650800 1.460500
29.709500 1.472600
29.768100 1.551200
29.826700 1.661100
29.885400 1.535400
29.944000 1.519600
30.002700 1.646200
30.061300 1.792500
30.120000 1.927900
30.178600 2.036400
30.237300 2.211400
30.295900 2.386000
30.354600 2.209600
30.413200 2.118000
30.471900 1.982000
30.530500 1.911400
30.589200 1.843700
30.647800 1.768700
30.706500 1.760300
30.765100 1.772200
30.823800 1.890100
30.882400 1.903600
30.941100 1.845900
30.999700 1.635400
31.058400 1.612600
31.117000 1.669700
31.175700 1.651900
31.234300 1.694700
31.292900 1.855600
31.351600 2.165200
31.410200 2.309600
31.468900 2.418100
31.527500 2.479700
31.586200 2.522500
31.644800 2.504100
31.703500 2.478000
31.762100 2.472000
31.820800 2.472700
31.879400 2.355300
31.938100 2.293900
31.996700 2.348200
32.055400 2.430100
32.114000 2.557900
32.172700 2.426700
32.231300 2.226400
32.290000 2.008400
32.348600 1.914900
32.407300 1.886800
32.465900 1.846500
32.524600 1.868900
32.583200 1.793100
32.641800 1.805900
32.700500 1.817600
32.759100 1.823200
32.817800 1.841100
32.876400 1.855800
32.935100 1.851100
32.993700 1.798300
33.052400 1.676900
33.111000 1.624600
33.169700 1.644000
33.228300 1.633400
33.287000 1.636000
33.345600 1.655900
33.404300 1.702300
33.462900 1.764200
33.521600 1.907900
33.580200 1.969000
33.638900 1.971000
33.697500 1.993500
33.756200 1.985200
33.814800 1.982300
33.873500 1.900100
33.932100 1.781300
33.990800 1.711800
34.049400 1.764300
34.108000 1.668200
34.166700 1.629900
34.225300 1.703000
34.284000 1.585400
34.342600 1.611400
34.401300 1.693300
34.459900 1.729800
34.518600 1.768400
34.577200 1.618700
34.635900 1.486400
34.694500 1.507400
34.753200 1.626000
34.811800 1.714700
34.870500 1.762700
34.929100 1.927300
34.987800 2.087300
35.046400 2.004900
35.105100 2.000600
35.163700 2.017300
35.222400 2.181300
35.281000 2.197400
35.339700 2.371900
35.398300 2.453800
35.456900 2.237500
35.515600 2.096700
35.574200 2.023800
35.632900 1.932800
35.691500 1.992700
35.750200 2.029300
35.808800 2.104200
35.867500 2.155000
35.926100 2.228800
35.984800 2.348900
36.043400 2.404200
36.102100 2.287900
36.160700 2.216200
36.219400 2.136800
36.278000 2.006800
36.336700 2.143100
36.395300 2.065000
36.454000 1.931900
36.512600 1.784000
36.571300 1.661700
36.629900 1.641100
36.688600 1.638200
36.747200 1.622000
36.805900 1.712800
36.864500 1.700900
36.923100 1.670600
36.981800 1.702500
37.040400 1.736400
37.099100 1.725100
37.157700 1.636600
37.216400 1.590100
37.275000 1.549700
37.333700 1.534400
37.392300 1.594600
37.451000 1.665700
37.509600 1.537400
37.568300 1.639300
37.626900 1.758100
37.685600 1.830900
37.744200 1.947900
37.802900 2.013400
37.861500 2.037100
37.920200 1.989900
37.978800 2.001000
38.037500 2.005100
38.096100 1.949100
38.154800 1.886400
38.213400 1.783900
38.272000 1.685100
38.330700 1.645300
38.389300 1.678200
38.448000 1.745200
38.506600 1.839600
38.565300 1.907600
38.623900 1.888500
38.682600 1.734800
38.741200 1.716500
38.799900 1.657300
38.858500 1.630300
38.917200 1.640800
38.975800 1.704900
39.034500 1.658100
39.093100 1.646800
39.151800 1.646800
39.210400 1.701500
39.269100 1.758500
39.327700 1.890500
39.386400 2.021100
39.445000 1.955000
39.503700 2.007000
39.562300 1.987400
39.621000 2.028300
39.679600 2.096200
39.738200 2.086300
39.796900 2.136700
39.855500 2.035700
39.914200 2.063900
39.972800 2.066200
40.031500 1.864400
40.090100 1.739000
40.148800 1.657100
40.207400 1.615900
40.266100 1.575600
40.324700 1.566600
40.383400 1.648200
40.442000 1.681600
40.500700 1.680500
40.559300 1.721600
40.618000 1.692200
40.676600 1.618800
40.735300 1.635300
40.793900 1.709200
40.852600 1.709600
40.911200 1.711500
40.969900 1.727300
41.028500 1.748800
41.087100 1.721200
41.145800 1.780200
41.204400 1.828900
41.263100 1.806600
41.321700 1.843000
41.380400 1.886000
41.439000 1.941300
41.497700 1.960600
41.556300 1.880300
41.615000 1.842000
41.673600 1.847200
41.732300 1.884900
41.790900 1.913200
41.849600 1.922500
41.908200 1.961000
41.966900 2.073800
42.025500 2.065500
42.084200 2.025500
42.142800 2.242400
42.201500 2.332700
42.260100 2.371200
42.318800 2.381800
42.377400 2.314400
42.436000 2.209300
42.494700 2.066200
42.553300 2.017100
42.612000 2.121200
42.670600 2.099200
42.729300 2.114900
42.787900 2.164300
42.846600 2.694300
42.905200 2.261900
42.963900 2.102500
43.022500 1.981600
43.081200 1.898600
43.139800 1.828700
43.198500 1.771300
43.257100 1.771600
43.315800 1.820700
43.374400 1.842300
43.433100 1.853500
43.491700 1.866500
43.550400 1.924100
43.609000 2.049200
43.667700 2.080600
43.726300 2.049400
43.785000 2.016300
43.843600 1.990200
43.902200 1.988000
43.960900 2.051500
44.019500 2.004800
44.078200 2.021600
44.136800 2.010600
44.195500 2.051800
44.254100 2.082700
44.312800 2.093600
44.371400 2.137100
44.430100 2.173100
44.488700 2.207600
44.547400 2.245900
44.606000 2.260900
44.664700 2.294400
44.723300 2.341400
44.782000 2.266800
44.840600 2.222900
44.899300 2.215000
44.957900 2.224400
45.016600 2.273800
45.075200 2.181700
45.133900 2.174900
45.192500 2.205900
45.251100 2.198800
45.309800 2.246700
45.368400 2.532200
45.427100 2.486800
45.485700 2.442400
45.544400 2.451800
45.603000 2.497700
45.661700 2.527200
45.720300 2.664600
45.779000 2.818300
45.837600 2.943800
45.896300 3.054400
45.954900 3.206100
46.013600 3.287200
46.072200 3.517100
46.130900 3.887800
46.189500 4.286900
46.248200 4.732900
46.306800 5.444900
46.365500 6.458600
46.424100 8.166000
46.482800 11.266900
46.541400 12.302600
46.600100 10.763000
46.658700 9.296100
46.717300 8.033900
46.776000 7.629600
46.834600 6.110800
46.893300 5.257700
46.951900 4.852000
47.010600 4.045400
47.069200 3.539900
47.127900 3.303900
47.186500 3.401500
47.245200 3.262900
47.303800 2.929300
47.362500 2.825400
47.421100 2.764700
47.479800 2.650100
47.538400 2.585100
47.597100 2.410600
47.655700 2.140100
47.714400 1.988100
47.773000 1.920400
47.831700 1.904200
47.890300 1.927700
47.949000 1.968800
48.007600 1.991300
48.066200 1.896100
48.124900 1.878200
48.183500 1.870300
48.242200 1.894000
48.300800 1.907900
48.359500 1.852600
48.418100 1.721300
48.476800 1.700500
48.535400 1.706500
48.594100 1.693900
48.652700 1.529700
48.711400 1.351800
48.770000 1.264800
48.828700 1.242200
48.887300 1.283300
48.946000 1.338900
49.004600 1.388200
49.063300 1.491700
49.121900 1.688100
49.180600 1.548800
49.239200 1.482600
49.297900 1.469100
49.356500 1.457100
49.415200 1.408800
49.473800 1.361300
49.532400 1.324000
49.591100 1.306800
49.649700 1.312100
49.708400 1.337900
49.767000 1.347600
49.825700 1.237300
49.884300 1.150800
49.943000 1.130000
50.001600 1.133500
50.060300 1.143000
50.118900 1.142200
50.177600 1.119900
50.236200 1.232300
50.294900 1.288500
50.353500 1.173200
50.412200 1.157300
50.470800 1.207400
50.529500 1.157600
50.588100 1.030500
50.646800 0.681600
50.705400 0.549300
50.764100 0.456100
50.822700 0.397000
50.881300 0.372600
50.940000 0.355200
50.998600 0.346200
51.057300 0.329700
51.115900 0.302100
51.174600 0.278300
51.233200 0.253100
51.291900 0.227000
51.350500 0.207600
51.409200 0.197800
51.467800 0.193300
51.526500 0.193400
51.585100 0.223200
51.643800 0.281300
51.702400 0.275400
51.761100 0.088100
51.819700 0.063900
51.878400 0.047500
51.937000 0.023700
51.995700 0.000200
52.054300 0.000000
52.113000 0.000000
52.171600 0.000000
52.230300 0.000000
52.288900 0.000000
52.347500 0.000000
52.406200 0.000000
52.464800 0.000000
52.523500 0.000000
52.582100 0.000000
52.640800 0.000000
52.699400 0.000000
52.758100 0.000000
52.816700 0.000000
52.875400 0.000000
52.934000 0.000000
52.992700 0.000000
53.051300 0.000000
53.110000 0.000000
53.168600 0.000000
53.227300 0.000000
53.285900 0.000000
53.344600 0.000000
53.403200 0.000000
53.461900 0.000000
53.520500 0.000000
53.579200 0.000000
53.637800 0.000000
53.696400 0.000000
53.755100 0.000000
53.813700 0.000000
53.872400 0.000000
53.931000 0.000000
53.989700 0.000000
54.048300 0.000000
54.107000 0.000000
54.165600 0.000000
54.224300 0.000000
54.282900 0.000000
54.341600 0.000000
54.400200 0.000000
54.458900 0.000000
54.517500 0.000000
54.576200 0.000000
54.634800 0.000000
54.693500 0.000000
54.752100 0.000000
54.810800 0.000000
54.869400 0.000000
54.928100 0.000000
54.986700 0.000000
55.045400 0.000000
55.104000 0.000000
55.162600 0.000000
55.221300 0.000000
55.279900 0.000000
55.338600 0.000000
55.397200 0.000000
55.455900 0.000000
55.514500 0.000000
55.573200 0.000000
55.631800 0.000000
55.690500 0.000000
55.749100 0.000000
55.807800 0.000000
55.866400 0.000000
55.925100 0.000000
55.983700 0.000000
56.042400 0.000000
56.101000 0.000000
56.159700 0.000000
56.218300 0.000000
56.277000 0.000000
56.335600 0.000000
56.394300 0.000000
56.452900 0.000000
56.511500 0.000000
56.570200 0.000000
56.628800 0.000000
56.687500 0.000000
56.746100 0.000000
56.804800 0.000000
56.863400 0.000000
56.922100 0.000000
56.980700 0.000000
57.039400 0.000000
57.098000 0.000000
57.156700 0.000000
57.215300 0.000000
57.274000 0.000000
57.332600 0.000000
e
