set title 'mp-1228854 - Density of States'
set xlabel 'Energy (eV)'
set ylabel 'DOS (states/eV)'
set grid
set xrange [-10:10]
set yrange [0:6.511]
set xzeroaxis lt -1
set terminal png size 800,600
set output 'mp-1228854_dos_gnuplot.png'
plot '-' using 1:2 with lines title 'DOS'
-61.364900 0.000000
-61.294100 0.000000
-61.223300 0.000000
-61.152500 0.000000
-61.081700 0.000000
-61.010900 0.000000
-60.940100 0.000000
-60.869300 0.000000
-60.798500 0.000000
-60.727600 0.000000
-60.656800 0.000000
-60.586000 0.000000
-60.515200 0.000000
-60.444400 0.000000
-60.373600 0.000000
-60.302800 0.000000
-60.232000 0.000000
-60.161200 0.000000
-60.090400 0.000000
-60.019600 0.000000
-59.948800 0.000000
-59.878000 0.000000
-59.807200 0.000000
-59.736400 0.000000
-59.665600 0.000000
-59.594800 0.000000
-59.524000 0.000000
-59.453200 0.000000
-59.382400 0.000000
-59.311500 0.000000
-59.240700 0.000000
-59.169900 0.000000
-59.099100 0.000000
-59.028300 0.000000
-58.957500 0.000000
-58.886700 0.000000
-58.815900 0.000000
-58.745100 0.000000
-58.674300 0.000000
-58.603500 0.000000
-58.532700 0.000000
-58.461900 0.000000
-58.391100 0.000000
-58.320300 0.000000
-58.249500 0.000000
-58.178700 0.000000
-58.107900 0.000000
-58.037100 0.000000
-57.966200 0.000000
-57.895400 0.000000
-57.824600 0.000000
-57.753800 0.000000
-57.683000 0.000000
-57.612200 0.000000
-57.541400 0.000000
-57.470600 0.000000
-57.399800 0.000000
-57.329000 0.000000
-57.258200 0.000000
-57.187400 0.000000
-57.116600 0.000000
-57.045800 0.000000
-56.975000 0.000000
-56.904200 0.000000
-56.833400 0.000000
-56.762600 0.000000
-56.691800 0.000000
-56.621000 0.000000
-56.550100 0.000000
-56.479300 0.000000
-56.408500 0.000000
-56.337700 0.000000
-56.266900 0.000000
-56.196100 0.000000
-56.125300 0.000000
-56.054500 0.000000
-55.983700 0.000000
-55.912900 0.000000
-55.842100 0.000000
-55.771300 0.000000
-55.700500 0.000000
-55.629700 0.000000
-55.558900 0.000000
-55.488100 0.000000
-55.417300 0.000000
-55.346500 0.000000
-55.275700 0.000000
-55.204800 0.000000
-55.134000 0.000000
-55.063200 0.000000
-54.992400 0.000000
-54.921600 244.938200
-54.850800 0.000000
-54.780000 0.000000
-54.709200 0.000000
-54.638400 35.048900
-54.567600 0.000000
-54.496800 0.000000
-54.426000 0.000000
-54.355200 0.000000
-54.284400 0.000000
-54.213600 0.000000
-54.142800 0.000000
-54.072000 0.000000
-54.001200 0.000000
-53.930400 0.000000
-53.859600 0.000000
-53.788700 0.000000
-53.717900 0.000000
-53.647100 0.000000
-53.576300 0.000000
-53.505500 0.000000
-53.434700 0.000000
-53.363900 0.000000
-53.293100 0.000000
-53.222300 0.000000
-53.151500 0.000000
-53.080700 0.000000
-53.009900 0.000000
-52.939100 0.000000
-52.868300 0.000000
-52.797500 0.000000
-52.726700 0.000000
-52.655900 0.000000
-52.585100 0.000000
-52.514300 0.000000
-52.443400 0.000000
-52.372600 0.000000
-52.301800 0.000000
-52.231000 0.000000
-52.160200 0.000000
-52.089400 0.000000
-52.018600 0.000000
-51.947800 0.000000
-51.877000 0.000000
-51.806200 0.000000
-51.735400 0.000000
-51.664600 0.000000
-51.593800 0.000000
-51.523000 0.000000
-51.452200 0.000000
-51.381400 0.000000
-51.310600 0.000000
-51.239800 0.000000
-51.169000 0.000000
-51.098200 0.000000
-51.027300 0.000000
-50.956500 0.000000
-50.885700 0.000000
-50.814900 0.000000
-50.744100 0.000000
-50.673300 0.000000
-50.602500 0.000000
-50.531700 0.000000
-50.460900 0.000000
-50.390100 0.000000
-50.319300 0.000000
-50.248500 0.000000
-50.177700 0.000000
-50.106900 0.000000
-50.036100 0.000000
-49.965300 0.000000
-49.894500 0.000000
-49.823700 0.000000
-49.752900 0.000000
-49.682000 0.000000
-49.611200 0.000000
-49.540400 0.000000
-49.469600 0.000000
-49.398800 0.000000
-49.328000 0.000000
-49.257200 0.000000
-49.186400 0.000000
-49.115600 0.000000
-49.044800 0.000000
-48.974000 0.000000
-48.903200 0.000000
-48.832400 0.000000
-48.761600 0.000000
-48.690800 0.000000
-48.620000 0.000000
-48.549200 0.000000
-48.478400 0.000000
-48.407600 0.000000
-48.336800 0.000000
-48.265900 0.000000
-48.195100 0.000000
-48.124300 0.000000
-48.053500 0.000000
-47.982700 0.000000
-47.911900 0.000000
-47.841100 0.000000
-47.770300 0.000000
-47.699500 0.000000
-47.628700 0.000000
-47.557900 0.000000
-47.487100 0.000000
-47.416300 0.000000
-47.345500 0.000000
-47.274700 0.000000
-47.203900 0.000000
-47.133100 0.000000
-47.062300 0.000000
-46.991500 0.000000
-46.920600 0.000000
-46.849800 0.000000
-46.779000 0.000000
-46.708200 0.000000
-46.637400 0.000000
-46.566600 0.000000
-46.495800 0.000000
-46.425000 0.000000
-46.354200 0.000000
-46.283400 0.000000
-46.212600 0.000000
-46.141800 0.000000
-46.071000 0.000000
-46.000200 0.000000
-45.929400 0.000000
-45.858600 0.000000
-45.787800 0.000000
-45.717000 0.000000
-45.646200 0.000000
-45.575400 0.000000
-45.504500 0.000000
-45.433700 0.000000
-45.362900 0.000000
-45.292100 0.000000
-45.221300 0.000000
-45.150500 0.000000
-45.079700 0.000000
-45.008900 0.000000
-44.938100 0.000000
-44.867300 0.000000
-44.796500 0.000000
-44.725700 0.000000
-44.654900 0.000000
-44.584100 0.000000
-44.513300 0.000000
-44.442500 0.000000
-44.371700 0.000000
-44.300900 0.000000
-44.230100 0.000000
-44.159200 0.000000
-44.088400 0.000000
-44.017600 0.000000
-43.946800 0.000000
-43.876000 0.000000
-43.805200 0.000000
-43.734400 0.000000
-43.663600 0.000000
-43.592800 0.000000
-43.522000 0.000000
-43.451200 0.000000
-43.380400 0.000000
-43.309600 0.000000
-43.238800 0.000000
-43.168000 0.000000
-43.097200 0.000000
-43.026400 0.000000
-42.955600 0.000000
-42.884800 0.000000
-42.814000 0.000000
-42.743100 0.000000
-42.672300 0.000000
-42.601500 0.000000
-42.530700 0.000000
-42.459900 0.000000
-42.389100 0.000000
-42.318300 0.000000
-42.247500 0.000000
-42.176700 0.000000
-42.105900 0.000000
-42.035100 0.000000
-41.964300 0.000000
-41.893500 0.000000
-41.822700 0.000000
-41.751900 0.000000
-41.681100 0.000000
-41.610300 0.000000
-41.539500 0.000000
-41.468700 0.000000
-41.397800 0.000000
-41.327000 0.000000
-41.256200 0.000000
-41.185400 0.000000
-41.114600 0.000000
-41.043800 0.000000
-40.973000 0.000000
-40.902200 0.000000
-40.831400 0.000000
-40.760600 0.000000
-40.689800 0.000000
-40.619000 0.000000
-40.548200 0.000000
-40.477400 0.000000
-40.406600 0.000000
-40.335800 0.000000
-40.265000 0.000000
-40.194200 0.000000
-40.123400 0.000000
-40.052600 0.000000
-39.981700 0.000000
-39.910900 0.000000
-39.840100 0.000000
-39.769300 0.000000
-39.698500 0.000000
-39.627700 0.000000
-39.556900 0.000000
-39.486100 0.000000
-39.415300 0.000000
-39.344500 0.000000
-39.273700 0.000000
-39.202900 0.000000
-39.132100 0.000000
-39.061300 0.000000
-38.990500 0.000000
-38.919700 0.000000
-38.848900 0.000000
-38.778100 0.000000
-38.707300 0.000000
-38.636400 0.000000
-38.565600 0.000000
-38.494800 0.000000
-38.424000 0.000000
-38.353200 0.000000
-38.282400 0.000000
-38.211600 0.000000
-38.140800 0.000000
-38.070000 0.000000
-37.999200 0.000000
-37.928400 0.000000
-37.857600 0.000000
-37.786800 0.000000
-37.716000 0.000000
-37.645200 0.000000
-37.574400 0.000000
-37.503600 0.000000
-37.432800 0.000000
-37.362000 0.000000
-37.291200 0.000000
-37.220300 0.000000
-37.149500 0.000000
-37.078700 0.000000
-37.007900 0.000000
-36.937100 0.000000
-36.866300 0.000000
-36.795500 0.000000
-36.724700 0.000000
-36.653900 0.000000
-36.583100 0.000000
-36.512300 0.000000
-36.441500 0.000000
-36.370700 0.000000
-36.299900 0.000000
-36.229100 0.000000
-36.158300 0.000000
-36.087500 0.000000
-36.016700 0.000000
-35.945900 0.000000
-35.875000 0.000000
-35.804200 0.000000
-35.733400 0.000000
-35.662600 0.000000
-35.591800 0.000000
-35.521000 0.000000
-35.450200 0.000000
-35.379400 0.000000
-35.308600 0.000000
-35.237800 0.000000
-35.167000 0.000000
-35.096200 0.000000
-35.025400 0.000000
-34.954600 0.000000
-34.883800 0.000000
-34.813000 0.000000
-34.742200 0.000000
-34.671400 0.000000
-34.600600 0.000000
-34.529800 0.000000
-34.458900 0.000000
-34.388100 0.000000
-34.317300 0.000000
-34.246500 0.000000
-34.175700 0.000000
-34.104900 0.000000
-34.034100 0.000000
-33.963300 0.000000
-33.892500 0.000000
-33.821700 0.000000
-33.750900 0.000000
-33.680100 0.000000
-33.609300 0.000000
-33.538500 0.000000
-33.467700 0.000000
-33.396900 0.000000
-33.326100 0.000000
-33.255300 0.000000
-33.184500 0.000000
-33.113600 0.000000
-33.042800 0.000000
-32.972000 0.000000
-32.901200 0.000000
-32.830400 0.000000
-32.759600 0.000000
-32.688800 0.000000
-32.618000 0.000000
-32.547200 0.000000
-32.476400 0.000000
-32.405600 0.000000
-32.334800 0.000000
-32.264000 0.000000
-32.193200 0.000000
-32.122400 0.000000
-32.051600 0.000000
-31.980800 0.000000
-31.910000 0.000000
-31.839200 0.000000
-31.768400 0.000000
-31.697500 0.000000
-31.626700 0.000000
-31.555900 0.000000
-31.485100 0.000000
-31.414300 0.000000
-31.343500 0.000000
-31.272700 0.000000
-31.201900 0.000000
-31.131100 0.000000
-31.060300 0.000000
-30.989500 0.000000
-30.918700 0.000000
-30.847900 0.000000
-30.777100 0.000000
-30.706300 0.000000
-30.635500 0.000000
-30.564700 0.000000
-30.493900 0.000000
-30.423100 0.000000
-30.352200 0.000000
-30.281400 0.000000
-30.210600 0.000000
-30.139800 0.000000
-30.069000 0.000000
-29.998200 0.000000
-29.927400 0.000000
-29.856600 0.000000
-29.785800 0.000000
-29.715000 0.000000
-29.644200 0.000000
-29.573400 0.000000
-29.502600 0.000000
-29.431800 0.000000
-29.361000 0.000000
-29.290200 0.000000
-29.219400 0.000000
-29.148600 0.000000
-29.077800 0.000000
-29.007000 0.000000
-28.936100 0.000000
-28.865300 0.000000
-28.794500 0.000000
-28.723700 0.000000
-28.652900 0.000000
-28.582100 0.000000
-28.511300 0.000000
-28.440500 0.000000
-28.369700 0.000000
-28.298900 0.000000
-28.228100 0.000000
-28.157300 0.000000
-28.086500 0.000000
-28.015700 0.000000
-27.944900 0.000000
-27.874100 0.000000
-27.803300 0.000000
-27.732500 0.000000
-27.661700 0.000000
-27.590800 0.000000
-27.520000 0.000000
-27.449200 0.000000
-27.378400 0.000000
-27.307600 0.000000
-27.236800 0.000000
-27.166000 0.000000
-27.095200 0.000000
-27.024400 0.000000
-26.953600 0.000000
-26.882800 0.000000
-26.812000 0.000000
-26.741200 0.000000
-26.670400 0.000000
-26.599600 0.000000
-26.528800 0.000000
-26.458000 0.000000
-26.387200 0.000000
-26.316400 0.000000
-26.245600 0.000000
-26.174700 0.000000
-26.103900 0.000000
-26.033100 0.000000
-25.962300 0.000000
-25.891500 0.000000
-25.820700 0.000000
-25.749900 0.000000
-25.679100 0.000000
-25.608300 0.000000
-25.537500 0.000000
-25.466700 0.000000
-25.395900 0.000000
-25.325100 0.000000
-25.254300 0.000000
-25.183500 0.000000
-25.112700 0.000000
-25.041900 0.000000
-24.971100 0.000000
-24.900300 0.000000
-24.829400 0.000000
-24.758600 0.000000
-24.687800 0.000000
-24.617000 0.000000
-24.546200 0.000000
-24.475400 0.000000
-24.404600 0.000000
-24.333800 0.000000
-24.263000 0.000000
-24.192200 0.000000
-24.121400 0.000000
-24.050600 0.000000
-23.979800 0.000000
-23.909000 0.000000
-23.838200 0.000000
-23.767400 0.000000
-23.696600 0.000000
-23.625800 0.000000
-23.555000 0.000000
-23.484200 0.000000
-23.413300 0.000000
-23.342500 0.000000
-23.271700 0.000000
-23.200900 0.000000
-23.130100 0.000000
-23.059300 0.000000
-22.988500 0.000000
-22.917700 0.000000
-22.846900 0.000000
-22.776100 0.000000
-22.705300 0.000000
-22.634500 0.000000
-22.563700 0.000000
-22.492900 0.000000
-22.422100 0.000000
-22.351300 0.000000
-22.280500 0.000000
-22.209700 0.000000
-22.138900 0.000000
-22.068000 0.000000
-21.997200 0.000000
-21.926400 0.000000
-21.855600 0.000000
-21.784800 0.000000
-21.714000 0.000000
-21.643200 0.000000
-21.572400 0.000000
-21.501600 0.000000
-21.430800 0.000000
-21.360000 0.000000
-21.289200 0.000000
-21.218400 0.000000
-21.147600 0.000000
-21.076800 0.000000
-21.006000 0.000000
-20.935200 0.000000
-20.864400 0.000000
-20.793600 0.000000
-20.722800 0.000000
-20.651900 0.000000
-20.581100 0.000000
-20.510300 0.000000
-20.439500 0.000000
-20.368700 0.000000
-20.297900 0.000000
-20.227100 0.000000
-20.156300 0.000000
-20.085500 0.000000
-20.014700 0.000000
-19.943900 0.000000
-19.873100 0.000000
-19.802300 0.000000
-19.731500 0.000000
-19.660700 0.000000
-19.589900 0.000000
-19.519100 0.000000
-19.448300 0.000000
-19.377500 0.000000
-19.306600 0.000000
-19.235800 0.000000
-19.165000 0.000000
-19.094200 0.000000
-19.023400 0.000000
-18.952600 0.000000
-18.881800 0.000000
-18.811000 0.000000
-18.740200 0.000000
-18.669400 0.000000
-18.598600 0.000000
-18.527800 0.000000
-18.457000 0.000000
-18.386200 0.000000
-18.315400 0.000000
-18.244600 0.000000
-18.173800 0.000000
-18.103000 0.000000
-18.032200 0.000000
-17.961400 0.000000
-17.890500 0.000000
-17.819700 0.000000
-17.748900 0.000000
-17.678100 0.000000
-17.607300 0.000000
-17.536500 0.000000
-17.465700 0.000000
-17.394900 0.000000
-17.324100 0.000000
-17.253300 0.000000
-17.182500 0.000000
-17.111700 0.000000
-17.040900 0.000000
-16.970100 0.000000
-16.899300 0.000000
-16.828500 0.000000
-16.757700 0.000000
-16.686900 0.000000
-16.616100 0.000000
-16.545200 0.000000
-16.474400 0.000000
-16.403600 0.000000
-16.332800 0.000000
-16.262000 0.000000
-16.191200 0.000000
-16.120400 0.000000
-16.049600 0.000000
-15.978800 0.000000
-15.908000 0.000000
-15.837200 0.000000
-15.766400 0.000000
-15.695600 0.000000
-15.624800 0.000000
-15.554000 0.000000
-15.483200 0.000000
-15.412400 0.000000
-15.341600 0.000000
-15.270800 0.000000
-15.200000 0.000000
-15.129100 0.000000
-15.058300 0.000000
-14.987500 0.000000
-14.916700 0.000000
-14.845900 0.000000
-14.775100 0.000000
-14.704300 0.000000
-14.633500 0.000000
-14.562700 0.000000
-14.491900 0.000000
-14.421100 0.000000
-14.350300 0.000000
-14.279500 0.000000
-14.208700 0.000000
-14.137900 0.000000
-14.067100 0.000000
-13.996300 0.000000
-13.925500 0.000000
-13.854700 0.000000
-13.783800 0.000000
-13.713000 0.000000
-13.642200 0.000000
-13.571400 0.000000
-13.500600 0.000000
-13.429800 0.000000
-13.359000 0.000000
-13.288200 0.000000
-13.217400 0.000000
-13.146600 0.000000
-13.075800 0.000000
-13.005000 0.000000
-12.934200 0.000000
-12.863400 0.000000
-12.792600 0.000000
-12.721800 0.000000
-12.651000 0.000000
-12.580200 0.000000
-12.509400 0.000000
-12.438600 0.000000
-12.367700 0.000000
-12.296900 0.000000
-12.226100 0.000000
-12.155300 0.000000
-12.084500 0.000000
-12.013700 0.000000
-11.942900 0.000000
-11.872100 0.000000
-11.801300 0.000000
-11.730500 0.000000
-11.659700 0.000000
-11.588900 0.000000
-11.518100 0.000000
-11.447300 0.000000
-11.376500 0.000000
-11.305700 0.000000
-11.234900 0.000000
-11.164100 0.000000
-11.093300 0.000000
-11.022400 0.000000
-10.951600 0.000000
-10.880800 0.000000
-10.810000 0.000000
-10.739200 0.000000
-10.668400 0.000000
-10.597600 0.000000
-10.526800 0.000000
-10.456000 0.000000
-10.385200 0.000000
-10.314400 0.000000
-10.243600 0.000000
-10.172800 0.000000
-10.102000 0.000000
-10.031200 0.000000
-9.960400 0.000000
-9.889600 0.000000
-9.818800 0.000000
-9.748000 0.000000
-9.677200 0.000000
-9.606300 0.000000
-9.535500 0.000000
-9.464700 0.000000
-9.393900 0.000000
-9.323100 0.000000
-9.252300 0.000000
-9.181500 0.000000
-9.110700 0.000000
-9.039900 0.000000
-8.969100 0.000000
-8.898300 0.000000
-8.827500 0.000000
-8.756700 0.000000
-8.685900 0.000000
-8.615100 0.000000
-8.544300 0.000000
-8.473500 0.000000
-8.402700 0.000000
-8.331900 0.000000
-8.261000 0.000000
-8.190200 0.000000
-8.119400 0.000000
-8.048600 0.000000
-7.977800 0.000000
-7.907000 0.000000
-7.836200 0.000000
-7.765400 0.000000
-7.694600 0.000000
-7.623800 0.000000
-7.553000 0.000000
-7.482200 0.000000
-7.411400 0.000000
-7.340600 0.000000
-7.269800 0.000000
-7.199000 0.000000
-7.128200 0.000000
-7.057400 0.000000
-6.986600 0.000000
-6.915800 0.000000
-6.844900 0.000000
-6.774100 0.000000
-6.703300 0.000000
-6.632500 0.000000
-6.561700 0.000000
-6.490900 0.000000
-6.420100 0.000000
-6.349300 0.000000
-6.278500 0.000000
-6.207700 0.000000
-6.136900 0.000000
-6.066100 0.000000
-5.995300 0.000000
-5.924500 0.000000
-5.853700 0.000000
-5.782900 0.000000
-5.712100 0.000000
-5.641300 0.000000
-5.570500 0.000000
-5.499600 0.000000
-5.428800 0.000000
-5.358000 0.000000
-5.287200 0.000000
-5.216400 0.000000
-5.145600 0.000000
-5.074800 0.000000
-5.004000 0.000000
-4.933200 0.000000
-4.862400 0.000000
-4.791600 0.000000
-4.720800 0.000000
-4.650000 0.000000
-4.579200 0.000000
-4.508400 0.000000
-4.437600 0.000000
-4.366800 0.000000
-4.296000 0.000000
-4.225200 0.000000
-4.154400 0.000000
-4.083500 0.000000
-4.012700 0.000000
-3.941900 0.000000
-3.871100 0.000000
-3.800300 0.000000
-3.729500 0.000000
-3.658700 0.000000
-3.587900 0.000000
-3.517100 0.000000
-3.446300 0.000000
-3.375500 0.000000
-3.304700 0.000000
-3.233900 0.000000
-3.163100 0.000000
-3.092300 0.000000
-3.021500 0.000000
-2.950700 0.000000
-2.879900 0.000000
-2.809100 0.000000
-2.738200 0.000000
-2.667400 0.000000
-2.596600 0.000000
-2.525800 0.000000
-2.455000 0.000000
-2.384200 0.000000
-2.313400 0.000000
-2.242600 0.000000
-2.171800 0.003000
-2.101000 0.048100
-2.030200 0.061100
-1.959400 0.080600
-1.888600 0.091400
-1.817800 0.102100
-1.747000 0.113100
-1.676200 0.124900
-1.605400 0.133500
-1.534600 0.141400
-1.463800 0.149400
-1.393000 0.157900
-1.322100 0.167200
-1.251300 0.175700
-1.180500 0.182500
-1.109700 0.189700
-1.038900 0.197300
-0.968100 0.205200
-0.897300 0.213700
-0.826500 0.222200
-0.755700 0.231400
-0.684900 0.241000
-0.614100 0.252000
-0.543300 0.265300
-0.472500 0.288400
-0.401700 0.286700
-0.330900 0.292700
-0.260100 0.289600
-0.189300 0.292300
-0.118500 0.293200
-0.047700 0.292500
0.023200 0.292100
0.094000 0.293900
0.164800 0.295700
0.235600 0.296600
0.306400 0.296600
0.377200 0.297200
0.448000 0.298500
0.518800 0.300000
0.589600 0.301300
0.660400 0.302200
0.731200 0.302100
0.802000 0.302700
0.872800 0.303900
0.943600 0.305400
1.014400 0.306900
1.085200 0.308400
1.156000 0.309700
1.226800 0.310800
1.297600 0.311400
1.368400 0.312700
1.439300 0.316400
1.510100 0.329500
1.580900 0.341500
1.651700 0.353700
1.722500 0.360300
1.793300 0.367500
1.864100 0.373800
1.934900 0.379700
2.005700 0.386400
2.076500 0.393900
2.147300 0.401900
2.218100 0.409600
2.288900 0.416400
2.359700 0.423100
2.430500 0.430200
2.501300 0.437500
2.572100 0.445300
2.642900 0.453700
2.713700 0.462400
2.784600 0.471600
2.855400 0.481600
2.926200 0.492400
2.997000 0.504300
3.067800 0.517300
3.138600 0.535500
3.209400 0.559400
3.280200 0.575400
3.351000 0.613000
3.421800 0.600200
3.492600 0.612600
3.563400 0.622600
3.634200 0.653900
3.705000 0.655900
3.775800 0.668200
3.846600 0.629700
3.917400 0.596400
3.988200 0.595500
4.059000 0.569300
4.129800 0.532800
4.200700 0.533200
4.271500 0.530700
4.342300 0.552700
4.413100 0.589300
4.483900 0.629400
4.554700 0.683000
4.625500 0.745400
4.696300 0.865400
4.767100 0.992300
4.837900 1.114200
4.908700 1.128200
4.979500 1.191900
5.050300 1.294600
5.121100 1.427000
5.191900 1.695900
5.262700 1.848300
5.333500 1.961200
5.404300 2.085500
5.475100 2.144700
5.546000 2.279200
5.616800 2.434000
5.687600 1.831600
5.758400 2.182100
5.829200 2.737200
5.900000 3.396900
5.970800 2.537100
6.041600 2.844900
6.112400 2.859100
6.183200 2.953000
6.254000 3.378100
6.324800 4.897500
6.395600 5.919100
6.466400 4.301500
6.537200 4.259700
6.608000 4.520100
6.678800 4.422300
6.749600 4.172000
6.820400 3.971400
6.891200 3.716400
6.962100 3.080800
7.032900 3.288000
7.103700 4.458200
7.174500 4.367700
7.245300 3.068700
7.316100 4.984600
7.386900 2.763200
7.457700 3.983400
7.528500 2.140400
7.599300 2.009500
7.670100 2.105200
7.740900 2.116800
7.811700 2.077800
7.882500 2.090600
7.953300 2.251100
8.024100 2.223900
8.094900 2.352500
8.165700 2.613700
8.236500 2.254600
8.307400 1.749800
8.378200 1.404000
8.449000 1.104100
8.519800 0.894200
8.590600 0.801200
8.661400 0.750800
8.732200 0.693000
8.803000 0.735200
8.873800 0.749600
8.944600 0.783000
9.015400 0.885300
9.086200 0.978000
9.157000 0.906700
9.227800 0.894000
9.298600 0.841100
9.369400 0.787500
9.440200 0.736200
9.511000 0.694900
9.581800 0.642000
9.652600 0.585500
9.723500 0.546100
9.794300 0.514800
9.865100 0.595800
9.935900 0.708000
10.006700 0.678700
10.077500 0.784400
10.148300 0.770900
10.219100 0.741500
10.289900 0.751500
10.360700 0.725100
10.431500 0.675000
10.502300 0.673600
10.573100 0.722200
10.643900 0.697600
10.714700 0.634400
10.785500 0.565000
10.856300 0.541900
10.927100 0.533400
10.997900 0.529900
11.068800 0.533800
11.139600 0.548200
11.210400 0.557000
11.281200 0.565000
11.352000 0.572000
11.422800 0.575500
11.493600 0.581400
11.564400 0.588600
11.635200 0.620800
11.706000 0.617600
11.776800 0.600700
11.847600 0.593500
11.918400 0.586000
11.989200 0.600000
12.060000 0.625700
12.130800 0.643700
12.201600 0.643100
12.272400 0.641300
12.343200 0.637900
12.414000 0.679200
12.484900 0.727500
12.555700 0.687500
12.626500 0.664900
12.697300 0.607500
12.768100 0.584500
12.838900 0.568300
12.909700 0.557400
12.980500 0.552300
13.051300 0.561200
13.122100 0.600000
13.192900 0.634500
13.263700 0.651600
13.334500 0.679200
13.405300 0.755000
13.476100 0.764500
13.546900 0.771900
13.617700 0.795500
13.688500 0.800500
13.759300 0.773500
13.830200 0.764400
13.901000 0.746200
13.971800 0.753600
14.042600 0.778500
14.113400 0.793900
14.184200 0.798800
14.255000 0.775300
14.325800 0.771400
14.396600 0.833300
14.467400 0.846000
14.538200 0.835300
14.609000 0.822500
14.679800 0.816400
14.750600 0.814500
14.821400 0.817800
14.892200 0.825000
14.963000 0.837800
15.033800 0.856500
15.104600 0.863300
15.175400 0.874400
15.246300 0.857200
15.317100 0.852100
15.387900 0.837700
15.458700 0.822400
15.529500 0.818800
15.600300 0.820200
15.671100 0.823600
15.741900 0.845900
15.812700 0.855500
15.883500 0.862000
15.954300 0.862900
16.025100 0.861200
16.095900 0.858400
16.166700 0.855900
16.237500 0.860700
16.308300 0.871600
16.379100 0.872300
16.449900 0.872200
16.520700 0.869500
16.591600 0.865200
16.662400 0.861400
16.733200 0.856600
16.804000 0.857600
16.874800 0.858300
16.945600 0.856100
17.016400 0.852700
17.087200 0.846400
17.158000 0.840200
17.228800 0.832200
17.299600 0.831400
17.370400 0.827600
17.441200 0.824100
17.512000 0.828400
17.582800 0.838200
17.653600 0.856500
17.724400 0.877400
17.795200 0.884700
17.866000 0.886000
17.936800 0.884800
18.007700 0.882800
18.078500 0.883100
18.149300 0.886200
18.220100 0.892100
18.290900 0.880700
18.361700 0.853500
18.432500 0.849300
18.503300 0.853200
18.574100 0.851900
18.644900 0.846000
18.715700 0.842800
18.786500 0.841600
18.857300 0.844700
18.928100 0.850100
18.998900 0.837000
19.069700 0.823400
19.140500 0.815700
19.211300 0.811700
19.282100 0.803600
19.353000 0.799800
19.423800 0.807100
19.494600 0.818900
19.565400 0.829400
19.636200 0.826300
19.707000 0.819000
19.777800 0.815600
19.848600 0.816500
19.919400 0.815300
19.990200 0.801400
20.061000 0.797000
20.131800 0.855400
20.202600 0.856400
20.273400 0.846000
20.344200 0.835700
20.415000 0.838700
20.485800 0.841600
20.556600 0.844500
20.627400 0.849300
20.698200 0.861400
20.769100 0.856300
20.839900 0.857400
20.910700 0.866800
20.981500 0.874000
21.052300 0.884800
21.123100 0.878600
21.193900 0.871400
21.264700 0.864400
21.335500 0.865500
21.406300 0.844300
21.477100 0.839600
21.547900 0.840200
21.618700 0.841000
21.689500 0.846900
21.760300 0.871900
21.831100 0.865500
21.901900 0.854100
21.972700 0.859200
22.043500 0.873500
22.114400 0.883300
22.185200 0.897800
22.256000 0.918400
22.326800 0.929700
22.397600 0.912900
22.468400 0.900700
22.539200 0.933300
22.610000 0.988300
22.680800 0.966800
22.751600 0.939900
22.822400 0.940300
22.893200 0.971800
22.964000 0.964400
23.034800 0.969500
23.105600 0.940100
23.176400 0.930800
23.247200 0.951200
23.318000 0.974700
23.388800 1.003700
23.459600 1.031500
23.530500 1.006300
23.601300 0.980700
23.672100 0.981700
23.742900 0.970000
23.813700 0.956200
23.884500 0.954700
23.955300 0.976500
24.026100 0.979100
24.096900 0.969900
24.167700 0.962700
24.238500 0.918000
24.309300 0.905900
24.380100 0.894600
24.450900 0.891900
24.521700 0.891800
24.592500 0.885700
24.663300 0.871300
24.734100 0.837900
24.804900 0.829400
24.875800 0.810600
24.946600 0.803800
25.017400 0.811200
25.088200 0.830900
25.159000 0.841100
25.229800 0.864500
25.300600 0.880800
25.371400 0.903200
25.442200 0.916900
25.513000 0.926700
25.583800 0.928600
25.654600 0.907100
25.725400 0.889800
25.796200 0.891700
25.867000 0.895400
25.937800 0.878200
26.008600 0.868100
26.079400 0.864500
26.150200 0.869100
26.221000 0.894800
26.291900 0.925100
26.362700 0.970700
26.433500 1.001000
26.504300 1.022300
26.575100 1.042300
26.645900 1.049400
26.716700 1.034600
26.787500 1.042500
26.858300 1.040300
26.929100 1.035500
26.999900 1.038200
27.070700 1.069200
27.141500 1.106100
27.212300 1.103800
27.283100 1.057800
27.353900 1.019500
27.424700 1.027100
27.495500 1.032900
27.566300 1.035000
27.637200 1.001500
27.708000 0.992700
27.778800 0.981900
27.849600 0.967000
27.920400 0.964400
27.991200 0.943300
28.062000 0.946700
28.132800 0.971500
28.203600 0.985700
28.274400 1.003800
28.345200 1.024100
28.416000 1.050500
28.486800 1.090800
28.557600 1.128500
28.628400 1.129600
28.699200 1.090000
28.770000 1.085400
28.840800 1.072500
28.911600 1.061200
28.982400 1.043100
29.053300 1.038400
29.124100 1.053600
29.194900 1.048000
29.265700 1.062800
29.336500 1.064400
29.407300 1.074200
29.478100 1.066200
29.548900 1.066500
29.619700 1.093000
29.690500 1.087200
29.761300 1.103000
29.832100 1.095400
29.902900 1.082800
29.973700 1.071100
30.044500 1.040100
30.115300 1.035900
30.186100 1.030000
30.256900 1.024300
30.327700 1.039100
30.398600 1.057700
30.469400 1.074200
30.540200 1.114000
30.611000 1.136300
30.681800 1.154800
30.752600 1.174500
30.823400 1.185000
30.894200 1.145300
30.965000 1.174800
31.035800 1.167200
31.106600 1.125700
31.177400 1.098400
31.248200 1.064400
31.319000 1.047600
31.389800 1.059600
31.460600 1.065100
31.531400 1.030500
31.602200 1.034600
31.673000 1.030200
31.743800 1.084800
31.814700 1.100600
31.885500 1.132500
31.956300 1.165400
32.027100 1.116600
32.097900 1.120900
32.168700 1.121000
32.239500 1.131700
32.310300 1.156300
32.381100 1.145000
32.451900 1.147400
32.522700 1.093700
32.593500 1.098400
32.664300 1.117500
32.735100 1.141900
32.805900 1.141400
32.876700 1.132900
32.947500 1.118500
33.018300 1.094200
33.089100 1.074200
33.160000 1.067700
33.230800 1.064500
33.301600 1.105300
33.372400 1.110700
33.443200 1.096200
33.514000 1.098700
33.584800 1.128100
33.655600 1.138000
33.726400 1.141300
33.797200 1.140500
33.868000 1.154400
33.938800 1.188100
34.009600 1.186600
34.080400 1.184400
34.151200 1.184700
34.222000 1.217200
34.292800 1.225200
34.363600 1.176300
34.434400 1.179200
34.505200 1.165700
34.576100 1.142800
34.646900 1.144200
34.717700 1.145800
34.788500 1.146800
34.859300 1.163400
34.930100 1.157100
35.000900 1.141500
35.071700 1.139000
35.142500 1.136500
35.213300 1.130900
35.284100 1.122800
35.354900 1.096800
35.425700 1.086200
35.496500 1.089300
35.567300 1.086300
35.638100 1.085100
35.708900 1.076400
35.779700 1.075900
35.850500 1.084700
35.921400 1.094200
35.992200 1.123900
36.063000 1.139700
36.133800 1.166900
36.204600 1.168600
36.275400 1.168100
36.346200 1.160200
36.417000 1.134900
36.487800 1.111200
36.558600 1.090300
36.629400 1.090800
36.700200 1.051400
36.771000 1.030400
36.841800 1.039400
36.912600 1.024400
36.983400 0.975200
37.054200 0.971200
37.125000 0.946100
37.195800 0.934600
37.266600 0.923800
37.337500 0.913100
37.408300 0.903900
37.479100 0.898500
37.549900 0.893100
37.620700 0.870800
37.691500 0.860800
37.762300 0.850800
37.833100 0.857700
37.903900 0.862800
37.974700 0.870200
38.045500 0.883800
38.116300 0.908200
38.187100 0.938300
38.257900 0.940000
38.328700 0.950100
38.399500 0.967700
38.470300 1.002900
38.541100 0.976900
38.611900 0.962200
38.682800 0.967100
38.753600 0.975200
38.824400 0.980400
38.895200 1.009600
38.966000 0.990800
39.036800 0.967300
39.107600 0.957300
39.178400 0.946500
39.249200 0.916900
39.320000 0.900200
39.390800 0.916300
39.461600 0.922900
39.532400 0.933700
39.603200 0.948900
39.674000 0.965100
39.744800 0.976500
39.815600 0.992300
39.886400 1.009400
39.957200 1.033500
40.028000 1.047000
40.098900 1.048100
40.169700 1.056800
40.240500 1.065300
40.311300 1.099400
40.382100 1.123300
40.452900 1.125200
40.523700 1.097300
40.594500 1.067200
40.665300 1.046800
40.736100 1.021900
40.806900 1.007700
40.877700 0.993800
40.948500 0.987300
41.019300 0.995500
41.090100 1.008100
41.160900 1.017900
41.231700 1.018400
41.302500 1.008000
41.373300 1.006400
41.444200 1.016600
41.515000 1.042000
41.585800 1.061200
41.656600 1.064500
41.727400 1.075000
41.798200 1.080300
41.869000 1.092000
41.939800 1.100500
42.010600 1.118500
42.081400 1.147500
42.152200 1.199700
42.223000 1.265300
42.293800 1.303300
42.364600 1.370200
42.435400 1.402000
42.506200 1.349100
42.577000 1.289300
42.647800 1.253500
42.718600 1.290300
42.789400 1.319100
42.860300 1.338200
42.931100 1.361400
43.001900 1.375500
43.072700 1.364300
43.143500 1.340400
43.214300 1.349900
43.285100 1.355600
43.355900 1.368000
43.426700 1.367800
43.497500 1.370700
43.568300 1.371000
43.639100 1.373400
43.709900 1.391700
43.780700 1.435300
43.851500 1.440100
43.922300 1.420200
43.993100 1.378400
44.063900 1.344400
44.134700 1.305300
44.205600 1.281100
44.276400 1.263700
44.347200 1.269500
44.418000 1.281900
44.488800 1.291300
44.559600 1.329400
44.630400 1.310500
44.701200 1.284800
44.772000 1.281100
44.842800 1.298600
44.913600 1.342200
44.984400 1.368500
45.055200 1.397300
45.126000 1.439500
45.196800 1.476500
45.267600 1.499600
45.338400 1.544700
45.409200 1.588800
45.480000 1.633800
45.550800 1.682900
45.621700 1.733300
45.692500 1.773900
45.763300 1.843000
45.834100 1.963200
45.904900 2.154700
45.975700 2.372600
46.046500 2.724100
46.117300 3.287400
46.188100 4.255900
46.258900 5.278700
46.329700 6.105300
46.400500 3.664100
46.471300 2.934100
46.542100 2.420000
46.612900 2.193400
46.683700 1.946800
46.754500 1.758700
46.825300 1.637400
46.896100 1.591600
46.967000 1.578100
47.037800 1.567500
47.108600 1.643900
47.179400 1.677200
47.250200 1.670900
47.321000 1.621300
47.391800 1.582800
47.462600 1.511000
47.533400 1.486100
47.604200 1.477300
47.675000 1.433200
47.745800 1.406800
47.816600 1.396700
47.887400 1.401900
47.958200 1.370300
48.029000 1.353500
48.099800 1.346400
48.170600 1.337200
48.241400 1.336600
48.312200 1.336900
48.383100 1.344900
48.453900 1.341700
48.524700 1.346800
48.595500 1.334500
48.666300 1.324800
48.737100 1.339500
48.807900 1.356400
48.878700 1.347800
48.949500 1.341200
49.020300 1.366500
49.091100 1.387100
49.161900 1.391500
49.232700 1.384200
49.303500 1.358300
49.374300 1.345200
49.445100 1.334000
49.515900 1.318200
49.586700 1.300300
49.657500 1.260100
49.728400 1.234400
49.799200 1.206400
49.870000 1.196000
49.940800 1.205100
50.011600 1.197500
50.082400 1.197500
50.153200 1.194300
50.224000 1.191700
50.294800 1.191300
50.365600 1.186800
50.436400 1.202800
50.507200 1.165300
50.578000 1.135400
50.648800 1.132700
50.719600 1.134300
50.790400 1.143700
50.861200 1.154900
50.932000 1.165500
51.002800 1.180500
51.073600 1.202900
51.144500 1.208400
51.215300 1.234200
51.286100 1.225800
51.356900 1.214000
51.427700 1.227200
51.498500 1.246800
51.569300 1.250800
51.640100 1.257700
51.710900 1.315000
51.781700 1.357300
51.852500 1.376300
51.923300 1.383300
51.994100 1.391100
52.064900 1.390500
52.135700 1.385600
52.206500 1.387700
52.277300 1.377500
52.348100 1.385900
52.418900 1.390100
52.489800 1.418900
52.560600 1.457100
52.631400 1.484600
52.702200 1.493200
52.773000 1.505600
52.843800 1.509400
52.914600 1.522400
52.985400 1.535500
53.056200 1.592600
53.127000 1.603700
53.197800 1.627800
53.268600 1.682400
53.339400 1.743500
53.410200 1.755300
53.481000 1.701200
53.551800 1.665300
53.622600 1.691900
53.693400 1.729500
53.764200 1.729900
53.835000 1.662300
53.905900 1.616800
53.976700 1.620700
54.047500 1.587500
54.118300 1.593200
54.189100 1.598700
54.259900 1.617200
54.330700 1.657800
54.401500 1.684700
54.472300 1.722200
54.543100 1.783100
54.613900 1.808400
54.684700 1.853200
54.755500 1.882600
54.826300 1.921100
54.897100 1.939200
54.967900 1.943400
55.038700 1.941300
55.109500 1.966400
55.180300 2.001000
55.251200 1.984300
55.322000 2.017900
55.392800 2.090600
55.463600 2.129000
55.534400 2.164200
55.605200 2.123800
55.676000 2.104200
55.746800 2.180500
55.817600 2.252700
55.888400 2.342100
55.959200 2.326100
56.030000 2.432300
56.100800 2.428800
56.171600 2.502700
56.242400 2.530900
56.313200 2.532200
56.384000 2.530900
56.454800 2.618000
56.525600 2.589200
56.596400 2.596100
56.667300 2.543300
56.738100 2.692700
56.808900 2.881000
56.879700 2.972200
56.950500 3.139600
57.021300 3.081000
57.092100 2.874400
57.162900 2.895200
57.233700 3.058700
57.304500 3.154400
57.375300 3.030500
57.446100 2.958700
57.516900 2.957000
57.587700 3.021000
57.658500 3.003800
57.729300 3.092700
57.800100 3.218400
57.870900 3.352700
57.941700 3.337700
58.012600 3.140500
58.083400 2.910000
58.154200 2.667400
58.225000 2.470400
58.295800 2.278200
58.366600 2.389200
58.437400 2.406800
58.508200 2.290500
58.579000 2.259800
58.649800 2.306000
58.720600 2.434900
58.791400 2.428100
58.862200 2.382700
58.933000 2.426600
59.003800 2.308700
59.074600 2.239500
59.145400 2.072600
59.216200 1.924100
59.287000 1.836000
59.357800 1.777000
59.428700 1.789200
59.499500 1.793700
59.570300 1.872700
59.641100 1.954100
59.711900 2.125200
59.782700 2.099100
59.853500 2.096700
59.924300 2.047000
59.995100 1.884500
60.065900 1.794200
60.136700 1.760000
60.207500 1.774600
60.278300 1.808500
60.349100 1.747700
60.419900 1.713800
60.490700 1.703400
60.561500 1.731400
60.632300 1.764900
60.703100 1.725100
60.774000 1.655200
60.844800 1.596200
60.915600 1.578900
60.986400 1.591800
61.057200 1.578500
61.128000 1.553800
61.198800 1.520200
61.269600 1.523300
61.340400 1.541300
61.411200 1.537900
61.482000 1.591200
61.552800 1.689700
61.623600 1.770500
61.694400 1.769500
61.765200 1.735400
61.836000 1.596400
61.906800 1.543400
61.977600 1.492700
62.048400 1.475800
62.119200 1.476900
62.190100 1.489100
62.260900 1.505700
62.331700 1.557300
62.402500 1.589000
62.473300 1.601400
62.544100 1.612300
62.614900 1.588300
62.685700 1.629000
62.756500 1.625600
62.827300 1.585700
62.898100 1.578500
62.968900 1.558500
63.039700 1.550200
63.110500 1.510200
63.181300 1.496100
63.252100 1.480600
63.322900 1.494500
63.393700 1.484500
63.464500 1.483600
63.535400 1.508000
63.606200 1.524200
63.677000 1.547900
63.747800 1.535000
63.818600 1.515900
63.889400 1.511600
63.960200 1.491700
64.031000 1.463500
64.101800 1.433200
64.172600 1.376000
64.243400 1.345200
64.314200 1.344200
64.385000 1.351200
64.455800 1.377200
64.526600 1.382500
64.597400 1.400200
64.668200 1.453900
64.739000 1.485500
64.809800 1.478600
64.880600 1.500400
64.951500 1.550700
65.022300 1.563400
65.093100 1.586800
65.163900 1.519400
65.234700 1.525600
65.305500 1.500700
65.376300 1.518900
65.447100 1.531200
65.517900 1.553400
65.588700 1.571900
65.659500 1.620800
65.730300 1.631600
65.801100 1.644000
65.871900 1.634700
65.942700 1.647400
66.013500 1.645100
66.084300 1.644400
66.155100 1.665200
66.225900 1.689700
66.296800 1.709500
66.367600 1.740200
66.438400 1.727400
66.509200 1.696300
66.580000 1.618600
66.650800 1.581300
66.721600 1.540200
66.792400 1.471100
66.863200 1.426100
66.934000 1.375500
67.004800 1.396400
67.075600 1.374200
67.146400 1.345500
67.217200 1.313400
67.288000 1.264300
67.358800 1.210500
67.429600 1.150600
67.500400 1.126700
67.571200 1.093500
67.642000 1.077600
67.712900 1.054800
67.783700 1.049600
67.854500 1.031000
67.925300 0.982800
67.996100 0.972000
68.066900 0.948900
68.137700 0.939800
68.208500 0.899700
68.279300 0.869100
68.350100 0.856200
68.420900 0.841900
68.491700 0.786300
68.562500 0.744200
68.633300 0.714800
68.704100 0.693800
68.774900 0.679300
68.845700 0.661000
68.916500 0.642200
68.987300 0.623600
69.058200 0.599400
69.129000 0.566000
69.199800 0.541600
69.270600 0.524500
69.341400 0.514200
69.412200 0.518300
69.483000 0.492300
69.553800 0.485900
69.624600 0.489000
69.695400 0.454600
69.766200 0.437000
69.837000 0.405600
69.907800 0.396600
69.978600 0.389400
70.049400 0.376900
70.120200 0.348100
70.191000 0.319200
70.261800 0.289600
70.332600 0.258900
70.403400 0.246200
70.474300 0.230700
70.545100 0.216800
70.615900 0.198300
70.686700 0.185100
70.757500 0.174000
70.828300 0.160700
70.899100 0.147500
70.969900 0.138300
71.040700 0.122100
71.111500 0.111500
71.182300 0.104400
71.253100 0.097500
71.323900 0.091800
71.394700 0.088900
71.465500 0.086600
71.536300 0.084000
71.607100 0.082700
71.677900 0.083000
71.748700 0.075500
71.819600 0.071600
71.890400 0.067700
71.961200 0.066800
72.032000 0.061700
72.102800 0.056800
72.173600 0.050800
72.244400 0.044600
72.315200 0.040400
72.386000 0.040000
72.456800 0.040300
72.527600 0.038900
72.598400 0.035800
72.669200 0.033000
72.740000 0.031000
72.810800 0.029300
72.881600 0.027300
72.952400 0.024200
73.023200 0.022200
73.094000 0.015400
73.164800 0.007300
73.235700 0.004100
73.306500 0.003000
73.377300 0.002200
73.448100 0.001500
73.518900 0.001000
73.589700 0.000600
73.660500 0.000300
73.731300 0.000100
73.802100 0.000000
73.872900 0.000000
73.943700 0.000000
74.014500 0.000000
74.085300 0.000000
74.156100 0.000000
74.226900 0.000000
74.297700 0.000000
74.368500 0.000000
74.439300 0.000000
74.510100 0.000000
74.581000 0.000000
74.651800 0.000000
74.722600 0.000000
74.793400 0.000000
74.864200 0.000000
74.935000 0.000000
75.005800 0.000000
75.076600 0.000000
75.147400 0.000000
75.218200 0.000000
75.289000 0.000000
75.359800 0.000000
75.430600 0.000000
75.501400 0.000000
75.572200 0.000000
75.643000 0.000000
75.713800 0.000000
75.784600 0.000000
75.855400 0.000000
75.926200 0.000000
75.997100 0.000000
76.067900 0.000000
76.138700 0.000000
76.209500 0.000000
76.280300 0.000000
76.351100 0.000000
76.421900 0.000000
76.492700 0.000000
76.563500 0.000000
76.634300 0.000000
76.705100 0.000000
76.775900 0.000000
76.846700 0.000000
76.917500 0.000000
76.988300 0.000000
77.059100 0.000000
77.129900 0.000000
77.200700 0.000000
77.271500 0.000000
77.342400 0.000000
77.413200 0.000000
77.484000 0.000000
77.554800 0.000000
77.625600 0.000000
77.696400 0.000000
77.767200 0.000000
77.838000 0.000000
77.908800 0.000000
77.979600 0.000000
78.050400 0.000000
78.121200 0.000000
78.192000 0.000000
78.262800 0.000000
78.333600 0.000000
78.404400 0.000000
78.475200 0.000000
78.546000 0.000000
78.616800 0.000000
78.687600 0.000000
78.758500 0.000000
78.829300 0.000000
78.900100 0.000000
78.970900 0.000000
79.041700 0.000000
79.112500 0.000000
79.183300 0.000000
79.254100 0.000000
79.324900 0.000000
79.395700 0.000000
79.466500 0.000000
79.537300 0.000000
79.608100 0.000000
79.678900 0.000000
79.749700 0.000000
79.820500 0.000000
79.891300 0.000000
79.962100 0.000000
80.032900 0.000000
80.103800 0.000000
80.174600 0.000000
80.245400 0.000000
e
