set title 'mp-1220038 - Density of States'
set xlabel 'Energy (eV)'
set ylabel 'DOS (states/eV)'
set grid
set xrange [-10:10]
set yrange [0:9.814]
set xzeroaxis lt -1
set terminal png size 800,600
set output 'mp-1220038_dos_gnuplot.png'
plot '-' using 1:2 with lines title 'DOS'
-42.319600 0.000000
-42.278200 0.000000
-42.236900 0.000000
-42.195600 0.000000
-42.154300 0.000000
-42.113000 0.000000
-42.071700 0.000000
-42.030400 0.000000
-41.989100 0.000000
-41.947700 0.000000
-41.906400 0.000000
-41.865100 0.000000
-41.823800 0.000000
-41.782500 0.000000
-41.741200 0.000000
-41.699900 0.000000
-41.658500 0.000000
-41.617200 0.000000
-41.575900 0.000000
-41.534600 0.000000
-41.493300 0.000000
-41.452000 0.000000
-41.410700 0.000000
-41.369400 0.000000
-41.328000 0.000000
-41.286700 0.000000
-41.245400 0.000000
-41.204100 0.000000
-41.162800 0.000000
-41.121500 0.000000
-41.080200 0.000000
-41.038900 0.000000
-40.997500 0.000000
-40.956200 0.000000
-40.914900 0.000000
-40.873600 0.000000
-40.832300 0.000000
-40.791000 0.000000
-40.749700 0.000000
-40.708300 0.000000
-40.667000 0.000000
-40.625700 0.000000
-40.584400 0.000000
-40.543100 0.000000
-40.501800 0.000000
-40.460500 0.000000
-40.419200 0.000000
-40.377800 0.000000
-40.336500 0.000000
-40.295200 0.000000
-40.253900 0.000000
-40.212600 0.000000
-40.171300 0.000000
-40.130000 0.000000
-40.088600 0.000000
-40.047300 0.000000
-40.006000 0.000000
-39.964700 0.000000
-39.923400 0.000000
-39.882100 0.000000
-39.840800 0.000000
-39.799500 0.000000
-39.758100 0.000000
-39.716800 0.000000
-39.675500 0.000000
-39.634200 0.000000
-39.592900 0.000000
-39.551600 0.000000
-39.510300 0.000000
-39.469000 0.000000
-39.427600 0.000000
-39.386300 0.000000
-39.345000 0.000000
-39.303700 0.000000
-39.262400 0.000000
-39.221100 0.000000
-39.179800 0.000000
-39.138400 0.000000
-39.097100 0.000000
-39.055800 0.000000
-39.014500 0.000000
-38.973200 0.000000
-38.931900 0.000000
-38.890600 0.000000
-38.849300 0.000000
-38.807900 0.000000
-38.766600 0.000000
-38.725300 0.000000
-38.684000 0.000000
-38.642700 0.000000
-38.601400 0.000000
-38.560100 1.488300
-38.518700 6.704800
-38.477400 9.937600
-38.436100 7.054400
-38.394800 4.350200
-38.353500 12.720600
-38.312200 69.286700
-38.270900 5.198300
-38.229600 5.549100
-38.188200 7.330400
-38.146900 8.985000
-38.105600 10.437600
-38.064300 7.911400
-38.023000 6.473500
-37.981700 0.000000
-37.940400 0.000000
-37.899100 0.000000
-37.857700 0.000000
-37.816400 0.000000
-37.775100 0.000000
-37.733800 0.000000
-37.692500 0.000000
-37.651200 0.000000
-37.609900 0.000000
-37.568500 0.000000
-37.527200 0.000000
-37.485900 0.000000
-37.444600 0.000000
-37.403300 0.000000
-37.362000 0.000000
-37.320700 0.000000
-37.279400 0.000000
-37.238000 0.000000
-37.196700 0.000000
-37.155400 0.000000
-37.114100 0.000000
-37.072800 0.000000
-37.031500 0.000000
-36.990200 0.000000
-36.948800 0.000000
-36.907500 0.000000
-36.866200 0.000000
-36.824900 0.000000
-36.783600 0.000000
-36.742300 0.000000
-36.701000 0.000000
-36.659700 0.000000
-36.618300 0.000000
-36.577000 0.000000
-36.535700 0.000000
-36.494400 0.000000
-36.453100 0.000000
-36.411800 0.000000
-36.370500 0.000000
-36.329200 0.000000
-36.287800 0.000000
-36.246500 0.000000
-36.205200 0.000000
-36.163900 0.000000
-36.122600 0.000000
-36.081300 0.000000
-36.040000 0.000000
-35.998600 0.000000
-35.957300 0.000000
-35.916000 0.000000
-35.874700 0.000000
-35.833400 0.000000
-35.792100 0.000000
-35.750800 0.000000
-35.709500 0.000000
-35.668100 0.000000
-35.626800 0.000000
-35.585500 0.000000
-35.544200 0.000000
-35.502900 0.000000
-35.461600 0.000000
-35.420300 0.000000
-35.378900 0.000000
-35.337600 0.000000
-35.296300 0.000000
-35.255000 0.000000
-35.213700 0.000000
-35.172400 0.000000
-35.131100 0.000000
-35.089800 0.000000
-35.048400 0.000000
-35.007100 0.000000
-34.965800 0.000000
-34.924500 0.000000
-34.883200 0.000000
-34.841900 0.000000
-34.800600 0.000000
-34.759300 0.000000
-34.717900 0.000000
-34.676600 0.000000
-34.635300 0.000000
-34.594000 0.000000
-34.552700 0.000000
-34.511400 0.000000
-34.470100 0.000000
-34.428700 0.000000
-34.387400 0.000000
-34.346100 0.000000
-34.304800 0.000000
-34.263500 0.000000
-34.222200 0.000000
-34.180900 0.000000
-34.139600 0.000000
-34.098200 0.000000
-34.056900 0.000000
-34.015600 0.000000
-33.974300 0.000000
-33.933000 0.000000
-33.891700 0.000000
-33.850400 0.000000
-33.809000 0.000000
-33.767700 0.000000
-33.726400 0.000000
-33.685100 0.000000
-33.643800 0.000000
-33.602500 0.000000
-33.561200 0.000000
-33.519900 0.000000
-33.478500 0.000000
-33.437200 0.000000
-33.395900 0.000000
-33.354600 0.000000
-33.313300 0.000000
-33.272000 0.000000
-33.230700 0.000000
-33.189400 0.000000
-33.148000 0.000000
-33.106700 0.000000
-33.065400 0.000000
-33.024100 0.000000
-32.982800 0.000000
-32.941500 0.000000
-32.900200 0.000000
-32.858800 0.000000
-32.817500 0.000000
-32.776200 0.000000
-32.734900 0.000000
-32.693600 0.000000
-32.652300 0.000000
-32.611000 0.000000
-32.569700 0.000000
-32.528300 0.000000
-32.487000 0.000000
-32.445700 0.000000
-32.404400 0.000000
-32.363100 0.000000
-32.321800 0.000000
-32.280500 0.000000
-32.239100 0.000000
-32.197800 0.000000
-32.156500 0.000000
-32.115200 0.000000
-32.073900 0.000000
-32.032600 0.000000
-31.991300 0.000000
-31.950000 0.000000
-31.908600 0.000000
-31.867300 0.000000
-31.826000 0.000000
-31.784700 0.000000
-31.743400 0.000000
-31.702100 0.000000
-31.660800 0.000000
-31.619400 0.000000
-31.578100 0.000000
-31.536800 0.000000
-31.495500 0.000000
-31.454200 0.000000
-31.412900 0.000000
-31.371600 0.000000
-31.330300 0.000000
-31.288900 0.000000
-31.247600 0.000000
-31.206300 0.000000
-31.165000 0.000000
-31.123700 0.000000
-31.082400 0.000000
-31.041100 0.000000
-30.999800 0.000000
-30.958400 0.000000
-30.917100 0.000000
-30.875800 0.000000
-30.834500 0.000000
-30.793200 0.000000
-30.751900 0.000000
-30.710600 0.000000
-30.669200 0.000000
-30.627900 0.000000
-30.586600 0.000000
-30.545300 0.000000
-30.504000 0.000000
-30.462700 0.000000
-30.421400 0.000000
-30.380100 0.000000
-30.338700 0.000000
-30.297400 0.000000
-30.256100 0.000000
-30.214800 0.000000
-30.173500 0.000000
-30.132200 0.000000
-30.090900 0.000000
-30.049500 0.000000
-30.008200 0.000000
-29.966900 0.000000
-29.925600 0.000000
-29.884300 0.000000
-29.843000 0.000000
-29.801700 0.000000
-29.760400 0.000000
-29.719000 0.000000
-29.677700 0.000000
-29.636400 0.000000
-29.595100 0.000000
-29.553800 0.000000
-29.512500 0.000000
-29.471200 0.000000
-29.429900 0.000000
-29.388500 0.000000
-29.347200 0.000000
-29.305900 0.000000
-29.264600 0.000000
-29.223300 0.000000
-29.182000 0.000000
-29.140700 0.000000
-29.099300 0.000000
-29.058000 0.000000
-29.016700 0.000000
-28.975400 0.000000
-28.934100 0.000000
-28.892800 0.000000
-28.851500 0.000000
-28.810200 0.000000
-28.768800 0.000000
-28.727500 0.000000
-28.686200 0.000000
-28.644900 0.000000
-28.603600 0.000000
-28.562300 0.000000
-28.521000 0.000000
-28.479600 0.000000
-28.438300 0.000000
-28.397000 0.000000
-28.355700 0.000000
-28.314400 0.000000
-28.273100 0.000000
-28.231800 0.000000
-28.190500 0.000000
-28.149100 0.000000
-28.107800 0.000000
-28.066500 0.000000
-28.025200 0.000000
-27.983900 0.000000
-27.942600 0.000000
-27.901300 0.000000
-27.860000 0.000000
-27.818600 0.000000
-27.777300 0.000000
-27.736000 0.000000
-27.694700 0.000000
-27.653400 0.000000
-27.612100 0.000000
-27.570800 0.000000
-27.529400 0.000000
-27.488100 0.000000
-27.446800 0.000000
-27.405500 0.000000
-27.364200 0.000000
-27.322900 0.000000
-27.281600 0.000000
-27.240300 0.000000
-27.198900 0.000000
-27.157600 0.000000
-27.116300 0.000000
-27.075000 0.000000
-27.033700 0.000000
-26.992400 0.000000
-26.951100 0.000000
-26.909700 0.000000
-26.868400 0.000000
-26.827100 0.000000
-26.785800 0.000000
-26.744500 0.000000
-26.703200 0.000000
-26.661900 0.000000
-26.620600 0.000000
-26.579200 0.000000
-26.537900 0.000000
-26.496600 0.000000
-26.455300 0.000000
-26.414000 0.000000
-26.372700 0.000000
-26.331400 0.000000
-26.290100 0.000000
-26.248700 0.000000
-26.207400 0.000000
-26.166100 0.000000
-26.124800 0.000000
-26.083500 0.000000
-26.042200 0.000000
-26.000900 0.000000
-25.959500 0.000000
-25.918200 0.000000
-25.876900 0.000000
-25.835600 0.000000
-25.794300 0.000000
-25.753000 0.000000
-25.711700 0.000000
-25.670400 0.000000
-25.629000 0.000000
-25.587700 0.000000
-25.546400 0.000000
-25.505100 0.000000
-25.463800 0.000000
-25.422500 0.000000
-25.381200 0.000000
-25.339800 0.000000
-25.298500 0.000000
-25.257200 0.000000
-25.215900 0.000000
-25.174600 0.000000
-25.133300 0.000000
-25.092000 0.000000
-25.050700 0.000000
-25.009300 0.000000
-24.968000 0.000000
-24.926700 0.000000
-24.885400 0.000000
-24.844100 0.000000
-24.802800 0.000000
-24.761500 0.000000
-24.720200 0.000000
-24.678800 0.000000
-24.637500 0.000000
-24.596200 0.000000
-24.554900 0.000000
-24.513600 0.000000
-24.472300 0.000000
-24.431000 0.000000
-24.389600 0.000000
-24.348300 0.000000
-24.307000 0.000000
-24.265700 0.000000
-24.224400 0.000000
-24.183100 0.000000
-24.141800 0.000000
-24.100500 0.000000
-24.059100 0.000000
-24.017800 0.000000
-23.976500 0.000000
-23.935200 0.000000
-23.893900 0.000000
-23.852600 0.000000
-23.811300 0.000000
-23.769900 0.000000
-23.728600 0.000000
-23.687300 0.000000
-23.646000 0.000000
-23.604700 0.000000
-23.563400 0.000000
-23.522100 0.000000
-23.480800 0.000000
-23.439400 0.000000
-23.398100 0.000000
-23.356800 0.000000
-23.315500 0.000000
-23.274200 0.000000
-23.232900 0.000000
-23.191600 0.000000
-23.150300 0.000000
-23.108900 0.000000
-23.067600 0.000000
-23.026300 0.000000
-22.985000 0.000000
-22.943700 0.000000
-22.902400 0.000000
-22.861100 0.000000
-22.819700 0.000000
-22.778400 0.000000
-22.737100 0.000000
-22.695800 0.000000
-22.654500 0.000000
-22.613200 0.000000
-22.571900 0.000000
-22.530600 0.000000
-22.489200 0.000000
-22.447900 0.000000
-22.406600 0.000000
-22.365300 0.000000
-22.324000 0.000000
-22.282700 0.000000
-22.241400 0.000000
-22.200000 0.000000
-22.158700 0.000000
-22.117400 0.000000
-22.076100 0.000000
-22.034800 0.000000
-21.993500 0.000000
-21.952200 0.000000
-21.910900 0.000000
-21.869500 0.000000
-21.828200 0.000000
-21.786900 0.000000
-21.745600 0.000000
-21.704300 0.000000
-21.663000 0.000000
-21.621700 0.000000
-21.580400 0.000000
-21.539000 0.000000
-21.497700 0.000000
-21.456400 0.000000
-21.415100 0.000000
-21.373800 0.000000
-21.332500 0.000000
-21.291200 0.000000
-21.249800 0.000000
-21.208500 0.000000
-21.167200 0.000000
-21.125900 0.000000
-21.084600 0.000000
-21.043300 0.000000
-21.002000 0.000000
-20.960700 0.000000
-20.919300 0.000000
-20.878000 0.000000
-20.836700 0.000000
-20.795400 0.000000
-20.754100 0.000000
-20.712800 0.000000
-20.671500 0.000000
-20.630100 0.000000
-20.588800 0.000000
-20.547500 0.000000
-20.506200 0.000000
-20.464900 0.000000
-20.423600 0.000000
-20.382300 0.000000
-20.341000 0.000000
-20.299600 0.000000
-20.258300 0.000000
-20.217000 0.000000
-20.175700 0.000000
-20.134400 0.000000
-20.093100 0.000000
-20.051800 0.000000
-20.010500 0.000000
-19.969100 0.000000
-19.927800 0.000000
-19.886500 0.000000
-19.845200 0.000000
-19.803900 0.000000
-19.762600 0.000000
-19.721300 0.000000
-19.679900 0.000000
-19.638600 0.000000
-19.597300 0.000000
-19.556000 0.000000
-19.514700 0.000000
-19.473400 0.000000
-19.432100 0.000000
-19.390800 0.000000
-19.349400 0.000000
-19.308100 0.000000
-19.266800 0.000000
-19.225500 0.000000
-19.184200 0.000000
-19.142900 0.000000
-19.101600 0.000000
-19.060200 0.000000
-19.018900 0.000000
-18.977600 0.000000
-18.936300 0.000000
-18.895000 0.000000
-18.853700 0.000000
-18.812400 0.000000
-18.771100 0.000000
-18.729700 0.000000
-18.688400 0.000000
-18.647100 0.000000
-18.605800 0.000000
-18.564500 0.000000
-18.523200 0.000000
-18.481900 0.000000
-18.440500 0.000000
-18.399200 0.000000
-18.357900 0.000000
-18.316600 0.000000
-18.275300 0.000000
-18.234000 0.000000
-18.192700 0.000000
-18.151400 0.000000
-18.110000 0.000000
-18.068700 0.000000
-18.027400 0.000000
-17.986100 0.000000
-17.944800 0.000000
-17.903500 0.000000
-17.862200 0.000000
-17.820900 0.000000
-17.779500 0.000000
-17.738200 0.000000
-17.696900 0.000000
-17.655600 0.000000
-17.614300 0.000000
-17.573000 0.000000
-17.531700 0.000000
-17.490300 0.000000
-17.449000 0.000000
-17.407700 0.000000
-17.366400 0.000000
-17.325100 0.000000
-17.283800 0.000000
-17.242500 0.000000
-17.201200 0.000000
-17.159800 0.000000
-17.118500 0.000000
-17.077200 0.000000
-17.035900 0.000000
-16.994600 0.000000
-16.953300 0.000000
-16.912000 0.000000
-16.870600 0.000000
-16.829300 0.000000
-16.788000 0.000000
-16.746700 0.000000
-16.705400 0.000000
-16.664100 0.000000
-16.622800 0.000000
-16.581500 0.000000
-16.540100 0.000000
-16.498800 0.000000
-16.457500 0.000000
-16.416200 0.000000
-16.374900 0.000000
-16.333600 0.000000
-16.292300 0.000000
-16.251000 0.000000
-16.209600 0.000000
-16.168300 0.000000
-16.127000 0.000000
-16.085700 0.000000
-16.044400 0.000000
-16.003100 0.000000
-15.961800 0.000000
-15.920400 0.000000
-15.879100 0.000000
-15.837800 0.000000
-15.796500 0.000000
-15.755200 0.000000
-15.713900 0.000000
-15.672600 0.000000
-15.631300 0.000000
-15.589900 0.000000
-15.548600 0.000000
-15.507300 0.000000
-15.466000 0.000000
-15.424700 0.000000
-15.383400 0.000000
-15.342100 0.000000
-15.300700 0.000000
-15.259400 0.000000
-15.218100 0.000000
-15.176800 0.000000
-15.135500 0.000000
-15.094200 0.000000
-15.052900 0.000000
-15.011600 0.000000
-14.970200 0.000000
-14.928900 0.000000
-14.887600 0.000000
-14.846300 0.000000
-14.805000 0.000000
-14.763700 0.000000
-14.722400 0.000000
-14.681100 0.000000
-14.639700 0.000000
-14.598400 0.000000
-14.557100 0.000000
-14.515800 0.000000
-14.474500 0.000000
-14.433200 0.000000
-14.391900 0.000000
-14.350500 0.000000
-14.309200 0.000000
-14.267900 0.000000
-14.226600 0.000000
-14.185300 0.000000
-14.144000 0.000000
-14.102700 0.000000
-14.061400 0.000000
-14.020000 0.000000
-13.978700 0.000000
-13.937400 0.000000
-13.896100 0.000000
-13.854800 0.000000
-13.813500 0.000000
-13.772200 0.000000
-13.730800 0.000000
-13.689500 0.000000
-13.648200 0.000000
-13.606900 0.000000
-13.565600 0.000000
-13.524300 0.000000
-13.483000 0.000000
-13.441700 0.000000
-13.400300 0.000000
-13.359000 0.000000
-13.317700 0.000000
-13.276400 0.000000
-13.235100 0.000000
-13.193800 0.000000
-13.152500 0.000000
-13.111200 0.000000
-13.069800 0.000000
-13.028500 0.000000
-12.987200 0.000000
-12.945900 0.000000
-12.904600 0.000000
-12.863300 0.000000
-12.822000 0.000000
-12.780600 0.000000
-12.739300 0.000000
-12.698000 0.000000
-12.656700 0.000000
-12.615400 0.000000
-12.574100 0.000000
-12.532800 0.000000
-12.491500 0.000000
-12.450100 0.000000
-12.408800 0.000000
-12.367500 0.000000
-12.326200 0.000000
-12.284900 0.000000
-12.243600 0.000000
-12.202300 0.000000
-12.160900 0.000000
-12.119600 0.000000
-12.078300 0.000000
-12.037000 0.000000
-11.995700 0.000000
-11.954400 0.000000
-11.913100 0.000000
-11.871800 0.000000
-11.830400 0.000000
-11.789100 0.000000
-11.747800 0.000000
-11.706500 0.000000
-11.665200 0.000000
-11.623900 0.000000
-11.582600 0.000000
-11.541300 0.000000
-11.499900 0.000000
-11.458600 0.000000
-11.417300 0.000000
-11.376000 0.000000
-11.334700 0.000000
-11.293400 0.000000
-11.252100 0.000000
-11.210700 0.000000
-11.169400 0.000000
-11.128100 0.000000
-11.086800 0.000000
-11.045500 0.000000
-11.004200 0.000000
-10.962900 0.000000
-10.921600 0.000000
-10.880200 0.000000
-10.838900 0.000000
-10.797600 0.000000
-10.756300 0.000000
-10.715000 0.000000
-10.673700 0.000000
-10.632400 0.000000
-10.591000 0.000000
-10.549700 0.000000
-10.508400 0.000000
-10.467100 0.000000
-10.425800 0.000000
-10.384500 0.000000
-10.343200 0.000000
-10.301900 0.000000
-10.260500 0.000000
-10.219200 0.000000
-10.177900 0.000000
-10.136600 0.000000
-10.095300 0.000000
-10.054000 0.000000
-10.012700 0.000000
-9.971400 0.000000
-9.930000 0.000000
-9.888700 0.000000
-9.847400 0.000000
-9.806100 0.000000
-9.764800 0.000000
-9.723500 0.000000
-9.682200 0.000000
-9.640800 0.000000
-9.599500 0.000000
-9.558200 0.000000
-9.516900 0.000000
-9.475600 0.000000
-9.434300 0.000000
-9.393000 0.000000
-9.351700 0.000000
-9.310300 0.000000
-9.269000 0.000000
-9.227700 0.000000
-9.186400 0.000000
-9.145100 0.000000
-9.103800 0.000000
-9.062500 0.000000
-9.021100 0.000000
-8.979800 0.000000
-8.938500 0.000000
-8.897200 0.000000
-8.855900 0.000000
-8.814600 0.000000
-8.773300 0.000000
-8.732000 0.000000
-8.690600 0.000000
-8.649300 0.000000
-8.608000 0.000000
-8.566700 0.000000
-8.525400 0.000000
-8.484100 0.000000
-8.442800 0.000000
-8.401500 0.000000
-8.360100 0.000000
-8.318800 0.000000
-8.277500 0.000000
-8.236200 0.000000
-8.194900 0.000000
-8.153600 0.000000
-8.112300 0.000000
-8.070900 0.000000
-8.029600 0.000000
-7.988300 0.000000
-7.947000 0.000000
-7.905700 0.000000
-7.864400 0.000000
-7.823100 0.000000
-7.781800 0.000000
-7.740400 0.000000
-7.699100 0.000000
-7.657800 0.000000
-7.616500 0.000000
-7.575200 0.000000
-7.533900 0.000000
-7.492600 0.000000
-7.451200 0.000000
-7.409900 0.000000
-7.368600 0.000000
-7.327300 0.000000
-7.286000 0.000000
-7.244700 0.000000
-7.203400 0.000000
-7.162100 0.000000
-7.120700 0.000000
-7.079400 0.000000
-7.038100 0.000000
-6.996800 0.000000
-6.955500 0.000000
-6.914200 0.000000
-6.872900 0.000000
-6.831600 0.000000
-6.790200 0.000000
-6.748900 0.000000
-6.707600 0.000000
-6.666300 0.000000
-6.625000 0.000000
-6.583700 0.000000
-6.542400 0.000000
-6.501000 0.000000
-6.459700 0.000000
-6.418400 0.000000
-6.377100 0.000000
-6.335800 0.000000
-6.294500 0.000000
-6.253200 0.000000
-6.211900 0.000000
-6.170500 0.000000
-6.129200 0.000000
-6.087900 0.000000
-6.046600 0.000000
-6.005300 0.000000
-5.964000 0.000000
-5.922700 0.000000
-5.881300 0.000000
-5.840000 0.000000
-5.798700 0.000000
-5.757400 0.000000
-5.716100 0.000000
-5.674800 0.000000
-5.633500 0.000000
-5.592200 0.000000
-5.550800 0.000000
-5.509500 0.000000
-5.468200 0.000000
-5.426900 0.000000
-5.385600 0.000000
-5.344300 0.000000
-5.303000 0.000000
-5.261600 0.000000
-5.220300 0.000000
-5.179000 0.000000
-5.137700 0.000000
-5.096400 0.000000
-5.055100 0.000000
-5.013800 0.000000
-4.972500 0.000000
-4.931100 0.000000
-4.889800 0.000000
-4.848500 0.000000
-4.807200 0.000000
-4.765900 0.000000
-4.724600 0.000000
-4.683300 0.000000
-4.642000 0.000000
-4.600600 0.000000
-4.559300 0.000000
-4.518000 0.000000
-4.476700 0.000000
-4.435400 0.000000
-4.394100 0.000000
-4.352800 0.000000
-4.311400 0.000000
-4.270100 0.000000
-4.228800 0.000000
-4.187500 0.000000
-4.146200 0.000000
-4.104900 0.000000
-4.063600 0.000000
-4.022300 0.000000
-3.980900 0.000000
-3.939600 0.000000
-3.898300 0.000000
-3.857000 0.000000
-3.815700 0.000000
-3.774400 0.000000
-3.733100 0.000000
-3.691700 0.000000
-3.650400 0.000000
-3.609100 0.000000
-3.567800 0.000000
-3.526500 0.000000
-3.485200 0.000000
-3.443900 0.000000
-3.402600 0.000000
-3.361200 0.000000
-3.319900 0.000000
-3.278600 0.000000
-3.237300 0.000000
-3.196000 0.000000
-3.154700 0.000000
-3.113400 0.000000
-3.072100 0.000000
-3.030700 0.000000
-2.989400 0.000000
-2.948100 0.000000
-2.906800 0.000000
-2.865500 0.000000
-2.824200 0.000000
-2.782900 0.000000
-2.741500 0.000000
-2.700200 0.000000
-2.658900 0.000000
-2.617600 0.000000
-2.576300 0.000000
-2.535000 0.000000
-2.493700 0.000000
-2.452400 0.000000
-2.411000 0.000100
-2.369700 0.011000
-2.328400 0.029700
-2.287100 0.054000
-2.245800 0.082400
-2.204500 0.114800
-2.163200 0.140600
-2.121800 0.136900
-2.080500 0.146100
-2.039200 0.158100
-1.997900 0.173900
-1.956600 0.190100
-1.915300 0.203700
-1.874000 0.214400
-1.832700 0.221900
-1.791300 0.221200
-1.750000 0.211500
-1.708700 0.217300
-1.667400 0.222400
-1.626100 0.225600
-1.584800 0.227700
-1.543500 0.228900
-1.502200 0.229500
-1.460800 0.237000
-1.419500 0.248200
-1.378200 0.262600
-1.336900 0.279400
-1.295600 0.297300
-1.254300 0.301100
-1.213000 0.306500
-1.171600 0.314900
-1.130300 0.324600
-1.089000 0.335200
-1.047700 0.345900
-1.006400 0.357100
-0.965100 0.368600
-0.923800 0.380500
-0.882500 0.392500
-0.841100 0.404500
-0.799800 0.413700
-0.758500 0.423500
-0.717200 0.433500
-0.675900 0.443700
-0.634600 0.454100
-0.593300 0.465200
-0.551900 0.476900
-0.510600 0.489100
-0.469300 0.502600
-0.428000 0.516800
-0.386700 0.533900
-0.345400 0.551700
-0.304100 0.568500
-0.262800 0.583600
-0.221400 0.596400
-0.180100 0.606800
-0.138800 0.618000
-0.097500 0.638800
-0.056200 0.662300
-0.014900 0.686400
0.026400 0.710200
0.067700 0.730400
0.109100 0.752100
0.150400 0.776700
0.191700 0.810800
0.233000 0.850400
0.274300 0.898100
0.315600 0.959800
0.356900 1.030400
0.398300 1.116300
0.439600 1.210800
0.480900 1.317300
0.522200 1.478000
0.563500 1.824400
0.604800 2.053700
0.646100 2.217900
0.687400 2.256700
0.728800 2.247100
0.770100 2.417900
0.811400 2.595500
0.852700 2.961400
0.894000 3.272200
0.935300 3.342000
0.976600 3.559000
1.018000 3.850000
1.059300 3.874100
1.100600 3.674000
1.141900 3.388600
1.183200 3.275800
1.224500 3.551200
1.265800 3.780800
1.307100 4.077900
1.348500 4.450600
1.389800 4.967000
1.431100 5.488100
1.472400 5.511000
1.513700 5.443200
1.555000 5.462600
1.596300 5.587800
1.637600 5.758400
1.679000 5.394000
1.720300 5.134200
1.761600 5.068100
1.802900 5.351200
1.844200 5.163700
1.885500 5.281200
1.926800 5.498000
1.968200 5.393700
2.009500 4.867900
2.050800 4.706200
2.092100 4.873200
2.133400 5.520600
2.174700 6.885100
2.216000 5.121000
2.257300 4.600800
2.298700 4.179100
2.340000 3.565100
2.381300 3.616600
2.422600 3.866500
2.463900 4.384600
2.505200 4.335000
2.546500 4.636700
2.587900 4.784700
2.629200 4.367300
2.670500 3.492000
2.711800 3.229800
2.753100 3.460300
2.794400 3.673600
2.835700 3.929700
2.877000 3.999800
2.918400 3.731200
2.959700 4.960900
3.001000 5.813600
3.042300 6.035800
3.083600 5.561100
3.124900 5.499600
3.166200 5.341700
3.207500 4.992500
3.248900 4.853800
3.290200 5.473400
3.331500 6.026300
3.372800 5.678900
3.414100 5.612500
3.455400 5.250700
3.496700 5.062700
3.538100 5.430700
3.579400 5.500000
3.620700 5.625700
3.662000 5.651300
3.703300 6.130800
3.744600 6.560500
3.785900 6.944300
3.827200 7.105800
3.868600 6.843400
3.909900 6.592500
3.951200 6.585200
3.992500 6.240500
4.033800 6.869900
4.075100 6.698800
4.116400 7.042100
4.157800 5.832600
4.199100 5.844000
4.240400 6.452700
4.281700 6.885100
4.323000 7.144800
4.364300 6.679800
4.405600 7.736300
4.446900 6.846200
4.488300 8.921700
4.529600 8.276100
4.570900 8.249800
4.612200 8.748400
4.653500 8.302100
4.694800 8.681600
4.736100 8.177400
4.777400 5.986900
4.818800 6.062400
4.860100 6.372400
4.901400 6.097900
4.942700 4.912400
4.984000 4.415200
5.025300 4.333100
5.066600 4.384800
5.108000 5.048000
5.149300 4.706600
5.190600 4.381400
5.231900 4.194300
5.273200 4.607500
5.314500 5.648200
5.355800 5.399300
5.397100 4.888400
5.438500 4.631500
5.479800 4.522600
5.521100 4.310800
5.562400 4.226300
5.603700 4.312800
5.645000 4.360000
5.686300 5.112500
5.727700 5.550200
5.769000 5.847700
5.810300 5.967300
5.851600 5.645600
5.892900 5.600900
5.934200 5.337800
5.975500 4.979900
6.016800 5.472100
6.058200 6.180700
6.099500 8.287400
6.140800 5.896600
6.182100 5.100300
6.223400 4.287800
6.264700 3.989800
6.306000 3.763400
6.347400 3.654800
6.388700 3.694800
6.430000 3.892400
6.471300 3.846500
6.512600 4.150400
6.553900 4.622400
6.595200 5.294200
6.636500 5.393800
6.677900 4.803300
6.719200 4.597800
6.760500 4.553300
6.801800 4.507400
6.843100 4.585700
6.884400 4.720000
6.925700 4.700700
6.967000 4.664000
7.008400 4.928800
7.049700 4.979000
7.091000 4.432200
7.132300 4.060800
7.173600 4.112000
7.214900 4.344900
7.256200 4.543700
7.297600 4.206800
7.338900 4.152500
7.380200 4.273700
7.421500 4.285800
7.462800 4.257600
7.504100 4.173300
7.545400 4.122700
7.586700 4.048800
7.628100 4.417600
7.669400 4.887400
7.710700 4.969300
7.752000 5.697600
7.793300 5.898900
7.834600 5.776900
7.875900 5.442000
7.917300 5.109600
7.958600 4.915100
7.999900 4.771400
8.041200 4.189900
8.082500 3.652500
8.123800 3.389800
8.165100 3.464200
8.206400 3.595200
8.247800 3.642100
8.289100 3.790100
8.330400 3.946000
8.371700 3.561500
8.413000 3.355700
8.454300 3.155700
8.495600 3.151000
8.536900 3.294900
8.578300 4.010400
8.619600 6.116700
8.660900 5.818700
8.702200 5.941400
8.743500 3.959100
8.784800 2.801500
8.826100 1.605500
8.867500 1.554000
8.908800 1.513000
8.950100 1.477300
8.991400 1.445900
9.032700 1.421200
9.074000 1.406400
9.115300 1.401000
9.156600 1.401700
9.198000 1.406600
9.239300 1.415200
9.280600 1.424400
9.321900 1.434000
9.363200 1.461200
9.404500 1.511100
9.445800 1.515500
9.487200 1.484200
9.528500 1.476500
9.569800 1.506400
9.611100 1.506700
9.652400 1.502700
9.693700 1.486200
9.735000 1.458200
9.776300 1.413000
9.817700 1.333700
9.859000 1.317400
9.900300 1.319900
9.941600 1.321900
9.982900 1.324000
10.024200 1.328000
10.065500 1.329300
10.106800 1.326300
10.148200 1.323400
10.189500 1.318900
10.230800 1.312800
10.272100 1.303900
10.313400 1.291900
10.354700 1.277300
10.396000 1.266800
10.437400 1.258600
10.478700 1.254200
10.520000 1.254100
10.561300 1.257700
10.602600 1.262500
10.643900 1.254800
10.685200 1.265800
10.726500 1.277700
10.767900 1.282500
10.809200 1.279900
10.850500 1.271100
10.891800 1.261800
10.933100 1.251700
10.974400 1.238800
11.015700 1.226500
11.057100 1.236100
11.098400 1.299700
11.139700 1.228900
11.181000 1.133900
11.222300 1.089300
11.263600 1.049600
11.304900 1.038400
11.346200 1.027200
11.387600 1.013100
11.428900 1.003300
11.470200 0.995100
11.511500 0.985000
11.552800 0.972700
11.594100 0.981700
11.635400 0.885500
11.676700 0.886600
11.718100 0.888200
11.759400 0.890400
11.800700 0.900100
11.842000 0.906300
11.883300 0.911700
11.924600 0.915300
11.965900 0.920300
12.007300 0.927100
12.048600 0.935700
12.089900 0.945800
12.131200 0.962700
12.172500 0.995800
12.213800 1.046900
12.255100 1.088500
12.296400 1.036400
12.337800 1.055400
12.379100 1.087100
12.420400 1.160200
12.461700 1.331000
12.503000 1.184100
12.544300 1.148400
12.585600 1.128100
12.627000 1.074000
12.668300 1.119000
12.709600 1.215500
12.750900 1.269500
12.792200 1.243400
12.833500 1.159500
12.874800 1.054300
12.916100 0.966900
12.957500 0.885200
12.998800 0.812200
13.040100 0.750600
13.081400 0.699000
13.122700 0.665700
13.164000 0.646200
13.205300 0.634200
13.246600 0.628200
13.288000 0.625300
13.329300 0.622300
13.370600 0.624300
13.411900 0.639500
13.453200 0.665700
13.494500 0.769700
13.535800 0.991400
13.577200 1.170400
13.618500 1.318600
13.659800 1.806400
13.701100 1.964000
13.742400 2.075500
13.783700 1.978900
13.825000 1.842000
13.866300 1.704100
13.907700 1.519200
13.949000 1.450700
13.990300 1.421000
14.031600 1.413000
14.072900 1.450000
14.114200 1.443000
14.155500 1.349900
14.196900 1.246300
14.238200 1.181900
14.279500 1.142500
14.320800 1.100700
14.362100 1.042200
14.403400 1.021500
14.444700 1.019700
14.486000 1.017800
14.527400 1.013900
14.568700 1.003100
14.610000 0.993100
14.651300 0.989100
14.692600 0.984400
14.733900 1.015000
14.775200 1.063000
14.816500 1.169400
14.857900 1.296700
14.899200 1.412600
14.940500 1.543200
14.981800 1.521500
15.023100 1.472000
15.064400 1.489900
15.105700 1.519900
15.147100 1.508700
15.188400 1.507800
15.229700 1.514400
15.271000 1.515000
15.312300 1.465700
15.353600 1.359900
15.394900 1.243200
15.436200 1.166000
15.477600 1.074100
15.518900 0.970900
15.560200 0.896100
15.601500 0.898100
15.642800 0.924200
15.684100 0.963400
15.725400 1.027000
15.766800 1.044800
15.808100 1.093400
15.849400 1.122800
15.890700 1.149900
15.932000 1.208100
15.973300 1.377500
16.014600 1.449500
16.055900 1.451600
16.097300 1.504900
16.138600 1.618300
16.179900 1.695300
16.221200 1.691000
16.262500 1.619000
16.303800 1.541000
16.345100 1.480000
16.386400 1.417000
16.427800 1.362200
16.469100 1.349300
16.510400 1.245600
16.551700 1.205900
16.593000 1.157100
16.634300 1.119000
16.675600 1.086900
16.717000 1.063800
16.758300 1.048900
16.799600 1.044500
16.840900 1.041000
16.882200 1.040200
16.923500 1.043600
16.964800 1.058200
17.006100 1.090900
17.047500 1.130800
17.088800 1.164100
17.130100 1.169300
17.171400 1.143400
17.212700 1.115000
17.254000 1.099600
17.295300 1.081700
17.336700 1.053100
17.378000 1.001900
17.419300 0.991100
17.460600 0.983100
17.501900 0.977400
17.543200 0.973400
17.584500 0.971400
17.625800 1.062700
17.667200 1.135500
17.708500 1.226700
17.749800 1.491900
17.791100 1.638400
17.832400 1.673300
17.873700 1.698500
17.915000 1.692200
17.956300 1.725100
17.997700 1.634000
18.039000 1.650300
18.080300 1.592300
18.121600 1.510300
18.162900 1.483100
18.204200 1.455900
18.245500 1.425300
18.286900 1.389100
18.328200 1.347800
18.369500 1.317400
18.410800 1.298500
18.452100 1.288500
18.493400 1.283200
18.534700 1.283900
18.576000 1.297900
18.617400 1.311200
18.658700 1.320800
18.700000 1.324700
18.741300 1.316800
18.782600 1.300300
18.823900 1.300400
18.865200 1.328400
18.906600 1.497900
18.947900 1.360600
18.989200 1.353800
19.030500 1.376000
19.071800 1.414800
19.113100 1.488100
19.154400 1.561300
19.195700 1.616500
19.237100 1.681600
19.278400 1.752000
19.319700 1.790300
19.361000 1.777900
19.402300 1.677200
19.443600 1.613000
19.484900 1.604300
19.526300 1.618700
19.567600 1.646500
19.608900 1.684500
19.650200 1.738400
19.691500 1.805500
19.732800 1.874500
19.774100 1.918100
19.815400 1.889000
19.856800 1.838500
19.898100 1.892900
19.939400 1.836800
19.980700 1.991800
20.022000 1.766400
20.063300 1.670200
20.104600 1.634700
20.145900 1.589100
20.187300 1.517200
20.228600 1.478600
20.269900 1.500500
20.311200 1.568200
20.352500 1.658600
20.393800 1.710700
20.435100 1.758200
20.476500 1.798000
20.517800 1.827200
20.559100 1.843500
20.600400 1.848400
20.641700 1.860100
20.683000 1.888800
20.724300 1.903200
20.765600 1.911600
20.807000 1.924800
20.848300 1.930600
20.889600 1.966000
20.930900 2.037900
20.972200 2.053600
21.013500 2.035300
21.054800 2.017000
21.096200 2.007500
21.137500 2.010400
21.178800 2.023200
21.220100 2.042800
21.261400 2.026800
21.302700 2.017100
21.344000 2.007900
21.385300 1.985800
21.426700 1.957700
21.468000 1.938200
21.509300 1.928600
21.550600 1.919000
21.591900 1.899100
21.633200 1.884800
21.674500 1.873900
21.715800 1.864800
21.757200 1.870200
21.798500 1.897100
21.839800 1.965700
21.881100 2.011000
21.922400 2.067000
21.963700 2.097300
22.005000 2.154200
22.046400 2.203800
22.087700 2.240700
22.129000 2.190700
22.170300 2.215700
22.211600 2.226600
22.252900 2.217000
22.294200 2.280500
22.335500 2.268900
22.376900 2.257100
22.418200 2.245500
22.459500 2.233500
22.500800 2.225600
22.542100 2.221000
22.583400 2.230400
22.624700 2.318100
22.666100 2.317800
22.707400 2.395000
22.748700 2.521100
22.790000 2.595000
22.831300 2.628200
22.872600 2.732200
22.913900 2.926000
22.955200 2.997100
22.996600 3.029300
23.037900 3.099500
23.079200 3.162300
23.120500 3.116000
23.161800 3.070800
23.203100 2.939200
23.244400 2.794600
23.285700 2.757100
23.327100 2.700100
23.368400 2.735500
23.409700 2.737400
23.451000 2.798300
23.492300 2.892600
23.533600 2.908500
23.574900 2.919900
23.616300 2.951600
23.657600 2.961200
23.698900 2.931600
23.740200 2.872400
23.781500 2.800300
23.822800 2.739600
23.864100 2.697500
23.905400 2.662600
23.946800 2.611600
23.988100 2.575200
24.029400 2.565700
24.070700 2.554000
24.112000 2.528300
24.153300 2.576700
24.194600 2.601100
24.236000 2.559600
24.277300 2.569900
24.318600 2.545700
24.359900 2.569600
24.401200 2.638300
24.442500 2.758000
24.483800 2.794300
24.525100 2.590700
24.566500 2.439300
24.607800 2.458300
24.649100 2.549300
24.690400 2.694200
24.731700 2.875000
24.773000 2.843400
24.814300 2.791700
24.855600 2.656000
24.897000 2.547100
24.938300 2.468700
24.979600 2.487300
25.020900 2.476900
25.062200 2.568700
25.103500 2.535700
25.144800 2.363700
25.186200 2.313200
25.227500 2.249900
25.268800 2.175500
25.310100 2.100100
25.351400 2.028600
25.392700 1.951400
25.434000 1.872900
25.475300 1.831800
25.516700 1.875500
25.558000 1.924100
25.599300 1.951300
25.640600 1.946500
25.681900 1.891800
25.723200 1.822200
25.764500 1.728500
25.805900 1.607000
25.847200 1.515700
25.888500 1.438900
25.929800 1.398300
25.971100 1.389700
26.012400 1.364800
26.053700 1.371500
26.095000 1.262400
26.136400 1.241500
26.177700 1.239500
26.219000 1.234500
26.260300 1.241800
26.301600 1.254000
26.342900 1.276800
26.384200 1.317100
26.425500 1.366800
26.466900 1.422300
26.508200 1.479500
26.549500 1.545900
26.590800 1.612700
26.632100 1.661400
26.673400 1.683000
26.714700 1.682600
26.756100 1.741500
26.797400 1.784000
26.838700 1.856300
26.880000 2.099300
26.921300 1.940700
26.962600 1.845400
27.003900 1.847800
27.045200 1.907100
27.086600 2.072800
27.127900 2.232100
27.169200 2.340500
27.210500 2.310100
27.251800 2.369900
27.293100 2.454400
27.334400 2.516700
27.375800 2.557400
27.417100 2.653500
27.458400 2.759500
27.499700 2.811900
27.541000 2.783600
27.582300 2.890900
27.623600 3.054300
27.664900 3.212600
27.706300 3.350800
27.747600 3.463500
27.788900 3.656400
27.830200 3.935100
27.871500 3.755100
27.912800 3.583300
27.954100 3.312700
27.995400 3.184100
28.036800 2.968200
28.078100 2.902400
28.119400 2.946200
28.160700 2.865400
28.202000 2.875700
28.243300 2.749500
28.284600 2.822500
28.326000 2.987700
28.367300 2.981300
28.408600 3.162000
28.449900 2.864400
28.491200 2.665700
28.532500 2.486200
28.573800 2.414700
28.615100 2.426300
28.656500 2.491800
28.697800 2.410300
28.739100 2.560800
28.780400 2.628000
28.821700 2.653600
28.863000 2.593800
28.904300 2.598000
28.945700 2.617400
28.987000 2.653100
29.028300 2.755000
29.069600 2.831700
29.110900 2.883700
29.152200 2.648300
29.193500 2.569100
29.234800 2.580100
29.276200 2.662500
29.317500 2.608400
29.358800 2.545200
29.400100 2.495800
29.441400 2.455100
29.482700 2.413400
29.524000 2.326600
29.565300 2.272900
29.606700 2.206500
29.648000 2.074500
29.689300 1.828900
29.730600 1.680200
29.771900 1.649800
29.813200 1.534300
29.854500 1.453400
29.895900 1.386000
29.937200 1.343800
29.978500 1.334100
30.019800 1.385700
30.061100 1.479900
30.102400 1.560100
30.143700 1.567600
30.185000 1.491000
30.226400 1.458500
30.267700 1.442700
30.309000 1.405700
30.350300 1.354000
30.391600 1.345300
30.432900 1.299900
30.474200 1.277400
30.515600 1.260000
30.556900 1.251300
30.598200 1.251200
30.639500 1.269100
30.680800 1.300500
30.722100 1.367300
30.763400 1.462600
30.804700 1.571000
30.846100 1.683500
30.887400 1.661800
30.928700 1.622400
30.970000 1.593100
31.011300 1.562600
31.052600 1.543000
31.093900 1.555100
31.135200 1.573300
31.176600 1.373000
31.217900 1.334000
31.259200 1.280700
31.300500 1.157300
31.341800 1.078600
31.383100 1.032500
31.424400 1.054100
31.465800 1.096400
31.507100 1.212500
31.548400 1.260400
31.589700 1.226600
31.631000 1.239100
31.672300 1.297300
31.713600 1.529400
31.754900 1.621400
31.796300 1.705200
31.837600 1.781000
31.878900 1.876900
31.920200 2.011900
31.961500 1.977400
32.002800 1.917900
32.044100 1.892300
32.085500 1.906800
32.126800 2.203400
32.168100 2.376100
32.209400 2.288000
32.250700 2.290800
32.292000 2.319800
32.333300 2.325000
32.374600 2.362800
32.416000 2.455100
32.457300 2.584000
32.498600 2.479000
32.539900 2.300800
32.581200 2.065400
32.622500 1.951600
32.663800 1.912500
32.705200 1.927200
32.746500 1.913400
32.787800 1.876000
32.829100 1.836300
32.870400 1.779700
32.911700 1.736400
32.953000 1.808100
32.994300 1.828600
33.035700 1.884300
33.077000 1.893700
33.118300 1.904100
33.159600 1.925300
33.200900 1.965400
33.242200 2.027200
33.283500 2.073700
33.324800 2.159300
33.366200 2.144600
33.407500 2.126200
33.448800 2.221000
33.490100 2.294300
33.531400 2.253400
33.572700 2.281600
33.614000 2.300500
33.655400 2.330700
33.696700 2.355000
33.738000 2.353800
33.779300 2.271400
33.820600 2.277300
33.861900 2.347400
33.903200 2.371500
33.944500 2.351800
33.985900 2.378500
34.027200 2.308900
34.068500 2.237400
34.109800 2.201200
34.151100 2.213900
34.192400 2.328800
34.233700 2.329500
34.275100 2.321900
34.316400 2.279600
34.357700 2.270100
34.399000 2.229900
34.440300 2.167500
34.481600 2.042400
34.522900 1.945700
34.564200 1.891100
34.605600 1.860400
34.646900 1.861900
34.688200 1.869200
34.729500 1.924700
34.770800 2.116500
34.812100 2.134500
34.853400 1.930200
34.894700 1.808900
34.936100 1.729000
34.977400 1.699700
35.018700 1.747500
35.060000 1.787100
35.101300 1.778400
35.142600 1.729000
35.183900 1.650800
35.225300 1.580800
35.266600 1.528100
35.307900 1.507900
35.349200 1.627000
35.390500 1.667700
35.431800 1.602400
35.473100 1.512800
35.514400 1.456200
35.555800 1.414100
35.597100 1.311800
35.638400 1.089600
35.679700 1.352100
35.721000 1.430900
35.762300 1.199900
35.803600 1.085300
35.845000 0.995400
35.886300 0.760000
35.927600 0.668200
35.968900 0.576300
36.010200 0.523600
36.051500 0.484700
36.092800 0.446200
36.134100 0.411000
36.175500 0.378800
36.216800 0.349300
36.258100 0.397800
36.299400 0.321500
36.340700 0.299100
36.382000 0.276300
36.423300 0.257100
36.464600 0.189000
36.506000 0.059500
36.547300 0.002000
36.588600 0.000000
36.629900 0.000000
36.671200 0.000000
36.712500 0.000000
36.753800 0.000000
36.795200 0.000000
36.836500 0.000000
36.877800 0.000000
36.919100 0.000000
36.960400 0.000000
37.001700 0.000000
37.043000 0.000000
37.084300 0.000000
37.125700 0.000000
37.167000 0.000000
37.208300 0.000000
37.249600 0.000000
37.290900 0.000000
37.332200 0.000000
37.373500 0.000000
37.414900 0.000000
37.456200 0.000000
37.497500 0.000000
37.538800 0.000000
37.580100 0.000000
37.621400 0.000000
37.662700 0.000000
37.704000 0.000000
37.745400 0.000000
37.786700 0.000000
37.828000 0.000000
37.869300 0.000000
37.910600 0.000000
37.951900 0.000000
37.993200 0.000000
38.034500 0.000000
38.075900 0.000000
38.117200 0.000000
38.158500 0.000000
38.199800 0.000000
38.241100 0.000000
38.282400 0.000000
38.323700 0.000000
38.365100 0.000000
38.406400 0.000000
38.447700 0.000000
38.489000 0.000000
38.530300 0.000000
38.571600 0.000000
38.612900 0.000000
38.654200 0.000000
38.695600 0.000000
38.736900 0.000000
38.778200 0.000000
38.819500 0.000000
38.860800 0.000000
38.902100 0.000000
38.943400 0.000000
38.984800 0.000000
39.026100 0.000000
39.067400 0.000000
39.108700 0.000000
39.150000 0.000000
39.191300 0.000000
39.232600 0.000000
39.273900 0.000000
39.315300 0.000000
39.356600 0.000000
39.397900 0.000000
39.439200 0.000000
39.480500 0.000000
39.521800 0.000000
39.563100 0.000000
39.604400 0.000000
39.645800 0.000000
39.687100 0.000000
39.728400 0.000000
39.769700 0.000000
39.811000 0.000000
39.852300 0.000000
39.893600 0.000000
39.935000 0.000000
39.976300 0.000000
40.017600 0.000000
40.058900 0.000000
40.100200 0.000000
40.141500 0.000000
40.182800 0.000000
40.224100 0.000000
40.265500 0.000000
40.306800 0.000000
e
