set title 'mp-1059528 - Density of States'
set xlabel 'Energy (eV)'
set ylabel 'DOS (states/eV)'
set grid
set xrange [-10:10]
set yrange [0:4.438]
set xzeroaxis lt -1
set terminal png size 800,600
set output 'mp-1059528_dos_gnuplot.png'
plot '-' using 1:2 with lines title 'DOS'
-37.003900 0.000000
-36.956700 0.000000
-36.909600 0.000000
-36.862500 0.000000
-36.815300 0.000000
-36.768200 0.000000
-36.721000 0.000000
-36.673900 0.000000
-36.626800 0.000000
-36.579600 0.000000
-36.532500 0.000000
-36.485300 0.000000
-36.438200 0.000000
-36.391000 0.000000
-36.343900 0.000000
-36.296800 0.000000
-36.249600 0.000000
-36.202500 0.000000
-36.155300 0.000000
-36.108200 0.000000
-36.061100 0.000000
-36.013900 0.000000
-35.966800 0.000000
-35.919600 0.000000
-35.872500 0.000000
-35.825400 0.000000
-35.778200 0.000000
-35.731100 0.000000
-35.683900 0.000000
-35.636800 0.000000
-35.589700 0.000000
-35.542500 0.000000
-35.495400 0.000000
-35.448200 0.000000
-35.401100 0.000000
-35.354000 0.000000
-35.306800 0.000000
-35.259700 0.000000
-35.212500 0.000000
-35.165400 0.000000
-35.118200 0.000000
-35.071100 0.000000
-35.024000 0.000000
-34.976800 0.000000
-34.929700 0.000000
-34.882500 0.000000
-34.835400 0.000000
-34.788300 0.000000
-34.741100 0.000000
-34.694000 0.000000
-34.646800 0.000000
-34.599700 0.000000
-34.552600 0.000000
-34.505400 0.000000
-34.458300 0.000000
-34.411100 0.000000
-34.364000 0.000000
-34.316900 0.000000
-34.269700 0.000000
-34.222600 0.000000
-34.175400 0.000000
-34.128300 0.000000
-34.081200 0.000000
-34.034000 0.000000
-33.986900 0.000000
-33.939700 0.000000
-33.892600 0.000000
-33.845500 0.000000
-33.798300 0.000000
-33.751200 0.000000
-33.704000 0.000000
-33.656900 0.000000
-33.609700 0.000000
-33.562600 0.000000
-33.515500 0.000000
-33.468300 0.000000
-33.421200 0.000000
-33.374000 0.000000
-33.326900 0.000000
-33.279800 0.000000
-33.232600 0.000000
-33.185500 0.000000
-33.138300 0.000000
-33.091200 0.000000
-33.044100 0.000000
-32.996900 0.000000
-32.949800 0.000000
-32.902600 0.000000
-32.855500 0.000000
-32.808400 0.000000
-32.761200 0.000000
-32.714100 1.434500
-32.666900 7.237600
-32.619800 15.919000
-32.572700 49.833100
-32.525500 0.000000
-32.478400 0.000000
-32.431200 0.000000
-32.384100 0.000000
-32.336900 0.000000
-32.289800 0.000000
-32.242700 0.000000
-32.195500 0.000000
-32.148400 0.000000
-32.101200 0.000000
-32.054100 0.000000
-32.007000 0.000000
-31.959800 0.000000
-31.912700 0.000000
-31.865500 0.000000
-31.818400 0.000000
-31.771300 0.000000
-31.724100 0.000000
-31.677000 0.000000
-31.629800 0.000000
-31.582700 0.000000
-31.535600 0.000000
-31.488400 0.000000
-31.441300 0.000000
-31.394100 0.000000
-31.347000 0.000000
-31.299900 0.000000
-31.252700 0.000000
-31.205600 0.000000
-31.158400 0.000000
-31.111300 0.000000
-31.064100 0.000000
-31.017000 0.000000
-30.969900 0.000000
-30.922700 0.000000
-30.875600 0.000000
-30.828400 0.000000
-30.781300 0.000000
-30.734200 0.000000
-30.687000 0.000000
-30.639900 0.000000
-30.592700 0.000000
-30.545600 0.000000
-30.498500 0.000000
-30.451300 0.000000
-30.404200 0.000000
-30.357000 0.000000
-30.309900 0.000000
-30.262800 0.000000
-30.215600 0.000000
-30.168500 0.000000
-30.121300 0.000000
-30.074200 0.000000
-30.027100 0.000000
-29.979900 0.000000
-29.932800 0.000000
-29.885600 0.000000
-29.838500 0.000000
-29.791400 0.000000
-29.744200 0.000000
-29.697100 0.000000
-29.649900 0.000000
-29.602800 0.000000
-29.555600 0.000000
-29.508500 0.000000
-29.461400 0.000000
-29.414200 0.000000
-29.367100 0.000000
-29.319900 0.000000
-29.272800 0.000000
-29.225700 0.000000
-29.178500 0.000000
-29.131400 0.000000
-29.084200 0.000000
-29.037100 0.000000
-28.990000 0.000000
-28.942800 0.000000
-28.895700 0.000000
-28.848500 0.000000
-28.801400 0.000000
-28.754300 0.000000
-28.707100 0.000000
-28.660000 0.000000
-28.612800 0.000000
-28.565700 0.000000
-28.518600 0.000000
-28.471400 0.000000
-28.424300 0.000000
-28.377100 0.000000
-28.330000 0.000000
-28.282800 0.000000
-28.235700 0.000000
-28.188600 0.000000
-28.141400 0.000000
-28.094300 0.000000
-28.047100 0.000000
-28.000000 0.000000
-27.952900 0.000000
-27.905700 0.000000
-27.858600 0.000000
-27.811400 0.000000
-27.764300 0.000000
-27.717200 0.000000
-27.670000 0.000000
-27.622900 0.000000
-27.575700 0.000000
-27.528600 0.000000
-27.481500 0.000000
-27.434300 0.000000
-27.387200 0.000000
-27.340000 0.000000
-27.292900 0.000000
-27.245800 0.000000
-27.198600 0.000000
-27.151500 0.000000
-27.104300 0.000000
-27.057200 0.000000
-27.010100 0.000000
-26.962900 0.000000
-26.915800 0.000000
-26.868600 0.000000
-26.821500 0.000000
-26.774300 0.000000
-26.727200 0.000000
-26.680100 0.000000
-26.632900 0.000000
-26.585800 0.000000
-26.538600 0.000000
-26.491500 0.000000
-26.444400 0.000000
-26.397200 0.000000
-26.350100 0.000000
-26.302900 0.000000
-26.255800 0.000000
-26.208700 0.000000
-26.161500 0.000000
-26.114400 0.000000
-26.067200 0.000000
-26.020100 0.000000
-25.973000 0.000000
-25.925800 0.000000
-25.878700 0.000000
-25.831500 0.000000
-25.784400 0.000000
-25.737300 0.000000
-25.690100 0.000000
-25.643000 0.000000
-25.595800 0.000000
-25.548700 0.000000
-25.501500 0.000000
-25.454400 0.000000
-25.407300 0.000000
-25.360100 0.000000
-25.313000 0.000000
-25.265800 0.000000
-25.218700 0.000000
-25.171600 0.000000
-25.124400 0.000000
-25.077300 0.000000
-25.030100 0.000000
-24.983000 0.000000
-24.935900 0.000000
-24.888700 0.000000
-24.841600 0.000000
-24.794400 0.000000
-24.747300 0.000000
-24.700200 0.000000
-24.653000 0.000000
-24.605900 0.000000
-24.558700 0.000000
-24.511600 0.000000
-24.464500 0.000000
-24.417300 0.000000
-24.370200 0.000000
-24.323000 0.000000
-24.275900 0.000000
-24.228800 0.000000
-24.181600 0.000000
-24.134500 0.000000
-24.087300 0.000000
-24.040200 0.000000
-23.993000 0.000000
-23.945900 0.000000
-23.898800 0.000000
-23.851600 0.000000
-23.804500 0.000000
-23.757300 0.000000
-23.710200 0.000000
-23.663100 0.000000
-23.615900 0.000000
-23.568800 0.000000
-23.521600 0.000000
-23.474500 0.000000
-23.427400 0.000000
-23.380200 0.000000
-23.333100 0.000000
-23.285900 0.000000
-23.238800 0.000000
-23.191700 0.000000
-23.144500 0.000000
-23.097400 0.000000
-23.050200 0.000000
-23.003100 0.000000
-22.956000 0.000000
-22.908800 0.000000
-22.861700 0.000000
-22.814500 0.000000
-22.767400 0.000000
-22.720200 0.000000
-22.673100 0.000000
-22.626000 0.000000
-22.578800 0.000000
-22.531700 0.000000
-22.484500 0.000000
-22.437400 0.000000
-22.390300 0.000000
-22.343100 0.000000
-22.296000 0.000000
-22.248800 0.000000
-22.201700 0.000000
-22.154600 0.000000
-22.107400 0.000000
-22.060300 0.000000
-22.013100 0.000000
-21.966000 0.000000
-21.918900 0.000000
-21.871700 0.000000
-21.824600 0.000000
-21.777400 0.000000
-21.730300 0.000000
-21.683200 0.000000
-21.636000 0.000000
-21.588900 0.000000
-21.541700 0.000000
-21.494600 0.000000
-21.447500 0.000000
-21.400300 0.000000
-21.353200 0.000000
-21.306000 0.000000
-21.258900 0.000000
-21.211700 0.000000
-21.164600 0.000000
-21.117500 0.000000
-21.070300 0.000000
-21.023200 0.000000
-20.976000 0.000000
-20.928900 0.000000
-20.881800 0.000000
-20.834600 0.000000
-20.787500 0.000000
-20.740300 0.000000
-20.693200 0.000000
-20.646100 0.000000
-20.598900 0.000000
-20.551800 0.000000
-20.504600 0.000000
-20.457500 0.000000
-20.410400 0.000000
-20.363200 0.000000
-20.316100 0.000000
-20.268900 0.000000
-20.221800 0.000000
-20.174700 0.000000
-20.127500 0.000000
-20.080400 0.000000
-20.033200 0.000000
-19.986100 0.000000
-19.938900 0.000000
-19.891800 0.000000
-19.844700 0.000000
-19.797500 0.000000
-19.750400 0.000000
-19.703200 0.000000
-19.656100 0.000000
-19.609000 0.000000
-19.561800 0.000000
-19.514700 0.000000
-19.467500 0.000000
-19.420400 0.000000
-19.373300 0.000000
-19.326100 0.000000
-19.279000 0.000000
-19.231800 0.000000
-19.184700 0.000000
-19.137600 0.000000
-19.090400 0.000000
-19.043300 0.000000
-18.996100 0.000000
-18.949000 0.000000
-18.901900 0.000000
-18.854700 0.000000
-18.807600 0.000000
-18.760400 0.000000
-18.713300 0.000000
-18.666200 0.000000
-18.619000 0.000000
-18.571900 0.000000
-18.524700 0.000000
-18.477600 0.000000
-18.430400 0.000000
-18.383300 0.000000
-18.336200 0.000000
-18.289000 0.000000
-18.241900 0.000000
-18.194700 0.000000
-18.147600 0.000000
-18.100500 0.000000
-18.053300 0.000000
-18.006200 0.000000
-17.959000 0.000000
-17.911900 0.000000
-17.864800 0.000000
-17.817600 0.000000
-17.770500 0.000000
-17.723300 0.000000
-17.676200 0.000000
-17.629100 0.000000
-17.581900 0.000000
-17.534800 0.000000
-17.487600 0.000000
-17.440500 0.000000
-17.393400 0.000000
-17.346200 0.000000
-17.299100 0.000000
-17.251900 0.000000
-17.204800 0.000000
-17.157600 0.000000
-17.110500 0.000000
-17.063400 0.000000
-17.016200 0.000000
-16.969100 0.000000
-16.921900 0.000000
-16.874800 0.000000
-16.827700 0.000000
-16.780500 0.000000
-16.733400 0.000000
-16.686200 0.000000
-16.639100 0.000000
-16.592000 0.000000
-16.544800 0.000000
-16.497700 0.000000
-16.450500 0.000000
-16.403400 0.000000
-16.356300 0.000000
-16.309100 0.000000
-16.262000 0.000000
-16.214800 0.000000
-16.167700 0.000000
-16.120600 0.000000
-16.073400 0.000000
-16.026300 0.000000
-15.979100 0.000000
-15.932000 0.000000
-15.884900 0.000000
-15.837700 0.000000
-15.790600 0.000000
-15.743400 0.000000
-15.696300 0.000000
-15.649100 0.000000
-15.602000 0.000000
-15.554900 0.000000
-15.507700 0.000000
-15.460600 0.000000
-15.413400 0.000000
-15.366300 0.000000
-15.319200 0.000000
-15.272000 2.362700
-15.224900 5.104900
-15.177700 8.692900
-15.130600 14.946300
-15.083500 17.424900
-15.036300 12.014300
-14.989200 5.235400
-14.942000 3.370200
-14.894900 7.222500
-14.847800 6.711200
-14.800600 8.098500
-14.753500 8.773200
-14.706300 9.011600
-14.659200 9.902200
-14.612100 18.052100
-14.564900 16.683500
-14.517800 18.739100
-14.470600 24.274400
-14.423500 21.722900
-14.376300 20.787400
-14.329200 12.045700
-14.282100 8.271500
-14.234900 0.131600
-14.187800 0.000000
-14.140600 0.000000
-14.093500 0.000000
-14.046400 0.000000
-13.999200 0.000000
-13.952100 0.000000
-13.904900 0.000000
-13.857800 0.000000
-13.810700 0.000000
-13.763500 0.000000
-13.716400 0.000000
-13.669200 0.000000
-13.622100 0.000000
-13.575000 0.000000
-13.527800 0.000000
-13.480700 0.000000
-13.433500 0.000000
-13.386400 0.000000
-13.339300 0.000000
-13.292100 0.000000
-13.245000 0.000000
-13.197800 0.000000
-13.150700 0.000000
-13.103500 0.000000
-13.056400 0.000000
-13.009300 0.000000
-12.962100 0.000000
-12.915000 0.000000
-12.867800 0.000000
-12.820700 0.000000
-12.773600 0.000000
-12.726400 0.000000
-12.679300 0.000000
-12.632100 0.000000
-12.585000 0.000000
-12.537900 0.000000
-12.490700 0.000000
-12.443600 0.000000
-12.396400 0.000000
-12.349300 0.000000
-12.302200 0.000000
-12.255000 0.000000
-12.207900 0.000000
-12.160700 0.000000
-12.113600 0.000000
-12.066500 0.000000
-12.019300 0.000000
-11.972200 0.000000
-11.925000 0.000000
-11.877900 0.000000
-11.830800 0.000000
-11.783600 0.000000
-11.736500 0.000000
-11.689300 0.000000
-11.642200 0.000000
-11.595000 0.000000
-11.547900 0.000000
-11.500800 0.000000
-11.453600 0.000000
-11.406500 0.000000
-11.359300 0.000000
-11.312200 0.000000
-11.265100 0.000000
-11.217900 0.000000
-11.170800 0.000000
-11.123600 0.000000
-11.076500 0.000000
-11.029400 0.000000
-10.982200 0.000000
-10.935100 0.000000
-10.887900 0.000000
-10.840800 0.000000
-10.793700 0.000000
-10.746500 0.000000
-10.699400 0.000000
-10.652200 0.000000
-10.605100 0.000000
-10.558000 0.000000
-10.510800 0.000000
-10.463700 0.000000
-10.416500 0.000000
-10.369400 0.000000
-10.322200 0.000000
-10.275100 0.000000
-10.228000 0.000000
-10.180800 0.000000
-10.133700 0.000000
-10.086500 0.000000
-10.039400 0.000000
-9.992300 0.000000
-9.945100 0.000000
-9.898000 0.000000
-9.850800 0.000000
-9.803700 0.000000
-9.756600 0.000000
-9.709400 0.000000
-9.662300 0.000000
-9.615100 0.000000
-9.568000 0.000000
-9.520900 0.000000
-9.473700 0.000000
-9.426600 0.000000
-9.379400 0.000000
-9.332300 0.000000
-9.285200 0.000000
-9.238000 0.000000
-9.190900 0.000000
-9.143700 0.000000
-9.096600 0.000000
-9.049500 0.000000
-9.002300 0.000000
-8.955200 0.000000
-8.908000 0.000000
-8.860900 0.000000
-8.813700 0.000000
-8.766600 0.000000
-8.719500 0.000000
-8.672300 0.000000
-8.625200 0.000000
-8.578000 0.000000
-8.530900 0.000000
-8.483800 0.000000
-8.436600 0.000000
-8.389500 0.000000
-8.342300 0.000000
-8.295200 0.000000
-8.248100 0.000000
-8.200900 0.000000
-8.153800 0.000000
-8.106600 0.000000
-8.059500 0.000000
-8.012400 0.000000
-7.965200 0.000000
-7.918100 0.000000
-7.870900 0.000000
-7.823800 0.000000
-7.776700 0.000000
-7.729500 0.000000
-7.682400 0.000000
-7.635200 0.000000
-7.588100 0.000000
-7.540900 0.000000
-7.493800 0.000000
-7.446700 0.000000
-7.399500 0.000000
-7.352400 0.000000
-7.305200 0.000000
-7.258100 0.000000
-7.211000 0.000000
-7.163800 0.000000
-7.116700 0.000000
-7.069500 0.000000
-7.022400 0.000000
-6.975300 0.000000
-6.928100 0.000000
-6.881000 0.000000
-6.833800 0.000000
-6.786700 0.000000
-6.739600 0.000000
-6.692400 0.000000
-6.645300 0.000000
-6.598100 0.000000
-6.551000 0.000000
-6.503900 0.000000
-6.456700 0.000000
-6.409600 0.000000
-6.362400 0.000000
-6.315300 0.000000
-6.268200 0.000000
-6.221000 0.000000
-6.173900 0.000000
-6.126700 0.000000
-6.079600 0.000000
-6.032400 0.000000
-5.985300 0.000000
-5.938200 0.000000
-5.891000 0.000000
-5.843900 0.000000
-5.796700 0.000000
-5.749600 0.000000
-5.702500 0.000000
-5.655300 0.000000
-5.608200 0.000000
-5.561000 0.000000
-5.513900 0.000000
-5.466800 0.000000
-5.419600 0.000000
-5.372500 0.000000
-5.325300 0.000000
-5.278200 0.000000
-5.231100 0.000000
-5.183900 0.000000
-5.136800 0.000000
-5.089600 0.000000
-5.042500 0.000000
-4.995400 0.000000
-4.948200 0.000000
-4.901100 0.000000
-4.853900 0.000000
-4.806800 0.000000
-4.759600 0.000000
-4.712500 0.000000
-4.665400 0.000000
-4.618200 0.000000
-4.571100 0.000000
-4.523900 0.000000
-4.476800 0.000000
-4.429700 0.000000
-4.382500 0.000000
-4.335400 0.000000
-4.288200 0.000000
-4.241100 0.000000
-4.194000 0.000000
-4.146800 0.000000
-4.099700 0.000000
-4.052500 0.000000
-4.005400 0.000000
-3.958300 0.000000
-3.911100 0.000000
-3.864000 0.000000
-3.816800 0.000000
-3.769700 0.000000
-3.722600 0.000000
-3.675400 0.000000
-3.628300 0.000000
-3.581100 0.000000
-3.534000 0.000000
-3.486900 0.000000
-3.439700 0.000000
-3.392600 0.000000
-3.345400 0.000000
-3.298300 0.000000
-3.251100 0.000000
-3.204000 0.000000
-3.156900 0.000000
-3.109700 0.000000
-3.062600 0.000000
-3.015400 0.000000
-2.968300 0.000000
-2.921200 0.000000
-2.874000 0.000000
-2.826900 0.000000
-2.779700 0.000000
-2.732600 0.000000
-2.685500 0.000000
-2.638300 0.000000
-2.591200 0.000000
-2.544000 0.000000
-2.496900 0.000000
-2.449800 0.000000
-2.402600 0.000000
-2.355500 0.000000
-2.308300 0.000000
-2.261200 0.000000
-2.214100 0.000000
-2.166900 0.000000
-2.119800 0.000000
-2.072600 0.000000
-2.025500 0.000000
-1.978300 0.000000
-1.931200 0.000000
-1.884100 0.000000
-1.836900 0.000000
-1.789800 0.000000
-1.742600 0.000000
-1.695500 0.000000
-1.648400 0.000000
-1.601200 0.000000
-1.554100 0.000000
-1.506900 0.000000
-1.459800 0.000000
-1.412700 0.000000
-1.365500 0.000000
-1.318400 0.000000
-1.271200 0.000000
-1.224100 0.000000
-1.177000 0.000000
-1.129800 0.000000
-1.082700 0.000000
-1.035500 0.000000
-0.988400 0.000000
-0.941300 0.000000
-0.894100 0.000000
-0.847000 0.000000
-0.799800 0.000000
-0.752700 0.000000
-0.705600 0.000000
-0.658400 0.000000
-0.611300 0.000000
-0.564100 0.000000
-0.517000 0.000000
-0.469800 0.000000
-0.422700 0.000000
-0.375600 0.000000
-0.328400 0.000000
-0.281300 0.000000
-0.234100 0.000000
-0.187000 0.000000
-0.139900 0.000000
-0.092700 0.040400
-0.045600 0.058900
0.001600 0.074700
0.048700 0.092400
0.095800 0.109300
0.143000 0.121200
0.190100 0.129900
0.237300 0.141900
0.284400 0.153000
0.331500 0.165000
0.378700 0.177300
0.425800 0.190000
0.473000 0.201300
0.520100 0.211900
0.567200 0.223300
0.614400 0.235400
0.661500 0.248000
0.708700 0.260500
0.755800 0.273200
0.803000 0.286500
0.850100 0.300400
0.897200 0.315400
0.944400 0.332900
0.991500 0.353900
1.038700 0.377800
1.085800 0.393200
1.132900 0.408500
1.180100 0.424300
1.227200 0.440500
1.274400 0.456700
1.321500 0.473500
1.368600 0.517700
1.415800 0.576900
1.462900 0.610800
1.510100 0.662800
1.557200 0.728500
1.604300 1.020600
1.651500 1.330300
1.698600 1.939700
1.745800 2.050100
1.792900 2.202500
1.840000 2.367600
1.887200 2.610400
1.934300 2.728400
1.981500 2.744200
2.028600 2.740400
2.075800 2.798900
2.122900 2.887000
2.170000 2.935300
2.217200 3.099900
2.264300 3.322500
2.311500 3.425100
2.358600 3.456700
2.405700 3.477200
2.452900 3.521400
2.500000 3.412600
2.547200 3.420400
2.594300 3.430800
2.641400 3.424300
2.688600 3.461200
2.735700 3.392700
2.782900 3.251800
2.830000 3.069700
2.877100 2.888100
2.924300 2.721000
2.971400 2.423400
3.018600 2.209900
3.065700 2.226600
3.112800 2.212700
3.160000 2.167200
3.207100 2.212200
3.254300 2.262700
3.301400 2.508300
3.348500 3.173200
3.395700 3.373100
3.442800 3.711500
3.490000 3.594700
3.537100 3.574200
3.584300 2.956200
3.631400 2.663200
3.678500 2.471500
3.725700 2.428400
3.772800 2.502000
3.820000 2.701100
3.867100 2.638900
3.914200 2.693200
3.961400 2.916300
4.008500 3.077400
4.055700 3.272900
4.102800 3.283500
4.149900 3.385100
4.197100 3.366700
4.244200 3.364400
4.291400 3.470000
4.338500 3.520700
4.385600 3.582900
4.432800 3.700100
4.479900 3.814200
4.527100 3.922800
4.574200 3.984300
4.621300 4.034700
4.668500 3.869100
4.715600 3.673500
4.762800 3.536800
4.809900 3.838700
4.857100 3.792700
4.904200 3.916700
4.951300 3.662400
4.998500 3.652700
5.045600 3.608700
5.092800 3.413600
5.139900 3.743700
5.187000 3.743600
5.234200 4.016100
5.281300 3.879300
5.328500 3.276000
5.375600 2.501600
5.422700 2.099300
5.469900 2.012100
5.517000 2.018000
5.564200 2.206400
5.611300 2.501400
5.658400 2.679800
5.705600 2.800300
5.752700 2.797200
5.799900 2.736700
5.847000 2.529400
5.894100 2.494100
5.941300 2.415200
5.988400 2.435400
6.035600 2.567500
6.082700 2.607500
6.129800 2.419600
6.177000 2.566600
6.224100 2.796700
6.271300 2.296300
6.318400 2.305100
6.365600 2.407000
6.412700 2.697200
6.459800 2.819500
6.507000 2.857800
6.554100 2.783200
6.601300 2.722300
6.648400 2.599900
6.695500 2.415600
6.742700 2.255800
6.789800 2.265400
6.837000 2.062700
6.884100 1.921100
6.931200 1.813200
6.978400 1.720900
7.025500 1.690100
7.072700 1.673100
7.119800 1.662400
7.166900 1.827000
7.214100 2.251000
7.261200 2.120700
7.308400 1.986700
7.355500 1.918500
7.402600 1.878900
7.449800 1.930400
7.496900 1.782200
7.544100 1.694100
7.591200 1.667900
7.638400 1.674700
7.685500 1.712700
7.732600 1.772000
7.779800 1.824000
7.826900 1.918000
7.874100 1.987200
7.921200 2.009000
7.968300 2.057000
8.015500 2.095800
8.062600 2.100300
8.109800 2.119900
8.156900 2.151500
8.204000 2.180500
8.251200 2.197400
8.298300 2.208200
8.345500 2.244300
8.392600 2.326700
8.439700 2.496200
8.486900 2.847900
8.534000 3.075600
8.581200 3.172300
8.628300 3.191000
8.675400 3.120000
8.722600 3.136500
8.769700 3.150000
8.816900 3.198100
8.864000 3.283100
8.911100 2.773500
8.958300 2.420700
9.005400 2.282100
9.052600 2.418400
9.099700 2.368500
9.146900 2.275400
9.194000 2.065200
9.241100 1.926700
9.288300 1.824900
9.335400 1.798700
9.382600 1.788600
9.429700 1.701300
9.476800 1.531300
9.524000 1.429300
9.571100 1.393200
9.618300 1.358900
9.665400 1.348000
9.712500 1.343900
9.759700 1.377500
9.806800 1.620800
9.854000 1.810600
9.901100 2.078100
9.948200 2.410500
9.995400 2.953100
10.042500 3.032800
10.089700 2.707600
10.136800 2.267500
10.183900 1.864700
10.231100 1.541300
10.278200 1.380200
10.325400 1.239000
10.372500 1.233700
10.419700 1.310700
10.466800 1.272000
10.513900 1.222100
10.561100 1.193100
10.608200 1.126200
10.655400 1.021900
10.702500 0.930100
10.749600 0.856300
10.796800 0.782500
10.843900 0.693200
10.891100 0.568900
10.938200 0.497700
10.985300 0.439900
11.032500 0.389100
11.079600 0.345100
11.126800 0.322700
11.173900 0.377000
11.221000 0.494100
11.268200 0.583300
11.315300 0.691600
11.362500 0.868600
11.409600 1.166700
11.456700 1.449500
11.503900 1.686100
11.551000 1.831700
11.598200 2.215600
11.645300 2.674000
11.692400 2.494200
11.739600 2.600800
11.786700 2.731600
11.833900 2.777100
11.881000 2.763200
11.928200 2.497100
11.975300 2.464400
12.022400 2.271400
12.069600 2.116100
12.116700 2.041400
12.163900 1.999100
12.211000 1.998800
12.258100 1.985300
12.305300 1.996100
12.352400 2.033400
12.399600 2.077400
12.446700 2.152000
12.493800 2.201500
12.541000 2.281000
12.588100 2.341000
12.635300 2.352900
12.682400 2.339800
12.729500 2.321900
12.776700 2.335800
12.823800 2.387700
12.871000 2.342200
12.918100 2.256500
12.965200 2.199700
13.012400 2.130600
13.059500 2.033300
13.106700 1.950200
13.153800 1.905500
13.201000 1.845300
13.248100 1.770800
13.295200 1.702500
13.342400 1.643300
13.389500 1.617200
13.436700 1.632300
13.483800 1.652600
13.530900 1.690600
13.578100 1.745800
13.625200 1.798300
13.672400 1.866900
13.719500 1.938000
13.766600 1.978400
13.813800 2.043400
13.860900 2.109400
13.908100 2.178700
13.955200 2.389600
14.002300 2.396700
14.049500 2.454300
14.096600 2.478500
14.143800 2.528700
14.190900 2.504300
14.238000 2.589600
14.285200 2.597500
14.332300 2.623900
14.379500 2.711200
14.426600 2.765500
14.473700 2.739600
14.520900 2.618500
14.568000 2.546700
14.615200 2.426800
14.662300 2.227300
14.709500 1.927500
14.756600 1.815200
14.803700 1.816300
14.850900 2.053000
14.898000 2.697800
14.945200 3.620700
14.992300 4.148900
15.039400 4.820100
15.086600 4.200300
15.133700 3.619900
15.180900 3.431100
15.228000 3.303500
15.275100 3.303700
15.322300 3.187800
15.369400 3.183500
15.416600 3.183100
15.463700 3.151300
15.510800 2.957500
15.558000 2.743200
15.605100 2.720600
15.652300 2.884000
15.699400 3.237300
15.746500 3.376500
15.793700 2.868300
15.840800 2.318800
15.888000 1.975800
15.935100 1.929400
15.982300 1.913400
16.029400 1.935300
16.076500 1.914700
16.123700 1.929900
16.170800 2.011200
16.218000 2.014300
16.265100 1.993400
16.312200 2.001800
16.359400 2.093800
16.406500 2.227900
16.453700 2.322200
16.500800 2.354900
16.547900 2.478900
16.595100 2.512900
16.642200 2.471900
16.689400 2.448100
16.736500 2.408200
16.783600 2.331100
16.830800 2.220200
16.877900 2.146300
16.925100 2.041500
16.972200 2.020400
17.019300 2.026200
17.066500 2.055000
17.113600 2.118600
17.160800 2.228300
17.207900 2.365900
17.255000 2.515300
17.302200 2.606400
17.349300 2.765800
17.396500 2.814700
17.443600 2.707100
17.490800 2.635100
17.537900 2.606300
17.585000 2.609100
17.632200 2.706600
17.679300 2.719200
17.726500 2.452600
17.773600 2.096900
17.820700 1.811200
17.867900 1.636200
17.915000 1.507200
17.962200 1.331300
18.009300 1.215400
18.056400 1.127700
18.103600 1.083200
18.150700 1.028100
18.197900 0.957300
18.245000 0.933900
18.292100 0.949900
18.339300 1.029900
18.386400 1.089900
18.433600 1.191700
18.480700 1.275300
18.527800 1.327300
18.575000 1.378600
18.622100 1.430900
18.669300 1.609800
18.716400 1.823000
18.763600 2.004600
18.810700 2.206700
18.857800 2.362600
18.905000 2.492000
18.952100 2.488100
18.999300 2.509800
19.046400 2.627900
19.093500 2.580700
19.140700 2.501800
19.187800 2.365000
19.235000 2.238200
19.282100 2.199700
19.329200 2.264400
19.376400 2.308600
19.423500 2.348500
19.470700 2.386500
19.517800 2.455200
19.564900 2.573100
19.612100 2.695000
19.659200 2.704500
19.706400 2.641700
19.753500 2.623100
19.800600 2.662100
19.847800 2.743600
19.894900 2.879400
19.942100 2.904600
19.989200 2.697500
20.036400 2.310700
20.083500 2.171600
20.130600 2.256500
20.177800 2.370300
20.224900 2.336700
20.272100 2.277300
20.319200 2.359400
20.366300 2.375900
20.413500 2.272500
20.460600 2.208900
20.507800 2.259700
20.554900 2.318100
20.602000 2.377900
20.649200 2.405600
20.696300 2.472400
20.743500 2.554200
20.790600 2.609500
20.837700 2.626000
20.884900 2.616300
20.932000 2.643400
20.979200 2.642400
21.026300 2.597900
21.073400 2.504400
21.120600 2.510800
21.167700 2.646400
21.214900 2.655500
21.262000 2.709900
21.309100 2.819600
21.356300 2.953500
21.403400 3.158700
21.450600 3.227500
21.497700 3.221100
21.544900 3.288300
21.592000 3.315200
21.639100 3.356000
21.686300 3.415800
21.733400 3.424500
21.780600 3.241900
21.827700 3.080800
21.874800 2.945600
21.922000 2.889200
21.969100 2.830400
22.016300 2.853200
22.063400 2.882500
22.110500 2.858000
22.157700 2.825600
22.204800 2.825600
22.252000 2.850000
22.299100 2.826900
22.346200 2.852600
22.393400 2.871100
22.440500 2.905400
22.487700 2.691600
22.534800 2.498300
22.581900 2.456000
22.629100 2.422700
22.676200 2.389400
22.723400 2.247800
22.770500 2.150100
22.817700 2.112200
22.864800 1.984700
22.911900 1.965000
22.959100 1.982800
23.006200 2.014200
23.053400 2.087600
23.100500 2.190500
23.147600 2.359100
23.194800 2.451600
23.241900 2.473100
23.289100 2.562600
23.336200 2.713500
23.383300 2.765900
23.430500 2.952400
23.477600 3.099800
23.524800 3.143600
23.571900 2.843600
23.619000 2.623000
23.666200 2.612200
23.713300 2.670200
23.760500 2.692400
23.807600 2.707400
23.854700 2.646700
23.901900 2.586800
23.949000 2.462700
23.996200 2.389900
24.043300 2.295800
24.090400 2.247200
24.137600 2.139100
24.184700 2.027100
24.231900 1.934200
24.279000 1.940100
24.326200 2.040600
24.373300 2.245800
24.420400 2.428000
24.467600 2.570900
24.514700 2.697300
24.561900 2.795500
24.609000 2.842800
24.656100 2.883600
24.703300 2.938200
24.750400 2.990400
24.797600 3.051800
24.844700 3.143000
24.891800 3.273700
24.939000 3.296200
24.986100 3.313800
25.033300 3.251300
25.080400 3.262200
25.127500 3.256000
25.174700 3.260800
25.221800 3.245700
25.269000 3.257100
25.316100 3.298900
25.363200 3.410900
25.410400 3.518000
25.457500 3.645100
25.504700 3.701900
25.551800 3.611500
25.599000 3.436600
25.646100 3.257200
25.693200 3.274400
25.740400 3.442300
25.787500 3.441500
25.834700 3.416500
25.881800 3.441900
25.928900 3.402900
25.976100 3.361600
26.023200 3.325100
26.070400 3.179500
26.117500 3.091400
26.164600 2.932600
26.211800 2.735600
26.258900 2.642000
26.306100 2.581000
26.353200 2.528100
26.400300 2.482900
26.447500 2.462300
26.494600 2.478000
26.541800 2.538700
26.588900 2.697400
26.636000 2.722500
26.683200 2.686700
26.730300 2.666900
26.777500 2.696100
26.824600 2.768900
26.871700 2.744200
26.918900 2.700000
26.966000 2.635100
27.013200 2.569700
27.060300 2.390600
27.107500 2.214600
27.154600 2.019600
27.201700 1.902300
27.248900 1.794500
27.296000 1.817300
27.343200 1.869300
27.390300 1.925900
27.437400 2.006400
27.484600 2.096700
27.531700 2.221300
27.578900 2.423800
27.626000 2.538000
27.673100 2.648100
27.720300 2.798600
27.767400 2.844900
27.814600 2.884100
27.861700 2.880900
27.908800 2.916500
27.956000 3.030000
28.003100 3.114900
28.050300 3.311600
28.097400 3.388400
28.144500 3.404400
28.191700 3.391600
28.238800 3.420200
28.286000 3.594600
28.333100 3.607400
28.380300 3.552400
28.427400 3.612800
28.474500 3.674600
28.521700 3.556800
28.568800 3.707600
28.616000 3.638600
28.663100 3.570000
28.710200 3.486000
28.757400 3.494600
28.804500 3.566600
28.851700 3.668900
28.898800 3.513600
28.945900 3.424300
28.993100 3.298600
29.040200 3.149900
29.087400 3.012000
29.134500 2.938400
29.181600 2.918700
29.228800 2.933600
29.275900 2.953600
29.323100 3.009600
29.370200 3.023700
29.417300 2.937400
29.464500 2.896700
29.511600 2.799800
29.558800 2.741200
29.605900 2.651200
29.653000 2.627400
29.700200 2.587100
29.747300 2.525600
29.794500 2.530800
29.841600 2.520000
29.888800 2.502600
29.935900 2.436200
29.983000 2.393800
30.030200 2.416900
30.077300 2.457400
30.124500 2.497200
30.171600 2.517700
30.218700 2.566600
30.265900 2.610300
30.313000 2.677200
30.360200 2.695000
30.407300 2.706200
30.454400 2.726800
30.501600 2.745400
30.548700 2.750600
30.595900 2.758700
30.643000 2.735300
30.690100 2.798400
30.737300 2.834600
30.784400 2.952300
30.831600 3.044900
30.878700 3.125700
30.925800 3.221200
30.973000 3.266800
31.020100 3.279300
31.067300 3.282100
31.114400 3.292200
31.161600 3.333500
31.208700 3.190200
31.255800 3.187600
31.303000 3.064300
31.350100 3.049500
31.397300 3.065900
31.444400 3.167600
31.491500 3.360400
31.538700 3.532000
31.585800 3.593900
31.633000 3.568000
31.680100 3.508100
31.727200 3.475500
31.774400 3.580200
31.821500 3.661600
31.868700 3.733100
31.915800 3.671500
31.962900 3.546700
32.010100 3.377300
32.057200 3.250900
32.104400 3.139700
32.151500 3.061800
32.198600 3.001000
32.245800 2.982300
32.292900 2.947900
32.340100 2.935000
32.387200 2.936200
32.434300 2.978000
32.481500 2.948500
32.528600 2.944800
32.575800 3.012900
32.622900 3.078500
32.670100 3.177300
32.717200 3.283100
32.764300 3.333300
32.811500 3.346400
32.858600 3.334600
32.905800 3.301300
32.952900 3.283900
33.000000 3.239200
33.047200 3.253600
33.094300 3.243000
33.141500 3.161200
33.188600 3.164100
33.235700 3.236600
33.282900 3.271300
33.330000 3.290100
33.377200 3.240900
33.424300 3.188600
33.471400 3.175900
33.518600 3.170700
33.565700 3.188800
33.612900 3.128500
33.660000 3.099200
33.707100 3.108600
33.754300 3.151800
33.801400 3.177400
33.848600 3.168000
33.895700 3.152100
33.942900 3.134000
33.990000 3.050800
34.037100 2.994200
34.084300 2.986900
34.131400 3.027500
34.178600 3.128300
34.225700 3.092000
34.272800 3.114500
34.320000 3.111400
34.367100 3.106100
34.414300 3.162900
34.461400 3.287500
34.508500 3.222800
34.555700 3.282700
34.602800 3.278100
34.650000 3.214500
34.697100 3.142400
34.744200 3.089600
34.791400 3.035900
34.838500 3.049300
34.885700 3.077100
34.932800 3.128000
34.979900 3.215700
35.027100 3.281000
35.074200 3.212100
35.121400 3.120900
35.168500 3.106100
35.215700 3.119700
35.262800 3.071100
35.309900 3.060300
35.357100 3.092500
35.404200 3.088100
35.451400 3.124100
35.498500 3.191700
35.545600 3.206600
35.592800 3.150800
35.639900 3.252200
35.687100 3.277400
35.734200 3.277000
35.781300 3.307200
35.828500 3.258000
35.875600 3.248100
35.922800 3.276500
35.969900 3.322900
36.017000 3.349100
36.064200 3.247100
36.111300 3.123300
36.158500 3.085200
36.205600 3.043200
36.252700 3.068800
36.299900 3.170300
36.347000 3.294400
36.394200 3.305100
36.441300 3.310300
36.488400 3.347200
36.535600 3.336100
36.582700 3.397600
36.629900 3.315800
36.677000 3.243400
36.724200 3.192900
36.771300 3.156500
36.818400 3.133900
36.865600 3.170700
36.912700 3.300200
36.959900 3.344500
37.007000 3.281600
37.054100 3.258600
37.101300 3.246700
37.148400 3.222900
37.195600 3.234800
37.242700 3.264600
37.289800 3.268200
37.337000 3.267400
37.384100 3.313500
37.431300 3.349000
37.478400 3.433300
37.525500 3.455700
37.572700 3.516400
37.619800 3.657800
37.667000 3.621900
37.714100 3.557400
37.761200 3.548500
37.808400 3.625700
37.855500 3.696100
37.902700 3.654100
37.949800 3.589300
37.997000 3.625400
38.044100 3.631200
38.091200 3.646100
38.138400 3.624200
38.185500 3.471200
38.232700 3.428200
38.279800 3.380700
38.326900 3.327100
38.374100 3.357500
38.421200 3.230400
38.468400 3.269900
38.515500 3.357300
38.562600 3.400400
38.609800 3.382200
38.656900 3.432900
38.704100 3.496200
38.751200 3.553600
38.798300 3.587000
38.845500 3.629900
38.892600 3.631600
38.939800 3.646000
38.986900 3.651000
39.034000 3.644000
39.081200 3.608000
39.128300 3.804400
39.175500 3.848900
39.222600 3.666900
39.269700 3.550000
39.316900 3.561800
39.364000 3.474800
39.411200 3.418500
39.458300 3.449400
39.505500 3.414600
39.552600 3.509200
39.599700 3.506700
39.646900 3.409800
39.694000 3.386800
39.741200 3.332700
39.788300 3.260500
39.835400 3.222300
39.882600 3.267500
39.929700 3.277700
39.976900 3.316300
40.024000 3.200800
40.071100 3.182600
40.118300 3.207600
40.165400 3.311000
40.212600 3.352200
40.259700 3.399000
40.306800 3.338800
40.354000 3.354600
40.401100 3.218700
40.448300 3.028000
40.495400 3.054900
40.542500 3.167000
40.589700 3.314200
40.636800 3.445400
40.684000 3.414400
40.731100 3.378400
40.778300 3.384700
40.825400 3.325400
40.872500 3.274900
40.919700 3.221300
40.966800 3.120800
41.014000 3.059600
41.061100 2.993500
41.108200 2.979900
41.155400 3.028900
41.202500 3.052400
41.249700 3.081000
41.296800 3.159800
41.343900 3.336200
41.391100 3.404700
41.438200 3.441800
41.485400 3.418700
41.532500 3.377300
41.579600 3.424100
41.626800 3.433300
41.673900 3.550000
41.721100 3.579900
41.768200 3.557300
41.815300 3.499600
41.862500 3.301800
41.909600 3.157700
41.956800 2.990500
42.003900 2.939300
42.051000 2.867700
42.098200 2.988900
42.145300 3.146600
42.192500 3.168700
42.239600 3.254600
42.286800 3.350000
42.333900 3.615800
42.381000 3.732200
42.428200 3.856800
42.475300 3.964200
42.522500 3.851200
42.569600 3.846400
42.616700 3.631800
42.663900 3.669600
42.711000 3.738500
42.758200 3.772200
42.805300 3.794200
42.852400 3.864200
42.899600 3.930600
42.946700 3.966000
42.993900 4.092500
43.041000 3.930900
43.088100 3.902500
43.135300 4.111600
43.182400 4.001600
43.229600 3.895300
43.276700 3.642700
43.323800 3.450900
43.371000 3.403600
43.418100 3.476400
43.465300 3.620000
43.512400 3.734800
43.559600 3.765700
43.606700 3.771200
43.653800 3.812800
43.701000 3.809300
43.748100 3.782200
43.795300 3.766600
43.842400 3.765200
43.889500 3.728900
43.936700 3.649500
43.983800 3.693300
44.031000 3.703800
44.078100 3.538900
44.125200 3.461400
44.172400 3.380600
44.219500 3.293700
44.266700 3.292500
44.313800 3.324500
44.360900 3.382500
44.408100 3.407600
44.455200 3.397900
44.502400 3.454800
44.549500 3.518100
44.596600 3.480300
44.643800 3.533900
44.690900 3.461300
44.738100 3.495400
44.785200 3.533100
44.832300 3.537900
44.879500 3.576800
44.926600 3.592100
44.973800 3.566700
45.020900 3.592000
45.068100 3.657200
45.115200 3.700000
45.162300 3.740300
45.209500 3.741500
45.256600 3.548400
45.303800 3.525300
45.350900 3.530400
45.398000 3.543600
45.445200 3.566400
45.492300 3.580700
45.539500 3.617900
45.586600 3.621300
45.633700 3.576100
45.680900 3.594300
45.728000 3.662000
45.775200 3.718300
45.822300 3.812000
45.869400 3.816900
45.916600 3.852100
45.963700 3.850400
46.010900 3.914600
46.058000 3.959500
46.105100 3.939700
46.152300 3.911200
46.199400 3.800600
46.246600 3.749100
46.293700 3.704100
46.340900 3.644900
46.388000 3.608100
46.435100 3.500600
46.482300 3.462500
46.529400 3.457000
46.576600 3.470000
46.623700 3.472500
46.670800 3.530200
46.718000 3.630600
46.765100 3.639900
46.812300 3.621800
46.859400 3.576100
46.906500 3.580600
46.953700 3.591900
47.000800 3.575800
47.048000 3.551300
47.095100 3.546900
47.142200 3.602900
47.189400 3.647500
47.236500 3.689300
47.283700 3.745900
47.330800 3.788200
47.377900 3.784800
47.425100 3.732100
47.472200 3.611000
47.519400 3.645400
47.566500 3.503700
47.613600 3.441800
47.660800 3.421100
47.707900 3.342700
47.755100 3.324800
47.802200 3.369600
47.849400 3.437400
47.896500 3.500300
47.943600 3.561300
47.990800 3.596200
48.037900 4.061800
48.085100 3.683100
48.132200 3.609700
48.179300 3.583200
48.226500 3.655200
48.273600 3.755400
48.320800 3.731500
48.367900 3.793600
48.415000 3.861100
48.462200 3.870800
48.509300 3.924500
48.556500 3.901000
48.603600 3.936300
48.650700 3.954800
48.697900 4.050600
48.745000 4.065300
48.792200 4.000200
48.839300 3.947700
48.886400 3.863700
48.933600 3.790700
48.980700 3.793600
49.027900 3.770000
49.075000 3.742900
49.122200 3.749600
49.169300 3.689100
49.216400 3.650000
49.263600 3.609200
49.310700 3.614700
49.357900 3.696400
49.405000 3.738300
49.452100 3.748000
49.499300 3.707800
49.546400 3.648800
49.593600 3.570900
49.640700 3.523900
49.687800 3.617700
49.735000 3.646800
49.782100 3.626900
49.829300 3.613500
49.876400 3.683700
49.923500 3.845100
49.970700 3.867300
50.017800 3.883400
50.065000 3.829000
50.112100 3.508800
50.159200 3.363200
50.206400 3.328700
50.253500 3.315300
50.300700 3.328900
50.347800 3.276300
50.394900 3.230700
50.442100 3.164900
50.489200 3.083100
50.536400 2.882900
50.583500 2.731000
50.630700 2.618700
50.677800 2.498000
50.724900 2.411100
50.772100 2.379200
50.819200 2.314600
50.866400 2.179300
50.913500 2.082700
50.960600 2.012800
51.007800 1.944000
51.054900 1.764600
51.102100 1.622800
51.149200 1.536300
51.196300 1.460400
51.243500 1.389100
51.290600 1.359600
51.337800 1.339800
51.384900 1.277200
51.432000 1.220400
51.479200 1.172100
51.526300 1.127400
51.573500 1.041600
51.620600 0.953400
51.667700 0.860900
51.714900 0.772500
51.762000 0.710400
51.809200 0.656000
51.856300 0.601500
51.903500 0.554600
51.950600 0.514200
51.997700 0.473800
52.044900 0.427200
52.092000 0.381500
52.139200 0.330800
52.186300 0.285700
52.233400 0.246300
52.280600 0.209300
52.327700 0.174400
52.374900 0.157700
52.422000 0.141100
52.469100 0.129600
52.516300 0.119000
52.563400 0.105800
52.610600 0.092500
52.657700 0.080300
52.704800 0.073600
52.752000 0.041700
52.799100 0.030900
52.846300 0.019600
52.893400 0.008600
52.940500 0.001400
52.987700 0.000000
53.034800 0.000000
53.082000 0.000000
53.129100 0.000000
53.176300 0.000000
53.223400 0.000000
53.270500 0.000000
53.317700 0.000000
53.364800 0.000000
53.412000 0.000000
53.459100 0.000000
53.506200 0.000000
53.553400 0.000000
53.600500 0.000000
53.647700 0.000000
53.694800 0.000000
53.741900 0.000000
53.789100 0.000000
53.836200 0.000000
53.883400 0.000000
53.930500 0.000000
53.977600 0.000000
54.024800 0.000000
54.071900 0.000000
54.119100 0.000000
54.166200 0.000000
54.213300 0.000000
54.260500 0.000000
54.307600 0.000000
54.354800 0.000000
54.401900 0.000000
54.449000 0.000000
54.496200 0.000000
54.543300 0.000000
54.590500 0.000000
54.637600 0.000000
54.684800 0.000000
54.731900 0.000000
54.779000 0.000000
54.826200 0.000000
54.873300 0.000000
54.920500 0.000000
54.967600 0.000000
55.014700 0.000000
55.061900 0.000000
55.109000 0.000000
55.156200 0.000000
55.203300 0.000000
55.250400 0.000000
55.297600 0.000000
55.344700 0.000000
55.391900 0.000000
55.439000 0.000000
55.486100 0.000000
55.533300 0.000000
55.580400 0.000000
55.627600 0.000000
55.674700 0.000000
55.721800 0.000000
55.769000 0.000000
55.816100 0.000000
55.863300 0.000000
55.910400 0.000000
55.957600 0.000000
56.004700 0.000000
56.051800 0.000000
56.099000 0.000000
56.146100 0.000000
56.193300 0.000000
56.240400 0.000000
56.287500 0.000000
56.334700 0.000000
56.381800 0.000000
56.429000 0.000000
56.476100 0.000000
56.523200 0.000000
56.570400 0.000000
56.617500 0.000000
56.664700 0.000000
56.711800 0.000000
56.758900 0.000000
56.806100 0.000000
56.853200 0.000000
56.900400 0.000000
56.947500 0.000000
56.994600 0.000000
57.041800 0.000000
57.088900 0.000000
57.136100 0.000000
57.183200 0.000000
57.230300 0.000000
57.277500 0.000000
e
