set title 'mp-7597 - Density of States'
set xlabel 'Energy (eV)'
set ylabel 'DOS (states/eV)'
set grid
set xrange [-10:10]
set yrange [0:5.735]
set xzeroaxis lt -1
set terminal png size 800,600
set output 'mp-7597_dos_gnuplot.png'
plot '-' using 1:2 with lines title 'DOS'
-31.931200 0.000000
-31.895600 0.000000
-31.860100 0.000000
-31.824500 0.000000
-31.789000 0.000000
-31.753400 0.000000
-31.717900 0.000000
-31.682300 0.000000
-31.646800 0.000000
-31.611200 0.000000
-31.575700 0.000000
-31.540200 0.000000
-31.504600 0.000000
-31.469100 0.000000
-31.433500 0.000000
-31.398000 0.000000
-31.362400 0.000000
-31.326900 0.000000
-31.291300 0.000000
-31.255800 0.000000
-31.220200 0.000000
-31.184700 0.000000
-31.149100 0.000000
-31.113600 0.000000
-31.078000 0.000000
-31.042500 0.000000
-31.006900 0.000000
-30.971400 0.000000
-30.935900 0.000000
-30.900300 0.000000
-30.864800 0.000000
-30.829200 0.000000
-30.793700 0.000000
-30.758100 0.000000
-30.722600 0.000000
-30.687000 0.000000
-30.651500 0.000000
-30.615900 0.000000
-30.580400 0.000000
-30.544800 0.000000
-30.509300 0.000000
-30.473700 0.000000
-30.438200 0.000000
-30.402700 0.000000
-30.367100 0.000000
-30.331600 0.000000
-30.296000 0.000000
-30.260500 0.000000
-30.224900 0.000000
-30.189400 0.000000
-30.153800 0.000000
-30.118300 0.000000
-30.082700 0.000000
-30.047200 0.000000
-30.011600 0.000000
-29.976100 0.000000
-29.940500 0.000000
-29.905000 0.000000
-29.869400 0.000000
-29.833900 0.000000
-29.798400 0.000000
-29.762800 0.000000
-29.727300 0.000000
-29.691700 0.000000
-29.656200 0.000000
-29.620600 0.000000
-29.585100 0.000000
-29.549500 0.000000
-29.514000 0.000000
-29.478400 0.000000
-29.442900 0.000000
-29.407300 0.000000
-29.371800 0.000000
-29.336200 0.000000
-29.300700 0.000000
-29.265100 0.000000
-29.229600 0.000000
-29.194100 0.000000
-29.158500 0.000000
-29.123000 0.000000
-29.087400 0.000000
-29.051900 0.000000
-29.016300 0.000000
-28.980800 0.000000
-28.945200 0.000000
-28.909700 0.000000
-28.874100 0.000000
-28.838600 0.000000
-28.803000 0.000000
-28.767500 0.000000
-28.731900 0.000000
-28.696400 6.471200
-28.660800 23.062800
-28.625300 3.630800
-28.589800 5.996900
-28.554200 8.869900
-28.518700 11.538600
-28.483100 32.486200
-28.447600 0.000000
-28.412000 0.000000
-28.376500 0.000000
-28.340900 0.000000
-28.305400 0.000000
-28.269800 0.000000
-28.234300 0.000000
-28.198700 0.000000
-28.163200 0.000000
-28.127600 0.000000
-28.092100 0.000000
-28.056500 0.000000
-28.021000 0.000000
-27.985500 0.000000
-27.949900 0.000000
-27.914400 0.000000
-27.878800 0.000000
-27.843300 0.000000
-27.807700 0.000000
-27.772200 0.000000
-27.736600 0.000000
-27.701100 0.000000
-27.665500 0.000000
-27.630000 0.000000
-27.594400 0.000000
-27.558900 0.000000
-27.523300 0.000000
-27.487800 0.000000
-27.452300 0.000000
-27.416700 0.000000
-27.381200 0.000000
-27.345600 0.000000
-27.310100 0.000000
-27.274500 0.000000
-27.239000 0.000000
-27.203400 0.000000
-27.167900 0.000000
-27.132300 0.000000
-27.096800 0.000000
-27.061200 0.000000
-27.025700 0.000000
-26.990100 0.000000
-26.954600 0.000000
-26.919000 0.000000
-26.883500 0.000000
-26.848000 0.000000
-26.812400 0.000000
-26.776900 0.000000
-26.741300 0.000000
-26.705800 0.000000
-26.670200 0.000000
-26.634700 0.000000
-26.599100 0.000000
-26.563600 0.000000
-26.528000 0.000000
-26.492500 0.000000
-26.456900 0.000000
-26.421400 0.000000
-26.385800 0.000000
-26.350300 0.000000
-26.314700 0.000000
-26.279200 0.000000
-26.243700 0.000000
-26.208100 0.000000
-26.172600 0.000000
-26.137000 0.000000
-26.101500 0.000000
-26.065900 0.000000
-26.030400 0.000000
-25.994800 0.000000
-25.959300 0.000000
-25.923700 0.000000
-25.888200 0.000000
-25.852600 0.000000
-25.817100 0.000000
-25.781500 0.000000
-25.746000 0.000000
-25.710400 0.000000
-25.674900 0.000000
-25.639400 0.000000
-25.603800 0.000000
-25.568300 0.000000
-25.532700 0.000000
-25.497200 0.000000
-25.461600 0.000000
-25.426100 0.000000
-25.390500 0.000000
-25.355000 0.000000
-25.319400 0.000000
-25.283900 0.000000
-25.248300 0.000000
-25.212800 0.000000
-25.177200 0.000000
-25.141700 0.000000
-25.106100 0.000000
-25.070600 0.000000
-25.035100 0.000000
-24.999500 0.000000
-24.964000 0.000000
-24.928400 0.000000
-24.892900 0.000000
-24.857300 0.000000
-24.821800 0.000000
-24.786200 0.000000
-24.750700 0.000000
-24.715100 0.000000
-24.679600 0.000000
-24.644000 0.000000
-24.608500 0.000000
-24.572900 0.000000
-24.537400 0.000000
-24.501800 0.000000
-24.466300 0.000000
-24.430800 0.000000
-24.395200 0.000000
-24.359700 0.000000
-24.324100 0.000000
-24.288600 0.000000
-24.253000 0.000000
-24.217500 0.000000
-24.181900 0.000000
-24.146400 0.000000
-24.110800 0.000000
-24.075300 0.000000
-24.039700 0.000000
-24.004200 0.000000
-23.968600 0.000000
-23.933100 0.000000
-23.897600 0.000000
-23.862000 0.000000
-23.826500 0.000000
-23.790900 0.000000
-23.755400 0.000000
-23.719800 0.000000
-23.684300 0.000000
-23.648700 0.000000
-23.613200 0.000000
-23.577600 0.000000
-23.542100 0.000000
-23.506500 0.000000
-23.471000 0.000000
-23.435400 0.000000
-23.399900 0.000000
-23.364300 0.000000
-23.328800 0.000000
-23.293300 0.000000
-23.257700 0.000000
-23.222200 0.000000
-23.186600 0.000000
-23.151100 0.000000
-23.115500 0.000000
-23.080000 0.000000
-23.044400 0.000000
-23.008900 0.000000
-22.973300 0.000000
-22.937800 0.000000
-22.902200 0.000000
-22.866700 0.000000
-22.831100 0.000000
-22.795600 0.000000
-22.760000 0.000000
-22.724500 0.000000
-22.689000 0.000000
-22.653400 0.000000
-22.617900 0.000000
-22.582300 0.000000
-22.546800 0.000000
-22.511200 0.000000
-22.475700 0.000000
-22.440100 0.000000
-22.404600 0.000000
-22.369000 0.000000
-22.333500 0.000000
-22.297900 0.000000
-22.262400 0.000000
-22.226800 0.000000
-22.191300 0.000000
-22.155700 0.000000
-22.120200 0.000000
-22.084700 0.000000
-22.049100 0.000000
-22.013600 0.000000
-21.978000 0.000000
-21.942500 0.000000
-21.906900 0.000000
-21.871400 0.000000
-21.835800 0.000000
-21.800300 0.000000
-21.764700 0.000000
-21.729200 0.000000
-21.693600 0.000000
-21.658100 0.000000
-21.622500 0.000000
-21.587000 0.000000
-21.551400 0.000000
-21.515900 0.000000
-21.480400 0.000000
-21.444800 0.000000
-21.409300 0.000000
-21.373700 0.000000
-21.338200 0.000000
-21.302600 0.000000
-21.267100 0.000000
-21.231500 0.000000
-21.196000 0.000000
-21.160400 0.000000
-21.124900 0.000000
-21.089300 0.000000
-21.053800 0.000000
-21.018200 0.000000
-20.982700 0.000000
-20.947200 0.000000
-20.911600 0.000000
-20.876100 0.000000
-20.840500 0.000000
-20.805000 0.000000
-20.769400 0.000000
-20.733900 0.000000
-20.698300 0.000000
-20.662800 0.000000
-20.627200 0.000000
-20.591700 0.000000
-20.556100 0.000000
-20.520600 0.000000
-20.485000 0.000000
-20.449500 0.000000
-20.413900 0.000000
-20.378400 0.000000
-20.342900 0.000000
-20.307300 0.000000
-20.271800 0.000000
-20.236200 0.000000
-20.200700 0.000000
-20.165100 0.000000
-20.129600 0.000000
-20.094000 0.000000
-20.058500 0.000000
-20.022900 0.000000
-19.987400 0.000000
-19.951800 0.000000
-19.916300 0.000000
-19.880700 0.000000
-19.845200 0.000000
-19.809600 0.000000
-19.774100 0.000000
-19.738600 0.000000
-19.703000 0.000000
-19.667500 0.000000
-19.631900 0.000000
-19.596400 0.000000
-19.560800 0.000000
-19.525300 0.000000
-19.489700 0.000000
-19.454200 0.000000
-19.418600 0.000000
-19.383100 0.000000
-19.347500 0.000000
-19.312000 0.000000
-19.276400 0.000000
-19.240900 0.000000
-19.205300 0.000000
-19.169800 0.000000
-19.134300 0.000000
-19.098700 0.000000
-19.063200 0.000000
-19.027600 0.000000
-18.992100 0.000000
-18.956500 0.000000
-18.921000 0.000000
-18.885400 0.000000
-18.849900 0.000000
-18.814300 0.000000
-18.778800 0.000000
-18.743200 0.000000
-18.707700 0.000000
-18.672100 0.000000
-18.636600 0.000000
-18.601000 0.000000
-18.565500 0.000000
-18.530000 0.000000
-18.494400 0.000000
-18.458900 0.000000
-18.423300 0.000000
-18.387800 0.000000
-18.352200 0.000000
-18.316700 0.000000
-18.281100 0.000000
-18.245600 0.000000
-18.210000 0.000000
-18.174500 0.000000
-18.138900 0.000000
-18.103400 0.000000
-18.067800 0.000000
-18.032300 0.000000
-17.996700 0.000000
-17.961200 0.000000
-17.925700 0.000000
-17.890100 0.000000
-17.854600 0.000000
-17.819000 0.000000
-17.783500 0.000000
-17.747900 0.000000
-17.712400 0.000000
-17.676800 0.000000
-17.641300 0.000000
-17.605700 0.000000
-17.570200 0.000000
-17.534600 0.000000
-17.499100 0.000000
-17.463500 0.000000
-17.428000 0.000000
-17.392500 0.000000
-17.356900 0.000000
-17.321400 0.000000
-17.285800 0.000000
-17.250300 0.000000
-17.214700 0.000000
-17.179200 0.000000
-17.143600 0.000000
-17.108100 0.000000
-17.072500 0.000000
-17.037000 0.000000
-17.001400 0.000000
-16.965900 0.000000
-16.930300 0.000000
-16.894800 0.000000
-16.859200 0.000000
-16.823700 0.000000
-16.788200 0.000000
-16.752600 0.000000
-16.717100 0.000000
-16.681500 0.000000
-16.646000 0.000000
-16.610400 0.000000
-16.574900 0.000000
-16.539300 0.000000
-16.503800 0.000000
-16.468200 0.000000
-16.432700 0.000000
-16.397100 0.000000
-16.361600 0.000000
-16.326000 0.000000
-16.290500 0.000000
-16.254900 0.000000
-16.219400 0.000000
-16.183900 0.000000
-16.148300 0.000000
-16.112800 0.000000
-16.077200 0.000000
-16.041700 0.000000
-16.006100 0.000000
-15.970600 0.000000
-15.935000 0.000000
-15.899500 0.000000
-15.863900 0.000000
-15.828400 0.000000
-15.792800 0.000000
-15.757300 0.000000
-15.721700 0.000000
-15.686200 0.000000
-15.650600 0.000000
-15.615100 0.000000
-15.579600 0.000000
-15.544000 0.000000
-15.508500 0.000000
-15.472900 0.000000
-15.437400 0.000000
-15.401800 0.000000
-15.366300 0.000000
-15.330700 0.000000
-15.295200 0.000000
-15.259600 0.000000
-15.224100 0.000000
-15.188500 0.000000
-15.153000 0.000000
-15.117400 0.000000
-15.081900 0.000000
-15.046300 0.000000
-15.010800 0.000000
-14.975300 0.000000
-14.939700 0.000000
-14.904200 0.000000
-14.868600 0.000000
-14.833100 0.000000
-14.797500 0.000000
-14.762000 0.000000
-14.726400 0.000000
-14.690900 0.000000
-14.655300 0.000000
-14.619800 0.000000
-14.584200 0.000000
-14.548700 0.000000
-14.513100 0.000000
-14.477600 0.000000
-14.442100 0.000000
-14.406500 0.000000
-14.371000 0.000000
-14.335400 0.000000
-14.299900 0.000000
-14.264300 0.000000
-14.228800 0.000000
-14.193200 0.000000
-14.157700 0.000000
-14.122100 0.000000
-14.086600 0.000000
-14.051000 0.000000
-14.015500 0.000000
-13.979900 0.000000
-13.944400 0.000000
-13.908800 0.000000
-13.873300 0.000000
-13.837800 0.000000
-13.802200 0.000000
-13.766700 0.000000
-13.731100 0.000000
-13.695600 0.000000
-13.660000 0.000000
-13.624500 0.000000
-13.588900 0.000000
-13.553400 0.000000
-13.517800 0.000000
-13.482300 0.000000
-13.446700 0.000000
-13.411200 0.000000
-13.375600 0.000000
-13.340100 0.000000
-13.304500 0.000000
-13.269000 0.000000
-13.233500 0.000000
-13.197900 0.000000
-13.162400 0.000000
-13.126800 0.000000
-13.091300 0.000000
-13.055700 0.000000
-13.020200 0.000000
-12.984600 0.000000
-12.949100 0.000000
-12.913500 0.000000
-12.878000 0.000000
-12.842400 0.000000
-12.806900 0.000000
-12.771300 0.000000
-12.735800 0.000000
-12.700200 0.000000
-12.664700 0.000000
-12.629200 0.000000
-12.593600 0.000000
-12.558100 0.000000
-12.522500 0.000000
-12.487000 0.000000
-12.451400 0.000000
-12.415900 0.000000
-12.380300 0.000000
-12.344800 0.000000
-12.309200 0.000000
-12.273700 0.000000
-12.238100 0.000000
-12.202600 0.000000
-12.167000 0.000000
-12.131500 0.000000
-12.095900 0.000000
-12.060400 0.000000
-12.024900 0.000000
-11.989300 0.000000
-11.953800 0.000000
-11.918200 0.000000
-11.882700 0.000000
-11.847100 0.000000
-11.811600 0.000000
-11.776000 0.000000
-11.740500 0.000000
-11.704900 0.000000
-11.669400 0.000000
-11.633800 0.000000
-11.598300 0.000000
-11.562700 0.000000
-11.527200 0.000000
-11.491700 0.000000
-11.456100 0.000000
-11.420600 0.000000
-11.385000 0.000000
-11.349500 0.000000
-11.313900 0.000000
-11.278400 0.000000
-11.242800 0.000000
-11.207300 0.000000
-11.171700 0.000000
-11.136200 0.000000
-11.100600 0.000000
-11.065100 0.000000
-11.029500 0.000000
-10.994000 0.000000
-10.958400 0.000000
-10.922900 0.000000
-10.887400 0.000000
-10.851800 0.000000
-10.816300 0.000000
-10.780700 0.000000
-10.745200 0.000000
-10.709600 0.036100
-10.674100 0.134600
-10.638500 0.233700
-10.603000 0.302300
-10.567400 0.355100
-10.531900 0.324400
-10.496300 0.345800
-10.460800 0.365800
-10.425200 0.375400
-10.389700 0.377400
-10.354100 0.375900
-10.318600 0.376300
-10.283100 0.382700
-10.247500 0.394000
-10.212000 0.405300
-10.176400 0.416700
-10.140900 0.426200
-10.105300 0.436000
-10.069800 0.445700
-10.034200 0.456200
-9.998700 0.467700
-9.963100 0.479600
-9.927600 0.492100
-9.892000 0.504800
-9.856500 0.517500
-9.820900 0.532500
-9.785400 0.560800
-9.749800 0.791200
-9.714300 0.916000
-9.678800 1.064600
-9.643200 1.238800
-9.607700 1.493200
-9.572100 1.558600
-9.536600 1.654500
-9.501000 1.736100
-9.465500 1.903100
-9.429900 2.193700
-9.394400 2.552900
-9.358800 3.087100
-9.323300 2.680100
-9.287700 2.724500
-9.252200 2.679200
-9.216600 2.689200
-9.181100 2.576100
-9.145500 2.557900
-9.110000 3.517200
-9.074500 2.672500
-9.038900 2.293400
-9.003400 0.000000
-8.967800 0.000000
-8.932300 0.000000
-8.896700 0.000000
-8.861200 0.000000
-8.825600 0.000000
-8.790100 0.000000
-8.754500 0.000000
-8.719000 0.000000
-8.683400 0.000000
-8.647900 0.000000
-8.612300 0.000000
-8.576800 0.000000
-8.541200 0.000000
-8.505700 0.000000
-8.470200 0.000000
-8.434600 0.000000
-8.399100 0.000000
-8.363500 0.000000
-8.328000 0.000000
-8.292400 0.000000
-8.256900 0.000000
-8.221300 0.000000
-8.185800 0.000000
-8.150200 0.000000
-8.114700 0.000000
-8.079100 0.000000
-8.043600 0.000000
-8.008000 0.000000
-7.972500 0.000000
-7.937000 0.000000
-7.901400 0.000000
-7.865900 0.000000
-7.830300 0.000000
-7.794800 0.000000
-7.759200 0.000000
-7.723700 0.000000
-7.688100 0.000000
-7.652600 0.000000
-7.617000 0.000000
-7.581500 0.000000
-7.545900 0.000000
-7.510400 0.000000
-7.474800 0.000000
-7.439300 0.000000
-7.403700 0.000000
-7.368200 0.000000
-7.332700 0.000000
-7.297100 0.000000
-7.261600 0.000000
-7.226000 0.000000
-7.190500 0.000000
-7.154900 0.000000
-7.119400 0.000000
-7.083800 0.000000
-7.048300 0.000000
-7.012700 0.000000
-6.977200 0.000000
-6.941600 0.000000
-6.906100 0.000000
-6.870500 0.000000
-6.835000 0.000000
-6.799400 0.000000
-6.763900 0.000000
-6.728400 0.000000
-6.692800 0.000000
-6.657300 0.000000
-6.621700 0.000000
-6.586200 0.000000
-6.550600 0.000000
-6.515100 0.000000
-6.479500 0.000000
-6.444000 0.000000
-6.408400 0.000000
-6.372900 0.000000
-6.337300 0.000000
-6.301800 0.000000
-6.266200 0.000000
-6.230700 0.000000
-6.195100 0.000000
-6.159600 0.000000
-6.124100 0.000000
-6.088500 0.000000
-6.053000 0.000000
-6.017400 0.000000
-5.981900 0.000000
-5.946300 0.000000
-5.910800 0.000000
-5.875200 0.000000
-5.839700 0.000000
-5.804100 0.000000
-5.768600 0.000000
-5.733000 0.000000
-5.697500 0.000000
-5.661900 0.000000
-5.626400 0.000000
-5.590800 0.000000
-5.555300 0.000000
-5.519800 0.000000
-5.484200 0.000000
-5.448700 0.000000
-5.413100 0.000000
-5.377600 0.000000
-5.342000 0.000000
-5.306500 0.000000
-5.270900 0.000000
-5.235400 0.000000
-5.199800 0.000000
-5.164300 0.000000
-5.128700 0.000000
-5.093200 0.000000
-5.057600 0.000000
-5.022100 0.000000
-4.986600 0.000000
-4.951000 0.000000
-4.915500 0.000000
-4.879900 0.000000
-4.844400 0.000000
-4.808800 0.000000
-4.773300 0.000000
-4.737700 0.000000
-4.702200 0.000000
-4.666600 0.000000
-4.631100 0.000000
-4.595500 0.000000
-4.560000 0.000000
-4.524400 0.000000
-4.488900 0.000000
-4.453300 0.000000
-4.417800 0.000000
-4.382300 0.000000
-4.346700 0.000000
-4.311200 0.000000
-4.275600 0.000000
-4.240100 0.000000
-4.204500 0.000000
-4.169000 0.000000
-4.133400 0.000000
-4.097900 0.000000
-4.062300 0.000000
-4.026800 0.000000
-3.991200 0.000000
-3.955700 0.000000
-3.920100 0.000000
-3.884600 0.000000
-3.849000 0.000000
-3.813500 0.000000
-3.778000 0.000000
-3.742400 0.000000
-3.706900 0.000000
-3.671300 0.000000
-3.635800 0.000000
-3.600200 0.000000
-3.564700 0.000000
-3.529100 0.000000
-3.493600 0.000000
-3.458000 0.000000
-3.422500 0.000000
-3.386900 0.000000
-3.351400 0.000000
-3.315800 0.000000
-3.280300 0.000000
-3.244700 0.000000
-3.209200 0.000000
-3.173700 0.000000
-3.138100 0.000000
-3.102600 0.000000
-3.067000 0.000000
-3.031500 0.000000
-2.995900 0.000000
-2.960400 0.000000
-2.924800 0.000000
-2.889300 0.000000
-2.853700 0.000000
-2.818200 0.000000
-2.782600 0.000000
-2.747100 0.000000
-2.711500 0.000000
-2.676000 0.000000
-2.640400 0.000000
-2.604900 0.000000
-2.569400 0.000000
-2.533800 0.000000
-2.498300 0.000000
-2.462700 0.000000
-2.427200 0.000000
-2.391600 0.000000
-2.356100 0.008200
-2.320500 0.032000
-2.285000 0.060900
-2.249400 0.079400
-2.213900 0.089600
-2.178300 0.099400
-2.142800 0.416500
-2.107200 0.596400
-2.071700 0.724500
-2.036100 0.689500
-2.000600 0.737900
-1.965100 0.786000
-1.929500 0.834600
-1.894000 0.887900
-1.858400 0.943300
-1.822900 0.998800
-1.787300 1.067800
-1.751800 1.165400
-1.716200 1.277100
-1.680700 1.352700
-1.645100 1.480000
-1.609600 1.922400
-1.574000 2.063300
-1.538500 1.893400
-1.502900 2.251000
-1.467400 1.160400
-1.431900 0.797500
-1.396300 0.697600
-1.360800 0.626900
-1.325200 5.213300
-1.289700 1.377900
-1.254100 1.364900
-1.218600 1.454800
-1.183000 1.434000
-1.147500 1.269100
-1.111900 0.910900
-1.076400 0.821000
-1.040800 0.767400
-1.005300 0.777800
-0.969700 0.816500
-0.934200 0.950800
-0.898600 0.940400
-0.863100 0.991400
-0.827600 1.066900
-0.792000 1.041800
-0.756500 0.840500
-0.720900 0.756800
-0.685400 1.910000
-0.649800 1.985200
-0.614300 2.338900
-0.578700 2.560000
-0.543200 3.006300
-0.507600 3.534300
-0.472100 3.100500
-0.436500 2.600000
-0.401000 1.164200
-0.365400 0.701900
-0.329900 0.604500
-0.294300 0.542000
-0.258800 0.529600
-0.223300 0.646000
-0.187700 0.697100
-0.152200 0.701000
-0.116600 0.688700
-0.081100 0.687400
-0.045500 0.687500
-0.010000 0.686700
0.025600 0.687300
0.061100 0.792900
0.096700 0.997700
0.132200 1.096800
0.167800 1.152000
0.203300 1.221400
0.238900 1.422700
0.274400 1.727500
0.310000 2.235000
0.345500 3.226700
0.381000 2.991200
0.416600 2.270800
0.452100 1.822600
0.487700 1.714900
0.523200 1.596800
0.558800 1.476000
0.594300 1.257500
0.629900 1.188700
0.665400 1.139600
0.701000 1.074200
0.736500 1.055200
0.772100 1.052800
0.807600 1.041000
0.843200 1.111800
0.878700 1.259900
0.914300 1.438500
0.949800 1.158500
0.985300 0.945400
1.020900 0.939200
1.056400 0.948300
1.092000 0.939400
1.127500 0.918200
1.163100 0.825000
1.198600 1.031300
1.234200 1.482000
1.269700 1.881400
1.305300 5.117100
1.340800 2.803800
1.376400 2.766900
1.411900 2.700400
1.447500 2.603300
1.483000 2.451100
1.518500 2.171100
1.554100 1.806600
1.589600 1.602800
1.625200 1.476200
1.660700 1.419300
1.696300 1.373500
1.731800 1.499600
1.767400 1.460200
1.802900 1.412000
1.838500 1.350300
1.874000 1.444500
1.909600 1.654800
1.945100 1.188800
1.980700 0.860300
2.016200 0.688800
2.051800 0.556300
2.087300 0.437500
2.122800 0.396900
2.158400 0.363100
2.193900 0.413800
2.229500 0.599000
2.265000 0.919000
2.300600 1.274900
2.336100 1.593400
2.371700 2.163300
2.407200 2.534000
2.442800 2.459100
2.478300 2.250700
2.513900 1.739800
2.549400 1.320600
2.585000 1.213900
2.620500 1.166600
2.656100 1.129700
2.691600 1.093400
2.727100 1.040800
2.762700 0.922700
2.798200 0.861200
2.833800 0.802100
2.869300 0.813600
2.904900 0.661100
2.940400 0.580000
2.976000 0.504700
3.011500 0.210600
3.047100 0.188700
3.082600 0.172300
3.118200 0.160300
3.153700 0.148300
3.189300 0.136000
3.224800 0.121000
3.260400 0.111700
3.295900 0.102800
3.331400 0.095500
3.367000 0.092400
3.402500 0.063200
3.438100 0.038700
3.473600 0.018900
3.509200 0.004700
3.544700 0.000000
3.580300 0.000000
3.615800 0.000000
3.651400 0.000000
3.686900 0.000000
3.722500 0.000000
3.758000 0.000000
3.793600 0.000000
3.829100 0.000000
3.864700 0.000000
3.900200 0.000000
3.935700 0.000000
3.971300 0.000000
4.006800 0.000000
4.042400 0.000000
4.077900 0.000000
4.113500 0.000000
4.149000 0.000000
4.184600 0.000000
4.220100 0.000000
4.255700 0.000000
4.291200 0.000000
4.326800 0.000000
4.362300 0.000000
4.397900 0.000000
4.433400 0.000000
4.469000 0.000000
4.504500 0.217000
4.540000 0.244400
4.575600 0.271800
4.611100 0.327400
4.646700 0.478900
4.682200 0.672000
4.717800 1.021900
4.753300 1.404300
4.788900 1.459500
4.824400 1.574100
4.860000 1.745900
4.895500 1.842100
4.931100 1.987600
4.966600 2.653200
5.002200 4.219900
5.037700 2.017400
5.073200 1.342000
5.108800 1.258800
5.144300 1.345000
5.179900 2.056300
5.215400 3.692100
5.251000 2.975700
5.286500 2.660500
5.322100 2.797500
5.357600 2.679400
5.393200 2.594700
5.428700 1.577200
5.464300 1.375800
5.499800 2.126900
5.535400 2.571100
5.570900 2.446600
5.606500 2.202000
5.642000 1.606800
5.677500 1.340700
5.713100 1.199900
5.748600 1.084800
5.784200 1.090300
5.819700 1.364100
5.855300 1.164700
5.890800 1.224500
5.926400 0.890300
5.961900 0.919800
5.997500 0.972800
6.033000 1.067900
6.068600 1.209400
6.104100 1.825800
6.139700 2.167900
6.175200 1.563300
6.210800 1.377000
6.246300 1.154300
6.281800 1.047000
6.317400 1.064100
6.352900 1.036200
6.388500 0.976100
6.424000 0.906300
6.459600 0.816200
6.495100 0.829900
6.530700 0.720100
6.566200 0.638700
6.601800 0.635800
6.637300 0.561400
6.672900 0.536700
6.708400 0.566900
6.744000 0.591600
6.779500 0.616400
6.815100 0.696100
6.850600 0.992100
6.886100 2.668900
6.921700 2.811100
6.957200 2.876300
6.992800 2.275200
7.028300 1.835600
7.063900 1.795600
7.099400 1.186100
7.135000 0.948800
7.170500 0.694600
7.206100 0.000000
7.241600 0.000000
7.277200 0.000000
7.312700 0.000000
7.348300 0.000300
7.383800 0.001200
7.419400 0.002400
7.454900 0.003800
7.490400 0.005600
7.526000 0.007500
7.561500 0.009700
7.597100 0.012100
7.632600 0.014800
7.668200 0.017600
7.703700 0.020700
7.739300 0.024100
7.774800 0.027800
7.810400 0.031800
7.845900 0.036300
7.881500 0.041400
7.917000 0.047000
7.952600 0.049300
7.988100 0.052700
8.023600 0.056100
8.059200 0.059500
8.094700 0.062700
8.130300 0.065700
8.165800 0.068400
8.201400 0.073500
8.236900 0.147900
8.272500 0.411200
8.308000 0.222300
8.343600 0.221000
8.379100 0.235000
8.414700 0.248600
8.450200 0.267700
8.485800 0.286400
8.521300 0.305300
8.556900 0.325500
8.592400 0.346200
8.627900 0.367500
8.663500 0.379900
8.699000 0.407100
8.734600 0.441300
8.770100 0.467800
8.805700 0.492000
8.841200 0.486400
8.876800 0.489900
8.912300 0.501600
8.947900 0.540100
8.983400 0.586500
9.019000 0.617500
9.054500 0.643200
9.090100 0.668000
9.125600 0.692400
9.161200 0.725400
9.196700 0.741400
9.232200 0.850300
9.267800 0.816600
9.303300 0.643100
9.338900 0.562400
9.374400 0.565000
9.410000 0.575700
9.445500 0.586000
9.481100 0.595900
9.516600 0.605000
9.552200 0.612700
9.587700 0.615100
9.623300 0.627200
9.658800 0.647300
9.694400 0.679100
9.729900 0.698500
9.765500 0.694400
9.801000 0.691700
9.836500 0.684800
9.872100 0.690400
9.907600 0.729100
9.943200 0.787600
9.978700 0.800600
10.014300 0.789200
10.049800 0.776300
10.085400 0.778600
10.120900 0.823900
10.156500 0.715200
10.192000 0.645000
10.227600 0.650500
10.263100 0.719900
10.298700 0.776400
10.334200 0.857400
10.369800 0.978900
10.405300 1.112500
10.440800 1.245700
10.476400 1.196900
10.511900 1.103000
10.547500 1.070400
10.583000 1.038400
10.618600 1.008300
10.654100 0.978900
10.689700 0.959500
10.725200 0.941000
10.760800 0.940000
10.796300 0.938400
10.831900 0.951100
10.867400 0.961200
10.903000 0.969200
10.938500 0.981900
10.974100 1.002800
11.009600 1.049200
11.045100 1.076700
11.080700 1.148900
11.116200 1.234900
11.151800 1.283400
11.187300 1.327300
11.222900 1.492000
11.258400 1.540700
11.294000 1.370700
11.329500 1.491800
11.365100 1.204400
11.400600 1.067300
11.436200 1.060600
11.471700 1.051100
11.507300 1.025300
11.542800 1.101400
11.578300 1.188600
11.613900 1.123600
11.649400 1.316000
11.685000 1.428000
11.720500 1.467700
11.756100 1.690800
11.791600 1.707100
11.827200 1.151000
11.862700 0.959800
11.898300 0.830900
11.933800 0.809900
11.969400 0.821600
12.004900 0.855700
12.040500 0.952600
12.076000 1.172300
12.111600 1.525600
12.147100 1.903700
12.182600 2.081800
12.218200 2.185900
12.253700 2.171600
12.289300 1.977200
12.324800 1.757600
12.360400 1.520300
12.395900 1.347500
12.431500 1.199100
12.467000 1.010500
12.502600 0.993100
12.538100 0.940200
12.573700 0.851000
12.609200 0.813000
12.644800 0.804400
12.680300 0.741100
12.715900 0.721000
12.751400 0.777100
12.786900 0.823600
12.822500 0.874200
12.858000 0.997700
12.893600 1.045800
12.929100 1.028700
12.964700 0.994400
13.000200 0.962500
13.035800 0.918200
13.071300 0.902200
13.106900 0.896600
13.142400 0.900600
13.178000 0.929900
13.213500 0.990800
13.249100 1.094100
13.284600 1.201300
13.320200 1.291400
13.355700 1.326800
13.391200 1.360000
13.426800 1.768100
13.462300 1.645700
13.497900 1.600500
13.533400 1.556100
13.569000 1.459600
13.604500 1.310100
13.640100 1.255800
13.675600 1.455000
13.711200 1.433500
13.746700 1.484400
13.782300 1.490800
13.817800 1.651600
13.853400 1.713300
13.888900 1.812700
13.924500 1.814300
13.960000 1.679900
13.995500 1.562400
14.031100 1.447700
14.066600 1.093000
14.102200 0.862200
14.137700 0.689100
14.173300 0.626500
14.208800 0.616400
14.244400 0.689100
14.279900 0.735900
14.315500 0.835900
14.351000 0.891800
14.386600 0.926600
14.422100 0.958300
14.457700 1.014000
14.493200 1.107300
14.528700 1.288500
14.564300 1.185100
14.599800 1.166000
14.635400 1.157400
14.670900 1.148700
14.706500 1.139500
14.742000 1.146100
14.777600 1.115500
14.813100 1.102500
14.848700 1.098400
14.884200 1.015200
14.919800 0.984300
14.955300 0.941200
14.990900 0.904400
15.026400 0.882800
15.062000 0.869800
15.097500 0.879200
15.133000 0.954400
15.168600 1.104200
15.204100 1.488900
15.239700 1.786400
15.275200 2.008900
15.310800 1.986900
15.346300 1.926600
15.381900 1.670200
15.417400 1.545300
15.453000 1.457100
15.488500 1.328200
15.524100 1.204400
15.559600 1.146000
15.595200 1.060500
15.630700 0.905800
15.666300 0.876100
15.701800 0.765200
15.737300 0.718600
15.772900 0.805300
15.808400 0.904600
15.844000 1.021100
15.879500 1.169000
15.915100 1.262600
15.950600 1.328100
15.986200 1.329600
16.021700 1.355900
16.057300 1.372500
16.092800 1.235800
16.128400 1.220500
16.163900 1.211300
16.199500 1.196000
16.235000 1.170300
16.270600 1.133900
16.306100 1.096400
16.341600 1.054500
16.377200 0.964800
16.412700 0.901700
16.448300 0.828200
16.483800 0.781900
16.519400 0.782000
16.554900 0.890700
16.590500 0.947800
16.626000 0.974500
16.661600 1.038800
16.697100 1.121800
16.732700 1.127700
16.768200 1.136800
16.803800 1.143500
16.839300 1.204200
16.874900 1.188400
16.910400 1.204900
16.945900 1.214200
16.981500 1.194000
17.017000 1.215600
17.052600 1.251300
17.088100 1.252400
17.123700 1.252900
17.159200 1.257300
17.194800 1.243000
17.230300 1.240300
17.265900 1.225900
17.301400 1.205600
17.337000 1.195700
17.372500 1.214100
17.408100 1.255200
17.443600 1.318600
17.479200 1.417400
17.514700 1.337900
17.550200 1.298900
17.585800 1.264600
17.621300 1.205000
17.656900 1.166800
17.692400 1.124500
17.728000 1.076200
17.763500 1.033700
17.799100 1.005700
17.834600 0.964000
17.870200 0.908300
17.905700 0.886900
17.941300 0.856800
17.976800 0.842400
18.012400 0.818700
18.047900 0.783700
18.083400 0.771900
18.119000 0.756200
18.154500 0.811100
18.190100 0.767300
18.225600 0.745100
18.261200 0.774200
18.296700 0.836200
18.332300 0.900800
18.367800 0.922800
18.403400 0.970300
18.438900 0.973100
18.474500 0.950900
18.510000 0.939200
18.545600 0.958900
18.581100 0.989600
18.616700 1.032800
18.652200 1.135700
18.687700 1.226100
18.723300 1.245100
18.758800 1.276900
18.794400 1.349100
18.829900 1.425300
18.865500 1.461600
18.901000 1.544800
18.936600 1.558900
18.972100 1.526300
19.007700 1.503200
19.043200 1.320500
19.078800 1.213700
19.114300 1.126700
19.149900 1.077100
19.185400 1.047300
19.221000 1.021200
19.256500 0.910800
19.292000 0.849000
19.327600 0.813500
19.363100 0.752900
19.398700 0.736600
19.434200 0.754500
19.469800 0.789300
19.505300 0.804300
19.540900 0.817800
19.576400 0.866800
19.612000 0.950900
19.647500 0.936400
19.683100 0.971300
19.718600 1.026400
19.754200 1.065800
19.789700 1.084000
19.825300 1.116800
19.860800 1.160600
19.896300 1.206400
19.931900 1.249700
19.967400 1.269300
20.003000 1.361600
20.038500 1.308200
20.074100 1.190600
20.109600 1.137200
20.145200 1.143500
20.180700 1.192000
20.216300 1.239500
20.251800 1.300400
20.287400 1.395500
20.322900 1.413800
20.358500 1.383700
20.394000 1.416600
20.429600 1.464700
20.465100 1.570600
20.500600 1.666400
20.536200 1.749900
20.571700 1.853900
20.607300 1.939400
20.642800 1.863600
20.678400 1.604500
20.713900 1.462400
20.749500 1.332000
20.785000 1.228100
20.820600 1.149900
20.856100 1.070900
20.891700 1.033200
20.927200 0.996500
20.962800 1.054100
20.998300 1.106900
21.033800 1.135400
21.069400 1.373600
21.104900 1.221500
21.140500 1.190700
21.176000 1.167600
21.211600 1.155600
21.247100 1.155300
21.282700 1.172100
21.318200 1.208400
21.353800 1.289700
21.389300 1.299200
21.424900 1.339900
21.460400 1.458400
21.496000 1.527800
21.531500 1.571500
21.567100 1.469800
21.602600 1.479800
21.638100 1.399200
21.673700 1.355900
21.709200 1.294800
21.744800 1.329100
21.780300 1.387700
21.815900 1.416900
21.851400 1.434400
21.887000 1.294500
21.922500 1.258500
21.958100 1.297700
21.993600 1.325600
22.029200 1.313500
22.064700 1.304600
22.100300 1.352100
22.135800 1.435200
22.171400 1.568900
22.206900 1.718400
22.242400 1.747800
22.278000 1.667500
22.313500 1.545100
22.349100 1.405300
22.384600 1.232500
22.420200 1.184100
22.455700 1.293700
22.491300 1.274000
22.526800 1.281100
22.562400 1.279400
22.597900 1.284400
22.633500 1.282700
22.669000 1.319800
22.704600 1.463000
22.740100 1.442100
22.775700 1.344100
22.811200 1.274900
22.846700 1.248300
22.882300 1.250600
22.917800 1.240000
22.953400 1.184300
22.988900 1.083500
23.024500 0.974200
23.060000 0.934500
23.095600 0.950200
23.131100 1.008900
23.166700 1.085000
23.202200 1.190800
23.237800 1.335100
23.273300 1.557900
23.308900 1.607300
23.344400 1.640600
23.380000 1.644100
23.415500 1.635100
23.451000 1.636300
23.486600 1.630000
23.522100 1.543900
23.557700 1.422300
23.593200 1.232300
23.628800 1.117300
23.664300 1.154100
23.699900 1.135800
23.735400 1.115400
23.771000 1.066000
23.806500 1.107400
23.842100 1.102200
23.877600 1.087300
23.913200 1.120900
23.948700 1.159300
23.984300 1.186800
24.019800 1.207000
24.055300 1.225200
24.090900 1.257300
24.126400 1.317900
24.162000 1.416100
24.197500 1.611500
24.233100 1.705100
24.268600 1.834900
24.304200 1.818200
24.339700 1.784300
24.375300 1.806800
24.410800 1.727000
24.446400 1.627900
24.481900 1.564300
24.517500 1.571600
24.553000 1.597900
24.588500 1.605700
24.624100 1.568700
24.659600 1.518300
24.695200 1.479700
24.730700 1.468300
24.766300 1.516000
24.801800 1.562700
24.837400 1.748100
24.872900 1.700000
24.908500 1.519500
24.944000 1.478700
24.979600 1.438800
25.015100 1.454400
25.050700 1.493400
25.086200 1.481100
25.121800 1.478600
25.157300 1.487500
25.192800 1.531400
25.228400 1.578000
25.263900 1.667600
25.299500 1.784000
25.335000 1.999900
25.370600 1.758100
25.406100 1.713200
25.441700 1.666900
25.477200 1.631500
25.512800 1.593600
25.548300 1.600300
25.583900 1.603800
25.619400 1.572800
25.655000 1.523100
25.690500 1.463300
25.726100 1.445100
25.761600 1.444300
25.797100 1.431300
25.832700 1.378900
25.868200 1.311900
25.903800 1.239300
25.939300 1.219700
25.974900 1.194600
26.010400 1.186400
26.046000 1.160400
26.081500 1.131000
26.117100 1.170300
26.152600 1.156800
26.188200 1.184800
26.223700 1.175600
26.259300 1.132400
26.294800 1.163200
26.330400 1.201500
26.365900 1.079100
26.401400 1.095100
26.437000 1.105100
26.472500 1.120500
26.508100 1.132300
26.543600 1.108000
26.579200 1.104100
26.614700 1.165800
26.650300 1.247500
26.685800 1.358200
26.721400 1.504000
26.756900 1.536400
26.792500 1.565500
26.828000 1.650300
26.863600 1.736600
26.899100 1.825400
26.934700 1.933200
26.970200 1.862000
27.005700 1.630100
27.041300 1.485900
27.076800 1.342500
27.112400 1.255900
27.147900 1.178000
27.183500 1.141400
27.219000 1.130600
27.254600 1.120900
27.290100 1.133100
27.325700 1.143500
27.361200 1.176100
27.396800 1.251800
27.432300 1.386100
27.467900 1.545400
27.503400 1.652400
27.538900 1.739800
27.574500 1.825500
27.610000 1.738100
27.645600 1.708400
27.681100 1.654900
27.716700 1.592700
27.752200 1.618600
27.787800 1.509200
27.823300 1.444500
27.858900 1.432900
27.894400 1.304100
27.930000 1.318400
27.965500 1.324500
28.001100 1.446100
28.036600 1.463100
28.072200 1.513800
28.107700 1.466700
28.143200 1.380600
28.178800 1.378400
28.214300 1.399800
28.249900 1.368100
28.285400 1.388600
28.321000 1.397200
28.356500 1.424900
28.392100 1.472800
28.427600 1.497300
28.463200 1.520600
28.498700 1.516100
28.534300 1.514200
28.569800 1.510000
28.605400 1.527600
28.640900 1.548700
28.676500 1.585800
28.712000 1.640600
28.747500 1.670200
28.783100 1.621500
28.818600 1.582400
28.854200 1.587400
28.889700 1.464200
28.925300 1.414200
28.960800 1.418500
28.996400 1.479500
29.031900 1.404300
29.067500 1.379800
29.103000 1.412600
29.138600 1.455700
29.174100 1.571900
29.209700 1.652400
29.245200 1.646500
29.280800 1.716000
29.316300 1.817200
29.351800 1.703800
29.387400 1.578600
29.422900 1.550300
29.458500 1.571400
29.494000 1.556100
29.529600 1.549900
29.565100 1.537900
29.600700 1.653900
29.636200 1.596100
29.671800 1.564400
29.707300 1.390100
29.742900 1.343500
29.778400 1.360700
29.814000 1.319200
29.849500 1.341500
29.885100 1.503700
29.920600 1.628000
29.956100 1.765800
29.991700 1.899700
30.027200 1.998600
30.062800 2.017200
30.098300 2.040000
30.133900 2.012300
30.169400 1.916300
30.205000 1.898200
30.240500 1.780500
30.276100 1.687900
30.311600 1.606900
30.347200 1.566600
30.382700 1.527200
30.418300 1.527800
30.453800 1.536600
30.489400 1.520700
30.524900 1.510300
30.560400 1.561100
30.596000 1.631500
30.631500 1.680400
30.667100 1.764200
30.702600 1.777500
30.738200 1.761700
30.773700 1.649000
30.809300 1.671500
30.844800 1.483400
30.880400 1.455200
30.915900 1.340300
30.951500 1.237300
30.987000 1.145300
31.022600 1.073300
31.058100 1.021200
31.093600 1.020500
31.129200 1.083400
31.164700 1.196100
31.200300 1.306700
31.235800 1.461800
31.271400 1.528300
31.306900 1.576500
31.342500 1.620200
31.378000 1.647400
31.413600 1.604700
31.449100 1.525100
31.484700 1.402700
31.520200 1.352000
31.555800 1.339400
31.591300 1.050600
31.626900 1.015000
31.662400 1.044700
31.697900 1.153100
31.733500 1.293300
31.769000 1.440500
31.804600 1.587800
31.840100 1.708300
31.875700 1.795800
31.911200 1.847400
31.946800 1.922000
31.982300 2.013000
32.017900 1.968000
32.053400 1.864900
32.089000 1.791000
32.124500 1.746400
32.160100 1.733000
32.195600 1.820900
32.231200 1.731600
32.266700 1.715900
32.302200 1.675400
32.337800 1.686800
32.373300 1.732100
32.408900 1.688300
32.444400 1.646200
32.480000 1.641400
32.515500 1.602300
32.551100 1.529600
32.586600 1.513100
32.622200 1.358600
32.657700 1.111600
32.693300 1.080800
32.728800 1.094400
32.764400 1.111100
32.799900 1.101600
32.835500 1.101900
32.871000 1.111000
32.906500 1.102700
32.942100 1.125900
32.977600 1.199400
33.013200 1.441400
33.048700 1.790800
33.084300 1.895000
33.119800 1.848600
33.155400 1.907800
33.190900 1.836400
33.226500 1.905200
33.262000 1.648200
33.297600 1.515900
33.333100 1.341600
33.368700 1.184700
33.404200 0.997200
33.439800 0.825500
33.475300 0.770500
33.510800 0.607400
33.546400 0.577400
33.581900 0.546200
33.617500 0.516000
33.653000 0.469600
33.688600 0.421100
33.724100 0.351200
33.759700 0.300800
33.795200 0.280100
33.830800 0.269800
33.866300 0.235000
33.901900 0.185800
33.937400 0.148800
33.973000 0.128800
34.008500 0.118000
34.044000 0.110600
34.079600 0.104500
34.115100 0.099500
34.150700 0.094900
34.186200 0.089700
34.221800 0.084600
34.257300 0.079500
34.292900 0.074200
34.328400 0.068800
34.364000 0.063200
34.399500 0.057900
34.435100 0.053300
34.470600 0.049200
34.506200 0.045700
34.541700 0.043100
34.577300 0.041900
34.612800 0.042000
34.648300 0.043000
34.683900 0.044600
34.719400 0.045400
34.755000 0.045100
34.790500 0.043700
34.826100 0.042400
34.861600 0.024000
34.897200 0.019500
34.932700 0.018200
34.968300 0.016900
35.003800 0.015600
35.039400 0.014400
35.074900 0.013200
35.110500 0.012100
35.146000 0.011000
35.181600 0.010000
35.217100 0.009000
35.252600 0.008000
35.288200 0.007100
35.323700 0.006200
35.359300 0.005400
35.394800 0.004600
35.430400 0.003900
35.465900 0.003200
35.501500 0.002500
35.537000 0.001900
35.572600 0.001300
35.608100 0.000800
35.643700 0.000400
35.679200 0.000200
35.714800 0.000000
35.750300 0.000000
35.785900 0.000000
35.821400 0.000000
35.856900 0.000000
35.892500 0.000000
35.928000 0.000000
35.963600 0.000000
35.999100 0.000000
36.034700 0.000000
36.070200 0.000000
36.105800 0.000000
36.141300 0.000000
36.176900 0.000000
36.212400 0.000000
36.248000 0.000000
36.283500 0.000000
36.319100 0.000000
36.354600 0.000000
36.390200 0.000000
36.425700 0.000000
36.461200 0.000000
36.496800 0.000000
36.532300 0.000000
36.567900 0.000000
36.603400 0.000000
36.639000 0.000000
36.674500 0.000000
36.710100 0.000000
36.745600 0.000000
36.781200 0.000000
36.816700 0.000000
36.852300 0.000000
36.887800 0.000000
36.923400 0.000000
36.958900 0.000000
36.994500 0.000000
37.030000 0.000000
37.065500 0.000000
37.101100 0.000000
37.136600 0.000000
37.172200 0.000000
37.207700 0.000000
37.243300 0.000000
37.278800 0.000000
37.314400 0.000000
37.349900 0.000000
37.385500 0.000000
37.421000 0.000000
37.456600 0.000000
37.492100 0.000000
37.527700 0.000000
37.563200 0.000000
37.598700 0.000000
37.634300 0.000000
37.669800 0.000000
37.705400 0.000000
37.740900 0.000000
37.776500 0.000000
37.812000 0.000000
37.847600 0.000000
37.883100 0.000000
37.918700 0.000000
37.954200 0.000000
37.989800 0.000000
38.025300 0.000000
38.060900 0.000000
38.096400 0.000000
38.132000 0.000000
38.167500 0.000000
38.203000 0.000000
38.238600 0.000000
38.274100 0.000000
38.309700 0.000000
38.345200 0.000000
38.380800 0.000000
38.416300 0.000000
38.451900 0.000000
38.487400 0.000000
38.523000 0.000000
38.558500 0.000000
38.594100 0.000000
38.629600 0.000000
38.665200 0.000000
38.700700 0.000000
38.736300 0.000000
38.771800 0.000000
38.807300 0.000000
38.842900 0.000000
38.878400 0.000000
38.914000 0.000000
38.949500 0.000000
38.985100 0.000000
39.020600 0.000000
39.056200 0.000000
39.091700 0.000000
39.127300 0.000000
39.162800 0.000000
e
