set title 'mp-1217135 - Density of States'
set xlabel 'Energy (eV)'
set ylabel 'DOS (states/eV)'
set grid
set xrange [-10:10]
set yrange [0:15.490]
set xzeroaxis lt -1
set terminal png size 800,600
set output 'mp-1217135_dos_gnuplot.png'
plot '-' using 1:2 with lines title 'DOS'
-28.811400 0.000000
-28.780500 0.000000
-28.749600 0.000000
-28.718700 0.000000
-28.687800 0.000000
-28.656900 0.000000
-28.626000 0.000000
-28.595100 0.000000
-28.564200 0.000000
-28.533300 0.000000
-28.502400 0.000000
-28.471500 0.000000
-28.440600 0.000000
-28.409700 0.000000
-28.378800 0.000000
-28.347900 0.000000
-28.317000 0.000000
-28.286100 0.000000
-28.255200 0.000000
-28.224300 0.000000
-28.193400 0.000000
-28.162500 0.000000
-28.131600 0.000000
-28.100700 0.000000
-28.069800 0.000000
-28.038900 0.000000
-28.008000 0.000000
-27.977100 0.000000
-27.946200 0.000000
-27.915300 0.000000
-27.884400 0.000000
-27.853500 0.000000
-27.822600 0.000000
-27.791700 0.000000
-27.760800 0.000000
-27.729900 0.000000
-27.699000 0.000000
-27.668100 0.000000
-27.637200 0.000000
-27.606300 0.000000
-27.575400 0.000000
-27.544500 0.000000
-27.513600 0.000000
-27.482700 0.000000
-27.451800 0.000000
-27.420900 0.000000
-27.390000 0.000000
-27.359100 0.000000
-27.328200 0.000000
-27.297300 0.000000
-27.266400 0.000000
-27.235500 0.000000
-27.204600 0.000000
-27.173700 0.000000
-27.142800 0.000000
-27.111900 0.000000
-27.081000 0.000000
-27.050100 0.000000
-27.019200 0.000000
-26.988300 0.000000
-26.957400 0.000000
-26.926500 0.000000
-26.895600 0.000000
-26.864700 0.000000
-26.833800 0.000000
-26.802900 0.000000
-26.772000 0.000000
-26.741100 0.000000
-26.710200 0.000000
-26.679300 0.000000
-26.648400 0.000000
-26.617500 0.000000
-26.586600 0.000000
-26.555700 0.000000
-26.524800 0.000000
-26.493900 0.000000
-26.463000 0.000000
-26.432100 0.000000
-26.401200 0.000000
-26.370300 0.000000
-26.339400 0.000000
-26.308500 0.000000
-26.277600 0.000000
-26.246700 0.000000
-26.215800 0.000000
-26.184900 0.000000
-26.154000 0.000000
-26.123100 0.000000
-26.092200 0.000000
-26.061300 0.000000
-26.030400 0.000000
-25.999500 0.583100
-25.968600 2.939000
-25.937700 4.836800
-25.906800 5.615300
-25.875900 8.223800
-25.845000 10.743800
-25.814100 15.315200
-25.783200 19.628600
-25.752300 24.248200
-25.721400 14.861500
-25.690500 18.012300
-25.659600 22.090600
-25.628700 22.429200
-25.597800 18.214400
-25.566900 5.652800
-25.536000 14.595300
-25.505100 38.497900
-25.474200 37.709700
-25.443300 38.966800
-25.412400 23.648500
-25.381500 30.806500
-25.350600 52.976500
-25.319700 34.999800
-25.288800 31.480800
-25.257900 45.993500
-25.227000 42.417400
-25.196100 20.765700
-25.165200 26.657500
-25.134300 6.953700
-25.103400 2.910900
-25.072500 0.000000
-25.041600 0.000000
-25.010700 0.000000
-24.979800 0.000000
-24.948900 0.000000
-24.918000 0.000000
-24.887100 0.000000
-24.856200 17.987700
-24.825300 18.703100
-24.794400 25.226700
-24.763500 43.874100
-24.732600 17.958600
-24.701800 13.190200
-24.670900 0.000000
-24.640000 0.000000
-24.609100 0.000000
-24.578200 0.000000
-24.547300 0.000000
-24.516400 0.000000
-24.485500 0.000000
-24.454600 0.000000
-24.423700 0.000000
-24.392800 0.000000
-24.361900 0.000000
-24.331000 0.000000
-24.300100 0.000000
-24.269200 0.000000
-24.238300 0.000000
-24.207400 0.000000
-24.176500 0.000000
-24.145600 0.000000
-24.114700 0.000000
-24.083800 0.000000
-24.052900 0.000000
-24.022000 0.000000
-23.991100 0.000000
-23.960200 0.000000
-23.929300 0.000000
-23.898400 0.000000
-23.867500 0.000000
-23.836600 0.000000
-23.805700 0.000000
-23.774800 0.000000
-23.743900 0.000000
-23.713000 0.000000
-23.682100 0.000000
-23.651200 0.000000
-23.620300 0.000000
-23.589400 0.000000
-23.558500 0.000000
-23.527600 0.000000
-23.496700 0.000000
-23.465800 0.000000
-23.434900 0.000000
-23.404000 0.000000
-23.373100 0.000000
-23.342200 0.000000
-23.311300 0.000000
-23.280400 0.000000
-23.249500 0.000000
-23.218600 0.000000
-23.187700 0.000000
-23.156800 0.000000
-23.125900 0.000000
-23.095000 0.000000
-23.064100 0.000000
-23.033200 0.000000
-23.002300 0.000000
-22.971400 0.000000
-22.940500 0.000000
-22.909600 0.000000
-22.878700 0.000000
-22.847800 0.000000
-22.816900 0.000000
-22.786000 0.000000
-22.755100 0.000000
-22.724200 0.000000
-22.693300 0.000000
-22.662400 0.000000
-22.631500 0.000000
-22.600600 0.000000
-22.569700 0.000000
-22.538800 0.000000
-22.507900 0.000000
-22.477000 0.000000
-22.446100 0.000000
-22.415200 0.000000
-22.384300 0.000000
-22.353400 0.000000
-22.322500 0.000000
-22.291600 0.000000
-22.260700 0.000000
-22.229800 0.000000
-22.198900 0.000000
-22.168000 0.000000
-22.137100 0.000000
-22.106200 0.000000
-22.075300 0.000000
-22.044400 0.000000
-22.013500 0.000000
-21.982600 0.000000
-21.951700 0.000000
-21.920800 0.000000
-21.889900 0.000000
-21.859000 0.000000
-21.828100 0.000000
-21.797200 0.000000
-21.766300 0.000000
-21.735400 0.000000
-21.704500 0.000000
-21.673600 0.000000
-21.642700 0.000000
-21.611800 0.000000
-21.580900 0.000000
-21.550000 0.000000
-21.519100 0.000000
-21.488200 0.000000
-21.457300 0.000000
-21.426400 0.000000
-21.395500 0.000000
-21.364600 0.000000
-21.333700 0.000000
-21.302800 0.000000
-21.271900 0.000000
-21.241000 0.000000
-21.210100 0.000000
-21.179200 0.000000
-21.148300 0.000000
-21.117400 0.000000
-21.086500 0.000000
-21.055600 0.000000
-21.024700 0.000000
-20.993800 0.000000
-20.962900 0.000000
-20.932000 0.000000
-20.901100 0.000000
-20.870200 0.000000
-20.839300 0.000000
-20.808400 0.000000
-20.777500 0.000000
-20.746600 0.000000
-20.715700 0.000000
-20.684800 0.000000
-20.653900 0.000000
-20.623000 0.000000
-20.592100 0.000000
-20.561200 0.000000
-20.530300 0.000000
-20.499400 0.000000
-20.468500 0.000000
-20.437600 0.000000
-20.406700 0.000000
-20.375800 0.000000
-20.344900 0.000000
-20.314000 0.000000
-20.283100 0.000000
-20.252200 0.000000
-20.221300 0.000000
-20.190400 0.000000
-20.159500 0.000000
-20.128600 0.000000
-20.097700 0.000000
-20.066800 0.000000
-20.035900 0.000000
-20.005000 0.000000
-19.974100 0.000000
-19.943200 0.000000
-19.912300 0.000000
-19.881400 0.000000
-19.850500 0.000000
-19.819600 0.000000
-19.788700 0.000000
-19.757800 0.000000
-19.726900 0.000000
-19.696000 0.000000
-19.665100 0.000000
-19.634200 0.000000
-19.603300 0.000000
-19.572400 0.000000
-19.541500 0.000000
-19.510600 0.000000
-19.479700 0.000000
-19.448800 0.000000
-19.417900 0.000000
-19.387000 0.000000
-19.356100 0.000000
-19.325200 0.000000
-19.294300 0.000000
-19.263400 0.000000
-19.232500 0.000000
-19.201600 0.000000
-19.170700 0.000000
-19.139800 0.000000
-19.108900 0.000000
-19.078000 0.000000
-19.047100 0.000000
-19.016200 0.000000
-18.985300 0.000000
-18.954400 0.000000
-18.923500 0.000000
-18.892600 0.000000
-18.861700 0.000000
-18.830800 0.000000
-18.799900 0.000000
-18.769000 0.000000
-18.738100 0.000000
-18.707200 0.000000
-18.676300 0.000000
-18.645400 0.000000
-18.614500 0.000000
-18.583600 0.000000
-18.552700 0.000000
-18.521800 0.000000
-18.490900 0.000000
-18.460000 0.000000
-18.429100 0.000000
-18.398200 0.000000
-18.367400 0.000000
-18.336500 0.000000
-18.305600 0.000000
-18.274700 0.000000
-18.243800 0.000000
-18.212900 0.000000
-18.182000 0.000000
-18.151100 0.000000
-18.120200 0.000000
-18.089300 0.000000
-18.058400 0.000000
-18.027500 0.000000
-17.996600 0.000000
-17.965700 0.000000
-17.934800 0.000000
-17.903900 0.000000
-17.873000 0.000000
-17.842100 0.000000
-17.811200 0.000000
-17.780300 0.000000
-17.749400 0.000000
-17.718500 0.000000
-17.687600 0.000000
-17.656700 0.000000
-17.625800 0.000000
-17.594900 0.000000
-17.564000 0.000000
-17.533100 0.000000
-17.502200 0.000000
-17.471300 0.000000
-17.440400 0.000000
-17.409500 0.000000
-17.378600 0.000000
-17.347700 0.000000
-17.316800 0.000000
-17.285900 0.000000
-17.255000 0.000000
-17.224100 0.000000
-17.193200 0.000000
-17.162300 0.000000
-17.131400 0.000000
-17.100500 0.000000
-17.069600 0.000000
-17.038700 0.000000
-17.007800 0.000000
-16.976900 0.000000
-16.946000 0.000000
-16.915100 0.000000
-16.884200 0.000000
-16.853300 0.000000
-16.822400 0.000000
-16.791500 0.000000
-16.760600 0.000000
-16.729700 0.000000
-16.698800 0.000000
-16.667900 0.000000
-16.637000 0.000000
-16.606100 0.000000
-16.575200 0.000000
-16.544300 0.000000
-16.513400 0.000000
-16.482500 0.000000
-16.451600 0.000000
-16.420700 0.000000
-16.389800 0.000000
-16.358900 0.000000
-16.328000 0.000000
-16.297100 0.000000
-16.266200 0.000000
-16.235300 0.000000
-16.204400 0.000000
-16.173500 0.000000
-16.142600 0.000000
-16.111700 0.000000
-16.080800 0.000000
-16.049900 0.000000
-16.019000 0.000000
-15.988100 0.000000
-15.957200 0.000000
-15.926300 0.000000
-15.895400 0.000000
-15.864500 0.000000
-15.833600 0.000000
-15.802700 0.000000
-15.771800 0.000000
-15.740900 0.000000
-15.710000 0.000000
-15.679100 0.000000
-15.648200 0.000000
-15.617300 0.000000
-15.586400 0.000000
-15.555500 0.000000
-15.524600 0.000000
-15.493700 0.000000
-15.462800 0.000000
-15.431900 0.000000
-15.401000 0.000000
-15.370100 0.000000
-15.339200 0.000000
-15.308300 0.000000
-15.277400 0.000000
-15.246500 0.000000
-15.215600 0.000000
-15.184700 0.000000
-15.153800 0.000000
-15.122900 0.000000
-15.092000 0.000000
-15.061100 0.000000
-15.030200 0.000000
-14.999300 0.000000
-14.968400 0.000000
-14.937500 0.000000
-14.906600 0.000000
-14.875700 0.000000
-14.844800 0.000000
-14.813900 0.000000
-14.783000 0.000000
-14.752100 0.000000
-14.721200 0.000000
-14.690300 0.000000
-14.659400 0.000000
-14.628500 0.000000
-14.597600 0.000000
-14.566700 0.000000
-14.535800 0.000000
-14.504900 0.000000
-14.474000 0.000000
-14.443100 0.000000
-14.412200 0.000000
-14.381300 0.000000
-14.350400 0.000000
-14.319500 0.000000
-14.288600 0.000000
-14.257700 0.000000
-14.226800 0.000000
-14.195900 0.000000
-14.165000 0.000000
-14.134100 0.000000
-14.103200 0.000000
-14.072300 0.000000
-14.041400 0.000000
-14.010500 0.000000
-13.979600 0.000000
-13.948700 0.000000
-13.917800 0.000000
-13.886900 0.000000
-13.856000 0.000000
-13.825100 0.000000
-13.794200 0.000000
-13.763300 0.000000
-13.732400 0.000000
-13.701500 0.000000
-13.670600 0.000000
-13.639700 0.000000
-13.608800 0.000000
-13.577900 0.000000
-13.547000 0.000000
-13.516100 0.000000
-13.485200 0.000000
-13.454300 0.008000
-13.423400 0.243200
-13.392500 0.361100
-13.361600 0.482000
-13.330700 0.595200
-13.299800 0.677000
-13.268900 0.780700
-13.238000 0.880800
-13.207100 0.980500
-13.176200 1.094400
-13.145300 1.214500
-13.114400 1.337700
-13.083500 1.469900
-13.052600 1.628100
-13.021700 1.833900
-12.990800 2.259300
-12.959900 2.808600
-12.929000 3.557900
-12.898100 4.184800
-12.867200 5.245600
-12.836300 6.100700
-12.805400 6.307700
-12.774500 6.249100
-12.743600 5.847800
-12.712700 5.957200
-12.681800 6.620900
-12.650900 7.761500
-12.620000 9.269500
-12.589100 9.728800
-12.558200 9.576500
-12.527300 9.315700
-12.496400 9.387500
-12.465500 9.151200
-12.434600 8.282800
-12.403700 9.160600
-12.372800 10.754400
-12.341900 7.353400
-12.311000 6.012700
-12.280100 5.122900
-12.249200 4.463700
-12.218300 3.660400
-12.187400 2.753000
-12.156500 2.591100
-12.125600 0.000000
-12.094700 0.000000
-12.063800 0.000000
-12.033000 0.000000
-12.002100 0.000000
-11.971200 0.000000
-11.940300 0.000000
-11.909400 0.000000
-11.878500 0.000000
-11.847600 0.000000
-11.816700 0.000000
-11.785800 0.000000
-11.754900 0.000000
-11.724000 0.000000
-11.693100 0.000000
-11.662200 0.000000
-11.631300 0.000000
-11.600400 0.000000
-11.569500 0.000000
-11.538600 0.000000
-11.507700 0.000000
-11.476800 0.000000
-11.445900 0.000000
-11.415000 0.000000
-11.384100 0.000000
-11.353200 0.000000
-11.322300 0.000000
-11.291400 0.000000
-11.260500 0.000000
-11.229600 0.000000
-11.198700 0.000000
-11.167800 0.000000
-11.136900 0.000000
-11.106000 0.000000
-11.075100 0.000000
-11.044200 0.000000
-11.013300 0.000000
-10.982400 0.000000
-10.951500 0.000000
-10.920600 0.000000
-10.889700 0.000000
-10.858800 0.000000
-10.827900 0.000000
-10.797000 0.000000
-10.766100 0.000000
-10.735200 0.000000
-10.704300 0.000000
-10.673400 0.000000
-10.642500 0.000000
-10.611600 0.000000
-10.580700 0.000000
-10.549800 0.000000
-10.518900 0.000000
-10.488000 0.000000
-10.457100 0.000000
-10.426200 0.000000
-10.395300 0.000000
-10.364400 0.000000
-10.333500 0.000000
-10.302600 0.000000
-10.271700 0.000000
-10.240800 0.000000
-10.209900 0.000000
-10.179000 0.000000
-10.148100 0.000000
-10.117200 0.000000
-10.086300 0.000000
-10.055400 0.000000
-10.024500 0.000000
-9.993600 0.000000
-9.962700 0.000000
-9.931800 0.000000
-9.900900 0.000000
-9.870000 0.000000
-9.839100 0.000000
-9.808200 0.000000
-9.777300 0.000000
-9.746400 0.000000
-9.715500 0.000000
-9.684600 0.000000
-9.653700 0.000000
-9.622800 0.000000
-9.591900 0.000000
-9.561000 0.000000
-9.530100 0.000000
-9.499200 0.000000
-9.468300 0.000000
-9.437400 0.000000
-9.406500 0.000000
-9.375600 0.000000
-9.344700 0.000000
-9.313800 0.000000
-9.282900 0.000000
-9.252000 0.000000
-9.221100 0.000000
-9.190200 0.000000
-9.159300 0.000000
-9.128400 0.000000
-9.097500 0.000000
-9.066600 0.000000
-9.035700 0.000000
-9.004800 0.000000
-8.973900 0.000000
-8.943000 0.000000
-8.912100 0.000000
-8.881200 0.000000
-8.850300 0.000000
-8.819400 0.000000
-8.788500 0.000000
-8.757600 0.000000
-8.726700 0.000000
-8.695800 0.000000
-8.664900 0.000000
-8.634000 0.000000
-8.603100 0.000000
-8.572200 0.000000
-8.541300 0.000000
-8.510400 0.000000
-8.479500 0.000000
-8.448600 0.000000
-8.417700 0.000000
-8.386800 0.000000
-8.355900 0.000000
-8.325000 0.000000
-8.294100 0.000000
-8.263200 0.000000
-8.232300 0.000000
-8.201400 0.000000
-8.170500 0.000000
-8.139600 0.000000
-8.108700 0.000000
-8.077800 0.000000
-8.046900 0.000000
-8.016000 0.000000
-7.985100 0.000000
-7.954200 0.000000
-7.923300 0.000000
-7.892400 0.000000
-7.861500 0.000000
-7.830600 0.000000
-7.799700 0.000000
-7.768800 0.000000
-7.737900 0.000000
-7.707000 0.000000
-7.676100 0.000000
-7.645200 0.000000
-7.614300 0.000000
-7.583400 0.000000
-7.552500 0.000000
-7.521600 0.000000
-7.490700 0.000000
-7.459800 0.000000
-7.428900 0.000000
-7.398000 0.000000
-7.367100 0.000000
-7.336200 0.000000
-7.305300 0.000000
-7.274400 0.000000
-7.243500 0.000000
-7.212600 0.000000
-7.181700 0.000000
-7.150800 0.000000
-7.119900 0.000000
-7.089000 0.000000
-7.058100 0.000000
-7.027200 0.000000
-6.996300 0.000000
-6.965400 0.000000
-6.934500 0.000000
-6.903600 0.000000
-6.872700 0.000000
-6.841800 0.000000
-6.810900 0.000000
-6.780000 0.000000
-6.749100 0.000000
-6.718200 0.000000
-6.687300 0.000000
-6.656400 0.000000
-6.625500 0.000000
-6.594600 0.000000
-6.563700 0.000000
-6.532800 0.000000
-6.501900 0.000000
-6.471000 0.000000
-6.440100 0.000000
-6.409200 0.000000
-6.378300 0.000000
-6.347400 0.000000
-6.316500 0.000000
-6.285600 0.000000
-6.254700 0.000000
-6.223800 0.000000
-6.192900 0.000000
-6.162000 0.000000
-6.131100 0.000000
-6.100200 0.000000
-6.069300 0.000000
-6.038400 0.000000
-6.007500 0.000000
-5.976600 0.000000
-5.945700 0.000000
-5.914800 0.000000
-5.883900 0.000000
-5.853000 0.000000
-5.822100 0.000000
-5.791200 0.000000
-5.760300 0.000000
-5.729400 0.000000
-5.698600 0.000000
-5.667700 0.000000
-5.636800 0.000000
-5.605900 0.000000
-5.575000 0.000000
-5.544100 0.000000
-5.513200 0.000000
-5.482300 0.000000
-5.451400 0.000000
-5.420500 0.000000
-5.389600 0.000000
-5.358700 0.000000
-5.327800 0.000000
-5.296900 0.000000
-5.266000 0.000000
-5.235100 0.000000
-5.204200 0.000000
-5.173300 0.000000
-5.142400 0.000000
-5.111500 0.000000
-5.080600 0.000000
-5.049700 0.000000
-5.018800 0.000000
-4.987900 0.000000
-4.957000 0.000000
-4.926100 0.000000
-4.895200 0.000000
-4.864300 0.000000
-4.833400 0.000000
-4.802500 0.000000
-4.771600 0.000000
-4.740700 0.000000
-4.709800 0.000000
-4.678900 0.000000
-4.648000 0.000000
-4.617100 0.000000
-4.586200 0.000000
-4.555300 0.000000
-4.524400 0.000000
-4.493500 0.000000
-4.462600 0.000000
-4.431700 0.000000
-4.400800 0.000000
-4.369900 0.000000
-4.339000 0.000000
-4.308100 0.000000
-4.277200 0.000000
-4.246300 0.000000
-4.215400 0.000000
-4.184500 0.000000
-4.153600 0.000000
-4.122700 0.000000
-4.091800 0.000000
-4.060900 0.000000
-4.030000 0.000000
-3.999100 0.000000
-3.968200 0.000000
-3.937300 0.000000
-3.906400 0.000000
-3.875500 0.000000
-3.844600 0.000000
-3.813700 0.000000
-3.782800 0.000000
-3.751900 0.000000
-3.721000 0.000000
-3.690100 0.000000
-3.659200 0.000000
-3.628300 0.000000
-3.597400 0.000000
-3.566500 0.000000
-3.535600 0.000000
-3.504700 0.000000
-3.473800 0.000000
-3.442900 0.000000
-3.412000 0.000000
-3.381100 0.000000
-3.350200 0.000000
-3.319300 0.000000
-3.288400 0.000000
-3.257500 0.000000
-3.226600 0.000000
-3.195700 0.000000
-3.164800 0.000000
-3.133900 0.000000
-3.103000 0.000000
-3.072100 0.000000
-3.041200 0.000000
-3.010300 0.000000
-2.979400 0.000000
-2.948500 0.000000
-2.917600 0.000000
-2.886700 0.000000
-2.855800 0.000000
-2.824900 0.000000
-2.794000 0.000000
-2.763100 0.000000
-2.732200 0.000000
-2.701300 0.000000
-2.670400 0.000000
-2.639500 0.000000
-2.608600 0.000000
-2.577700 0.000000
-2.546800 0.000000
-2.515900 0.000000
-2.485000 0.000000
-2.454100 0.000000
-2.423200 0.000000
-2.392300 0.000000
-2.361400 0.000000
-2.330500 0.000000
-2.299600 0.000000
-2.268700 0.000000
-2.237800 0.000000
-2.206900 0.000000
-2.176000 0.000000
-2.145100 0.000000
-2.114200 0.000000
-2.083300 0.000000
-2.052400 0.000000
-2.021500 0.000000
-1.990600 0.000000
-1.959700 0.000000
-1.928800 0.000000
-1.897900 0.000000
-1.867000 0.000000
-1.836100 0.000000
-1.805200 0.000000
-1.774300 0.000000
-1.743400 0.000000
-1.712500 0.000000
-1.681600 0.000000
-1.650700 0.000000
-1.619800 0.000000
-1.588900 0.000000
-1.558000 0.000000
-1.527100 0.000000
-1.496200 0.000000
-1.465300 0.000000
-1.434400 0.000000
-1.403500 0.000000
-1.372600 0.000000
-1.341700 0.000000
-1.310800 0.000000
-1.279900 0.000000
-1.249000 0.000000
-1.218100 0.000000
-1.187200 0.000000
-1.156300 0.000000
-1.125400 0.000000
-1.094500 0.000000
-1.063600 0.000000
-1.032700 0.000000
-1.001800 0.000000
-0.970900 0.000000
-0.940000 0.000000
-0.909100 0.000000
-0.878200 0.000000
-0.847300 0.000000
-0.816400 0.000000
-0.785500 0.000000
-0.754600 0.325200
-0.723700 0.471600
-0.692800 0.839900
-0.661900 0.744800
-0.631000 0.835300
-0.600100 0.854200
-0.569200 0.852200
-0.538300 0.821700
-0.507400 0.851100
-0.476500 0.885500
-0.445600 0.923700
-0.414700 0.964500
-0.383800 1.007000
-0.352900 1.448900
-0.322000 2.155000
-0.291100 2.473700
-0.260200 2.532300
-0.229300 2.648200
-0.198400 2.974900
-0.167500 2.998000
-0.136600 3.223300
-0.105700 3.615000
-0.074800 3.957500
-0.043900 4.233200
-0.013000 4.986000
0.017900 5.218900
0.048800 5.635400
0.079700 6.127200
0.110600 6.153300
0.141500 5.593200
0.172400 5.377400
0.203300 5.335100
0.234200 5.299900
0.265100 5.179400
0.296000 5.337600
0.326900 5.113300
0.357800 4.873300
0.388700 4.852900
0.419600 4.846400
0.450500 4.879500
0.481400 4.940400
0.512300 5.463500
0.543200 5.960900
0.574100 5.399300
0.605000 5.167400
0.635800 5.327400
0.666700 5.226300
0.697600 5.114900
0.728500 5.141500
0.759400 5.101200
0.790300 5.061600
0.821200 5.151500
0.852100 5.335900
0.883000 5.594600
0.913900 6.156900
0.944800 7.100800
0.975700 14.081400
1.006600 12.359300
1.037500 10.579000
1.068400 9.468500
1.099300 6.568300
1.130200 7.224300
1.161100 9.239600
1.192000 9.887900
1.222900 10.788400
1.253800 9.740500
1.284700 10.437400
1.315600 9.816400
1.346500 11.420200
1.377400 10.889700
1.408300 9.621300
1.439200 8.782400
1.470100 8.548500
1.501000 7.786100
1.531900 7.590800
1.562800 7.314700
1.593700 7.036200
1.624600 6.984800
1.655500 6.734200
1.686400 6.603200
1.717300 6.485100
1.748200 6.454200
1.779100 6.440300
1.810000 6.907800
1.840900 7.265200
1.871800 8.214400
1.902700 7.300900
1.933600 6.985100
1.964500 6.577300
1.995400 6.294300
2.026300 6.084800
2.057200 5.952300
2.088100 5.839700
2.119000 5.660400
2.149900 5.004100
2.180800 4.867300
2.211700 4.968700
2.242600 5.033400
2.273500 5.064200
2.304400 4.792000
2.335300 4.305400
2.366200 3.589800
2.397100 3.167000
2.428000 2.740800
2.458900 2.547000
2.489800 2.318100
2.520700 2.005100
2.551600 1.662600
2.582500 1.384400
2.613400 0.849500
2.644300 0.476100
2.675200 0.345900
2.706100 0.225200
2.737000 0.095400
2.767900 0.001300
2.798800 0.000000
2.829700 0.000000
2.860600 0.000000
2.891500 0.000000
2.922400 0.000000
2.953300 0.000000
2.984200 0.000000
3.015100 0.000000
3.046000 0.000000
3.076900 0.000000
3.107800 0.000000
3.138700 0.000000
3.169600 0.000000
3.200500 0.000000
3.231400 0.000000
3.262300 0.000000
3.293200 0.000000
3.324100 0.000000
3.355000 0.000000
3.385900 0.000000
3.416800 0.000000
3.447700 0.000000
3.478600 0.000000
3.509500 0.000000
3.540400 0.000000
3.571300 0.000000
3.602200 0.000000
3.633100 0.000000
3.664000 0.000000
3.694900 0.000000
3.725800 0.000000
3.756700 0.000000
3.787600 0.000000
3.818500 0.000000
3.849400 0.000000
3.880300 0.000000
3.911200 0.000000
3.942100 0.000000
3.973000 0.000000
4.003900 0.000000
4.034800 0.000000
4.065700 0.000000
4.096600 0.000000
4.127500 0.000000
4.158400 0.000000
4.189300 0.000000
4.220200 0.000000
4.251100 0.000000
4.282000 0.000000
4.312900 0.000000
4.343800 0.000000
4.374700 0.000000
4.405600 0.000000
4.436500 0.000000
4.467400 0.000000
4.498300 0.000000
4.529200 0.000000
4.560100 0.000000
4.591000 0.000000
4.621900 0.000000
4.652800 0.000000
4.683700 0.000000
4.714600 0.000000
4.745500 0.000000
4.776400 0.000000
4.807300 0.000000
4.838200 0.000000
4.869100 0.000000
4.900000 0.000000
4.930900 0.000200
4.961800 0.008900
4.992700 0.030100
5.023600 0.064000
5.054500 0.122300
5.085400 0.122100
5.116300 0.135800
5.147200 0.154600
5.178100 0.176300
5.209000 0.200800
5.239900 0.229000
5.270800 0.262100
5.301700 0.291400
5.332600 0.361000
5.363500 0.487300
5.394400 0.673400
5.425300 0.823500
5.456200 0.818300
5.487100 0.812900
5.518000 0.826000
5.548900 0.867100
5.579800 0.908200
5.610700 0.944700
5.641600 0.976700
5.672500 1.004800
5.703400 1.108200
5.734300 1.214900
5.765200 1.310000
5.796100 1.398800
5.827000 1.498000
5.857900 1.575000
5.888800 1.638000
5.919700 1.696600
5.950600 1.777900
5.981500 1.879000
6.012400 1.980400
6.043300 2.070100
6.074200 2.145200
6.105100 2.271000
6.136000 2.300200
6.166900 2.410300
6.197800 2.529300
6.228700 2.770600
6.259600 3.021500
6.290500 3.132500
6.321400 3.128800
6.352300 3.168300
6.383200 3.326600
6.414100 3.126400
6.445000 2.862700
6.475900 2.815400
6.506800 2.779200
6.537700 2.750700
6.568600 2.728900
6.599500 2.699200
6.630400 2.754100
6.661300 2.803700
6.692200 2.828800
6.723100 2.850900
6.754000 2.882200
6.784900 2.924400
6.815800 2.977600
6.846700 3.045900
6.877600 3.255600
6.908500 3.433400
6.939400 3.398200
6.970200 3.305800
7.001100 3.155100
7.032000 3.079800
7.062900 2.985100
7.093800 2.886900
7.124700 2.869200
7.155600 2.953100
7.186500 2.882400
7.217400 2.894500
7.248300 2.923900
7.279200 3.073100
7.310100 3.122600
7.341000 3.363500
7.371900 3.430600
7.402800 3.818100
7.433700 4.247900
7.464600 4.722900
7.495500 5.104700
7.526400 5.664900
7.557300 6.431800
7.588200 10.274400
7.619100 11.356400
7.650000 9.155700
7.680900 7.076900
7.711800 6.799400
7.742700 6.235600
7.773600 5.526500
7.804500 4.793400
7.835400 4.694400
7.866300 5.178400
7.897200 4.484600
7.928100 4.841500
7.959000 4.821700
7.989900 4.528900
8.020800 4.201200
8.051700 3.888300
8.082600 2.588700
8.113500 2.370500
8.144400 2.414200
8.175300 2.465600
8.206200 2.572700
8.237100 2.785300
8.268000 3.050100
8.298900 3.341400
8.329800 3.748100
8.360700 3.345700
8.391600 2.478500
8.422500 2.262800
8.453400 2.428000
8.484300 2.754100
8.515200 4.011900
8.546100 5.280800
8.577000 6.366500
8.607900 6.687600
8.638800 6.584400
8.669700 5.625900
8.700600 4.780400
8.731500 4.049800
8.762400 3.782600
8.793300 3.500800
8.824200 3.365000
8.855100 3.213600
8.886000 3.134100
8.916900 3.833000
8.947800 4.176900
8.978700 4.160300
9.009600 4.151500
9.040500 4.238100
9.071400 4.473900
9.102300 4.765700
9.133200 4.865600
9.164100 5.046300
9.195000 5.354100
9.225900 6.118100
9.256800 6.823100
9.287700 7.048200
9.318600 7.614900
9.349500 8.038300
9.380400 9.458300
9.411300 9.808400
9.442200 10.466900
9.473100 8.285600
9.504000 9.029600
9.534900 9.211000
9.565800 9.775200
9.596700 9.748500
9.627600 9.153100
9.658500 8.381300
9.689400 8.292400
9.720300 8.059900
9.751200 7.902800
9.782100 7.962800
9.813000 8.362200
9.843900 9.173800
9.874800 9.312400
9.905700 9.339800
9.936600 8.636100
9.967500 8.344300
9.998400 9.399500
10.029300 10.214600
10.060200 11.668500
10.091100 12.460700
10.122000 13.139400
10.152900 9.234200
10.183800 10.965500
10.214700 10.238200
10.245600 9.640900
10.276500 9.863400
10.307400 9.548600
10.338300 10.300600
10.369200 11.338500
10.400100 12.245800
10.431000 12.464200
10.461900 12.635200
10.492800 14.453300
10.523700 11.869000
10.554600 10.878900
10.585500 9.314100
10.616400 10.619400
10.647300 10.999700
10.678200 9.784000
10.709100 10.426600
10.740000 12.057300
10.770900 10.943300
10.801800 10.731400
10.832700 9.961900
10.863600 8.148900
10.894500 7.811600
10.925400 11.262200
10.956300 11.778300
10.987200 18.086300
11.018100 21.230000
11.049000 15.528600
11.079900 14.825800
11.110800 13.185900
11.141700 11.682900
11.172600 10.541500
11.203500 9.972500
11.234400 8.777000
11.265300 7.856700
11.296200 6.935500
11.327100 6.354700
11.358000 6.095100
11.388900 7.047000
11.419800 5.716100
11.450700 5.546600
11.481600 5.285000
11.512500 5.224900
11.543400 4.993500
11.574300 5.267200
11.605200 5.220200
11.636100 5.429800
11.667000 5.804400
11.697900 6.756200
11.728800 7.152600
11.759700 7.154700
11.790600 6.349300
11.821500 6.057600
11.852400 4.986900
11.883300 4.325900
11.914200 3.867500
11.945100 3.736300
11.976000 3.615400
12.006900 3.613700
12.037800 3.974500
12.068700 4.304900
12.099600 4.511400
12.130500 4.585500
12.161400 4.384100
12.192300 4.739200
12.223200 4.973900
12.254100 5.707700
12.285000 7.250200
12.315900 3.769000
12.346800 3.149700
12.377700 2.948200
12.408600 3.382900
12.439500 2.904900
12.470400 1.934300
12.501300 1.313800
12.532200 1.131700
12.563100 1.065600
12.594000 1.077500
12.624900 1.177400
12.655800 1.435900
12.686700 2.796400
12.717600 3.176500
12.748500 2.820800
12.779400 2.607600
12.810300 2.552200
12.841200 2.199500
12.872100 1.932000
12.903000 1.675200
12.933900 1.528800
12.964800 1.406700
12.995700 1.331600
13.026600 1.325700
13.057500 1.206100
13.088400 1.617300
13.119300 1.346800
13.150200 1.029900
13.181100 0.886600
13.212000 0.786500
13.242900 0.720000
13.273800 0.665200
13.304600 0.615800
13.335500 0.650100
13.366400 0.744600
13.397300 0.605400
13.428200 0.580100
13.459100 1.245500
13.490000 1.897900
13.520900 2.344500
13.551800 2.670800
13.582700 3.013600
13.613600 3.375700
13.644500 3.865100
13.675400 3.549600
13.706300 3.041200
13.737200 2.551600
13.768100 2.196000
13.799000 1.949900
13.829900 1.774800
13.860800 1.658300
13.891700 1.574500
13.922600 1.493500
13.953500 1.423600
13.984400 1.451800
14.015300 1.406000
14.046200 1.295200
14.077100 1.103000
14.108000 1.022000
14.138900 1.072800
14.169800 1.261000
14.200700 1.213500
14.231600 1.266200
14.262500 1.372300
14.293400 1.519800
14.324300 1.617000
14.355200 1.674300
14.386100 1.739000
14.417000 1.775500
14.447900 1.800600
14.478800 1.833800
14.509700 1.752000
14.540600 1.731300
14.571500 1.724000
14.602400 1.724200
14.633300 1.724400
14.664200 1.715400
14.695100 1.714900
14.726000 1.695600
14.756900 1.676300
14.787800 1.654300
14.818700 1.622800
14.849600 1.580900
14.880500 1.546400
14.911400 1.525300
14.942300 1.531200
14.973200 1.509000
15.004100 1.493200
15.035000 1.504700
15.065900 1.557500
15.096800 1.636700
15.127700 1.665000
15.158600 1.697500
15.189500 1.739200
15.220400 1.758500
15.251300 1.770400
15.282200 1.776000
15.313100 1.809500
15.344000 1.842500
15.374900 1.803300
15.405800 1.788800
15.436700 1.754300
15.467600 1.719800
15.498500 1.696100
15.529400 1.691600
15.560300 1.702100
15.591200 1.723500
15.622100 1.755900
15.653000 1.818000
15.683900 1.868700
15.714800 1.905500
15.745700 1.907400
15.776600 1.907700
15.807500 1.922400
15.838400 1.938800
15.869300 1.947700
15.900200 1.949500
15.931100 1.953900
15.962000 2.182900
15.992900 2.044800
16.023800 1.866100
16.054700 1.724400
16.085600 1.567500
16.116500 1.411600
16.147400 1.266600
16.178300 1.172200
16.209200 1.116700
16.240100 1.084200
16.271000 1.040800
16.301900 1.031800
16.332800 1.026000
16.363700 1.028500
16.394600 1.034500
16.425500 1.041600
16.456400 1.049000
16.487300 1.055800
16.518200 1.059600
16.549100 1.058200
16.580000 1.058300
16.610900 1.063500
16.641800 1.053500
16.672700 1.063000
16.703600 1.102700
16.734500 1.063400
16.765400 1.036200
16.796300 1.022100
16.827200 1.006200
16.858100 0.986000
16.889000 0.969000
16.919900 0.957100
16.950800 0.876800
16.981700 0.839200
17.012600 0.802400
17.043500 0.763800
17.074400 0.723600
17.105300 0.684300
17.136200 0.652800
17.167100 0.579700
17.198000 0.591700
17.228900 0.460100
17.259800 0.385700
17.290700 0.340900
17.321600 0.294200
17.352500 0.244900
17.383400 0.208200
17.414300 0.196900
17.445200 0.221300
17.476100 0.175500
17.507000 0.242600
17.537900 0.331300
17.568800 0.446200
17.599700 0.652000
17.630600 0.743700
17.661500 0.772900
17.692400 0.864800
17.723300 0.887900
17.754200 0.987300
17.785100 1.108900
17.816000 1.253300
17.846900 1.521500
17.877800 1.982100
17.908700 2.496400
17.939600 2.496500
17.970500 2.444000
18.001400 2.495600
18.032300 2.565900
18.063200 2.792700
18.094100 2.511000
18.125000 2.390700
18.155900 2.336300
18.186800 2.218400
18.217700 2.177500
18.248600 2.142200
18.279500 2.337800
18.310400 2.473100
18.341300 2.618300
18.372200 2.757500
18.403100 2.821000
18.434000 2.913200
18.464900 3.011100
18.495800 3.185100
18.526700 3.375600
18.557600 3.504200
18.588500 3.438300
18.619400 3.402100
18.650300 3.357200
18.681200 3.377600
18.712100 3.207300
18.743000 2.717600
18.773900 2.652300
18.804800 2.805700
18.835700 2.925300
18.866600 2.866500
18.897500 2.791200
18.928400 2.641900
18.959300 2.586800
18.990200 2.479000
19.021100 2.686300
19.052000 2.517400
19.082900 2.374900
19.113800 2.202100
19.144700 1.970700
19.175600 1.953700
19.206500 1.915500
19.237400 1.892300
19.268300 1.886800
19.299200 1.896700
19.330100 1.909200
19.361000 1.916900
19.391900 1.930200
19.422800 1.917500
19.453700 1.931900
19.484600 1.981400
19.515500 2.065600
19.546400 2.170300
19.577300 2.278700
19.608200 2.302700
19.639000 2.370000
19.669900 2.433100
19.700800 2.521500
19.731700 2.540100
19.762600 2.644100
19.793500 2.822100
19.824400 2.856600
19.855300 2.759300
19.886200 2.702700
19.917100 2.723600
19.948000 2.758800
19.978900 2.849900
20.009800 2.994000
20.040700 3.220600
20.071600 3.172600
20.102500 2.978500
20.133400 2.925500
20.164300 2.821900
20.195200 2.840500
20.226100 2.854200
20.257000 2.883200
20.287900 2.962400
20.318800 2.861300
20.349700 2.708200
20.380600 2.621500
20.411500 2.549200
20.442400 2.445900
20.473300 2.499900
20.504200 2.394600
20.535100 2.292400
20.566000 2.195800
20.596900 2.071300
20.627800 2.040500
20.658700 2.071700
20.689600 2.072400
20.720500 2.051300
20.751400 2.083100
20.782300 2.134600
20.813200 2.219900
20.844100 2.274200
20.875000 2.420400
20.905900 2.410000
20.936800 2.261200
20.967700 2.300200
20.998600 2.639700
21.029500 3.479500
21.060400 3.498200
21.091300 3.760400
21.122200 4.057600
21.153100 4.353300
21.184000 5.057000
21.214900 4.534600
21.245800 4.002200
21.276700 3.916900
21.307600 3.581400
21.338500 2.922500
21.369400 2.703100
21.400300 2.571500
21.431200 2.511100
21.462100 2.578900
21.493000 2.678800
21.523900 2.976800
21.554800 3.224600
21.585700 3.147500
21.616600 3.155600
21.647500 3.122500
21.678400 3.220000
21.709300 3.051300
21.740200 3.072900
21.771100 3.104300
21.802000 3.118700
21.832900 3.413700
21.863800 4.175000
21.894700 4.357700
21.925600 4.421400
21.956500 4.713400
21.987400 4.982600
22.018300 6.038600
22.049200 6.072400
22.080100 5.152400
22.111000 4.306600
22.141900 3.647500
22.172800 3.134100
22.203700 3.005400
22.234600 3.199400
22.265500 3.307700
22.296400 3.607000
22.327300 3.476800
22.358200 3.614500
22.389100 3.779000
22.420000 4.025800
22.450900 4.122400
22.481800 4.197900
22.512700 4.131600
22.543600 4.060400
22.574500 3.772500
22.605400 3.344700
22.636300 2.954700
22.667200 2.636400
22.698100 2.349800
22.729000 2.204300
22.759900 2.029800
22.790800 1.910600
22.821700 1.797800
22.852600 1.709300
22.883500 1.636200
22.914400 1.576200
22.945300 1.518000
22.976200 1.467300
23.007100 1.399100
23.038000 1.403000
23.068900 1.504200
23.099800 1.743000
23.130700 1.848000
23.161600 1.913800
23.192500 1.937200
23.223400 2.131600
23.254300 2.389200
23.285200 2.456100
23.316100 2.532600
23.347000 2.343900
23.377900 2.376400
23.408800 2.295800
23.439700 2.000100
23.470600 1.876000
23.501500 1.785400
23.532400 1.595600
23.563300 1.495500
23.594200 1.548500
23.625100 1.821600
23.656000 2.117800
23.686900 2.093300
23.717800 2.236600
23.748700 2.344600
23.779600 2.516000
23.810500 2.706900
23.841400 2.892400
23.872300 3.102400
23.903200 4.392400
23.934100 3.083600
23.965000 3.167900
23.995900 3.263500
24.026800 3.128800
24.057700 3.057500
24.088600 3.055300
24.119500 2.898400
24.150400 2.731500
24.181300 2.650300
24.212200 2.693700
24.243100 2.855000
24.274000 3.459800
24.304900 3.155200
24.335800 3.124400
24.366700 3.410300
24.397600 3.603000
24.428500 4.118500
24.459400 4.165600
24.490300 4.301000
24.521200 4.000700
24.552100 3.607700
24.583000 3.236100
24.613900 3.293100
24.644800 3.611700
24.675700 3.386900
24.706600 3.515000
24.737500 3.672600
24.768400 3.961700
24.799300 3.994200
24.830200 4.149800
24.861100 4.013500
24.892000 3.886100
24.922900 3.944100
24.953800 3.660700
24.984700 3.556800
25.015600 3.471500
25.046500 3.400900
25.077400 3.304200
25.108300 3.245100
25.139200 3.230400
25.170100 3.148600
25.201000 3.187500
25.231900 3.117600
25.262800 3.173800
25.293700 3.239000
25.324600 3.209600
25.355500 3.203400
25.386400 3.229000
25.417300 3.214100
25.448200 3.082200
25.479100 3.088400
25.510000 2.939000
25.540900 2.566900
25.571800 2.342200
25.602700 2.197000
25.633600 2.016500
25.664500 1.931500
25.695400 1.870600
25.726300 1.797100
25.757200 1.895000
25.788100 1.896300
25.819000 2.028500
25.849900 2.029400
25.880800 2.112000
25.911700 2.203500
25.942600 2.257800
25.973400 2.286200
26.004300 2.241500
26.035200 2.219200
26.066100 2.316700
26.097000 2.472500
26.127900 2.627400
26.158800 2.549600
26.189700 2.566400
26.220600 2.545200
26.251500 2.319400
26.282400 2.171500
26.313300 2.012500
26.344200 1.945000
26.375100 1.967600
26.406000 2.033200
26.436900 2.087300
26.467800 2.200100
26.498700 2.243900
26.529600 2.315200
26.560500 2.364200
26.591400 2.467000
26.622300 2.553500
26.653200 2.596900
26.684100 2.627400
26.715000 2.690100
26.745900 2.822000
26.776800 2.898600
26.807700 2.506800
26.838600 2.220400
26.869500 1.997700
26.900400 1.840400
26.931300 1.716000
26.962200 1.598800
26.993100 1.573400
27.024000 1.551000
27.054900 1.531200
27.085800 1.515700
27.116700 1.503500
27.147600 1.503100
27.178500 1.502300
27.209400 1.506300
27.240300 1.515500
27.271200 1.536400
27.302100 1.540400
27.333000 1.525800
27.363900 1.556200
27.394800 1.589100
27.425700 1.631300
27.456600 1.680500
27.487500 1.684500
27.518400 1.720300
27.549300 1.761000
27.580200 1.799500
27.611100 1.839400
27.642000 1.881600
27.672900 1.990100
27.703800 2.329100
27.734700 2.437100
27.765600 2.559200
27.796500 2.678200
27.827400 2.675200
27.858300 2.742800
27.889200 2.649600
27.920100 2.651200
27.951000 2.647800
27.981900 2.554200
28.012800 2.445500
28.043700 2.381500
28.074600 2.291800
28.105500 2.171000
28.136400 2.057100
28.167300 1.981200
28.198200 1.930400
28.229100 2.038500
28.260000 2.095300
28.290900 2.070200
28.321800 2.085800
28.352700 2.146400
28.383600 2.230000
28.414500 2.354000
28.445400 2.392100
28.476300 2.467800
28.507200 2.425700
28.538100 2.509500
28.569000 2.638100
28.599900 2.662100
28.630800 2.597200
28.661700 2.555200
28.692600 2.571100
28.723500 2.549900
28.754400 2.478700
28.785300 2.444600
28.816200 2.383000
28.847100 2.440800
28.878000 2.435200
28.908900 2.537100
28.939800 2.468500
28.970700 2.399900
29.001600 2.352500
29.032500 2.311800
29.063400 2.217500
29.094300 2.176700
29.125200 2.222900
29.156100 2.216800
29.187000 2.169100
29.217900 2.075500
29.248800 1.985200
29.279700 1.917100
29.310600 1.770000
29.341500 1.718800
29.372400 1.691800
29.403300 1.671600
29.434200 1.651100
29.465100 1.666000
29.496000 1.710300
29.526900 1.644200
29.557800 1.607600
29.588700 1.588100
29.619600 1.588400
29.650500 1.525100
29.681400 1.396700
29.712300 1.320400
29.743200 1.257600
29.774100 1.293700
29.805000 1.509800
29.835900 1.861700
29.866800 1.661000
29.897700 1.365100
29.928600 1.309300
29.959500 1.281300
29.990400 1.300500
30.021300 1.314700
30.052200 3.585200
30.083100 1.705300
30.114000 0.926200
30.144900 0.117500
30.175800 0.008000
30.206700 0.000000
30.237600 0.000000
30.268500 0.000000
30.299400 0.000000
30.330300 0.000000
30.361200 0.000000
30.392100 0.000000
30.423000 0.000000
30.453900 0.000000
30.484800 0.000000
30.515700 0.000000
30.546600 0.000000
30.577500 0.000000
30.608400 0.000000
30.639300 0.000000
30.670200 0.000000
30.701100 0.000000
30.732000 0.000000
30.762900 0.000000
30.793800 0.000000
30.824700 0.000000
30.855600 0.000000
30.886500 0.000000
30.917400 0.000000
30.948300 0.000000
30.979200 0.000000
31.010100 0.000000
31.041000 0.000000
31.071900 0.000000
31.102800 0.000000
31.133700 0.000000
31.164600 0.000000
31.195500 0.000000
31.226400 0.000000
31.257300 0.000000
31.288200 0.000000
31.319100 0.000000
31.350000 0.000000
31.380900 0.000000
31.411800 0.000000
31.442700 0.000000
31.473600 0.000000
31.504500 0.000000
31.535400 0.000000
31.566300 0.000000
31.597200 0.000000
31.628100 0.000000
31.659000 0.000000
31.689900 0.000000
31.720800 0.000000
31.751700 0.000000
31.782600 0.000000
31.813500 0.000000
31.844400 0.000000
31.875300 0.000000
31.906200 0.000000
31.937100 0.000000
31.968000 0.000000
31.998900 0.000000
32.029800 0.000000
32.060700 0.000000
32.091600 0.000000
32.122500 0.000000
32.153400 0.000000
32.184300 0.000000
32.215200 0.000000
32.246100 0.000000
32.277000 0.000000
32.307800 0.000000
32.338700 0.000000
32.369600 0.000000
32.400500 0.000000
32.431400 0.000000
32.462300 0.000000
32.493200 0.000000
32.524100 0.000000
32.555000 0.000000
32.585900 0.000000
32.616800 0.000000
32.647700 0.000000
32.678600 0.000000
32.709500 0.000000
32.740400 0.000000
32.771300 0.000000
32.802200 0.000000
32.833100 0.000000
32.864000 0.000000
32.894900 0.000000
32.925800 0.000000
32.956700 0.000000
32.987600 0.000000
e
