set title 'mp-864616 - Density of States'
set xlabel 'Energy (eV)'
set ylabel 'DOS (states/eV)'
set grid
set xrange [-10:10]
set yrange [0:57.453]
set xzeroaxis lt -1
set terminal png size 800,600
set output 'mp-864616_dos_gnuplot.png'
plot '-' using 1:2 with lines title 'DOS'
-17.733800 0.000000
-17.717900 0.000000
-17.702000 0.000000
-17.686100 0.000000
-17.670300 0.000000
-17.654400 0.000000
-17.638500 0.000000
-17.622600 0.000000
-17.606800 0.000000
-17.590900 0.000000
-17.575000 0.000000
-17.559100 0.000000
-17.543300 0.000000
-17.527400 0.000000
-17.511500 0.000000
-17.495600 0.000000
-17.479700 0.000000
-17.463900 0.000000
-17.448000 0.000000
-17.432100 0.000000
-17.416200 0.000000
-17.400400 0.000000
-17.384500 0.000000
-17.368600 0.000000
-17.352700 0.000000
-17.336900 0.000000
-17.321000 0.000000
-17.305100 0.000000
-17.289200 0.000000
-17.273400 0.000000
-17.257500 0.000000
-17.241600 0.000000
-17.225700 0.000000
-17.209900 0.000000
-17.194000 0.000000
-17.178100 0.000000
-17.162200 0.000000
-17.146400 0.000000
-17.130500 0.000000
-17.114600 0.000000
-17.098700 0.000000
-17.082800 0.000000
-17.067000 0.000000
-17.051100 0.000000
-17.035200 0.000000
-17.019300 0.000000
-17.003500 0.000000
-16.987600 0.000000
-16.971700 0.000000
-16.955800 0.000000
-16.940000 0.000000
-16.924100 0.000000
-16.908200 0.000000
-16.892300 0.000000
-16.876500 0.000000
-16.860600 0.000000
-16.844700 0.000000
-16.828800 0.000000
-16.813000 0.000000
-16.797100 0.000000
-16.781200 0.000000
-16.765300 0.000000
-16.749500 0.000000
-16.733600 0.000000
-16.717700 0.000000
-16.701800 0.000000
-16.685900 0.000000
-16.670100 0.000000
-16.654200 0.000000
-16.638300 0.000000
-16.622400 0.000000
-16.606600 0.000000
-16.590700 0.000000
-16.574800 0.000000
-16.558900 0.000000
-16.543100 0.000000
-16.527200 0.000000
-16.511300 0.000000
-16.495400 0.000000
-16.479600 0.000000
-16.463700 0.000000
-16.447800 0.000000
-16.431900 0.000000
-16.416100 0.000000
-16.400200 0.000000
-16.384300 0.000000
-16.368400 0.000000
-16.352600 0.000000
-16.336700 0.000000
-16.320800 0.000000
-16.304900 0.000000
-16.289000 0.055200
-16.273200 3.326300
-16.257300 8.569000
-16.241400 13.599200
-16.225500 14.374400
-16.209700 10.080700
-16.193800 7.388100
-16.177900 6.206500
-16.162000 6.206800
-16.146200 6.207000
-16.130300 6.199700
-16.114400 5.787500
-16.098500 5.047500
-16.082700 4.415800
-16.066800 4.052500
-16.050900 4.052200
-16.035000 4.052300
-16.019200 4.052400
-16.003300 4.052500
-15.987400 4.052600
-15.971500 4.052700
-15.955700 4.052900
-15.939800 3.992000
-15.923900 3.841800
-15.908000 3.630900
-15.892100 3.523200
-15.876300 3.517200
-15.860400 3.517400
-15.844500 3.517500
-15.828600 3.517600
-15.812800 3.517800
-15.796900 3.517900
-15.781000 3.518000
-15.765100 3.518100
-15.749300 3.518300
-15.733400 3.554900
-15.717500 3.851100
-15.701600 4.386600
-15.685800 4.639000
-15.669900 4.639500
-15.654000 4.640100
-15.638100 4.640700
-15.622300 4.641300
-15.606400 4.641900
-15.590500 4.642500
-15.574600 4.643100
-15.558800 22.431700
-15.542900 0.000000
-15.527000 0.000000
-15.511100 0.000000
-15.495200 0.000000
-15.479400 0.000000
-15.463500 0.000000
-15.447600 0.000000
-15.431700 0.000000
-15.415900 0.000000
-15.400000 0.000000
-15.384100 0.000000
-15.368200 0.000000
-15.352400 0.000000
-15.336500 0.000000
-15.320600 0.000000
-15.304700 0.000000
-15.288900 0.000000
-15.273000 0.000000
-15.257100 0.000000
-15.241200 0.000000
-15.225400 0.000000
-15.209500 0.000000
-15.193600 0.000000
-15.177700 75.129800
-15.161900 27.720500
-15.146000 20.804800
-15.130100 20.804800
-15.114200 20.804900
-15.098300 22.253200
-15.082500 22.253200
-15.066600 37.156800
-15.050700 0.000000
-15.034800 0.000000
-15.019000 0.000000
-15.003100 0.000000
-14.987200 0.000000
-14.971300 0.000000
-14.955500 0.000000
-14.939600 0.000000
-14.923700 0.000000
-14.907800 0.000000
-14.892000 0.000000
-14.876100 0.000000
-14.860200 0.000000
-14.844300 0.000000
-14.828500 0.000000
-14.812600 0.000000
-14.796700 0.000000
-14.780800 0.000000
-14.765000 0.000000
-14.749100 0.000000
-14.733200 0.000000
-14.717300 0.000000
-14.701400 0.000000
-14.685600 0.000000
-14.669700 0.000000
-14.653800 0.000000
-14.637900 0.000000
-14.622100 0.000000
-14.606200 0.000000
-14.590300 0.000000
-14.574400 0.000000
-14.558600 0.000000
-14.542700 0.000000
-14.526800 0.000000
-14.510900 0.000000
-14.495100 0.000000
-14.479200 0.000000
-14.463300 0.000000
-14.447400 0.000000
-14.431600 0.000000
-14.415700 0.000000
-14.399800 0.000000
-14.383900 0.000000
-14.368000 0.000000
-14.352200 0.000000
-14.336300 0.000000
-14.320400 0.000000
-14.304500 0.000000
-14.288700 0.000000
-14.272800 0.000000
-14.256900 0.000000
-14.241000 0.000000
-14.225200 0.000000
-14.209300 0.000000
-14.193400 0.000000
-14.177500 0.000000
-14.161700 0.000000
-14.145800 0.000000
-14.129900 0.000000
-14.114000 0.000000
-14.098200 0.000000
-14.082300 0.000000
-14.066400 0.000000
-14.050500 0.000000
-14.034700 0.000000
-14.018800 0.000000
-14.002900 0.000000
-13.987000 0.000000
-13.971100 0.000000
-13.955300 0.000000
-13.939400 0.000000
-13.923500 0.000000
-13.907600 0.000000
-13.891800 0.000000
-13.875900 0.000000
-13.860000 0.000000
-13.844100 0.000000
-13.828300 0.000000
-13.812400 0.000000
-13.796500 0.000000
-13.780600 0.000000
-13.764800 24.328700
-13.748900 2.954500
-13.733000 2.954400
-13.717100 2.954200
-13.701300 2.954000
-13.685400 2.953900
-13.669500 2.953700
-13.653600 2.953600
-13.637800 2.953400
-13.621900 2.953300
-13.606000 2.953100
-13.590100 2.952900
-13.574200 2.952800
-13.558400 2.952600
-13.542500 2.870700
-13.526600 2.630000
-13.510700 2.244400
-13.494900 2.041100
-13.479000 1.993500
-13.463100 1.993400
-13.447200 1.993400
-13.431400 1.993400
-13.415500 1.993300
-13.399600 1.993300
-13.383700 1.993300
-13.367900 1.993300
-13.352000 1.993200
-13.336100 1.993200
-13.320200 1.993200
-13.304400 1.993100
-13.288500 1.993100
-13.272600 1.993100
-13.256700 1.993000
-13.240900 1.993000
-13.225000 1.993000
-13.209100 1.992900
-13.193200 1.992800
-13.177300 1.992000
-13.161500 1.992500
-13.145600 1.995600
-13.129700 1.998700
-13.113800 2.001700
-13.098000 2.001600
-13.082100 2.001600
-13.066200 2.001600
-13.050300 2.001600
-13.034500 2.001500
-13.018600 2.001500
-13.002700 2.001500
-12.986800 2.001500
-12.971000 2.001400
-12.955100 2.001400
-12.939200 2.001400
-12.923300 2.001300
-12.907500 2.001300
-12.891600 2.001300
-12.875700 2.001300
-12.859800 2.001200
-12.844000 2.001200
-12.828100 2.052300
-12.812200 2.149600
-12.796300 2.285500
-12.780400 2.491500
-12.764600 2.611800
-12.748700 2.703500
-12.732800 2.721900
-12.716900 2.721900
-12.701100 2.721800
-12.685200 2.721700
-12.669300 2.721600
-12.653400 2.721600
-12.637600 2.721500
-12.621700 2.721400
-12.605800 2.721400
-12.589900 2.721300
-12.574100 2.745100
-12.558200 3.244400
-12.542300 3.891000
-12.526400 4.779600
-12.510600 5.969200
-12.494700 6.663300
-12.478800 7.184700
-12.462900 6.655800
-12.447100 5.708600
-12.431200 4.463700
-12.415300 2.535100
-12.399400 1.393600
-12.383500 0.528200
-12.367700 0.000000
-12.351800 0.000000
-12.335900 0.000000
-12.320000 0.000000
-12.304200 0.000000
-12.288300 0.000000
-12.272400 0.000000
-12.256500 0.000000
-12.240700 0.000000
-12.224800 0.000000
-12.208900 0.000000
-12.193000 0.000000
-12.177200 0.000000
-12.161300 0.000000
-12.145400 0.000000
-12.129500 0.000000
-12.113700 0.000000
-12.097800 0.000000
-12.081900 0.000000
-12.066000 0.000000
-12.050200 0.000000
-12.034300 0.000000
-12.018400 0.000000
-12.002500 0.000000
-11.986600 0.000000
-11.970800 0.000000
-11.954900 0.000000
-11.939000 0.000000
-11.923100 0.000000
-11.907300 0.000000
-11.891400 0.000000
-11.875500 0.000000
-11.859600 0.000000
-11.843800 0.000000
-11.827900 0.000000
-11.812000 0.000000
-11.796100 0.000000
-11.780300 0.000000
-11.764400 0.000000
-11.748500 0.000000
-11.732600 0.000000
-11.716800 0.000000
-11.700900 0.000000
-11.685000 0.000000
-11.669100 0.000000
-11.653300 0.000000
-11.637400 0.000000
-11.621500 0.000000
-11.605600 0.000000
-11.589700 0.000000
-11.573900 0.000000
-11.558000 0.000000
-11.542100 0.000000
-11.526200 0.000000
-11.510400 0.000000
-11.494500 0.000000
-11.478600 0.000000
-11.462700 0.000000
-11.446900 0.000000
-11.431000 0.000000
-11.415100 0.000000
-11.399200 0.000000
-11.383400 0.000000
-11.367500 0.000000
-11.351600 0.000000
-11.335700 0.000000
-11.319900 0.000000
-11.304000 0.000000
-11.288100 0.000000
-11.272200 0.000000
-11.256400 0.000000
-11.240500 0.000000
-11.224600 0.000000
-11.208700 0.000000
-11.192800 0.000000
-11.177000 0.000000
-11.161100 0.000000
-11.145200 0.000000
-11.129300 0.000000
-11.113500 0.000000
-11.097600 0.000000
-11.081700 0.000000
-11.065800 0.000000
-11.050000 0.000000
-11.034100 0.000000
-11.018200 0.000000
-11.002300 0.000000
-10.986500 0.000000
-10.970600 0.000000
-10.954700 0.000000
-10.938800 0.000000
-10.923000 0.000000
-10.907100 0.000000
-10.891200 0.000000
-10.875300 0.000000
-10.859500 0.000000
-10.843600 0.000000
-10.827700 0.000000
-10.811800 0.000000
-10.795900 0.000000
-10.780100 0.000000
-10.764200 0.000000
-10.748300 0.000000
-10.732400 0.000000
-10.716600 0.000000
-10.700700 0.000000
-10.684800 0.000000
-10.668900 0.000000
-10.653100 0.000000
-10.637200 0.000000
-10.621300 0.000000
-10.605400 0.000000
-10.589600 0.000000
-10.573700 0.000000
-10.557800 0.000000
-10.541900 0.000000
-10.526100 0.000000
-10.510200 0.000000
-10.494300 0.000000
-10.478400 0.000000
-10.462600 0.000000
-10.446700 0.000000
-10.430800 0.000000
-10.414900 0.000000
-10.399000 0.000000
-10.383200 0.000000
-10.367300 0.000000
-10.351400 0.000000
-10.335500 0.000000
-10.319700 0.000000
-10.303800 0.000000
-10.287900 0.000000
-10.272000 0.000000
-10.256200 0.000000
-10.240300 0.000000
-10.224400 0.000000
-10.208500 0.000000
-10.192700 0.000000
-10.176800 0.000000
-10.160900 0.000000
-10.145000 0.000000
-10.129200 0.000000
-10.113300 0.000000
-10.097400 0.000000
-10.081500 0.000000
-10.065700 0.000000
-10.049800 0.000000
-10.033900 0.000000
-10.018000 0.000000
-10.002100 0.000000
-9.986300 0.000000
-9.970400 0.000000
-9.954500 0.000000
-9.938600 0.000000
-9.922800 0.000000
-9.906900 0.000000
-9.891000 0.000000
-9.875100 0.000000
-9.859300 0.000000
-9.843400 0.000000
-9.827500 0.000000
-9.811600 0.000000
-9.795800 0.000000
-9.779900 0.000000
-9.764000 0.000000
-9.748100 0.000000
-9.732300 0.000000
-9.716400 0.000000
-9.700500 0.000000
-9.684600 0.000000
-9.668800 0.000000
-9.652900 0.000000
-9.637000 0.000000
-9.621100 0.000000
-9.605200 0.000000
-9.589400 0.000000
-9.573500 0.000000
-9.557600 0.000000
-9.541700 0.000000
-9.525900 0.000000
-9.510000 0.000000
-9.494100 0.000000
-9.478200 0.000000
-9.462400 0.000000
-9.446500 0.000000
-9.430600 0.000000
-9.414700 0.000000
-9.398900 0.000000
-9.383000 0.000000
-9.367100 0.000000
-9.351200 0.000000
-9.335400 0.000000
-9.319500 0.000000
-9.303600 0.000000
-9.287700 0.000000
-9.271800 0.000000
-9.256000 0.000000
-9.240100 0.000000
-9.224200 0.000000
-9.208300 0.000000
-9.192500 0.000000
-9.176600 0.000000
-9.160700 0.000000
-9.144800 0.000000
-9.129000 0.000000
-9.113100 0.000000
-9.097200 0.000000
-9.081300 0.000000
-9.065500 0.000000
-9.049600 0.000000
-9.033700 0.000000
-9.017800 0.000000
-9.002000 0.000000
-8.986100 0.000000
-8.970200 0.000000
-8.954300 0.000000
-8.938500 0.000000
-8.922600 0.000000
-8.906700 0.000000
-8.890800 0.000000
-8.874900 0.000000
-8.859100 0.000000
-8.843200 0.000000
-8.827300 0.000000
-8.811400 0.000000
-8.795600 0.000000
-8.779700 0.000000
-8.763800 0.000000
-8.747900 0.000000
-8.732100 0.000000
-8.716200 0.000000
-8.700300 0.000000
-8.684400 0.000000
-8.668600 0.000000
-8.652700 0.000000
-8.636800 0.000000
-8.620900 0.000000
-8.605100 0.000000
-8.589200 0.000000
-8.573300 0.000000
-8.557400 0.000000
-8.541600 0.000000
-8.525700 0.000000
-8.509800 0.000000
-8.493900 0.000000
-8.478000 0.000000
-8.462200 0.000000
-8.446300 0.000000
-8.430400 0.000000
-8.414500 0.000000
-8.398700 0.000000
-8.382800 0.000000
-8.366900 0.000000
-8.351000 0.000000
-8.335200 0.000000
-8.319300 0.000000
-8.303400 0.000000
-8.287500 0.000000
-8.271700 0.000000
-8.255800 0.000000
-8.239900 0.000000
-8.224000 0.000000
-8.208200 0.000000
-8.192300 0.000000
-8.176400 0.000000
-8.160500 0.000000
-8.144700 0.000000
-8.128800 0.000000
-8.112900 0.000000
-8.097000 0.000000
-8.081100 0.000000
-8.065300 0.000000
-8.049400 0.000000
-8.033500 0.000000
-8.017600 0.000000
-8.001800 0.000000
-7.985900 0.000000
-7.970000 0.000000
-7.954100 0.000000
-7.938300 0.000000
-7.922400 0.000000
-7.906500 0.000000
-7.890600 0.000000
-7.874800 0.000000
-7.858900 0.000000
-7.843000 0.000000
-7.827100 0.000000
-7.811300 0.000000
-7.795400 0.000000
-7.779500 0.000000
-7.763600 0.000000
-7.747800 0.000000
-7.731900 0.000000
-7.716000 0.000000
-7.700100 0.000000
-7.684200 0.000000
-7.668400 0.000000
-7.652500 0.000000
-7.636600 0.000000
-7.620700 0.000000
-7.604900 0.000000
-7.589000 0.000000
-7.573100 0.000000
-7.557200 0.000000
-7.541400 0.000000
-7.525500 0.000000
-7.509600 0.000000
-7.493700 0.000000
-7.477900 0.000000
-7.462000 0.000000
-7.446100 0.000000
-7.430200 0.000000
-7.414400 0.000000
-7.398500 0.000000
-7.382600 0.000000
-7.366700 0.000000
-7.350900 0.000000
-7.335000 0.000000
-7.319100 0.000000
-7.303200 0.000000
-7.287300 0.000000
-7.271500 0.000000
-7.255600 0.000000
-7.239700 0.000000
-7.223800 0.000000
-7.208000 0.000000
-7.192100 0.000000
-7.176200 0.000000
-7.160300 0.000000
-7.144500 0.000000
-7.128600 0.000000
-7.112700 0.000000
-7.096800 0.000000
-7.081000 0.000000
-7.065100 0.000000
-7.049200 0.000000
-7.033300 0.000000
-7.017500 0.000000
-7.001600 0.000000
-6.985700 0.000000
-6.969800 0.000000
-6.954000 0.000000
-6.938100 0.000000
-6.922200 0.000000
-6.906300 0.000000
-6.890400 0.000000
-6.874600 0.000000
-6.858700 0.000000
-6.842800 0.000000
-6.826900 0.000000
-6.811100 0.000000
-6.795200 0.000000
-6.779300 0.000000
-6.763400 0.000000
-6.747600 0.000000
-6.731700 0.000000
-6.715800 0.000000
-6.699900 0.000000
-6.684100 0.000000
-6.668200 0.000000
-6.652300 0.000000
-6.636400 0.000000
-6.620600 0.000000
-6.604700 0.000000
-6.588800 0.000000
-6.572900 0.000000
-6.557100 0.000000
-6.541200 0.000000
-6.525300 0.000000
-6.509400 0.000000
-6.493500 0.000000
-6.477700 0.000000
-6.461800 0.000000
-6.445900 0.000000
-6.430000 0.000000
-6.414200 0.000000
-6.398300 0.000000
-6.382400 0.000000
-6.366500 0.000000
-6.350700 0.000000
-6.334800 0.000000
-6.318900 0.000000
-6.303000 0.000000
-6.287200 0.000000
-6.271300 0.000000
-6.255400 0.000000
-6.239500 0.000000
-6.223700 0.000000
-6.207800 0.000000
-6.191900 0.000000
-6.176000 0.000000
-6.160200 0.000000
-6.144300 0.000000
-6.128400 0.000000
-6.112500 0.000000
-6.096600 0.000000
-6.080800 0.000000
-6.064900 0.000000
-6.049000 0.000000
-6.033100 0.000000
-6.017300 0.000000
-6.001400 0.000000
-5.985500 0.000000
-5.969600 0.000000
-5.953800 0.000000
-5.937900 9.398800
-5.922000 18.984800
-5.906100 29.325500
-5.890300 32.164200
-5.874400 22.638600
-5.858500 19.952400
-5.842600 18.663700
-5.826800 18.215200
-5.810900 17.903600
-5.795000 17.871800
-5.779100 14.367900
-5.763300 6.637600
-5.747400 0.761400
-5.731500 0.000000
-5.715600 49.748500
-5.699700 2.009800
-5.683900 2.009800
-5.668000 2.009800
-5.652100 2.009800
-5.636200 2.009800
-5.620400 2.009800
-5.604500 2.009800
-5.588600 2.009800
-5.572700 2.009800
-5.556900 2.009800
-5.541000 2.009800
-5.525100 2.009800
-5.509200 2.009800
-5.493400 2.009800
-5.477500 2.009800
-5.461600 2.009800
-5.445700 2.009800
-5.429900 2.009800
-5.414000 2.009800
-5.398100 2.009800
-5.382200 2.009800
-5.366400 2.009900
-5.350500 2.009900
-5.334600 1.437000
-5.318700 1.437000
-5.302800 1.437000
-5.287000 1.437000
-5.271100 1.437000
-5.255200 1.437000
-5.239300 1.437000
-5.223500 1.436900
-5.207600 1.436900
-5.191700 1.436900
-5.175800 1.436900
-5.160000 1.436900
-5.144100 1.436900
-5.128200 1.436900
-5.112300 1.436900
-5.096500 1.436900
-5.080600 1.436900
-5.064700 1.436900
-5.048800 1.436900
-5.033000 1.436900
-5.017100 1.436900
-5.001200 1.436900
-4.985300 1.436900
-4.969500 1.436900
-4.953600 1.436900
-4.937700 1.436900
-4.921800 1.436900
-4.905900 1.436900
-4.890100 1.436900
-4.874200 1.436900
-4.858300 1.436900
-4.842400 1.436900
-4.826600 1.282600
-4.810700 1.282600
-4.794800 1.282600
-4.778900 1.282600
-4.763100 1.282500
-4.747200 1.282500
-4.731300 1.282500
-4.715400 1.282400
-4.699600 1.282400
-4.683700 1.282400
-4.667800 1.282400
-4.651900 1.282300
-4.636100 1.282300
-4.620200 1.282300
-4.604300 1.282300
-4.588400 1.282300
-4.572500 1.282200
-4.556700 1.282200
-4.540800 1.282200
-4.524900 1.282200
-4.509000 1.282100
-4.493200 1.282100
-4.477300 1.282100
-4.461400 1.282100
-4.445500 1.282100
-4.429700 1.282000
-4.413800 1.282000
-4.397900 1.282000
-4.382000 1.282000
-4.366200 1.282000
-4.350300 1.281900
-4.334400 1.281900
-4.318500 1.281900
-4.302700 1.281900
-4.286800 3.125400
-4.270900 8.324100
-4.255000 15.999000
-4.239200 15.295800
-4.223300 1.302500
-4.207400 0.000000
-4.191500 0.000000
-4.175600 0.000000
-4.159800 1.163200
-4.143900 2.634700
-4.128000 4.070400
-4.112100 5.668500
-4.096300 6.746200
-4.080400 7.335400
-4.064500 7.356600
-4.048600 7.380700
-4.032800 7.407800
-4.016900 7.092400
-4.001000 5.799300
-3.985100 4.821700
-3.969300 4.819900
-3.953400 4.818200
-3.937500 4.816600
-3.921600 4.815000
-3.905800 4.813400
-3.889900 4.811800
-3.874000 4.810300
-3.858100 4.808900
-3.842300 4.807500
-3.826400 4.806100
-3.810500 4.763300
-3.794600 4.557500
-3.778700 4.434700
-3.762900 4.329800
-3.747000 4.188300
-3.731100 4.177500
-3.715200 4.177100
-3.699400 4.176800
-3.683500 4.176400
-3.667600 3.753400
-3.651700 4.626300
-3.635900 5.512400
-3.620000 6.340100
-3.604100 6.758400
-3.588200 6.933100
-3.572400 7.021600
-3.556500 7.238300
-3.540600 7.534800
-3.524700 7.759700
-3.508900 7.994800
-3.493000 8.253100
-3.477100 8.146700
-3.461200 8.043600
-3.445400 7.934300
-3.429500 7.840800
-3.413600 7.817500
-3.397700 7.820800
-3.381800 7.824200
-3.366000 7.827600
-3.350100 7.831200
-3.334200 7.834900
-3.318300 7.838600
-3.302500 7.842200
-3.286600 7.839800
-3.270700 7.835900
-3.254800 7.823600
-3.239000 7.804100
-3.223100 15.024500
-3.207200 12.434100
-3.191300 18.096900
-3.175500 5.883200
-3.159600 5.972400
-3.143700 5.973100
-3.127800 5.973700
-3.112000 5.974400
-3.096100 5.975200
-3.080200 5.975900
-3.064300 5.976700
-3.048500 5.977500
-3.032600 6.007600
-3.016700 6.543200
-3.000800 7.436000
-2.984900 8.038300
-2.969100 9.109400
-2.953200 11.384400
-2.937300 18.262100
-2.921400 21.446400
-2.905600 24.066600
-2.889700 27.370500
-2.873800 25.683700
-2.857900 25.248000
-2.842100 22.400600
-2.826200 23.561100
-2.810300 33.162300
-2.794400 52.229900
-2.778600 41.194700
-2.762700 40.857500
-2.746800 43.264100
-2.730900 39.773600
-2.715100 35.276900
-2.699200 17.222100
-2.683300 0.000000
-2.667400 0.000000
-2.651600 0.000000
-2.635700 0.000000
-2.619800 0.000000
-2.603900 0.000000
-2.588000 0.000000
-2.572200 0.000000
-2.556300 0.000000
-2.540400 0.000000
-2.524500 0.614600
-2.508700 0.815400
-2.492800 1.033500
-2.476900 1.268800
-2.461000 1.521500
-2.445200 1.791400
-2.429300 2.078600
-2.413400 1.741100
-2.397500 1.855200
-2.381700 1.986100
-2.365800 2.124700
-2.349900 2.270900
-2.334000 2.424800
-2.318200 2.586400
-2.302300 2.755600
-2.286400 2.932400
-2.270500 4.794500
-2.254700 4.711800
-2.238800 4.568000
-2.222900 4.363200
-2.207000 3.269600
-2.191100 3.308800
-2.175300 3.326100
-2.159400 3.263100
-2.143500 3.173500
-2.127600 3.085700
-2.111800 2.977800
-2.095900 2.849900
-2.080000 2.610800
-2.064100 2.380900
-2.048300 2.328800
-2.032400 2.330300
-2.016500 2.331800
-2.000600 2.333400
-1.984800 2.335000
-1.968900 2.336600
-1.953000 2.338200
-1.937100 2.339900
-1.921300 2.341600
-1.905400 2.343300
-1.889500 2.345100
-1.873600 2.346900
-1.857800 2.348700
-1.841900 2.350600
-1.826000 2.392300
-1.810100 2.512400
-1.794200 2.597200
-1.778400 2.632300
-1.762500 2.632500
-1.746600 2.632800
-1.730700 2.633100
-1.714900 2.633400
-1.699000 2.633700
-1.683100 2.634100
-1.667200 2.634400
-1.651400 2.634800
-1.635500 2.635100
-1.619600 2.635500
-1.603700 2.635900
-1.587900 2.636300
-1.572000 2.636700
-1.556100 2.637200
-1.540200 2.637600
-1.524400 5.031100
-1.508500 5.059200
-1.492600 5.881000
-1.476700 6.722500
-1.460900 7.754800
-1.445000 9.268200
-1.429100 9.944200
-1.413200 10.484900
-1.397300 10.538800
-1.381500 10.513700
-1.365600 7.330800
-1.349700 3.188000
-1.333800 0.000000
-1.318000 0.000000
-1.302100 0.000000
-1.286200 0.000000
-1.270300 0.000000
-1.254500 0.153700
-1.238600 0.919700
-1.222700 1.731800
-1.206800 2.470700
-1.191000 3.123400
-1.175100 3.772700
-1.159200 4.718800
-1.143300 5.340700
-1.127500 5.322500
-1.111600 5.035600
-1.095700 5.032700
-1.079800 4.602700
-1.064000 3.711600
-1.048100 2.857600
-1.032200 2.293200
-1.016300 1.668900
-1.000400 1.467800
-0.984600 1.468000
-0.968700 1.468200
-0.952800 1.468500
-0.936900 1.468700
-0.921100 1.469000
-0.905200 1.469200
-0.889300 1.469500
-0.873400 1.469700
-0.857600 1.470000
-0.841700 1.470300
-0.825800 1.470500
-0.809900 1.470800
-0.794100 1.471100
-0.778200 1.471300
-0.762300 1.471600
-0.746400 1.471900
-0.730600 1.472200
-0.714700 1.472500
-0.698800 1.472700
-0.682900 1.473000
-0.667100 1.473300
-0.651200 1.473600
-0.635300 1.473900
-0.619400 1.474200
-0.603500 1.442700
-0.587700 1.315000
-0.571800 1.182000
-0.555900 1.158300
-0.540000 1.158300
-0.524200 1.158300
-0.508300 1.158300
-0.492400 1.158300
-0.476500 1.158400
-0.460700 1.158400
-0.444800 1.158400
-0.428900 1.158400
-0.413000 1.158400
-0.397200 1.158400
-0.381300 1.158400
-0.365400 1.158400
-0.349500 1.158400
-0.333700 1.158400
-0.317800 1.158400
-0.301900 1.158400
-0.286000 1.158400
-0.270200 1.158500
-0.254300 1.158500
-0.238400 1.158500
-0.222500 1.158500
-0.206600 1.158500
-0.190800 1.158500
-0.174900 1.158500
-0.159000 1.158500
-0.143100 1.158500
-0.127300 1.158500
-0.111400 1.158500
-0.095500 1.158500
-0.079600 1.158600
-0.063800 1.158600
-0.047900 1.158600
-0.032000 1.158600
-0.016100 1.158600
-0.000300 1.158600
0.015600 1.158600
0.031500 1.160200
0.047400 1.451600
0.063200 1.451600
0.079100 1.451500
0.095000 1.451500
0.110900 1.451400
0.126800 1.451400
0.142600 1.451300
0.158500 1.451200
0.174400 1.451200
0.190300 1.451100
0.206100 1.451100
0.222000 1.451000
0.237900 1.451000
0.253800 1.450900
0.269600 1.450900
0.285500 1.901700
0.301400 3.819200
0.317300 4.628700
0.333100 5.731600
0.349000 7.559700
0.364900 10.478800
0.380800 15.328800
0.396600 17.905200
0.412500 19.253800
0.428400 20.782800
0.444300 22.647400
0.460100 19.672000
0.476000 13.931800
0.491900 11.119100
0.507800 8.943700
0.523700 7.208300
0.539500 6.294800
0.555400 7.008100
0.571300 7.870600
0.587200 7.419900
0.603000 7.180500
0.618900 6.956600
0.634800 6.590000
0.650700 6.589700
0.666500 6.930600
0.682400 7.901800
0.698300 9.622400
0.714200 10.142900
0.730000 8.301300
0.745900 11.637300
0.761800 2.649200
0.777700 2.649500
0.793500 2.649900
0.809400 2.650200
0.825300 2.650600
0.841200 2.651000
0.857000 2.651400
0.872900 33.475700
0.888800 0.000000
0.904700 0.000000
0.920600 0.000000
0.936400 0.000000
0.952300 0.000000
0.968200 0.000000
0.984100 0.000000
0.999900 0.000000
1.015800 0.000000
1.031700 0.000000
1.047600 0.000000
1.063400 0.000000
1.079300 0.000000
1.095200 0.000000
1.111100 0.000000
1.126900 0.000000
1.142800 0.000000
1.158700 0.000000
1.174600 0.000000
1.190400 0.000000
1.206300 0.000000
1.222200 0.000000
1.238100 0.000000
1.253900 0.000000
1.269800 0.000000
1.285700 0.000000
1.301600 0.000000
1.317500 0.000000
1.333300 0.000000
1.349200 0.000000
1.365100 0.000000
1.381000 0.000000
1.396800 0.000000
1.412700 0.000000
1.428600 0.000000
1.444500 0.000000
1.460300 0.000000
1.476200 0.000000
1.492100 0.000000
1.508000 0.000000
1.523800 0.000000
1.539700 0.000000
1.555600 0.000000
1.571500 0.000000
1.587300 0.000000
1.603200 0.000000
1.619100 0.000000
1.635000 0.000000
1.650800 0.000000
1.666700 0.000000
1.682600 0.000000
1.698500 0.000000
1.714400 0.000000
1.730200 0.000000
1.746100 0.000000
1.762000 0.000000
1.777900 0.000000
1.793700 0.000000
1.809600 0.000000
1.825500 0.000000
1.841400 0.000000
1.857200 0.000000
1.873100 0.000000
1.889000 0.000000
1.904900 0.000000
1.920700 0.000000
1.936600 0.000000
1.952500 0.000000
1.968400 0.000000
1.984200 0.000000
2.000100 0.000000
2.016000 0.000000
2.031900 0.000000
2.047700 0.000000
2.063600 0.000000
2.079500 0.000000
2.095400 0.000000
2.111300 0.000000
2.127100 0.000000
2.143000 0.000000
2.158900 0.000000
2.174800 0.000000
2.190600 0.000000
2.206500 0.000000
2.222400 0.000000
2.238300 0.000000
2.254100 0.000000
2.270000 0.000000
2.285900 0.000000
2.301800 0.000000
2.317600 0.000000
2.333500 0.000000
2.349400 0.000000
2.365300 0.000000
2.381100 0.000000
2.397000 0.000000
2.412900 0.000000
2.428800 0.000000
2.444600 0.000000
2.460500 0.000000
2.476400 0.000000
2.492300 0.000000
2.508200 0.000000
2.524000 0.000000
2.539900 0.000000
2.555800 0.000000
2.571700 0.000000
2.587500 0.000000
2.603400 0.000000
2.619300 0.000000
2.635200 0.000000
2.651000 0.000000
2.666900 0.000000
2.682800 0.000000
2.698700 0.000000
2.714500 0.000000
2.730400 0.000000
2.746300 0.000000
2.762200 0.000000
2.778000 0.000000
2.793900 0.000000
2.809800 0.000000
2.825700 0.000000
2.841500 0.000000
2.857400 0.000000
2.873300 0.000000
2.889200 0.000000
2.905100 0.000000
2.920900 0.000000
2.936800 0.000000
2.952700 0.000000
2.968600 0.000000
2.984400 0.000000
3.000300 0.000000
3.016200 0.000000
3.032100 0.000000
3.047900 0.000000
3.063800 0.000000
3.079700 0.000000
3.095600 0.000000
3.111400 0.000000
3.127300 0.000000
3.143200 0.000000
3.159100 0.000000
3.174900 0.000000
3.190800 0.000000
3.206700 0.000000
3.222600 0.000000
3.238400 0.000000
3.254300 0.000000
3.270200 0.000000
3.286100 0.000000
3.302000 0.000000
3.317800 0.000000
3.333700 0.000000
3.349600 0.000000
3.365500 0.000000
3.381300 0.000000
3.397200 0.000000
3.413100 0.000000
3.429000 0.000000
3.444800 0.000000
3.460700 0.000000
3.476600 0.000000
3.492500 0.000000
3.508300 0.000000
3.524200 0.000000
3.540100 0.000000
3.556000 0.000000
3.571800 0.000000
3.587700 0.000000
3.603600 0.000000
3.619500 0.000000
3.635300 0.000000
3.651200 0.000000
3.667100 0.000000
3.683000 0.000000
3.698900 0.000000
3.714700 0.000000
3.730600 0.000000
3.746500 0.000000
3.762400 0.000000
3.778200 0.000000
3.794100 0.000000
3.810000 0.000000
3.825900 0.000000
3.841700 0.000000
3.857600 0.000000
3.873500 0.000000
3.889400 0.000000
3.905200 0.000000
3.921100 0.000000
3.937000 0.000000
3.952900 0.000000
3.968700 0.000000
3.984600 0.000000
4.000500 0.000000
4.016400 0.000000
4.032200 0.000000
4.048100 0.000000
4.064000 0.000000
4.079900 0.000000
4.095800 0.000000
4.111600 0.000000
4.127500 0.000000
4.143400 0.000000
4.159300 0.000000
4.175100 0.000000
4.191000 0.000000
4.206900 0.000000
4.222800 0.000000
4.238600 0.000000
4.254500 0.001800
4.270400 0.011600
4.286300 0.030000
4.302100 0.056800
4.318000 0.092100
4.333900 0.135900
4.349800 0.188200
4.365600 0.248600
4.381500 0.302800
4.397400 0.347400
4.413300 0.382500
4.429100 0.407900
4.445000 0.423800
4.460900 0.430200
4.476800 0.437200
4.492700 0.449000
4.508500 0.465500
4.524400 0.486800
4.540300 0.512800
4.556200 0.542500
4.572000 0.573100
4.587900 0.604500
4.603800 0.636700
4.619700 0.669200
4.635500 0.700700
4.651400 0.731200
4.667300 0.760500
4.683200 0.787500
4.699000 0.809500
4.714900 0.830200
4.730800 0.850500
4.746700 0.870300
4.762500 0.894200
4.778400 0.920600
4.794300 0.947600
4.810200 0.974700
4.826100 1.001000
4.841900 1.026000
4.857800 1.051000
4.873700 1.075900
4.889600 1.100700
4.905400 1.125300
4.921300 1.149800
4.937200 1.174600
4.953100 1.201500
4.968900 1.230800
4.984800 1.262200
5.000700 1.296300
5.016600 1.332600
5.032400 1.369300
5.048300 1.405700
5.064200 1.441500
5.080100 1.476600
5.095900 1.511700
5.111800 1.547100
5.127700 1.582700
5.143600 1.617300
5.159400 1.651000
5.175300 1.683700
5.191200 1.716000
5.207100 1.748800
5.223000 1.783300
5.238800 1.819000
5.254700 1.856500
5.270600 1.895800
5.286500 1.935600
5.302300 1.975500
5.318200 2.017400
5.334100 2.061900
5.350000 2.108800
5.365800 2.186700
5.381700 2.267600
5.397600 2.342800
5.413500 2.408100
5.429300 2.453000
5.445200 2.497300
5.461100 2.541000
5.477000 2.584400
5.492800 2.630600
5.508700 2.680500
5.524600 2.730700
5.540500 2.780800
5.556300 2.865300
5.572200 2.976600
5.588100 3.076000
5.604000 3.178100
5.619900 3.254100
5.635700 3.279200
5.651600 3.404700
5.667500 3.537100
5.683400 3.583800
5.699200 3.646400
5.715100 3.702000
5.731000 3.755700
5.746900 3.808300
5.762700 3.860100
5.778600 3.918100
5.794500 4.060300
5.810400 4.248700
5.826200 4.459600
5.842100 4.686000
5.858000 4.873200
5.873900 5.080800
5.889700 5.328400
5.905600 5.607100
5.921500 8.357300
5.937400 9.829100
5.953200 9.117200
5.969100 5.798000
5.985000 4.866700
6.000900 4.288200
6.016800 4.678100
6.032600 4.668400
6.048500 4.323900
6.064400 4.266300
6.080300 4.356900
6.096100 4.415700
6.112000 4.375100
6.127900 4.411800
6.143800 4.463100
6.159600 4.924700
6.175500 8.756500
6.191400 7.374000
6.207300 7.472000
6.223100 7.290500
6.239000 7.597400
6.254900 7.825600
6.270800 7.923600
6.286600 7.927700
6.302500 7.932100
6.318400 8.069900
6.334300 8.257400
6.350100 8.900900
6.366000 12.726500
6.381900 14.693400
6.397800 13.318200
6.413700 14.740400
6.429500 13.873000
6.445400 12.701000
6.461300 11.504200
6.477200 10.935700
6.493000 10.568500
6.508900 10.399100
6.524800 10.273900
6.540700 10.184000
6.556500 11.190100
6.572400 10.592300
6.588300 10.193300
6.604200 10.142600
6.620000 10.322500
6.635900 11.223300
6.651800 12.498600
6.667700 13.845100
6.683500 10.917500
6.699400 5.033200
6.715300 4.328300
6.731200 10.163900
6.747000 14.482100
6.762900 12.586000
6.778800 10.139600
6.794700 8.144800
6.810600 6.389100
6.826400 5.063500
6.842300 4.493400
6.858200 4.154400
6.874100 3.879200
6.889900 3.697100
6.905800 3.756300
6.921700 4.508000
6.937600 5.643900
6.953400 4.802500
6.969300 3.661100
6.985200 3.131100
7.001100 3.247800
7.016900 3.560300
7.032800 4.011900
7.048700 4.354600
7.064600 4.733900
7.080400 4.983700
7.096300 5.164800
7.112200 5.295800
7.128100 5.081300
7.143900 4.822300
7.159800 5.024600
7.175700 5.295200
7.191600 5.071100
7.207500 5.062200
7.223300 5.036800
7.239200 5.181100
7.255100 5.294800
7.271000 5.387200
7.286800 5.462800
7.302700 5.523900
7.318600 5.528500
7.334500 5.558700
7.350300 5.650100
7.366200 5.797500
7.382100 5.984300
7.398000 6.231200
7.413800 6.560200
7.429700 6.956800
7.445600 7.721800
7.461500 8.265100
7.477300 8.636300
7.493200 8.546600
7.509100 8.562500
7.525000 8.519700
7.540800 8.150300
7.556700 7.914200
7.572600 7.606400
7.588500 7.493600
7.604400 7.325700
7.620200 7.094600
7.636100 6.805300
7.652000 6.573300
7.667900 6.425700
7.683700 6.344800
7.699600 6.328700
7.715500 6.366700
7.731400 6.374600
7.747200 6.485200
7.763100 6.615200
7.779000 6.688600
7.794900 6.489600
7.810700 6.394700
7.826600 6.004300
7.842500 6.326900
7.858400 8.035100
7.874200 9.850300
7.890100 10.267200
7.906000 10.023600
7.921900 9.675900
7.937700 9.268100
7.953600 8.723800
7.969500 8.328400
7.985400 7.755500
8.001300 6.771000
8.017100 6.525900
8.033000 6.284400
8.048900 6.049300
8.064800 5.845200
8.080600 5.585100
8.096500 5.320400
8.112400 5.102600
8.128300 4.919600
8.144100 4.762500
8.160000 4.718700
8.175900 4.765500
8.191800 4.815900
8.207600 4.964900
8.223500 5.064900
8.239400 5.002200
8.255300 4.887900
8.271100 4.831400
8.287000 4.769700
8.302900 4.647800
8.318800 4.552100
8.334600 4.486500
8.350500 4.495700
8.366400 4.546200
8.382300 4.614900
8.398200 4.709400
8.414000 4.829900
8.429900 5.011400
8.445800 5.297400
8.461700 5.661300
8.477500 6.006700
8.493400 6.361800
8.509300 6.212000
8.525200 6.114600
8.541000 5.966700
8.556900 5.666600
8.572800 5.594700
8.588700 5.540100
8.604500 5.486800
8.620400 5.364600
8.636300 5.080600
8.652200 4.856000
8.668000 5.041700
8.683900 4.847300
8.699800 4.657800
8.715700 4.484100
8.731500 4.359600
8.747400 4.289400
8.763300 4.227700
8.779200 4.170400
8.795100 4.117300
8.810900 4.068100
8.826800 4.022400
8.842700 3.971300
8.858600 3.924700
8.874400 3.882700
8.890300 3.845400
8.906200 3.814400
8.922100 3.798300
8.937900 3.809600
8.953800 3.800100
8.969700 3.808000
8.985600 3.820800
9.001400 3.858600
9.017300 3.920300
9.033200 3.882600
9.049100 3.754100
9.064900 3.739400
9.080800 3.755100
9.096700 3.793900
9.112600 3.864800
9.128400 3.969900
9.144300 4.150100
9.160200 4.327600
9.176100 4.520600
9.192000 4.742300
9.207800 4.908400
9.223700 4.997400
9.239600 4.888100
9.255500 4.512900
9.271300 4.420100
9.287200 4.385300
9.303100 4.409200
9.319000 5.007800
9.334800 7.280300
9.350700 8.197100
9.366600 8.911200
9.382500 10.778600
9.398300 10.101300
9.414200 7.963500
9.430100 7.044400
9.446000 6.822100
9.461800 6.756100
9.477700 6.456600
9.493600 6.207000
9.509500 5.945800
9.525300 5.151900
9.541200 4.723400
9.557100 4.475600
9.573000 4.398700
9.588900 4.469600
9.604700 4.575800
9.620600 5.285400
9.636500 5.409000
9.652400 5.549200
9.668200 5.778200
9.684100 5.764100
9.700000 6.004600
9.715900 6.254900
9.731700 6.376700
9.747600 6.480900
9.763500 6.558200
9.779400 6.301400
9.795200 6.329900
9.811100 5.741800
9.827000 5.617400
9.842900 5.525000
9.858700 5.648100
9.874600 6.093900
9.890500 6.092100
9.906400 6.129400
9.922300 6.071200
9.938100 6.031600
9.954000 6.099100
9.969900 6.236400
9.985800 6.309100
10.001600 6.213800
10.017500 7.180300
10.033400 7.309300
10.049300 7.258300
10.065100 7.423200
10.081000 7.428300
10.096900 7.636300
10.112800 7.989800
10.128600 8.319000
10.144500 8.442600
10.160400 8.428000
10.176300 8.254600
10.192100 7.958300
10.208000 7.595800
10.223900 7.675300
10.239800 7.706400
10.255600 7.744900
10.271500 7.948000
10.287400 8.751100
10.303300 9.590400
10.319200 9.469900
10.335000 9.651800
10.350900 9.916900
10.366800 9.609400
10.382700 9.615000
10.398500 9.628900
10.414400 9.586900
10.430300 9.705300
10.446200 9.933700
10.462000 10.361200
10.477900 10.447000
10.493800 10.287400
10.509700 9.961000
10.525500 9.645200
10.541400 9.425100
10.557300 9.412200
10.573200 10.168900
10.589000 10.019700
10.604900 9.978400
10.620800 9.954600
10.636700 9.897600
10.652500 9.840000
10.668400 9.743200
10.684300 9.677500
10.700200 9.925600
10.716100 10.302800
10.731900 10.493600
10.747800 10.654500
10.763700 11.138300
10.779600 11.531500
10.795400 12.366000
10.811300 11.585500
10.827200 11.223700
10.843100 10.669800
10.858900 11.128300
10.874800 11.626000
10.890700 11.363500
10.906600 11.282700
10.922400 10.871600
10.938300 10.662500
10.954200 10.608200
10.970100 10.599300
10.985900 10.388500
11.001800 9.755500
11.017700 9.607300
11.033600 9.699700
11.049400 9.581300
11.065300 9.625600
11.081200 9.571200
11.097100 9.537000
11.113000 9.663800
11.128800 9.820100
11.144700 9.936100
11.160600 10.040300
11.176500 10.128500
11.192300 9.732100
11.208200 9.291800
11.224100 9.013300
11.240000 8.665100
11.255800 8.329600
11.271700 8.045700
11.287600 7.782800
11.303500 7.071000
11.319300 5.857600
11.335200 5.535700
11.351100 5.315100
11.367000 5.417700
11.382800 5.721300
11.398700 6.005300
11.414600 6.317200
11.430500 6.653500
11.446300 7.110700
11.462200 7.618200
11.478100 7.729200
11.494000 8.232300
11.509900 10.322500
11.525700 9.213100
11.541600 8.814800
11.557500 8.278600
11.573400 7.844400
11.589200 7.605700
11.605100 7.562000
11.621000 7.596200
11.636900 7.645200
11.652700 7.682900
11.668600 7.827700
11.684500 7.866200
11.700400 7.881600
11.716200 8.007800
11.732100 8.491200
11.748000 9.009100
11.763900 10.484200
11.779700 10.171000
11.795600 9.074200
11.811500 8.909500
11.827400 8.871600
11.843200 8.676500
11.859100 8.403400
11.875000 8.085700
11.890900 7.730700
11.906800 7.310600
11.922600 6.844100
11.938500 6.268000
11.954400 5.114700
11.970300 4.692300
11.986100 4.799300
12.002000 4.904500
12.017900 4.995800
12.033800 5.155900
12.049600 5.258900
12.065500 5.342500
12.081400 5.405000
12.097300 5.443900
12.113100 5.512400
12.129000 5.647100
12.144900 5.606400
12.160800 5.483300
12.176600 5.285900
12.192500 4.949700
12.208400 4.544700
12.224300 4.177500
12.240100 3.827500
12.256000 3.437800
12.271900 3.152100
12.287800 2.966400
12.303700 2.291700
12.319500 1.495500
12.335400 0.740300
12.351300 0.438700
12.367200 0.271600
12.383000 0.171600
12.398900 0.132000
12.414800 0.109300
12.430700 0.088700
12.446500 0.070300
12.462400 0.054000
12.478300 0.039800
12.494200 0.027800
12.510000 0.018000
12.525900 0.010300
12.541800 0.004700
12.557700 0.001300
12.573500 0.000000
12.589400 0.000000
12.605300 0.000000
12.621200 0.000000
12.637000 0.000000
12.652900 0.000000
12.668800 0.000000
12.684700 0.000000
12.700600 0.000000
12.716400 0.000000
12.732300 0.000000
12.748200 0.000000
12.764100 0.000000
12.779900 0.000000
12.795800 0.000000
12.811700 0.000000
12.827600 0.000000
12.843400 0.000000
12.859300 0.000000
12.875200 0.000000
12.891100 0.000000
12.906900 0.000000
12.922800 0.000000
12.938700 0.000000
12.954600 0.000000
12.970400 0.000000
12.986300 0.000000
13.002200 0.000000
13.018100 0.000000
13.033900 0.000000
13.049800 0.000000
13.065700 0.000000
13.081600 0.000000
13.097500 0.000000
13.113300 0.000000
13.129200 0.000000
13.145100 0.000000
13.161000 0.000000
13.176800 0.000000
13.192700 0.000000
13.208600 0.000000
13.224500 0.000000
13.240300 0.000000
13.256200 0.000000
13.272100 0.000000
13.288000 0.000000
13.303800 0.000000
13.319700 0.000000
13.335600 0.000000
13.351500 0.000000
13.367300 0.000000
13.383200 0.000000
13.399100 0.000000
13.415000 0.000000
13.430800 0.000000
13.446700 0.000000
13.462600 0.000000
13.478500 0.000000
13.494400 0.000000
13.510200 0.000000
13.526100 0.000000
13.542000 0.000000
13.557900 0.000000
13.573700 0.000000
13.589600 0.000000
13.605500 0.000000
13.621400 0.000000
13.637200 0.000000
13.653100 0.000000
13.669000 0.000000
13.684900 0.000000
13.700700 0.000000
13.716600 0.000000
13.732500 0.000000
13.748400 0.000000
13.764200 0.000000
13.780100 0.000000
13.796000 0.000000
13.811900 0.000000
13.827700 0.000000
13.843600 0.000000
13.859500 0.000000
13.875400 0.000000
13.891300 0.000000
13.907100 0.000000
13.923000 0.000000
13.938900 0.000000
13.954800 0.000000
13.970600 0.000000
13.986500 0.000000
14.002400 0.000000
14.018300 0.000000
e
