set title 'mp-1223904 - Density of States'
set xlabel 'Energy (eV)'
set ylabel 'DOS (states/eV)'
set grid
set xrange [-10:10]
set yrange [0:13.616]
set xzeroaxis lt -1
set terminal png size 800,600
set output 'mp-1223904_dos_gnuplot.png'
plot '-' using 1:2 with lines title 'DOS'
-23.347300 0.000000
-23.320400 0.000000
-23.293400 0.000000
-23.266500 0.000000
-23.239500 0.000000
-23.212600 0.000000
-23.185600 0.000000
-23.158700 0.000000
-23.131800 0.000000
-23.104800 0.000000
-23.077900 0.000000
-23.050900 0.000000
-23.024000 0.000000
-22.997000 0.000000
-22.970100 0.000000
-22.943200 0.000000
-22.916200 0.000000
-22.889300 0.000000
-22.862300 0.000000
-22.835400 0.000000
-22.808400 0.000000
-22.781500 0.000000
-22.754500 0.000000
-22.727600 0.000000
-22.700700 0.000000
-22.673700 0.000000
-22.646800 0.000000
-22.619800 0.000000
-22.592900 0.000000
-22.565900 0.000000
-22.539000 0.000000
-22.512100 0.000000
-22.485100 0.000000
-22.458200 0.000000
-22.431200 0.000000
-22.404300 0.000000
-22.377300 0.000000
-22.350400 0.000000
-22.323400 0.000000
-22.296500 0.000000
-22.269600 0.000000
-22.242600 0.000000
-22.215700 0.000000
-22.188700 0.000000
-22.161800 0.000000
-22.134800 0.000000
-22.107900 0.000000
-22.080900 0.000000
-22.054000 0.000000
-22.027100 0.000000
-22.000100 0.000000
-21.973200 0.000000
-21.946200 0.000000
-21.919300 0.000000
-21.892300 0.000000
-21.865400 0.000000
-21.838500 0.000000
-21.811500 0.000000
-21.784600 0.000000
-21.757600 0.000000
-21.730700 0.000000
-21.703700 0.000000
-21.676800 0.000000
-21.649800 0.000000
-21.622900 0.000000
-21.596000 0.000000
-21.569000 0.000000
-21.542100 0.000000
-21.515100 0.000000
-21.488200 0.000000
-21.461200 0.000000
-21.434300 0.000000
-21.407400 0.000000
-21.380400 0.000000
-21.353500 0.000000
-21.326500 0.000000
-21.299600 0.000000
-21.272600 0.000000
-21.245700 0.000000
-21.218700 0.000000
-21.191800 0.000000
-21.164900 0.000000
-21.137900 0.000000
-21.111000 0.000000
-21.084000 0.000000
-21.057100 0.000000
-21.030100 0.000000
-21.003200 0.000000
-20.976200 0.000000
-20.949300 0.000000
-20.922400 0.000000
-20.895400 2.888300
-20.868500 2.574600
-20.841500 3.285000
-20.814600 3.998300
-20.787600 4.993200
-20.760700 5.844000
-20.733800 10.752200
-20.706800 10.565000
-20.679900 8.059600
-20.652900 9.925400
-20.626000 8.134600
-20.599000 3.142800
-20.572100 1.600800
-20.545100 0.603700
-20.518200 1.421800
-20.491300 2.065000
-20.464300 5.468200
-20.437400 12.172400
-20.410400 8.033500
-20.383500 7.266700
-20.356500 5.241300
-20.329600 4.810800
-20.302700 4.744700
-20.275700 3.489500
-20.248800 2.803900
-20.221800 2.603900
-20.194900 2.404400
-20.167900 2.205300
-20.141000 2.006700
-20.114000 1.944100
-20.087100 3.781000
-20.060200 7.864100
-20.033200 24.411100
-20.006300 20.038500
-19.979300 19.226800
-19.952400 6.956300
-19.925400 0.623600
-19.898500 29.513000
-19.871500 29.026900
-19.844600 29.928500
-19.817700 18.607500
-19.790700 11.713700
-19.763800 11.153600
-19.736800 11.605100
-19.709900 11.168900
-19.682900 10.310700
-19.656000 11.834600
-19.629100 13.823700
-19.602100 20.948900
-19.575200 48.099700
-19.548200 0.000000
-19.521300 0.000000
-19.494300 0.000000
-19.467400 0.000000
-19.440400 0.000000
-19.413500 0.000000
-19.386600 0.000000
-19.359600 0.000000
-19.332700 0.000000
-19.305700 0.000000
-19.278800 0.000000
-19.251800 0.000000
-19.224900 0.000000
-19.198000 0.000000
-19.171000 0.000000
-19.144100 0.000000
-19.117100 0.000000
-19.090200 0.000000
-19.063200 0.000000
-19.036300 0.000000
-19.009300 0.000000
-18.982400 0.000000
-18.955500 0.000000
-18.928500 0.000000
-18.901600 0.000000
-18.874600 0.000000
-18.847700 0.000000
-18.820700 0.000000
-18.793800 0.000000
-18.766900 0.000000
-18.739900 0.000000
-18.713000 0.000000
-18.686000 0.000000
-18.659100 0.000000
-18.632100 0.000000
-18.605200 0.000000
-18.578200 0.000000
-18.551300 0.000000
-18.524400 0.000000
-18.497400 0.000000
-18.470500 0.000000
-18.443500 0.000000
-18.416600 0.000000
-18.389600 0.000000
-18.362700 0.000000
-18.335700 0.000000
-18.308800 0.000000
-18.281900 0.000000
-18.254900 0.000000
-18.228000 0.000000
-18.201000 0.000000
-18.174100 0.000000
-18.147100 0.000000
-18.120200 0.000000
-18.093300 0.000000
-18.066300 0.000000
-18.039400 0.000000
-18.012400 0.000000
-17.985500 0.000000
-17.958500 0.000000
-17.931600 0.000000
-17.904600 0.000000
-17.877700 0.000000
-17.850800 0.000000
-17.823800 0.000000
-17.796900 0.000000
-17.769900 0.000000
-17.743000 0.000000
-17.716000 0.000000
-17.689100 0.000000
-17.662200 0.000000
-17.635200 0.000000
-17.608300 0.000000
-17.581300 0.000000
-17.554400 0.000000
-17.527400 0.000000
-17.500500 0.000000
-17.473500 0.000000
-17.446600 0.000000
-17.419700 0.000000
-17.392700 0.000000
-17.365800 0.000000
-17.338800 0.000000
-17.311900 0.000000
-17.284900 0.000000
-17.258000 0.000000
-17.231000 0.000000
-17.204100 0.000000
-17.177200 0.000000
-17.150200 0.000000
-17.123300 0.000000
-17.096300 0.000000
-17.069400 0.000000
-17.042400 0.000000
-17.015500 0.000000
-16.988600 0.000000
-16.961600 0.000000
-16.934700 0.000000
-16.907700 0.000000
-16.880800 0.000000
-16.853800 0.000000
-16.826900 0.000000
-16.799900 0.000000
-16.773000 0.000000
-16.746100 0.000000
-16.719100 0.000000
-16.692200 0.000000
-16.665200 0.000000
-16.638300 0.000000
-16.611300 0.000000
-16.584400 0.000000
-16.557500 0.000000
-16.530500 0.000000
-16.503600 0.000000
-16.476600 0.000000
-16.449700 0.000000
-16.422700 0.000000
-16.395800 0.000000
-16.368800 0.000000
-16.341900 0.000000
-16.315000 0.000000
-16.288000 0.000000
-16.261100 0.000000
-16.234100 0.000000
-16.207200 0.000000
-16.180200 0.000000
-16.153300 0.000000
-16.126400 0.000000
-16.099400 0.000000
-16.072500 0.000000
-16.045500 0.000000
-16.018600 0.000000
-15.991600 0.000000
-15.964700 0.000000
-15.937700 0.000000
-15.910800 0.000000
-15.883900 0.000000
-15.856900 0.000000
-15.830000 0.000000
-15.803000 0.000000
-15.776100 0.000000
-15.749100 0.000000
-15.722200 0.000000
-15.695200 0.000000
-15.668300 0.000000
-15.641400 0.000000
-15.614400 0.000000
-15.587500 0.000000
-15.560500 0.000000
-15.533600 0.000000
-15.506600 0.000000
-15.479700 0.000000
-15.452800 0.000000
-15.425800 0.000000
-15.398900 0.000000
-15.371900 0.000000
-15.345000 0.000000
-15.318000 0.000000
-15.291100 0.000000
-15.264100 0.000000
-15.237200 0.000000
-15.210300 0.000000
-15.183300 0.000000
-15.156400 0.000000
-15.129400 0.000000
-15.102500 0.000000
-15.075500 0.000000
-15.048600 0.000000
-15.021700 0.000000
-14.994700 0.000000
-14.967800 0.000000
-14.940800 0.006000
-14.913900 0.065800
-14.886900 0.189800
-14.860000 0.383400
-14.833000 0.650300
-14.806100 0.961500
-14.779200 1.312500
-14.752200 1.566200
-14.725300 1.703900
-14.698300 1.708600
-14.671400 1.749600
-14.644400 1.828200
-14.617500 1.956700
-14.590500 2.090500
-14.563600 2.294700
-14.536700 2.587400
-14.509700 2.893600
-14.482800 3.207900
-14.455800 3.450900
-14.428900 5.054800
-14.401900 5.008000
-14.375000 4.489500
-14.348100 3.593100
-14.321100 2.904500
-14.294200 2.850500
-14.267200 2.822800
-14.240300 2.812600
-14.213300 2.817000
-14.186400 2.803500
-14.159400 3.081400
-14.132500 2.879200
-14.105600 2.696400
-14.078600 2.532900
-14.051700 7.863500
-14.024700 1.972200
-13.997800 2.551300
-13.970800 3.478800
-13.943900 3.726700
-13.917000 3.848400
-13.890000 3.826100
-13.863100 3.692800
-13.836100 3.626800
-13.809200 3.048200
-13.782200 2.835500
-13.755300 3.080200
-13.728300 3.470100
-13.701400 3.891200
-13.674500 4.358900
-13.647500 5.278100
-13.620600 4.433100
-13.593600 4.085500
-13.566700 3.151100
-13.539700 2.173100
-13.512800 1.090700
-13.485900 1.781200
-13.458900 1.497600
-13.432000 2.715700
-13.405000 3.989700
-13.378100 5.122300
-13.351100 6.126200
-13.324200 6.696200
-13.297200 7.119100
-13.270300 6.725200
-13.243400 5.609800
-13.216400 5.547700
-13.189500 6.431200
-13.162500 3.986200
-13.135600 3.065600
-13.108600 2.258200
-13.081700 1.816600
-13.054700 1.275200
-13.027800 0.523600
-13.000900 0.553300
-12.973900 0.415500
-12.947000 0.290600
-12.920000 0.000000
-12.893100 0.000000
-12.866100 0.000000
-12.839200 0.000000
-12.812300 0.000000
-12.785300 0.000000
-12.758400 0.000000
-12.731400 0.000000
-12.704500 0.000000
-12.677500 0.000000
-12.650600 0.000000
-12.623600 0.000000
-12.596700 0.000000
-12.569800 0.000000
-12.542800 0.000000
-12.515900 0.000000
-12.488900 0.000000
-12.462000 0.000000
-12.435000 0.000000
-12.408100 0.000000
-12.381200 0.000000
-12.354200 0.000000
-12.327300 0.000000
-12.300300 0.000000
-12.273400 0.000000
-12.246400 0.000000
-12.219500 0.000000
-12.192500 0.000000
-12.165600 0.000000
-12.138700 0.000000
-12.111700 0.000000
-12.084800 0.000000
-12.057800 0.000000
-12.030900 0.000000
-12.003900 0.000000
-11.977000 0.000000
-11.950000 0.000000
-11.923100 0.000000
-11.896200 0.000000
-11.869200 0.000000
-11.842300 0.000000
-11.815300 0.000000
-11.788400 0.000000
-11.761400 0.000000
-11.734500 0.000000
-11.707600 0.000000
-11.680600 0.000000
-11.653700 0.000000
-11.626700 0.000000
-11.599800 0.000000
-11.572800 0.000000
-11.545900 0.000000
-11.518900 0.000000
-11.492000 0.000000
-11.465100 0.000000
-11.438100 0.000000
-11.411200 0.000000
-11.384200 0.000000
-11.357300 0.000000
-11.330300 0.000000
-11.303400 0.000000
-11.276500 0.000000
-11.249500 0.000000
-11.222600 0.000000
-11.195600 0.000000
-11.168700 0.000000
-11.141700 0.000000
-11.114800 0.000000
-11.087800 0.000000
-11.060900 0.000000
-11.034000 0.000000
-11.007000 0.000000
-10.980100 0.000000
-10.953100 0.000000
-10.926200 0.000000
-10.899200 0.000000
-10.872300 0.000000
-10.845400 0.000000
-10.818400 0.000000
-10.791500 0.000000
-10.764500 0.000000
-10.737600 0.000000
-10.710600 0.000000
-10.683700 0.000000
-10.656700 0.000000
-10.629800 0.000000
-10.602900 0.000000
-10.575900 0.000000
-10.549000 0.000000
-10.522000 0.000000
-10.495100 0.000000
-10.468100 0.000000
-10.441200 0.000000
-10.414200 0.000000
-10.387300 0.000000
-10.360400 0.000000
-10.333400 0.000000
-10.306500 0.000000
-10.279500 0.000000
-10.252600 0.000000
-10.225600 0.000000
-10.198700 0.000000
-10.171800 0.000000
-10.144800 0.000000
-10.117900 0.000000
-10.090900 0.000000
-10.064000 0.000000
-10.037000 0.000000
-10.010100 0.000000
-9.983100 0.000000
-9.956200 0.000000
-9.929300 0.000000
-9.902300 0.000000
-9.875400 0.000000
-9.848400 0.000000
-9.821500 0.000000
-9.794500 0.000000
-9.767600 0.000000
-9.740700 0.000000
-9.713700 0.000000
-9.686800 0.000000
-9.659800 0.000000
-9.632900 0.000000
-9.605900 0.000000
-9.579000 0.000000
-9.552000 0.000000
-9.525100 0.000000
-9.498200 0.000000
-9.471200 0.000000
-9.444300 0.000000
-9.417300 0.000000
-9.390400 0.000000
-9.363400 0.000000
-9.336500 0.000000
-9.309500 0.000000
-9.282600 0.000000
-9.255700 0.000000
-9.228700 0.000000
-9.201800 0.000000
-9.174800 0.000000
-9.147900 0.000000
-9.120900 0.000000
-9.094000 0.000000
-9.067100 0.000000
-9.040100 0.000000
-9.013200 0.000000
-8.986200 0.000000
-8.959300 0.000000
-8.932300 0.000000
-8.905400 0.000000
-8.878400 0.000000
-8.851500 0.000000
-8.824600 0.000000
-8.797600 0.000000
-8.770700 0.000000
-8.743700 0.000000
-8.716800 0.000000
-8.689800 0.000000
-8.662900 0.000000
-8.636000 0.000000
-8.609000 0.000000
-8.582100 0.000000
-8.555100 0.000000
-8.528200 0.000000
-8.501200 0.000000
-8.474300 0.000000
-8.447300 0.000000
-8.420400 0.000000
-8.393500 0.000000
-8.366500 0.000000
-8.339600 0.000000
-8.312600 0.000000
-8.285700 0.000000
-8.258700 0.000000
-8.231800 0.000000
-8.204900 0.000000
-8.177900 0.000000
-8.151000 0.000000
-8.124000 0.000000
-8.097100 0.000000
-8.070100 0.000000
-8.043200 0.000000
-8.016200 0.000000
-7.989300 0.000000
-7.962400 0.000000
-7.935400 0.000000
-7.908500 0.000000
-7.881500 0.000000
-7.854600 0.000000
-7.827600 0.000000
-7.800700 0.000000
-7.773700 0.000000
-7.746800 0.000000
-7.719900 0.000000
-7.692900 0.000000
-7.666000 0.000000
-7.639000 0.000000
-7.612100 0.000000
-7.585100 0.000000
-7.558200 0.000000
-7.531300 0.000000
-7.504300 0.000000
-7.477400 0.000000
-7.450400 0.000000
-7.423500 0.000000
-7.396500 0.000000
-7.369600 0.000000
-7.342600 0.000000
-7.315700 0.000000
-7.288800 0.000000
-7.261800 0.000000
-7.234900 0.000000
-7.207900 0.000000
-7.181000 0.000000
-7.154000 0.000000
-7.127100 0.000000
-7.100200 0.000000
-7.073200 0.000000
-7.046300 0.000000
-7.019300 0.000000
-6.992400 0.000000
-6.965400 0.000000
-6.938500 0.000000
-6.911500 0.000000
-6.884600 0.000000
-6.857700 0.000000
-6.830700 0.000000
-6.803800 0.000000
-6.776800 0.000000
-6.749900 0.000000
-6.722900 0.000000
-6.696000 0.000000
-6.669000 0.000000
-6.642100 0.000000
-6.615200 0.000000
-6.588200 0.000000
-6.561300 0.000000
-6.534300 0.000000
-6.507400 0.000000
-6.480400 0.000000
-6.453500 0.000000
-6.426600 0.000000
-6.399600 0.000000
-6.372700 0.000000
-6.345700 0.000000
-6.318800 0.000000
-6.291800 0.000000
-6.264900 0.000000
-6.237900 0.000000
-6.211000 0.000000
-6.184100 0.000000
-6.157100 0.000000
-6.130200 0.000000
-6.103200 0.000000
-6.076300 0.000000
-6.049300 0.000000
-6.022400 0.000000
-5.995500 0.000000
-5.968500 0.000000
-5.941600 0.000000
-5.914600 0.000000
-5.887700 0.000000
-5.860700 0.000000
-5.833800 0.000000
-5.806800 0.000000
-5.779900 0.000000
-5.753000 0.000000
-5.726000 0.000000
-5.699100 0.000000
-5.672100 0.000000
-5.645200 0.000000
-5.618200 0.000000
-5.591300 0.000000
-5.564400 0.000000
-5.537400 0.000000
-5.510500 0.000000
-5.483500 0.000000
-5.456600 0.000000
-5.429600 0.000000
-5.402700 0.000000
-5.375700 0.000000
-5.348800 0.000000
-5.321900 0.000000
-5.294900 0.000000
-5.268000 0.000000
-5.241000 0.000000
-5.214100 0.000000
-5.187100 0.000000
-5.160200 0.000000
-5.133200 0.000000
-5.106300 0.000000
-5.079400 0.000000
-5.052400 0.000000
-5.025500 0.000000
-4.998500 0.000000
-4.971600 0.000000
-4.944600 0.000000
-4.917700 0.000000
-4.890800 0.000000
-4.863800 0.000000
-4.836900 0.000000
-4.809900 0.000000
-4.783000 0.000000
-4.756000 0.000000
-4.729100 0.000000
-4.702100 0.000000
-4.675200 0.000000
-4.648300 0.000000
-4.621300 0.000000
-4.594400 0.000000
-4.567400 0.000000
-4.540500 0.000000
-4.513500 0.000000
-4.486600 0.000000
-4.459700 0.000000
-4.432700 0.000000
-4.405800 0.000000
-4.378800 0.000000
-4.351900 0.000000
-4.324900 0.000000
-4.298000 0.000000
-4.271000 0.000000
-4.244100 0.000000
-4.217200 0.000000
-4.190200 0.000000
-4.163300 0.000000
-4.136300 0.000000
-4.109400 0.000000
-4.082400 0.000000
-4.055500 0.000000
-4.028500 0.000000
-4.001600 0.000000
-3.974700 0.000000
-3.947700 0.000000
-3.920800 0.000000
-3.893800 0.000000
-3.866900 0.000000
-3.839900 0.000000
-3.813000 0.000000
-3.786100 0.000000
-3.759100 0.000000
-3.732200 0.000000
-3.705200 0.000000
-3.678300 0.000000
-3.651300 0.000000
-3.624400 0.000000
-3.597400 0.000000
-3.570500 0.000000
-3.543600 0.000000
-3.516600 0.000000
-3.489700 0.000000
-3.462700 0.000000
-3.435800 0.000000
-3.408800 0.000000
-3.381900 0.000000
-3.355000 0.000000
-3.328000 0.000000
-3.301100 0.000000
-3.274100 0.000000
-3.247200 0.000000
-3.220200 0.000000
-3.193300 0.000000
-3.166300 0.000000
-3.139400 0.000000
-3.112500 0.000000
-3.085500 0.000000
-3.058600 0.000000
-3.031600 0.000000
-3.004700 0.000000
-2.977700 0.000000
-2.950800 0.000000
-2.923900 0.000000
-2.896900 0.000000
-2.870000 0.000000
-2.843000 0.000000
-2.816100 0.000000
-2.789100 0.000000
-2.762200 0.000000
-2.735200 0.000000
-2.708300 0.000000
-2.681400 0.000000
-2.654400 0.000000
-2.627500 0.000000
-2.600500 0.000000
-2.573600 0.000000
-2.546600 0.000000
-2.519700 0.000000
-2.492700 0.000000
-2.465800 0.000000
-2.438900 0.000000
-2.411900 0.006100
-2.385000 0.028300
-2.358000 0.066900
-2.331100 0.124500
-2.304100 0.418200
-2.277200 0.626500
-2.250300 1.080300
-2.223300 1.394500
-2.196400 1.594300
-2.169400 1.784600
-2.142500 2.011700
-2.115500 2.205700
-2.088600 2.361400
-2.061600 2.519300
-2.034700 2.823600
-2.007800 3.084800
-1.980800 3.354300
-1.953900 3.713000
-1.926900 4.037000
-1.900000 4.253900
-1.873000 4.057100
-1.846100 4.086600
-1.819200 4.118200
-1.792200 4.154300
-1.765300 4.199200
-1.738300 4.937700
-1.711400 6.151400
-1.684400 7.396800
-1.657500 7.420600
-1.630500 7.348000
-1.603600 6.926900
-1.576700 7.035500
-1.549700 7.357800
-1.522800 7.236000
-1.495800 6.592500
-1.468900 6.126700
-1.441900 5.925800
-1.415000 5.733200
-1.388000 4.681300
-1.361100 4.695300
-1.334200 4.792800
-1.307200 5.202400
-1.280300 5.560200
-1.253300 5.906500
-1.226400 7.243900
-1.199400 9.024400
-1.172500 7.313000
-1.145600 5.243200
-1.118600 3.896300
-1.091700 2.499300
-1.064700 2.507300
-1.037800 2.528000
-1.010800 2.561200
-0.983900 2.603500
-0.956900 2.654000
-0.930000 2.760400
-0.903100 2.925200
-0.876100 3.105000
-0.849200 3.637700
-0.822200 4.021900
-0.795300 4.233800
-0.768300 4.366100
-0.741400 4.949700
-0.714500 5.818200
-0.687500 4.582600
-0.660600 2.192800
-0.633600 2.035100
-0.606700 1.891900
-0.579700 2.219100
-0.552800 2.718700
-0.525800 2.924800
-0.498900 3.129200
-0.472000 3.332400
-0.445000 3.908300
-0.418100 4.676700
-0.391100 5.369200
-0.364200 5.281700
-0.337200 5.296700
-0.310300 5.083400
-0.283400 4.909000
-0.256400 4.736200
-0.229500 4.551900
-0.202500 4.504500
-0.175600 4.597500
-0.148600 4.609600
-0.121700 4.680000
-0.094700 4.842000
-0.067800 5.051400
-0.040900 5.331000
-0.013900 5.668900
0.013000 6.515200
0.040000 7.047700
0.066900 7.247000
0.093900 8.243400
0.120800 7.442400
0.147800 7.315100
0.174700 6.315600
0.201600 5.342600
0.228600 4.726500
0.255500 4.403000
0.282500 3.434800
0.309400 1.888100
0.336400 1.602500
0.363300 1.492000
0.390200 2.024800
0.417200 4.363400
0.444100 6.235900
0.471100 7.954700
0.498000 8.153100
0.525000 8.215400
0.551900 7.847300
0.578900 5.146400
0.605800 4.766600
0.632700 4.203300
0.659700 3.090500
0.686600 2.417000
0.713600 2.074200
0.740500 1.886700
0.767500 1.800900
0.794400 1.758300
0.821300 1.837300
0.848300 1.890800
0.875200 2.733200
0.902200 2.344100
0.929100 2.713200
0.956100 3.155500
0.983000 3.708200
1.010000 7.172200
1.036900 12.378100
1.063800 10.590300
1.090800 8.682400
1.117700 6.894200
1.144700 6.697300
1.171600 5.464500
1.198600 4.442300
1.225500 3.757500
1.252500 3.371600
1.279400 3.294600
1.306300 3.098700
1.333300 3.064700
1.360200 3.105900
1.387200 3.106500
1.414100 3.175200
1.441100 3.224700
1.468000 3.243100
1.494900 3.082800
1.521900 3.132100
1.548800 3.234200
1.575800 3.153900
1.602700 2.843300
1.629700 2.693000
1.656600 2.559300
1.683600 2.387800
1.710500 2.202000
1.737400 2.001900
1.764400 1.535900
1.791300 1.342400
1.818300 1.154800
1.845200 0.972800
1.872200 0.794300
1.899100 0.620000
1.926000 0.460300
1.953000 0.320400
1.979900 0.200300
2.006900 0.005000
2.033800 0.000000
2.060800 0.000000
2.087700 0.000000
2.114700 0.000000
2.141600 0.000000
2.168500 0.000000
2.195500 0.000000
2.222400 0.000000
2.249400 0.000000
2.276300 0.000000
2.303300 0.000000
2.330200 0.000000
2.357100 0.000000
2.384100 0.000000
2.411000 0.000000
2.438000 0.000000
2.464900 0.000000
2.491900 0.000000
2.518800 0.000000
2.545800 0.000000
2.572700 0.000000
2.599600 0.000000
2.626600 0.000000
2.653500 0.000000
2.680500 0.000000
2.707400 0.000000
2.734400 0.000000
2.761300 0.000000
2.788300 0.000000
2.815200 0.000000
2.842100 0.000000
2.869100 0.000000
2.896000 0.000000
2.923000 0.000000
2.949900 0.000000
2.976900 0.000000
3.003800 0.000000
3.030700 0.000000
3.057700 0.000000
3.084600 0.000000
3.111600 0.000000
3.138500 0.000000
3.165500 0.000000
3.192400 0.000000
3.219400 0.000000
3.246300 0.000000
3.273200 0.000000
3.300200 0.000000
3.327100 0.000000
3.354100 0.000000
3.381000 0.000000
3.408000 0.000000
3.434900 0.000000
3.461800 0.000000
3.488800 0.000000
3.515700 0.000000
3.542700 0.000100
3.569600 0.000900
3.596600 0.002400
3.623500 0.004600
3.650500 0.007600
3.677400 0.011300
3.704300 0.015800
3.731300 0.020900
3.758200 0.026800
3.785200 0.033500
3.812100 0.040800
3.839100 0.048900
3.866000 0.057600
3.893000 0.066800
3.919900 0.076600
3.946800 0.086800
3.973800 0.097600
4.000700 0.109000
4.027700 0.121200
4.054600 0.136200
4.081600 0.150500
4.108500 0.164200
4.135400 0.177300
4.162400 0.189800
4.189300 0.201600
4.216300 0.212800
4.243200 0.223400
4.270200 0.233300
4.297100 0.241500
4.324100 0.249300
4.351000 0.257300
4.377900 0.265600
4.404900 0.275000
4.431800 0.285700
4.458800 0.297500
4.485700 0.310600
4.512700 0.324900
4.539600 0.340400
4.566500 1.208000
4.593500 0.771100
4.620400 0.824100
4.647400 0.876800
4.674300 0.929400
4.701300 0.981800
4.728200 1.034000
4.755200 1.086000
4.782100 1.137900
4.809000 1.189600
4.836000 1.241100
4.862900 1.292400
4.889900 1.360900
4.916800 1.407700
4.943800 1.460500
4.970700 1.519800
4.997600 2.007700
5.024600 2.255800
5.051500 2.390900
5.078500 2.496100
5.105400 2.488700
5.132400 2.424400
5.159300 2.327900
5.186300 2.331000
5.213200 2.317800
5.240100 2.288300
5.267100 2.242500
5.294000 2.177800
5.321000 2.088100
5.347900 2.153100
5.374900 2.289500
5.401800 2.178000
5.428800 1.951500
5.455700 1.780900
5.482600 1.658400
5.509600 1.406400
5.536500 1.179900
5.563500 0.989000
5.590400 0.820600
5.617400 0.791000
5.644300 0.679900
5.671200 0.575500
5.698200 0.477600
5.725100 0.386400
5.752100 0.301700
5.779000 0.223700
5.806000 0.000000
5.832900 0.000000
5.859900 0.000000
5.886800 0.000000
5.913700 0.000000
5.940700 0.000000
5.967600 0.000000
5.994600 0.000000
6.021500 0.000000
6.048500 0.000000
6.075400 0.000000
6.102300 0.000000
6.129300 0.000000
6.156200 0.000000
6.183200 0.000000
6.210100 0.000000
6.237100 0.000000
6.264000 0.000000
6.291000 0.019500
6.317900 0.050800
6.344800 0.085500
6.371800 0.123400
6.398700 0.164700
6.425700 0.209300
6.452600 0.255200
6.479600 0.283200
6.506500 0.316300
6.533500 0.354400
6.560400 1.135900
6.587300 1.851600
6.614300 2.140700
6.641200 2.358400
6.668200 2.896900
6.695100 3.574800
6.722100 4.364300
6.749000 5.419300
6.775900 6.689400
6.802900 7.093300
6.829800 6.517100
6.856800 6.089600
6.883700 5.874100
6.910700 5.325100
6.937600 5.738200
6.964600 4.564600
6.991500 3.839600
7.018400 3.409600
7.045400 3.146600
7.072300 2.927800
7.099300 2.754000
7.126200 2.593500
7.153200 2.400400
7.180100 2.290300
7.207000 2.533300
7.234000 2.373700
7.260900 1.813000
7.287900 1.844000
7.314800 1.882300
7.341800 1.924900
7.368700 1.970700
7.395700 2.027800
7.422600 2.116800
7.449500 2.240900
7.476500 2.380500
7.503400 2.599900
7.530400 2.816700
7.557300 2.683700
7.584300 2.369600
7.611200 2.070200
7.638100 2.067700
7.665100 2.167700
7.692000 2.654400
7.719000 3.126900
7.745900 3.471900
7.772900 4.423600
7.799800 4.378600
7.826800 4.899700
7.853700 5.025900
7.880600 4.823300
7.907600 4.597800
7.934500 4.483900
7.961500 4.432500
7.988400 3.872300
8.015400 3.296600
8.042300 2.420900
8.069300 2.228800
8.096200 2.077300
8.123100 1.951200
8.150100 3.020000
8.177000 3.253100
8.204000 4.702700
8.230900 3.634900
8.257900 3.679400
8.284800 3.908000
8.311700 4.073300
8.338700 4.197700
8.365600 4.281200
8.392600 4.319400
8.419500 4.218700
8.446500 4.195800
8.473400 4.368600
8.500400 4.537900
8.527300 4.722700
8.554200 4.905500
8.581200 4.754500
8.608100 4.449700
8.635100 4.235500
8.662000 3.684800
8.689000 3.508300
8.715900 3.407800
8.742800 3.962100
8.769800 3.434200
8.796700 3.243800
8.823700 3.147800
8.850600 3.286800
8.877600 3.276600
8.904500 3.208300
8.931500 3.308800
8.958400 3.343700
8.985300 3.429800
9.012300 3.548900
9.039200 3.689400
9.066200 3.908100
9.093100 4.068000
9.120100 4.165600
9.147000 4.322900
9.174000 4.427500
9.200900 4.386700
9.227800 4.298300
9.254800 3.962400
9.281700 3.046300
9.308700 2.376300
9.335600 1.681800
9.362600 1.245500
9.389500 0.934700
9.416400 0.765400
9.443400 0.740700
9.470300 0.855500
9.497300 1.030800
9.524200 1.260400
9.551200 1.860100
9.578100 2.521500
9.605100 3.387100
9.632000 5.372300
9.658900 7.645700
9.685900 7.720400
9.712800 7.081600
9.739800 6.390700
9.766700 5.544200
9.793700 3.994700
9.820600 3.284300
9.847500 2.582800
9.874500 1.957200
9.901400 3.506300
9.928400 3.933400
9.955300 4.193100
9.982300 4.019900
10.009200 4.484300
10.036200 5.385500
10.063100 8.114700
10.090000 8.052800
10.117000 9.799500
10.143900 8.770700
10.170900 5.089100
10.197800 2.783800
10.224800 1.660700
10.251700 1.178100
10.278600 1.086200
10.305600 1.807500
10.332500 3.791400
10.359500 5.084800
10.386400 4.967600
10.413400 5.969400
10.440300 7.838400
10.467300 6.152700
10.494200 6.077200
10.521100 5.172900
10.548100 4.508200
10.575000 4.233400
10.602000 3.815400
10.628900 3.530900
10.655900 3.308200
10.682800 2.787900
10.709800 2.407700
10.736700 1.839600
10.763600 1.423400
10.790600 1.122500
10.817500 0.963000
10.844500 3.571800
10.871400 0.592800
10.898400 0.399300
10.925300 0.236300
10.952200 0.000000
10.979200 0.020800
11.006100 0.130400
11.033100 0.370000
11.060000 0.826900
11.087000 1.517700
11.113900 3.740300
11.140900 4.387200
11.167800 5.425600
11.194700 6.008700
11.221700 5.910200
11.248600 5.407500
11.275600 5.045100
11.302500 4.784500
11.329500 4.628200
11.356400 4.219100
11.383300 3.986000
11.410300 3.743000
11.437200 4.257700
11.464200 3.870200
11.491100 2.419000
11.518100 0.866300
11.545000 0.411300
11.572000 0.439500
11.598900 0.510500
11.625800 0.586200
11.652800 0.666600
11.679700 0.751800
11.706700 0.841600
11.733600 0.936200
11.760600 1.042200
11.787500 1.248300
11.814500 1.692000
11.841400 2.651100
11.868300 3.994000
11.895300 5.906900
11.922200 10.468500
11.949200 9.217200
11.976100 7.196800
12.003100 5.175900
12.030000 4.106700
12.056900 3.387000
12.083900 2.631700
12.110800 1.845300
12.137800 1.800700
12.164700 2.064300
12.191700 2.322700
12.218600 2.708800
12.245600 3.601600
12.272500 3.941500
12.299400 4.163100
12.326400 4.052800
12.353300 3.905400
12.380300 3.653300
12.407200 3.321400
12.434200 2.892200
12.461100 2.716900
12.488000 2.607300
12.515000 2.448100
12.541900 2.289300
12.568900 2.155800
12.595800 2.028800
12.622800 1.908400
12.649700 1.794600
12.676700 1.689100
12.703600 1.595800
12.730500 1.515000
12.757500 1.447300
12.784400 1.385400
12.811400 1.326500
12.838300 1.108500
12.865300 1.059300
12.892200 1.013800
12.919100 0.972200
12.946100 1.554700
12.973000 1.893200
13.000000 3.307400
13.026900 2.692500
13.053900 2.649300
13.080800 2.652100
13.107800 2.749000
13.134700 2.806400
13.161600 2.635300
13.188600 2.442400
13.215500 2.600200
13.242500 2.614800
13.269400 2.702600
13.296400 2.837000
13.323300 3.019800
13.350300 3.089500
13.377200 3.097200
13.404100 3.103300
13.431100 2.983600
13.458000 2.968600
13.485000 5.413700
13.511900 2.771100
13.538900 2.677200
13.565800 2.500500
13.592700 2.359400
13.619700 2.258200
13.646600 2.161000
13.673600 2.067900
13.700500 1.978800
13.727500 1.894200
13.754400 1.666500
13.781400 1.650600
13.808300 1.638000
13.835200 1.628700
13.862200 1.641600
13.889100 1.667700
13.916100 1.587400
13.943000 1.609100
13.970000 1.631900
13.996900 1.646300
14.023800 1.651700
14.050800 1.633500
14.077700 1.568700
14.104700 1.486600
14.131600 1.473800
14.158600 1.393000
14.185500 1.318700
14.212500 1.309600
14.239400 1.357300
14.266300 1.400700
14.293300 1.444500
14.320200 1.488400
14.347200 1.531300
14.374100 1.573100
14.401100 1.734700
14.428000 1.757300
14.455000 1.775400
14.481900 1.789000
14.508800 1.798300
14.535800 1.812600
14.562700 1.823000
14.589700 1.843100
14.616600 1.876600
14.643600 1.894500
14.670500 1.896900
14.697400 1.884300
14.724400 1.859300
14.751300 2.198400
14.778300 1.455000
14.805200 1.316200
14.832200 1.202000
14.859100 1.112400
14.886100 1.039200
14.913000 0.970700
14.939900 0.909900
14.966900 0.856500
14.993800 0.807200
15.020800 0.761900
15.047700 0.693500
15.074700 0.628500
15.101600 0.573400
15.128500 0.530700
15.155500 0.501400
15.182400 0.459200
15.209400 0.480300
15.236300 0.504600
15.263300 0.534400
15.290200 0.572500
15.317200 0.612200
15.344100 0.653500
15.371000 0.887200
15.398000 1.002700
15.424900 1.128100
15.451900 1.263600
15.478800 1.398000
15.505800 1.479500
15.532700 1.554500
15.559600 1.594800
15.586600 1.613600
15.613500 1.610900
15.640500 1.457900
15.667400 1.401200
15.694400 1.344800
15.721300 1.483700
15.748300 1.354400
15.775200 1.233000
15.802100 1.119500
15.829100 0.840700
15.856000 0.809400
15.883000 0.781000
15.909900 0.769200
15.936900 0.808400
15.963800 0.968100
15.990800 1.623000
16.017700 1.842800
16.044600 1.997600
16.071600 2.060800
16.098500 2.093400
16.125500 2.088300
16.152400 2.106800
16.179400 2.138600
16.206300 2.201000
16.233200 2.287100
16.260200 2.323700
16.287100 2.311800
16.314100 2.312000
16.341000 2.328300
16.368000 2.360800
16.394900 2.409500
16.421900 2.700200
16.448800 2.369100
16.475700 2.354100
16.502700 2.501200
16.529600 2.572000
16.556600 2.613500
16.583500 2.625600
16.610500 2.651100
16.637400 2.686500
16.664300 2.714900
16.691300 2.715400
16.718200 2.910200
16.745200 2.626600
16.772100 2.465200
16.799100 2.435800
16.826000 2.457300
16.853000 2.504500
16.879900 2.533200
16.906800 2.526200
16.933800 2.513700
16.960700 2.495900
16.987700 2.474100
17.014600 2.450800
17.041600 2.426200
17.068500 2.400200
17.095500 2.373200
17.122400 2.346300
17.149300 2.750000
17.176300 2.299900
17.203200 2.356200
17.230200 2.399100
17.257100 2.238800
17.284100 2.149800
17.311000 2.072200
17.337900 2.020500
17.364900 2.037900
17.391800 2.084900
17.418800 2.084000
17.445700 2.127900
17.472700 2.217400
17.499600 2.254800
17.526600 2.291000
17.553500 2.208200
17.580400 2.223400
17.607400 2.267600
17.634300 2.299600
17.661300 2.343400
17.688200 2.366000
17.715200 2.381000
17.742100 2.391400
17.769000 2.406700
17.796000 2.423100
17.822900 2.438900
17.849900 2.460500
17.876800 2.483100
17.903800 2.454900
17.930700 2.409700
17.957700 2.358200
17.984600 2.266900
18.011500 2.200500
18.038500 2.138600
18.065400 2.081200
18.092400 2.028100
18.119300 1.979500
18.146300 1.935300
18.173200 1.837900
18.200100 1.843600
18.227100 1.884500
18.254000 1.981800
18.281000 2.085000
18.307900 2.082300
18.334900 1.926400
18.361800 1.873600
18.388800 1.850700
18.415700 1.893600
18.442600 1.890200
18.469600 1.887400
18.496500 1.885300
18.523500 1.884000
18.550400 1.883300
18.577400 1.883300
18.604300 1.885600
18.631300 1.859600
18.658200 1.873500
18.685100 1.891200
18.712100 1.910500
18.739000 1.941300
18.766000 1.995600
18.792900 2.832000
18.819900 2.622700
18.846800 2.414300
18.873700 2.272400
18.900700 2.308200
18.927600 2.342700
18.954600 2.375100
18.981500 2.545100
19.008500 2.585800
19.035400 2.624100
19.062400 2.660900
19.089300 2.696300
19.116200 2.541400
19.143200 2.515900
19.170100 2.535200
19.197100 2.533200
19.224000 2.562400
19.251000 2.601200
19.277900 2.642700
19.304800 2.451000
19.331800 2.579700
19.358700 2.663800
19.385700 3.436700
19.412600 3.317900
19.439600 3.142400
19.466500 3.030400
19.493500 2.385300
19.520400 2.292200
19.547300 2.238500
19.574300 2.192900
19.601200 2.147800
19.628200 1.881700
19.655100 1.906400
19.682100 1.941400
19.709000 1.841300
19.736000 1.842800
19.762900 1.808700
19.789800 1.767900
19.816800 1.647800
19.843700 1.604900
19.870700 1.564800
19.897600 1.530200
19.924600 1.500900
19.951500 1.475300
19.978400 1.799700
20.005400 2.378600
20.032300 1.852300
20.059300 1.897500
20.086200 1.957300
20.113200 2.026400
20.140100 2.152300
20.167100 2.239900
20.194000 2.333500
20.220900 2.403500
20.247900 2.452800
20.274800 2.494300
20.301800 2.526100
20.328700 2.529000
20.355700 2.539000
20.382600 2.543500
20.409500 2.542600
20.436500 2.535100
20.463400 2.512000
20.490400 2.438900
20.517300 2.457300
20.544300 2.565700
20.571200 2.655200
20.598200 2.694500
20.625100 2.751800
20.652000 2.832300
20.679000 3.952200
20.705900 4.009300
20.732900 3.939200
20.759800 3.268900
20.786800 3.325400
20.813700 3.389900
20.840700 3.336300
20.867600 3.463000
20.894500 3.510100
20.921500 3.447100
20.948400 3.356000
20.975400 3.417400
21.002300 3.457200
21.029300 3.498200
21.056200 3.543900
21.083100 3.570000
21.110100 3.583900
21.137000 3.404800
21.164000 3.487200
21.190900 3.560900
21.217900 3.587900
21.244800 3.596900
21.271800 3.560400
21.298700 3.514500
21.325600 3.470600
21.352600 3.763100
21.379500 3.496000
21.406500 2.431000
21.433400 2.113200
21.460400 1.899100
21.487300 1.728900
21.514200 1.537300
21.541200 1.692700
21.568100 1.868500
21.595100 2.220800
21.622000 2.557100
21.649000 2.637900
21.675900 2.718600
21.702900 2.797300
21.729800 2.888200
21.756700 3.018000
21.783700 3.379900
21.810600 3.480700
21.837600 3.563500
21.864500 3.066800
21.891500 3.108300
21.918400 3.147700
21.945300 3.224800
21.972300 3.310800
21.999200 3.373200
22.026200 3.410500
22.053100 3.378900
22.080100 3.038200
22.107000 2.910400
22.134000 2.793300
22.160900 2.743200
22.187800 2.445300
22.214800 2.165700
22.241700 1.669600
22.268700 1.669100
22.295600 1.669400
22.322600 1.670700
22.349500 1.672900
22.376500 1.679700
22.403400 1.751300
22.430300 1.900500
22.457300 2.057500
22.484200 3.621400
22.511200 3.859400
22.538100 3.135400
22.565100 3.387200
22.592000 3.640500
22.618900 3.928000
22.645900 3.705000
22.672800 3.741600
22.699800 3.660700
22.726700 3.553100
22.753700 3.318700
22.780600 3.032600
22.807600 2.830900
22.834500 2.608800
22.861400 2.373200
22.888400 2.302100
22.915300 2.411500
22.942300 2.617800
22.969200 2.806100
22.996200 3.859200
23.023100 4.086200
23.050000 4.344100
23.077000 4.658600
23.103900 4.960900
23.130900 4.961400
23.157800 4.810400
23.184800 4.564100
23.211700 4.045600
23.238700 3.591000
23.265600 3.200800
23.292500 2.878800
23.319500 2.641300
23.346400 2.466600
23.373400 2.297500
23.400300 2.137300
23.427300 1.954200
23.454200 1.796300
23.481200 1.705100
23.508100 1.737000
23.535000 1.793700
23.562000 1.870600
23.588900 1.928000
23.615900 1.939600
23.642800 1.983800
23.669800 2.033100
23.696700 2.342600
23.723600 3.601800
23.750600 3.289300
23.777500 2.713500
23.804500 2.248900
23.831400 2.216900
23.858400 2.177200
23.885300 2.149100
23.912300 2.134200
23.939200 2.132500
23.966100 2.143400
23.993100 2.164700
24.020000 2.194700
24.047000 2.309100
24.073900 2.632900
24.100900 3.409400
24.127800 3.738900
24.154700 4.226600
24.181700 4.316600
24.208600 4.260800
24.235600 4.072100
24.262500 3.056200
24.289500 2.632700
24.316400 2.214900
24.343400 1.884000
24.370300 1.616700
24.397200 1.626100
24.424200 2.008500
24.451100 2.087200
24.478100 2.173400
24.505000 2.269100
24.532000 1.943500
24.558900 1.992700
24.585800 2.090900
24.612800 2.246700
24.639700 2.411400
24.666700 2.704200
24.693600 2.788100
24.720600 2.869800
24.747500 2.949300
24.774500 3.026600
24.801400 3.106300
24.828300 2.931400
24.855300 2.738600
24.882200 2.765200
24.909200 3.116000
24.936100 3.394000
24.963100 3.466000
24.990000 3.490800
25.017000 3.354100
25.043900 3.147500
25.070800 2.900400
25.097800 2.637600
25.124700 2.555000
25.151700 2.545500
25.178600 2.570800
25.205600 2.809800
25.232500 2.994800
25.259400 3.281400
25.286400 4.118300
25.313300 3.536900
25.340300 3.575700
25.367200 3.625500
25.394200 3.524600
25.421100 3.611300
25.448100 3.690800
25.475000 3.606700
25.501900 3.665900
25.528900 3.698800
25.555800 3.719700
25.582800 3.728600
25.609700 4.273200
25.636700 3.970900
25.663600 3.609000
25.690500 3.140200
25.717500 2.867300
25.744400 2.727800
25.771400 2.626500
25.798300 2.525700
25.825300 2.424300
25.852200 2.321900
25.879200 2.218800
25.906100 2.221600
25.933000 2.279600
25.960000 2.236700
25.986900 2.165100
26.013900 2.197400
26.040800 2.304300
26.067800 2.450400
26.094700 2.637300
26.121700 2.735800
26.148600 2.797100
26.175500 2.885800
26.202500 2.996600
26.229400 3.129200
26.256400 3.247500
26.283300 3.327400
26.310300 3.379100
26.337200 3.758600
26.364100 3.896300
26.391100 3.963400
26.418000 3.934300
26.445000 3.828700
26.471900 3.685200
26.498900 3.534600
26.525800 3.425000
26.552800 3.344300
26.579700 3.319800
26.606600 3.130900
26.633600 2.899300
26.660500 2.665400
26.687500 2.440100
26.714400 2.104100
26.741400 1.938100
26.768300 1.773400
26.795200 1.609300
26.822200 1.455900
26.849100 1.313000
26.876100 1.150700
26.903000 1.707000
26.930000 3.049000
26.956900 3.880700
26.983900 3.771300
27.010800 3.633200
27.037700 3.582300
27.064700 3.593000
27.091600 3.635900
27.118600 3.665300
27.145500 3.681100
27.172500 3.683400
27.199400 3.672100
27.226300 3.647400
27.253300 3.609800
27.280200 3.803100
27.307200 5.001300
27.334100 3.113800
27.361100 2.714600
27.388000 2.362800
27.415000 2.198500
27.441900 2.051200
27.468800 2.082500
27.495800 2.250300
27.522700 1.926700
27.549700 1.651300
27.576600 1.080800
27.603600 1.116400
27.630500 1.528800
27.657500 1.093500
27.684400 0.835100
27.711300 0.650900
27.738300 0.506600
27.765200 0.382400
27.792200 0.317800
27.819100 0.267600
27.846100 0.222800
27.873000 0.183400
27.899900 0.058800
27.926900 0.052600
27.953800 0.046600
27.980800 0.041000
28.007700 0.035700
28.034700 0.030700
28.061600 0.026000
28.088600 0.021600
28.115500 0.000000
28.142400 0.000000
28.169400 0.000000
28.196300 0.000000
28.223300 0.000000
28.250200 0.000000
28.277200 0.000000
28.304100 0.000000
28.331000 0.000000
28.358000 0.000000
28.384900 0.000000
28.411900 0.000000
28.438800 0.000000
28.465800 0.000000
28.492700 0.000000
28.519700 0.000000
28.546600 0.000000
28.573500 0.000000
28.600500 0.000000
28.627400 0.000000
28.654400 0.000000
28.681300 0.000000
28.708300 0.000000
28.735200 0.000000
28.762200 0.000000
28.789100 0.000000
28.816000 0.000000
28.843000 0.000000
28.869900 0.000000
28.896900 0.000000
28.923800 0.000000
28.950800 0.000000
28.977700 0.000000
29.004600 0.000000
29.031600 0.000000
29.058500 0.000000
29.085500 0.000000
29.112400 0.000000
29.139400 0.000000
29.166300 0.000000
29.193300 0.000000
29.220200 0.000000
29.247100 0.000000
29.274100 0.000000
29.301000 0.000000
29.328000 0.000000
29.354900 0.000000
29.381900 0.000000
29.408800 0.000000
29.435700 0.000000
29.462700 0.000000
29.489600 0.000000
29.516600 0.000000
29.543500 0.000000
29.570500 0.000000
29.597400 0.000000
29.624400 0.000000
29.651300 0.000000
29.678200 0.000000
29.705200 0.000000
29.732100 0.000000
29.759100 0.000000
29.786000 0.000000
29.813000 0.000000
29.839900 0.000000
29.866800 0.000000
29.893800 0.000000
29.920700 0.000000
29.947700 0.000000
29.974600 0.000000
30.001600 0.000000
30.028500 0.000000
30.055500 0.000000
30.082400 0.000000
30.109300 0.000000
30.136300 0.000000
30.163200 0.000000
30.190200 0.000000
30.217100 0.000000
30.244100 0.000000
30.271000 0.000000
30.298000 0.000000
30.324900 0.000000
30.351800 0.000000
30.378800 0.000000
30.405700 0.000000
30.432700 0.000000
30.459600 0.000000
30.486600 0.000000
30.513500 0.000000
30.540400 0.000000
e
