set title 'mp-1216474 - Density of States'
set xlabel 'Energy (eV)'
set ylabel 'DOS (states/eV)'
set grid
set xrange [-10:10]
set yrange [0:17.226]
set xzeroaxis lt -1
set terminal png size 800,600
set output 'mp-1216474_dos_gnuplot.png'
plot '-' using 1:2 with lines title 'DOS'
-34.743900 0.000000
-34.709100 0.000000
-34.674300 0.000000
-34.639500 0.000000
-34.604600 0.000000
-34.569800 0.000000
-34.535000 0.000000
-34.500200 0.000000
-34.465400 0.000000
-34.430600 0.000000
-34.395700 0.000000
-34.360900 0.000000
-34.326100 0.000000
-34.291300 0.000000
-34.256500 0.000000
-34.221700 0.000000
-34.186800 0.000000
-34.152000 0.000000
-34.117200 0.000000
-34.082400 0.000000
-34.047600 0.000000
-34.012800 0.000000
-33.978000 0.000000
-33.943100 0.000000
-33.908300 0.000000
-33.873500 0.000000
-33.838700 0.000000
-33.803900 0.000000
-33.769100 0.000000
-33.734200 0.000000
-33.699400 0.000000
-33.664600 0.000000
-33.629800 0.000000
-33.595000 0.000000
-33.560200 0.000000
-33.525300 0.000000
-33.490500 0.000000
-33.455700 0.000000
-33.420900 0.000000
-33.386100 0.000000
-33.351300 0.000000
-33.316400 0.000000
-33.281600 0.000000
-33.246800 0.000000
-33.212000 0.000000
-33.177200 0.000000
-33.142400 0.000000
-33.107500 0.000000
-33.072700 0.000000
-33.037900 0.000000
-33.003100 0.000000
-32.968300 0.000000
-32.933500 0.000000
-32.898600 0.000000
-32.863800 0.000000
-32.829000 0.000000
-32.794200 0.000000
-32.759400 0.000000
-32.724600 0.000000
-32.689700 0.000000
-32.654900 0.000000
-32.620100 0.000000
-32.585300 0.000000
-32.550500 0.000000
-32.515700 0.000000
-32.480800 0.000000
-32.446000 0.000000
-32.411200 0.000000
-32.376400 0.000000
-32.341600 0.000000
-32.306800 0.000000
-32.271900 0.000000
-32.237100 0.000000
-32.202300 0.000000
-32.167500 0.000000
-32.132700 0.000000
-32.097900 0.000000
-32.063000 0.000000
-32.028200 0.000000
-31.993400 0.000000
-31.958600 0.000000
-31.923800 0.000000
-31.889000 0.000000
-31.854100 0.000000
-31.819300 0.000000
-31.784500 0.000000
-31.749700 0.000000
-31.714900 0.000000
-31.680100 0.000000
-31.645200 0.000000
-31.610400 0.000000
-31.575600 3.325300
-31.540800 12.666300
-31.506000 12.861000
-31.471200 17.393500
-31.436400 87.759300
-31.401500 10.364900
-31.366700 14.617700
-31.331900 42.558600
-31.297100 24.880500
-31.262300 22.543400
-31.227500 29.054200
-31.192600 19.865200
-31.157800 20.879800
-31.123000 15.881700
-31.088200 56.715300
-31.053400 9.160300
-31.018600 8.404700
-30.983700 12.055500
-30.948900 30.645300
-30.914100 42.107200
-30.879300 14.110900
-30.844500 0.000000
-30.809700 26.529200
-30.774800 8.663200
-30.740000 8.575600
-30.705200 11.039900
-30.670400 15.677500
-30.635600 19.647000
-30.600800 13.934100
-30.565900 326.951100
-30.531100 0.000000
-30.496300 0.000000
-30.461500 0.000000
-30.426700 0.000000
-30.391900 0.000000
-30.357000 0.000000
-30.322200 0.000000
-30.287400 0.000000
-30.252600 0.000000
-30.217800 0.000000
-30.183000 0.000000
-30.148100 0.000000
-30.113300 0.000000
-30.078500 0.000000
-30.043700 0.000000
-30.008900 0.000000
-29.974100 0.000000
-29.939200 0.000000
-29.904400 0.000000
-29.869600 0.000000
-29.834800 0.000000
-29.800000 0.000000
-29.765200 0.000000
-29.730300 0.000000
-29.695500 0.000000
-29.660700 0.000000
-29.625900 0.000000
-29.591100 0.000000
-29.556300 0.000000
-29.521400 0.000000
-29.486600 0.000000
-29.451800 0.000000
-29.417000 0.000000
-29.382200 0.000000
-29.347400 0.000000
-29.312500 0.000000
-29.277700 0.000000
-29.242900 0.000000
-29.208100 0.000000
-29.173300 0.000000
-29.138500 0.000000
-29.103700 0.000000
-29.068800 0.000000
-29.034000 0.000000
-28.999200 0.000000
-28.964400 0.000000
-28.929600 0.000000
-28.894800 0.000000
-28.859900 0.000000
-28.825100 0.000000
-28.790300 0.000000
-28.755500 0.000000
-28.720700 0.000000
-28.685900 0.000000
-28.651000 0.000000
-28.616200 0.000000
-28.581400 0.000000
-28.546600 0.000000
-28.511800 0.000000
-28.477000 0.000000
-28.442100 0.000000
-28.407300 0.000000
-28.372500 0.000000
-28.337700 0.000000
-28.302900 0.000000
-28.268100 0.000000
-28.233200 0.000000
-28.198400 0.000000
-28.163600 0.000000
-28.128800 0.000000
-28.094000 0.000000
-28.059200 0.000000
-28.024300 0.000000
-27.989500 0.000000
-27.954700 0.000000
-27.919900 0.000000
-27.885100 0.000000
-27.850300 0.000000
-27.815400 0.000000
-27.780600 0.000000
-27.745800 0.000000
-27.711000 0.000000
-27.676200 0.000000
-27.641400 0.000000
-27.606500 0.000000
-27.571700 0.000000
-27.536900 0.000000
-27.502100 0.000000
-27.467300 0.000000
-27.432500 0.000000
-27.397600 0.000000
-27.362800 0.000000
-27.328000 0.000000
-27.293200 0.000000
-27.258400 0.000000
-27.223600 0.000000
-27.188700 0.000000
-27.153900 0.000000
-27.119100 0.000000
-27.084300 0.000000
-27.049500 0.000000
-27.014700 0.000000
-26.979800 0.000000
-26.945000 0.000000
-26.910200 0.000000
-26.875400 0.000000
-26.840600 0.000000
-26.805800 0.000000
-26.770900 0.000000
-26.736100 0.000000
-26.701300 0.000000
-26.666500 0.000000
-26.631700 0.000000
-26.596900 0.000000
-26.562100 0.000000
-26.527200 0.000000
-26.492400 0.000000
-26.457600 0.000000
-26.422800 0.000000
-26.388000 0.000000
-26.353200 0.000000
-26.318300 0.000000
-26.283500 0.000000
-26.248700 0.000000
-26.213900 0.000000
-26.179100 0.000000
-26.144300 0.000000
-26.109400 0.000000
-26.074600 0.000000
-26.039800 0.000000
-26.005000 0.000000
-25.970200 0.000000
-25.935400 0.000000
-25.900500 0.000000
-25.865700 0.000000
-25.830900 0.000000
-25.796100 0.000000
-25.761300 0.000000
-25.726500 0.000000
-25.691600 0.000000
-25.656800 0.000000
-25.622000 0.000000
-25.587200 0.000000
-25.552400 0.000000
-25.517600 0.000000
-25.482700 0.000000
-25.447900 0.000000
-25.413100 0.000000
-25.378300 0.000000
-25.343500 0.000000
-25.308700 0.000000
-25.273800 0.000000
-25.239000 0.000000
-25.204200 0.000000
-25.169400 0.000000
-25.134600 0.000000
-25.099800 0.000000
-25.064900 0.000000
-25.030100 0.000000
-24.995300 0.000000
-24.960500 0.000000
-24.925700 0.000000
-24.890900 0.000000
-24.856000 0.000000
-24.821200 0.000000
-24.786400 0.000000
-24.751600 0.000000
-24.716800 0.000000
-24.682000 0.000000
-24.647100 0.000000
-24.612300 0.000000
-24.577500 0.000000
-24.542700 0.000000
-24.507900 0.000000
-24.473100 0.000000
-24.438200 0.000000
-24.403400 0.000000
-24.368600 0.000000
-24.333800 0.000000
-24.299000 0.000000
-24.264200 0.000000
-24.229400 0.000000
-24.194500 0.000000
-24.159700 0.000000
-24.124900 0.000000
-24.090100 0.000000
-24.055300 0.000000
-24.020500 0.000000
-23.985600 0.000000
-23.950800 0.000000
-23.916000 0.000000
-23.881200 0.000000
-23.846400 0.000000
-23.811600 0.000000
-23.776700 0.000000
-23.741900 0.000000
-23.707100 0.000000
-23.672300 0.000000
-23.637500 0.000000
-23.602700 0.000000
-23.567800 0.000000
-23.533000 0.000000
-23.498200 0.000000
-23.463400 0.000000
-23.428600 0.000000
-23.393800 0.000000
-23.358900 0.000000
-23.324100 0.000000
-23.289300 0.000000
-23.254500 0.000000
-23.219700 0.000000
-23.184900 0.000000
-23.150000 0.000000
-23.115200 0.000000
-23.080400 0.000000
-23.045600 0.000000
-23.010800 0.000000
-22.976000 0.000000
-22.941100 0.000000
-22.906300 0.000000
-22.871500 0.000000
-22.836700 0.000000
-22.801900 0.000000
-22.767100 0.000000
-22.732200 0.000000
-22.697400 0.000000
-22.662600 0.000000
-22.627800 0.000000
-22.593000 0.000000
-22.558200 0.000000
-22.523300 0.000000
-22.488500 0.000000
-22.453700 0.000000
-22.418900 0.000000
-22.384100 0.000000
-22.349300 0.000000
-22.314400 0.000000
-22.279600 0.000000
-22.244800 0.000000
-22.210000 0.000000
-22.175200 0.000000
-22.140400 0.000000
-22.105500 0.000000
-22.070700 0.000000
-22.035900 0.000000
-22.001100 0.000000
-21.966300 0.000000
-21.931500 0.000000
-21.896600 0.000000
-21.861800 0.000000
-21.827000 0.000000
-21.792200 0.000000
-21.757400 0.000000
-21.722600 0.000000
-21.687800 0.000000
-21.652900 0.000000
-21.618100 0.000000
-21.583300 0.000000
-21.548500 0.000000
-21.513700 0.000000
-21.478900 0.000000
-21.444000 0.000000
-21.409200 0.000000
-21.374400 0.000000
-21.339600 0.000000
-21.304800 0.000000
-21.270000 0.000000
-21.235100 0.000000
-21.200300 0.000000
-21.165500 0.000000
-21.130700 0.000000
-21.095900 0.000000
-21.061100 0.000000
-21.026200 0.000000
-20.991400 0.000000
-20.956600 0.000000
-20.921800 0.000000
-20.887000 0.000000
-20.852200 0.000000
-20.817300 0.000000
-20.782500 0.000000
-20.747700 0.000000
-20.712900 0.000000
-20.678100 0.000000
-20.643300 0.000000
-20.608400 0.000000
-20.573600 0.000000
-20.538800 0.000000
-20.504000 0.000000
-20.469200 0.000000
-20.434400 0.000000
-20.399500 0.000000
-20.364700 0.000000
-20.329900 0.000000
-20.295100 0.000000
-20.260300 0.000000
-20.225500 0.000000
-20.190600 0.000000
-20.155800 0.000000
-20.121000 0.000000
-20.086200 0.000000
-20.051400 0.000000
-20.016600 0.000000
-19.981700 0.000000
-19.946900 0.000000
-19.912100 0.000000
-19.877300 0.000000
-19.842500 0.000000
-19.807700 0.000000
-19.772800 0.000000
-19.738000 0.000000
-19.703200 0.000000
-19.668400 0.000000
-19.633600 0.000000
-19.598800 0.000000
-19.563900 0.000000
-19.529100 0.000000
-19.494300 0.000000
-19.459500 0.000000
-19.424700 0.000000
-19.389900 0.000000
-19.355100 0.000000
-19.320200 0.000000
-19.285400 0.000000
-19.250600 0.000000
-19.215800 0.000000
-19.181000 0.000000
-19.146200 0.000000
-19.111300 0.000000
-19.076500 0.000000
-19.041700 0.000000
-19.006900 0.000000
-18.972100 0.000000
-18.937300 0.000000
-18.902400 0.000000
-18.867600 0.000000
-18.832800 0.000000
-18.798000 0.000000
-18.763200 0.000000
-18.728400 0.000000
-18.693500 0.000000
-18.658700 0.000000
-18.623900 0.000000
-18.589100 0.000000
-18.554300 0.000000
-18.519500 0.000000
-18.484600 0.000000
-18.449800 0.000000
-18.415000 0.000000
-18.380200 0.000000
-18.345400 0.000000
-18.310600 0.000000
-18.275700 0.000000
-18.240900 0.000000
-18.206100 0.000000
-18.171300 0.000000
-18.136500 0.000000
-18.101700 0.000000
-18.066800 0.000000
-18.032000 0.000000
-17.997200 0.000000
-17.962400 0.000000
-17.927600 0.000000
-17.892800 0.000000
-17.857900 0.000000
-17.823100 0.000000
-17.788300 0.000000
-17.753500 0.000000
-17.718700 0.000000
-17.683900 0.000000
-17.649000 0.000000
-17.614200 0.000000
-17.579400 0.000000
-17.544600 0.000000
-17.509800 0.000000
-17.475000 0.000000
-17.440100 0.000000
-17.405300 0.000000
-17.370500 0.000000
-17.335700 0.000000
-17.300900 0.000000
-17.266100 0.000000
-17.231200 0.000000
-17.196400 0.000000
-17.161600 0.000000
-17.126800 0.000000
-17.092000 0.000000
-17.057200 0.000000
-17.022300 0.000000
-16.987500 0.000000
-16.952700 0.000000
-16.917900 0.000000
-16.883100 0.000000
-16.848300 0.000000
-16.813500 0.000000
-16.778600 0.000000
-16.743800 0.000000
-16.709000 0.000000
-16.674200 0.000000
-16.639400 0.000000
-16.604600 0.000000
-16.569700 0.000000
-16.534900 0.000000
-16.500100 0.000000
-16.465300 0.000000
-16.430500 0.000000
-16.395700 0.000000
-16.360800 0.000000
-16.326000 0.000000
-16.291200 0.000000
-16.256400 0.000000
-16.221600 0.000000
-16.186800 0.000000
-16.151900 0.000000
-16.117100 0.000000
-16.082300 0.000000
-16.047500 0.000000
-16.012700 0.000000
-15.977900 0.000000
-15.943000 0.000000
-15.908200 0.000000
-15.873400 0.000000
-15.838600 0.000000
-15.803800 0.000000
-15.769000 0.000000
-15.734100 0.000000
-15.699300 0.000000
-15.664500 0.000000
-15.629700 0.000000
-15.594900 0.000000
-15.560100 0.000000
-15.525200 0.000000
-15.490400 0.000000
-15.455600 0.000000
-15.420800 0.000000
-15.386000 0.000000
-15.351200 0.000000
-15.316300 0.000000
-15.281500 0.000000
-15.246700 0.000000
-15.211900 0.000000
-15.177100 0.000000
-15.142300 0.000000
-15.107400 0.000000
-15.072600 0.000000
-15.037800 0.000000
-15.003000 0.000000
-14.968200 0.000000
-14.933400 0.000000
-14.898500 0.000000
-14.863700 0.000000
-14.828900 0.000000
-14.794100 0.000000
-14.759300 0.000000
-14.724500 0.000000
-14.689600 0.000000
-14.654800 0.000000
-14.620000 0.000000
-14.585200 0.000000
-14.550400 0.000000
-14.515600 0.000000
-14.480800 0.000000
-14.445900 0.000000
-14.411100 0.000000
-14.376300 0.000000
-14.341500 0.000000
-14.306700 0.000000
-14.271900 0.000000
-14.237000 0.000000
-14.202200 0.000000
-14.167400 0.000000
-14.132600 0.000000
-14.097800 0.000000
-14.063000 0.000000
-14.028100 0.000000
-13.993300 0.000000
-13.958500 0.000000
-13.923700 0.000000
-13.888900 0.000000
-13.854100 0.000000
-13.819200 0.000000
-13.784400 0.000000
-13.749600 0.000000
-13.714800 0.000000
-13.680000 0.000000
-13.645200 0.000000
-13.610300 0.000000
-13.575500 0.000000
-13.540700 0.000000
-13.505900 0.000000
-13.471100 0.000000
-13.436300 0.000000
-13.401400 0.000000
-13.366600 0.000000
-13.331800 0.000000
-13.297000 0.000000
-13.262200 0.000000
-13.227400 0.000000
-13.192500 0.000000
-13.157700 0.000000
-13.122900 0.000000
-13.088100 0.000000
-13.053300 0.000000
-13.018500 0.000000
-12.983600 0.000000
-12.948800 0.000000
-12.914000 0.000000
-12.879200 0.000000
-12.844400 0.000000
-12.809600 0.000000
-12.774700 0.000000
-12.739900 0.000000
-12.705100 0.000000
-12.670300 0.000000
-12.635500 0.000000
-12.600700 0.000000
-12.565800 0.000000
-12.531000 0.000000
-12.496200 0.000000
-12.461400 0.000000
-12.426600 0.000000
-12.391800 0.000000
-12.356900 0.000000
-12.322100 0.000000
-12.287300 0.000000
-12.252500 0.000000
-12.217700 0.000000
-12.182900 0.000000
-12.148000 0.000000
-12.113200 0.000000
-12.078400 0.000000
-12.043600 0.000000
-12.008800 0.000000
-11.974000 0.000000
-11.939200 0.000000
-11.904300 0.000000
-11.869500 0.000000
-11.834700 0.000000
-11.799900 0.000000
-11.765100 0.000000
-11.730300 0.000000
-11.695400 0.000000
-11.660600 0.000000
-11.625800 0.000000
-11.591000 0.000000
-11.556200 0.000000
-11.521400 0.000000
-11.486500 0.000000
-11.451700 0.000000
-11.416900 0.000000
-11.382100 0.000000
-11.347300 0.000000
-11.312500 0.000000
-11.277600 0.000000
-11.242800 0.000000
-11.208000 0.000000
-11.173200 0.000000
-11.138400 0.000000
-11.103600 0.000000
-11.068700 0.000000
-11.033900 0.000000
-10.999100 0.000000
-10.964300 0.000000
-10.929500 0.000000
-10.894700 0.000000
-10.859800 0.000000
-10.825000 0.000000
-10.790200 0.000000
-10.755400 0.000000
-10.720600 0.000000
-10.685800 0.000000
-10.650900 0.000000
-10.616100 0.000000
-10.581300 0.000000
-10.546500 0.000000
-10.511700 0.000000
-10.476900 0.000000
-10.442000 0.000000
-10.407200 0.000000
-10.372400 0.000000
-10.337600 0.000000
-10.302800 0.000000
-10.268000 0.000000
-10.233100 0.000000
-10.198300 0.000000
-10.163500 0.000000
-10.128700 0.000000
-10.093900 0.000000
-10.059100 0.000000
-10.024200 0.000000
-9.989400 0.000000
-9.954600 0.000000
-9.919800 0.000000
-9.885000 0.000000
-9.850200 0.000000
-9.815300 0.000000
-9.780500 0.000000
-9.745700 0.000000
-9.710900 0.000000
-9.676100 0.000000
-9.641300 0.000000
-9.606500 0.000000
-9.571600 0.000000
-9.536800 0.000000
-9.502000 0.000000
-9.467200 0.000000
-9.432400 0.000000
-9.397600 0.000000
-9.362700 0.000000
-9.327900 0.000000
-9.293100 0.000000
-9.258300 0.000000
-9.223500 0.000000
-9.188700 0.000000
-9.153800 0.000000
-9.119000 0.000000
-9.084200 0.000000
-9.049400 0.000000
-9.014600 0.000000
-8.979800 0.000000
-8.944900 0.000000
-8.910100 0.000000
-8.875300 0.000000
-8.840500 0.000000
-8.805700 0.000000
-8.770900 0.000000
-8.736000 0.000000
-8.701200 0.000000
-8.666400 0.000000
-8.631600 0.000000
-8.596800 0.000000
-8.562000 0.000000
-8.527100 0.000000
-8.492300 0.000000
-8.457500 0.000000
-8.422700 0.000000
-8.387900 0.000000
-8.353100 0.000000
-8.318200 0.000000
-8.283400 0.000000
-8.248600 0.000000
-8.213800 0.000000
-8.179000 0.000000
-8.144200 0.000000
-8.109300 0.000000
-8.074500 0.000000
-8.039700 0.000000
-8.004900 0.000000
-7.970100 0.000000
-7.935300 0.000000
-7.900400 0.000000
-7.865600 0.000000
-7.830800 0.000000
-7.796000 0.000000
-7.761200 0.000000
-7.726400 0.000000
-7.691500 0.000000
-7.656700 0.000000
-7.621900 0.000000
-7.587100 0.000000
-7.552300 0.000000
-7.517500 0.000000
-7.482600 0.000000
-7.447800 0.000000
-7.413000 0.000000
-7.378200 0.000000
-7.343400 0.000000
-7.308600 0.000000
-7.273700 0.000000
-7.238900 0.000000
-7.204100 0.000000
-7.169300 0.000000
-7.134500 0.000000
-7.099700 0.000000
-7.064900 0.000000
-7.030000 0.000000
-6.995200 0.000000
-6.960400 0.000000
-6.925600 0.000000
-6.890800 0.000000
-6.856000 0.000000
-6.821100 0.000000
-6.786300 0.000000
-6.751500 0.000000
-6.716700 0.000000
-6.681900 0.000000
-6.647100 0.000000
-6.612200 0.000000
-6.577400 0.000000
-6.542600 0.000000
-6.507800 0.000000
-6.473000 0.000000
-6.438200 0.000000
-6.403300 0.000000
-6.368500 0.031900
-6.333700 0.146200
-6.298900 0.304200
-6.264100 0.462400
-6.229300 0.431900
-6.194400 0.334700
-6.159600 0.349600
-6.124800 0.364500
-6.090000 0.379500
-6.055200 0.394400
-6.020400 0.409400
-5.985500 0.423700
-5.950700 0.424800
-5.915900 0.413500
-5.881100 0.402000
-5.846300 0.393300
-5.811500 0.396200
-5.776600 0.403200
-5.741800 0.410200
-5.707000 0.417200
-5.672200 0.424200
-5.637400 0.431100
-5.602600 0.438100
-5.567700 0.445100
-5.532900 0.452100
-5.498100 0.455400
-5.463300 0.448700
-5.428500 0.452800
-5.393700 0.457000
-5.358800 0.461100
-5.324000 0.476000
-5.289200 0.550900
-5.254400 0.665600
-5.219600 0.762000
-5.184800 0.824200
-5.149900 0.933400
-5.115100 1.013600
-5.080300 1.009500
-5.045500 1.009300
-5.010700 1.041300
-4.975900 1.063400
-4.941000 1.080700
-4.906200 1.095700
-4.871400 1.106000
-4.836600 1.116700
-4.801800 1.133500
-4.767000 1.158400
-4.732200 1.183400
-4.697300 1.208400
-4.662500 1.233300
-4.627700 1.255200
-4.592900 1.277400
-4.558100 1.298700
-4.523300 1.320400
-4.488400 1.344500
-4.453600 1.369200
-4.418800 1.394700
-4.384000 1.421200
-4.349200 1.509100
-4.314400 1.573700
-4.279500 1.638300
-4.244700 1.708800
-4.209900 1.790200
-4.175100 1.880600
-4.140300 1.969500
-4.105500 2.055500
-4.070600 2.194200
-4.035800 2.334200
-4.001000 2.474500
-3.966200 2.616300
-3.931400 2.758400
-3.896600 3.067900
-3.861700 2.892800
-3.826900 2.962200
-3.792100 3.008900
-3.757300 3.092200
-3.722500 3.479000
-3.687700 4.051300
-3.652800 4.835600
-3.618000 4.530900
-3.583200 4.181900
-3.548400 4.170300
-3.513600 4.158100
-3.478800 4.514500
-3.443900 4.227600
-3.409100 3.981700
-3.374300 3.956100
-3.339500 3.976200
-3.304700 4.735500
-3.269900 3.711200
-3.235000 2.679200
-3.200200 2.743500
-3.165400 2.814500
-3.130600 3.125600
-3.095800 3.732500
-3.061000 4.414500
-3.026100 5.054000
-2.991300 1.122800
-2.956500 0.000000
-2.921700 0.000000
-2.886900 0.000000
-2.852100 0.000000
-2.817200 0.000000
-2.782400 0.000000
-2.747600 0.000000
-2.712800 0.000000
-2.678000 0.000000
-2.643200 0.000000
-2.608300 0.000000
-2.573500 0.000000
-2.538700 0.000000
-2.503900 0.000000
-2.469100 0.000000
-2.434300 0.000000
-2.399400 0.000000
-2.364600 0.000000
-2.329800 0.000000
-2.295000 0.000000
-2.260200 0.000000
-2.225400 0.000000
-2.190600 0.000000
-2.155700 0.000000
-2.120900 0.000000
-2.086100 0.000000
-2.051300 0.000000
-2.016500 0.000000
-1.981700 0.000000
-1.946800 0.000000
-1.912000 0.000000
-1.877200 0.000000
-1.842400 0.000000
-1.807600 0.000000
-1.772800 0.000000
-1.737900 0.000000
-1.703100 0.000000
-1.668300 0.000000
-1.633500 0.000000
-1.598700 0.000000
-1.563900 0.000000
-1.529000 0.000000
-1.494200 0.000000
-1.459400 0.000000
-1.424600 0.000000
-1.389800 0.000000
-1.355000 0.000000
-1.320100 0.000000
-1.285300 0.000000
-1.250500 0.000000
-1.215700 0.000000
-1.180900 0.000000
-1.146100 0.000000
-1.111200 0.000000
-1.076400 0.000000
-1.041600 0.000000
-1.006800 0.000000
-0.972000 0.000000
-0.937200 0.000000
-0.902300 0.000000
-0.867500 0.000000
-0.832700 0.000000
-0.797900 0.000000
-0.763100 0.000000
-0.728300 0.000000
-0.693400 0.000000
-0.658600 0.000000
-0.623800 0.000000
-0.589000 0.000000
-0.554200 0.000000
-0.519400 0.000000
-0.484500 0.000000
-0.449700 0.000000
-0.414900 0.000000
-0.380100 0.000000
-0.345300 0.000000
-0.310500 0.000000
-0.275600 0.000000
-0.240800 0.000000
-0.206000 0.000000
-0.171200 0.000000
-0.136400 0.000000
-0.101600 0.000000
-0.066700 0.000000
-0.031900 0.000000
0.002900 0.000000
0.037700 0.000000
0.072500 0.000000
0.107300 0.000000
0.142100 0.000000
0.177000 0.004300
0.211800 0.031300
0.246600 0.071700
0.281400 0.123200
0.316200 0.184300
0.351000 0.187500
0.385900 0.210700
0.420700 0.242700
0.455500 0.313500
0.490300 0.479200
0.525100 0.716500
0.559900 0.939100
0.594800 1.122900
0.629600 1.287400
0.664400 1.315900
0.699200 1.259300
0.734000 1.232900
0.768800 1.232500
0.803700 1.255700
0.838500 1.285300
0.873300 1.315200
0.908100 1.356600
0.942900 1.402000
0.977700 1.450400
1.012600 1.499900
1.047400 1.549300
1.082200 1.603900
1.117000 1.688000
1.151800 1.790000
1.186600 1.906600
1.221500 2.032100
1.256300 2.187100
1.291100 2.470300
1.325900 3.569600
1.360700 3.188200
1.395500 2.781200
1.430400 2.534100
1.465200 2.716400
1.500000 3.076000
1.534800 3.605800
1.569600 3.808900
1.604400 3.296100
1.639300 2.130800
1.674100 2.784000
1.708900 4.124000
1.743700 4.549900
1.778500 3.405000
1.813300 2.308700
1.848200 2.220300
1.883000 2.172300
1.917800 1.911700
1.952600 1.856000
1.987400 2.065600
2.022200 2.227900
2.057100 2.046900
2.091900 2.212200
2.126700 2.489300
2.161500 2.842000
2.196300 3.293200
2.231100 14.026100
2.266000 10.316900
2.300800 6.371300
2.335600 4.913200
2.370400 3.584500
2.405200 2.936600
2.440000 2.334300
2.474900 1.693900
2.509700 1.308900
2.544500 1.673300
2.579300 4.121600
2.614100 9.344700
2.648900 11.762200
2.683700 10.314900
2.718600 6.905200
2.753400 1.909700
2.788200 3.366700
2.823000 3.592500
2.857800 4.256700
2.892600 3.148000
2.927500 3.141800
2.962300 3.140500
2.997100 3.235000
3.031900 3.489500
3.066700 3.971700
3.101500 4.619300
3.136400 5.261000
3.171200 6.079700
3.206000 10.737500
3.240800 11.828800
3.275600 7.067700
3.310400 5.823700
3.345300 7.397700
3.380100 6.542800
3.414900 5.941600
3.449700 5.390400
3.484500 5.525100
3.519300 5.908400
3.554200 6.329300
3.589000 6.774800
3.623800 6.822500
3.658600 7.733400
3.693400 6.308900
3.728200 5.545100
3.763100 5.306700
3.797900 5.013600
3.832700 4.761000
3.867500 4.844600
3.902300 4.975300
3.937100 5.053800
3.972000 5.299900
4.006800 5.543300
4.041600 6.400900
4.076400 15.660200
4.111200 3.827100
4.146000 2.633200
4.180900 2.372100
4.215700 2.289900
4.250500 2.142000
4.285300 1.966700
4.320100 5.310500
4.354900 7.074400
4.389800 7.326200
4.424600 7.492300
4.459400 6.824000
4.494200 4.896200
4.529000 4.200900
4.563800 3.639800
4.598700 3.405500
4.633500 2.968900
4.668300 2.603100
4.703100 2.358400
4.737900 2.267600
4.772700 2.101600
4.807600 2.179700
4.842400 2.223700
4.877200 1.840100
4.912000 1.403200
4.946800 1.031300
4.981600 0.975800
5.016400 1.004900
5.051300 1.079100
5.086100 1.154100
5.120900 1.282000
5.155700 1.633200
5.190500 1.850200
5.225300 1.737800
5.260200 1.722600
5.295000 1.752200
5.329800 1.840200
5.364600 1.936000
5.399400 2.087200
5.434200 2.284900
5.469100 2.535500
5.503900 2.731100
5.538700 2.910200
5.573500 3.257000
5.608300 3.463500
5.643100 4.303200
5.678000 4.659100
5.712800 5.071900
5.747600 5.510900
5.782400 8.079800
5.817200 8.192200
5.852000 8.718100
5.886900 7.596200
5.921700 5.084500
5.956500 4.387300
5.991300 4.819200
6.026100 4.144200
6.060900 3.185300
6.095800 0.977700
6.130600 0.981700
6.165400 0.837000
6.200200 0.706900
6.235000 0.570700
6.269800 0.524800
6.304700 0.434800
6.339500 0.449300
6.374300 0.444800
6.409100 0.407900
6.443900 0.721900
6.478700 4.760400
6.513600 7.716100
6.548400 8.330300
6.583200 5.252700
6.618000 4.659900
6.652800 4.382200
6.687600 3.966800
6.722500 3.589200
6.757300 3.667100
6.792100 3.119100
6.826900 3.058900
6.861700 3.240600
6.896500 3.493000
6.931400 4.495200
6.966200 5.100900
7.001000 5.895400
7.035800 4.543000
7.070600 3.842200
7.105400 6.023400
7.140300 5.861500
7.175100 5.407400
7.209900 5.291800
7.244700 5.254600
7.279500 5.258300
7.314300 4.596600
7.349200 4.591100
7.384000 4.354700
7.418800 3.991800
7.453600 3.688600
7.488400 3.224700
7.523200 4.306400
7.558000 4.249300
7.592900 4.341900
7.627700 4.903600
7.662500 4.743100
7.697300 5.094000
7.732100 5.672000
7.766900 6.108200
7.801800 5.510100
7.836600 5.754400
7.871400 5.123200
7.906200 5.292500
7.941000 4.968100
7.975800 5.098000
8.010700 5.036300
8.045500 4.816700
8.080300 5.135800
8.115100 5.563500
8.149900 6.127300
8.184700 6.555200
8.219600 7.542000
8.254400 7.704000
8.289200 7.670800
8.324000 7.331500
8.358800 7.203500
8.393600 7.287300
8.428500 8.154500
8.463300 9.449100
8.498100 10.522200
8.532900 10.007000
8.567700 9.002200
8.602500 9.622800
8.637400 10.840800
8.672200 11.901100
8.707000 6.865600
8.741800 10.184100
8.776600 14.433300
8.811400 11.099400
8.846300 8.151500
8.881100 8.315300
8.915900 9.423700
8.950700 9.791800
8.985500 8.893200
9.020300 8.115700
9.055200 7.844700
9.090000 8.803700
9.124800 8.172800
9.159600 5.776100
9.194400 4.449600
9.229200 3.173800
9.264100 3.829500
9.298900 4.625800
9.333700 5.893700
9.368500 7.551800
9.403300 8.117000
9.438100 8.582200
9.473000 7.298700
9.507800 4.020500
9.542600 3.566400
9.577400 3.590300
9.612200 3.829200
9.647000 4.267100
9.681900 4.120300
9.716700 4.092100
9.751500 5.365300
9.786300 7.147200
9.821100 6.156800
9.855900 6.359600
9.890700 5.396600
9.925600 4.691400
9.960400 4.702800
9.995200 5.249100
10.030000 5.135100
10.064800 7.233400
10.099600 3.663900
10.134500 3.192900
10.169300 2.946100
10.204100 2.972200
10.238900 3.053300
10.273700 3.364300
10.308500 3.773300
10.343400 4.473400
10.378200 4.749000
10.413000 5.604900
10.447800 6.120700
10.482600 7.841800
10.517400 9.129900
10.552300 5.363900
10.587100 4.505900
10.621900 3.673600
10.656700 2.945800
10.691500 2.587900
10.726300 2.887800
10.761200 3.178200
10.796000 5.562000
10.830800 6.532400
10.865600 6.878900
10.900400 6.147300
10.935200 6.325300
10.970100 5.877000
11.004900 5.955300
11.039700 6.128500
11.074500 5.516100
11.109300 4.121500
11.144100 4.626100
11.179000 4.373900
11.213800 3.363600
11.248600 3.606000
11.283400 3.787900
11.318200 4.109100
11.353000 6.506200
11.387900 5.061300
11.422700 5.935400
11.457500 5.972400
11.492300 6.774700
11.527100 10.002100
11.561900 2.974700
11.596800 3.181900
11.631600 3.093500
11.666400 3.600700
11.701200 4.510900
11.736000 5.268800
11.770800 7.375800
11.805700 6.205900
11.840500 4.117400
11.875300 2.836000
11.910100 2.234400
11.944900 1.834200
11.979700 1.792000
12.014600 1.983700
12.049400 2.373900
12.084200 2.806000
12.119000 4.282900
12.153800 3.193100
12.188600 2.827300
12.223500 3.016900
12.258300 3.159800
12.293100 3.203700
12.327900 3.171600
12.362700 3.026600
12.397500 2.915200
12.432300 3.053500
12.467200 3.142600
12.502000 3.407600
12.536800 4.227100
12.571600 5.483500
12.606400 5.208800
12.641200 4.428900
12.676100 4.058200
12.710900 4.217000
12.745700 4.612600
12.780500 5.659400
12.815300 7.143000
12.850100 4.556400
12.885000 3.431700
12.919800 1.956500
12.954600 1.962000
12.989400 2.241700
13.024200 2.495100
13.059000 2.919000
13.093900 3.251000
13.128700 3.500000
13.163500 3.806700
13.198300 4.136400
13.233100 3.267800
13.267900 2.954900
13.302800 2.692800
13.337600 2.383800
13.372400 1.997700
13.407200 1.792500
13.442000 2.292300
13.476800 2.671000
13.511700 2.935100
13.546500 3.434400
13.581300 4.082900
13.616100 3.371600
13.650900 2.737400
13.685700 1.084400
13.720600 0.965100
13.755400 0.885400
13.790200 0.845300
13.825000 0.831000
13.859800 0.829600
13.894600 0.839400
13.929500 0.860400
13.964300 0.887200
13.999100 0.913700
14.033900 0.936600
14.068700 0.960700
14.103500 1.035900
14.138400 1.138800
14.173200 1.259600
14.208000 1.453500
14.242800 1.715700
14.277600 1.796800
14.312400 1.825900
14.347300 1.930400
14.382100 2.255300
14.416900 2.013200
14.451700 1.571600
14.486500 1.364100
14.521300 1.286200
14.556200 1.187000
14.591000 1.086000
14.625800 0.938200
14.660600 0.803700
14.695400 0.761500
14.730200 0.725800
14.765000 0.690000
14.799900 0.654200
14.834700 0.618400
14.869500 0.547700
14.904300 0.470200
14.939100 0.398700
14.973900 0.314600
15.008800 0.287200
15.043600 0.259800
15.078400 0.232300
15.113200 0.204900
15.148000 0.177400
15.182800 0.150000
15.217700 0.122500
15.252500 0.095000
15.287300 0.067600
15.322100 0.040100
15.356900 0.012600
15.391700 0.000000
15.426600 0.000000
15.461400 0.000000
15.496200 0.000000
15.531000 0.018900
15.565800 0.041100
15.600600 0.063300
15.635500 0.085500
15.670300 0.107700
15.705100 0.129900
15.739900 0.179200
15.774700 0.276900
15.809500 0.411600
15.844400 0.563100
15.879200 0.670600
15.914000 0.943800
15.948800 1.000600
15.983600 1.216800
16.018400 1.489300
16.053300 1.390100
16.088100 1.468300
16.122900 1.553500
16.157700 1.808200
16.192500 1.621300
16.227300 1.427200
16.262200 1.305000
16.297000 1.173000
16.331800 1.130800
16.366600 1.111900
16.401400 1.097800
16.436200 1.086800
16.471100 1.080300
16.505900 1.078500
16.540700 1.078700
16.575500 1.079800
16.610300 1.080200
16.645100 1.071800
16.680000 1.073000
16.714800 1.079200
16.749600 1.090900
16.784400 1.107900
16.819200 1.126400
16.854000 1.131900
16.888900 1.148700
16.923700 1.169500
16.958500 1.198000
16.993300 1.230100
17.028100 1.264300
17.062900 1.317100
17.097800 1.415000
17.132600 1.546700
17.167400 1.717300
17.202200 1.888300
17.237000 2.345100
17.271800 2.511000
17.306600 2.838900
17.341500 3.189900
17.376300 3.442000
17.411100 2.777900
17.445900 2.661700
17.480700 2.572500
17.515500 2.507100
17.550400 2.412400
17.585200 2.276800
17.620000 2.192800
17.654800 2.123100
17.689600 2.046700
17.724400 2.122100
17.759300 1.812500
17.794100 1.667700
17.828900 1.579100
17.863700 1.517800
17.898500 1.491800
17.933300 1.507600
17.968200 1.526100
18.003000 1.546500
18.037800 1.577900
18.072600 1.621200
18.107400 1.673800
18.142200 1.743500
18.177100 2.093600
18.211900 2.052000
18.246700 2.055000
18.281500 2.118800
18.316300 2.228600
18.351100 2.123200
18.386000 1.923400
18.420800 1.646700
18.455600 1.256700
18.490400 0.863800
18.525200 0.750700
18.560000 1.015200
18.594900 1.488100
18.629700 1.833500
18.664500 2.038700
18.699300 1.827400
18.734100 1.821700
18.768900 1.815700
18.803800 1.812500
18.838600 1.789000
18.873400 1.748000
18.908200 1.702800
18.943000 1.628200
18.977800 1.532900
19.012700 1.444900
19.047500 1.306900
19.082300 1.242400
19.117100 1.266600
19.151900 1.351500
19.186700 1.476200
19.221600 1.666400
19.256400 1.867100
19.291200 2.050500
19.326000 2.239100
19.360800 2.309600
19.395600 2.379800
19.430500 2.491700
19.465300 2.616900
19.500100 2.848600
19.534900 2.953100
19.569700 3.050300
19.604500 3.173600
19.639300 3.006000
19.674200 2.950900
19.709000 3.049400
19.743800 3.191800
19.778600 2.508300
19.813400 2.018600
19.848200 1.767600
19.883100 1.663800
19.917900 1.749500
19.952700 1.807200
19.987500 1.819300
20.022300 2.012300
20.057100 2.451400
20.092000 3.310900
20.126800 3.566000
20.161600 3.909800
20.196400 4.465800
20.231200 4.402000
20.266000 4.323600
20.300900 4.519300
20.335700 4.363800
20.370500 4.067500
20.405300 3.327400
20.440100 2.971500
20.474900 2.706300
20.509800 2.509100
20.544600 2.389700
20.579400 2.781700
20.614200 2.290600
20.649000 2.080300
20.683800 1.941500
20.718700 1.868000
20.753500 1.960200
20.788300 2.029500
20.823100 2.377900
20.857900 2.676500
20.892700 3.151800
20.927600 2.935100
20.962400 3.043300
20.997200 2.965900
21.032000 3.110400
21.066800 3.274200
21.101600 4.107400
21.136500 4.431700
21.171300 4.733400
21.206100 3.575900
21.240900 3.026400
21.275700 3.189200
21.310500 3.370600
21.345400 3.773500
21.380200 4.203200
21.415000 4.247800
21.449800 4.244700
21.484600 4.120100
21.519400 3.641200
21.554300 3.206600
21.589100 2.826300
21.623900 2.616800
21.658700 2.717600
21.693500 2.951300
21.728300 3.167200
21.763200 3.384700
21.798000 3.613200
21.832800 3.800200
21.867600 3.827400
21.902400 3.758500
21.937200 3.678000
21.972100 3.545100
22.006900 3.413700
22.041700 3.262900
22.076500 3.151100
22.111300 3.326100
22.146100 4.420700
22.180900 4.912800
22.215800 5.007500
22.250600 3.370900
22.285400 3.247800
22.320200 4.027000
22.355000 5.539700
22.389800 5.334800
22.424700 5.135800
22.459500 5.251800
22.494300 5.244000
22.529100 6.244200
22.563900 4.796300
22.598700 4.040300
22.633600 3.628200
22.668400 3.419600
22.703200 3.713200
22.738000 4.939800
22.772800 5.197800
22.807600 3.975500
22.842500 3.703100
22.877300 3.564600
22.912100 3.430900
22.946900 3.458700
22.981700 3.505300
23.016500 3.568900
23.051400 3.682200
23.086200 3.580800
23.121000 3.492800
23.155800 2.917000
23.190600 2.537000
23.225400 2.132300
23.260300 1.965800
23.295100 1.905300
23.329900 1.772700
23.364700 1.685400
23.399500 1.695500
23.434300 1.867300
23.469200 1.584900
23.504000 1.507800
23.538800 1.523800
23.573600 1.442500
23.608400 1.285900
23.643200 1.217200
23.678100 1.195000
23.712900 1.246700
23.747700 1.294000
23.782500 1.293700
23.817300 1.293400
23.852100 1.315600
23.887000 1.348500
23.921800 1.414200
23.956600 1.561900
23.991400 2.168100
24.026200 3.885300
24.061000 3.943500
24.095900 3.263900
24.130700 3.253800
24.165500 3.251900
24.200300 4.651200
24.235100 2.941600
24.269900 1.480200
24.304800 1.248900
24.339600 1.369900
24.374400 1.418600
24.409200 1.351600
24.444000 1.386500
24.478800 1.446000
24.513600 1.519000
24.548500 1.610600
24.583300 1.683600
24.618100 1.863200
24.652900 1.909000
24.687700 1.992800
24.722500 2.087400
24.757400 2.168200
24.792200 2.256200
24.827000 2.440200
24.861800 2.737800
24.896600 3.051400
24.931400 3.388300
24.966300 3.677700
25.001100 4.192100
25.035900 4.465700
25.070700 4.734800
25.105500 3.995100
25.140300 3.550500
25.175200 2.906300
25.210000 2.368500
25.244800 2.065900
25.279600 1.864400
25.314400 1.718600
25.349200 1.703000
25.384100 2.161800
25.418900 2.391300
25.453700 2.726800
25.488500 2.054900
25.523300 1.928100
25.558100 2.099900
25.593000 2.101500
25.627800 2.136700
25.662600 2.296400
25.697400 2.531500
25.732200 2.723400
25.767000 3.124100
25.801900 3.778300
25.836700 4.418600
25.871500 4.524600
25.906300 3.782400
25.941100 3.195300
25.975900 2.827300
26.010800 2.835200
26.045600 2.798100
26.080400 2.956300
26.115200 2.284400
26.150000 2.038300
26.184800 2.102600
26.219700 2.130600
26.254500 2.299100
26.289300 2.592700
26.324100 2.923900
26.358900 3.299500
26.393700 3.621800
26.428600 4.172700
26.463400 4.293200
26.498200 4.345500
26.533000 4.674300
26.567800 4.316700
26.602600 3.934700
26.637500 3.738900
26.672300 3.578400
26.707100 3.314400
26.741900 3.050000
26.776700 2.684900
26.811500 2.403400
26.846400 2.212700
26.881200 1.834500
26.916000 1.794500
26.950800 1.859300
26.985600 1.967200
27.020400 2.104100
27.055200 2.294600
27.090100 2.543900
27.124900 2.913100
27.159700 2.771600
27.194500 2.872900
27.229300 3.066400
27.264100 3.198100
27.299000 3.308700
27.333800 3.539000
27.368600 4.450000
27.403400 4.094000
27.438200 4.147300
27.473000 4.036900
27.507900 4.015500
27.542700 4.224000
27.577500 4.188500
27.612300 3.815800
27.647100 2.565300
27.681900 2.461800
27.716800 2.529400
27.751600 2.691300
27.786400 2.890300
27.821200 2.858200
27.856000 2.794500
27.890800 2.683900
27.925700 2.497000
27.960500 2.400900
27.995300 2.337200
28.030100 2.304300
28.064900 2.263100
28.099700 2.289600
28.134600 2.422100
28.169400 2.485000
28.204200 2.508300
28.239000 2.456600
28.273800 2.477800
28.308600 2.464300
28.343500 2.501400
28.378300 2.197000
28.413100 1.922800
28.447900 1.735800
28.482700 1.726000
28.517500 1.714700
28.552400 1.688300
28.587200 1.713600
28.622000 1.827700
28.656800 1.813900
28.691600 1.884500
28.726400 2.017000
28.761300 2.089900
28.796100 2.139600
28.830900 2.181700
28.865700 2.314200
28.900500 2.204200
28.935300 2.162000
28.970200 2.029900
29.005000 2.010100
29.039800 1.872800
29.074600 1.717700
29.109400 1.551900
29.144200 1.453700
29.179100 1.436100
29.213900 1.494400
29.248700 1.768000
29.283500 1.928900
29.318300 1.902200
29.353100 1.955600
29.387900 2.069800
29.422800 2.171800
29.457600 2.321100
29.492400 2.684500
29.527200 2.774200
29.562000 2.994800
29.596800 3.163800
29.631700 3.425200
29.666500 3.820700
29.701300 4.124900
29.736100 3.970900
29.770900 3.704200
29.805700 3.727200
29.840600 3.925400
29.875400 2.994700
29.910200 2.534800
29.945000 2.288800
29.979800 2.115000
30.014600 2.027200
30.049500 1.962600
30.084300 1.922200
30.119100 1.903900
30.153900 1.888800
30.188700 2.454400
30.223500 1.052700
30.258400 0.836800
30.293200 0.800800
30.328000 0.880100
30.362800 0.930600
30.397600 1.002800
30.432400 1.188700
30.467300 0.943800
30.502100 0.865000
30.536900 1.196400
30.571700 0.920800
30.606500 0.954900
30.641300 1.001600
30.676200 1.036500
30.711000 0.958400
30.745800 0.958300
30.780600 0.961000
30.815400 0.979700
30.850200 0.991100
30.885100 1.027500
30.919900 1.115400
30.954700 1.232500
30.989500 1.379200
31.024300 1.563400
31.059100 1.497700
31.094000 1.418600
31.128800 1.351500
31.163600 1.302700
31.198400 1.256900
31.233200 1.209200
31.268000 1.070500
31.302900 0.872300
31.337700 0.777000
31.372500 0.709100
31.407300 0.643700
31.442100 0.565900
31.476900 0.513200
31.511800 0.476300
31.546600 0.449200
31.581400 0.460600
31.616200 0.458300
31.651000 0.357400
31.685800 0.318600
31.720700 0.024800
31.755500 0.000000
31.790300 0.000000
31.825100 0.000000
31.859900 0.000000
31.894700 0.000000
31.929500 0.000000
31.964400 0.000000
31.999200 0.000000
32.034000 0.000000
32.068800 0.000000
32.103600 0.000000
32.138400 0.000000
32.173300 0.000000
32.208100 0.000000
32.242900 0.000000
32.277700 0.000000
32.312500 0.000000
32.347300 0.000000
32.382200 0.000000
32.417000 0.000000
32.451800 0.000000
32.486600 0.000000
32.521400 0.000000
32.556200 0.000000
32.591100 0.000000
32.625900 0.000000
32.660700 0.000000
32.695500 0.000000
32.730300 0.000000
32.765100 0.000000
32.800000 0.000000
32.834800 0.000000
32.869600 0.000000
32.904400 0.000000
32.939200 0.000000
32.974000 0.000000
33.008900 0.000000
33.043700 0.000000
33.078500 0.000000
33.113300 0.000000
33.148100 0.000000
33.182900 0.000000
33.217800 0.000000
33.252600 0.000000
33.287400 0.000000
33.322200 0.000000
33.357000 0.000000
33.391800 0.000000
33.426700 0.000000
33.461500 0.000000
33.496300 0.000000
33.531100 0.000000
33.565900 0.000000
33.600700 0.000000
33.635600 0.000000
33.670400 0.000000
33.705200 0.000000
33.740000 0.000000
33.774800 0.000000
33.809600 0.000000
33.844500 0.000000
33.879300 0.000000
33.914100 0.000000
33.948900 0.000000
33.983700 0.000000
34.018500 0.000000
34.053400 0.000000
34.088200 0.000000
34.123000 0.000000
34.157800 0.000000
34.192600 0.000000
34.227400 0.000000
34.262200 0.000000
34.297100 0.000000
34.331900 0.000000
34.366700 0.000000
34.401500 0.000000
34.436300 0.000000
34.471100 0.000000
34.506000 0.000000
34.540800 0.000000
34.575600 0.000000
34.610400 0.000000
34.645200 0.000000
34.680000 0.000000
34.714900 0.000000
34.749700 0.000000
34.784500 0.000000
34.819300 0.000000
34.854100 0.000000
34.888900 0.000000
e
