set title 'mp-1595 - Density of States'
set xlabel 'Energy (eV)'
set ylabel 'DOS (states/eV)'
set grid
set xrange [-10:10]
set yrange [0:36.646]
set xzeroaxis lt -1
set terminal png size 800,600
set output 'mp-1595_dos_gnuplot.png'
plot '-' using 1:2 with lines title 'DOS'
-34.474700 0.000000
-34.437900 0.000000
-34.401100 0.000000
-34.364300 0.000000
-34.327500 0.000000
-34.290700 0.000000
-34.254000 0.000000
-34.217200 0.000000
-34.180400 0.000000
-34.143600 0.000000
-34.106800 0.000000
-34.070000 0.000000
-34.033200 0.000000
-33.996500 0.000000
-33.959700 0.000000
-33.922900 0.000000
-33.886100 0.000000
-33.849300 0.000000
-33.812500 0.000000
-33.775800 0.000000
-33.739000 0.000000
-33.702200 0.000000
-33.665400 0.000000
-33.628600 0.000000
-33.591800 0.000000
-33.555100 0.000000
-33.518300 0.000000
-33.481500 0.000000
-33.444700 0.000000
-33.407900 0.000000
-33.371100 0.000000
-33.334400 0.000000
-33.297600 0.000000
-33.260800 0.000000
-33.224000 0.000000
-33.187200 0.000000
-33.150400 0.000000
-33.113700 0.000000
-33.076900 0.000000
-33.040100 0.000000
-33.003300 0.000000
-32.966500 0.000000
-32.929700 0.000000
-32.893000 0.000000
-32.856200 0.000000
-32.819400 0.000000
-32.782600 0.000000
-32.745800 0.000000
-32.709000 0.000000
-32.672300 0.000000
-32.635500 0.000000
-32.598700 0.000000
-32.561900 0.000000
-32.525100 0.000000
-32.488300 0.000000
-32.451600 0.000000
-32.414800 0.000000
-32.378000 0.000000
-32.341200 0.000000
-32.304400 0.000000
-32.267600 0.000000
-32.230900 0.000000
-32.194100 0.000000
-32.157300 0.000000
-32.120500 0.000000
-32.083700 0.000000
-32.046900 0.000000
-32.010200 0.000000
-31.973400 0.000000
-31.936600 0.000000
-31.899800 0.000000
-31.863000 0.000000
-31.826200 0.000000
-31.789500 0.000000
-31.752700 0.000000
-31.715900 0.000000
-31.679100 0.000000
-31.642300 0.000000
-31.605500 0.000000
-31.568800 0.000000
-31.532000 0.000000
-31.495200 0.000000
-31.458400 0.000000
-31.421600 0.000000
-31.384800 0.000000
-31.348100 0.000000
-31.311300 0.000000
-31.274500 0.000000
-31.237700 0.000000
-31.200900 0.000000
-31.164100 0.000000
-31.127400 21.981400
-31.090600 17.588900
-31.053800 26.250000
-31.017000 49.751800
-30.980200 47.062300
-30.943400 38.123500
-30.906600 36.746500
-30.869900 55.066800
-30.833100 0.000000
-30.796300 0.000000
-30.759500 0.000000
-30.722700 0.000000
-30.685900 0.000000
-30.649200 0.000000
-30.612400 0.000000
-30.575600 0.000000
-30.538800 0.000000
-30.502000 0.000000
-30.465200 0.000000
-30.428500 0.000000
-30.391700 0.000000
-30.354900 0.000000
-30.318100 0.000000
-30.281300 0.000000
-30.244500 0.000000
-30.207800 0.000000
-30.171000 0.000000
-30.134200 0.000000
-30.097400 0.000000
-30.060600 0.000000
-30.023800 0.000000
-29.987100 0.000000
-29.950300 0.000000
-29.913500 0.000000
-29.876700 0.000000
-29.839900 0.000000
-29.803100 0.000000
-29.766400 0.000000
-29.729600 0.000000
-29.692800 0.000000
-29.656000 0.000000
-29.619200 0.000000
-29.582400 0.000000
-29.545700 0.000000
-29.508900 0.000000
-29.472100 0.000000
-29.435300 0.000000
-29.398500 0.000000
-29.361700 0.000000
-29.325000 0.000000
-29.288200 0.000000
-29.251400 0.000000
-29.214600 0.000000
-29.177800 0.000000
-29.141000 0.000000
-29.104300 0.000000
-29.067500 0.000000
-29.030700 0.000000
-28.993900 0.000000
-28.957100 0.000000
-28.920300 0.000000
-28.883600 0.000000
-28.846800 0.000000
-28.810000 0.000000
-28.773200 0.000000
-28.736400 0.000000
-28.699600 0.000000
-28.662900 0.000000
-28.626100 0.000000
-28.589300 0.000000
-28.552500 0.000000
-28.515700 0.000000
-28.478900 0.000000
-28.442200 0.000000
-28.405400 0.000000
-28.368600 0.000000
-28.331800 0.000000
-28.295000 0.000000
-28.258200 0.000000
-28.221500 0.000000
-28.184700 0.000000
-28.147900 0.000000
-28.111100 0.000000
-28.074300 0.000000
-28.037500 0.000000
-28.000700 0.000000
-27.964000 0.000000
-27.927200 0.000000
-27.890400 0.000000
-27.853600 0.000000
-27.816800 0.000000
-27.780000 0.000000
-27.743300 0.000000
-27.706500 0.000000
-27.669700 0.000000
-27.632900 0.000000
-27.596100 0.000000
-27.559300 0.000000
-27.522600 0.000000
-27.485800 0.000000
-27.449000 0.000000
-27.412200 0.000000
-27.375400 0.000000
-27.338600 0.000000
-27.301900 0.000000
-27.265100 0.000000
-27.228300 0.000000
-27.191500 0.000000
-27.154700 0.000000
-27.117900 0.000000
-27.081200 0.000000
-27.044400 0.000000
-27.007600 0.000000
-26.970800 0.000000
-26.934000 0.000000
-26.897200 0.000000
-26.860500 0.000000
-26.823700 0.000000
-26.786900 0.000000
-26.750100 0.000000
-26.713300 0.000000
-26.676500 0.000000
-26.639800 0.000000
-26.603000 0.000000
-26.566200 0.000000
-26.529400 0.000000
-26.492600 0.000000
-26.455800 0.000000
-26.419100 0.000000
-26.382300 0.000000
-26.345500 0.000000
-26.308700 0.000000
-26.271900 0.000000
-26.235100 0.000000
-26.198400 0.000000
-26.161600 0.000000
-26.124800 0.000000
-26.088000 0.000000
-26.051200 0.000000
-26.014400 0.000000
-25.977700 0.000000
-25.940900 0.000000
-25.904100 0.000000
-25.867300 0.000000
-25.830500 0.000000
-25.793700 0.000000
-25.757000 0.000000
-25.720200 0.000000
-25.683400 0.000000
-25.646600 0.000000
-25.609800 0.000000
-25.573000 0.000000
-25.536300 0.000000
-25.499500 0.000000
-25.462700 0.000000
-25.425900 0.000000
-25.389100 0.000000
-25.352300 0.000000
-25.315600 0.000000
-25.278800 0.000000
-25.242000 0.000000
-25.205200 0.000000
-25.168400 0.000000
-25.131600 0.000000
-25.094900 0.000000
-25.058100 0.000000
-25.021300 0.000000
-24.984500 0.000000
-24.947700 0.000000
-24.910900 0.000000
-24.874100 0.000000
-24.837400 0.000000
-24.800600 0.000000
-24.763800 0.000000
-24.727000 0.000000
-24.690200 0.000000
-24.653400 0.000000
-24.616700 0.000000
-24.579900 0.000000
-24.543100 0.000000
-24.506300 0.000000
-24.469500 0.000000
-24.432700 0.000000
-24.396000 0.000000
-24.359200 0.000000
-24.322400 0.000000
-24.285600 0.000000
-24.248800 0.000000
-24.212000 0.000000
-24.175300 0.000000
-24.138500 0.000000
-24.101700 0.000000
-24.064900 0.000000
-24.028100 0.000000
-23.991300 0.000000
-23.954600 0.000000
-23.917800 0.000000
-23.881000 0.000000
-23.844200 0.000000
-23.807400 0.000000
-23.770600 0.000000
-23.733900 0.000000
-23.697100 0.000000
-23.660300 0.000000
-23.623500 0.000000
-23.586700 0.000000
-23.549900 0.000000
-23.513200 0.000000
-23.476400 0.000000
-23.439600 0.000000
-23.402800 0.000000
-23.366000 0.000000
-23.329200 0.000000
-23.292500 0.000000
-23.255700 0.000000
-23.218900 0.000000
-23.182100 0.000000
-23.145300 0.000000
-23.108500 0.000000
-23.071800 0.000000
-23.035000 0.000000
-22.998200 0.000000
-22.961400 0.000000
-22.924600 0.000000
-22.887800 0.000000
-22.851100 0.000000
-22.814300 0.000000
-22.777500 0.000000
-22.740700 0.000000
-22.703900 0.000000
-22.667100 0.000000
-22.630400 0.000000
-22.593600 0.000000
-22.556800 0.000000
-22.520000 0.000000
-22.483200 0.000000
-22.446400 0.000000
-22.409700 0.000000
-22.372900 0.000000
-22.336100 0.000000
-22.299300 0.000000
-22.262500 0.000000
-22.225700 0.000000
-22.189000 0.000000
-22.152200 0.000000
-22.115400 0.000000
-22.078600 0.000000
-22.041800 0.000000
-22.005000 0.000000
-21.968200 0.000000
-21.931500 0.000000
-21.894700 0.000000
-21.857900 0.000000
-21.821100 0.000000
-21.784300 0.000000
-21.747500 0.000000
-21.710800 0.000000
-21.674000 0.000000
-21.637200 0.000000
-21.600400 0.000000
-21.563600 0.000000
-21.526800 0.000000
-21.490100 0.000000
-21.453300 0.000000
-21.416500 0.000000
-21.379700 0.000000
-21.342900 0.000000
-21.306100 0.000000
-21.269400 0.000000
-21.232600 0.000000
-21.195800 0.000000
-21.159000 0.000000
-21.122200 0.000000
-21.085400 0.000000
-21.048700 0.000000
-21.011900 0.000000
-20.975100 0.000000
-20.938300 0.000000
-20.901500 0.000000
-20.864700 0.000000
-20.828000 0.000000
-20.791200 0.000000
-20.754400 0.000000
-20.717600 0.000000
-20.680800 0.000000
-20.644000 0.000000
-20.607300 0.000000
-20.570500 0.000000
-20.533700 0.000000
-20.496900 0.000000
-20.460100 0.000000
-20.423300 0.000000
-20.386600 0.000000
-20.349800 0.000000
-20.313000 0.000000
-20.276200 0.000000
-20.239400 0.000000
-20.202600 0.000000
-20.165900 0.000000
-20.129100 0.000000
-20.092300 0.000000
-20.055500 0.000000
-20.018700 0.000000
-19.981900 0.000000
-19.945200 0.000000
-19.908400 0.000000
-19.871600 0.000000
-19.834800 0.000000
-19.798000 0.000000
-19.761200 0.000000
-19.724500 0.000000
-19.687700 0.000000
-19.650900 0.000000
-19.614100 0.000000
-19.577300 0.000000
-19.540500 0.000000
-19.503800 0.000000
-19.467000 0.000000
-19.430200 0.000000
-19.393400 0.000000
-19.356600 0.000000
-19.319800 0.000000
-19.283100 0.000000
-19.246300 0.000000
-19.209500 0.000000
-19.172700 0.000000
-19.135900 0.000000
-19.099100 0.000000
-19.062300 0.000000
-19.025600 0.000000
-18.988800 0.000000
-18.952000 0.000000
-18.915200 0.000000
-18.878400 0.000000
-18.841600 0.000000
-18.804900 0.000000
-18.768100 0.000000
-18.731300 0.000000
-18.694500 0.000000
-18.657700 0.000000
-18.620900 0.000000
-18.584200 0.000000
-18.547400 0.000000
-18.510600 0.000000
-18.473800 0.000000
-18.437000 0.000000
-18.400200 0.000000
-18.363500 0.000000
-18.326700 0.000000
-18.289900 0.000000
-18.253100 0.000000
-18.216300 0.000000
-18.179500 0.000000
-18.142800 0.000000
-18.106000 0.000000
-18.069200 0.000000
-18.032400 0.000000
-17.995600 0.000000
-17.958800 0.000000
-17.922100 0.000000
-17.885300 0.000000
-17.848500 0.000000
-17.811700 0.000000
-17.774900 0.000000
-17.738100 0.000000
-17.701400 0.000000
-17.664600 0.000000
-17.627800 0.000000
-17.591000 0.000000
-17.554200 0.000000
-17.517400 0.000000
-17.480700 0.000000
-17.443900 0.180200
-17.407100 0.688400
-17.370300 1.467400
-17.333500 2.231500
-17.296700 2.743900
-17.260000 3.049400
-17.223200 3.045000
-17.186400 2.943400
-17.149600 2.780500
-17.112800 2.521500
-17.076000 2.291900
-17.039300 2.056300
-17.002500 1.904500
-16.965700 1.873700
-16.928900 1.873700
-16.892100 1.873800
-16.855300 4.158800
-16.818600 5.766700
-16.781800 5.791600
-16.745000 6.577000
-16.708200 8.074300
-16.671400 8.819000
-16.634600 6.092300
-16.597900 3.590500
-16.561100 2.984700
-16.524300 2.970400
-16.487500 2.956400
-16.450700 3.275700
-16.413900 5.155700
-16.377200 7.951800
-16.340400 9.779300
-16.303600 8.079600
-16.266800 10.155900
-16.230000 4.914800
-16.193200 4.962200
-16.156500 9.230200
-16.119700 14.481400
-16.082900 9.029800
-16.046100 8.411900
-16.009300 5.372600
-15.972500 3.384900
-15.935700 3.385000
-15.899000 3.385100
-15.862200 3.385300
-15.825400 3.385500
-15.788600 3.378600
-15.751800 3.256800
-15.715000 3.138900
-15.678300 2.978700
-15.641500 2.978700
-15.604700 2.978600
-15.567900 2.978600
-15.531100 2.978600
-15.494300 2.978600
-15.457600 3.182300
-15.420800 4.188700
-15.384000 4.829900
-15.347200 6.633300
-15.310400 6.252900
-15.273600 4.498300
-15.236900 3.264900
-15.200100 0.215700
-15.163300 0.000000
-15.126500 0.000000
-15.089700 0.000000
-15.052900 0.000000
-15.016200 0.000000
-14.979400 0.000000
-14.942600 0.000000
-14.905800 0.000000
-14.869000 0.000000
-14.832200 0.000000
-14.795500 0.000000
-14.758700 0.000000
-14.721900 0.000000
-14.685100 0.000000
-14.648300 0.000000
-14.611500 0.000000
-14.574800 0.000000
-14.538000 0.000000
-14.501200 0.000000
-14.464400 0.000000
-14.427600 0.000000
-14.390800 0.000000
-14.354100 0.000000
-14.317300 0.000000
-14.280500 0.000000
-14.243700 0.000000
-14.206900 0.000000
-14.170100 0.000000
-14.133400 0.000000
-14.096600 0.000000
-14.059800 0.000000
-14.023000 0.000000
-13.986200 0.000000
-13.949400 0.000000
-13.912700 0.000000
-13.875900 0.000000
-13.839100 0.000000
-13.802300 0.000000
-13.765500 0.000000
-13.728700 0.000000
-13.692000 0.000000
-13.655200 0.000000
-13.618400 0.000000
-13.581600 0.000000
-13.544800 0.000000
-13.508000 0.000000
-13.471300 0.000000
-13.434500 0.000000
-13.397700 0.000000
-13.360900 0.000000
-13.324100 0.000000
-13.287300 0.000000
-13.250600 0.000000
-13.213800 0.000000
-13.177000 0.000000
-13.140200 0.000000
-13.103400 0.000000
-13.066600 0.000000
-13.029800 0.000000
-12.993100 0.000000
-12.956300 0.000000
-12.919500 0.000000
-12.882700 0.000000
-12.845900 0.000000
-12.809100 0.000000
-12.772400 0.000000
-12.735600 0.000000
-12.698800 0.000000
-12.662000 0.000000
-12.625200 0.000000
-12.588400 0.000000
-12.551700 0.000000
-12.514900 0.000000
-12.478100 0.000000
-12.441300 0.000000
-12.404500 0.000000
-12.367700 0.000000
-12.331000 0.000000
-12.294200 0.000000
-12.257400 0.000000
-12.220600 0.000000
-12.183800 0.000000
-12.147000 0.000000
-12.110300 0.000000
-12.073500 0.000000
-12.036700 0.000000
-11.999900 0.000000
-11.963100 0.000000
-11.926300 0.000000
-11.889600 0.000000
-11.852800 0.000000
-11.816000 0.000000
-11.779200 0.000000
-11.742400 0.000000
-11.705600 0.000000
-11.668900 0.000000
-11.632100 0.000000
-11.595300 0.000000
-11.558500 0.000000
-11.521700 0.000000
-11.484900 0.000000
-11.448200 0.000000
-11.411400 0.000000
-11.374600 0.000000
-11.337800 0.000000
-11.301000 0.000000
-11.264200 0.000000
-11.227500 0.000000
-11.190700 0.000000
-11.153900 0.000000
-11.117100 0.000000
-11.080300 0.000000
-11.043500 0.000000
-11.006800 0.000000
-10.970000 0.000000
-10.933200 0.000000
-10.896400 0.000000
-10.859600 0.000000
-10.822800 0.000000
-10.786100 0.000000
-10.749300 0.000000
-10.712500 0.000000
-10.675700 0.000000
-10.638900 0.000000
-10.602100 0.000000
-10.565400 0.000000
-10.528600 0.000000
-10.491800 0.000000
-10.455000 0.000000
-10.418200 0.000000
-10.381400 0.000000
-10.344700 0.000000
-10.307900 0.000000
-10.271100 0.000000
-10.234300 0.000000
-10.197500 0.000000
-10.160700 0.000000
-10.124000 0.000000
-10.087200 0.000000
-10.050400 0.000000
-10.013600 0.000000
-9.976800 0.000000
-9.940000 0.000000
-9.903200 0.000000
-9.866500 0.000000
-9.829700 0.000000
-9.792900 0.000000
-9.756100 0.000000
-9.719300 0.000000
-9.682500 0.000000
-9.645800 0.000000
-9.609000 0.000000
-9.572200 0.000000
-9.535400 0.000000
-9.498600 0.000000
-9.461800 0.000000
-9.425100 0.000000
-9.388300 0.000000
-9.351500 0.000000
-9.314700 0.000000
-9.277900 0.000000
-9.241100 0.000000
-9.204400 0.000000
-9.167600 0.000000
-9.130800 0.000000
-9.094000 0.000000
-9.057200 0.000000
-9.020400 0.000000
-8.983700 0.000000
-8.946900 0.000000
-8.910100 0.000000
-8.873300 0.000000
-8.836500 0.000000
-8.799700 0.000000
-8.763000 0.000000
-8.726200 0.000000
-8.689400 0.000000
-8.652600 0.000000
-8.615800 0.000000
-8.579000 0.000000
-8.542300 0.000000
-8.505500 0.000000
-8.468700 0.000000
-8.431900 0.000000
-8.395100 0.000000
-8.358300 0.000000
-8.321600 0.000000
-8.284800 0.000000
-8.248000 0.000000
-8.211200 0.000000
-8.174400 0.000000
-8.137600 0.000000
-8.100900 0.000000
-8.064100 0.000000
-8.027300 0.000000
-7.990500 0.000000
-7.953700 0.000000
-7.916900 0.000000
-7.880200 0.000000
-7.843400 0.000000
-7.806600 0.000000
-7.769800 0.000000
-7.733000 0.000000
-7.696200 0.000000
-7.659500 0.000000
-7.622700 0.000000
-7.585900 0.000000
-7.549100 0.000000
-7.512300 0.000000
-7.475500 0.000000
-7.438800 0.000000
-7.402000 0.000000
-7.365200 0.000000
-7.328400 0.000000
-7.291600 0.000000
-7.254800 0.000000
-7.218100 0.000000
-7.181300 0.000000
-7.144500 0.000000
-7.107700 0.000000
-7.070900 0.000000
-7.034100 0.000000
-6.997300 0.000000
-6.960600 0.000000
-6.923800 0.000000
-6.887000 0.000000
-6.850200 0.000000
-6.813400 0.000000
-6.776600 0.000000
-6.739900 0.000000
-6.703100 0.000000
-6.666300 0.000000
-6.629500 0.000000
-6.592700 0.000000
-6.555900 0.000000
-6.519200 0.000000
-6.482400 0.000000
-6.445600 0.000000
-6.408800 0.000000
-6.372000 0.000000
-6.335200 0.000000
-6.298500 0.000000
-6.261700 0.000000
-6.224900 0.000000
-6.188100 0.000000
-6.151300 0.000000
-6.114500 0.000000
-6.077800 0.000000
-6.041000 0.000000
-6.004200 0.000000
-5.967400 0.000000
-5.930600 0.000000
-5.893800 0.000000
-5.857100 0.000000
-5.820300 0.000000
-5.783500 0.000000
-5.746700 0.000000
-5.709900 0.000000
-5.673100 0.000000
-5.636400 0.000000
-5.599600 0.000000
-5.562800 0.000000
-5.526000 0.000000
-5.489200 0.000000
-5.452400 0.000000
-5.415700 0.000000
-5.378900 0.000000
-5.342100 0.000000
-5.305300 0.000000
-5.268500 0.000000
-5.231700 0.000000
-5.195000 0.000000
-5.158200 0.000000
-5.121400 0.000000
-5.084600 0.008900
-5.047800 33.314700
-5.011000 12.647200
-4.974300 5.777200
-4.937500 3.898800
-4.900700 3.207100
-4.863900 2.564400
-4.827100 2.456100
-4.790300 2.427700
-4.753600 2.577400
-4.716800 2.994700
-4.680000 3.539300
-4.643200 4.294400
-4.606400 4.789900
-4.569600 5.458400
-4.532900 6.696800
-4.496100 7.527100
-4.459300 7.580300
-4.422500 7.425200
-4.385700 7.301000
-4.348900 6.989900
-4.312200 5.961900
-4.275400 4.509600
-4.238600 3.739800
-4.201800 4.435800
-4.165000 4.841900
-4.128200 9.394300
-4.091500 4.180000
-4.054700 4.192400
-4.017900 4.298300
-3.981100 4.600700
-3.944300 4.609200
-3.907500 4.576400
-3.870700 4.324500
-3.834000 4.021300
-3.797200 3.872400
-3.760400 3.951300
-3.723600 4.169600
-3.686800 4.338400
-3.650000 4.698200
-3.613300 5.320700
-3.576500 5.123600
-3.539700 4.864300
-3.502900 4.652300
-3.466100 4.579600
-3.429300 4.737600
-3.392600 4.890700
-3.355800 4.960900
-3.319000 5.011000
-3.282200 5.019400
-3.245400 5.111500
-3.208600 5.169500
-3.171900 5.780300
-3.135100 5.416900
-3.098300 5.337500
-3.061500 5.305700
-3.024700 5.272300
-2.987900 5.098600
-2.951200 5.473200
-2.914400 5.874000
-2.877600 6.254600
-2.840800 6.457000
-2.804000 6.587900
-2.767200 6.557100
-2.730500 6.176800
-2.693700 6.245700
-2.656900 6.122800
-2.620100 6.060000
-2.583300 6.051900
-2.546500 6.074600
-2.509800 5.987800
-2.473000 5.947100
-2.436200 6.083000
-2.399400 6.695600
-2.362600 7.196700
-2.325800 7.842200
-2.289100 7.543000
-2.252300 7.699000
-2.215500 7.971900
-2.178700 8.103600
-2.141900 6.891700
-2.105100 5.260900
-2.068400 4.741500
-2.031600 4.694200
-1.994800 5.742400
-1.958000 4.821900
-1.921200 5.067000
-1.884400 5.313700
-1.847700 5.793800
-1.810900 6.740900
-1.774100 6.060000
-1.737300 6.805400
-1.700500 8.454000
-1.663700 7.272300
-1.627000 9.454600
-1.590200 8.468100
-1.553400 8.990400
-1.516600 7.379900
-1.479800 7.387400
-1.443000 7.582200
-1.406300 8.744200
-1.369500 10.782800
-1.332700 11.778300
-1.295900 13.318700
-1.259100 8.923200
-1.222300 6.186500
-1.185600 3.813200
-1.148800 2.999400
-1.112000 2.754000
-1.075200 2.692800
-1.038400 3.500000
-1.001600 3.608100
-0.964800 2.610500
-0.928100 3.655600
-0.891300 6.540800
-0.854500 6.863900
-0.817700 6.127300
-0.780900 6.897400
-0.744100 11.164900
-0.707400 7.715000
-0.670600 10.247200
-0.633800 9.901400
-0.597000 8.284700
-0.560200 6.696700
-0.523400 5.496300
-0.486700 5.376700
-0.449900 5.387500
-0.413100 5.101800
-0.376300 4.882200
-0.339500 4.740200
-0.302700 4.882200
-0.266000 4.150800
-0.229200 3.449800
-0.192400 2.814700
-0.155600 2.732300
-0.118800 2.658500
-0.082000 3.329200
-0.045300 3.845600
-0.008500 4.695700
0.028300 4.903600
0.065100 2.204600
0.101900 1.315800
0.138700 0.047200
0.175400 0.000000
0.212200 0.000000
0.249000 0.000000
0.285800 0.000000
0.322600 0.000000
0.359400 0.000000
0.396100 0.000000
0.432900 0.000000
0.469700 0.000000
0.506500 0.000000
0.543300 0.000000
0.580100 0.000000
0.616800 0.000000
0.653600 0.000000
0.690400 0.000000
0.727200 0.000000
0.764000 0.000000
0.800800 0.000000
0.837500 0.000000
0.874300 0.000000
0.911100 0.000000
0.947900 0.000000
0.984700 0.000000
1.021500 0.000000
1.058200 0.000000
1.095000 0.000000
1.131800 0.000000
1.168600 0.000000
1.205400 0.000000
1.242200 0.000000
1.278900 0.000000
1.315700 0.000000
1.352500 0.000000
1.389300 0.000000
1.426100 0.000000
1.462900 0.000000
1.499600 0.000000
1.536400 0.000000
1.573200 0.000000
1.610000 0.000000
1.646800 0.000000
1.683600 0.000000
1.720300 0.000000
1.757100 0.000000
1.793900 0.000000
1.830700 0.000000
1.867500 0.000000
1.904300 0.000000
1.941000 0.000000
1.977800 0.000000
2.014600 0.000000
2.051400 0.000000
2.088200 0.000000
2.125000 0.000000
2.161800 0.000000
2.198500 0.000000
2.235300 0.000000
2.272100 0.000000
2.308900 0.000000
2.345700 0.000000
2.382500 0.012600
2.419200 0.047100
2.456000 0.098300
2.492800 0.167300
2.529600 0.258700
2.566400 0.371900
2.603200 0.489300
2.639900 0.603000
2.676700 0.715700
2.713500 2.111200
2.750300 3.022200
2.787100 3.887600
2.823900 4.933700
2.860600 7.568900
2.897400 6.490500
2.934200 4.606100
2.971000 4.475600
3.007800 4.272000
3.044600 3.661900
3.081300 3.210300
3.118100 3.130600
3.154900 3.150400
3.191700 3.076400
3.228500 2.862200
3.265300 2.618700
3.302000 2.369800
3.338800 2.170500
3.375600 2.027200
3.412400 1.930100
3.449200 1.856400
3.486000 1.807200
3.522700 1.795800
3.559500 1.827700
3.596300 1.925200
3.633100 2.043600
3.669900 2.189300
3.706700 2.408700
3.743400 2.795400
3.780200 3.445200
3.817000 3.629100
3.853800 3.832700
3.890600 3.720900
3.927400 3.903000
3.964100 4.081500
4.000900 4.267500
4.037700 4.465500
4.074500 4.626100
4.111300 4.673700
4.148100 7.086800
4.184800 6.408300
4.221600 4.985700
4.258400 5.001700
4.295200 5.173300
4.332000 5.412100
4.368800 6.040900
4.405500 5.953200
4.442300 6.058700
4.479100 5.975900
4.515900 5.761400
4.552700 5.577200
4.589500 5.798600
4.626200 5.990100
4.663000 5.990400
4.699800 5.768600
4.736600 5.414500
4.773400 5.170100
4.810200 5.564300
4.846900 6.008200
4.883700 5.551300
4.920500 5.397400
4.957300 5.598800
4.994100 5.660400
5.030900 5.570400
5.067700 5.347200
5.104400 4.983000
5.141200 4.508700
5.178000 3.858500
5.214800 3.374200
5.251600 3.107800
5.288400 2.834700
5.325100 2.684900
5.361900 2.753700
5.398700 3.330700
5.435500 3.272700
5.472300 3.809800
5.509100 4.056800
5.545800 3.028100
5.582600 2.390800
5.619400 2.211700
5.656200 2.182900
5.693000 2.292200
5.729800 2.526100
5.766500 2.824800
5.803300 3.043800
5.840100 3.082700
5.876900 2.712200
5.913700 2.460200
5.950500 2.264800
5.987200 2.165500
6.024000 2.141300
6.060800 2.125600
6.097600 2.110400
6.134400 2.096200
6.171200 2.061300
6.207900 1.979700
6.244700 1.735000
6.281500 1.584800
6.318300 1.577700
6.355100 1.567600
6.391900 1.555400
6.428600 1.560200
6.465400 1.672800
6.502200 1.842200
6.539000 1.975500
6.575800 1.326600
6.612600 1.312100
6.649300 1.619800
6.686100 1.842100
6.722900 2.072700
6.759700 2.156100
6.796500 2.230200
6.833300 2.320900
6.870000 2.438200
6.906800 2.559700
6.943600 2.635000
6.980400 2.676900
7.017200 2.708700
7.054000 2.755800
7.090700 2.792400
7.127500 2.794800
7.164300 2.890500
7.201100 3.033200
7.237900 3.101000
7.274700 3.069600
7.311400 2.944400
7.348200 2.905500
7.385000 2.898500
7.421800 2.894900
7.458600 2.892400
7.495400 2.924100
7.532100 3.125500
7.568900 3.194800
7.605700 3.178800
7.642500 3.221800
7.679300 3.238700
7.716100 3.216000
7.752800 3.147400
7.789600 3.085200
7.826400 3.032300
7.863200 2.971400
7.900000 2.933200
7.936800 2.949900
7.973500 2.862400
8.010300 2.211300
8.047100 2.215200
8.083900 1.851600
8.120700 1.885400
8.157500 1.909500
8.194300 1.926400
8.231000 1.942700
8.267800 1.962500
8.304600 1.978000
8.341400 1.973000
8.378200 1.962300
8.415000 1.950500
8.451700 1.937900
8.488500 1.930100
8.525300 1.933900
8.562100 1.949800
8.598900 1.984200
8.635700 2.027300
8.672400 2.085700
8.709200 2.145700
8.746000 2.277400
8.782800 2.448600
8.819600 2.587200
8.856400 2.717700
8.893100 2.945800
8.929900 3.127500
8.966700 3.178200
9.003500 3.245800
9.040300 3.320800
9.077100 3.265000
9.113800 2.711600
9.150600 2.298000
9.187400 2.043500
9.224200 1.916500
9.261000 1.822800
9.297800 1.788300
9.334500 1.826500
9.371300 1.915200
9.408100 1.934200
9.444900 1.754400
9.481700 1.460700
9.518500 1.148900
9.555200 1.040500
9.592000 1.050100
9.628800 1.093000
9.665600 1.140500
9.702400 1.195100
9.739200 1.259300
9.775900 1.336400
9.812700 1.434900
9.849500 1.551100
9.886300 1.610100
9.923100 1.607300
9.959900 1.577800
9.996600 1.543700
10.033400 1.505000
10.070200 1.468800
10.107000 1.432900
10.143800 1.369500
10.180600 0.908300
10.217300 0.855400
10.254100 0.817900
10.290900 0.819800
10.327700 0.847200
10.364500 0.889900
10.401300 0.967200
10.438000 1.058200
10.474800 1.157500
10.511600 1.260000
10.548400 1.335000
10.585200 1.406700
10.622000 1.489900
10.658700 1.590200
10.695500 1.643200
10.732300 1.640700
10.769100 1.651600
10.805900 1.713500
10.842700 1.792500
10.879400 1.882900
10.916200 1.891600
10.953000 1.858300
10.989800 1.886500
11.026600 1.895700
11.063400 1.887000
11.100200 1.883200
11.136900 1.995500
11.173700 2.120500
11.210500 2.148800
11.247300 2.059500
11.284100 1.843400
11.320900 1.594000
11.357600 1.394600
11.394400 1.272400
11.431200 1.203200
11.468000 1.219700
11.504800 1.316000
11.541600 1.437600
11.578300 1.568800
11.615100 1.700800
11.651900 1.787100
11.688700 1.891600
11.725500 2.031200
11.762300 2.349900
11.799000 2.678100
11.835800 2.696000
11.872600 2.704900
11.909400 2.598500
11.946200 2.420800
11.983000 2.204500
12.019700 1.968400
12.056500 1.711700
12.093300 1.579800
12.130100 1.465500
12.166900 1.338700
12.203700 1.178700
12.240400 1.030700
12.277200 0.934400
12.314000 0.798900
12.350800 1.464500
12.387600 1.751300
12.424400 2.079900
12.461100 2.275200
12.497900 2.357000
12.534700 2.493400
12.571500 2.573900
12.608300 2.395200
12.645100 2.390200
12.681800 2.422000
12.718600 2.498700
12.755400 2.638100
12.792200 2.623300
12.829000 2.566600
12.865800 2.517800
12.902500 2.424000
12.939300 2.328000
12.976100 2.222000
13.012900 2.141400
13.049700 2.160800
13.086500 2.399600
13.123200 2.404500
13.160000 2.752700
13.196800 2.757200
13.233600 2.685300
13.270400 2.567500
13.307200 2.396500
13.343900 2.268700
13.380700 2.210500
13.417500 2.303100
13.454300 2.323100
13.491100 2.320600
13.527900 2.155500
13.564600 2.224700
13.601400 2.387400
13.638200 2.763800
13.675000 2.678500
13.711800 2.772200
13.748600 2.872400
13.785300 2.933800
13.822100 2.654700
13.858900 2.742500
13.895700 3.045300
13.932500 3.097100
13.969300 2.868100
14.006000 2.678100
14.042800 2.602300
14.079600 2.574500
14.116400 2.570100
14.153200 2.666600
14.190000 2.945800
14.226800 3.015900
14.263500 3.225700
14.300300 3.379600
14.337100 3.280900
14.373900 3.288900
14.410700 3.110000
14.447500 3.017000
14.484200 2.980200
14.521000 3.023900
14.557800 3.144700
14.594600 3.208200
14.631400 3.212400
14.668200 3.171500
14.704900 3.078200
14.741700 3.011600
14.778500 3.482600
14.815300 2.566800
14.852100 2.535900
14.888900 2.540400
14.925600 2.543600
14.962400 2.614200
14.999200 2.705300
15.036000 2.810800
15.072800 2.852900
15.109600 3.078300
15.146300 3.469800
15.183100 3.811900
15.219900 4.031400
15.256700 4.009100
15.293500 3.579100
15.330300 3.492000
15.367000 3.353000
15.403800 3.158900
15.440600 2.956400
15.477400 2.877600
15.514200 2.927700
15.551000 2.991500
15.587700 3.081200
15.624500 3.346300
15.661300 4.189300
15.698100 4.695300
15.734900 3.927900
15.771700 3.565100
15.808400 3.636200
15.845200 3.903700
15.882000 3.707100
15.918800 3.465900
15.955600 3.385800
15.992400 3.375300
16.029100 3.300200
16.065900 3.430800
16.102700 3.449900
16.139500 3.457400
16.176300 3.568300
16.213100 4.039200
16.249800 4.788500
16.286600 4.234500
16.323400 4.076900
16.360200 3.767700
16.397000 3.459900
16.433800 3.404900
16.470500 3.318300
16.507300 3.274000
16.544100 3.408500
16.580900 3.503000
16.617700 3.553900
16.654500 3.601500
16.691200 3.567500
16.728000 3.339900
16.764800 3.122000
16.801600 3.069100
16.838400 3.251900
16.875200 3.998500
16.911900 4.046700
16.948700 4.142300
16.985500 4.115300
17.022300 4.056200
17.059100 3.946400
17.095900 3.783900
17.132700 3.667500
17.169400 3.599300
17.206200 3.970600
17.243000 4.082500
17.279800 4.169800
17.316600 4.109900
17.353400 3.841400
17.390100 3.597400
17.426900 3.412500
17.463700 3.141000
17.500500 2.995400
17.537300 2.831300
17.574100 2.552000
17.610800 2.184200
17.647600 2.111200
17.684400 2.234900
17.721200 2.461600
17.758000 2.720300
17.794800 3.056900
17.831500 3.408800
17.868300 3.841400
17.905100 4.718600
17.941900 4.490900
17.978700 4.238300
18.015500 4.441000
18.052200 4.082000
18.089000 3.676600
18.125800 3.362700
18.162600 3.123300
18.199400 2.846600
18.236200 2.567800
18.272900 2.369900
18.309700 2.316300
18.346500 2.401700
18.383300 2.493400
18.420100 2.665100
18.456900 2.859300
18.493600 3.069100
18.530400 3.369900
18.567200 3.450000
18.604000 3.315300
18.640800 3.071100
18.677600 2.875700
18.714300 2.757100
18.751100 2.803500
18.787900 2.797700
18.824700 2.796200
18.861500 2.787700
18.898300 2.832900
18.935000 2.874900
18.971800 2.798400
19.008600 2.604800
19.045400 2.404700
19.082200 2.432600
19.119000 2.687700
19.155700 3.043400
19.192500 3.396100
19.229300 3.187600
19.266100 3.177000
19.302900 3.348800
19.339700 3.494900
19.376400 3.577100
19.413200 3.192600
19.450000 2.866600
19.486800 2.502300
19.523600 2.222700
19.560400 2.039800
19.597100 1.958700
19.633900 1.920100
19.670700 1.979000
19.707500 2.079500
19.744300 2.305700
19.781100 2.583100
19.817800 2.792000
19.854600 2.849500
19.891400 2.729600
19.928200 2.577200
19.965000 2.446000
20.001800 2.473300
20.038500 2.501000
20.075300 2.511000
20.112100 2.509600
20.148900 2.496600
20.185700 2.496100
20.222500 2.553700
20.259300 2.760000
20.296000 2.902300
20.332800 2.773900
20.369600 2.487200
20.406400 2.323100
20.443200 2.218400
20.480000 2.086900
20.516700 2.009800
20.553500 1.957100
20.590300 1.951000
20.627100 1.998700
20.663900 2.112500
20.700700 2.274200
20.737400 2.479900
20.774200 2.661000
20.811000 2.978500
20.847800 3.294800
20.884600 3.482900
20.921400 3.111200
20.958100 2.805000
20.994900 2.619000
21.031700 2.526700
21.068500 2.415400
21.105300 2.521300
21.142100 2.641700
21.178800 2.757700
21.215600 2.884400
21.252400 3.627700
21.289200 3.630300
21.326000 3.256900
21.362800 3.300700
21.399500 3.337200
21.436300 3.355700
21.473100 3.342800
21.509900 3.288900
21.546700 3.142200
21.583500 2.964100
21.620200 2.853300
21.657000 2.826100
21.693800 2.654000
21.730600 2.581700
21.767400 2.576000
21.804200 2.781900
21.840900 3.236900
21.877700 3.846500
21.914500 4.227100
21.951300 4.731600
21.988100 4.722700
22.024900 4.602800
22.061600 4.669200
22.098400 4.498100
22.135200 5.507700
22.172000 3.442100
22.208800 2.526100
22.245600 2.289500
22.282300 2.230700
22.319100 2.381700
22.355900 2.868900
22.392700 3.292500
22.429500 3.626700
22.466300 4.223400
22.503000 5.142300
22.539800 5.821200
22.576600 6.040300
22.613400 4.910300
22.650200 4.229100
22.687000 4.274300
22.723700 4.117100
22.760500 3.510900
22.797300 3.494000
22.834100 3.753800
22.870900 4.010400
22.907700 4.259200
22.944400 4.644300
22.981200 5.348700
23.018000 5.424400
23.054800 4.890900
23.091600 4.137500
23.128400 3.922400
23.165200 4.146100
23.201900 4.466200
23.238700 3.840900
23.275500 3.795800
23.312300 4.049900
23.349100 4.236200
23.385900 4.225900
23.422600 4.215400
23.459400 4.401100
23.496200 4.064900
23.533000 3.705400
23.569800 3.571700
23.606600 3.752500
23.643300 4.453400
23.680100 4.571200
23.716900 4.471400
23.753700 4.261800
23.790500 4.049900
23.827300 3.388500
23.864000 3.464700
23.900800 3.663200
23.937600 3.865900
23.974400 4.039100
24.011200 3.897900
24.048000 3.787600
24.084700 4.131500
24.121500 4.691400
24.158300 4.478500
24.195100 4.695100
24.231900 4.831500
24.268700 4.303100
24.305400 3.945800
24.342200 3.785200
24.379000 3.783800
24.415800 3.790600
24.452600 3.893100
24.489400 4.137200
24.526100 4.351200
24.562900 4.639600
24.599700 4.397100
24.636500 4.274900
24.673300 4.288500
24.710100 4.119800
24.746800 4.007600
24.783600 3.860700
24.820400 3.849000
24.857200 4.035300
24.894000 4.018900
24.930800 3.971300
24.967500 4.030600
25.004300 4.125200
25.041100 4.268200
25.077900 4.262800
25.114700 3.904200
25.151500 3.762100
25.188200 3.466100
25.225000 3.249000
25.261800 3.249200
25.298600 3.426200
25.335400 3.800900
25.372200 4.283900
25.408900 4.484300
25.445700 4.297800
25.482500 4.198600
25.519300 4.179900
25.556100 4.383000
25.592900 4.648700
25.629600 4.912600
25.666400 4.938900
25.703200 4.736000
25.740000 3.934100
25.776800 3.598400
25.813600 3.459300
25.850300 3.439200
25.887100 3.492000
25.923900 3.403500
25.960700 3.489600
25.997500 3.586900
26.034300 3.649500
26.071000 3.691500
26.107800 3.844100
26.144600 4.113200
26.181400 4.357700
26.218200 4.628200
26.255000 4.683800
26.291800 4.491100
26.328500 4.360300
26.365300 4.221100
26.402100 4.056100
26.438900 3.865000
26.475700 3.751200
26.512500 3.778100
26.549200 3.858800
26.586000 3.806300
26.622800 3.751300
26.659600 3.704400
26.696400 3.310100
26.733200 3.233400
26.769900 3.206500
26.806700 3.177100
26.843500 3.143800
26.880300 3.061600
26.917100 3.080500
26.953900 2.976200
26.990600 2.905400
27.027400 2.872400
27.064200 2.853100
27.101000 2.921700
27.137800 3.103200
27.174600 3.231800
27.211300 3.277300
27.248100 3.170700
27.284900 2.922300
27.321700 2.834900
27.358500 2.838700
27.395300 2.819300
27.432000 2.757200
27.468800 2.797100
27.505600 2.699100
27.542400 2.580800
27.579200 2.507100
27.616000 2.538800
27.652700 2.670500
27.689500 2.871400
27.726300 2.959300
27.763100 3.062200
27.799900 3.305400
27.836700 3.479500
27.873400 3.564100
27.910200 3.608200
27.947000 3.811400
27.983800 4.012000
28.020600 4.237900
28.057400 4.459800
28.094100 4.281200
28.130900 4.299000
28.167700 4.359800
28.204500 4.431300
28.241300 5.003000
28.278100 4.772500
28.314800 4.395000
28.351600 3.951800
28.388400 3.370400
28.425200 2.906200
28.462000 3.036500
28.498800 3.094500
28.535500 2.969000
28.572300 2.830300
28.609100 2.731200
28.645900 2.545400
28.682700 3.114100
28.719500 3.212900
28.756200 3.180600
28.793000 2.844200
28.829800 2.725200
28.866600 2.722300
28.903400 2.553400
28.940200 2.516100
28.976900 2.616800
29.013700 2.825700
29.050500 3.000700
29.087300 3.065600
29.124100 3.125100
29.160900 3.204000
29.197700 3.291000
29.234400 3.260200
29.271200 3.023200
29.308000 2.937400
29.344800 3.061500
29.381600 3.450600
29.418400 3.524500
29.455100 3.897700
29.491900 4.623100
29.528700 5.200200
29.565500 5.002700
29.602300 4.429200
29.639100 4.493700
29.675800 4.187700
29.712600 3.387800
29.749400 2.762300
29.786200 2.965600
29.823000 3.267600
29.859800 3.456500
29.896500 3.601400
29.933300 3.779300
29.970100 3.955900
30.006900 3.837300
30.043700 3.752900
30.080500 3.573400
30.117200 3.412200
30.154000 3.311300
30.190800 3.274200
30.227600 3.285400
30.264400 3.291400
30.301200 3.288400
30.337900 3.491800
30.374700 3.622000
30.411500 3.500300
30.448300 3.022400
30.485100 2.629100
30.521900 2.390900
30.558600 2.340100
30.595400 2.596300
30.632200 3.112200
30.669000 3.471000
30.705800 3.855000
30.742600 4.160400
30.779300 4.197600
30.816100 3.995000
30.852900 3.941200
30.889700 3.623200
30.926500 3.528700
30.963300 3.686000
31.000000 3.185200
31.036800 3.188000
31.073600 3.066900
31.110400 2.942900
31.147200 3.229300
31.184000 3.460100
31.220700 3.461800
31.257500 3.278300
31.294300 3.257400
31.331100 3.104900
31.367900 3.150900
31.404700 3.317800
31.441400 3.634300
31.478200 4.033800
31.515000 4.468700
31.551800 5.039600
31.588600 5.492600
31.625400 4.332500
31.662100 3.718700
31.698900 3.630700
31.735700 3.737500
31.772500 4.115600
31.809300 4.401900
31.846100 4.508100
31.882800 4.534000
31.919600 4.642100
31.956400 4.208900
31.993200 4.009400
32.030000 3.844400
32.066800 3.718700
32.103500 3.591300
32.140300 3.551400
32.177100 3.955200
32.213900 3.925300
32.250700 4.204900
32.287500 3.808800
32.324300 3.364300
32.361000 3.217900
32.397800 4.597400
32.434600 4.182100
32.471400 4.240400
32.508200 4.212400
32.545000 4.104600
32.581700 4.154100
32.618500 4.398800
32.655300 4.641200
32.692100 4.771300
32.728900 4.846400
32.765700 4.863800
32.802400 4.757200
32.839200 4.660900
32.876000 4.496200
32.912800 4.263900
32.949600 3.949400
32.986400 3.806600
33.023100 3.808100
33.059900 4.455800
33.096700 3.987100
33.133500 4.152200
33.170300 5.281900
33.207100 4.650800
33.243800 4.234900
33.280600 4.138700
33.317400 4.594000
33.354200 4.614600
33.391000 5.301400
33.427800 5.756100
33.464500 5.866400
33.501300 5.747300
33.538100 4.828100
33.574900 4.412100
33.611700 4.187400
33.648500 4.247500
33.685200 4.658200
33.722000 4.889500
33.758800 4.813700
33.795600 4.976400
33.832400 5.504000
33.869200 5.623100
33.905900 5.272200
33.942700 4.940400
33.979500 4.846000
34.016300 4.947200
34.053100 5.019200
34.089900 5.135700
34.126600 5.426300
34.163400 5.586200
34.200200 5.511500
34.237000 5.309200
34.273800 5.192800
34.310600 5.000400
34.347300 4.987100
34.384100 5.040900
34.420900 5.292400
34.457700 5.713900
34.494500 6.288600
34.531300 6.861100
34.568000 7.529400
34.604800 8.133100
34.641600 8.766400
34.678400 9.272100
34.715200 9.671300
34.752000 9.571800
34.788700 8.328400
34.825500 6.871700
34.862300 6.917700
34.899100 6.119900
34.935900 4.676700
34.972700 3.083800
35.009400 2.562000
35.046200 2.165100
35.083000 1.907200
35.119800 1.694600
35.156600 1.506300
35.193400 1.340900
35.230200 1.197300
35.266900 1.078800
35.303700 0.953500
35.340500 0.839500
35.377300 0.759900
35.414100 0.692000
35.450900 0.635600
35.487600 0.587000
35.524400 0.541800
35.561200 0.439400
35.598000 0.231700
35.634800 0.148000
35.671600 0.101300
35.708300 0.053500
35.745100 0.004500
35.781900 0.000000
35.818700 0.000000
35.855500 0.000000
35.892300 0.000000
35.929000 0.000000
35.965800 0.000000
36.002600 0.000000
36.039400 0.000000
36.076200 0.000000
36.113000 0.000000
36.149700 0.000000
36.186500 0.000000
36.223300 0.000000
36.260100 0.000000
36.296900 0.000000
36.333700 0.000000
36.370400 0.000000
36.407200 0.000000
36.444000 0.000000
36.480800 0.000000
36.517600 0.000000
36.554400 0.000000
36.591100 0.000000
36.627900 0.000000
36.664700 0.000000
36.701500 0.000000
36.738300 0.000000
36.775100 0.000000
36.811800 0.000000
36.848600 0.000000
36.885400 0.000000
36.922200 0.000000
36.959000 0.000000
36.995800 0.000000
37.032500 0.000000
37.069300 0.000000
37.106100 0.000000
37.142900 0.000000
37.179700 0.000000
37.216500 0.000000
37.253200 0.000000
37.290000 0.000000
37.326800 0.000000
37.363600 0.000000
37.400400 0.000000
37.437200 0.000000
37.473900 0.000000
37.510700 0.000000
37.547500 0.000000
37.584300 0.000000
37.621100 0.000000
37.657900 0.000000
37.694600 0.000000
37.731400 0.000000
37.768200 0.000000
37.805000 0.000000
37.841800 0.000000
37.878600 0.000000
37.915300 0.000000
37.952100 0.000000
37.988900 0.000000
38.025700 0.000000
38.062500 0.000000
38.099300 0.000000
38.136000 0.000000
38.172800 0.000000
38.209600 0.000000
38.246400 0.000000
38.283200 0.000000
38.320000 0.000000
38.356800 0.000000
38.393500 0.000000
38.430300 0.000000
38.467100 0.000000
38.503900 0.000000
38.540700 0.000000
38.577500 0.000000
38.614200 0.000000
38.651000 0.000000
38.687800 0.000000
38.724600 0.000000
38.761400 0.000000
38.798200 0.000000
38.834900 0.000000
38.871700 0.000000
38.908500 0.000000
38.945300 0.000000
38.982100 0.000000
39.018900 0.000000
39.055600 0.000000
39.092400 0.000000
e
