set title 'mp-11140 - Density of States'
set xlabel 'Energy (eV)'
set ylabel 'DOS (states/eV)'
set grid
set xrange [-10:10]
set yrange [0:46.665]
set xzeroaxis lt -1
set terminal png size 800,600
set output 'mp-11140_dos_gnuplot.png'
plot '-' using 1:2 with lines title 'DOS'
-19.436200 0.000000
-19.419700 0.000000
-19.403200 0.000000
-19.386700 0.000000
-19.370200 0.000000
-19.353700 0.000000
-19.337200 0.000000
-19.320700 0.000000
-19.304200 0.000000
-19.287700 0.000000
-19.271200 0.000000
-19.254700 0.000000
-19.238300 0.000000
-19.221800 0.000000
-19.205300 0.000000
-19.188800 0.000000
-19.172300 0.000000
-19.155800 0.000000
-19.139300 0.000000
-19.122800 0.000000
-19.106300 0.000000
-19.089800 0.000000
-19.073300 0.000000
-19.056800 0.000000
-19.040300 0.000000
-19.023800 0.000000
-19.007300 0.000000
-18.990800 0.000000
-18.974300 0.000000
-18.957800 0.000000
-18.941300 0.000000
-18.924800 0.000000
-18.908300 0.000000
-18.891800 0.000000
-18.875300 0.000000
-18.858800 0.000000
-18.842300 0.000000
-18.825800 0.000000
-18.809300 0.000000
-18.792800 0.000000
-18.776400 0.000000
-18.759900 0.000000
-18.743400 0.000000
-18.726900 0.000000
-18.710400 0.000000
-18.693900 0.000000
-18.677400 0.000000
-18.660900 0.000000
-18.644400 0.000000
-18.627900 0.000000
-18.611400 0.000000
-18.594900 0.000000
-18.578400 0.000000
-18.561900 0.000000
-18.545400 0.000000
-18.528900 0.000000
-18.512400 0.000000
-18.495900 0.000000
-18.479400 0.000000
-18.462900 0.000000
-18.446400 0.000000
-18.429900 0.000000
-18.413400 0.000000
-18.396900 0.000000
-18.380400 0.000000
-18.363900 0.000000
-18.347400 0.000000
-18.330900 0.000000
-18.314500 0.000000
-18.298000 0.000000
-18.281500 0.000000
-18.265000 0.000000
-18.248500 0.000000
-18.232000 0.000000
-18.215500 0.000000
-18.199000 0.000000
-18.182500 0.000000
-18.166000 0.000000
-18.149500 0.000000
-18.133000 0.000000
-18.116500 0.000000
-18.100000 0.000000
-18.083500 0.000000
-18.067000 0.000000
-18.050500 0.000000
-18.034000 0.000000
-18.017500 0.000000
-18.001000 0.000000
-17.984500 0.000000
-17.968000 0.000000
-17.951500 0.000000
-17.935000 160.422700
-17.918500 0.000000
-17.902000 47.156100
-17.885500 376.862800
-17.869100 55.373700
-17.852600 0.000000
-17.836100 0.000000
-17.819600 0.000000
-17.803100 0.000000
-17.786600 287.554900
-17.770100 0.000000
-17.753600 0.000000
-17.737100 305.002600
-17.720600 62.531200
-17.704100 45.037300
-17.687600 177.816100
-17.671100 0.000000
-17.654600 473.064300
-17.638100 45.229000
-17.621600 105.706500
-17.605100 96.102500
-17.588600 198.918100
-17.572100 0.000000
-17.555600 0.000000
-17.539100 0.000000
-17.522600 0.000000
-17.506100 0.000000
-17.489600 0.000000
-17.473100 0.000000
-17.456600 0.000000
-17.440100 0.000000
-17.423600 0.000000
-17.407200 0.000000
-17.390700 0.000000
-17.374200 0.000000
-17.357700 0.000000
-17.341200 0.000000
-17.324700 0.000000
-17.308200 0.000000
-17.291700 0.000000
-17.275200 0.000000
-17.258700 0.000000
-17.242200 0.000000
-17.225700 0.000000
-17.209200 0.000000
-17.192700 0.000000
-17.176200 0.000000
-17.159700 0.000000
-17.143200 0.000000
-17.126700 0.000000
-17.110200 0.000000
-17.093700 0.000000
-17.077200 0.000000
-17.060700 0.000000
-17.044200 0.000000
-17.027700 0.000000
-17.011200 0.000000
-16.994700 0.000000
-16.978200 0.000000
-16.961700 0.000000
-16.945300 0.000000
-16.928800 0.000000
-16.912300 0.000000
-16.895800 0.000000
-16.879300 0.000000
-16.862800 0.000000
-16.846300 0.000000
-16.829800 0.000000
-16.813300 0.000000
-16.796800 0.000000
-16.780300 0.000000
-16.763800 0.000000
-16.747300 0.000000
-16.730800 0.000000
-16.714300 0.000000
-16.697800 0.000000
-16.681300 0.000000
-16.664800 0.000000
-16.648300 0.000000
-16.631800 0.000000
-16.615300 0.000000
-16.598800 0.000000
-16.582300 0.000000
-16.565800 0.000000
-16.549300 0.000000
-16.532800 0.000000
-16.516300 0.000000
-16.499900 0.000000
-16.483400 0.000000
-16.466900 0.000000
-16.450400 0.000000
-16.433900 0.000000
-16.417400 0.000000
-16.400900 0.000000
-16.384400 0.000000
-16.367900 0.000000
-16.351400 0.000000
-16.334900 0.000000
-16.318400 0.000000
-16.301900 0.000000
-16.285400 0.000000
-16.268900 0.000000
-16.252400 0.000000
-16.235900 0.000000
-16.219400 0.000000
-16.202900 0.000000
-16.186400 0.000000
-16.169900 0.000000
-16.153400 0.000000
-16.136900 0.000000
-16.120400 0.000000
-16.103900 0.000000
-16.087400 0.000000
-16.070900 0.000000
-16.054400 0.000000
-16.038000 0.000000
-16.021500 0.000000
-16.005000 0.000000
-15.988500 0.000000
-15.972000 0.000000
-15.955500 0.000000
-15.939000 0.000000
-15.922500 0.000000
-15.906000 0.000000
-15.889500 0.000000
-15.873000 0.000000
-15.856500 0.000000
-15.840000 0.000000
-15.823500 0.000000
-15.807000 0.000000
-15.790500 0.000000
-15.774000 0.000000
-15.757500 0.000000
-15.741000 0.000000
-15.724500 0.000000
-15.708000 0.000000
-15.691500 0.000000
-15.675000 0.000000
-15.658500 0.000000
-15.642000 0.000000
-15.625500 0.000000
-15.609000 0.000000
-15.592500 0.000000
-15.576100 0.000000
-15.559600 0.000000
-15.543100 0.000000
-15.526600 0.000000
-15.510100 0.000000
-15.493600 0.000000
-15.477100 0.000000
-15.460600 0.000000
-15.444100 0.000000
-15.427600 0.000000
-15.411100 0.000000
-15.394600 0.000000
-15.378100 0.000000
-15.361600 0.000000
-15.345100 0.000000
-15.328600 0.000000
-15.312100 0.000000
-15.295600 0.000000
-15.279100 0.000000
-15.262600 0.000000
-15.246100 0.000000
-15.229600 0.000000
-15.213100 0.000000
-15.196600 0.000000
-15.180100 0.000000
-15.163600 0.000000
-15.147100 0.000000
-15.130700 0.000000
-15.114200 0.000000
-15.097700 0.000000
-15.081200 0.000000
-15.064700 0.000000
-15.048200 0.000000
-15.031700 0.000000
-15.015200 0.000000
-14.998700 0.000000
-14.982200 0.000000
-14.965700 0.000000
-14.949200 0.000000
-14.932700 0.000000
-14.916200 0.000000
-14.899700 0.000000
-14.883200 0.000000
-14.866700 0.000000
-14.850200 0.000000
-14.833700 0.000000
-14.817200 0.000000
-14.800700 0.000000
-14.784200 0.000000
-14.767700 0.000000
-14.751200 0.000000
-14.734700 0.000000
-14.718200 0.000000
-14.701700 0.000000
-14.685200 0.000000
-14.668800 0.000000
-14.652300 0.000000
-14.635800 0.000000
-14.619300 0.000000
-14.602800 0.000000
-14.586300 0.000000
-14.569800 0.000000
-14.553300 0.000000
-14.536800 0.000000
-14.520300 0.000000
-14.503800 0.000000
-14.487300 0.000000
-14.470800 0.000000
-14.454300 0.000000
-14.437800 0.000000
-14.421300 0.000000
-14.404800 0.000000
-14.388300 0.000000
-14.371800 0.000000
-14.355300 0.000000
-14.338800 0.000000
-14.322300 0.000000
-14.305800 0.000000
-14.289300 0.000000
-14.272800 0.000000
-14.256300 0.000000
-14.239800 0.000000
-14.223300 0.000000
-14.206900 0.000000
-14.190400 0.000000
-14.173900 0.000000
-14.157400 0.000000
-14.140900 0.000000
-14.124400 0.000000
-14.107900 0.000000
-14.091400 0.000000
-14.074900 0.000000
-14.058400 0.000000
-14.041900 0.000000
-14.025400 0.000000
-14.008900 0.000000
-13.992400 0.000000
-13.975900 0.000000
-13.959400 0.000000
-13.942900 0.000000
-13.926400 0.000000
-13.909900 0.000000
-13.893400 0.000000
-13.876900 0.000000
-13.860400 0.000000
-13.843900 0.000000
-13.827400 0.000000
-13.810900 0.000000
-13.794400 0.000000
-13.777900 0.000000
-13.761500 0.000000
-13.745000 0.000000
-13.728500 0.000000
-13.712000 0.000000
-13.695500 0.000000
-13.679000 0.000000
-13.662500 0.000000
-13.646000 0.000000
-13.629500 0.000000
-13.613000 0.000000
-13.596500 0.000000
-13.580000 0.000000
-13.563500 0.000000
-13.547000 0.000000
-13.530500 0.000000
-13.514000 0.000000
-13.497500 0.000000
-13.481000 0.000000
-13.464500 0.000000
-13.448000 0.000000
-13.431500 0.000000
-13.415000 0.000000
-13.398500 0.000000
-13.382000 0.000000
-13.365500 0.000000
-13.349000 0.000000
-13.332500 0.000000
-13.316000 0.000000
-13.299600 0.000000
-13.283100 0.000000
-13.266600 0.000000
-13.250100 0.000000
-13.233600 0.000000
-13.217100 0.000000
-13.200600 0.000000
-13.184100 0.000000
-13.167600 0.000000
-13.151100 0.000000
-13.134600 0.000000
-13.118100 0.000000
-13.101600 0.000000
-13.085100 0.000000
-13.068600 0.000000
-13.052100 0.000000
-13.035600 0.000000
-13.019100 0.000000
-13.002600 0.000000
-12.986100 0.000000
-12.969600 0.000000
-12.953100 0.000000
-12.936600 0.000000
-12.920100 0.000000
-12.903600 0.000000
-12.887100 0.000000
-12.870600 0.000000
-12.854100 0.000000
-12.837700 0.000000
-12.821200 0.000000
-12.804700 0.000000
-12.788200 0.000000
-12.771700 0.000000
-12.755200 0.000000
-12.738700 0.000000
-12.722200 0.000000
-12.705700 0.000000
-12.689200 0.000000
-12.672700 0.000000
-12.656200 0.000000
-12.639700 0.000000
-12.623200 0.000000
-12.606700 0.000000
-12.590200 0.000000
-12.573700 0.000000
-12.557200 0.000000
-12.540700 0.000000
-12.524200 0.000000
-12.507700 0.000000
-12.491200 0.000000
-12.474700 0.000000
-12.458200 0.000000
-12.441700 0.000000
-12.425200 0.000000
-12.408700 0.000000
-12.392200 0.000000
-12.375800 0.000000
-12.359300 0.000000
-12.342800 0.000000
-12.326300 0.000000
-12.309800 0.000000
-12.293300 0.000000
-12.276800 0.000000
-12.260300 0.000000
-12.243800 0.000000
-12.227300 0.000000
-12.210800 0.000000
-12.194300 0.000000
-12.177800 0.000000
-12.161300 0.000000
-12.144800 0.000000
-12.128300 0.000000
-12.111800 0.000000
-12.095300 0.000000
-12.078800 0.000000
-12.062300 0.000000
-12.045800 0.000000
-12.029300 0.000000
-12.012800 0.000000
-11.996300 0.000000
-11.979800 0.000000
-11.963300 0.000000
-11.946800 0.000000
-11.930400 0.000000
-11.913900 0.000000
-11.897400 0.000000
-11.880900 0.000000
-11.864400 0.000000
-11.847900 0.000000
-11.831400 0.000000
-11.814900 0.000000
-11.798400 0.000000
-11.781900 0.000000
-11.765400 0.000000
-11.748900 0.000000
-11.732400 0.000000
-11.715900 0.000000
-11.699400 0.000000
-11.682900 0.000000
-11.666400 0.000000
-11.649900 0.000000
-11.633400 0.000000
-11.616900 0.000000
-11.600400 0.000000
-11.583900 0.000000
-11.567400 0.000000
-11.550900 0.000000
-11.534400 0.000000
-11.517900 0.000000
-11.501400 0.000000
-11.484900 0.000000
-11.468500 0.000000
-11.452000 0.000000
-11.435500 0.000000
-11.419000 0.000000
-11.402500 0.000000
-11.386000 0.000000
-11.369500 0.000000
-11.353000 0.000000
-11.336500 0.000000
-11.320000 0.000000
-11.303500 0.000000
-11.287000 0.000000
-11.270500 0.000000
-11.254000 0.000000
-11.237500 0.000000
-11.221000 0.000000
-11.204500 0.000000
-11.188000 0.000000
-11.171500 0.000000
-11.155000 0.000000
-11.138500 0.000000
-11.122000 0.000000
-11.105500 0.000000
-11.089000 0.000000
-11.072500 0.000000
-11.056000 0.000000
-11.039500 0.000000
-11.023000 0.000000
-11.006600 0.000000
-10.990100 0.000000
-10.973600 0.000000
-10.957100 0.000000
-10.940600 0.000000
-10.924100 0.000000
-10.907600 0.000000
-10.891100 0.000000
-10.874600 0.000000
-10.858100 0.000000
-10.841600 0.000000
-10.825100 0.000000
-10.808600 0.000000
-10.792100 0.000000
-10.775600 0.000000
-10.759100 0.000000
-10.742600 0.000000
-10.726100 0.000000
-10.709600 0.000000
-10.693100 0.000000
-10.676600 0.000000
-10.660100 0.000000
-10.643600 0.000000
-10.627100 0.000000
-10.610600 0.000000
-10.594100 0.000000
-10.577600 0.000000
-10.561200 0.000000
-10.544700 0.000000
-10.528200 0.000000
-10.511700 0.000000
-10.495200 0.000000
-10.478700 0.000000
-10.462200 0.000000
-10.445700 0.000000
-10.429200 0.000000
-10.412700 0.000000
-10.396200 0.000000
-10.379700 0.000000
-10.363200 0.000000
-10.346700 0.000000
-10.330200 0.000000
-10.313700 0.000000
-10.297200 0.000000
-10.280700 0.000000
-10.264200 0.000000
-10.247700 0.000000
-10.231200 0.000000
-10.214700 0.000000
-10.198200 0.000000
-10.181700 0.000000
-10.165200 0.000000
-10.148700 0.000000
-10.132200 0.000000
-10.115700 0.000000
-10.099300 0.000000
-10.082800 0.000000
-10.066300 0.000000
-10.049800 0.000000
-10.033300 0.000000
-10.016800 0.000000
-10.000300 0.000000
-9.983800 0.000000
-9.967300 0.000000
-9.950800 0.000000
-9.934300 0.000000
-9.917800 0.000000
-9.901300 0.000000
-9.884800 0.000000
-9.868300 0.000000
-9.851800 0.000000
-9.835300 0.000000
-9.818800 0.000000
-9.802300 0.000000
-9.785800 0.000000
-9.769300 0.000000
-9.752800 0.000000
-9.736300 0.000000
-9.719800 0.000000
-9.703300 0.000000
-9.686800 0.000000
-9.670300 0.000000
-9.653800 0.000000
-9.637400 0.000000
-9.620900 0.000000
-9.604400 0.000000
-9.587900 0.000000
-9.571400 0.000000
-9.554900 0.000000
-9.538400 0.000000
-9.521900 0.000000
-9.505400 0.000000
-9.488900 0.000000
-9.472400 0.000000
-9.455900 0.000000
-9.439400 0.000000
-9.422900 0.000000
-9.406400 0.000000
-9.389900 0.000000
-9.373400 0.000000
-9.356900 0.000000
-9.340400 0.000000
-9.323900 0.000000
-9.307400 0.000000
-9.290900 0.000000
-9.274400 0.000000
-9.257900 0.000000
-9.241400 0.000000
-9.224900 0.000000
-9.208400 0.000000
-9.192000 0.000000
-9.175500 0.000000
-9.159000 0.000000
-9.142500 0.000000
-9.126000 0.000000
-9.109500 0.000000
-9.093000 0.000000
-9.076500 0.000000
-9.060000 0.000000
-9.043500 0.000000
-9.027000 0.000000
-9.010500 0.000000
-8.994000 0.000000
-8.977500 0.000000
-8.961000 0.000000
-8.944500 0.000000
-8.928000 0.000000
-8.911500 0.000000
-8.895000 0.000000
-8.878500 0.000000
-8.862000 0.000000
-8.845500 0.000000
-8.829000 0.000000
-8.812500 0.000000
-8.796000 0.000000
-8.779500 0.000000
-8.763000 0.000000
-8.746500 0.000000
-8.730100 0.000000
-8.713600 0.000000
-8.697100 0.000000
-8.680600 0.000000
-8.664100 0.000000
-8.647600 0.000000
-8.631100 0.000000
-8.614600 0.000000
-8.598100 0.000000
-8.581600 0.000000
-8.565100 0.000000
-8.548600 0.000000
-8.532100 0.000000
-8.515600 0.000000
-8.499100 0.000000
-8.482600 0.000000
-8.466100 0.000000
-8.449600 0.000000
-8.433100 0.000000
-8.416600 0.000000
-8.400100 0.000000
-8.383600 0.000000
-8.367100 0.000000
-8.350600 0.000000
-8.334100 0.000000
-8.317600 0.000000
-8.301100 0.000000
-8.284600 0.000000
-8.268200 0.000000
-8.251700 0.000000
-8.235200 0.000000
-8.218700 0.000000
-8.202200 0.000000
-8.185700 0.000000
-8.169200 0.000000
-8.152700 0.000000
-8.136200 0.000000
-8.119700 0.000000
-8.103200 0.000000
-8.086700 0.000000
-8.070200 0.000000
-8.053700 0.000000
-8.037200 0.000000
-8.020700 0.000000
-8.004200 0.000000
-7.987700 0.000000
-7.971200 0.000000
-7.954700 0.000000
-7.938200 0.000000
-7.921700 0.000000
-7.905200 0.000000
-7.888700 0.000000
-7.872200 0.000000
-7.855700 0.000000
-7.839200 0.000000
-7.822800 0.000000
-7.806300 0.000000
-7.789800 0.000000
-7.773300 0.000000
-7.756800 0.000000
-7.740300 0.000000
-7.723800 0.000000
-7.707300 0.000000
-7.690800 0.000000
-7.674300 0.000000
-7.657800 0.000000
-7.641300 0.000000
-7.624800 0.000000
-7.608300 0.000000
-7.591800 0.000000
-7.575300 0.000000
-7.558800 0.000000
-7.542300 0.000000
-7.525800 0.000000
-7.509300 0.000000
-7.492800 0.000000
-7.476300 0.000000
-7.459800 0.000000
-7.443300 0.000000
-7.426800 0.000000
-7.410300 0.000000
-7.393800 0.000000
-7.377300 0.000000
-7.360900 0.000000
-7.344400 0.000000
-7.327900 0.000000
-7.311400 0.000000
-7.294900 0.000000
-7.278400 0.000000
-7.261900 0.000000
-7.245400 0.000000
-7.228900 0.000000
-7.212400 0.000000
-7.195900 0.000000
-7.179400 0.000000
-7.162900 0.000000
-7.146400 0.000000
-7.129900 0.000000
-7.113400 0.000000
-7.096900 0.000000
-7.080400 0.000000
-7.063900 0.000000
-7.047400 0.000000
-7.030900 0.000000
-7.014400 0.000000
-6.997900 0.000000
-6.981400 0.000000
-6.964900 0.000000
-6.948400 0.000000
-6.931900 0.000000
-6.915400 0.000000
-6.899000 0.000000
-6.882500 0.000000
-6.866000 0.000000
-6.849500 0.000000
-6.833000 0.000000
-6.816500 0.000000
-6.800000 0.000000
-6.783500 0.000000
-6.767000 0.000000
-6.750500 0.000000
-6.734000 0.000000
-6.717500 0.000000
-6.701000 0.000000
-6.684500 0.000000
-6.668000 0.000000
-6.651500 0.000000
-6.635000 0.000000
-6.618500 0.000000
-6.602000 0.000000
-6.585500 0.000000
-6.569000 0.000000
-6.552500 0.000000
-6.536000 0.000000
-6.519500 0.000000
-6.503000 0.000000
-6.486500 0.000000
-6.470000 0.000000
-6.453500 0.000000
-6.437100 0.000000
-6.420600 0.000000
-6.404100 0.000000
-6.387600 0.000000
-6.371100 0.000000
-6.354600 0.000000
-6.338100 0.000000
-6.321600 0.000000
-6.305100 0.000000
-6.288600 0.000000
-6.272100 0.000000
-6.255600 0.000000
-6.239100 0.000000
-6.222600 0.000000
-6.206100 0.000000
-6.189600 0.000000
-6.173100 0.000000
-6.156600 0.000000
-6.140100 0.000000
-6.123600 0.000000
-6.107100 0.000000
-6.090600 0.000000
-6.074100 0.000000
-6.057600 0.000000
-6.041100 0.000000
-6.024600 0.000000
-6.008100 0.000000
-5.991700 0.000000
-5.975200 0.000000
-5.958700 0.000000
-5.942200 0.000000
-5.925700 0.000000
-5.909200 0.000000
-5.892700 0.000000
-5.876200 0.000000
-5.859700 0.000000
-5.843200 0.000000
-5.826700 0.000000
-5.810200 0.000000
-5.793700 0.000000
-5.777200 0.000000
-5.760700 0.000000
-5.744200 0.000000
-5.727700 0.000000
-5.711200 0.000000
-5.694700 0.000000
-5.678200 0.000000
-5.661700 0.000000
-5.645200 0.000000
-5.628700 0.000000
-5.612200 0.000000
-5.595700 0.000000
-5.579200 0.000000
-5.562700 0.000000
-5.546200 0.000000
-5.529800 0.000000
-5.513300 0.040800
-5.496800 0.262000
-5.480300 0.675300
-5.463800 1.284200
-5.447300 2.132500
-5.430800 3.144700
-5.414300 3.820900
-5.397800 4.099500
-5.381300 3.941000
-5.364800 3.330600
-5.348300 2.673500
-5.331800 2.211800
-5.315300 2.136700
-5.298800 2.556800
-5.282300 3.300800
-5.265800 3.830300
-5.249300 4.262000
-5.232800 4.432800
-5.216300 4.250100
-5.199800 4.186200
-5.183300 4.066800
-5.166800 3.935300
-5.150300 3.919600
-5.133800 3.816600
-5.117300 3.701000
-5.100800 3.565100
-5.084300 3.385700
-5.067900 3.877700
-5.051400 5.504300
-5.034900 5.968700
-5.018400 6.433000
-5.001900 6.351600
-4.985400 5.972700
-4.968900 6.134100
-4.952400 6.267100
-4.935900 6.337800
-4.919400 6.397000
-4.902900 6.348700
-4.886400 6.326800
-4.869900 6.378200
-4.853400 7.353600
-4.836900 7.933500
-4.820400 8.095900
-4.803900 7.420800
-4.787400 6.279000
-4.770900 5.672100
-4.754400 5.389100
-4.737900 5.297400
-4.721400 5.195300
-4.704900 5.064300
-4.688400 4.943000
-4.671900 4.827700
-4.655400 4.734700
-4.638900 4.666500
-4.622500 4.674900
-4.606000 4.786800
-4.589500 5.184200
-4.573000 5.629300
-4.556500 6.009400
-4.540000 6.261200
-4.523500 6.433600
-4.507000 7.011700
-4.490500 7.510100
-4.474000 8.144400
-4.457500 7.738100
-4.441000 7.344500
-4.424500 7.291000
-4.408000 7.280300
-4.391500 7.805200
-4.375000 7.983100
-4.358500 8.087200
-4.342000 8.714500
-4.325500 9.109800
-4.309000 9.156100
-4.292500 8.770400
-4.276000 7.896200
-4.259500 7.213900
-4.243000 6.826600
-4.226500 6.713600
-4.210000 6.722600
-4.193500 7.128500
-4.177000 8.018300
-4.160600 9.117300
-4.144100 10.368700
-4.127600 12.005600
-4.111100 11.138500
-4.094600 10.184200
-4.078100 8.292700
-4.061600 8.083500
-4.045100 8.256600
-4.028600 8.547400
-4.012100 8.943900
-3.995600 10.638100
-3.979100 14.675700
-3.962600 13.833800
-3.946100 9.125200
-3.929600 9.016100
-3.913100 8.841700
-3.896600 8.584000
-3.880100 8.563300
-3.863600 8.520600
-3.847100 8.452500
-3.830600 8.340600
-3.814100 22.972000
-3.797600 14.070900
-3.781100 9.109100
-3.764600 6.950600
-3.748100 6.794600
-3.731600 6.644500
-3.715100 6.512200
-3.698700 6.426400
-3.682200 6.365200
-3.665700 6.260500
-3.649200 6.150900
-3.632700 11.119600
-3.616200 10.723200
-3.599700 9.001700
-3.583200 4.999500
-3.566700 4.972600
-3.550200 4.960200
-3.533700 6.399400
-3.517200 6.407700
-3.500700 6.929800
-3.484200 6.329300
-3.467700 6.251500
-3.451200 6.170000
-3.434700 4.027400
-3.418200 4.018000
-3.401700 4.010100
-3.385200 4.015400
-3.368700 4.088200
-3.352200 4.235500
-3.335700 4.444400
-3.319200 4.686500
-3.302700 5.114000
-3.286200 5.692200
-3.269700 6.181300
-3.253300 6.641200
-3.236800 7.379700
-3.220300 8.168000
-3.203800 8.678200
-3.187300 10.385000
-3.170800 16.988000
-3.154300 7.423200
-3.137800 7.635400
-3.121300 7.925300
-3.104800 7.985900
-3.088300 10.292000
-3.071800 9.523000
-3.055300 12.619200
-3.038800 11.293000
-3.022300 6.365600
-3.005800 4.511600
-2.989300 4.506800
-2.972800 11.131800
-2.956300 7.257600
-2.939800 7.035100
-2.923300 12.892200
-2.906800 7.969800
-2.890300 9.656200
-2.873800 11.532900
-2.857300 12.368100
-2.840800 15.779500
-2.824300 14.817200
-2.807800 15.876800
-2.791400 4.886100
-2.774900 4.664700
-2.758400 15.503800
-2.741900 5.266500
-2.725400 5.058900
-2.708900 4.926200
-2.692400 6.198800
-2.675900 9.258200
-2.659400 12.942600
-2.642900 17.128600
-2.626400 9.406200
-2.609900 10.486400
-2.593400 13.629700
-2.576900 15.868200
-2.560400 17.348000
-2.543900 9.497200
-2.527400 7.582300
-2.510900 8.810600
-2.494400 11.763300
-2.477900 6.489800
-2.461400 6.380000
-2.444900 6.233600
-2.428400 6.109400
-2.411900 6.030700
-2.395400 7.061700
-2.378900 9.394600
-2.362400 12.912100
-2.345900 13.991900
-2.329500 12.520900
-2.313000 11.720600
-2.296500 16.687100
-2.280000 23.524500
-2.263500 18.979200
-2.247000 15.962500
-2.230500 11.922100
-2.214000 11.450900
-2.197500 30.531100
-2.181000 18.432500
-2.164500 17.088300
-2.148000 16.749000
-2.131500 16.704800
-2.115000 16.702300
-2.098500 16.784300
-2.082000 17.374100
-2.065500 17.212000
-2.049000 14.292200
-2.032500 16.778800
-2.016000 21.199400
-1.999500 16.625100
-1.983000 15.429700
-1.966500 13.024700
-1.950000 25.240400
-1.933500 27.015500
-1.917000 37.953800
-1.900500 27.926100
-1.884100 8.233700
-1.867600 7.606000
-1.851100 7.110300
-1.834600 11.600000
-1.818100 9.525500
-1.801600 9.682800
-1.785100 13.720600
-1.768600 12.136000
-1.752100 10.455900
-1.735600 8.355200
-1.719100 7.901900
-1.702600 7.577700
-1.686100 7.298500
-1.669600 5.874900
-1.653100 5.316100
-1.636600 5.314700
-1.620100 5.313800
-1.603600 5.313500
-1.587100 5.313700
-1.570600 5.314500
-1.554100 5.315800
-1.537600 5.271100
-1.521100 4.916400
-1.504600 4.713600
-1.488100 4.720000
-1.471600 4.987300
-1.455100 5.226000
-1.438600 5.565100
-1.422200 6.074000
-1.405700 6.611200
-1.389200 6.909100
-1.372700 7.115200
-1.356200 6.814700
-1.339700 6.536600
-1.323200 6.280900
-1.306700 6.340700
-1.290200 6.400800
-1.273700 6.217100
-1.257200 6.164900
-1.240700 4.995700
-1.224200 3.611200
-1.207700 3.080200
-1.191200 3.073200
-1.174700 3.072800
-1.158200 3.072400
-1.141700 3.072200
-1.125200 3.072100
-1.108700 3.611400
-1.092200 3.947400
-1.075700 4.226500
-1.059200 4.416100
-1.042700 4.455600
-1.026200 4.483500
-1.009700 4.542400
-0.993200 4.614900
-0.976700 4.701100
-0.960300 5.162300
-0.943800 6.869700
-0.927300 9.242800
-0.910800 9.683000
-0.894300 8.123500
-0.877800 4.427400
-0.861300 2.871400
-0.844800 2.958400
-0.828300 3.112700
-0.811800 3.303500
-0.795300 3.463000
-0.778800 3.650000
-0.762300 3.802500
-0.745800 3.817200
-0.729300 3.794000
-0.712800 3.732900
-0.696300 3.658000
-0.679800 3.587600
-0.663300 3.521600
-0.646800 3.543100
-0.630300 3.695000
-0.613800 3.717000
-0.597300 3.699300
-0.580800 3.680600
-0.564300 3.668600
-0.547800 3.356300
-0.531300 3.485600
-0.514900 3.881100
-0.498400 4.068500
-0.481900 4.038100
-0.465400 4.128300
-0.448900 4.352600
-0.432400 3.906700
-0.415900 2.617100
-0.399400 2.040700
-0.382900 1.662800
-0.366400 1.341800
-0.349900 1.077800
-0.333400 0.870700
-0.316900 0.790800
-0.300400 0.790800
-0.283900 0.790800
-0.267400 0.790900
-0.250900 0.791100
-0.234400 0.791300
-0.217900 0.791600
-0.201400 0.791900
-0.184900 0.792400
-0.168400 0.792900
-0.151900 0.793400
-0.135400 0.865100
-0.118900 1.195000
-0.102400 1.367000
-0.085900 1.450200
-0.069400 1.529900
-0.053000 1.606100
-0.036500 1.678800
-0.020000 1.748000
-0.003500 1.813700
0.013000 1.875900
0.029500 1.833400
0.046000 1.377300
0.062500 1.110100
0.079000 1.003900
0.095500 0.904800
0.112000 0.807600
0.128500 0.712200
0.145000 0.618800
0.161500 0.527200
0.178000 0.437400
0.194500 0.349600
0.211000 0.263600
0.227500 0.179500
0.244000 0.099700
0.260500 0.039100
0.277000 0.000200
0.293500 0.000000
0.310000 0.000000
0.326500 0.000000
0.343000 0.000000
0.359500 0.000000
0.376000 0.000000
0.392500 0.000000
0.408900 0.000000
0.425400 0.000000
0.441900 0.000000
0.458400 0.000000
0.474900 0.000000
0.491400 0.000000
0.507900 0.000000
0.524400 0.000000
0.540900 0.000000
0.557400 0.000000
0.573900 0.000000
0.590400 0.000000
0.606900 0.000000
0.623400 0.000000
0.639900 0.000000
0.656400 0.000000
0.672900 0.000000
0.689400 0.000000
0.705900 0.000000
0.722400 0.000000
0.738900 0.000000
0.755400 0.000000
0.771900 0.000000
0.788400 0.000000
0.804900 0.000000
0.821400 0.000000
0.837900 0.000000
0.854400 0.000000
0.870800 0.000000
0.887300 0.000000
0.903800 0.000000
0.920300 0.000000
0.936800 0.000000
0.953300 0.000000
0.969800 0.000000
0.986300 0.000000
1.002800 0.000000
1.019300 0.000000
1.035800 0.000000
1.052300 0.000000
1.068800 0.000000
1.085300 1.291000
1.101800 1.403000
1.118300 1.665300
1.134800 2.421100
1.151300 3.275300
1.167800 3.527400
1.184300 3.443000
1.200800 3.676800
1.217300 3.377200
1.233800 3.877800
1.250300 4.293600
1.266800 4.187700
1.283300 5.190500
1.299800 4.974900
1.316200 4.908500
1.332700 4.860700
1.349200 4.938800
1.365700 4.214700
1.382200 3.680600
1.398700 2.664300
1.415200 2.460800
1.431700 2.307900
1.448200 2.205600
1.464700 2.152600
1.481200 2.129400
1.497700 2.125500
1.514200 2.120700
1.530700 15.971300
1.547200 15.436700
1.563700 8.904300
1.580200 3.919100
1.596700 3.256500
1.613200 3.262800
1.629700 3.286600
1.646200 4.824100
1.662700 6.782600
1.679200 5.521000
1.695700 5.573200
1.712200 5.940000
1.728700 6.336400
1.745200 6.684400
1.761700 6.889700
1.778100 7.093500
1.794600 6.203300
1.811100 7.314200
1.827600 8.704700
1.844100 10.484600
1.860600 11.451300
1.877100 12.606900
1.893600 14.149800
1.910100 18.383500
1.926600 15.676100
1.943100 22.797600
1.959600 22.796700
1.976100 18.880400
1.992600 16.474000
2.009100 15.029400
2.025600 14.741200
2.042100 16.329700
2.058600 15.351600
2.075100 18.912700
2.091600 20.049100
2.108100 19.151000
2.124600 18.478100
2.141100 18.115000
2.157600 20.859900
2.174100 21.924300
2.190600 19.350100
2.207100 18.264300
2.223600 12.996500
2.240000 11.906900
2.256500 11.324100
2.273000 11.062300
2.289500 11.235300
2.306000 10.880100
2.322500 11.124000
2.339000 12.944100
2.355500 12.367400
2.372000 11.134300
2.388500 10.609700
2.405000 12.227000
2.421500 12.102800
2.438000 11.719500
2.454500 13.802100
2.471000 21.705700
2.487500 16.496000
2.504000 14.157500
2.520500 13.503500
2.537000 12.559400
2.553500 12.447300
2.570000 14.991800
2.586500 15.079100
2.603000 12.813000
2.619500 13.351200
2.636000 12.860000
2.652500 12.153700
2.669000 11.673100
2.685400 11.969500
2.701900 14.749600
2.718400 15.894500
2.734900 16.866200
2.751400 14.350100
2.767900 14.817800
2.784400 14.800200
2.800900 14.184500
2.817400 13.639700
2.833900 13.638400
2.850400 13.837300
2.866900 13.902100
2.883400 15.253600
2.899900 17.316000
2.916400 17.210100
2.932900 16.633900
2.949400 16.013600
2.965900 16.211800
2.982400 16.630600
2.998900 16.991900
3.015400 18.285300
3.031900 16.551000
3.048400 17.517600
3.064900 16.350700
3.081400 15.011100
3.097900 14.524400
3.114400 14.886400
3.130900 14.621900
3.147300 14.551500
3.163800 14.808200
3.180300 14.664200
3.196800 14.399200
3.213300 14.466800
3.229800 16.912500
3.246300 14.612200
3.262800 15.109900
3.279300 15.814500
3.295800 12.799300
3.312300 13.038100
3.328800 13.316900
3.345300 14.173000
3.361800 14.885000
3.378300 15.180600
3.394800 15.143000
3.411300 14.416300
3.427800 13.962200
3.444300 13.735500
3.460800 13.878100
3.477300 14.656400
3.493800 16.388200
3.510300 16.359600
3.526800 16.570900
3.543300 16.646100
3.559800 19.652900
3.576300 19.793600
3.592800 19.730900
3.609200 18.531200
3.625700 20.317800
3.642200 19.284100
3.658700 18.886500
3.675200 18.269800
3.691700 17.838900
3.708200 17.554800
3.724700 21.148000
3.741200 19.670000
3.757700 16.254900
3.774200 18.327400
3.790700 19.538300
3.807200 16.717600
3.823700 14.798800
3.840200 14.156600
3.856700 14.158300
3.873200 18.412800
3.889700 27.022600
3.906200 17.360700
3.922700 16.095500
3.939200 14.838500
3.955700 18.933800
3.972200 20.163200
3.988700 19.069300
4.005200 19.485600
4.021700 21.636000
4.038200 21.496400
4.054600 20.785400
4.071100 25.624400
4.087600 21.313400
4.104100 24.397300
4.120600 22.748200
4.137100 21.616600
4.153600 17.750700
4.170100 17.653600
4.186600 17.489000
4.203100 19.038400
4.219600 18.531900
4.236100 19.820900
4.252600 20.509800
4.269100 22.097700
4.285600 19.850800
4.302100 20.324100
4.318600 23.244700
4.335100 27.342200
4.351600 24.290400
4.368100 23.020600
4.384600 22.670400
4.401100 25.311600
4.417600 21.661800
4.434100 21.183300
4.450600 21.093000
4.467100 23.643000
4.483600 21.588100
4.500100 21.994300
4.516500 25.628300
4.533000 24.502100
4.549500 23.842300
4.566000 23.149600
4.582500 22.657700
4.599000 22.372900
4.615500 21.225600
4.632000 22.111100
4.648500 24.655600
4.665000 22.994700
4.681500 24.480900
4.698000 23.042400
4.714500 22.749300
4.731000 23.151700
4.747500 22.987400
4.764000 23.122300
4.780500 23.292100
4.797000 24.763400
4.813500 22.080700
4.830000 26.116300
4.846500 33.875000
4.863000 30.163400
4.879500 26.460900
4.896000 25.440100
4.912500 28.473100
4.929000 30.779600
4.945500 27.052900
4.962000 21.868200
4.978400 20.989200
4.994900 23.121600
5.011400 24.385800
5.027900 25.777200
5.044400 24.163200
5.060900 21.341100
5.077400 19.877000
5.093900 20.419300
5.110400 21.397100
5.126900 24.285700
5.143400 22.938500
5.159900 20.350500
5.176400 19.740400
5.192900 20.741400
5.209400 23.215800
5.225900 25.395600
5.242400 25.990600
5.258900 29.529200
5.275400 28.490900
5.291900 29.279400
5.308400 29.909600
5.324900 28.075000
5.341400 24.104200
5.357900 22.153300
5.374400 20.519300
5.390900 31.680600
5.407400 24.696400
5.423800 26.125500
5.440300 25.767800
5.456800 24.089100
5.473300 20.566000
5.489800 20.582900
5.506300 23.793100
5.522800 31.693300
5.539300 25.382800
5.555800 23.050700
5.572300 18.935100
5.588800 16.738700
5.605300 17.328700
5.621800 18.152100
5.638300 17.931400
5.654800 19.727700
5.671300 19.723900
5.687800 19.705900
5.704300 19.897000
5.720800 19.307700
5.737300 19.814600
5.753800 18.205700
5.770300 16.883700
5.786800 16.296600
5.803300 15.689900
5.819800 14.986000
5.836300 14.054700
5.852800 13.027100
5.869300 12.792600
5.885700 13.351300
5.902200 15.230600
5.918700 16.644900
5.935200 8.613000
5.951700 9.195600
5.968200 12.719100
5.984700 10.834900
6.001200 8.089300
6.017700 6.392900
6.034200 5.692500
6.050700 5.884200
6.067200 6.389400
6.083700 6.981000
6.100200 7.718600
6.116700 8.073500
6.133200 8.878800
6.149700 9.004800
6.166200 6.869100
6.182700 5.828500
6.199200 6.137100
6.215700 6.567400
6.232200 6.985500
6.248700 7.168100
6.265200 8.016500
6.281700 8.637800
6.298200 8.920700
6.314700 8.738400
6.331200 8.035700
6.347600 8.245500
6.364100 8.240100
6.380600 7.727600
6.397100 7.104100
6.413600 6.417900
6.430100 5.989800
6.446600 5.394700
6.463100 3.402700
6.479600 5.784700
6.496100 7.909200
6.512600 9.341300
6.529100 10.165000
6.545600 10.390100
6.562100 10.165700
6.578600 9.424800
6.595100 8.722200
6.611600 8.028500
6.628100 7.439400
6.644600 7.256100
6.661100 7.153800
6.677600 7.087000
6.694100 7.069300
6.710600 7.102100
6.727100 7.297700
6.743600 7.409000
6.760100 8.749300
6.776600 9.543800
6.793100 9.185700
6.809500 8.774700
6.826000 8.810500
6.842500 8.792200
6.859000 7.827300
6.875500 7.402300
6.892000 8.126100
6.908500 9.357300
6.925000 10.798000
6.941500 13.445700
6.958000 15.499200
6.974500 13.215600
6.991000 11.792600
7.007500 12.314900
7.024000 13.122500
7.040500 12.680800
7.057000 12.429100
7.073500 12.577600
7.090000 12.712600
7.106500 11.747700
7.123000 8.697700
7.139500 8.233900
7.156000 9.062100
7.172500 11.641300
7.189000 13.282800
7.205500 8.331100
7.222000 6.688900
7.238500 6.052300
7.254900 4.152000
7.271400 3.225200
7.287900 2.816300
7.304400 3.034700
7.320900 4.025500
7.337400 7.296400
7.353900 7.431700
7.370400 8.310400
7.386900 8.182900
7.403400 9.572700
7.419900 15.941400
7.436400 18.204300
7.452900 19.307300
7.469400 18.396600
7.485900 16.193200
7.502400 13.850700
7.518900 16.501900
7.535400 11.791700
7.551900 13.244200
7.568400 17.359100
7.584900 16.351600
7.601400 15.468000
7.617900 14.683900
7.634400 12.894700
7.650900 13.649100
7.667400 15.378900
7.683900 15.733600
7.700400 15.051500
7.716800 12.959100
7.733300 12.098500
7.749800 13.790600
7.766300 13.885300
7.782800 13.602700
7.799300 12.873800
7.815800 12.572200
7.832300 13.491600
7.848800 16.168900
7.865300 18.725700
7.881800 20.875100
7.898300 18.886400
7.914800 14.843900
7.931300 13.848900
7.947800 16.070200
7.964300 17.062300
7.980800 17.352300
7.997300 16.305300
8.013800 16.300400
8.030300 16.346900
8.046800 17.327700
8.063300 18.611800
8.079800 20.056600
8.096300 18.524700
8.112800 20.147600
8.129300 21.037200
8.145800 22.785600
8.162300 22.779000
8.178700 21.036300
8.195200 18.355600
8.211700 21.988900
8.228200 17.996500
8.244700 20.091100
8.261200 21.098900
8.277700 21.438800
8.294200 23.128500
8.310700 25.167000
8.327200 24.325600
8.343700 23.561000
8.360200 21.523700
8.376700 20.207900
8.393200 19.236400
8.409700 19.107800
8.426200 20.056900
8.442700 19.255000
8.459200 19.353800
8.475700 20.040100
8.492200 22.598700
8.508700 23.395200
8.525200 23.644700
8.541700 23.683700
8.558200 26.072200
8.574700 32.512400
8.591200 30.893100
8.607700 29.082300
8.624100 28.732500
8.640600 24.708400
8.657100 23.300600
8.673600 23.228100
8.690100 27.669700
8.706600 28.698900
8.723100 30.467400
8.739600 28.103300
8.756100 28.226500
8.772600 26.377900
8.789100 24.754400
8.805600 22.687400
8.822100 19.329400
8.838600 18.736900
8.855100 18.272400
8.871600 18.699800
8.888100 19.191500
8.904600 21.640100
8.921100 21.198400
8.937600 21.687800
8.954100 22.834500
8.970600 25.366200
8.987100 29.142700
9.003600 24.408600
9.020100 26.418700
9.036600 27.778600
9.053100 29.414000
9.069600 27.210100
9.086000 24.483800
9.102500 24.970800
9.119000 26.113100
9.135500 26.267500
9.152000 26.051400
9.168500 26.327700
9.185000 25.714100
9.201500 25.744400
9.218000 23.526100
9.234500 28.204400
9.251000 24.118400
9.267500 27.030500
9.284000 25.235800
9.300500 32.911700
9.317000 26.941200
9.333500 24.810400
9.350000 29.222200
9.366500 27.812100
9.383000 26.569400
9.399500 26.095900
9.416000 24.103600
9.432500 24.126200
9.449000 25.667700
9.465500 28.814200
9.482000 28.645900
9.498500 26.029400
9.515000 26.247800
9.531500 26.917600
9.547900 29.352900
9.564400 30.831500
9.580900 27.548700
9.597400 25.360900
9.613900 24.261300
9.630400 24.553200
9.646900 24.921200
9.663400 28.585200
9.679900 26.930300
9.696400 27.525100
9.712900 26.625000
9.729400 26.849800
9.745900 32.070200
9.762400 27.975900
9.778900 29.049200
9.795400 31.894700
9.811900 33.865200
9.828400 39.693500
9.844900 32.270700
9.861400 30.451000
9.877900 33.453700
9.894400 34.229000
9.910900 32.732400
9.927400 32.688000
9.943900 32.668600
9.960400 42.422500
9.976900 36.767500
9.993300 31.611800
10.009800 34.161200
10.026300 37.045600
10.042800 35.362800
10.059300 28.867200
10.075800 35.434000
10.092300 30.875500
10.108800 28.413100
10.125300 33.522000
10.141800 38.258200
10.158300 41.793400
10.174800 39.939900
10.191300 33.129400
10.207800 40.420000
10.224300 32.547600
10.240800 33.822800
10.257300 33.089300
10.273800 36.106300
10.290300 44.388700
10.306800 39.577600
10.323300 35.773600
10.339800 31.205800
10.356300 39.412500
10.372800 44.188000
10.389300 37.127400
10.405800 30.804900
10.422300 23.319500
10.438800 26.022100
10.455200 30.258500
10.471700 36.106300
10.488200 33.135800
10.504700 34.522200
10.521200 27.253000
10.537700 26.736800
10.554200 26.354400
10.570700 28.205400
10.587200 29.457600
10.603700 31.107300
10.620200 35.842200
10.636700 35.069500
10.653200 30.983300
10.669700 29.769200
10.686200 28.217000
10.702700 26.560900
10.719200 26.736500
10.735700 28.313600
10.752200 30.379200
10.768700 30.393300
10.785200 33.570300
10.801700 29.187700
10.818200 29.039500
10.834700 33.560700
10.851200 30.470100
10.867700 28.733700
10.884200 29.027200
10.900700 28.818100
10.917100 25.846300
10.933600 23.656900
10.950100 21.443600
10.966600 21.123300
10.983100 19.738600
10.999600 17.671600
11.016100 17.507300
11.032600 20.732800
11.049100 28.502700
11.065600 23.885200
11.082100 23.785200
11.098600 24.886300
11.115100 26.663900
11.131600 25.482000
11.148100 24.078300
11.164600 21.758500
11.181100 21.962100
11.197600 19.195400
11.214100 20.757000
11.230600 23.014000
11.247100 23.845200
11.263600 21.472300
11.280100 21.760000
11.296600 21.796500
11.313100 20.476100
11.329600 18.347900
11.346100 17.597600
11.362500 17.080200
11.379000 17.093100
11.395500 17.930100
11.412000 18.358800
11.428500 17.586800
11.445000 15.739000
11.461500 17.264400
11.478000 17.854200
11.494500 17.877200
11.511000 18.835400
11.527500 18.059700
11.544000 16.816000
11.560500 14.711500
11.577000 17.133000
11.593500 16.457100
11.610000 14.761800
11.626500 9.265300
11.643000 7.874600
11.659500 8.846700
11.676000 14.675500
11.692500 16.384800
11.709000 12.867500
11.725500 5.962300
11.742000 3.798500
11.758500 3.766800
11.775000 8.348800
11.791500 9.386400
11.808000 11.420300
11.824400 10.652900
11.840900 6.430000
11.857400 4.525100
11.873900 3.195400
11.890400 2.506200
11.906900 2.120400
11.923400 2.041600
11.939900 2.105600
11.956400 17.923300
11.972900 12.894900
11.989400 4.730700
12.005900 2.052600
12.022400 1.201100
12.038900 0.528900
12.055400 0.035900
12.071900 0.000000
12.088400 0.000000
12.104900 0.000000
12.121400 0.000000
12.137900 0.000000
12.154400 0.000000
12.170900 0.000000
12.187400 0.000000
12.203900 0.000000
12.220400 0.000000
12.236900 0.000000
12.253400 0.000000
12.269900 0.000000
12.286300 0.000000
12.302800 0.000000
12.319300 0.000000
12.335800 0.000000
12.352300 0.000000
12.368800 0.000000
12.385300 0.000000
12.401800 0.000000
12.418300 0.000000
12.434800 0.000000
12.451300 0.000000
12.467800 0.000000
12.484300 0.000000
12.500800 0.000000
12.517300 0.000000
12.533800 0.000000
12.550300 0.000000
12.566800 0.000000
12.583300 0.000000
12.599800 0.000000
12.616300 0.000000
12.632800 0.000000
12.649300 0.000000
12.665800 0.000000
12.682300 0.000000
12.698800 0.000000
12.715300 0.000000
12.731700 0.000000
12.748200 0.000000
12.764700 0.000000
12.781200 0.000000
12.797700 0.000000
12.814200 0.000000
12.830700 0.000000
12.847200 0.000000
12.863700 0.000000
12.880200 0.000000
12.896700 0.000000
12.913200 0.000000
12.929700 0.000000
12.946200 0.000000
12.962700 0.000000
12.979200 0.000000
12.995700 0.000000
13.012200 0.000000
13.028700 0.000000
13.045200 0.000000
13.061700 0.000000
13.078200 0.000000
13.094700 0.000000
13.111200 0.000000
13.127700 0.000000
13.144200 0.000000
13.160700 0.000000
13.177200 0.000000
13.193600 0.000000
13.210100 0.000000
13.226600 0.000000
13.243100 0.000000
13.259600 0.000000
13.276100 0.000000
13.292600 0.000000
13.309100 0.000000
13.325600 0.000000
13.342100 0.000000
13.358600 0.000000
13.375100 0.000000
13.391600 0.000000
13.408100 0.000000
13.424600 0.000000
13.441100 0.000000
13.457600 0.000000
13.474100 0.000000
13.490600 0.000000
13.507100 0.000000
13.523600 0.000000
13.540100 0.000000
13.556600 0.000000
e
