set title 'mp-1014160 - Density of States'
set xlabel 'Energy (eV)'
set ylabel 'DOS (states/eV)'
set grid
set xrange [-10:10]
set yrange [0:18.874]
set xzeroaxis lt -1
set terminal png size 800,600
set output 'mp-1014160_dos_gnuplot.png'
plot '-' using 1:2 with lines title 'DOS'
-46.338100 0.000000
-46.293300 0.000000
-46.248500 0.000000
-46.203700 0.000000
-46.158900 0.000000
-46.114100 0.000000
-46.069300 0.000000
-46.024500 0.000000
-45.979700 0.000000
-45.934900 0.000000
-45.890100 0.000000
-45.845400 0.000000
-45.800600 0.000000
-45.755800 0.000000
-45.711000 0.000000
-45.666200 0.000000
-45.621400 0.000000
-45.576600 0.000000
-45.531800 0.000000
-45.487000 0.000000
-45.442200 0.000000
-45.397400 0.000000
-45.352600 0.000000
-45.307800 0.000000
-45.263000 0.000000
-45.218200 0.000000
-45.173400 0.000000
-45.128600 0.000000
-45.083800 0.000000
-45.039000 0.000000
-44.994200 0.000000
-44.949400 0.000000
-44.904600 0.000000
-44.859900 0.000000
-44.815100 0.000000
-44.770300 0.000000
-44.725500 0.000000
-44.680700 0.000000
-44.635900 0.000000
-44.591100 0.000000
-44.546300 0.000000
-44.501500 0.000000
-44.456700 0.000000
-44.411900 0.000000
-44.367100 0.000000
-44.322300 0.000000
-44.277500 0.000000
-44.232700 0.000000
-44.187900 0.000000
-44.143100 0.000000
-44.098300 0.000000
-44.053500 0.000000
-44.008700 0.000000
-43.963900 0.000000
-43.919100 0.000000
-43.874400 0.000000
-43.829600 0.000000
-43.784800 0.000000
-43.740000 0.000000
-43.695200 0.000000
-43.650400 0.000000
-43.605600 0.000000
-43.560800 0.000000
-43.516000 0.000000
-43.471200 0.000000
-43.426400 0.000000
-43.381600 0.000000
-43.336800 0.000000
-43.292000 0.000000
-43.247200 0.000000
-43.202400 0.000000
-43.157600 0.000000
-43.112800 0.000000
-43.068000 0.000000
-43.023200 0.000000
-42.978400 0.000000
-42.933600 0.000000
-42.888900 0.000000
-42.844100 0.000000
-42.799300 0.000000
-42.754500 0.000000
-42.709700 0.000000
-42.664900 0.000000
-42.620100 0.000000
-42.575300 0.000000
-42.530500 0.000000
-42.485700 0.000000
-42.440900 0.000000
-42.396100 0.000000
-42.351300 0.000000
-42.306500 0.000000
-42.261700 1.160800
-42.216900 7.398500
-42.172100 15.331400
-42.127300 41.756800
-42.082500 0.000000
-42.037700 0.000000
-41.992900 0.000000
-41.948100 0.000000
-41.903400 0.000000
-41.858600 0.000000
-41.813800 0.000000
-41.769000 0.000000
-41.724200 0.000000
-41.679400 0.000000
-41.634600 0.000000
-41.589800 0.000000
-41.545000 0.000000
-41.500200 0.000000
-41.455400 0.000000
-41.410600 0.000000
-41.365800 0.000000
-41.321000 0.000000
-41.276200 0.000000
-41.231400 0.000000
-41.186600 0.000000
-41.141800 0.000000
-41.097000 0.000000
-41.052200 0.000000
-41.007400 0.000000
-40.962600 0.000000
-40.917900 0.000000
-40.873100 0.000000
-40.828300 0.000000
-40.783500 0.000000
-40.738700 0.000000
-40.693900 0.000000
-40.649100 0.000000
-40.604300 0.000000
-40.559500 0.000000
-40.514700 0.000000
-40.469900 0.000000
-40.425100 0.000000
-40.380300 0.000000
-40.335500 0.000000
-40.290700 0.000000
-40.245900 0.000000
-40.201100 0.000000
-40.156300 0.000000
-40.111500 0.000000
-40.066700 0.000000
-40.021900 0.000000
-39.977100 0.000000
-39.932400 0.000000
-39.887600 0.000000
-39.842800 0.000000
-39.798000 0.000000
-39.753200 0.000000
-39.708400 0.000000
-39.663600 0.000000
-39.618800 0.000000
-39.574000 0.000000
-39.529200 0.000000
-39.484400 0.000000
-39.439600 0.000000
-39.394800 0.000000
-39.350000 0.000000
-39.305200 0.000000
-39.260400 0.000000
-39.215600 0.000000
-39.170800 0.000000
-39.126000 0.000000
-39.081200 0.000000
-39.036400 0.000000
-38.991600 0.000000
-38.946900 0.000000
-38.902100 0.000000
-38.857300 0.000000
-38.812500 0.000000
-38.767700 0.000000
-38.722900 0.000000
-38.678100 0.000000
-38.633300 0.000000
-38.588500 0.000000
-38.543700 0.000000
-38.498900 0.000000
-38.454100 0.000000
-38.409300 0.000000
-38.364500 0.000000
-38.319700 0.000000
-38.274900 0.000000
-38.230100 0.000000
-38.185300 0.000000
-38.140500 0.000000
-38.095700 0.000000
-38.050900 0.000000
-38.006100 0.000000
-37.961400 0.000000
-37.916600 0.000000
-37.871800 0.000000
-37.827000 0.000000
-37.782200 0.000000
-37.737400 0.000000
-37.692600 0.000000
-37.647800 0.000000
-37.603000 0.000000
-37.558200 0.000000
-37.513400 0.000000
-37.468600 0.000000
-37.423800 0.000000
-37.379000 0.000000
-37.334200 0.000000
-37.289400 0.000000
-37.244600 0.000000
-37.199800 0.000000
-37.155000 0.000000
-37.110200 0.000000
-37.065400 0.000000
-37.020600 0.000000
-36.975800 0.000000
-36.931100 0.000000
-36.886300 0.000000
-36.841500 0.000000
-36.796700 0.000000
-36.751900 0.000000
-36.707100 0.000000
-36.662300 0.000000
-36.617500 0.000000
-36.572700 0.000000
-36.527900 0.000000
-36.483100 0.000000
-36.438300 0.000000
-36.393500 0.000000
-36.348700 0.000000
-36.303900 0.000000
-36.259100 0.000000
-36.214300 0.000000
-36.169500 0.000000
-36.124700 0.000000
-36.079900 0.000000
-36.035100 0.000000
-35.990300 0.000000
-35.945600 0.000000
-35.900800 0.000000
-35.856000 0.000000
-35.811200 0.000000
-35.766400 0.000000
-35.721600 0.000000
-35.676800 0.000000
-35.632000 0.000000
-35.587200 0.000000
-35.542400 0.000000
-35.497600 0.000000
-35.452800 0.000000
-35.408000 0.000000
-35.363200 0.000000
-35.318400 0.000000
-35.273600 0.000000
-35.228800 0.000000
-35.184000 0.000000
-35.139200 0.000000
-35.094400 0.000000
-35.049600 0.000000
-35.004800 0.000000
-34.960100 0.000000
-34.915300 0.000000
-34.870500 0.000000
-34.825700 0.000000
-34.780900 0.000000
-34.736100 0.000000
-34.691300 0.000000
-34.646500 0.000000
-34.601700 0.000000
-34.556900 0.000000
-34.512100 0.000000
-34.467300 0.000000
-34.422500 0.000000
-34.377700 0.000000
-34.332900 0.000000
-34.288100 0.000000
-34.243300 0.000000
-34.198500 0.000000
-34.153700 0.000000
-34.108900 0.000000
-34.064100 0.000000
-34.019300 0.000000
-33.974600 0.000000
-33.929800 0.000000
-33.885000 0.000000
-33.840200 0.000000
-33.795400 0.000000
-33.750600 0.000000
-33.705800 0.000000
-33.661000 0.000000
-33.616200 0.000000
-33.571400 0.000000
-33.526600 0.000000
-33.481800 0.000000
-33.437000 0.000000
-33.392200 0.000000
-33.347400 0.000000
-33.302600 0.000000
-33.257800 0.000000
-33.213000 0.000000
-33.168200 0.000000
-33.123400 0.000000
-33.078600 0.000000
-33.033800 0.000000
-32.989100 0.000000
-32.944300 0.000000
-32.899500 0.000000
-32.854700 0.000000
-32.809900 0.000000
-32.765100 0.000000
-32.720300 0.000000
-32.675500 0.000000
-32.630700 0.000000
-32.585900 0.000000
-32.541100 0.000000
-32.496300 0.000000
-32.451500 0.000000
-32.406700 0.000000
-32.361900 0.000000
-32.317100 0.000000
-32.272300 0.000000
-32.227500 0.000000
-32.182700 0.000000
-32.137900 0.000000
-32.093100 0.000000
-32.048300 0.000000
-32.003600 0.000000
-31.958800 0.000000
-31.914000 0.000000
-31.869200 0.000000
-31.824400 0.000000
-31.779600 0.000000
-31.734800 0.000000
-31.690000 0.000000
-31.645200 0.000000
-31.600400 0.000000
-31.555600 0.000000
-31.510800 0.000000
-31.466000 0.000000
-31.421200 0.000000
-31.376400 0.000000
-31.331600 0.000000
-31.286800 0.000000
-31.242000 0.000000
-31.197200 0.000000
-31.152400 0.000000
-31.107600 0.000000
-31.062800 0.000000
-31.018100 0.000000
-30.973300 0.000000
-30.928500 0.000000
-30.883700 0.000000
-30.838900 0.000000
-30.794100 0.000000
-30.749300 0.000000
-30.704500 0.000000
-30.659700 0.000000
-30.614900 0.000000
-30.570100 0.000000
-30.525300 0.000000
-30.480500 0.000000
-30.435700 0.000000
-30.390900 0.000000
-30.346100 0.000000
-30.301300 0.000000
-30.256500 0.000000
-30.211700 0.000000
-30.166900 0.000000
-30.122100 0.000000
-30.077300 0.000000
-30.032600 0.000000
-29.987800 0.000000
-29.943000 0.000000
-29.898200 0.000000
-29.853400 0.000000
-29.808600 0.000000
-29.763800 0.000000
-29.719000 0.000000
-29.674200 0.000000
-29.629400 0.000000
-29.584600 0.000000
-29.539800 0.000000
-29.495000 0.000000
-29.450200 0.000000
-29.405400 0.000000
-29.360600 0.000000
-29.315800 0.000000
-29.271000 0.000000
-29.226200 0.000000
-29.181400 0.000000
-29.136600 0.000000
-29.091800 0.000000
-29.047100 0.000000
-29.002300 0.000000
-28.957500 0.000000
-28.912700 0.000000
-28.867900 0.000000
-28.823100 0.000000
-28.778300 0.000000
-28.733500 0.000000
-28.688700 0.000000
-28.643900 0.000000
-28.599100 0.000000
-28.554300 0.000000
-28.509500 0.000000
-28.464700 0.000000
-28.419900 0.000000
-28.375100 0.000000
-28.330300 0.000000
-28.285500 0.000000
-28.240700 0.000000
-28.195900 0.000000
-28.151100 0.000000
-28.106300 0.000000
-28.061500 0.000000
-28.016800 0.000000
-27.972000 0.000000
-27.927200 0.000000
-27.882400 0.000000
-27.837600 0.000000
-27.792800 0.000000
-27.748000 0.000000
-27.703200 0.000000
-27.658400 0.000000
-27.613600 0.000000
-27.568800 0.000000
-27.524000 0.000000
-27.479200 0.000000
-27.434400 0.000000
-27.389600 0.000000
-27.344800 0.000000
-27.300000 0.000000
-27.255200 0.000000
-27.210400 0.000000
-27.165600 0.000000
-27.120800 0.000000
-27.076000 0.000000
-27.031300 0.000000
-26.986500 0.000000
-26.941700 0.000000
-26.896900 0.000000
-26.852100 0.000000
-26.807300 0.000000
-26.762500 0.000000
-26.717700 0.000000
-26.672900 0.000000
-26.628100 0.000000
-26.583300 0.000000
-26.538500 0.000000
-26.493700 0.000000
-26.448900 0.000000
-26.404100 0.000000
-26.359300 0.000000
-26.314500 0.000000
-26.269700 0.000000
-26.224900 0.000000
-26.180100 0.000000
-26.135300 0.000000
-26.090500 0.000000
-26.045800 0.000000
-26.001000 0.000000
-25.956200 0.000000
-25.911400 0.000000
-25.866600 0.000000
-25.821800 0.000000
-25.777000 0.000000
-25.732200 0.000000
-25.687400 0.000000
-25.642600 0.000000
-25.597800 0.000000
-25.553000 0.000000
-25.508200 0.000000
-25.463400 0.000000
-25.418600 0.000000
-25.373800 0.000000
-25.329000 0.000000
-25.284200 0.000000
-25.239400 0.000000
-25.194600 0.000000
-25.149800 0.000000
-25.105000 0.000000
-25.060300 0.000000
-25.015500 0.000000
-24.970700 0.000000
-24.925900 0.000000
-24.881100 0.000000
-24.836300 0.000000
-24.791500 0.000000
-24.746700 0.000000
-24.701900 0.000000
-24.657100 0.000000
-24.612300 0.000000
-24.567500 0.000000
-24.522700 0.000000
-24.477900 0.000000
-24.433100 0.000000
-24.388300 0.000000
-24.343500 0.000000
-24.298700 0.000000
-24.253900 0.000000
-24.209100 0.000000
-24.164300 0.000000
-24.119500 0.000000
-24.074800 0.000000
-24.030000 0.000000
-23.985200 0.000000
-23.940400 0.000000
-23.895600 0.000000
-23.850800 0.000000
-23.806000 0.000000
-23.761200 0.000000
-23.716400 0.000000
-23.671600 0.000000
-23.626800 0.000000
-23.582000 0.000000
-23.537200 0.000000
-23.492400 0.000000
-23.447600 0.000000
-23.402800 0.000000
-23.358000 0.000000
-23.313200 0.000000
-23.268400 0.000000
-23.223600 0.000000
-23.178800 0.000000
-23.134000 0.000000
-23.089300 0.000000
-23.044500 0.000000
-22.999700 0.000000
-22.954900 0.000000
-22.910100 0.000000
-22.865300 0.000000
-22.820500 0.000000
-22.775700 0.000000
-22.730900 0.000000
-22.686100 0.000000
-22.641300 0.000000
-22.596500 0.000000
-22.551700 0.000000
-22.506900 0.000000
-22.462100 0.000000
-22.417300 0.000000
-22.372500 0.000000
-22.327700 0.000000
-22.282900 0.000000
-22.238100 0.000000
-22.193300 0.000000
-22.148500 0.000000
-22.103800 0.000000
-22.059000 0.000000
-22.014200 0.000000
-21.969400 0.000000
-21.924600 0.000000
-21.879800 0.000000
-21.835000 0.000000
-21.790200 0.000000
-21.745400 0.000000
-21.700600 0.000000
-21.655800 0.000000
-21.611000 0.000000
-21.566200 0.000000
-21.521400 0.000000
-21.476600 0.000000
-21.431800 0.000000
-21.387000 0.000000
-21.342200 0.000000
-21.297400 0.000000
-21.252600 0.000000
-21.207800 0.000000
-21.163000 0.000000
-21.118300 0.000000
-21.073500 0.000000
-21.028700 0.468400
-20.983900 3.912300
-20.939100 5.581500
-20.894300 7.607900
-20.849500 12.028700
-20.804700 12.556300
-20.759900 13.293700
-20.715100 9.097900
-20.670300 6.993900
-20.625500 4.304000
-20.580700 3.957800
-20.535900 6.818400
-20.491100 11.285500
-20.446300 9.204700
-20.401500 10.261500
-20.356700 10.511400
-20.311900 11.304400
-20.267100 14.954800
-20.222300 22.708800
-20.177500 21.940800
-20.132800 22.343500
-20.088000 17.264800
-20.043200 12.328400
-19.998400 8.555400
-19.953600 3.452400
-19.908800 0.000000
-19.864000 0.000000
-19.819200 0.000000
-19.774400 0.000000
-19.729600 0.000000
-19.684800 0.000000
-19.640000 0.000000
-19.595200 0.000000
-19.550400 0.000000
-19.505600 0.000000
-19.460800 0.000000
-19.416000 0.000000
-19.371200 0.000000
-19.326400 0.000000
-19.281600 0.000000
-19.236800 0.000000
-19.192000 0.000000
-19.147200 0.000000
-19.102500 0.000000
-19.057700 0.000000
-19.012900 0.000000
-18.968100 0.000000
-18.923300 0.000000
-18.878500 0.000000
-18.833700 0.000000
-18.788900 0.000000
-18.744100 0.000000
-18.699300 0.000000
-18.654500 0.000000
-18.609700 0.000000
-18.564900 0.000000
-18.520100 0.000000
-18.475300 0.000000
-18.430500 0.000000
-18.385700 0.000000
-18.340900 0.000000
-18.296100 0.000000
-18.251300 0.000000
-18.206500 0.000000
-18.161700 0.000000
-18.117000 0.000000
-18.072200 0.000000
-18.027400 0.000000
-17.982600 0.000000
-17.937800 0.000000
-17.893000 0.000000
-17.848200 0.000000
-17.803400 0.000000
-17.758600 0.000000
-17.713800 0.000000
-17.669000 0.000000
-17.624200 0.000000
-17.579400 0.000000
-17.534600 0.000000
-17.489800 0.000000
-17.445000 0.000000
-17.400200 0.000000
-17.355400 0.000000
-17.310600 0.000000
-17.265800 0.000000
-17.221000 0.000000
-17.176200 0.000000
-17.131500 0.000000
-17.086700 0.000000
-17.041900 0.000000
-16.997100 0.000000
-16.952300 0.000000
-16.907500 0.000000
-16.862700 0.000000
-16.817900 0.000000
-16.773100 0.000000
-16.728300 0.000000
-16.683500 0.000000
-16.638700 0.000000
-16.593900 0.000000
-16.549100 0.000000
-16.504300 0.000000
-16.459500 0.000000
-16.414700 0.000000
-16.369900 0.000000
-16.325100 0.000000
-16.280300 0.000000
-16.235500 0.000000
-16.190700 0.000000
-16.146000 0.000000
-16.101200 0.000000
-16.056400 0.000000
-16.011600 0.000000
-15.966800 0.000000
-15.922000 0.000000
-15.877200 0.000000
-15.832400 0.000000
-15.787600 0.000000
-15.742800 0.000000
-15.698000 0.000000
-15.653200 0.000000
-15.608400 0.000000
-15.563600 0.000000
-15.518800 0.000000
-15.474000 0.000000
-15.429200 0.000000
-15.384400 0.000000
-15.339600 0.000000
-15.294800 0.000000
-15.250000 0.000000
-15.205200 0.000000
-15.160500 0.000000
-15.115700 0.000000
-15.070900 0.000000
-15.026100 0.000000
-14.981300 0.000000
-14.936500 0.000000
-14.891700 0.000000
-14.846900 0.000000
-14.802100 0.000000
-14.757300 0.000000
-14.712500 0.000000
-14.667700 0.000000
-14.622900 0.000000
-14.578100 0.000000
-14.533300 0.000000
-14.488500 0.000000
-14.443700 0.000000
-14.398900 0.000000
-14.354100 0.000000
-14.309300 0.000000
-14.264500 0.000000
-14.219700 0.000000
-14.175000 0.000000
-14.130200 0.000000
-14.085400 0.000000
-14.040600 0.000000
-13.995800 0.000000
-13.951000 0.000000
-13.906200 0.000000
-13.861400 0.000000
-13.816600 0.000000
-13.771800 0.000000
-13.727000 0.000000
-13.682200 0.000000
-13.637400 0.000000
-13.592600 0.000000
-13.547800 0.000000
-13.503000 0.000000
-13.458200 0.000000
-13.413400 0.000000
-13.368600 0.000000
-13.323800 0.000000
-13.279000 0.000000
-13.234200 0.000000
-13.189500 0.000000
-13.144700 0.000000
-13.099900 0.000000
-13.055100 0.000000
-13.010300 0.000000
-12.965500 0.000000
-12.920700 0.000000
-12.875900 0.000000
-12.831100 0.000000
-12.786300 0.000000
-12.741500 0.000000
-12.696700 0.000000
-12.651900 0.000000
-12.607100 0.000000
-12.562300 0.000000
-12.517500 0.000000
-12.472700 0.000000
-12.427900 0.000000
-12.383100 0.000000
-12.338300 0.000000
-12.293500 0.000000
-12.248700 0.000000
-12.204000 0.000000
-12.159200 0.000000
-12.114400 0.000000
-12.069600 0.000000
-12.024800 0.000000
-11.980000 0.000000
-11.935200 0.000000
-11.890400 0.000000
-11.845600 0.000000
-11.800800 0.000000
-11.756000 0.000000
-11.711200 0.000000
-11.666400 0.000000
-11.621600 0.000000
-11.576800 0.000000
-11.532000 0.000000
-11.487200 0.000000
-11.442400 0.000000
-11.397600 0.000000
-11.352800 0.000000
-11.308000 0.000000
-11.263200 0.000000
-11.218500 0.000000
-11.173700 0.000000
-11.128900 0.000000
-11.084100 0.000000
-11.039300 0.000000
-10.994500 0.000000
-10.949700 0.000000
-10.904900 0.000000
-10.860100 0.000000
-10.815300 0.000000
-10.770500 0.000000
-10.725700 0.000000
-10.680900 0.000000
-10.636100 0.000000
-10.591300 0.000000
-10.546500 0.000000
-10.501700 0.000000
-10.456900 0.000000
-10.412100 0.000000
-10.367300 0.000000
-10.322500 0.000000
-10.277700 0.000000
-10.232900 0.000000
-10.188200 0.000000
-10.143400 0.000000
-10.098600 0.000000
-10.053800 0.000000
-10.009000 0.000000
-9.964200 0.000000
-9.919400 0.000000
-9.874600 0.000000
-9.829800 0.000000
-9.785000 0.000000
-9.740200 0.000000
-9.695400 0.000000
-9.650600 0.000000
-9.605800 0.000000
-9.561000 0.000000
-9.516200 0.000000
-9.471400 0.000000
-9.426600 0.000000
-9.381800 0.000000
-9.337000 0.000000
-9.292200 0.000000
-9.247400 0.000000
-9.202700 0.000000
-9.157900 0.000000
-9.113100 0.000000
-9.068300 0.000000
-9.023500 0.000000
-8.978700 0.000000
-8.933900 0.002600
-8.889100 0.069000
-8.844300 0.124100
-8.799500 0.147700
-8.754700 0.188300
-8.709900 0.220900
-8.665100 0.247800
-8.620300 0.277300
-8.575500 0.308400
-8.530700 0.339200
-8.485900 0.375000
-8.441100 0.411400
-8.396300 0.448100
-8.351500 0.485000
-8.306700 0.529400
-8.261900 0.578800
-8.217200 0.628400
-8.172400 0.681600
-8.127600 0.751800
-8.082800 0.823100
-8.038000 0.993600
-7.993200 1.083200
-7.948400 1.182600
-7.903600 1.292500
-7.858800 1.402700
-7.814000 1.598900
-7.769200 1.904200
-7.724400 2.469100
-7.679600 4.455900
-7.634800 17.158400
-7.590000 4.321700
-7.545200 0.749200
-7.500400 1.285200
-7.455600 2.978500
-7.410800 8.284600
-7.366000 11.760500
-7.321200 6.003100
-7.276400 3.622200
-7.231700 2.253700
-7.186900 1.120900
-7.142100 0.937200
-7.097300 0.825900
-7.052500 0.726700
-7.007700 0.632900
-6.962900 0.562700
-6.918100 0.495700
-6.873300 0.424900
-6.828500 0.366900
-6.783700 0.304000
-6.738900 0.257100
-6.694100 0.211500
-6.649300 0.147300
-6.604500 0.061000
-6.559700 0.000000
-6.514900 0.000000
-6.470100 0.000000
-6.425300 0.000000
-6.380500 0.000000
-6.335700 0.000000
-6.290900 0.000000
-6.246200 0.000000
-6.201400 0.000000
-6.156600 0.000000
-6.111800 0.000000
-6.067000 0.000000
-6.022200 0.000000
-5.977400 0.000000
-5.932600 0.000000
-5.887800 0.000000
-5.843000 0.000000
-5.798200 0.000000
-5.753400 0.000000
-5.708600 0.000000
-5.663800 0.000000
-5.619000 0.000000
-5.574200 0.000000
-5.529400 0.000000
-5.484600 0.000000
-5.439800 0.000000
-5.395000 0.000000
-5.350200 0.000000
-5.305400 0.000000
-5.260700 0.000000
-5.215900 0.000000
-5.171100 0.000000
-5.126300 0.000000
-5.081500 0.000000
-5.036700 0.000000
-4.991900 0.000000
-4.947100 0.000000
-4.902300 0.000000
-4.857500 0.000000
-4.812700 0.000000
-4.767900 0.000000
-4.723100 0.000000
-4.678300 0.000000
-4.633500 0.000000
-4.588700 0.000000
-4.543900 0.000000
-4.499100 0.000000
-4.454300 0.000000
-4.409500 0.000000
-4.364700 0.000000
-4.319900 0.000000
-4.275200 0.000000
-4.230400 0.000000
-4.185600 0.000000
-4.140800 0.000000
-4.096000 0.000000
-4.051200 0.000000
-4.006400 0.000000
-3.961600 0.000000
-3.916800 0.000000
-3.872000 0.000000
-3.827200 0.000000
-3.782400 0.000000
-3.737600 0.000000
-3.692800 0.000000
-3.648000 0.000000
-3.603200 0.000000
-3.558400 0.000000
-3.513600 0.000000
-3.468800 0.000000
-3.424000 0.000000
-3.379200 0.000000
-3.334400 0.000000
-3.289700 0.000000
-3.244900 0.000000
-3.200100 0.000000
-3.155300 0.000000
-3.110500 0.000000
-3.065700 0.000000
-3.020900 0.000000
-2.976100 0.000000
-2.931300 0.000000
-2.886500 0.000000
-2.841700 0.000000
-2.796900 0.000000
-2.752100 0.000000
-2.707300 0.000000
-2.662500 0.000000
-2.617700 0.000000
-2.572900 0.000000
-2.528100 0.000000
-2.483300 0.000000
-2.438500 0.000000
-2.393700 0.000000
-2.348900 0.000000
-2.304200 0.000000
-2.259400 0.000000
-2.214600 0.000000
-2.169800 0.000000
-2.125000 0.000000
-2.080200 0.000000
-2.035400 0.000000
-1.990600 0.000000
-1.945800 0.000000
-1.901000 0.000000
-1.856200 0.000000
-1.811400 0.000000
-1.766600 0.000000
-1.721800 0.000000
-1.677000 0.000000
-1.632200 0.000000
-1.587400 0.000000
-1.542600 0.000000
-1.497800 0.000000
-1.453000 0.000000
-1.408200 0.000000
-1.363400 0.000000
-1.318600 0.000000
-1.273900 0.000000
-1.229100 0.000000
-1.184300 0.000000
-1.139500 0.000000
-1.094700 0.000000
-1.049900 0.000000
-1.005100 0.000000
-0.960300 0.000000
-0.915500 0.000000
-0.870700 0.000000
-0.825900 0.000000
-0.781100 0.000000
-0.736300 0.000000
-0.691500 0.000000
-0.646700 0.000000
-0.601900 0.000000
-0.557100 0.000000
-0.512300 0.000000
-0.467500 0.000000
-0.422700 0.000000
-0.377900 0.000000
-0.333100 0.000300
-0.288400 0.014700
-0.243600 0.045200
-0.198800 0.069400
-0.154000 0.085500
-0.109200 0.094800
-0.064400 0.110500
-0.019600 0.123600
0.025200 0.156400
0.070000 0.287000
0.114800 0.433600
0.159600 0.507800
0.204400 0.572000
0.249200 0.641500
0.294000 0.724100
0.338800 0.821700
0.383600 0.916000
0.428400 1.019400
0.473200 1.143100
0.518000 1.327400
0.562800 1.361400
0.607600 1.347200
0.652400 1.428400
0.697100 1.730700
0.741900 2.222600
0.786700 2.910500
0.831500 3.033100
0.876300 2.923300
0.921100 2.589500
0.965900 2.240100
1.010700 1.962600
1.055500 1.842000
1.100300 1.783600
1.145100 1.763700
1.189900 1.774900
1.234700 1.930700
1.279500 1.896600
1.324300 2.046100
1.369100 2.374000
1.413900 2.813100
1.458700 3.526400
1.503500 4.049500
1.548300 4.139700
1.593100 4.260100
1.637900 4.346100
1.682600 5.176700
1.727400 6.137500
1.772200 4.409500
1.817000 4.654100
1.861800 4.755400
1.906600 3.796100
1.951400 4.028900
1.996200 4.101000
2.041000 4.181700
2.085800 4.033900
2.130600 3.325100
2.175400 3.200900
2.220200 3.185200
2.265000 3.079900
2.309800 2.872200
2.354600 2.550500
2.399400 3.063200
2.444200 3.432600
2.489000 4.708000
2.533800 4.856900
2.578600 4.066900
2.623400 3.319400
2.668100 3.286100
2.712900 3.482700
2.757700 3.362800
2.802500 3.575300
2.847300 2.572300
2.892100 2.299900
2.936900 2.424400
2.981700 2.520700
3.026500 2.839000
3.071300 2.480700
3.116100 2.580800
3.160900 3.030200
3.205700 3.907700
3.250500 6.998300
3.295300 7.724100
3.340100 5.505200
3.384900 4.501700
3.429700 3.859400
3.474500 3.865200
3.519300 3.163500
3.564100 2.738600
3.608900 2.390300
3.653600 2.217400
3.698400 2.045900
3.743200 1.684700
3.788000 1.444200
3.832800 1.305500
3.877600 1.215600
3.922400 1.165600
3.967200 1.094600
4.012000 1.079500
4.056800 1.074200
4.101600 1.038700
4.146400 0.979700
4.191200 0.944100
4.236000 0.928800
4.280800 0.935600
4.325600 0.942300
4.370400 0.919500
4.415200 0.891800
4.460000 0.866300
4.504800 0.837500
4.549600 0.803500
4.594400 0.760300
4.639100 0.707000
4.683900 0.637600
4.728700 0.536800
4.773500 0.449700
4.818300 0.398300
4.863100 0.354500
4.907900 0.358500
4.952700 0.445100
4.997500 0.521800
5.042300 0.568400
5.087100 0.633000
5.131900 0.728100
5.176700 0.885700
5.221500 0.986400
5.266300 0.988100
5.311100 0.963900
5.355900 0.968900
5.400700 0.997500
5.445500 1.027000
5.490300 1.045400
5.535100 1.045900
5.579900 1.047600
5.624600 1.055900
5.669400 1.064000
5.714200 1.070100
5.759000 1.080800
5.803800 1.091400
5.848600 1.102500
5.893400 1.102600
5.938200 1.101800
5.983000 1.102400
6.027800 1.103000
6.072600 1.104300
6.117400 1.102100
6.162200 1.102600
6.207000 1.104900
6.251800 1.109200
6.296600 1.266100
6.341400 1.363700
6.386200 1.356500
6.431000 1.514100
6.475800 1.192000
6.520600 1.112600
6.565400 1.034900
6.610100 1.022100
6.654900 0.799500
6.699700 0.651000
6.744500 0.581800
6.789300 0.540900
6.834100 0.487300
6.878900 0.692700
6.923700 0.975400
6.968500 1.207800
7.013300 1.056100
7.058100 1.099100
7.102900 1.120400
7.147700 1.166500
7.192500 1.318300
7.237300 1.247800
7.282100 1.205600
7.326900 1.234900
7.371700 1.284200
7.416500 1.320100
7.461300 1.342800
7.506100 1.485900
7.550900 1.571300
7.595700 1.653800
7.640400 1.802200
7.685200 1.992900
7.730000 1.998700
7.774800 1.839500
7.819600 1.651700
7.864400 1.533600
7.909200 1.454800
7.954000 1.438300
7.998800 1.384600
8.043600 1.288200
8.088400 1.233000
8.133200 1.200400
8.178000 1.173200
8.222800 1.136300
8.267600 1.107500
8.312400 1.050100
8.357200 1.048000
8.402000 1.056900
8.446800 1.031300
8.491600 0.988500
8.536400 0.917400
8.581200 0.894000
8.625900 0.885800
8.670700 0.868100
8.715500 0.871100
8.760300 0.877200
8.805100 0.863700
8.849900 1.008300
8.894700 1.014000
8.939500 0.950800
8.984300 0.917300
9.029100 0.949300
9.073900 1.002700
9.118700 1.177900
9.163500 1.543400
9.208300 1.496400
9.253100 1.469300
9.297900 1.922800
9.342700 2.156800
9.387500 2.581600
9.432300 3.075800
9.477100 2.945500
9.521900 2.977800
9.566700 3.179500
9.611400 3.437300
9.656200 3.972000
9.701000 3.915900
9.745800 4.125000
9.790600 4.533700
9.835400 3.936000
9.880200 3.630400
9.925000 3.466900
9.969800 3.449100
10.014600 3.652500
10.059400 3.752100
10.104200 3.702700
10.149000 3.682700
10.193800 3.931000
10.238600 4.272100
10.283400 5.109600
10.328200 4.772400
10.373000 4.264900
10.417800 4.364500
10.462600 4.402300
10.507400 4.364200
10.552200 3.898000
10.596900 3.767400
10.641700 3.301300
10.686500 2.937600
10.731300 2.934700
10.776100 2.934900
10.820900 3.034100
10.865700 3.323500
10.910500 3.959100
10.955300 4.298900
11.000100 3.917600
11.044900 3.643500
11.089700 3.709100
11.134500 3.839500
11.179300 3.969600
11.224100 4.649400
11.268900 5.332500
11.313700 5.586100
11.358500 5.181500
11.403300 4.709500
11.448100 4.762300
11.492900 5.859100
11.537700 7.372100
11.582400 7.729100
11.627200 6.178100
11.672000 5.121600
11.716800 4.770900
11.761600 4.763300
11.806400 4.826600
11.851200 4.590500
11.896000 4.334600
11.940800 4.150200
11.985600 3.846900
12.030400 4.035900
12.075200 4.229900
12.120000 4.226100
12.164800 3.354300
12.209600 2.925300
12.254400 2.842500
12.299200 2.497200
12.344000 2.381800
12.388800 2.335200
12.433600 2.781000
12.478400 2.817400
12.523200 3.124100
12.567900 2.791200
12.612700 2.691300
12.657500 2.700000
12.702300 3.130700
12.747100 3.324300
12.791900 3.297000
12.836700 3.141000
12.881500 3.078900
12.926300 3.205000
12.971100 3.224100
13.015900 3.412300
13.060700 3.723300
13.105500 3.629200
13.150300 3.088000
13.195100 2.734400
13.239900 2.652600
13.284700 2.363000
13.329500 2.177300
13.374300 2.020400
13.419100 1.956000
13.463900 1.733100
13.508700 1.533800
13.553400 1.284000
13.598200 0.868700
13.643000 0.530700
13.687800 0.468800
13.732600 0.427200
13.777400 0.386400
13.822200 0.319000
13.867000 0.321600
13.911800 0.324400
13.956600 0.327600
14.001400 0.330900
14.046200 0.334600
14.091000 0.338600
14.135800 0.343100
14.180600 0.348000
14.225400 0.353100
14.270200 0.358600
14.315000 0.364200
14.359800 0.370200
14.404600 0.376500
14.449400 0.383000
14.494200 0.389500
14.538900 0.396000
14.583700 0.402600
14.628500 0.409300
14.673300 0.416100
14.718100 0.423100
14.762900 0.430800
14.807700 0.438000
14.852500 0.445200
14.897300 0.452500
14.942100 0.459800
14.986900 0.467300
15.031700 0.476100
15.076500 0.486100
15.121300 0.497200
15.166100 0.510700
15.210900 0.526300
15.255700 0.543800
15.300500 0.563400
15.345300 0.582300
15.390100 0.599800
15.434900 0.613800
15.479700 0.622300
15.524400 0.622600
15.569200 0.623200
15.614000 0.624400
15.658800 0.632800
15.703600 0.643500
15.748400 0.653000
15.793200 0.661300
15.838000 0.669000
15.882800 0.676500
15.927600 0.683000
15.972400 0.688400
16.017200 0.693900
16.062000 0.700900
16.106800 0.708900
16.151600 0.717400
16.196400 0.725100
16.241200 0.732500
16.286000 0.743200
16.330800 0.753100
16.375600 0.763000
16.420400 0.773500
16.465200 0.786900
16.510000 0.802000
16.554700 0.849100
16.599500 0.946400
16.644300 1.035200
16.689100 1.070200
16.733900 1.105700
16.778700 1.174800
16.823500 1.251200
16.868300 1.329400
16.913100 1.468500
16.957900 1.531700
17.002700 1.671600
17.047500 1.840900
17.092300 1.965200
17.137100 2.102300
17.181900 2.159700
17.226700 2.365000
17.271500 2.273300
17.316300 2.211300
17.361100 2.353400
17.405900 2.474600
17.450700 2.140900
17.495500 1.351600
17.540200 1.205500
17.585000 1.145400
17.629800 1.044500
17.674600 0.958200
17.719400 0.818800
17.764200 0.542700
17.809000 0.343300
17.853800 0.268400
17.898600 0.232700
17.943400 0.167900
17.988200 0.214600
18.033000 0.291300
18.077800 0.345700
18.122600 0.404000
18.167400 0.480200
18.212200 0.572500
18.257000 0.842100
18.301800 1.019500
18.346600 1.224600
18.391400 1.561600
18.436200 1.651800
18.481000 1.655900
18.525700 1.717900
18.570500 1.825300
18.615300 1.921800
18.660100 1.959200
18.704900 2.009600
18.749700 2.086800
18.794500 2.217000
18.839300 2.074600
18.884100 2.045100
18.928900 2.025800
18.973700 2.019100
19.018500 2.054500
19.063300 2.104000
19.108100 2.077400
19.152900 1.946800
19.197700 1.835800
19.242500 1.759800
19.287300 1.960600
19.332100 1.795800
19.376900 1.702400
19.421700 1.665700
19.466500 1.614000
19.511200 1.495900
19.556000 1.427200
19.600800 1.497600
19.645600 1.394700
19.690400 1.401000
19.735200 1.373200
19.780000 1.349000
19.824800 1.358200
19.869600 1.384500
19.914400 1.424300
19.959200 1.475500
20.004000 1.551800
20.048800 1.662300
20.093600 1.869900
20.138400 2.060200
20.183200 2.246600
20.228000 2.363600
20.272800 2.391800
20.317600 2.281500
20.362400 2.259600
20.407200 2.108300
20.452000 1.998800
20.496700 1.955600
20.541500 1.912900
20.586300 1.877600
20.631100 1.846300
20.675900 1.840400
20.720700 1.840400
20.765500 1.866600
20.810300 1.872300
20.855100 1.807600
20.899900 1.747600
20.944700 1.713600
20.989500 1.696500
21.034300 1.676500
21.079100 1.648700
21.123900 1.642700
21.168700 1.622400
21.213500 1.610800
21.258300 1.601400
21.303100 1.595400
21.347900 1.611100
21.392700 1.635200
21.437500 1.638800
21.482200 1.644700
21.527000 1.724500
21.571800 1.620800
21.616600 1.548900
21.661400 1.615900
21.706200 1.786100
21.751000 2.991500
21.795800 2.123400
21.840600 1.904600
21.885400 1.853800
21.930200 2.334600
21.975000 2.178800
22.019800 1.946600
22.064600 1.796300
22.109400 1.762000
22.154200 1.727700
22.199000 1.610700
22.243800 1.690400
22.288600 1.843900
22.333400 1.830400
22.378200 1.650800
22.423000 1.420200
22.467700 1.247000
22.512500 1.316300
22.557300 1.430400
22.602100 2.055800
22.646900 2.073300
22.691700 1.937600
22.736500 1.930500
22.781300 1.956900
22.826100 1.924500
22.870900 2.033600
22.915700 1.863800
22.960500 1.833500
23.005300 1.866300
23.050100 1.886600
23.094900 1.913700
23.139700 1.847600
23.184500 1.845000
23.229300 1.842500
23.274100 1.932800
23.318900 1.994200
23.363700 1.970000
23.408500 1.950900
23.453200 2.096300
23.498000 2.078400
23.542800 2.034300
23.587600 2.021000
23.632400 2.054100
23.677200 2.105400
23.722000 2.152800
23.766800 2.207000
23.811600 2.134500
23.856400 1.868400
23.901200 1.709700
23.946000 1.734400
23.990800 1.862200
24.035600 1.968500
24.080400 2.366300
24.125200 1.899500
24.170000 2.124300
24.214800 2.113800
24.259600 1.880100
24.304400 1.789000
24.349200 1.749400
24.394000 1.745000
24.438700 1.740600
24.483500 1.868900
24.528300 1.836000
24.573100 2.003400
24.617900 2.230200
24.662700 2.543400
24.707500 2.661700
24.752300 2.867800
24.797100 3.039600
24.841900 3.452800
24.886700 3.558900
24.931500 3.190500
24.976300 2.627600
25.021100 1.983200
25.065900 1.775900
25.110700 1.598600
25.155500 1.457000
25.200300 1.344800
25.245100 1.237700
25.289900 1.188900
25.334700 1.165800
25.379500 1.243900
25.424300 1.516900
25.469000 1.415800
25.513800 1.426000
25.558600 1.514000
25.603400 1.485600
25.648200 1.364900
25.693000 1.286400
25.737800 1.235700
25.782600 1.198000
25.827400 1.172400
25.872200 1.164300
25.917000 1.161300
25.961800 1.163000
26.006600 1.208100
26.051400 1.294200
26.096200 1.320700
26.141000 1.295900
26.185800 1.293600
26.230600 1.304200
26.275400 1.304400
26.320200 1.272500
26.365000 1.257000
26.409800 1.252400
26.454500 1.240800
26.499300 1.224900
26.544100 1.208100
26.588900 1.191900
26.633700 1.176700
26.678500 1.169400
26.723300 1.166000
26.768100 1.163600
26.812900 1.168000
26.857700 1.139100
26.902500 1.116700
26.947300 1.092300
26.992100 1.061500
27.036900 1.052600
27.081700 1.065800
27.126500 1.105200
27.171300 1.160500
27.216100 1.243500
27.260900 1.344400
27.305700 1.473400
27.350500 1.536600
27.395300 1.688200
27.440000 1.812900
27.484800 1.992500
27.529600 2.190400
27.574400 2.330000
27.619200 2.306500
27.664000 2.054600
27.708800 1.773000
27.753600 1.687400
27.798400 1.700700
27.843200 1.781300
27.888000 1.977400
27.932800 2.168700
27.977600 2.231200
28.022400 2.143200
28.067200 2.211000
28.112000 2.334100
28.156800 2.471200
28.201600 2.302300
28.246400 2.072100
28.291200 1.901500
28.336000 1.754600
28.380800 1.694300
28.425500 1.636100
28.470300 1.580700
28.515100 1.550500
28.559900 1.585300
28.604700 1.551500
28.649500 1.325500
28.694300 1.246700
28.739100 1.226500
28.783900 1.205300
28.828700 1.189300
28.873500 1.170600
28.918300 1.163700
28.963100 1.186500
29.007900 1.204800
29.052700 1.289400
29.097500 1.342200
29.142300 1.370900
29.187100 1.432300
29.231900 1.504700
29.276700 1.612000
29.321500 1.650400
29.366300 1.726900
29.411000 1.822500
29.455800 1.850000
29.500600 1.803500
29.545400 1.737500
29.590200 1.721100
29.635000 1.760200
29.679800 1.720500
29.724600 1.677400
29.769400 1.681000
29.814200 1.653600
29.859000 1.700400
29.903800 1.802900
29.948600 1.820900
29.993400 1.850900
30.038200 1.818600
30.083000 1.776600
30.127800 1.740700
30.172600 1.738300
30.217400 1.916400
30.262200 1.930100
30.307000 1.912500
30.351800 1.901300
30.396500 1.967600
30.441300 2.123100
30.486100 2.217800
30.530900 2.239300
30.575700 2.296900
30.620500 2.123900
30.665300 2.044300
30.710100 1.932200
30.754900 1.836600
30.799700 1.721900
30.844500 1.688000
30.889300 1.606200
30.934100 1.618300
30.978900 1.645100
31.023700 1.675700
31.068500 1.697500
31.113300 1.701700
31.158100 1.673500
31.202900 1.675400
31.247700 1.681100
31.292500 1.614000
31.337300 1.553100
31.382000 1.538500
31.426800 1.588800
31.471600 1.608000
31.516400 1.639800
31.561200 1.686000
31.606000 1.684100
31.650800 1.697900
31.695600 1.690200
31.740400 1.600000
31.785200 1.549000
31.830000 1.618300
31.874800 1.732000
31.919600 1.809600
31.964400 2.032100
32.009200 2.264100
32.054000 2.167800
32.098800 2.093600
32.143600 2.211200
32.188400 2.411900
32.233200 2.327100
32.278000 2.202300
32.322800 2.142000
32.367500 2.253100
32.412300 2.182200
32.457100 2.258300
32.501900 2.458100
32.546700 2.678400
32.591500 2.941300
32.636300 3.186500
32.681100 3.224900
32.725900 3.132500
32.770700 3.165200
32.815500 3.028100
32.860300 2.852900
32.905100 2.728700
32.949900 2.649300
32.994700 2.561700
33.039500 2.469100
33.084300 2.371100
33.129100 2.295600
33.173900 2.257700
33.218700 2.349800
33.263500 2.366700
33.308300 2.370900
33.353000 2.261300
33.397800 2.151500
33.442600 2.132600
33.487400 2.190600
33.532200 2.196400
33.577000 2.205100
33.621800 2.218100
33.666600 2.274300
33.711400 2.100500
33.756200 1.999500
33.801000 2.002200
33.845800 2.054100
33.890600 2.156500
33.935400 2.261600
33.980200 2.454900
34.025000 2.529300
34.069800 2.715400
34.114600 2.869100
34.159400 2.949500
34.204200 3.123000
34.249000 2.907100
34.293800 2.768100
34.338600 2.672000
34.383300 2.646600
34.428100 2.712200
34.472900 2.727900
34.517700 2.897100
34.562500 2.865300
34.607300 2.872900
34.652100 2.944300
34.696900 2.976500
34.741700 3.064400
34.786500 3.041900
34.831300 3.021900
34.876100 2.837900
34.920900 2.672400
34.965700 2.342400
35.010500 2.066600
35.055300 1.951800
35.100100 1.886900
35.144900 1.880500
35.189700 2.057000
35.234500 2.359100
35.279300 2.305500
35.324100 2.261700
35.368800 2.315300
35.413600 2.455000
35.458400 2.577900
35.503200 2.646500
35.548000 2.618400
35.592800 2.515000
35.637600 2.273500
35.682400 2.173500
35.727200 2.125400
35.772000 2.165500
35.816800 2.230700
35.861600 2.324900
35.906400 2.431500
35.951200 2.555400
35.996000 2.727200
36.040800 2.714700
36.085600 2.716600
36.130400 2.873000
36.175200 2.882500
36.220000 2.915800
36.264800 2.804300
36.309600 2.662200
36.354300 2.673800
36.399100 2.671700
36.443900 2.691900
36.488700 2.712600
36.533500 2.773100
36.578300 2.450800
36.623100 2.290400
36.667900 2.211900
36.712700 2.136300
36.757500 2.059000
36.802300 1.976700
36.847100 1.883200
36.891900 1.716600
36.936700 1.498600
36.981500 1.329000
37.026300 1.253600
37.071100 1.231400
37.115900 1.246700
37.160700 1.311900
37.205500 1.464900
37.250300 1.580700
37.295100 1.704700
37.339800 1.772200
37.384600 1.887200
37.429400 2.054300
37.474200 2.345800
37.519000 2.640400
37.563800 2.764900
37.608600 2.886400
37.653400 2.915100
37.698200 2.997600
37.743000 3.226700
37.787800 2.854600
37.832600 3.124200
37.877400 2.832900
37.922200 2.646300
37.967000 2.573000
38.011800 2.649700
38.056600 2.505100
38.101400 2.360500
38.146200 2.294300
38.191000 2.242100
38.235800 2.514100
38.280600 2.140900
38.325300 1.862200
38.370100 1.786500
38.414900 1.625900
38.459700 1.524400
38.504500 1.408100
38.549300 1.035600
38.594100 0.830400
38.638900 0.673700
38.683700 0.493700
38.728500 0.368200
38.773300 0.292300
38.818100 0.237500
38.862900 0.192600
38.907700 0.131600
38.952500 0.094800
38.997300 0.065300
39.042100 0.039800
39.086900 0.022100
39.131700 0.007700
39.176500 0.000100
39.221300 0.000000
39.266100 0.000000
39.310800 0.000000
39.355600 0.000000
39.400400 0.000000
39.445200 0.000000
39.490000 0.000000
39.534800 0.000000
39.579600 0.000000
39.624400 0.000000
39.669200 0.000000
39.714000 0.000000
39.758800 0.000000
39.803600 0.000000
39.848400 0.000000
39.893200 0.000000
39.938000 0.000000
39.982800 0.000000
40.027600 0.000000
40.072400 0.000000
40.117200 0.000000
40.162000 0.000000
40.206800 0.000000
40.251600 0.000000
40.296300 0.000000
40.341100 0.000000
40.385900 0.000000
40.430700 0.000000
40.475500 0.000000
40.520300 0.000000
40.565100 0.000000
40.609900 0.000000
40.654700 0.000000
40.699500 0.000000
40.744300 0.000000
40.789100 0.000000
40.833900 0.000000
40.878700 0.000000
40.923500 0.000000
40.968300 0.000000
41.013100 0.000000
41.057900 0.000000
41.102700 0.000000
41.147500 0.000000
41.192300 0.000000
41.237100 0.000000
41.281800 0.000000
41.326600 0.000000
41.371400 0.000000
41.416200 0.000000
41.461000 0.000000
41.505800 0.000000
41.550600 0.000000
41.595400 0.000000
41.640200 0.000000
41.685000 0.000000
41.729800 0.000000
41.774600 0.000000
41.819400 0.000000
41.864200 0.000000
41.909000 0.000000
41.953800 0.000000
41.998600 0.000000
42.043400 0.000000
42.088200 0.000000
42.133000 0.000000
42.177800 0.000000
42.222600 0.000000
42.267300 0.000000
42.312100 0.000000
42.356900 0.000000
42.401700 0.000000
42.446500 0.000000
42.491300 0.000000
42.536100 0.000000
42.580900 0.000000
42.625700 0.000000
42.670500 0.000000
42.715300 0.000000
42.760100 0.000000
42.804900 0.000000
42.849700 0.000000
42.894500 0.000000
42.939300 0.000000
42.984100 0.000000
43.028900 0.000000
43.073700 0.000000
43.118500 0.000000
43.163300 0.000000
43.208100 0.000000
43.252900 0.000000
e
