set title 'mp-1062310 - Density of States'
set xlabel 'Energy (eV)'
set ylabel 'DOS (states/eV)'
set grid
set xrange [-10:10]
set yrange [0:16.866]
set xzeroaxis lt -1
set terminal png size 800,600
set output 'mp-1062310_dos_gnuplot.png'
plot '-' using 1:2 with lines title 'DOS'
-27.481200 0.000000
-27.449600 0.000000
-27.417900 0.000000
-27.386200 0.000000
-27.354500 0.000000
-27.322800 0.000000
-27.291200 0.000000
-27.259500 0.000000
-27.227800 0.000000
-27.196100 0.000000
-27.164400 0.000000
-27.132700 0.000000
-27.101100 0.000000
-27.069400 0.000000
-27.037700 0.000000
-27.006000 0.000000
-26.974300 0.000000
-26.942700 0.000000
-26.911000 0.000000
-26.879300 0.000000
-26.847600 0.000000
-26.815900 0.000000
-26.784200 0.000000
-26.752600 0.000000
-26.720900 0.000000
-26.689200 0.000000
-26.657500 0.000000
-26.625800 0.000000
-26.594200 0.000000
-26.562500 0.000000
-26.530800 0.000000
-26.499100 0.000000
-26.467400 0.000000
-26.435700 0.000000
-26.404100 0.000000
-26.372400 0.000000
-26.340700 0.000000
-26.309000 0.000000
-26.277300 0.000000
-26.245700 0.000000
-26.214000 0.000000
-26.182300 0.000000
-26.150600 0.000000
-26.118900 0.000000
-26.087200 0.000000
-26.055600 0.000000
-26.023900 0.000000
-25.992200 0.000000
-25.960500 0.000000
-25.928800 0.000000
-25.897200 0.000000
-25.865500 0.000000
-25.833800 0.000000
-25.802100 0.000000
-25.770400 0.000000
-25.738700 0.000000
-25.707100 0.000000
-25.675400 0.000000
-25.643700 0.000000
-25.612000 0.000000
-25.580300 0.000000
-25.548700 0.000000
-25.517000 0.000000
-25.485300 0.000000
-25.453600 0.000000
-25.421900 0.000000
-25.390200 0.000000
-25.358600 0.000000
-25.326900 0.000000
-25.295200 0.000000
-25.263500 0.000000
-25.231800 0.000000
-25.200200 0.000000
-25.168500 0.000000
-25.136800 0.000000
-25.105100 0.000000
-25.073400 0.000000
-25.041700 0.000000
-25.010100 0.000000
-24.978400 0.000000
-24.946700 0.000000
-24.915000 0.000000
-24.883300 0.000000
-24.851700 0.000000
-24.820000 0.000000
-24.788300 0.000000
-24.756600 0.000000
-24.724900 0.000000
-24.693200 0.000000
-24.661600 0.000000
-24.629900 0.000000
-24.598200 5.797600
-24.566500 3.209200
-24.534800 43.714700
-24.503200 2.594800
-24.471500 2.308000
-24.439800 2.308000
-24.408100 2.622000
-24.376400 2.622000
-24.344700 3.830300
-24.313100 0.000000
-24.281400 0.000000
-24.249700 0.000000
-24.218000 0.000000
-24.186300 0.000000
-24.154700 0.000000
-24.123000 0.000000
-24.091300 0.000000
-24.059600 0.000000
-24.027900 0.000000
-23.996200 0.000000
-23.964600 0.000000
-23.932900 0.000000
-23.901200 0.000000
-23.869500 0.000000
-23.837800 0.000000
-23.806200 0.000000
-23.774500 0.000000
-23.742800 0.000000
-23.711100 0.000000
-23.679400 0.000000
-23.647700 0.000000
-23.616100 0.000000
-23.584400 0.000000
-23.552700 0.000000
-23.521000 0.000000
-23.489300 0.000000
-23.457700 0.000000
-23.426000 0.000000
-23.394300 0.000000
-23.362600 0.000000
-23.330900 0.000000
-23.299200 0.000000
-23.267600 0.000000
-23.235900 0.000000
-23.204200 0.000000
-23.172500 0.000000
-23.140800 0.000000
-23.109200 0.000000
-23.077500 0.000000
-23.045800 0.000000
-23.014100 0.000000
-22.982400 0.000000
-22.950700 0.000000
-22.919100 0.000000
-22.887400 0.000000
-22.855700 0.000000
-22.824000 0.000000
-22.792300 0.000000
-22.760700 0.000000
-22.729000 0.000000
-22.697300 0.000000
-22.665600 0.000000
-22.633900 0.000000
-22.602200 0.000000
-22.570600 0.000000
-22.538900 0.000000
-22.507200 0.000000
-22.475500 0.000000
-22.443800 0.000000
-22.412200 0.000000
-22.380500 0.000000
-22.348800 0.000000
-22.317100 0.000000
-22.285400 0.000000
-22.253700 0.000000
-22.222100 0.000000
-22.190400 0.000000
-22.158700 0.000000
-22.127000 0.000000
-22.095300 0.000000
-22.063700 0.000000
-22.032000 0.000000
-22.000300 0.000000
-21.968600 0.000000
-21.936900 0.000000
-21.905200 0.000000
-21.873600 0.000000
-21.841900 0.000000
-21.810200 0.000000
-21.778500 0.000000
-21.746800 0.000000
-21.715200 0.000000
-21.683500 0.000000
-21.651800 0.000000
-21.620100 0.000000
-21.588400 0.000000
-21.556700 0.000000
-21.525100 0.000000
-21.493400 0.000000
-21.461700 0.000000
-21.430000 0.000000
-21.398300 0.000000
-21.366700 0.000000
-21.335000 0.000000
-21.303300 0.000000
-21.271600 0.000000
-21.239900 0.000000
-21.208200 0.000000
-21.176600 0.000000
-21.144900 0.000000
-21.113200 0.000000
-21.081500 0.000000
-21.049800 0.000000
-21.018200 0.000000
-20.986500 0.000000
-20.954800 0.000000
-20.923100 0.000000
-20.891400 0.000000
-20.859700 0.000000
-20.828100 0.000000
-20.796400 0.000000
-20.764700 0.000000
-20.733000 0.000000
-20.701300 0.000000
-20.669700 0.000000
-20.638000 0.000000
-20.606300 0.000000
-20.574600 0.000000
-20.542900 0.000000
-20.511200 0.000000
-20.479600 0.000000
-20.447900 0.000000
-20.416200 0.000000
-20.384500 0.000000
-20.352800 0.000000
-20.321200 0.000000
-20.289500 0.000000
-20.257800 0.000000
-20.226100 0.000000
-20.194400 0.000000
-20.162700 0.000000
-20.131100 0.000000
-20.099400 0.000000
-20.067700 0.000000
-20.036000 0.000000
-20.004300 0.000000
-19.972700 0.000000
-19.941000 0.000000
-19.909300 0.000000
-19.877600 0.000000
-19.845900 0.000000
-19.814200 0.000000
-19.782600 0.000000
-19.750900 0.000000
-19.719200 0.000000
-19.687500 0.000000
-19.655800 0.000000
-19.624200 0.000000
-19.592500 0.000000
-19.560800 0.000000
-19.529100 0.000000
-19.497400 0.000000
-19.465700 0.000000
-19.434100 0.000000
-19.402400 0.000000
-19.370700 0.000000
-19.339000 0.000000
-19.307300 0.000000
-19.275700 0.000000
-19.244000 0.000000
-19.212300 0.000000
-19.180600 0.000000
-19.148900 0.000000
-19.117200 0.000000
-19.085600 0.000000
-19.053900 0.000000
-19.022200 0.000000
-18.990500 0.000000
-18.958800 0.000000
-18.927200 0.000000
-18.895500 0.000000
-18.863800 0.000000
-18.832100 0.000000
-18.800400 0.000000
-18.768700 0.000000
-18.737100 0.000000
-18.705400 0.000000
-18.673700 0.000000
-18.642000 0.000000
-18.610300 0.000000
-18.578700 0.000000
-18.547000 0.000000
-18.515300 0.000000
-18.483600 0.000000
-18.451900 0.000000
-18.420200 0.000000
-18.388600 0.000000
-18.356900 0.000000
-18.325200 0.000000
-18.293500 0.000000
-18.261800 0.000000
-18.230200 0.000000
-18.198500 0.000000
-18.166800 0.000000
-18.135100 0.000000
-18.103400 0.000000
-18.071700 0.000000
-18.040100 0.000000
-18.008400 0.000000
-17.976700 0.000000
-17.945000 0.000000
-17.913300 0.000000
-17.881700 0.000000
-17.850000 0.000000
-17.818300 0.000000
-17.786600 0.000000
-17.754900 0.000000
-17.723200 0.000000
-17.691600 0.000000
-17.659900 0.000000
-17.628200 0.000000
-17.596500 0.000000
-17.564800 0.000000
-17.533200 0.000000
-17.501500 0.000000
-17.469800 0.000000
-17.438100 0.000000
-17.406400 0.000000
-17.374700 0.000000
-17.343100 0.000000
-17.311400 0.000000
-17.279700 0.000000
-17.248000 0.000000
-17.216300 0.000000
-17.184700 0.000000
-17.153000 0.000000
-17.121300 0.000000
-17.089600 0.000000
-17.057900 0.000000
-17.026200 0.000000
-16.994600 0.000000
-16.962900 0.000000
-16.931200 0.000000
-16.899500 0.000000
-16.867800 0.000000
-16.836200 0.000000
-16.804500 0.000000
-16.772800 0.000000
-16.741100 0.000000
-16.709400 0.000000
-16.677700 0.000000
-16.646100 0.000000
-16.614400 0.000000
-16.582700 0.000000
-16.551000 0.000000
-16.519300 0.000000
-16.487700 0.000000
-16.456000 0.000000
-16.424300 0.000000
-16.392600 0.000000
-16.360900 0.000000
-16.329200 0.000000
-16.297600 0.000000
-16.265900 0.000000
-16.234200 0.000000
-16.202500 0.000000
-16.170800 0.000000
-16.139200 0.000000
-16.107500 0.000000
-16.075800 0.000000
-16.044100 0.000000
-16.012400 0.000000
-15.980700 0.000000
-15.949100 0.000000
-15.917400 0.000000
-15.885700 0.000000
-15.854000 0.000000
-15.822300 0.000000
-15.790700 0.000000
-15.759000 0.000000
-15.727300 0.000000
-15.695600 0.000000
-15.663900 0.000000
-15.632200 0.000000
-15.600600 0.000000
-15.568900 0.000000
-15.537200 0.000000
-15.505500 0.000000
-15.473800 0.000000
-15.442200 0.000000
-15.410500 0.000000
-15.378800 0.000000
-15.347100 0.000000
-15.315400 0.000000
-15.283700 0.000000
-15.252100 0.000000
-15.220400 0.000000
-15.188700 0.000000
-15.157000 0.000000
-15.125300 0.000000
-15.093700 0.000000
-15.062000 0.000000
-15.030300 0.000000
-14.998600 0.000000
-14.966900 0.000000
-14.935200 0.000000
-14.903600 0.000000
-14.871900 0.000000
-14.840200 0.000000
-14.808500 0.000000
-14.776800 0.000000
-14.745200 0.000000
-14.713500 0.000000
-14.681800 0.000000
-14.650100 0.000000
-14.618400 0.000000
-14.586700 0.000000
-14.555100 0.000000
-14.523400 0.000000
-14.491700 0.000000
-14.460000 0.000000
-14.428300 0.000000
-14.396700 0.000000
-14.365000 0.000000
-14.333300 0.000000
-14.301600 0.000000
-14.269900 0.000000
-14.238200 0.000000
-14.206600 0.000000
-14.174900 0.000000
-14.143200 0.000000
-14.111500 0.000000
-14.079800 0.000000
-14.048200 0.000000
-14.016500 0.000000
-13.984800 0.000000
-13.953100 0.000000
-13.921400 0.000000
-13.889700 0.000000
-13.858100 0.000000
-13.826400 0.000000
-13.794700 0.000000
-13.763000 0.000000
-13.731300 0.000000
-13.699700 0.000000
-13.668000 0.000000
-13.636300 0.000000
-13.604600 0.000000
-13.572900 0.000000
-13.541200 0.000000
-13.509600 0.000000
-13.477900 0.000000
-13.446200 0.000000
-13.414500 0.000000
-13.382800 0.000000
-13.351200 0.000000
-13.319500 0.000000
-13.287800 0.000000
-13.256100 0.000000
-13.224400 0.000000
-13.192700 0.000000
-13.161100 0.000000
-13.129400 0.000000
-13.097700 0.000000
-13.066000 0.000000
-13.034300 0.000000
-13.002600 0.000000
-12.971000 0.000000
-12.939300 0.000000
-12.907600 0.000000
-12.875900 0.000000
-12.844200 0.000000
-12.812600 0.000000
-12.780900 0.000000
-12.749200 0.000000
-12.717500 0.000000
-12.685800 0.000000
-12.654100 0.000000
-12.622500 0.000000
-12.590800 0.000000
-12.559100 0.000000
-12.527400 0.000000
-12.495700 0.000000
-12.464100 0.000000
-12.432400 0.000000
-12.400700 0.000000
-12.369000 0.000000
-12.337300 0.000000
-12.305600 0.000000
-12.274000 0.000000
-12.242300 0.000000
-12.210600 0.000000
-12.178900 0.000000
-12.147200 0.000000
-12.115600 0.000000
-12.083900 0.000000
-12.052200 0.000000
-12.020500 0.000000
-11.988800 0.000000
-11.957100 0.000000
-11.925500 0.000000
-11.893800 0.000000
-11.862100 0.000000
-11.830400 0.000000
-11.798700 0.000000
-11.767100 0.000000
-11.735400 0.000000
-11.703700 0.000000
-11.672000 0.000000
-11.640300 0.000000
-11.608600 0.000000
-11.577000 0.000000
-11.545300 0.000000
-11.513600 0.000000
-11.481900 0.000000
-11.450200 0.000000
-11.418600 0.000000
-11.386900 0.000000
-11.355200 0.000000
-11.323500 0.000000
-11.291800 0.000000
-11.260100 0.000000
-11.228500 0.000000
-11.196800 0.000000
-11.165100 0.000000
-11.133400 0.000000
-11.101700 0.000000
-11.070100 0.000000
-11.038400 0.000000
-11.006700 0.000000
-10.975000 0.000000
-10.943300 0.000000
-10.911600 0.000000
-10.880000 0.000000
-10.848300 0.000000
-10.816600 0.000000
-10.784900 0.000000
-10.753200 0.000000
-10.721600 0.000000
-10.689900 0.000000
-10.658200 0.000000
-10.626500 0.000000
-10.594800 0.000000
-10.563100 0.000000
-10.531500 0.000000
-10.499800 0.000000
-10.468100 0.000000
-10.436400 0.000000
-10.404700 0.000000
-10.373100 0.000000
-10.341400 0.000000
-10.309700 0.000000
-10.278000 0.000000
-10.246300 0.000000
-10.214600 0.000000
-10.183000 0.000000
-10.151300 0.000000
-10.119600 0.000000
-10.087900 0.000000
-10.056200 0.000000
-10.024600 0.000000
-9.992900 0.000000
-9.961200 0.000000
-9.929500 0.000000
-9.897800 0.000000
-9.866100 0.000000
-9.834500 0.000000
-9.802800 0.000000
-9.771100 0.000000
-9.739400 0.000000
-9.707700 0.000000
-9.676100 0.000000
-9.644400 0.000000
-9.612700 0.000000
-9.581000 0.000000
-9.549300 0.000000
-9.517600 0.000000
-9.486000 0.000000
-9.454300 0.000000
-9.422600 0.000000
-9.390900 0.000000
-9.359200 0.000000
-9.327600 0.000000
-9.295900 0.000000
-9.264200 0.000000
-9.232500 0.000000
-9.200800 0.000000
-9.169100 0.000000
-9.137500 0.000000
-9.105800 0.000000
-9.074100 0.000000
-9.042400 0.000000
-9.010700 0.000000
-8.979100 0.000000
-8.947400 0.000000
-8.915700 0.000000
-8.884000 0.000000
-8.852300 0.000000
-8.820600 0.000000
-8.789000 0.000000
-8.757300 0.000000
-8.725600 0.000000
-8.693900 0.000000
-8.662200 0.000000
-8.630600 0.000000
-8.598900 0.000000
-8.567200 0.000000
-8.535500 0.000000
-8.503800 0.000000
-8.472100 0.000000
-8.440500 0.000000
-8.408800 0.000000
-8.377100 0.000000
-8.345400 0.000000
-8.313700 0.000000
-8.282100 0.000000
-8.250400 0.000000
-8.218700 0.000000
-8.187000 0.000000
-8.155300 0.000000
-8.123600 0.000000
-8.092000 0.000000
-8.060300 0.000000
-8.028600 0.000000
-7.996900 0.000000
-7.965200 0.000000
-7.933600 0.000000
-7.901900 0.000000
-7.870200 0.000000
-7.838500 0.000000
-7.806800 0.000000
-7.775100 0.000000
-7.743500 0.000000
-7.711800 0.000000
-7.680100 0.000000
-7.648400 0.000000
-7.616700 0.000000
-7.585100 0.000000
-7.553400 0.000000
-7.521700 0.000000
-7.490000 0.000000
-7.458300 0.000000
-7.426600 0.000000
-7.395000 0.000000
-7.363300 0.000000
-7.331600 0.000000
-7.299900 0.000000
-7.268200 0.000000
-7.236600 0.000000
-7.204900 0.000000
-7.173200 0.000000
-7.141500 0.000000
-7.109800 0.000000
-7.078100 0.000000
-7.046500 0.000000
-7.014800 0.000000
-6.983100 0.000000
-6.951400 0.000000
-6.919700 0.000000
-6.888100 0.000000
-6.856400 0.000000
-6.824700 0.000000
-6.793000 0.000000
-6.761300 0.000000
-6.729600 0.000000
-6.698000 0.000000
-6.666300 0.000000
-6.634600 0.000000
-6.602900 0.000000
-6.571200 0.000000
-6.539600 0.000000
-6.507900 1.182400
-6.476200 2.091000
-6.444500 3.802400
-6.412800 4.682100
-6.381100 4.504600
-6.349500 4.683100
-6.317800 3.705700
-6.286100 4.923100
-6.254400 8.936900
-6.222700 10.579400
-6.191100 15.332400
-6.159400 12.225900
-6.127700 12.886700
-6.096000 12.615300
-6.064300 3.949500
-6.032600 7.422500
-6.001000 8.984800
-5.969300 6.916100
-5.937600 9.126400
-5.905900 4.587400
-5.874200 3.411700
-5.842600 6.222100
-5.810900 3.611500
-5.779200 6.980700
-5.747500 8.116700
-5.715800 7.558000
-5.684100 7.064600
-5.652500 4.439300
-5.620800 4.402400
-5.589100 8.830700
-5.557400 12.261000
-5.525700 13.569800
-5.494100 9.991600
-5.462400 11.226500
-5.430700 11.186800
-5.399000 13.030600
-5.367300 6.248800
-5.335600 5.660800
-5.304000 3.920000
-5.272300 3.140000
-5.240600 3.032800
-5.208900 3.580500
-5.177200 3.639300
-5.145600 3.286100
-5.113900 2.695000
-5.082200 2.204300
-5.050500 0.000000
-5.018800 0.000000
-4.987100 0.000000
-4.955500 0.000000
-4.923800 0.003700
-4.892100 0.018800
-4.860400 0.044600
-4.828700 0.058700
-4.797100 0.062200
-4.765400 0.064300
-4.733700 0.072400
-4.702000 0.080900
-4.670300 0.089700
-4.638600 0.098200
-4.607000 0.103900
-4.575300 0.106400
-4.543600 0.107700
-4.511900 0.110800
-4.480200 0.114900
-4.448600 0.119500
-4.416900 0.124200
-4.385200 0.128800
-4.353500 0.133400
-4.321800 0.138200
-4.290100 0.143200
-4.258500 0.148200
-4.226800 0.151300
-4.195100 0.153100
-4.163400 0.155700
-4.131700 0.158800
-4.100100 0.161800
-4.068400 0.164700
-4.036700 0.167500
-4.005000 0.170400
-3.973300 0.173500
-3.941600 0.177000
-3.910000 0.180700
-3.878300 0.184400
-3.846600 0.188300
-3.814900 0.192200
-3.783200 0.196100
-3.751600 0.199700
-3.719900 0.202900
-3.688200 0.205500
-3.656500 0.207900
-3.624800 0.210000
-3.593100 0.212500
-3.561500 0.215300
-3.529800 0.218200
-3.498100 0.221000
-3.466400 0.224000
-3.434700 0.227000
-3.403100 0.230100
-3.371400 0.233200
-3.339700 0.236300
-3.308000 0.239500
-3.276300 0.242800
-3.244600 0.246100
-3.213000 0.249400
-3.181300 0.252800
-3.149600 0.256100
-3.117900 0.259600
-3.086200 0.263000
-3.054600 0.266500
-3.022900 0.269900
-2.991200 0.273200
-2.959500 0.276600
-2.927800 0.280300
-2.896100 0.284000
-2.864500 0.287700
-2.832800 0.300200
-2.801100 0.319600
-2.769400 0.330500
-2.737700 0.334800
-2.706100 0.338300
-2.674400 0.341000
-2.642700 0.342900
-2.611000 0.344200
-2.579300 0.343200
-2.547600 0.341200
-2.516000 0.338300
-2.484300 0.334700
-2.452600 0.331300
-2.420900 0.328900
-2.389200 0.328200
-2.357600 0.328000
-2.325900 0.328600
-2.294200 0.329700
-2.262500 0.423700
-2.230800 0.384000
-2.199100 0.344200
-2.167500 0.341100
-2.135800 0.339000
-2.104100 0.339600
-2.072400 0.331000
-2.040700 0.343600
-2.009100 0.359100
-1.977400 0.377200
-1.945700 0.397100
-1.914000 0.416900
-1.882300 0.405900
-1.850600 0.394100
-1.819000 0.401100
-1.787300 0.407600
-1.755600 0.413500
-1.723900 0.418800
-1.692200 0.423700
-1.660600 0.432500
-1.628900 0.443100
-1.597200 0.480600
-1.565500 0.543100
-1.533800 0.496600
-1.502100 0.500800
-1.470500 0.504900
-1.438800 0.503100
-1.407100 0.501900
-1.375400 0.503800
-1.343700 0.507100
-1.312100 0.509800
-1.280400 0.512000
-1.248700 0.507700
-1.217000 0.498000
-1.185300 0.497400
-1.153600 0.497400
-1.122000 0.497600
-1.090300 0.499100
-1.058600 0.501000
-1.026900 0.499500
-0.995200 0.494800
-0.963600 0.491700
-0.931900 0.489000
-0.900200 0.485600
-0.868500 0.483500
-0.836800 0.480300
-0.805100 0.495200
-0.773500 0.494600
-0.741800 0.429900
-0.710100 0.410800
-0.678400 0.393500
-0.646700 0.378000
-0.615100 0.363400
-0.583400 0.354700
-0.551700 0.351300
-0.520000 0.348000
-0.488300 0.342100
-0.456600 0.313100
-0.425000 0.327100
-0.393300 0.341800
-0.361600 0.337500
-0.329900 0.343400
-0.298200 0.349500
-0.266600 0.355700
-0.234900 0.365200
-0.203200 0.373400
-0.171500 0.381700
-0.139800 0.389900
-0.108100 0.396400
-0.076500 0.402000
-0.044800 0.407900
-0.013100 0.414200
0.018600 0.433700
0.050300 0.437600
0.081900 0.444000
0.113600 0.448500
0.145300 0.451000
0.177000 0.454600
0.208700 0.458300
0.240400 0.462500
0.272000 0.468100
0.303700 0.472700
0.335400 0.478600
0.367100 0.484800
0.398800 0.491300
0.430400 0.498400
0.462100 0.507300
0.493800 0.517400
0.525500 0.528900
0.557200 0.547700
0.588900 0.560200
0.620500 0.572600
0.652200 0.617800
0.683900 0.617300
0.715600 0.615000
0.747300 0.611400
0.778900 0.605700
0.810600 0.597800
0.842300 0.570800
0.874000 0.532700
0.905700 0.482300
0.937400 0.443100
0.969000 0.427300
1.000700 0.415200
1.032400 0.408500
1.064100 0.402400
1.095800 0.396600
1.127400 0.392800
1.159100 0.391400
1.190800 0.417500
1.222500 0.450000
1.254200 0.474700
1.285900 0.501000
1.317500 0.529100
1.349200 0.559500
1.380900 0.588400
1.412600 0.630400
1.444300 0.665400
1.475900 0.693600
1.507600 0.733000
1.539300 0.771800
1.571000 0.809700
1.602700 0.849400
1.634400 0.907900
1.666000 0.978300
1.697700 0.984300
1.729400 0.982000
1.761100 0.960700
1.792800 0.939900
1.824400 0.916000
1.856100 0.883200
1.887800 0.844300
1.919500 0.815300
1.951200 0.845900
1.982900 0.929200
2.014500 0.884400
2.046200 0.944000
2.077900 0.932900
2.109600 0.874100
2.141300 0.811100
2.172900 0.804800
2.204600 0.807100
2.236300 0.815800
2.268000 1.104000
2.299700 0.951200
2.331400 0.964700
2.363000 0.959600
2.394700 0.855500
2.426400 0.839600
2.458100 0.841500
2.489800 0.861300
2.521500 0.893600
2.553100 0.931500
2.584800 0.973800
2.616500 0.944200
2.648200 1.005000
2.679900 0.976100
2.711500 0.975100
2.743200 0.938900
2.774900 0.957800
2.806600 0.975900
2.838300 1.006800
2.870000 1.055900
2.901600 1.085900
2.933300 1.108700
2.965000 1.150400
2.996700 1.200800
3.028400 1.227800
3.060000 1.250200
3.091700 1.257200
3.123400 1.258800
3.155100 1.092800
3.186800 1.015200
3.218500 0.967100
3.250100 0.933500
3.281800 0.872700
3.313500 0.851600
3.345200 0.824900
3.376900 0.799600
3.408500 0.779100
3.440200 0.764500
3.471900 0.753700
3.503600 0.746300
3.535300 0.743800
3.567000 0.739000
3.598600 0.736800
3.630300 0.721500
3.662000 0.699900
3.693700 0.667900
3.725400 0.643300
3.757000 0.606700
3.788700 0.564600
3.820400 0.556700
3.852100 0.556200
3.883800 0.555600
3.915500 0.551600
3.947100 0.534200
3.978800 0.529600
4.010500 0.552900
4.042200 0.552800
4.073900 0.521200
4.105500 0.468500
4.137200 0.445100
4.168900 0.420200
4.200600 0.399300
4.232300 0.379300
4.264000 0.381200
4.295600 0.405700
4.327300 0.433500
4.359000 0.454800
4.390700 0.475400
4.422400 0.498100
4.454000 0.524200
4.485700 0.557200
4.517400 0.669500
4.549100 1.061200
4.580800 1.216000
4.612500 1.294000
4.644100 1.401500
4.675800 1.259200
4.707500 1.196200
4.739200 1.226500
4.770900 1.324300
4.802500 1.166200
4.834200 1.174600
4.865900 1.245400
4.897600 1.491900
4.929300 1.763600
4.961000 2.010400
4.992600 2.210800
5.024300 2.743700
5.056000 2.299500
5.087700 2.172300
5.119400 1.767100
5.151000 1.421000
5.182700 1.269500
5.214400 1.182400
5.246100 1.032600
5.277800 0.807200
5.309500 0.753700
5.341100 0.781300
5.372800 0.809200
5.404500 0.861100
5.436200 0.940100
5.467900 1.014300
5.499500 1.023700
5.531200 0.995600
5.562900 0.967500
5.594600 0.947000
5.626300 0.930600
5.658000 0.868100
5.689600 0.897600
5.721300 0.996300
5.753000 1.150000
5.784700 1.439400
5.816400 1.625900
5.848000 1.696000
5.879700 1.712000
5.911400 1.725400
5.943100 1.574000
5.974800 1.509800
6.006500 1.409800
6.038100 1.273800
6.069800 1.199800
6.101500 1.204800
6.133200 1.034100
6.164900 0.766700
6.196500 0.791700
6.228200 0.777200
6.259900 0.762900
6.291600 0.756400
6.323300 0.794500
6.355000 0.902100
6.386600 1.405300
6.418300 1.384700
6.450000 1.377300
6.481700 1.373500
6.513400 1.369300
6.545000 1.458200
6.576700 1.415700
6.608400 1.480800
6.640100 1.548000
6.671800 1.698500
6.703500 1.752800
6.735100 1.983600
6.766800 2.225300
6.798500 1.990400
6.830200 1.530500
6.861900 1.265300
6.893500 1.109000
6.925200 0.982100
6.956900 0.899500
6.988600 0.863500
7.020300 0.903900
7.052000 0.848900
7.083600 0.922600
7.115300 0.849800
7.147000 0.822500
7.178700 1.000300
7.210400 1.201000
7.242000 1.382800
7.273700 1.448000
7.305400 1.437200
7.337100 1.341100
7.368800 1.141400
7.400500 1.050600
7.432100 1.017100
7.463800 1.038300
7.495500 1.080000
7.527200 1.085300
7.558900 1.078700
7.590500 1.072800
7.622200 1.071500
7.653900 1.070600
7.685600 1.074600
7.717300 1.169500
7.749000 1.153300
7.780600 1.169400
7.812300 1.165500
7.844000 1.165400
7.875700 1.178300
7.907400 1.200100
7.939000 1.247900
7.970700 1.319200
8.002400 1.380300
8.034100 1.313700
8.065800 1.251600
8.097500 1.188000
8.129100 1.123800
8.160800 1.078800
8.192500 1.043600
8.224200 0.965600
8.255900 0.893700
8.287500 0.888000
8.319200 0.927800
8.350900 0.949200
8.382600 0.807600
8.414300 0.682700
8.446000 0.691900
8.477600 0.706800
8.509300 0.718600
8.541000 0.718600
8.572700 0.702300
8.604400 0.675000
8.636000 0.665200
8.667700 0.640100
8.699400 0.630900
8.731100 0.648200
8.762800 0.648500
8.794500 0.625400
8.826100 0.605000
8.857800 0.603000
8.889500 0.591100
8.921200 0.590200
8.952900 0.592600
8.984500 0.589500
9.016200 0.587800
9.047900 0.599300
9.079600 0.615600
9.111300 0.633900
9.143000 0.656000
9.174600 0.680700
9.206300 0.697100
9.238000 0.721500
9.269700 0.756100
9.301400 0.792800
9.333000 0.825800
9.364700 0.862700
9.396400 0.907200
9.428100 1.100500
9.459800 1.202900
9.491500 1.157300
9.523100 1.088700
9.554800 1.123500
9.586500 1.156300
9.618200 1.175100
9.649900 1.115400
9.681500 1.108300
9.713200 1.116000
9.744900 1.149200
9.776600 1.190300
9.808300 1.232500
9.840000 1.247400
9.871600 1.019900
9.903300 0.972600
9.935000 0.961600
9.966700 0.966200
9.998400 0.945200
10.030000 0.945700
10.061700 1.022700
10.093400 1.045400
10.125100 1.015400
10.156800 1.000400
10.188500 0.985400
10.220100 0.972900
10.251800 0.945100
10.283500 0.935500
10.315200 1.032600
10.346900 1.013200
10.378500 0.983000
10.410200 0.962200
10.441900 0.954900
10.473600 0.941100
10.505300 0.938300
10.537000 0.935700
10.568600 0.929000
10.600300 0.921700
10.632000 0.919700
10.663700 0.920600
10.695400 0.920700
10.727000 0.912400
10.758700 0.901300
10.790400 0.892500
10.822100 0.884700
10.853800 0.877200
10.885500 0.869700
10.917100 0.841000
10.948800 0.808900
10.980500 0.798500
11.012200 0.783300
11.043900 0.769100
11.075500 0.760900
11.107200 0.752700
11.138900 0.744200
11.170600 0.735400
11.202300 0.762300
11.234000 0.698000
11.265600 0.690600
11.297300 0.689300
11.329000 0.701300
11.360700 0.705000
11.392400 0.716700
11.424000 0.728600
11.455700 0.757700
11.487400 0.830500
11.519100 0.885600
11.550800 0.768100
11.582500 0.758900
11.614100 0.747000
11.645800 0.735300
11.677500 0.722900
11.709200 0.740800
11.740900 0.743700
11.772500 0.750300
11.804200 0.861700
11.835900 0.907900
11.867600 0.891000
11.899300 0.883700
11.931000 0.876700
11.962600 0.888500
11.994300 0.903800
12.026000 1.048600
12.057700 1.015000
12.089400 0.951500
12.121000 0.843100
12.152700 0.777900
12.184400 0.737200
12.216100 0.714300
12.247800 0.707900
12.279500 0.714200
12.311100 0.727500
12.342800 0.754100
12.374500 0.790100
12.406200 0.833100
12.437900 0.889700
12.469500 1.106300
12.501200 1.392600
12.532900 1.373600
12.564600 1.340400
12.596300 1.301200
12.628000 1.256800
12.659600 1.203200
12.691300 1.228000
12.723000 1.129000
12.754700 1.051700
12.786400 0.989400
12.818000 0.946500
12.849700 0.888600
12.881400 0.818100
12.913100 0.749000
12.944800 0.696200
12.976500 0.671000
13.008100 0.682200
13.039800 0.725900
13.071500 0.810700
13.103200 0.930200
13.134900 1.068900
13.166500 1.198000
13.198200 1.450700
13.229900 1.538800
13.261600 1.528000
13.293300 1.638200
13.325000 1.491800
13.356600 1.400900
13.388300 1.278000
13.420000 1.175200
13.451700 1.130600
13.483400 1.048300
13.515000 0.976400
13.546700 0.913600
13.578400 0.862900
13.610100 0.926000
13.641800 1.005000
13.673500 1.113300
13.705100 1.126400
13.736800 1.180400
13.768500 1.244900
13.800200 1.249400
13.831900 1.262800
13.863500 1.301500
13.895200 1.221300
13.926900 1.180600
13.958600 1.173100
13.990300 1.172100
14.022000 1.166400
14.053600 1.171800
14.085300 1.151800
14.117000 1.127500
14.148700 1.124400
14.180400 1.185100
14.212000 1.223200
14.243700 1.239600
14.275400 1.350300
14.307100 1.331800
14.338800 1.340600
14.370500 1.392100
14.402100 1.431700
14.433800 1.460800
14.465500 1.468200
14.497200 1.468800
14.528900 1.426100
14.560500 1.384600
14.592200 1.367800
14.623900 1.360100
14.655600 1.336900
14.687300 1.317700
14.719000 1.379500
14.750600 1.489700
14.782300 1.467300
14.814000 1.445300
14.845700 1.433400
14.877400 1.484700
14.909000 1.453900
14.940700 1.411300
14.972400 1.346200
15.004100 1.292700
15.035800 1.245100
15.067500 1.240400
15.099100 1.224400
15.130800 1.232900
15.162500 1.275700
15.194200 1.323000
15.225900 1.340300
15.257500 1.309000
15.289200 1.333800
15.320900 1.339300
15.352600 1.317300
15.384300 1.303800
15.416000 1.282900
15.447600 1.257400
15.479300 1.206800
15.511000 1.145800
15.542700 1.100600
15.574400 1.068600
15.606000 1.057100
15.637700 1.024200
15.669400 1.007200
15.701100 1.006700
15.732800 1.009600
15.764500 0.991000
15.796100 0.970800
15.827800 0.969600
15.859500 0.987000
15.891200 1.035600
15.922900 1.111000
15.954500 1.138000
15.986200 1.142200
16.017900 1.132500
16.049600 1.151700
16.081300 1.168700
16.113000 1.101200
16.144600 1.010900
16.176300 1.014000
16.208000 1.037600
16.239700 1.069100
16.271400 1.103200
16.303000 1.102500
16.334700 1.082800
16.366400 1.067100
16.398100 1.044000
16.429800 1.034700
16.461500 1.021100
16.493100 1.020800
16.524800 1.002200
16.556500 0.988800
16.588200 0.951500
16.619900 0.924500
16.651500 0.895400
16.683200 0.869200
16.714900 0.835400
16.746600 0.802400
16.778300 0.787700
16.810000 0.749600
16.841600 0.740700
16.873300 0.768200
16.905000 0.793200
16.936700 0.846700
16.968400 0.920100
17.000000 0.899800
17.031700 0.918300
17.063400 0.916300
17.095100 0.906900
17.126800 0.880800
17.158500 0.854400
17.190100 0.849500
17.221800 0.866000
17.253500 0.879200
17.285200 0.944200
17.316900 0.919100
17.348500 0.937300
17.380200 0.944200
17.411900 0.938200
17.443600 0.961800
17.475300 0.974800
17.507000 0.992200
17.538600 1.014600
17.570300 1.051200
17.602000 1.110300
17.633700 1.139500
17.665400 1.132000
17.697100 1.101000
17.728700 1.079100
17.760400 1.050400
17.792100 1.008300
17.823800 0.961500
17.855500 0.911900
17.887100 0.861100
17.918800 0.847200
17.950500 0.832100
17.982200 0.643400
18.013900 0.599400
18.045600 0.562500
18.077200 0.531500
18.108900 0.505300
18.140600 0.480200
18.172300 0.462600
18.204000 0.448800
18.235600 0.440200
18.267300 0.439000
18.299000 0.439100
18.330700 0.435700
18.362400 0.444100
18.394100 0.451900
18.425700 0.464400
18.457400 0.462500
18.489100 0.451700
18.520800 0.438600
18.552500 0.425700
18.584100 0.413700
18.615800 0.397000
18.647500 0.416200
18.679200 0.479400
18.710900 0.567900
18.742600 0.652500
18.774200 0.763300
18.805900 0.792900
18.837600 0.862100
18.869300 0.703100
18.901000 0.760400
18.932600 0.817900
18.964300 0.892300
18.996000 0.971500
19.027700 1.072200
19.059400 1.156200
19.091100 1.191400
19.122700 1.180600
19.154400 1.195000
19.186100 1.147000
19.217800 1.182700
19.249500 1.211300
19.281100 1.203100
19.312800 1.232400
19.344500 1.297400
19.376200 1.363700
19.407900 1.468000
19.439600 1.498300
19.471200 1.452700
19.502900 1.409800
19.534600 1.330500
19.566300 1.193100
19.598000 1.129400
19.629600 1.104300
19.661300 1.122500
19.693000 1.165800
19.724700 1.244100
19.756400 1.277600
19.788100 1.322700
19.819700 1.388900
19.851400 1.463300
19.883100 1.511900
19.914800 1.486000
19.946500 1.429300
19.978100 1.414100
20.009800 1.294400
20.041500 1.191600
20.073200 1.098800
20.104900 1.009400
20.136600 1.017500
20.168200 0.944000
20.199900 0.927600
20.231600 0.930800
20.263300 1.014000
20.295000 1.048200
20.326600 1.121400
20.358300 1.235000
20.390000 1.367000
20.421700 1.274900
20.453400 1.170100
20.485100 1.080800
20.516700 1.082600
20.548400 1.097400
20.580100 1.122300
20.611800 1.383700
20.643500 1.407600
20.675100 1.432100
20.706800 1.457700
20.738500 1.515500
20.770200 1.458400
20.801900 1.401300
20.833600 1.381500
20.865200 1.377600
20.896900 1.361500
20.928600 1.334800
20.960300 1.328500
20.992000 1.309900
21.023600 1.306300
21.055300 1.310300
21.087000 1.346000
21.118700 1.304600
21.150400 1.293700
21.182100 1.256200
21.213700 1.198700
21.245400 1.159500
21.277100 1.102900
21.308800 1.048800
21.340500 1.007800
21.372100 0.980900
21.403800 0.961500
21.435500 0.966200
21.467200 0.966700
21.498900 0.981200
21.530600 0.964500
21.562200 0.985900
21.593900 1.011700
21.625600 1.031500
21.657300 1.108500
21.689000 1.140700
21.720600 1.156300
21.752300 1.167200
21.784000 1.158800
21.815700 1.122300
21.847400 1.140400
21.879100 1.174400
21.910700 1.170300
21.942400 1.214100
21.974100 1.276000
22.005800 1.307400
22.037500 1.286800
22.069100 1.249400
22.100800 1.245600
22.132500 1.204800
22.164200 1.202600
22.195900 1.221800
22.227600 1.260900
22.259200 1.321100
22.290900 1.396500
22.322600 1.475400
22.354300 1.538200
22.386000 1.594800
22.417600 1.617200
22.449300 1.632700
22.481000 1.620600
22.512700 1.589800
22.544400 1.581200
22.576100 1.572100
22.607700 1.576600
22.639400 1.566200
22.671100 1.522100
22.702800 1.445300
22.734500 1.388300
22.766100 1.300600
22.797800 1.228600
22.829500 1.156100
22.861200 1.077100
22.892900 1.016700
22.924600 0.977900
22.956200 1.000300
22.987900 1.052900
23.019600 1.112300
23.051300 1.208300
23.083000 1.295400
23.114600 1.369700
23.146300 1.416000
23.178000 1.449300
23.209700 1.481200
23.241400 1.484300
23.273100 1.525500
23.304700 1.476100
23.336400 1.507200
23.368100 1.568000
23.399800 1.611900
23.431500 1.645500
23.463100 1.675700
23.494800 1.710800
23.526500 1.779500
23.558200 1.860600
23.589900 1.884500
23.621600 1.894400
23.653200 1.893500
23.684900 1.800800
23.716600 1.702700
23.748300 1.674600
23.780000 1.643800
23.811600 1.600300
23.843300 1.564400
23.875000 1.519400
23.906700 1.454200
23.938400 1.355300
23.970100 1.271600
24.001700 1.238300
24.033400 1.257400
24.065100 1.275600
24.096800 1.311400
24.128500 1.354700
24.160100 1.393300
24.191800 1.422300
24.223500 1.438000
24.255200 1.454000
24.286900 1.459800
24.318600 1.432700
24.350200 1.385200
24.381900 1.304600
24.413600 1.279400
24.445300 1.276500
24.477000 1.223700
24.508600 1.262500
24.540300 1.307500
24.572000 1.326200
24.603700 1.343400
24.635400 1.294600
24.667100 1.291400
24.698700 1.330500
24.730400 1.368800
24.762100 1.412400
24.793800 1.454600
24.825500 1.481700
24.857100 1.494300
24.888800 1.525300
24.920500 1.594700
24.952200 1.667200
24.983900 1.640700
25.015600 1.549000
25.047200 1.547700
25.078900 1.551700
25.110600 1.547800
25.142300 1.513600
25.174000 1.446300
25.205600 1.391300
25.237300 1.381900
25.269000 1.395700
25.300700 1.457600
25.332400 1.488400
25.364100 1.448700
25.395700 1.400100
25.427400 1.415400
25.459100 1.427400
25.490800 1.445500
25.522500 1.485400
25.554100 1.570900
25.585800 1.624400
25.617500 1.715500
25.649200 1.792900
25.680900 1.879500
25.712600 1.837900
25.744200 1.853300
25.775900 1.799500
25.807600 1.749800
25.839300 1.718200
25.871000 1.680600
25.902600 1.654100
25.934300 1.589900
25.966000 1.514700
25.997700 1.482500
26.029400 1.545900
26.061100 1.468800
26.092700 1.437300
26.124400 1.416800
26.156100 1.340800
26.187800 1.292300
26.219500 1.259300
26.251100 1.231600
26.282800 1.229100
26.314500 1.241300
26.346200 1.272600
26.377900 1.343300
26.409600 1.446700
26.441200 1.561100
26.472900 1.702200
26.504600 1.682100
26.536300 1.595500
26.568000 1.546700
26.599600 1.430100
26.631300 1.304800
26.663000 1.225000
26.694700 1.146100
26.726400 1.075300
26.758100 1.028600
26.789700 0.986300
26.821400 0.952800
26.853100 0.944600
26.884800 0.953400
26.916500 0.977700
26.948100 0.988100
26.979800 0.998300
27.011500 1.038000
27.043200 1.098100
27.074900 1.124400
27.106600 1.145400
27.138200 1.249200
27.169900 1.319600
27.201600 1.385500
27.233300 1.349400
27.265000 1.339000
27.296600 1.280400
27.328300 1.259500
27.360000 1.279700
27.391700 1.296500
27.423400 1.251000
27.455100 1.199000
27.486700 1.181200
27.518400 1.188300
27.550100 1.209800
27.581800 1.220300
27.613500 1.238700
27.645100 1.255500
27.676800 1.250100
27.708500 1.242000
27.740200 1.221600
27.771900 1.201500
27.803600 1.170600
27.835200 1.126800
27.866900 1.125900
27.898600 1.156700
27.930300 1.298700
27.962000 1.459300
27.993600 1.538300
28.025300 1.480700
28.057000 1.400700
28.088700 1.366400
28.120400 1.293000
28.152100 1.172600
28.183700 1.109100
28.215400 1.052900
28.247100 1.042100
28.278800 1.099000
28.310500 1.153900
28.342100 1.211800
28.373800 1.275900
28.405500 1.364100
28.437200 1.456900
28.468900 1.501000
28.500600 1.530900
28.532200 1.490400
28.563900 1.423900
28.595600 1.391900
28.627300 1.342100
28.659000 1.395100
28.690600 1.373700
28.722300 1.437800
28.754000 1.514400
28.785700 1.594200
28.817400 1.697000
28.849100 1.832200
28.880700 2.007800
28.912400 2.046400
28.944100 1.996500
28.975800 1.946400
29.007500 1.867500
29.039100 1.795100
29.070800 1.733100
29.102500 1.682100
29.134200 1.641100
29.165900 1.403600
29.197600 1.312300
29.229200 1.289200
29.260900 1.236100
29.292600 1.194500
29.324300 1.170300
29.356000 1.163400
29.387600 1.230200
29.419300 1.256600
29.451000 1.281100
29.482700 1.308200
29.514400 1.321100
29.546100 1.364000
29.577700 1.302200
29.609400 1.301300
29.641100 1.285600
29.672800 1.260500
29.704500 1.228100
29.736100 1.170100
29.767800 1.108100
29.799500 1.052900
29.831200 1.021200
29.862900 1.013600
29.894600 0.984000
29.926200 0.943600
29.957900 0.842300
29.989600 0.790500
30.021300 0.755700
30.053000 0.739100
30.084600 0.738700
30.116300 0.738500
30.148000 0.740100
30.179700 0.740300
30.211400 0.726100
30.243100 0.717400
30.274700 0.692000
30.306400 0.678700
30.338100 0.666900
30.369800 0.655600
30.401500 0.704800
30.433100 0.594800
30.464800 0.550600
30.496500 0.517900
30.528200 0.483900
30.559900 0.448400
30.591600 0.406900
30.623200 0.369200
30.654900 0.339100
30.686600 0.314400
30.718300 0.291600
30.750000 0.271800
30.781600 0.247700
30.813300 0.223200
30.845000 0.210400
30.876700 0.198200
30.908400 0.186600
30.940100 0.175800
30.971700 0.165600
31.003400 0.156100
31.035100 0.147400
31.066800 0.139300
31.098500 0.131700
31.130100 0.124100
31.161800 0.116600
31.193500 0.106300
31.225200 0.100000
31.256900 0.094300
31.288600 0.089300
31.320200 0.085700
31.351900 0.084400
31.383600 0.084800
31.415300 0.082400
31.447000 0.079900
31.478600 0.077500
31.510300 0.075200
31.542000 0.072800
31.573700 0.070500
31.605400 0.068200
31.637100 0.066000
31.668700 0.063800
31.700400 0.061600
31.732100 0.059500
31.763800 0.070600
31.795500 0.096200
31.827100 0.065600
31.858800 0.032500
31.890500 0.027900
31.922200 0.023500
31.953900 0.019500
31.985600 0.015600
32.017200 0.001200
32.048900 0.001200
32.080600 0.001100
32.112300 0.001000
32.144000 0.000900
32.175600 0.000900
32.207300 0.000800
32.239000 0.000700
32.270700 0.000700
32.302400 0.000600
32.334100 0.000600
32.365700 0.000500
32.397400 0.000500
32.429100 0.000400
32.460800 0.000400
32.492500 0.000300
32.524100 0.000300
32.555800 0.000300
32.587500 0.000200
32.619200 0.000200
32.650900 0.000200
32.682600 0.000100
32.714200 0.000100
32.745900 0.000100
32.777600 0.000100
32.809300 0.000000
32.841000 0.000000
32.872600 0.000000
32.904300 0.000000
32.936000 0.000000
32.967700 0.000000
32.999400 0.000000
33.031100 0.000000
33.062700 0.000000
33.094400 0.000000
33.126100 0.000000
33.157800 0.000000
33.189500 0.000000
33.221200 0.000000
33.252800 0.000000
33.284500 0.000000
33.316200 0.000000
33.347900 0.000000
33.379600 0.000000
33.411200 0.000000
33.442900 0.000000
33.474600 0.000000
33.506300 0.000000
33.538000 0.000000
33.569700 0.000000
33.601300 0.000000
33.633000 0.000000
33.664700 0.000000
33.696400 0.000000
33.728100 0.000000
33.759700 0.000000
33.791400 0.000000
33.823100 0.000000
33.854800 0.000000
33.886500 0.000000
33.918200 0.000000
33.949800 0.000000
33.981500 0.000000
34.013200 0.000000
34.044900 0.000000
34.076600 0.000000
34.108200 0.000000
34.139900 0.000000
34.171600 0.000000
34.203300 0.000000
34.235000 0.000000
34.266700 0.000000
34.298300 0.000000
34.330000 0.000000
34.361700 0.000000
34.393400 0.000000
34.425100 0.000000
34.456700 0.000000
34.488400 0.000000
34.520100 0.000000
34.551800 0.000000
34.583500 0.000000
34.615200 0.000000
34.646800 0.000000
34.678500 0.000000
34.710200 0.000000
34.741900 0.000000
34.773600 0.000000
34.805200 0.000000
34.836900 0.000000
34.868600 0.000000
34.900300 0.000000
34.932000 0.000000
34.963700 0.000000
34.995300 0.000000
35.027000 0.000000
35.058700 0.000000
35.090400 0.000000
35.122100 0.000000
35.153700 0.000000
35.185400 0.000000
35.217100 0.000000
35.248800 0.000000
35.280500 0.000000
35.312200 0.000000
35.343800 0.000000
35.375500 0.000000
35.407200 0.000000
35.438900 0.000000
35.470600 0.000000
35.502200 0.000000
35.533900 0.000000
35.565600 0.000000
35.597300 0.000000
35.629000 0.000000
35.660700 0.000000
35.692300 0.000000
35.724000 0.000000
35.755700 0.000000
35.787400 0.000000
35.819100 0.000000
35.850700 0.000000
35.882400 0.000000
e
