set title 'mp-1077482 - Density of States'
set xlabel 'Energy (eV)'
set ylabel 'DOS (states/eV)'
set grid
set xrange [-10:10]
set yrange [0:8.900]
set xzeroaxis lt -1
set terminal png size 800,600
set output 'mp-1077482_dos_gnuplot.png'
plot '-' using 1:2 with lines title 'DOS'
-31.074200 0.000000
-31.034000 0.000000
-30.993700 0.000000
-30.953400 0.000000
-30.913200 0.000000
-30.872900 0.000000
-30.832600 0.000000
-30.792300 0.000000
-30.752100 0.000000
-30.711800 0.000000
-30.671500 0.000000
-30.631300 0.000000
-30.591000 0.000000
-30.550700 0.000000
-30.510400 0.000000
-30.470200 0.000000
-30.429900 0.000000
-30.389600 0.000000
-30.349400 0.000000
-30.309100 0.000000
-30.268800 0.000000
-30.228600 0.000000
-30.188300 0.000000
-30.148000 0.000000
-30.107700 0.000000
-30.067500 0.000000
-30.027200 0.000000
-29.986900 0.000000
-29.946700 0.000000
-29.906400 0.000000
-29.866100 0.000000
-29.825800 0.000000
-29.785600 0.000000
-29.745300 0.000000
-29.705000 0.000000
-29.664800 0.000000
-29.624500 0.000000
-29.584200 0.000000
-29.543900 0.000000
-29.503700 0.000000
-29.463400 0.000000
-29.423100 0.000000
-29.382900 0.000000
-29.342600 0.000000
-29.302300 0.000000
-29.262000 0.000000
-29.221800 0.000000
-29.181500 0.000000
-29.141200 0.000000
-29.101000 0.000000
-29.060700 0.000000
-29.020400 0.000000
-28.980200 0.000000
-28.939900 0.000000
-28.899600 0.000000
-28.859300 0.000000
-28.819100 0.000000
-28.778800 0.000000
-28.738500 0.000000
-28.698300 0.000000
-28.658000 0.000000
-28.617700 0.000000
-28.577400 0.000000
-28.537200 0.000000
-28.496900 0.000000
-28.456600 0.000000
-28.416400 0.000000
-28.376100 0.000000
-28.335800 0.000000
-28.295500 0.000000
-28.255300 0.000000
-28.215000 0.000000
-28.174700 0.000000
-28.134500 0.000000
-28.094200 0.000000
-28.053900 0.000000
-28.013600 0.000000
-27.973400 0.000000
-27.933100 0.000000
-27.892800 0.000000
-27.852600 0.000000
-27.812300 0.000000
-27.772000 0.000000
-27.731800 0.000000
-27.691500 0.000000
-27.651200 0.000000
-27.610900 0.000000
-27.570700 0.000000
-27.530400 0.000000
-27.490100 0.000000
-27.449900 0.000000
-27.409600 0.199200
-27.369300 9.854500
-27.329000 24.399900
-27.288800 34.227000
-27.248500 10.172100
-27.208200 13.513500
-27.168000 25.390500
-27.127700 42.227900
-27.087400 37.684300
-27.047100 24.118200
-27.006900 20.337400
-26.966600 23.352800
-26.926300 23.604800
-26.886100 0.046300
-26.845800 0.000000
-26.805500 0.000000
-26.765200 0.000000
-26.725000 0.000000
-26.684700 0.000000
-26.644400 0.000000
-26.604200 0.000000
-26.563900 0.000000
-26.523600 0.000000
-26.483400 0.000000
-26.443100 0.000000
-26.402800 0.000000
-26.362500 0.000000
-26.322300 0.000000
-26.282000 0.000000
-26.241700 0.000000
-26.201500 0.000000
-26.161200 0.000000
-26.120900 0.000000
-26.080600 0.000000
-26.040400 0.000000
-26.000100 0.000000
-25.959800 0.000000
-25.919600 0.000000
-25.879300 0.000000
-25.839000 0.000000
-25.798700 0.000000
-25.758500 0.000000
-25.718200 0.000000
-25.677900 0.000000
-25.637700 0.000000
-25.597400 0.000000
-25.557100 0.000000
-25.516800 0.000000
-25.476600 0.000000
-25.436300 0.000000
-25.396000 0.000000
-25.355800 0.000000
-25.315500 0.000000
-25.275200 0.000000
-25.235000 0.000000
-25.194700 0.000000
-25.154400 0.000000
-25.114100 0.000000
-25.073900 0.000000
-25.033600 0.000000
-24.993300 0.000000
-24.953100 0.000000
-24.912800 0.000000
-24.872500 0.000000
-24.832200 0.000000
-24.792000 0.000000
-24.751700 0.000000
-24.711400 0.000000
-24.671200 0.000000
-24.630900 0.000000
-24.590600 0.000000
-24.550300 0.000000
-24.510100 0.000000
-24.469800 0.000000
-24.429500 0.000000
-24.389300 0.000000
-24.349000 0.000000
-24.308700 0.000000
-24.268400 0.000000
-24.228200 0.000000
-24.187900 0.000000
-24.147600 0.000000
-24.107400 0.000000
-24.067100 0.000000
-24.026800 0.000000
-23.986600 0.000000
-23.946300 0.000000
-23.906000 0.000000
-23.865700 0.000000
-23.825500 0.000000
-23.785200 0.000000
-23.744900 0.000000
-23.704700 0.000000
-23.664400 0.000000
-23.624100 0.000000
-23.583800 0.000000
-23.543600 0.000000
-23.503300 0.000000
-23.463000 0.000000
-23.422800 0.000000
-23.382500 0.000000
-23.342200 0.000000
-23.301900 0.000000
-23.261700 0.000000
-23.221400 0.000000
-23.181100 0.000000
-23.140900 0.000000
-23.100600 0.000000
-23.060300 0.000000
-23.020100 0.000000
-22.979800 0.000000
-22.939500 0.000000
-22.899200 0.000000
-22.859000 0.000000
-22.818700 0.000000
-22.778400 0.000000
-22.738200 0.000000
-22.697900 0.000000
-22.657600 0.000000
-22.617300 0.000000
-22.577100 0.000000
-22.536800 0.000000
-22.496500 0.000000
-22.456300 0.000000
-22.416000 0.000000
-22.375700 0.000000
-22.335400 0.000000
-22.295200 0.000000
-22.254900 0.000000
-22.214600 0.000000
-22.174400 0.000000
-22.134100 0.000000
-22.093800 0.000000
-22.053500 0.000000
-22.013300 0.000000
-21.973000 0.000000
-21.932700 0.000000
-21.892500 0.000000
-21.852200 0.000000
-21.811900 0.000000
-21.771700 0.000000
-21.731400 0.000000
-21.691100 0.000000
-21.650800 0.000000
-21.610600 0.000000
-21.570300 0.000000
-21.530000 0.000000
-21.489800 0.000000
-21.449500 0.000000
-21.409200 0.000000
-21.368900 0.000000
-21.328700 0.000000
-21.288400 0.000000
-21.248100 0.000000
-21.207900 0.000000
-21.167600 0.000000
-21.127300 0.000000
-21.087000 0.000000
-21.046800 0.000000
-21.006500 0.000000
-20.966200 0.000000
-20.926000 0.000000
-20.885700 0.000000
-20.845400 0.000000
-20.805100 0.000000
-20.764900 0.000000
-20.724600 0.000000
-20.684300 0.000000
-20.644100 0.000000
-20.603800 0.000000
-20.563500 0.000000
-20.523300 0.000000
-20.483000 0.000000
-20.442700 0.000000
-20.402400 0.000000
-20.362200 0.000000
-20.321900 0.000000
-20.281600 0.000000
-20.241400 0.000000
-20.201100 0.000000
-20.160800 0.000000
-20.120500 0.000000
-20.080300 0.000000
-20.040000 0.000000
-19.999700 0.000000
-19.959500 0.000000
-19.919200 0.000000
-19.878900 0.000000
-19.838600 0.000000
-19.798400 0.000000
-19.758100 0.000000
-19.717800 0.000000
-19.677600 0.000000
-19.637300 0.000000
-19.597000 0.000000
-19.556700 0.000000
-19.516500 0.000000
-19.476200 0.000000
-19.435900 0.000000
-19.395700 0.000000
-19.355400 0.000000
-19.315100 0.000000
-19.274900 0.000000
-19.234600 0.000000
-19.194300 0.000000
-19.154000 0.000000
-19.113800 0.000000
-19.073500 0.000000
-19.033200 0.000000
-18.993000 0.000000
-18.952700 0.000000
-18.912400 0.000000
-18.872100 0.000000
-18.831900 0.000000
-18.791600 0.000000
-18.751300 0.000000
-18.711100 0.000000
-18.670800 0.000000
-18.630500 0.000000
-18.590200 0.000000
-18.550000 0.000000
-18.509700 0.000000
-18.469400 0.000000
-18.429200 0.000000
-18.388900 0.000000
-18.348600 0.000000
-18.308300 0.000000
-18.268100 0.000000
-18.227800 0.000000
-18.187500 0.000000
-18.147300 0.000000
-18.107000 0.000000
-18.066700 0.000000
-18.026500 0.000000
-17.986200 0.000000
-17.945900 0.000000
-17.905600 0.000000
-17.865400 0.000000
-17.825100 0.000000
-17.784800 0.000000
-17.744600 0.000000
-17.704300 0.000000
-17.664000 0.000000
-17.623700 0.000000
-17.583500 0.000000
-17.543200 0.000000
-17.502900 0.000000
-17.462700 0.000000
-17.422400 0.000000
-17.382100 0.000000
-17.341800 0.000000
-17.301600 0.000000
-17.261300 0.000000
-17.221000 0.000000
-17.180800 0.000000
-17.140500 0.000000
-17.100200 0.000000
-17.059900 0.000000
-17.019700 0.000000
-16.979400 0.000000
-16.939100 0.000000
-16.898900 0.000000
-16.858600 0.000000
-16.818300 0.000000
-16.778100 0.000000
-16.737800 0.000000
-16.697500 0.000000
-16.657200 0.000000
-16.617000 0.000000
-16.576700 0.000000
-16.536400 0.000000
-16.496200 0.000000
-16.455900 0.000000
-16.415600 0.000000
-16.375300 0.000000
-16.335100 0.000000
-16.294800 0.000000
-16.254500 0.000000
-16.214300 0.000000
-16.174000 0.000000
-16.133700 0.000000
-16.093400 0.000000
-16.053200 0.000000
-16.012900 0.000000
-15.972600 0.000000
-15.932400 0.000000
-15.892100 0.000000
-15.851800 0.000000
-15.811600 0.000000
-15.771300 0.000000
-15.731000 0.000000
-15.690700 0.000000
-15.650500 0.000000
-15.610200 0.000000
-15.569900 0.000000
-15.529700 0.000000
-15.489400 0.000000
-15.449100 0.000000
-15.408800 0.000000
-15.368600 0.000000
-15.328300 0.000000
-15.288000 0.000000
-15.247800 0.000000
-15.207500 0.000000
-15.167200 0.000000
-15.126900 0.000000
-15.086700 0.000000
-15.046400 0.000000
-15.006100 0.000000
-14.965900 0.000000
-14.925600 0.000000
-14.885300 0.000000
-14.845000 0.000000
-14.804800 0.000000
-14.764500 0.000000
-14.724200 0.000000
-14.684000 0.000000
-14.643700 0.000000
-14.603400 0.000000
-14.563200 0.000000
-14.522900 0.000000
-14.482600 0.000000
-14.442300 0.000000
-14.402100 0.000000
-14.361800 0.000000
-14.321500 0.000000
-14.281300 0.000000
-14.241000 0.000000
-14.200700 0.000000
-14.160400 0.000000
-14.120200 0.000000
-14.079900 0.000000
-14.039600 0.000000
-13.999400 0.000000
-13.959100 0.000000
-13.918800 0.000000
-13.878500 0.000000
-13.838300 0.000000
-13.798000 0.000000
-13.757700 0.000000
-13.717500 0.000000
-13.677200 0.000000
-13.636900 0.000000
-13.596600 0.000000
-13.556400 0.000000
-13.516100 0.000000
-13.475800 0.000000
-13.435600 0.000000
-13.395300 0.000000
-13.355000 0.000000
-13.314800 0.000000
-13.274500 0.000000
-13.234200 0.000000
-13.193900 0.000000
-13.153700 0.000000
-13.113400 0.000000
-13.073100 0.000000
-13.032900 0.000000
-12.992600 0.000000
-12.952300 0.000000
-12.912000 0.000000
-12.871800 0.000000
-12.831500 0.000000
-12.791200 0.000000
-12.751000 0.000000
-12.710700 0.000000
-12.670400 0.000000
-12.630100 0.000000
-12.589900 0.000000
-12.549600 0.000000
-12.509300 0.000000
-12.469100 0.000000
-12.428800 0.000000
-12.388500 0.000000
-12.348200 0.000000
-12.308000 0.000000
-12.267700 0.000000
-12.227400 0.000000
-12.187200 0.000000
-12.146900 0.000000
-12.106600 0.000000
-12.066400 0.000000
-12.026100 0.000000
-11.985800 0.000000
-11.945500 0.000000
-11.905300 0.000000
-11.865000 0.000000
-11.824700 0.000000
-11.784500 0.000000
-11.744200 0.000000
-11.703900 0.000000
-11.663600 0.000000
-11.623400 0.000000
-11.583100 0.000000
-11.542800 0.000000
-11.502600 0.000000
-11.462300 0.000000
-11.422000 0.000000
-11.381700 0.000000
-11.341500 0.000000
-11.301200 0.000000
-11.260900 0.000000
-11.220700 0.000000
-11.180400 0.000000
-11.140100 0.000000
-11.099800 0.000000
-11.059600 0.000000
-11.019300 0.000000
-10.979000 0.000000
-10.938800 0.000000
-10.898500 0.000000
-10.858200 0.000000
-10.818000 0.000000
-10.777700 0.000000
-10.737400 0.000000
-10.697100 0.000000
-10.656900 0.000000
-10.616600 0.000000
-10.576300 0.000000
-10.536100 0.000000
-10.495800 0.000000
-10.455500 0.000000
-10.415200 0.000000
-10.375000 0.000000
-10.334700 0.000000
-10.294400 0.000000
-10.254200 0.000000
-10.213900 0.000000
-10.173600 0.000000
-10.133300 0.000000
-10.093100 0.000000
-10.052800 0.000000
-10.012500 0.000000
-9.972300 0.000000
-9.932000 0.000000
-9.891700 0.000000
-9.851400 0.000000
-9.811200 0.000000
-9.770900 0.000000
-9.730600 0.000000
-9.690400 0.000000
-9.650100 0.000000
-9.609800 0.000000
-9.569600 0.000000
-9.529300 0.000000
-9.489000 0.000000
-9.448700 0.000000
-9.408500 0.000000
-9.368200 0.000000
-9.327900 0.000000
-9.287700 0.000000
-9.247400 0.000000
-9.207100 0.000000
-9.166800 0.000000
-9.126600 0.000000
-9.086300 0.000000
-9.046000 0.000000
-9.005800 0.000000
-8.965500 0.000000
-8.925200 0.000000
-8.884900 0.000000
-8.844700 0.000000
-8.804400 0.000000
-8.764100 0.000000
-8.723900 0.000000
-8.683600 0.000000
-8.643300 0.000000
-8.603100 0.000000
-8.562800 0.000000
-8.522500 0.000000
-8.482200 0.000000
-8.442000 0.000000
-8.401700 0.000000
-8.361400 0.000000
-8.321200 0.000000
-8.280900 0.000000
-8.240600 0.000000
-8.200300 0.000000
-8.160100 0.000000
-8.119800 0.000000
-8.079500 0.000000
-8.039300 0.000000
-7.999000 0.000000
-7.958700 0.000000
-7.918400 0.000000
-7.878200 0.000000
-7.837900 0.000000
-7.797600 0.000000
-7.757400 0.000000
-7.717100 0.000000
-7.676800 0.000000
-7.636500 0.000000
-7.596300 0.000000
-7.556000 0.000000
-7.515700 0.000000
-7.475500 0.000000
-7.435200 0.000000
-7.394900 0.000000
-7.354700 0.000000
-7.314400 0.000000
-7.274100 0.000000
-7.233800 0.000000
-7.193600 0.000000
-7.153300 0.000000
-7.113000 0.000000
-7.072800 0.000000
-7.032500 0.000000
-6.992200 0.000000
-6.951900 0.000000
-6.911700 0.000000
-6.871400 0.000000
-6.831100 0.000000
-6.790900 0.000000
-6.750600 0.000000
-6.710300 0.000000
-6.670000 0.000000
-6.629800 0.000000
-6.589500 0.000000
-6.549200 0.000000
-6.509000 0.000000
-6.468700 0.000000
-6.428400 0.000000
-6.388100 0.000000
-6.347900 0.000000
-6.307600 0.000000
-6.267300 0.000000
-6.227100 0.000000
-6.186800 0.000000
-6.146500 0.000000
-6.106300 0.000000
-6.066000 0.000000
-6.025700 0.000000
-5.985400 0.000000
-5.945200 0.000000
-5.904900 0.000000
-5.864600 0.000000
-5.824400 0.000000
-5.784100 0.000000
-5.743800 0.000000
-5.703500 0.000000
-5.663300 0.000000
-5.623000 0.000000
-5.582700 0.000000
-5.542500 0.000000
-5.502200 0.000000
-5.461900 0.000000
-5.421600 0.000000
-5.381400 0.000000
-5.341100 0.000000
-5.300800 0.000000
-5.260600 0.000000
-5.220300 0.000000
-5.180000 0.000000
-5.139700 0.000000
-5.099500 0.000000
-5.059200 0.000000
-5.018900 0.000000
-4.978700 0.000000
-4.938400 0.000000
-4.898100 0.000000
-4.857900 0.000000
-4.817600 0.000000
-4.777300 0.000000
-4.737000 0.000000
-4.696800 0.010700
-4.656500 0.052100
-4.616200 0.082900
-4.576000 0.088500
-4.535700 0.101300
-4.495400 0.120700
-4.455100 0.140300
-4.414900 0.150200
-4.374600 0.155000
-4.334300 0.165100
-4.294100 0.176200
-4.253800 0.187100
-4.213500 0.197900
-4.173200 0.210100
-4.133000 0.222600
-4.092700 0.230900
-4.052400 0.239100
-4.012200 0.248700
-3.971900 0.258100
-3.931600 0.267300
-3.891300 0.277500
-3.851100 0.288900
-3.810800 0.301200
-3.770500 0.319200
-3.730300 0.339600
-3.690000 0.356900
-3.649700 0.373600
-3.609500 0.388200
-3.569200 0.390300
-3.528900 0.392300
-3.488600 0.395300
-3.448400 0.397000
-3.408100 0.397400
-3.367800 0.400100
-3.327600 0.404000
-3.287300 0.407600
-3.247000 0.410600
-3.206700 0.413600
-3.166500 0.414400
-3.126200 0.415400
-3.085900 0.417900
-3.045700 0.420500
-3.005400 0.423200
-2.965100 0.426200
-2.924800 0.428900
-2.884600 0.430900
-2.844300 0.433000
-2.804000 0.435100
-2.763800 0.438200
-2.723500 0.441700
-2.683200 0.445300
-2.642900 0.449100
-2.602700 0.452500
-2.562400 0.455100
-2.522100 0.457800
-2.481900 0.460300
-2.441600 0.462900
-2.401300 0.465700
-2.361100 0.468400
-2.320800 0.471700
-2.280500 0.480700
-2.240200 0.498000
-2.200000 0.513500
-2.159700 0.528500
-2.119400 0.545000
-2.079200 0.562800
-2.038900 0.578600
-1.998600 0.589000
-1.958300 0.599500
-1.918100 0.610100
-1.877800 0.620400
-1.837500 0.630800
-1.797300 0.643300
-1.757000 0.655900
-1.716700 0.667800
-1.676400 0.679600
-1.636200 0.692000
-1.595900 0.704700
-1.555600 0.717400
-1.515400 0.731100
-1.475100 0.745100
-1.434800 0.759800
-1.394600 0.774000
-1.354300 0.787600
-1.314000 0.816000
-1.273700 0.956300
-1.233500 0.932000
-1.193200 0.949800
-1.152900 0.940100
-1.112700 0.945900
-1.072400 0.952400
-1.032100 0.952700
-0.991800 0.957300
-0.951600 0.962200
-0.911300 0.967600
-0.871000 0.974500
-0.830800 1.014500
-0.790500 1.000700
-0.750200 0.954600
-0.709900 0.940000
-0.669700 0.927500
-0.629400 1.056700
-0.589100 1.113600
-0.548900 1.164800
-0.508600 1.205600
-0.468300 1.252900
-0.428000 1.304600
-0.387800 1.381000
-0.347500 1.458200
-0.307200 1.525700
-0.267000 1.618200
-0.226700 1.758800
-0.186400 2.139900
-0.146200 1.983800
-0.105900 2.048300
-0.065600 2.084500
-0.025300 2.166500
0.014900 2.298800
0.055200 2.546700
0.095500 2.959200
0.135700 3.991000
0.176000 2.465700
0.216300 1.738900
0.256600 1.403600
0.296800 1.242300
0.337100 1.066300
0.377400 1.020700
0.417600 1.677900
0.457900 1.044200
0.498200 0.766800
0.538500 0.635000
0.578700 0.707600
0.619000 0.729100
0.659300 0.989700
0.699500 1.566300
0.739800 2.924000
0.780100 3.233200
0.820400 3.197500
0.860600 2.895100
0.900900 2.844300
0.941200 3.077400
0.981400 3.414800
1.021700 3.672500
1.062000 4.311100
1.102200 4.425700
1.142500 3.445100
1.182800 2.965000
1.223100 2.742300
1.263300 2.602600
1.303600 2.484100
1.343900 2.366200
1.384100 2.313100
1.424400 2.282200
1.464700 2.230600
1.505000 2.189300
1.545200 2.174200
1.585500 2.317100
1.625800 2.427200
1.666000 2.314700
1.706300 2.086500
1.746600 1.930000
1.786900 1.896100
1.827100 2.170000
1.867400 1.941000
1.907700 0.925900
1.947900 0.853800
1.988200 0.833900
2.028500 0.808600
2.068800 0.792600
2.109000 0.786100
2.149300 0.750600
2.189600 0.711200
2.229800 0.690000
2.270100 0.677500
2.310400 0.686200
2.350600 0.736500
2.390900 0.734800
2.431200 0.753800
2.471500 0.866400
2.511700 0.871200
2.552000 0.572900
2.592300 0.468100
2.632500 0.384200
2.672800 0.331500
2.713100 0.284400
2.753400 0.210600
2.793600 0.154700
2.833900 0.109800
2.874200 0.004300
2.914400 0.000000
2.954700 0.000000
2.995000 0.000000
3.035300 0.000000
3.075500 0.000000
3.115800 0.000000
3.156100 0.000000
3.196300 0.000000
3.236600 0.000000
3.276900 0.000000
3.317200 0.000000
3.357400 0.000000
3.397700 0.000000
3.438000 0.000000
3.478200 0.000000
3.518500 0.000000
3.558800 0.000000
3.599000 0.000000
3.639300 0.000000
3.679600 0.000000
3.719900 0.000000
3.760100 0.000000
3.800400 0.000000
3.840700 0.000000
3.880900 0.000000
3.921200 0.000000
3.961500 0.000000
4.001800 0.000000
4.042000 0.000000
4.082300 0.000000
4.122600 0.000000
4.162800 0.000000
4.203100 0.000000
4.243400 0.000000
4.283700 0.000000
4.323900 0.000000
4.364200 0.000000
4.404500 0.000000
4.444700 0.000000
4.485000 0.019200
4.525300 0.129300
4.565500 0.269600
4.605800 0.409900
4.646100 0.477000
4.686400 0.561900
4.726600 0.698300
4.766900 0.854500
4.807200 0.995600
4.847400 1.216600
4.887700 1.511300
4.928000 1.877900
4.968300 2.225100
5.008500 2.651200
5.048800 3.321800
5.089100 3.446100
5.129300 3.974600
5.169600 4.469000
5.209900 4.868400
5.250200 4.978300
5.290400 4.411500
5.330700 4.054700
5.371000 4.549200
5.411200 3.917700
5.451500 3.671000
5.491800 3.324900
5.532100 3.578600
5.572300 3.483500
5.612600 3.351800
5.652900 3.203600
5.693100 3.026600
5.733400 2.559600
5.773700 2.011000
5.813900 1.794600
5.854200 1.669700
5.894500 1.505500
5.934800 1.385800
5.975000 1.276700
6.015300 1.117300
6.055600 1.093500
6.095800 1.147200
6.136100 1.192900
6.176400 1.180500
6.216700 1.115200
6.256900 1.076900
6.297200 1.095100
6.337500 1.147700
6.377700 1.235900
6.418000 1.332900
6.458300 1.429200
6.498600 1.651600
6.538800 2.146100
6.579100 2.450100
6.619400 2.863100
6.659600 3.543200
6.699900 3.920700
6.740200 4.134900
6.780500 4.283000
6.820700 4.316100
6.861000 4.258600
6.901300 4.459100
6.941500 4.584400
6.981800 4.635200
7.022100 4.771800
7.062300 4.865200
7.102600 4.709800
7.142900 4.604100
7.183200 4.395400
7.223400 4.189200
7.263700 3.735800
7.304000 3.463300
7.344200 3.186900
7.384500 2.711000
7.424800 2.538100
7.465100 2.431700
7.505300 2.478100
7.545600 2.891600
7.585900 2.929900
7.626100 3.280200
7.666400 2.936800
7.706700 2.963500
7.747000 3.039600
7.787200 3.074500
7.827500 3.184500
7.867800 3.223700
7.908000 3.266400
7.948300 3.280900
7.988600 3.396700
8.028900 3.965500
8.069100 4.189300
8.109400 4.444800
8.149700 4.641800
8.189900 4.610000
8.230200 4.541800
8.270500 4.612500
8.310700 5.325300
8.351000 5.688400
8.391300 5.651900
8.431600 6.477900
8.471800 8.090600
8.512100 7.726800
8.552400 6.035700
8.592600 4.947100
8.632900 4.656400
8.673200 4.495300
8.713500 4.602100
8.753700 4.271400
8.794000 4.135400
8.834300 3.460000
8.874500 3.238400
8.914800 2.943300
8.955100 2.780300
8.995400 2.637400
9.035600 2.582300
9.075900 2.544800
9.116200 2.482000
9.156400 2.310400
9.196700 2.228100
9.237000 2.145400
9.277300 2.110800
9.317500 2.041600
9.357800 1.886000
9.398100 1.749900
9.438300 1.610600
9.478600 1.545800
9.518900 2.035800
9.559100 1.618100
9.599400 1.416300
9.639700 1.305200
9.680000 1.198000
9.720200 1.093700
9.760500 0.987700
9.800800 0.889600
9.841000 0.810800
9.881300 0.674300
9.921600 0.556000
9.961900 0.444900
10.002100 0.358700
10.042400 0.392400
10.082700 0.402300
10.122900 0.433000
10.163200 0.498600
10.203500 0.595000
10.243800 1.307600
10.284000 1.794500
10.324300 1.744700
10.364600 1.962700
10.404800 2.329400
10.445100 2.716600
10.485400 2.910900
10.525700 3.322600
10.565900 3.467100
10.606200 3.798000
10.646500 3.575700
10.686700 3.593800
10.727000 3.824000
10.767300 3.908200
10.807500 3.949500
10.847800 3.907600
10.888100 3.739300
10.928400 3.637100
10.968600 3.573000
11.008900 3.474700
11.049200 3.277400
11.089400 3.150800
11.129700 3.045200
11.170000 2.915400
11.210300 2.755300
11.250500 2.683900
11.290800 2.672000
11.331100 2.421000
11.371300 2.247300
11.411600 1.958500
11.451900 1.658200
11.492200 1.523500
11.532400 1.385300
11.572700 1.107500
11.613000 0.932600
11.653200 0.878700
11.693500 0.623400
11.733800 0.328800
11.774000 0.151900
11.814300 0.106400
11.854600 0.013100
11.894900 0.013400
11.935100 0.015000
11.975400 0.016600
12.015700 0.018200
12.055900 0.019900
12.096200 0.021500
12.136500 0.023200
12.176800 0.024900
12.217000 0.040100
12.257300 0.046500
12.297600 0.053900
12.337800 0.053000
12.378100 0.059800
12.418400 0.063000
12.458700 0.067300
12.498900 0.072700
12.539200 0.074200
12.579500 0.082500
12.619700 0.088200
12.660000 0.094200
12.700300 0.100300
12.740600 0.106000
12.780800 0.113300
12.821100 0.123800
12.861400 0.135900
12.901600 0.158900
12.941900 0.257700
12.982200 0.433800
13.022400 0.560500
13.062700 0.750300
13.103000 1.081400
13.143300 1.435900
13.183500 1.589200
13.223800 1.739300
13.264100 1.877500
13.304300 2.153100
13.344600 2.625600
13.384900 2.767500
13.425200 2.956000
13.465400 3.101500
13.505700 3.025100
13.546000 3.147900
13.586200 3.256700
13.626500 3.463500
13.666800 3.443100
13.707100 2.958100
13.747300 2.663000
13.787600 2.528000
13.827900 2.430900
13.868100 2.522900
13.908400 2.367300
13.948700 2.257800
13.989000 2.157700
14.029200 2.132600
14.069500 2.109500
14.109800 2.053200
14.150000 2.001500
14.190300 1.896300
14.230600 1.765800
14.270800 1.691000
14.311100 1.647600
14.351400 1.606000
14.391700 1.567600
14.431900 1.525000
14.472200 1.514700
14.512500 1.492000
14.552700 1.470300
14.593000 1.446000
14.633300 1.424400
14.673600 1.422600
14.713800 1.411500
14.754100 1.413700
14.794400 1.414400
14.834600 1.429700
14.874900 1.526800
14.915200 1.602400
14.955500 1.579900
14.995700 1.396000
15.036000 1.241500
15.076300 1.181100
15.116500 1.137700
15.156800 1.211300
15.197100 1.180300
15.237400 1.131600
15.277600 0.948100
15.317900 0.925400
15.358200 0.905500
15.398400 0.900800
15.438700 0.904600
15.479000 0.881600
15.519200 0.865800
15.559500 0.861100
15.599800 0.871100
15.640100 0.939000
15.680300 1.003800
15.720600 1.063800
15.760900 1.036300
15.801100 0.985600
15.841400 1.040600
15.881700 1.101300
15.922000 1.146400
15.962200 1.193700
16.002500 1.268900
16.042800 1.506900
16.083000 1.274200
16.123300 1.242300
16.163600 1.236900
16.203900 1.208300
16.244100 1.180300
16.284400 1.158100
16.324700 1.136800
16.364900 1.143000
16.405200 1.158200
16.445500 1.193300
16.485800 1.209900
16.526000 1.232200
16.566300 1.306800
16.606600 1.428000
16.646800 1.560700
16.687100 1.724400
16.727400 1.937700
16.767600 2.221900
16.807900 2.079400
16.848200 2.020600
16.888500 1.958200
16.928700 1.881100
16.969000 1.853600
17.009300 1.835600
17.049500 1.814300
17.089800 1.796700
17.130100 1.789700
17.170400 1.868600
17.210600 1.771500
17.250900 1.754600
17.291200 1.734600
17.331400 1.735900
17.371700 1.749700
17.412000 1.774300
17.452300 1.786400
17.492500 1.794400
17.532800 1.776700
17.573100 1.711900
17.613300 1.644100
17.653600 1.605700
17.693900 1.577500
17.734200 1.557700
17.774400 1.516100
17.814700 1.476800
17.855000 1.479800
17.895200 1.505400
17.935500 1.537200
17.975800 1.567100
18.016000 1.584200
18.056300 1.584200
18.096600 1.533700
18.136900 1.469300
18.177100 1.438200
18.217400 1.435400
18.257700 1.411300
18.297900 1.413600
18.338200 1.420900
18.378500 1.418400
18.418800 1.404900
18.459000 1.379900
18.499300 1.356300
18.539600 1.306100
18.579800 1.234100
18.620100 1.176600
18.660400 1.142900
18.700700 1.121100
18.740900 1.108900
18.781200 1.104600
18.821500 1.101700
18.861700 1.099000
18.902000 1.100000
18.942300 1.099200
18.982500 1.096700
19.022800 1.108900
19.063100 1.132200
19.103400 1.155200
19.143600 1.180100
19.183900 1.206600
19.224200 1.222400
19.264400 1.229700
19.304700 1.271000
19.345000 1.302200
19.385300 1.317600
19.425500 1.324600
19.465800 1.310500
19.506100 1.302300
19.546300 1.253100
19.586600 1.254200
19.626900 1.241700
19.667200 1.228300
19.707400 1.229800
19.747700 1.232400
19.788000 1.234000
19.828200 1.254800
19.868500 1.206900
19.908800 1.176100
19.949100 1.226000
19.989300 1.132900
20.029600 1.115300
20.069900 1.128700
20.110100 1.123300
20.150400 1.123100
20.190700 1.125600
20.230900 1.137800
20.271200 1.150500
20.311500 1.160900
20.351800 1.136300
20.392000 1.100100
20.432300 1.082000
20.472600 1.076600
20.512800 1.037100
20.553100 1.011200
20.593400 0.992700
20.633700 0.985600
20.673900 0.972500
20.714200 0.966500
20.754500 0.969700
20.794700 0.977600
20.835000 0.984200
20.875300 0.984100
20.915600 0.990200
20.955800 1.000100
20.996100 1.016800
21.036400 1.022900
21.076600 1.030200
21.116900 1.035700
21.157200 1.034900
21.197500 1.013800
21.237700 0.993900
21.278000 0.976800
21.318300 0.954200
21.358500 0.927600
21.398800 0.916400
21.439100 0.923500
21.479300 0.939900
21.519600 1.023700
21.559900 0.987700
21.600200 0.978300
21.640400 0.976600
21.680700 0.993000
21.721000 1.018100
21.761200 1.055500
21.801500 1.100500
21.841800 1.150200
21.882100 1.218500
21.922300 1.412300
21.962600 1.311300
22.002900 1.274000
22.043100 1.271700
22.083400 1.286800
22.123700 1.309800
22.164000 1.324500
22.204200 1.345000
22.244500 1.366800
22.284800 1.388000
22.325000 1.436800
22.365300 1.476800
22.405600 1.487900
22.445900 1.484600
22.486100 1.500900
22.526400 1.528200
22.566700 1.573000
22.606900 1.665600
22.647200 1.614700
22.687500 1.632300
22.727700 1.641500
22.768000 1.657700
22.808300 1.557200
22.848600 1.509200
22.888800 1.476500
22.929100 1.437800
22.969400 1.389900
23.009600 1.310800
23.049900 1.241200
23.090200 1.185500
23.130500 1.111900
23.170700 1.098900
23.211000 1.129800
23.251300 1.177900
23.291500 1.195300
23.331800 1.202000
23.372100 1.216600
23.412400 1.262500
23.452600 1.326000
23.492900 1.402700
23.533200 1.341900
23.573400 1.350900
23.613700 1.374400
23.654000 1.395300
23.694300 1.396200
23.734500 1.391500
23.774800 1.383500
23.815100 1.397200
23.855300 1.408700
23.895600 1.424700
23.935900 1.439800
23.976100 1.463400
24.016400 1.499600
24.056700 1.597400
24.097000 1.587100
24.137200 1.571300
24.177500 1.509400
24.217800 1.456000
24.258000 1.370100
24.298300 1.324700
24.338600 1.306300
24.378900 1.295200
24.419100 1.289900
24.459400 1.294600
24.499700 1.307100
24.539900 1.304500
24.580200 1.386400
24.620500 1.368500
24.660800 1.431300
24.701000 1.522500
24.741300 1.620500
24.781600 1.694400
24.821800 1.725800
24.862100 1.720300
24.902400 1.654400
24.942700 1.569900
24.982900 1.548200
25.023200 1.567000
25.063500 1.585100
25.103700 1.589600
25.144000 1.616900
25.184300 1.652100
25.224500 1.696800
25.264800 1.769800
25.305100 1.837400
25.345400 1.908900
25.385600 1.965000
25.425900 1.947300
25.466200 1.881000
25.506400 1.831000
25.546700 1.792400
25.587000 1.742900
25.627300 1.686300
25.667500 1.650800
25.707800 1.632300
25.748100 1.624000
25.788300 1.620500
25.828600 1.634600
25.868900 1.683000
25.909200 1.679300
25.949400 1.676300
25.989700 1.662600
26.030000 1.626500
26.070200 1.591600
26.110500 1.540000
26.150800 1.480000
26.191000 1.426000
26.231300 1.385000
26.271600 1.355000
26.311900 1.388300
26.352100 1.426000
26.392400 1.450200
26.432700 1.472000
26.472900 1.497000
26.513200 1.547500
26.553500 1.575300
26.593800 1.588200
26.634000 1.604600
26.674300 1.643700
26.714600 1.660200
26.754800 1.634400
26.795100 1.616400
26.835400 1.600800
26.875700 1.581200
26.915900 1.520300
26.956200 1.497900
26.996500 1.477900
27.036700 1.491200
27.077000 1.538300
27.117300 1.488900
27.157600 1.428100
27.197800 1.398700
27.238100 1.381900
27.278400 1.386600
27.318600 1.427200
27.358900 1.519000
27.399200 1.634800
27.439400 1.805300
27.479700 2.031800
27.520000 2.272300
27.560300 2.368500
27.600500 2.474000
27.640800 2.484700
27.681100 2.416600
27.721300 2.484900
27.761600 2.508500
27.801900 2.477300
27.842200 2.482700
27.882400 2.474400
27.922700 2.506400
27.963000 2.586100
28.003200 2.730300
28.043500 2.953200
28.083800 3.265300
28.124100 3.712200
28.164300 4.326900
28.204600 7.067900
28.244900 6.597300
28.285100 4.781300
28.325400 3.927400
28.365700 3.274600
28.406000 2.894800
28.446200 2.543700
28.486500 2.194000
28.526800 1.961400
28.567000 1.748700
28.607300 1.593800
28.647600 1.480200
28.687800 1.393100
28.728100 1.347700
28.768400 1.332300
28.808700 1.312900
28.848900 1.307500
28.889200 1.302900
28.929500 1.294000
28.969700 1.296100
29.010000 1.316100
29.050300 1.352400
29.090600 1.397700
29.130800 1.457300
29.171100 1.511600
29.211400 1.559800
29.251600 1.600900
29.291900 1.618400
29.332200 1.692200
29.372500 1.647700
29.412700 1.595600
29.453000 1.567500
29.493300 1.582100
29.533500 1.598900
29.573800 1.631400
29.614100 1.667200
29.654400 1.679500
29.694600 1.682700
29.734900 1.698900
29.775200 1.712300
29.815400 1.706000
29.855700 1.713900
29.896000 1.719900
29.936200 1.727000
29.976500 1.733000
30.016800 1.757800
30.057100 1.828300
30.097300 1.774700
30.137600 1.781500
30.177900 1.770600
30.218100 1.760100
30.258400 1.779700
30.298700 1.769700
30.339000 1.804000
30.379200 1.812900
30.419500 1.845900
30.459800 1.898800
30.500000 1.943500
30.540300 1.977400
30.580600 2.019100
30.620900 2.089100
30.661100 2.090500
30.701400 2.072400
30.741700 2.089100
30.781900 2.128800
30.822200 2.126300
30.862500 2.139300
30.902800 2.172000
30.943000 2.184000
30.983300 2.229700
31.023600 2.195600
31.063800 2.209100
31.104100 2.242400
31.144400 1.955200
31.184600 1.892500
31.224900 1.788700
31.265200 1.756900
31.305500 1.741800
31.345700 1.726100
31.386000 1.733200
31.426300 1.727100
31.466500 1.728500
31.506800 1.723300
31.547100 1.712500
31.587400 1.703700
31.627600 1.683900
31.667900 1.654200
31.708200 1.654200
31.748400 1.635000
31.788700 1.620000
31.829000 1.583900
31.869300 1.538100
31.909500 1.499200
31.949800 1.472200
31.990100 1.449800
32.030300 1.419600
32.070600 1.398200
32.110900 1.400000
32.151200 1.380600
32.191400 1.357200
32.231700 1.354000
32.272000 1.361600
32.312200 1.356800
32.352500 1.325200
32.392800 1.366800
32.433000 1.324900
32.473300 1.323600
32.513600 1.358900
32.553900 1.409600
32.594100 1.467400
32.634400 1.528600
32.674700 1.599500
32.714900 1.650000
32.755200 1.705100
32.795500 1.746200
32.835800 1.811800
32.876000 1.897600
32.916300 1.944300
32.956600 2.022400
32.996800 2.055600
33.037100 1.948700
33.077400 1.842100
33.117700 1.750500
33.157900 1.699900
33.198200 1.660200
33.238500 1.677600
33.278700 1.725500
33.319000 1.755600
33.359300 1.753300
33.399500 1.716800
33.439800 1.623800
33.480100 1.629800
33.520400 1.625100
33.560600 1.612900
33.600900 1.602600
33.641200 1.611300
33.681400 1.655300
33.721700 1.679900
33.762000 1.751800
33.802300 1.791800
33.842500 1.803500
33.882800 1.805300
33.923100 1.797100
33.963300 1.823000
34.003600 1.808500
34.043900 1.734700
34.084200 1.753500
34.124400 1.770900
34.164700 1.834600
34.205000 1.838500
34.245200 1.852400
34.285500 1.824300
34.325800 1.828100
34.366100 1.823800
34.406300 1.825700
34.446600 1.837700
34.486900 1.858400
34.527100 1.877100
34.567400 1.911500
34.607700 1.902900
34.647900 1.895400
34.688200 1.914300
34.728500 1.906600
34.768800 1.957800
34.809000 2.004300
34.849300 2.022300
34.889600 2.077200
34.929800 2.189500
34.970100 2.226700
35.010400 2.268000
35.050700 2.269700
35.090900 2.268000
35.131200 2.286600
35.171500 2.366000
35.211700 2.360400
35.252000 2.276800
35.292300 2.259700
35.332600 2.149800
35.372800 2.063200
35.413100 2.037500
35.453400 1.987400
35.493600 1.925900
35.533900 1.903700
35.574200 1.901500
35.614500 1.915600
35.654700 1.975400
35.695000 1.968400
35.735300 1.935400
35.775500 1.836400
35.815800 1.777000
35.856100 1.743800
35.896300 1.745600
35.936600 1.728100
35.976900 1.676300
36.017200 1.661500
36.057400 1.671800
36.097700 1.725500
36.138000 1.763100
36.178200 1.742400
36.218500 1.734800
36.258800 1.723800
36.299100 1.707300
36.339300 1.687900
36.379600 1.603300
36.419900 1.609800
36.460100 1.616900
36.500400 1.606000
36.540700 1.601600
36.581000 1.587600
36.621200 1.591600
36.661500 1.602700
36.701800 1.625700
36.742000 1.662500
36.782300 1.709800
36.822600 1.775300
36.862900 1.880300
36.903100 1.930500
36.943400 1.978200
36.983700 1.883200
37.023900 1.851400
37.064200 1.850900
37.104500 1.846300
37.144700 1.837700
37.185000 1.856100
37.225300 1.884100
37.265600 1.863900
37.305800 1.878200
37.346100 1.857200
37.386400 1.866900
37.426600 1.871300
37.466900 1.908700
37.507200 1.919800
37.547500 1.948100
37.587700 2.009600
37.628000 1.983200
37.668300 1.993100
37.708500 2.036900
37.748800 2.065400
37.789100 2.069400
37.829400 2.105600
37.869600 2.141400
37.909900 1.992300
37.950200 1.970100
37.990400 1.920900
38.030700 1.890700
38.071000 1.830000
38.111300 1.704900
38.151500 1.609000
38.191800 1.583000
38.232100 1.560800
38.272300 1.570700
38.312600 1.600900
38.352900 1.638200
38.393100 1.676700
38.433400 1.723700
38.473700 1.864300
38.514000 1.738300
38.554200 1.757300
38.594500 1.838600
38.634800 1.805800
38.675000 1.860200
38.715300 1.921400
38.755600 1.955100
38.795900 1.959100
38.836100 1.985100
38.876400 2.002600
38.916700 2.008100
38.956900 2.008300
38.997200 1.996000
39.037500 1.998000
39.077800 1.914100
39.118000 1.873700
39.158300 1.873500
39.198600 1.893200
39.238800 1.942400
39.279100 1.967100
39.319400 1.812200
39.359700 1.831300
39.399900 1.834800
39.440200 1.852500
39.480500 1.859700
39.520700 1.878400
39.561000 2.006800
39.601300 2.077400
39.641500 2.094700
39.681800 2.157800
39.722100 2.107300
39.762400 2.056300
39.802600 2.024900
39.842900 1.936000
39.883200 1.898800
39.923400 1.800500
39.963700 1.799600
40.004000 1.841300
40.044300 1.890300
40.084500 1.886600
40.124800 1.901400
40.165100 1.911800
40.205300 1.927900
40.245600 1.953900
40.285900 2.006800
40.326200 2.071400
40.366400 2.083600
40.406700 2.039800
40.447000 1.999900
40.487200 1.945500
40.527500 1.986800
40.567800 2.019400
40.608000 2.040300
40.648300 2.121300
40.688600 2.076800
40.728900 2.097500
40.769100 2.126500
40.809400 2.108500
40.849700 2.075800
40.889900 2.018600
40.930200 1.978200
40.970500 1.944000
41.010800 1.924800
41.051000 1.906700
41.091300 1.893800
41.131600 1.865800
41.171800 1.846800
41.212100 1.878500
41.252400 1.927400
41.292700 1.968700
41.332900 1.987000
41.373200 2.040400
41.413500 2.136300
41.453700 2.196900
41.494000 2.254500
41.534300 2.281900
41.574600 2.292500
41.614800 2.201000
41.655100 2.155300
41.695400 2.114400
41.735600 2.118900
41.775900 2.129400
41.816200 2.124300
41.856400 2.103100
41.896700 2.058100
41.937000 2.073600
41.977300 2.200700
42.017500 2.357000
42.057800 2.300200
42.098100 2.206600
42.138300 2.147800
42.178600 2.049800
42.218900 2.012600
42.259200 1.994000
42.299400 2.021300
42.339700 1.991600
42.380000 1.993500
42.420200 2.036400
42.460500 1.988300
42.500800 2.034400
42.541100 2.088700
42.581300 2.122600
42.621600 2.174700
42.661900 2.205800
42.702100 2.211500
42.742400 2.178200
42.782700 2.139400
42.823000 2.131800
42.863200 2.191500
42.903500 2.268900
42.943800 2.430600
42.984000 2.446300
43.024300 2.430800
43.064600 2.300200
43.104800 2.339000
43.145100 2.303700
43.185400 2.198800
43.225700 2.067500
43.265900 1.954700
43.306200 1.757600
43.346500 1.697700
43.386700 1.676600
43.427000 1.655600
43.467300 1.572000
43.507600 1.535100
43.547800 1.447200
43.588100 1.387200
43.628400 1.350100
43.668600 1.348700
43.708900 1.281200
43.749200 1.210800
43.789500 1.126800
43.829700 1.093300
43.870000 1.087600
43.910300 1.077000
43.950500 1.107200
43.990800 1.195000
44.031100 1.215300
44.071400 1.189000
44.111600 1.027800
44.151900 0.923100
44.192200 0.852000
44.232400 0.778700
44.272700 0.705400
44.313000 0.642400
44.353200 0.595800
44.393500 0.557300
44.433800 0.515800
44.474100 0.482300
44.514300 0.448000
44.554600 0.413900
44.594900 0.381600
44.635100 0.350700
44.675400 0.317800
44.715700 0.283600
44.756000 0.251100
44.796200 0.212300
44.836500 0.164200
44.876800 0.125900
44.917000 0.110600
44.957300 0.104500
44.997600 0.096800
45.037900 0.091200
45.078100 0.085800
45.118400 0.080600
45.158700 0.075500
45.198900 0.070700
45.239200 0.066100
45.279500 0.061700
45.319800 0.057300
45.360000 0.052600
45.400300 0.078100
45.440600 0.041400
45.480800 0.024100
45.521100 0.010600
45.561400 0.002500
45.601600 0.000100
45.641900 0.000000
45.682200 0.000000
45.722500 0.000000
45.762700 0.000000
45.803000 0.000000
45.843300 0.000000
45.883500 0.000000
45.923800 0.000000
45.964100 0.000000
46.004400 0.000000
46.044600 0.000000
46.084900 0.000000
46.125200 0.000000
46.165400 0.000000
46.205700 0.000000
46.246000 0.000000
46.286300 0.000000
46.326500 0.000000
46.366800 0.000000
46.407100 0.000000
46.447300 0.000000
46.487600 0.000000
46.527900 0.000000
46.568200 0.000000
46.608400 0.000000
46.648700 0.000000
46.689000 0.000000
46.729200 0.000000
46.769500 0.000000
46.809800 0.000000
46.850000 0.000000
46.890300 0.000000
46.930600 0.000000
46.970900 0.000000
47.011100 0.000000
47.051400 0.000000
47.091700 0.000000
47.131900 0.000000
47.172200 0.000000
47.212500 0.000000
47.252800 0.000000
47.293000 0.000000
47.333300 0.000000
47.373600 0.000000
47.413800 0.000000
47.454100 0.000000
47.494400 0.000000
47.534700 0.000000
47.574900 0.000000
47.615200 0.000000
47.655500 0.000000
47.695700 0.000000
47.736000 0.000000
47.776300 0.000000
47.816500 0.000000
47.856800 0.000000
47.897100 0.000000
47.937400 0.000000
47.977600 0.000000
48.017900 0.000000
48.058200 0.000000
48.098400 0.000000
48.138700 0.000000
48.179000 0.000000
48.219300 0.000000
48.259500 0.000000
48.299800 0.000000
48.340100 0.000000
48.380300 0.000000
48.420600 0.000000
48.460900 0.000000
48.501200 0.000000
48.541400 0.000000
48.581700 0.000000
48.622000 0.000000
48.662200 0.000000
48.702500 0.000000
48.742800 0.000000
48.783100 0.000000
48.823300 0.000000
48.863600 0.000000
48.903900 0.000000
48.944100 0.000000
48.984400 0.000000
49.024700 0.000000
49.064900 0.000000
49.105200 0.000000
49.145500 0.000000
49.185800 0.000000
49.226000 0.000000
49.266300 0.000000
49.306600 0.000000
49.346800 0.000000
49.387100 0.000000
49.427400 0.000000
49.467700 0.000000
e
