set title 'mp-588 - Density of States'
set xlabel 'Energy (eV)'
set ylabel 'DOS (states/eV)'
set grid
set xrange [-10:10]
set yrange [0:45.634]
set xzeroaxis lt -1
set terminal png size 800,600
set output 'mp-588_dos_gnuplot.png'
plot '-' using 1:2 with lines title 'DOS'
-25.752000 0.000000
-25.730200 0.000000
-25.708300 0.000000
-25.686400 0.000000
-25.664500 0.000000
-25.642600 0.000000
-25.620700 0.000000
-25.598800 0.000000
-25.576900 0.000000
-25.555000 0.000000
-25.533100 0.000000
-25.511300 0.000000
-25.489400 0.000000
-25.467500 0.000000
-25.445600 0.000000
-25.423700 0.000000
-25.401800 0.000000
-25.379900 0.000000
-25.358000 0.000000
-25.336100 0.000000
-25.314200 0.000000
-25.292400 0.000000
-25.270500 0.000000
-25.248600 0.000000
-25.226700 0.000000
-25.204800 0.000000
-25.182900 0.000000
-25.161000 0.000000
-25.139100 0.000000
-25.117200 0.000000
-25.095300 0.000000
-25.073400 0.000000
-25.051600 0.000000
-25.029700 0.000000
-25.007800 0.000000
-24.985900 0.000000
-24.964000 0.000000
-24.942100 0.000000
-24.920200 0.000000
-24.898300 0.000000
-24.876400 0.000000
-24.854500 0.000000
-24.832700 0.000000
-24.810800 0.000000
-24.788900 0.000000
-24.767000 0.000000
-24.745100 0.000000
-24.723200 0.000000
-24.701300 0.000000
-24.679400 0.000000
-24.657500 0.000000
-24.635600 0.000000
-24.613800 0.000000
-24.591900 0.000000
-24.570000 0.000000
-24.548100 0.000000
-24.526200 0.000000
-24.504300 0.000000
-24.482400 0.000000
-24.460500 0.000000
-24.438600 0.000000
-24.416700 0.000000
-24.394900 0.000000
-24.373000 0.000000
-24.351100 0.000000
-24.329200 0.000000
-24.307300 0.000000
-24.285400 0.000000
-24.263500 0.000000
-24.241600 0.000000
-24.219700 0.000000
-24.197800 0.000000
-24.176000 0.000000
-24.154100 0.000000
-24.132200 0.000000
-24.110300 0.000000
-24.088400 0.000000
-24.066500 0.000000
-24.044600 0.000000
-24.022700 0.000000
-24.000800 0.000000
-23.978900 0.000000
-23.957100 0.000000
-23.935200 0.000000
-23.913300 0.000000
-23.891400 0.000000
-23.869500 0.000000
-23.847600 0.000000
-23.825700 0.000000
-23.803800 0.000000
-23.781900 0.000000
-23.760000 0.015900
-23.738200 0.717900
-23.716300 1.112500
-23.694400 1.418300
-23.672500 1.691000
-23.650600 1.939500
-23.628700 2.218100
-23.606800 2.456700
-23.584900 2.718100
-23.563000 2.997300
-23.541100 3.279200
-23.519300 3.586400
-23.497400 3.916000
-23.475500 4.293200
-23.453600 4.732300
-23.431700 5.255400
-23.409800 5.944100
-23.387900 7.364100
-23.366000 7.937400
-23.344100 8.395200
-23.322200 7.925100
-23.300400 7.736100
-23.278500 4.268000
-23.256600 3.859300
-23.234700 10.810700
-23.212800 7.285600
-23.190900 6.659400
-23.169000 6.612000
-23.147100 6.449400
-23.125200 6.218200
-23.103300 6.116200
-23.081500 5.908000
-23.059600 5.598100
-23.037700 5.314300
-23.015800 4.151200
-22.993900 3.413900
-22.972000 3.015300
-22.950100 2.491900
-22.928200 2.162400
-22.906300 16.611000
-22.884400 30.015000
-22.862600 53.979800
-22.840700 54.773100
-22.818800 60.842000
-22.796900 67.937500
-22.775000 43.319600
-22.753100 50.751600
-22.731200 0.000000
-22.709300 0.000000
-22.687400 0.000000
-22.665500 0.000000
-22.643700 0.000000
-22.621800 0.000000
-22.599900 0.000000
-22.578000 0.000000
-22.556100 0.000000
-22.534200 0.000000
-22.512300 0.000000
-22.490400 0.000000
-22.468500 0.000000
-22.446600 0.000000
-22.424800 0.000000
-22.402900 0.000000
-22.381000 0.000000
-22.359100 0.000000
-22.337200 0.000000
-22.315300 0.000000
-22.293400 0.000000
-22.271500 0.000000
-22.249600 0.000000
-22.227700 0.000000
-22.205800 0.000000
-22.184000 0.000000
-22.162100 0.000000
-22.140200 0.000000
-22.118300 0.000000
-22.096400 0.000000
-22.074500 0.000000
-22.052600 0.000000
-22.030700 0.000000
-22.008800 0.000000
-21.986900 0.000000
-21.965100 0.000000
-21.943200 0.000000
-21.921300 0.000000
-21.899400 0.000000
-21.877500 0.000000
-21.855600 0.000000
-21.833700 0.000000
-21.811800 0.000000
-21.789900 0.000000
-21.768000 0.000000
-21.746200 0.000000
-21.724300 0.000000
-21.702400 0.000000
-21.680500 0.000000
-21.658600 0.000000
-21.636700 0.000000
-21.614800 0.000000
-21.592900 0.000000
-21.571000 0.000000
-21.549100 0.000000
-21.527300 0.000000
-21.505400 0.000000
-21.483500 0.000000
-21.461600 0.000000
-21.439700 0.000000
-21.417800 0.000000
-21.395900 0.000000
-21.374000 0.000000
-21.352100 0.000000
-21.330200 0.000000
-21.308400 0.000000
-21.286500 0.000000
-21.264600 0.000000
-21.242700 0.000000
-21.220800 0.000000
-21.198900 0.000000
-21.177000 0.000000
-21.155100 0.000000
-21.133200 0.000000
-21.111300 0.000000
-21.089500 0.000000
-21.067600 0.000000
-21.045700 0.000000
-21.023800 0.000000
-21.001900 0.000000
-20.980000 0.000000
-20.958100 0.000000
-20.936200 0.000000
-20.914300 0.000000
-20.892400 0.000000
-20.870600 0.000000
-20.848700 0.000000
-20.826800 0.000000
-20.804900 0.000000
-20.783000 0.000000
-20.761100 0.000000
-20.739200 0.000000
-20.717300 0.000000
-20.695400 0.000000
-20.673500 0.000000
-20.651700 0.000000
-20.629800 0.000000
-20.607900 0.000000
-20.586000 0.000000
-20.564100 0.000000
-20.542200 0.000000
-20.520300 0.000000
-20.498400 0.000000
-20.476500 0.000000
-20.454600 0.000000
-20.432800 0.000000
-20.410900 0.000000
-20.389000 0.000000
-20.367100 0.000000
-20.345200 0.000000
-20.323300 0.000000
-20.301400 0.000000
-20.279500 0.000000
-20.257600 0.000000
-20.235700 0.000000
-20.213900 0.000000
-20.192000 0.000000
-20.170100 0.000000
-20.148200 0.000000
-20.126300 0.000000
-20.104400 0.000000
-20.082500 0.000000
-20.060600 0.000000
-20.038700 0.000000
-20.016800 0.000000
-19.995000 0.000000
-19.973100 0.000000
-19.951200 0.000000
-19.929300 0.000000
-19.907400 0.000000
-19.885500 0.000000
-19.863600 0.000000
-19.841700 0.000000
-19.819800 0.000000
-19.797900 0.000000
-19.776100 0.000000
-19.754200 0.000000
-19.732300 0.000000
-19.710400 0.000000
-19.688500 0.000000
-19.666600 0.000000
-19.644700 0.000000
-19.622800 0.000000
-19.600900 0.000000
-19.579000 0.000000
-19.557200 0.000000
-19.535300 0.000000
-19.513400 0.000000
-19.491500 0.000000
-19.469600 0.000000
-19.447700 0.000000
-19.425800 0.000000
-19.403900 0.000000
-19.382000 0.000000
-19.360100 0.000000
-19.338200 0.000000
-19.316400 0.000000
-19.294500 0.000000
-19.272600 0.000000
-19.250700 0.000000
-19.228800 0.000000
-19.206900 0.000000
-19.185000 0.000000
-19.163100 0.000000
-19.141200 0.000000
-19.119300 0.000000
-19.097500 0.000000
-19.075600 0.000000
-19.053700 0.000000
-19.031800 0.000000
-19.009900 0.000000
-18.988000 0.000000
-18.966100 0.000000
-18.944200 0.000000
-18.922300 0.000000
-18.900400 0.000000
-18.878600 0.000000
-18.856700 0.000000
-18.834800 0.000000
-18.812900 0.000000
-18.791000 0.000000
-18.769100 0.000000
-18.747200 0.000000
-18.725300 0.000000
-18.703400 0.000000
-18.681500 0.000000
-18.659700 0.000000
-18.637800 0.000000
-18.615900 0.000000
-18.594000 0.000000
-18.572100 0.000000
-18.550200 0.000000
-18.528300 0.000000
-18.506400 0.000000
-18.484500 0.000000
-18.462600 0.000000
-18.440800 0.000000
-18.418900 0.000000
-18.397000 0.000000
-18.375100 0.000000
-18.353200 0.000000
-18.331300 0.000000
-18.309400 0.000000
-18.287500 0.000000
-18.265600 0.000000
-18.243700 0.000000
-18.221900 0.000000
-18.200000 0.000000
-18.178100 0.000000
-18.156200 0.000000
-18.134300 0.000000
-18.112400 0.000000
-18.090500 0.000000
-18.068600 0.000000
-18.046700 0.000000
-18.024800 0.000000
-18.003000 0.000000
-17.981100 0.000000
-17.959200 0.000000
-17.937300 0.000000
-17.915400 0.000000
-17.893500 0.000000
-17.871600 0.000000
-17.849700 0.000000
-17.827800 0.000000
-17.805900 0.000000
-17.784100 0.000000
-17.762200 0.000000
-17.740300 0.000000
-17.718400 0.000000
-17.696500 0.000000
-17.674600 0.000000
-17.652700 0.000000
-17.630800 0.000000
-17.608900 0.000000
-17.587000 0.000000
-17.565200 0.000000
-17.543300 0.000000
-17.521400 0.000000
-17.499500 0.000000
-17.477600 0.000000
-17.455700 0.000000
-17.433800 0.000000
-17.411900 0.000000
-17.390000 0.000000
-17.368100 0.000000
-17.346300 0.000000
-17.324400 0.000000
-17.302500 0.000000
-17.280600 0.000000
-17.258700 0.000000
-17.236800 0.000000
-17.214900 0.000000
-17.193000 0.000000
-17.171100 0.000000
-17.149200 0.000000
-17.127400 0.000000
-17.105500 0.000000
-17.083600 0.000000
-17.061700 0.000000
-17.039800 0.000000
-17.017900 0.000000
-16.996000 0.000000
-16.974100 0.000000
-16.952200 0.000000
-16.930300 0.000000
-16.908500 0.000000
-16.886600 0.000000
-16.864700 0.000000
-16.842800 0.000000
-16.820900 0.000000
-16.799000 0.000000
-16.777100 0.000000
-16.755200 0.000000
-16.733300 0.000000
-16.711400 0.000000
-16.689600 0.000000
-16.667700 0.000000
-16.645800 0.000000
-16.623900 0.000000
-16.602000 0.000000
-16.580100 0.000000
-16.558200 0.000000
-16.536300 0.000000
-16.514400 0.000000
-16.492500 0.000000
-16.470600 0.000000
-16.448800 0.000000
-16.426900 0.000000
-16.405000 0.000000
-16.383100 0.000000
-16.361200 0.000000
-16.339300 0.000000
-16.317400 0.000000
-16.295500 0.000000
-16.273600 0.000000
-16.251700 0.000000
-16.229900 0.000000
-16.208000 0.000000
-16.186100 0.000000
-16.164200 0.000000
-16.142300 0.000000
-16.120400 0.000000
-16.098500 0.000000
-16.076600 0.000000
-16.054700 0.000000
-16.032800 0.000000
-16.011000 0.000000
-15.989100 0.000000
-15.967200 0.000000
-15.945300 0.000000
-15.923400 0.000000
-15.901500 0.000000
-15.879600 0.000000
-15.857700 0.000000
-15.835800 0.000000
-15.813900 0.000000
-15.792100 0.000000
-15.770200 0.000000
-15.748300 0.000000
-15.726400 0.000000
-15.704500 0.000000
-15.682600 0.000000
-15.660700 0.000000
-15.638800 0.000000
-15.616900 0.000000
-15.595000 0.000000
-15.573200 0.000000
-15.551300 0.000000
-15.529400 0.000000
-15.507500 0.000000
-15.485600 0.000000
-15.463700 0.000000
-15.441800 0.000000
-15.419900 0.000000
-15.398000 0.000000
-15.376100 0.000000
-15.354300 0.000000
-15.332400 0.000000
-15.310500 0.000000
-15.288600 0.000000
-15.266700 0.000000
-15.244800 0.000000
-15.222900 0.000000
-15.201000 0.000000
-15.179100 0.000000
-15.157200 0.000000
-15.135400 0.000000
-15.113500 0.000000
-15.091600 0.000000
-15.069700 0.000000
-15.047800 0.000000
-15.025900 0.000000
-15.004000 0.000000
-14.982100 0.000000
-14.960200 0.000000
-14.938300 0.000000
-14.916500 0.000000
-14.894600 0.000000
-14.872700 0.000000
-14.850800 0.000000
-14.828900 0.000000
-14.807000 0.000000
-14.785100 0.000000
-14.763200 0.000000
-14.741300 0.000000
-14.719400 0.000000
-14.697600 0.000000
-14.675700 0.000000
-14.653800 0.000000
-14.631900 0.000000
-14.610000 0.000000
-14.588100 0.000000
-14.566200 0.000000
-14.544300 0.000000
-14.522400 0.000000
-14.500500 0.000000
-14.478700 0.000000
-14.456800 0.000000
-14.434900 0.000000
-14.413000 0.000000
-14.391100 0.000000
-14.369200 0.000000
-14.347300 0.000000
-14.325400 0.000000
-14.303500 0.176900
-14.281600 9.356000
-14.259800 11.770400
-14.237900 10.975000
-14.216000 12.710900
-14.194100 12.500500
-14.172200 13.093300
-14.150300 13.535300
-14.128400 14.613600
-14.106500 11.815100
-14.084600 10.617200
-14.062700 9.438400
-14.040900 8.581200
-14.019000 8.308200
-13.997100 9.091700
-13.975200 10.102400
-13.953300 9.157300
-13.931400 2.514600
-13.909500 72.911100
-13.887600 95.554600
-13.865700 145.882000
-13.843800 148.687400
-13.822000 89.680000
-13.800100 11.644600
-13.778200 9.823200
-13.756300 10.101600
-13.734400 7.804800
-13.712500 6.676700
-13.690600 5.964700
-13.668700 10.089000
-13.646800 8.512700
-13.624900 7.945400
-13.603000 7.482700
-13.581200 7.234000
-13.559300 7.393100
-13.537400 7.295500
-13.515500 6.934800
-13.493600 6.847200
-13.471700 7.212400
-13.449800 6.474300
-13.427900 3.102200
-13.406000 0.000000
-13.384100 0.000000
-13.362300 0.000000
-13.340400 0.000000
-13.318500 0.000000
-13.296600 0.000000
-13.274700 0.000000
-13.252800 0.000000
-13.230900 0.000000
-13.209000 0.000000
-13.187100 0.000000
-13.165200 0.000000
-13.143400 0.000000
-13.121500 0.000000
-13.099600 0.000000
-13.077700 0.000000
-13.055800 0.000000
-13.033900 0.000000
-13.012000 0.000000
-12.990100 0.000000
-12.968200 0.000000
-12.946300 0.000000
-12.924500 0.000000
-12.902600 0.000000
-12.880700 0.000000
-12.858800 0.000000
-12.836900 0.000000
-12.815000 0.000000
-12.793100 0.000000
-12.771200 0.000000
-12.749300 0.000000
-12.727400 0.000000
-12.705600 0.000000
-12.683700 0.000000
-12.661800 0.000000
-12.639900 0.000000
-12.618000 0.000000
-12.596100 0.000000
-12.574200 0.000000
-12.552300 0.000000
-12.530400 0.000000
-12.508500 0.000000
-12.486700 0.000000
-12.464800 0.000000
-12.442900 0.000000
-12.421000 0.000000
-12.399100 0.000000
-12.377200 0.000000
-12.355300 0.000000
-12.333400 0.000000
-12.311500 0.000000
-12.289600 0.000000
-12.267800 0.000000
-12.245900 0.000000
-12.224000 0.000000
-12.202100 0.000000
-12.180200 0.000000
-12.158300 0.000000
-12.136400 0.000000
-12.114500 0.000000
-12.092600 0.000000
-12.070700 0.000000
-12.048900 0.000000
-12.027000 0.000000
-12.005100 0.000000
-11.983200 0.000000
-11.961300 0.000000
-11.939400 0.000000
-11.917500 0.000000
-11.895600 0.000000
-11.873700 0.000000
-11.851800 0.000000
-11.830000 0.000000
-11.808100 0.000000
-11.786200 0.000000
-11.764300 0.000000
-11.742400 0.000000
-11.720500 0.000000
-11.698600 0.000000
-11.676700 0.000000
-11.654800 0.000000
-11.632900 0.000000
-11.611100 0.000000
-11.589200 0.000000
-11.567300 0.000000
-11.545400 0.000000
-11.523500 0.000000
-11.501600 0.000000
-11.479700 0.000000
-11.457800 0.000000
-11.435900 0.000000
-11.414000 0.000000
-11.392200 0.000000
-11.370300 0.000000
-11.348400 0.000000
-11.326500 0.000000
-11.304600 0.000000
-11.282700 0.000000
-11.260800 0.000000
-11.238900 0.000000
-11.217000 0.000000
-11.195100 0.000000
-11.173300 0.000000
-11.151400 0.000000
-11.129500 0.000000
-11.107600 0.000000
-11.085700 0.000000
-11.063800 0.000000
-11.041900 0.000000
-11.020000 0.000000
-10.998100 0.000000
-10.976200 0.000000
-10.954400 0.000000
-10.932500 0.000000
-10.910600 0.000000
-10.888700 0.000000
-10.866800 0.000000
-10.844900 0.000000
-10.823000 0.000000
-10.801100 0.000000
-10.779200 0.000000
-10.757300 0.000000
-10.735400 0.000000
-10.713600 0.000000
-10.691700 0.000000
-10.669800 0.000000
-10.647900 0.000000
-10.626000 0.000000
-10.604100 0.000000
-10.582200 0.000000
-10.560300 0.000000
-10.538400 0.000000
-10.516500 0.000000
-10.494700 0.000000
-10.472800 0.000000
-10.450900 0.000000
-10.429000 0.000000
-10.407100 0.000000
-10.385200 0.000000
-10.363300 0.000000
-10.341400 0.000000
-10.319500 0.000000
-10.297600 0.000000
-10.275800 0.000000
-10.253900 0.000000
-10.232000 0.000000
-10.210100 0.000000
-10.188200 0.000000
-10.166300 0.000000
-10.144400 0.000000
-10.122500 0.000000
-10.100600 0.000000
-10.078700 0.000000
-10.056900 0.000000
-10.035000 0.000000
-10.013100 0.000000
-9.991200 0.000000
-9.969300 0.000000
-9.947400 0.000000
-9.925500 0.000000
-9.903600 0.000000
-9.881700 0.000000
-9.859800 0.000000
-9.838000 0.000000
-9.816100 0.000000
-9.794200 0.000000
-9.772300 0.000000
-9.750400 0.000000
-9.728500 0.000000
-9.706600 0.000000
-9.684700 0.000000
-9.662800 0.000000
-9.640900 0.000000
-9.619100 0.000000
-9.597200 0.000000
-9.575300 0.000000
-9.553400 0.000000
-9.531500 0.000000
-9.509600 0.000000
-9.487700 0.000000
-9.465800 0.000000
-9.443900 0.000000
-9.422000 0.000000
-9.400200 0.000000
-9.378300 0.018200
-9.356400 0.194300
-9.334500 0.223300
-9.312600 0.284600
-9.290700 0.350200
-9.268800 0.387700
-9.246900 0.410500
-9.225000 0.447500
-9.203100 0.486600
-9.181300 0.526400
-9.159400 0.555100
-9.137500 0.576900
-9.115600 0.600800
-9.093700 0.626500
-9.071800 0.654300
-9.049900 0.684400
-9.028000 0.713600
-9.006100 0.736900
-8.984200 0.759000
-8.962400 0.779700
-8.940500 0.801500
-8.918600 0.824100
-8.896700 0.848100
-8.874800 0.873400
-8.852900 0.899300
-8.831000 0.922500
-8.809100 0.945200
-8.787200 0.967000
-8.765300 0.986700
-8.743500 1.008200
-8.721600 1.030500
-8.699700 1.053200
-8.677800 1.076700
-8.655900 1.101000
-8.634000 1.126200
-8.612100 1.151000
-8.590200 1.173300
-8.568300 1.197600
-8.546400 1.221100
-8.524600 1.243800
-8.502700 1.267300
-8.480800 1.292200
-8.458900 1.318300
-8.437000 1.345100
-8.415100 1.372500
-8.393200 1.400900
-8.371300 1.430900
-8.349400 1.463300
-8.327500 1.498800
-8.305700 1.544700
-8.283800 1.597200
-8.261900 1.642200
-8.240000 1.683900
-8.218100 1.753900
-8.196200 1.921800
-8.174300 1.809500
-8.152400 1.774500
-8.130500 1.772300
-8.108600 1.783300
-8.086800 1.811000
-8.064900 1.938000
-8.043000 2.163500
-8.021100 2.142200
-7.999200 2.234400
-7.977300 2.435100
-7.955400 2.621900
-7.933500 2.597800
-7.911600 2.502000
-7.889700 2.386900
-7.867800 2.381200
-7.846000 2.409700
-7.824100 2.286600
-7.802200 2.200500
-7.780300 2.163600
-7.758400 2.063500
-7.736500 2.227300
-7.714600 2.378700
-7.692700 2.250400
-7.670800 2.211500
-7.648900 2.189200
-7.627100 2.245600
-7.605200 2.339700
-7.583300 2.286600
-7.561400 2.164500
-7.539500 2.134300
-7.517600 2.217300
-7.495700 2.183400
-7.473800 2.105800
-7.451900 2.052500
-7.430000 2.001100
-7.408200 1.968600
-7.386300 1.933600
-7.364400 1.919000
-7.342500 1.903200
-7.320600 1.882800
-7.298700 1.832900
-7.276800 1.808600
-7.254900 1.781600
-7.233000 1.751700
-7.211100 1.724200
-7.189300 1.703200
-7.167400 1.676200
-7.145500 1.653200
-7.123600 1.632200
-7.101700 1.608800
-7.079800 1.577500
-7.057900 1.557500
-7.036000 1.524600
-7.014100 1.482700
-6.992200 1.444400
-6.970400 1.418900
-6.948500 1.391900
-6.926600 1.362900
-6.904700 1.320500
-6.882800 1.272600
-6.860900 1.244900
-6.839000 1.238800
-6.817100 1.213500
-6.795200 1.189000
-6.773300 1.137100
-6.751500 1.082900
-6.729600 1.021300
-6.707700 0.941700
-6.685800 0.830500
-6.663900 0.862800
-6.642000 0.764600
-6.620100 0.653100
-6.598200 0.680600
-6.576300 0.723100
-6.554400 0.782200
-6.532600 0.985600
-6.510700 1.080700
-6.488800 1.232800
-6.466900 1.502300
-6.445000 1.906700
-6.423100 2.260200
-6.401200 2.704000
-6.379300 3.537600
-6.357400 3.902000
-6.335500 4.362700
-6.313700 4.853700
-6.291800 5.047400
-6.269900 5.177600
-6.248000 5.226400
-6.226100 5.525300
-6.204200 5.884900
-6.182300 5.992300
-6.160400 5.509600
-6.138500 4.825700
-6.116600 4.886700
-6.094800 4.635000
-6.072900 4.818600
-6.051000 4.969800
-6.029100 4.921300
-6.007200 4.624600
-5.985300 4.417100
-5.963400 4.219000
-5.941500 4.169100
-5.919600 4.040000
-5.897700 3.981100
-5.875900 3.923200
-5.854000 3.853000
-5.832100 3.763200
-5.810200 3.676800
-5.788300 3.620700
-5.766400 3.590900
-5.744500 3.570300
-5.722600 3.553700
-5.700700 3.537200
-5.678800 3.496400
-5.657000 3.441800
-5.635100 3.404300
-5.613200 3.405200
-5.591300 3.384700
-5.569400 3.391100
-5.547500 3.360200
-5.525600 3.194600
-5.503700 3.117100
-5.481800 2.860400
-5.459900 2.631000
-5.438100 2.297100
-5.416200 1.975200
-5.394300 1.851900
-5.372400 1.847500
-5.350500 1.946200
-5.328600 2.169400
-5.306700 2.483600
-5.284800 2.951400
-5.262900 3.805900
-5.241000 4.184500
-5.219200 3.951100
-5.197300 3.910800
-5.175400 3.979200
-5.153500 4.298100
-5.131600 3.511200
-5.109700 3.086300
-5.087800 2.576100
-5.065900 2.060500
-5.044000 1.789200
-5.022100 1.675500
-5.000200 1.540500
-4.978400 1.448700
-4.956500 1.674700
-4.934600 1.653800
-4.912700 1.717900
-4.890800 1.771500
-4.868900 1.909600
-4.847000 2.257700
-4.825100 2.622300
-4.803200 3.143800
-4.781300 4.088300
-4.759500 4.660000
-4.737600 5.901100
-4.715700 9.563300
-4.693800 13.052600
-4.671900 13.379400
-4.650000 12.263100
-4.628100 11.522300
-4.606200 9.794200
-4.584300 8.194200
-4.562400 11.298900
-4.540600 15.781600
-4.518700 18.269700
-4.496800 14.468900
-4.474900 13.680700
-4.453000 11.179000
-4.431100 10.933600
-4.409200 10.936100
-4.387300 11.128800
-4.365400 9.898500
-4.343500 7.870200
-4.321700 6.906400
-4.299800 7.490100
-4.277900 6.451800
-4.256000 7.496700
-4.234100 6.976900
-4.212200 6.180200
-4.190300 4.593500
-4.168400 1.685700
-4.146500 1.529400
-4.124600 2.104700
-4.102800 2.976900
-4.080900 4.144600
-4.059000 5.306600
-4.037100 6.022400
-4.015200 7.133200
-3.993300 9.728700
-3.971400 12.922600
-3.949500 11.303100
-3.927600 10.387400
-3.905700 8.870900
-3.883900 7.967300
-3.862000 7.221200
-3.840100 7.099800
-3.818200 7.229800
-3.796300 11.697500
-3.774400 13.714800
-3.752500 17.078500
-3.730600 14.295400
-3.708700 11.263400
-3.686800 10.730300
-3.665000 10.764900
-3.643100 13.261300
-3.621200 13.671900
-3.599300 13.319800
-3.577400 15.329600
-3.555500 16.530200
-3.533600 14.350800
-3.511700 11.528100
-3.489800 10.778600
-3.467900 12.030300
-3.446100 13.718800
-3.424200 15.967400
-3.402300 16.862700
-3.380400 19.286500
-3.358500 11.986500
-3.336600 9.948000
-3.314700 10.421000
-3.292800 14.524400
-3.270900 16.458400
-3.249000 20.772600
-3.227200 27.871400
-3.205300 30.612200
-3.183400 16.647300
-3.161500 9.661900
-3.139600 29.006500
-3.117700 27.733100
-3.095800 27.112100
-3.073900 18.475900
-3.052000 41.485800
-3.030100 35.577200
-3.008300 22.292400
-2.986400 19.070000
-2.964500 14.999700
-2.942600 15.560600
-2.920700 20.464100
-2.898800 16.624000
-2.876900 15.855500
-2.855000 15.988800
-2.833100 16.669300
-2.811200 11.773400
-2.789400 6.992600
-2.767500 5.641700
-2.745600 0.000000
-2.723700 0.000000
-2.701800 0.000000
-2.679900 0.000000
-2.658000 0.000000
-2.636100 0.000000
-2.614200 0.000000
-2.592300 0.000000
-2.570500 0.000000
-2.548600 0.000000
-2.526700 0.000000
-2.504800 0.000000
-2.482900 0.000000
-2.461000 0.000000
-2.439100 0.000000
-2.417200 0.000000
-2.395300 0.000000
-2.373400 0.000000
-2.351500 0.000000
-2.329700 0.000000
-2.307800 0.000000
-2.285900 0.000000
-2.264000 0.000000
-2.242100 0.000000
-2.220200 0.000000
-2.198300 0.000000
-2.176400 0.000000
-2.154500 0.000000
-2.132600 0.000000
-2.110800 0.000000
-2.088900 0.000000
-2.067000 0.000000
-2.045100 0.000000
-2.023200 0.000000
-2.001300 0.000000
-1.979400 0.000000
-1.957500 0.000000
-1.935600 0.000000
-1.913700 0.000000
-1.891900 0.000000
-1.870000 0.000000
-1.848100 0.000000
-1.826200 0.000000
-1.804300 0.000000
-1.782400 0.000000
-1.760500 0.000000
-1.738600 0.000000
-1.716700 0.000000
-1.694800 0.000000
-1.673000 0.000000
-1.651100 0.000000
-1.629200 0.000000
-1.607300 0.000000
-1.585400 0.000000
-1.563500 0.000000
-1.541600 0.000000
-1.519700 0.000000
-1.497800 0.000000
-1.475900 0.000000
-1.454100 0.000000
-1.432200 0.000000
-1.410300 0.000000
-1.388400 0.000000
-1.366500 0.000000
-1.344600 0.000000
-1.322700 0.000000
-1.300800 0.000000
-1.278900 0.000000
-1.257000 0.000000
-1.235200 0.000000
-1.213300 0.000000
-1.191400 0.000000
-1.169500 0.000000
-1.147600 0.000000
-1.125700 0.000000
-1.103800 0.000000
-1.081900 0.000000
-1.060000 0.000000
-1.038100 0.000000
-1.016300 0.000000
-0.994400 0.000000
-0.972500 0.000000
-0.950600 0.000000
-0.928700 0.000000
-0.906800 0.000000
-0.884900 0.000000
-0.863000 0.000000
-0.841100 0.000000
-0.819200 0.000000
-0.797400 0.000000
-0.775500 0.000000
-0.753600 0.000000
-0.731700 0.000000
-0.709800 0.000000
-0.687900 0.000000
-0.666000 0.000000
-0.644100 0.000000
-0.622200 0.000000
-0.600300 0.000000
-0.578500 0.000000
-0.556600 0.000000
-0.534700 0.000000
-0.512800 0.000000
-0.490900 0.000000
-0.469000 0.000000
-0.447100 0.000000
-0.425200 0.000000
-0.403300 0.000000
-0.381400 0.000000
-0.359600 0.000000
-0.337700 0.000000
-0.315800 0.000000
-0.293900 0.000000
-0.272000 0.000000
-0.250100 0.000000
-0.228200 0.000000
-0.206300 0.000000
-0.184400 0.000000
-0.162500 0.000000
-0.140700 0.000000
-0.118800 0.000000
-0.096900 0.000000
-0.075000 0.000000
-0.053100 0.000000
-0.031200 0.000000
-0.009300 0.000000
0.012600 0.000000
0.034500 0.000000
0.056400 0.000000
0.078200 0.000000
0.100100 0.000000
0.122000 0.000000
0.143900 0.000000
0.165800 0.000000
0.187700 0.000000
0.209600 0.000000
0.231500 0.000000
0.253400 0.000000
0.275300 0.000000
0.297100 0.000000
0.319000 0.000000
0.340900 0.000000
0.362800 0.000000
0.384700 0.000000
0.406600 0.000000
0.428500 0.000000
0.450400 0.000000
0.472300 0.000000
0.494200 0.000000
0.516100 0.000000
0.537900 0.000000
0.559800 0.000000
0.581700 0.000000
0.603600 0.000000
0.625500 0.000000
0.647400 0.000000
0.669300 0.000000
0.691200 0.000000
0.713100 0.000000
0.735000 0.000000
0.756800 0.000000
0.778700 0.000000
0.800600 0.000000
0.822500 0.000000
0.844400 0.000000
0.866300 0.000000
0.888200 0.000000
0.910100 0.000000
0.932000 0.000000
0.953900 0.000000
0.975700 0.000000
0.997600 0.000000
1.019500 0.000000
1.041400 0.000000
1.063300 0.000000
1.085200 0.000000
1.107100 0.000000
1.129000 0.000000
1.150900 0.000000
1.172800 0.000000
1.194600 0.000000
1.216500 0.000000
1.238400 0.000000
1.260300 0.000000
1.282200 0.000000
1.304100 0.000000
1.326000 0.000000
1.347900 0.000000
1.369800 0.000000
1.391700 0.000000
1.413500 0.000000
1.435400 0.000000
1.457300 0.000000
1.479200 0.000000
1.501100 0.000000
1.523000 0.000000
1.544900 0.000000
1.566800 0.000000
1.588700 0.000000
1.610600 0.000000
1.632400 0.000000
1.654300 0.000000
1.676200 0.000000
1.698100 0.000000
1.720000 0.000000
1.741900 0.000000
1.763800 0.000000
1.785700 0.000000
1.807600 0.000000
1.829500 0.000000
1.851300 0.000000
1.873200 0.000000
1.895100 0.000000
1.917000 0.000000
1.938900 0.000000
1.960800 0.000400
1.982700 0.007500
2.004600 0.023000
2.026500 0.047100
2.048400 0.079800
2.070200 0.074600
2.092100 0.079500
2.114000 0.088000
2.135900 0.096700
2.157800 0.105900
2.179700 0.115300
2.201600 0.125100
2.223500 0.134600
2.245400 0.142400
2.267300 0.148300
2.289100 0.152500
2.311000 0.156600
2.332900 0.162800
2.354800 0.169400
2.376700 0.176100
2.398600 0.182900
2.420500 0.189700
2.442400 0.196700
2.464300 0.203700
2.486200 0.210800
2.508000 0.218000
2.529900 0.224600
2.551800 0.229500
2.573700 0.235400
2.595600 0.241400
2.617500 0.247400
2.639400 0.253400
2.661300 0.259300
2.683200 0.265400
2.705100 0.271500
2.726900 0.277800
2.748800 0.284200
2.770700 0.290800
2.792600 0.297400
2.814500 0.304000
2.836400 0.310700
2.858300 0.317500
2.880200 0.324200
2.902100 0.330800
2.924000 0.337200
2.945800 0.343500
2.967700 0.350000
2.989600 0.356600
3.011500 0.363300
3.033400 0.370000
3.055300 0.376800
3.077200 0.383600
3.099100 0.390400
3.121000 0.397300
3.142900 0.404300
3.164700 0.411300
3.186600 0.418300
3.208500 0.425400
3.230400 0.432600
3.252300 0.439800
3.274200 0.447100
3.296100 0.454400
3.318000 0.461900
3.339900 0.469600
3.361800 0.477300
3.383700 0.485200
3.405500 0.493100
3.427400 0.501100
3.449300 0.509100
3.471200 0.517200
3.493100 0.525400
3.515000 0.533600
3.536900 0.541900
3.558800 0.550200
3.580700 0.558700
3.602600 0.567200
3.624400 0.575700
3.646300 0.584400
3.668200 0.593100
3.690100 0.601900
3.712000 0.610700
3.733900 0.619700
3.755800 0.628800
3.777700 0.638200
3.799600 0.648200
3.821500 0.658600
3.843300 0.669200
3.865200 0.679800
3.887100 0.690500
3.909000 0.701400
3.930900 0.712500
3.952800 0.723800
3.974700 0.735300
3.996600 0.746900
4.018500 0.758800
4.040400 0.770900
4.062200 0.783100
4.084100 0.795600
4.106000 0.808400
4.127900 0.821400
4.149800 0.834600
4.171700 0.848100
4.193600 0.862000
4.215500 0.876200
4.237400 0.890800
4.259300 0.907000
4.281100 0.924200
4.303000 0.943700
4.324900 0.964300
4.346800 0.986300
4.368700 1.009600
4.390600 1.034200
4.412500 1.062000
4.434400 1.096600
4.456300 1.134600
4.478200 1.175800
4.500000 1.219400
4.521900 1.266600
4.543800 1.349600
4.565700 1.461700
4.587600 1.549100
4.609500 1.611300
4.631400 1.569400
4.653300 1.537300
4.675200 1.507000
4.697100 1.428700
4.718900 1.364800
4.740800 1.345900
4.762700 1.361900
4.784600 1.405400
4.806500 1.411600
4.828400 1.453900
4.850300 1.532400
4.872200 1.521000
4.894100 1.382300
4.916000 1.269600
4.937800 1.162100
4.959700 1.107500
4.981600 1.074800
5.003500 1.076600
5.025400 1.109400
5.047300 1.153900
5.069200 1.185000
5.091100 1.206400
5.113000 1.176800
5.134900 1.183100
5.156700 1.031900
5.178600 0.856500
5.200500 0.827000
5.222400 1.066400
5.244300 1.348500
5.266200 1.662700
5.288100 1.817400
5.310000 1.752600
5.331900 1.599000
5.353800 1.477900
5.375600 1.384000
5.397500 1.339300
5.419400 1.371600
5.441300 1.306800
5.463200 1.277400
5.485100 1.253700
5.507000 1.235400
5.528900 1.220800
5.550800 1.209500
5.572700 1.201200
5.594500 1.195300
5.616400 1.190700
5.638300 1.184300
5.660200 1.179500
5.682100 1.175100
5.704000 1.172300
5.725900 1.167400
5.747800 1.158400
5.769700 1.150300
5.791600 1.142800
5.813400 1.131100
5.835300 1.121200
5.857200 1.112900
5.879100 1.106100
5.901000 1.100200
5.922900 1.094500
5.944800 1.088700
5.966700 1.082500
5.988600 1.075100
6.010500 1.066000
6.032300 1.050500
6.054200 1.044600
6.076100 1.045100
6.098000 1.041700
6.119900 1.036000
6.141800 1.029700
6.163700 1.022300
6.185600 1.013600
6.207500 1.002800
6.229400 0.990300
6.251300 0.975400
6.273100 0.961200
6.295000 0.947500
6.316900 0.948200
6.338800 0.954100
6.360700 0.961300
6.382600 0.969700
6.404500 0.965600
6.426400 0.929200
6.448300 0.877300
6.470200 0.819900
6.492000 0.767800
6.513900 0.721000
6.535800 0.687400
6.557700 0.657200
6.579600 0.620800
6.601500 0.587600
6.623400 0.570600
6.645300 0.555500
6.667200 0.540500
6.689100 0.525600
6.710900 0.510600
6.732800 0.495200
6.754700 0.479100
6.776600 0.462400
6.798500 0.445100
6.820400 0.419800
6.842300 0.397700
6.864200 0.377100
6.886100 0.362600
6.908000 0.352600
6.929800 0.343800
6.951700 0.335000
6.973600 0.326300
6.995500 0.317700
7.017400 0.309100
7.039300 0.300600
7.061200 0.292200
7.083100 0.283800
7.105000 0.274800
7.126900 0.264800
7.148700 0.253500
7.170600 0.241700
7.192500 0.230900
7.214400 0.220700
7.236300 0.209100
7.258200 0.197800
7.280100 0.190900
7.302000 0.185000
7.323900 0.179300
7.345800 0.173500
7.367600 0.167900
7.389500 0.162300
7.411400 0.156800
7.433300 0.151300
7.455200 0.146000
7.477100 0.140600
7.499000 0.134900
7.520900 0.128800
7.542800 0.122100
7.564700 0.114900
7.586500 0.107600
7.608400 0.101000
7.630300 0.095000
7.652200 0.089800
7.674100 0.085200
7.696000 0.081000
7.717900 0.076900
7.739800 0.072900
7.761700 0.069000
7.783600 0.065100
7.805400 0.061300
7.827300 0.057500
7.849200 0.053800
7.871100 0.050100
7.893000 0.046500
7.914900 0.042900
7.936800 0.040400
7.958700 0.037500
7.980600 0.030900
8.002500 0.024700
8.024300 0.019300
8.046200 0.014500
8.068100 0.010400
8.090000 0.007000
8.111900 0.004300
8.133800 0.002200
8.155700 0.000800
8.177600 0.000100
8.199500 0.000000
8.221400 0.000000
8.243200 0.000000
8.265100 0.000000
8.287000 0.000000
8.308900 0.000000
8.330800 0.000000
8.352700 0.000000
8.374600 0.065500
8.396500 0.259700
8.418400 0.378200
8.440300 0.527100
8.462100 0.713400
8.484000 0.874800
8.505900 0.963900
8.527800 1.391600
8.549700 1.638100
8.571600 2.452500
8.593500 3.907600
8.615400 4.649900
8.637300 4.302900
8.659200 3.928600
8.681000 3.700800
8.702900 3.310600
8.724800 3.089400
8.746700 2.934700
8.768600 2.859800
8.790500 2.862700
8.812400 2.800200
8.834300 2.721800
8.856200 2.857100
8.878100 2.937300
8.899900 2.958100
8.921800 2.986400
8.943700 3.106800
8.965600 3.180900
8.987500 3.118800
9.009400 3.167300
9.031300 3.306700
9.053200 5.267800
9.075100 3.686300
9.097000 4.471900
9.118900 3.768600
9.140700 3.620100
9.162600 3.553200
9.184500 3.537200
9.206400 3.666400
9.228300 3.660700
9.250200 4.082600
9.272100 4.355100
9.294000 4.328400
9.315900 3.943900
9.337800 3.530800
9.359600 3.596400
9.381500 3.633000
9.403400 3.589300
9.425300 3.541600
9.447200 3.503300
9.469100 3.504400
9.491000 3.478700
9.512900 3.441200
9.534800 3.384900
9.556700 3.304500
9.578500 3.196600
9.600400 3.059100
9.622300 2.961400
9.644200 2.890700
9.666100 2.867200
9.688000 2.843400
9.709900 2.806500
9.731800 2.761500
9.753700 2.703900
9.775600 2.736700
9.797400 2.743500
9.819300 2.733000
9.841200 2.289400
9.863100 2.215900
9.885000 2.209000
9.906900 2.363600
9.928800 2.448600
9.950700 2.494100
9.972600 2.655700
9.994500 2.687000
10.016300 2.720200
10.038200 2.679300
10.060100 2.618900
10.082000 2.608900
10.103900 2.659900
10.125800 2.703900
10.147700 2.746000
10.169600 2.770800
10.191500 2.755300
10.213400 2.760900
10.235200 2.605500
10.257100 2.481000
10.279000 2.342200
10.300900 2.268700
10.322800 2.262200
10.344700 2.271900
10.366600 2.270300
10.388500 2.227100
10.410400 2.180700
10.432300 2.066300
10.454100 1.898300
10.476000 1.644600
10.497900 1.533300
10.519800 1.322000
10.541700 1.054400
10.563600 0.932900
10.585500 0.689700
10.607400 0.542300
10.629300 0.519000
10.651200 0.530900
10.673000 0.548700
10.694900 0.559600
10.716800 0.561900
10.738700 0.595400
10.760600 0.664600
10.782500 0.788200
10.804400 0.889900
10.826300 1.111400
10.848200 1.417500
10.870100 1.670500
10.891900 1.925600
10.913800 2.088800
10.935700 2.222200
10.957600 2.258700
10.979500 2.312200
11.001400 2.372200
11.023300 2.469700
11.045200 2.483500
11.067100 2.395200
11.089000 2.424800
11.110800 2.472300
11.132700 2.501500
11.154600 2.597100
11.176500 2.742900
11.198400 3.029500
11.220300 3.761500
11.242200 4.132400
11.264100 4.184600
11.286000 4.388000
11.307900 4.504000
11.329700 4.325300
11.351600 4.086900
11.373500 4.762400
11.395400 4.758400
11.417300 4.054900
11.439200 3.686100
11.461100 3.436600
11.483000 3.275800
11.504900 3.193700
11.526800 2.963000
11.548600 3.126000
11.570500 3.279700
11.592400 3.200800
11.614300 2.607900
11.636200 2.352000
11.658100 2.290000
11.680000 2.473600
11.701900 2.601900
11.723800 2.718600
11.745700 2.872300
11.767500 3.013800
11.789400 3.183300
11.811300 3.440700
11.833200 3.616100
11.855100 3.793200
11.877000 4.131600
11.898900 4.457600
11.920800 4.354900
11.942700 4.554100
11.964600 4.499000
11.986500 4.553400
12.008300 4.526200
12.030200 4.552200
12.052100 4.669300
12.074000 4.828100
12.095900 4.483200
12.117800 3.950200
12.139700 3.571800
12.161600 3.332800
12.183500 3.194700
12.205400 3.082800
12.227200 2.992400
12.249100 2.939300
12.271000 2.902900
12.292900 2.902400
12.314800 2.993400
12.336700 3.212900
12.358600 3.445100
12.380500 3.720700
12.402400 3.715900
12.424300 3.774400
12.446100 3.813200
12.468000 3.906800
12.489900 4.135500
12.511800 4.458300
12.533700 4.971800
12.555600 5.386900
12.577500 5.738500
12.599400 5.338600
12.621300 5.680700
12.643200 6.220100
12.665000 5.776300
12.686900 5.798600
12.708800 6.456800
12.730700 7.125500
12.752600 7.817100
12.774500 8.146200
12.796400 8.248700
12.818300 7.146900
12.840200 7.207800
12.862100 6.436200
12.883900 5.160000
12.905800 4.315900
12.927700 4.570700
12.949600 4.628500
12.971500 4.086600
12.993400 3.713500
13.015300 3.542400
13.037200 3.345400
13.059100 3.167100
13.081000 3.048900
13.102800 2.961000
13.124700 2.894600
13.146600 2.824300
13.168500 2.770800
13.190400 2.713900
13.212300 2.633900
13.234200 2.558700
13.256100 2.519600
13.278000 2.526500
13.299900 2.532000
13.321700 2.467000
13.343600 2.263300
13.365500 2.274300
13.387400 1.481600
13.409300 0.732400
13.431200 0.565800
13.453100 0.489400
13.475000 0.447300
13.496900 0.413400
13.518800 0.386100
13.540600 0.365200
13.562500 0.346300
13.584400 0.352800
13.606300 0.407300
13.628200 0.600500
13.650100 0.641600
13.672000 0.691500
13.693900 0.748800
13.715800 0.801700
13.737700 0.837500
13.759500 0.863100
13.781400 1.005600
13.803300 1.343300
13.825200 1.566300
13.847100 1.804500
13.869000 2.015600
13.890900 2.260400
13.912800 2.546900
13.934700 2.783500
13.956600 3.343200
13.978400 3.626300
14.000300 4.065100
14.022200 4.475500
14.044100 4.810300
14.066000 5.270100
14.087900 5.717100
14.109800 6.077100
14.131700 6.781300
14.153600 7.015900
14.175500 7.588300
14.197300 6.423400
14.219200 4.908800
14.241100 4.782900
14.263000 4.980800
14.284900 5.495500
14.306800 6.610000
14.328700 6.152700
14.350600 5.816500
14.372500 5.461600
14.394400 5.130000
14.416200 5.383600
14.438100 5.394600
14.460000 5.454400
14.481900 5.367600
14.503800 5.311000
14.525700 5.149100
14.547600 4.836500
14.569500 4.886400
14.591400 5.232600
14.613300 4.297400
14.635100 4.025300
14.657000 4.070200
14.678900 3.822200
14.700800 3.499900
14.722700 3.183700
14.744600 2.985200
14.766500 2.881500
14.788400 2.807400
14.810300 2.747700
14.832200 2.797400
14.854100 2.756500
14.875900 2.721200
14.897800 2.639000
14.919700 2.677200
14.941600 3.298800
14.963500 3.082500
14.985400 3.176900
15.007300 3.636300
15.029200 3.934400
15.051100 4.156400
15.073000 4.219900
15.094800 4.324500
15.116700 4.368000
15.138600 4.401700
15.160500 4.591200
15.182400 4.785700
15.204300 4.745200
15.226200 4.492300
15.248100 4.362600
15.270000 4.265500
15.291900 4.263600
15.313700 4.295500
15.335600 4.359000
15.357500 4.676500
15.379400 4.875800
15.401300 4.568600
15.423200 3.791400
15.445100 3.454300
15.467000 2.999400
15.488900 2.988600
15.510800 3.024300
15.532600 2.589800
15.554500 2.342200
15.576400 2.065100
15.598300 1.935100
15.620200 1.803300
15.642100 1.718300
15.664000 1.635800
15.685900 1.556900
15.707800 1.493000
15.729700 1.443500
15.751500 1.355200
15.773400 1.302100
15.795300 1.256700
15.817200 1.149800
15.839100 0.885000
15.861000 0.639700
15.882900 0.513400
15.904800 0.451800
15.926700 0.387100
15.948600 0.354200
15.970400 0.394800
15.992300 0.270500
16.014200 0.040400
16.036100 0.000100
16.058000 0.000000
16.079900 0.000000
16.101800 0.000000
16.123700 0.000000
16.145600 0.000000
16.167500 0.000000
16.189300 0.000000
16.211200 0.000000
16.233100 0.000000
16.255000 0.000000
16.276900 0.000000
16.298800 0.000000
16.320700 0.000000
16.342600 0.000000
16.364500 0.000000
16.386400 0.000000
16.408200 0.000000
16.430100 0.000000
16.452000 0.000000
16.473900 0.000000
16.495800 0.000000
16.517700 0.000000
16.539600 0.000000
16.561500 0.000000
16.583400 0.000000
16.605300 0.000000
16.627100 0.000000
16.649000 0.000000
16.670900 0.000000
16.692800 0.000000
16.714700 0.000000
16.736600 0.000000
16.758500 0.000000
16.780400 0.000000
16.802300 0.000000
16.824200 0.000000
16.846000 0.000000
16.867900 0.000000
16.889800 0.000000
16.911700 0.000000
16.933600 0.000000
16.955500 0.000000
16.977400 0.000000
16.999300 0.000000
17.021200 0.000000
17.043100 0.000000
17.064900 0.000000
17.086800 0.000000
17.108700 0.000000
17.130600 0.000000
17.152500 0.000000
17.174400 0.000000
17.196300 0.000000
17.218200 0.000000
17.240100 0.000000
17.262000 0.000000
17.283800 0.000000
17.305700 0.000000
17.327600 0.000000
17.349500 0.000000
17.371400 0.000000
17.393300 0.000000
17.415200 0.000000
17.437100 0.000000
17.459000 0.000000
17.480900 0.000000
17.502700 0.000000
17.524600 0.000000
17.546500 0.000000
17.568400 0.000000
17.590300 0.000000
17.612200 0.000000
17.634100 0.000000
17.656000 0.000000
17.677900 0.000000
17.699800 0.000000
17.721700 0.000000
17.743500 0.000000
17.765400 0.000000
17.787300 0.000000
17.809200 0.000000
17.831100 0.000000
17.853000 0.000000
17.874900 0.000000
17.896800 0.000000
17.918700 0.000000
17.940600 0.000000
17.962400 0.000000
17.984300 0.000000
18.006200 0.000000
18.028100 0.000000
e
