set title 'mp-571539 - Density of States'
set xlabel 'Energy (eV)'
set ylabel 'DOS (states/eV)'
set grid
set xrange [-10:10]
set yrange [0:1042.867]
set xzeroaxis lt -1
set terminal png size 800,600
set output 'mp-571539_dos_gnuplot.png'
plot '-' using 1:2 with lines title 'DOS'
-11.966000 0.000000
-11.953300 0.000000
-11.940600 0.000000
-11.927900 0.000000
-11.915200 0.000000
-11.902500 0.000000
-11.889800 0.000000
-11.877100 0.000000
-11.864400 0.000000
-11.851700 0.000000
-11.839000 0.000000
-11.826300 0.000000
-11.813500 0.000000
-11.800800 0.000000
-11.788100 0.000000
-11.775400 0.000000
-11.762700 0.000000
-11.750000 0.000000
-11.737300 0.000000
-11.724600 0.000000
-11.711900 0.000000
-11.699200 0.000000
-11.686500 0.000000
-11.673800 0.000000
-11.661100 0.000000
-11.648400 0.000000
-11.635700 0.000000
-11.623000 0.000000
-11.610300 0.000000
-11.597600 0.000000
-11.584900 0.000000
-11.572200 0.000000
-11.559500 0.000000
-11.546800 0.000000
-11.534100 0.000000
-11.521400 0.000000
-11.508700 0.000000
-11.496000 0.000000
-11.483300 0.000000
-11.470600 0.000000
-11.457900 0.000000
-11.445200 0.000000
-11.432500 0.000000
-11.419800 0.000000
-11.407100 0.000000
-11.394400 0.000000
-11.381700 0.000000
-11.369000 0.000000
-11.356300 0.000000
-11.343600 0.000000
-11.330900 0.000000
-11.318200 0.000000
-11.305500 0.000000
-11.292800 0.000000
-11.280100 0.000000
-11.267400 0.000000
-11.254700 0.000000
-11.242000 0.000000
-11.229300 0.000000
-11.216600 0.000000
-11.203900 0.000000
-11.191200 0.000000
-11.178500 0.000000
-11.165800 0.000000
-11.153100 0.000000
-11.140400 0.000000
-11.127700 0.000000
-11.115000 0.000000
-11.102300 0.000000
-11.089600 0.000000
-11.076900 0.000000
-11.064200 0.000000
-11.051500 0.000000
-11.038800 0.000000
-11.026100 0.000000
-11.013400 0.000000
-11.000700 0.000000
-10.988000 0.000000
-10.975300 0.000000
-10.962600 0.000000
-10.949900 0.000000
-10.937200 0.000000
-10.924500 0.000000
-10.911800 0.000000
-10.899100 0.000000
-10.886400 0.000000
-10.873700 0.000000
-10.861000 0.000000
-10.848300 0.000000
-10.835600 0.000000
-10.822900 0.000000
-10.810200 0.040300
-10.797500 0.892300
-10.784800 2.233700
-10.772100 4.322600
-10.759400 6.590200
-10.746700 9.813500
-10.734000 13.521800
-10.721300 15.806500
-10.708600 15.958300
-10.695900 15.727500
-10.683200 17.485000
-10.670500 16.225100
-10.657800 15.568200
-10.645100 16.091700
-10.632400 16.615200
-10.619700 17.138700
-10.607000 17.662200
-10.594300 18.185700
-10.581600 18.711200
-10.568900 19.287500
-10.556200 19.902000
-10.543500 20.566100
-10.530800 21.292400
-10.518100 22.089400
-10.505400 22.887000
-10.492700 23.680100
-10.480000 24.467000
-10.467300 25.237400
-10.454600 26.003900
-10.441900 26.770500
-10.429200 27.537100
-10.416400 28.303600
-10.403700 29.070200
-10.391000 29.836800
-10.378300 31.470500
-10.365600 37.246100
-10.352900 47.616400
-10.340200 68.306800
-10.327500 83.338500
-10.314800 111.935900
-10.302100 130.330500
-10.289400 133.988000
-10.276700 150.621900
-10.264000 177.009400
-10.251300 284.211700
-10.238600 382.829900
-10.225900 312.307900
-10.213200 0.000000
-10.200500 0.000000
-10.187800 0.000000
-10.175100 0.000000
-10.162400 0.000000
-10.149700 0.000000
-10.137000 0.000000
-10.124300 0.000000
-10.111600 0.000000
-10.098900 0.000000
-10.086200 0.000000
-10.073500 0.000000
-10.060800 0.000000
-10.048100 0.000000
-10.035400 0.000000
-10.022700 0.000000
-10.010000 0.000000
-9.997300 0.000000
-9.984600 0.000000
-9.971900 0.000000
-9.959200 0.000000
-9.946500 0.000000
-9.933800 0.000000
-9.921100 0.000000
-9.908400 0.000000
-9.895700 0.000000
-9.883000 0.000000
-9.870300 0.000000
-9.857600 0.000000
-9.844900 0.000000
-9.832200 0.000000
-9.819500 0.000000
-9.806800 0.000000
-9.794100 0.000000
-9.781400 0.000000
-9.768700 0.000000
-9.756000 0.000000
-9.743300 0.000000
-9.730600 0.000000
-9.717900 0.000000
-9.705200 0.000000
-9.692500 0.000000
-9.679800 0.000000
-9.667100 0.000000
-9.654400 0.000000
-9.641700 0.000000
-9.629000 0.000000
-9.616300 0.000000
-9.603600 0.000000
-9.590900 0.000000
-9.578200 0.000000
-9.565500 0.000000
-9.552800 0.000000
-9.540100 0.000000
-9.527400 0.000000
-9.514700 0.000000
-9.502000 0.000000
-9.489300 0.000000
-9.476600 0.000000
-9.463900 0.000000
-9.451200 0.000000
-9.438500 0.000000
-9.425800 0.000000
-9.413100 0.000000
-9.400400 0.000000
-9.387700 0.000000
-9.375000 0.000000
-9.362300 0.000000
-9.349600 0.000000
-9.336900 0.000000
-9.324200 0.000000
-9.311500 0.000000
-9.298800 0.000000
-9.286100 0.000000
-9.273400 0.000000
-9.260700 0.000000
-9.248000 0.000000
-9.235300 0.000000
-9.222600 0.000000
-9.209900 0.000000
-9.197200 0.000000
-9.184500 0.000000
-9.171800 0.000000
-9.159100 0.000000
-9.146400 0.000000
-9.133700 0.000000
-9.121000 0.000000
-9.108300 0.000000
-9.095600 0.000000
-9.082900 0.000000
-9.070200 0.000000
-9.057500 0.000000
-9.044800 0.000000
-9.032100 0.000000
-9.019300 0.000000
-9.006600 0.000000
-8.993900 0.000000
-8.981200 0.000000
-8.968500 0.000000
-8.955800 0.000000
-8.943100 0.000000
-8.930400 0.000000
-8.917700 0.000000
-8.905000 0.000000
-8.892300 0.000000
-8.879600 0.000000
-8.866900 0.000000
-8.854200 0.000000
-8.841500 0.000000
-8.828800 0.000000
-8.816100 0.000000
-8.803400 0.000000
-8.790700 0.000000
-8.778000 0.000000
-8.765300 0.000000
-8.752600 0.000000
-8.739900 0.000000
-8.727200 0.000000
-8.714500 0.000000
-8.701800 0.000000
-8.689100 0.000000
-8.676400 0.000000
-8.663700 0.000000
-8.651000 0.000000
-8.638300 0.000000
-8.625600 0.000000
-8.612900 0.000000
-8.600200 0.000000
-8.587500 0.000000
-8.574800 0.000000
-8.562100 0.000000
-8.549400 0.000000
-8.536700 0.000000
-8.524000 0.000000
-8.511300 0.000000
-8.498600 0.000000
-8.485900 0.000000
-8.473200 0.000000
-8.460500 0.000000
-8.447800 0.000000
-8.435100 0.000000
-8.422400 0.000000
-8.409700 0.000000
-8.397000 0.000000
-8.384300 0.000000
-8.371600 0.000000
-8.358900 0.000000
-8.346200 0.000000
-8.333500 0.000000
-8.320800 0.000000
-8.308100 0.000000
-8.295400 0.000000
-8.282700 0.000000
-8.270000 0.000000
-8.257300 0.000000
-8.244600 0.000000
-8.231900 0.000000
-8.219200 0.000000
-8.206500 0.000000
-8.193800 0.000000
-8.181100 0.000000
-8.168400 0.000000
-8.155700 0.000000
-8.143000 0.000000
-8.130300 0.000000
-8.117600 0.000000
-8.104900 0.000000
-8.092200 0.000000
-8.079500 0.000000
-8.066800 0.000000
-8.054100 0.000000
-8.041400 0.000000
-8.028700 0.000000
-8.016000 0.000000
-8.003300 0.000000
-7.990600 0.000000
-7.977900 0.000000
-7.965200 0.000000
-7.952500 0.000000
-7.939800 0.000000
-7.927100 0.000000
-7.914400 0.000000
-7.901700 0.000000
-7.889000 0.000000
-7.876300 0.000000
-7.863600 0.000000
-7.850900 0.000000
-7.838200 0.000000
-7.825500 0.000000
-7.812800 0.000000
-7.800100 0.000000
-7.787400 0.000000
-7.774700 0.000000
-7.762000 0.000000
-7.749300 0.000000
-7.736600 0.000000
-7.723900 0.000000
-7.711200 0.000000
-7.698500 0.000000
-7.685800 0.000000
-7.673100 0.000000
-7.660400 0.000000
-7.647700 0.000000
-7.635000 0.000000
-7.622200 0.000000
-7.609500 0.000000
-7.596800 0.000000
-7.584100 0.000000
-7.571400 0.000000
-7.558700 0.000000
-7.546000 0.000000
-7.533300 0.000000
-7.520600 0.000000
-7.507900 0.000000
-7.495200 0.000000
-7.482500 0.000000
-7.469800 0.000000
-7.457100 0.000000
-7.444400 0.000000
-7.431700 0.000000
-7.419000 0.000000
-7.406300 0.000000
-7.393600 0.000000
-7.380900 0.000000
-7.368200 0.000000
-7.355500 0.000000
-7.342800 0.000000
-7.330100 0.000000
-7.317400 0.000000
-7.304700 0.000000
-7.292000 0.000000
-7.279300 0.000000
-7.266600 0.000000
-7.253900 0.000000
-7.241200 0.000000
-7.228500 0.000000
-7.215800 0.000000
-7.203100 0.000000
-7.190400 0.000000
-7.177700 0.000000
-7.165000 0.000000
-7.152300 0.000000
-7.139600 0.000000
-7.126900 0.000000
-7.114200 0.000000
-7.101500 0.000000
-7.088800 0.000000
-7.076100 0.000000
-7.063400 0.000000
-7.050700 0.000000
-7.038000 0.000000
-7.025300 0.000000
-7.012600 0.000000
-6.999900 0.000000
-6.987200 0.000000
-6.974500 0.000000
-6.961800 0.000000
-6.949100 0.000000
-6.936400 0.000000
-6.923700 0.000000
-6.911000 0.000000
-6.898300 0.000000
-6.885600 0.000000
-6.872900 0.000000
-6.860200 0.000000
-6.847500 0.000000
-6.834800 0.000000
-6.822100 0.000000
-6.809400 0.000000
-6.796700 0.000000
-6.784000 0.000000
-6.771300 0.000000
-6.758600 0.000000
-6.745900 0.000000
-6.733200 0.000000
-6.720500 0.000000
-6.707800 0.000000
-6.695100 0.000000
-6.682400 0.000000
-6.669700 0.000000
-6.657000 0.000000
-6.644300 0.000000
-6.631600 0.000000
-6.618900 0.000000
-6.606200 0.000000
-6.593500 0.000000
-6.580800 0.000000
-6.568100 0.000000
-6.555400 0.000000
-6.542700 0.000000
-6.530000 0.000000
-6.517300 12.810300
-6.504600 140.991100
-6.491900 235.651200
-6.479200 381.448300
-6.466500 271.046800
-6.453800 138.902300
-6.441100 124.719100
-6.428400 118.300900
-6.415700 141.123600
-6.403000 431.616600
-6.390300 316.642100
-6.377600 223.958500
-6.364900 102.385400
-6.352200 166.158900
-6.339500 948.061000
-6.326800 756.236200
-6.314100 250.120600
-6.301400 930.499600
-6.288700 79.818700
-6.276000 206.727800
-6.263300 124.707900
-6.250600 107.328300
-6.237900 89.948700
-6.225100 158.907300
-6.212400 0.000000
-6.199700 0.000000
-6.187000 0.000000
-6.174300 0.000000
-6.161600 0.000000
-6.148900 0.000000
-6.136200 0.000000
-6.123500 0.000000
-6.110800 0.000000
-6.098100 0.000000
-6.085400 0.000000
-6.072700 0.000000
-6.060000 0.000000
-6.047300 0.000000
-6.034600 0.000000
-6.021900 0.000000
-6.009200 0.000000
-5.996500 0.000000
-5.983800 0.000000
-5.971100 0.000000
-5.958400 0.000000
-5.945700 0.000000
-5.933000 0.000000
-5.920300 0.000000
-5.907600 0.000000
-5.894900 0.000000
-5.882200 0.000000
-5.869500 0.000000
-5.856800 0.000000
-5.844100 0.000000
-5.831400 0.000000
-5.818700 0.000000
-5.806000 0.000000
-5.793300 0.000000
-5.780600 0.000000
-5.767900 0.000000
-5.755200 0.000000
-5.742500 0.000000
-5.729800 0.000000
-5.717100 0.000000
-5.704400 0.000000
-5.691700 0.000000
-5.679000 0.000000
-5.666300 0.000000
-5.653600 0.000000
-5.640900 0.000000
-5.628200 0.000000
-5.615500 0.000000
-5.602800 0.000000
-5.590100 0.000000
-5.577400 0.000000
-5.564700 0.000000
-5.552000 0.000000
-5.539300 0.000000
-5.526600 0.000000
-5.513900 0.000000
-5.501200 0.000000
-5.488500 0.000000
-5.475800 0.000000
-5.463100 0.000000
-5.450400 0.000000
-5.437700 0.000000
-5.425000 0.000000
-5.412300 0.000000
-5.399600 0.000000
-5.386900 0.000000
-5.374200 0.000000
-5.361500 0.000000
-5.348800 0.000000
-5.336100 0.000000
-5.323400 0.000000
-5.310700 0.000000
-5.298000 0.000000
-5.285300 0.000000
-5.272600 0.000000
-5.259900 0.000000
-5.247200 0.000000
-5.234500 0.000000
-5.221800 0.000000
-5.209100 0.000000
-5.196400 0.000000
-5.183700 0.000000
-5.171000 0.000000
-5.158300 0.000000
-5.145600 0.000000
-5.132900 0.000000
-5.120200 0.000000
-5.107500 0.000000
-5.094800 0.000000
-5.082100 0.000000
-5.069400 0.000000
-5.056700 0.000000
-5.044000 0.000000
-5.031300 0.000000
-5.018600 0.000000
-5.005900 0.000000
-4.993200 0.000000
-4.980500 0.000000
-4.967800 0.000000
-4.955100 0.000000
-4.942400 0.000000
-4.929700 0.000000
-4.917000 0.000000
-4.904300 0.000000
-4.891600 0.000000
-4.878900 0.000000
-4.866200 0.000000
-4.853500 0.000000
-4.840800 0.000000
-4.828000 0.000000
-4.815300 0.000000
-4.802600 0.000000
-4.789900 0.000000
-4.777200 0.000000
-4.764500 0.000000
-4.751800 0.000000
-4.739100 0.000000
-4.726400 0.000000
-4.713700 0.000000
-4.701000 0.000000
-4.688300 0.000000
-4.675600 0.000000
-4.662900 0.000000
-4.650200 0.000000
-4.637500 0.000000
-4.624800 0.000000
-4.612100 0.000000
-4.599400 0.000000
-4.586700 0.000000
-4.574000 0.000000
-4.561300 0.000000
-4.548600 0.000000
-4.535900 0.000000
-4.523200 0.000000
-4.510500 0.000000
-4.497800 0.000000
-4.485100 0.000000
-4.472400 0.000000
-4.459700 0.000000
-4.447000 0.000000
-4.434300 0.000000
-4.421600 0.000000
-4.408900 0.000000
-4.396200 0.000000
-4.383500 0.000000
-4.370800 0.000000
-4.358100 0.000000
-4.345400 0.000000
-4.332700 0.000000
-4.320000 0.000000
-4.307300 0.000000
-4.294600 0.000000
-4.281900 0.000000
-4.269200 0.000000
-4.256500 0.000000
-4.243800 0.000000
-4.231100 0.000000
-4.218400 0.000000
-4.205700 0.000000
-4.193000 0.000000
-4.180300 0.000000
-4.167600 0.000000
-4.154900 0.000000
-4.142200 0.000000
-4.129500 0.000000
-4.116800 0.000000
-4.104100 0.000000
-4.091400 0.000000
-4.078700 0.000000
-4.066000 0.000000
-4.053300 0.000000
-4.040600 0.000000
-4.027900 0.000000
-4.015200 0.000000
-4.002500 0.000000
-3.989800 0.000000
-3.977100 0.000000
-3.964400 0.000000
-3.951700 0.000000
-3.939000 0.000000
-3.926300 0.000000
-3.913600 0.000000
-3.900900 0.000000
-3.888200 0.000000
-3.875500 0.000000
-3.862800 0.000000
-3.850100 0.000000
-3.837400 0.000000
-3.824700 0.000000
-3.812000 0.000000
-3.799300 0.000000
-3.786600 0.000000
-3.773900 0.000000
-3.761200 0.000000
-3.748500 0.000000
-3.735800 0.000000
-3.723100 0.000000
-3.710400 0.000000
-3.697700 0.000000
-3.685000 0.000000
-3.672300 0.000000
-3.659600 0.000000
-3.646900 0.000000
-3.634200 0.000000
-3.621500 0.000000
-3.608800 0.000000
-3.596100 0.000000
-3.583400 0.000000
-3.570700 0.000000
-3.558000 0.000000
-3.545300 0.000000
-3.532600 0.000000
-3.519900 0.000000
-3.507200 0.000000
-3.494500 0.000000
-3.481800 0.000000
-3.469100 0.000000
-3.456400 0.000000
-3.443600 0.000000
-3.430900 0.000000
-3.418200 0.000000
-3.405500 0.000000
-3.392800 0.000000
-3.380100 0.000000
-3.367400 0.000000
-3.354700 0.000000
-3.342000 0.000000
-3.329300 0.000000
-3.316600 0.000000
-3.303900 0.000000
-3.291200 0.000000
-3.278500 0.000000
-3.265800 0.000000
-3.253100 0.000000
-3.240400 0.000000
-3.227700 0.000000
-3.215000 0.000000
-3.202300 0.000000
-3.189600 0.000000
-3.176900 0.000000
-3.164200 0.000000
-3.151500 0.000000
-3.138800 0.000000
-3.126100 0.000000
-3.113400 0.000000
-3.100700 0.000000
-3.088000 0.000000
-3.075300 0.000000
-3.062600 0.000000
-3.049900 0.000000
-3.037200 0.000000
-3.024500 0.000000
-3.011800 0.000000
-2.999100 0.000000
-2.986400 0.000000
-2.973700 0.000000
-2.961000 0.000000
-2.948300 0.000000
-2.935600 0.000000
-2.922900 0.000000
-2.910200 0.000000
-2.897500 0.000000
-2.884800 0.000000
-2.872100 0.000000
-2.859400 0.000000
-2.846700 0.000000
-2.834000 0.000000
-2.821300 0.000000
-2.808600 0.000000
-2.795900 0.000000
-2.783200 0.000000
-2.770500 0.000000
-2.757800 0.000000
-2.745100 0.000000
-2.732400 0.000000
-2.719700 0.000000
-2.707000 0.000000
-2.694300 0.000000
-2.681600 0.000000
-2.668900 0.000000
-2.656200 0.000000
-2.643500 0.000000
-2.630800 0.000000
-2.618100 0.000000
-2.605400 0.000000
-2.592700 0.000000
-2.580000 54.344100
-2.567300 32.296600
-2.554600 35.189000
-2.541900 63.844700
-2.529200 46.386200
-2.516500 53.064800
-2.503800 59.743500
-2.491100 54.916300
-2.478400 44.704800
-2.465700 41.130200
-2.453000 40.226100
-2.440300 39.322000
-2.427600 33.757100
-2.414900 30.853100
-2.402200 26.567900
-2.389500 26.154500
-2.376800 22.775200
-2.364100 21.217700
-2.351400 21.117100
-2.338700 21.016500
-2.326000 20.915800
-2.313300 21.276300
-2.300600 22.195200
-2.287900 23.114200
-2.275200 27.737100
-2.262500 39.432100
-2.249800 40.453900
-2.237100 41.885900
-2.224400 48.762200
-2.211700 14.367200
-2.199000 14.921000
-2.186300 15.474800
-2.173600 16.126600
-2.160900 16.802600
-2.148200 27.275400
-2.135500 6.974100
-2.122800 6.849500
-2.110100 6.724900
-2.097400 6.600300
-2.084700 6.475700
-2.072000 6.351100
-2.059300 6.226400
-2.046500 6.101800
-2.033800 18.088700
-2.021100 10.075500
-2.008400 2.062300
-1.995700 1.655900
-1.983000 4.182500
-1.970300 3.012700
-1.957600 1.842900
-1.944900 0.673000
-1.932200 0.000000
-1.919500 0.000000
-1.906800 0.000000
-1.894100 0.000000
-1.881400 0.000000
-1.868700 0.000000
-1.856000 0.000000
-1.843300 0.000000
-1.830600 0.000000
-1.817900 0.000000
-1.805200 0.000000
-1.792500 0.000000
-1.779800 0.000000
-1.767100 0.000000
-1.754400 0.000000
-1.741700 0.000000
-1.729000 0.000000
-1.716300 0.000000
-1.703600 0.000000
-1.690900 0.000000
-1.678200 0.000000
-1.665500 5.706800
-1.652800 4.423400
-1.640100 7.956500
-1.627400 9.961000
-1.614700 13.486800
-1.602000 10.738200
-1.589300 14.263500
-1.576600 11.852000
-1.563900 17.226500
-1.551200 21.091700
-1.538500 17.827100
-1.525800 21.806700
-1.513100 19.565700
-1.500400 18.379400
-1.487700 19.099000
-1.475000 19.818500
-1.462300 20.538000
-1.449600 21.257500
-1.436900 21.977000
-1.424200 22.696500
-1.411500 23.416000
-1.398800 24.135500
-1.386100 24.855000
-1.373400 22.863300
-1.360700 28.385500
-1.348000 18.423000
-1.335300 18.769800
-1.322600 33.810000
-1.309900 18.398200
-1.297200 14.640000
-1.284500 14.777100
-1.271800 14.914200
-1.259100 21.661500
-1.246400 21.399800
-1.233700 10.808500
-1.221000 15.582800
-1.208300 12.543700
-1.195600 9.504600
-1.182900 8.504300
-1.170200 8.401100
-1.157500 8.297900
-1.144800 8.784600
-1.132100 9.302400
-1.119400 9.873300
-1.106700 9.896100
-1.094000 10.536800
-1.081300 11.844900
-1.068600 11.969100
-1.055900 12.746500
-1.043200 13.545100
-1.030500 13.721700
-1.017800 13.898600
-1.005100 14.075200
-0.992400 14.251800
-0.979700 14.428400
-0.967000 14.605100
-0.954300 14.779500
-0.941600 14.941600
-0.928900 15.103600
-0.916200 15.261600
-0.903500 15.411400
-0.890800 15.561100
-0.878100 15.710900
-0.865400 15.860700
-0.852700 16.010400
-0.840000 16.160200
-0.827300 16.310000
-0.814600 16.459800
-0.801900 16.609500
-0.789200 16.759300
-0.776500 16.909100
-0.763800 17.585700
-0.751100 18.151100
-0.738400 18.716500
-0.725700 19.888100
-0.713000 22.307400
-0.700300 24.645400
-0.687600 25.159600
-0.674900 26.995900
-0.662200 28.901300
-0.649400 31.320300
-0.636700 33.558200
-0.624000 33.923400
-0.611300 34.359400
-0.598600 37.456100
-0.585900 38.816100
-0.573200 38.695800
-0.560500 39.324000
-0.547800 39.518500
-0.535100 39.699000
-0.522400 36.903500
-0.509700 36.815500
-0.497000 36.661600
-0.484300 36.568700
-0.471600 36.481600
-0.458900 36.559700
-0.446200 36.839100
-0.433500 36.255000
-0.420800 36.702500
-0.408100 37.105600
-0.395400 36.683700
-0.382700 37.247100
-0.370000 37.942900
-0.357300 38.915200
-0.344600 39.915100
-0.331900 40.884300
-0.319200 41.792000
-0.306500 41.261600
-0.293800 42.126000
-0.281100 39.622500
-0.268400 39.697500
-0.255700 40.125800
-0.243000 35.927100
-0.230300 35.516500
-0.217600 32.314400
-0.204900 30.042200
-0.192200 35.554300
-0.179500 31.607000
-0.166800 27.960900
-0.154100 28.704300
-0.141400 27.615900
-0.128700 26.612200
-0.116000 25.608400
-0.103300 24.604700
-0.090600 24.027400
-0.077900 22.977800
-0.065200 21.985300
-0.052500 20.994300
-0.039800 20.003300
-0.027100 19.243200
-0.014400 18.641700
-0.001700 18.094600
0.011000 17.598300
0.023700 17.139100
0.036400 16.746600
0.049100 16.397000
0.061800 16.126300
0.074500 15.916900
0.087200 15.701000
0.099900 15.485000
0.112600 15.269100
0.125300 16.017800
0.138000 16.030000
0.150700 16.045900
0.163400 16.061700
0.176100 18.486300
0.188800 19.030600
0.201500 19.583400
0.214200 20.136200
0.226900 20.689100
0.239600 21.241900
0.252300 23.033600
0.265000 25.209500
0.277700 29.254100
0.290400 30.123000
0.303100 31.466900
0.315800 34.803500
0.328500 38.462500
0.341200 42.955100
0.353900 47.459100
0.366600 49.673700
0.379300 50.132500
0.392000 49.257000
0.404700 56.128000
0.417400 64.516900
0.430100 69.676800
0.442800 69.306600
0.455500 63.952400
0.468200 53.884100
0.480900 59.695400
0.493600 77.160200
0.506300 61.049500
0.519000 47.960500
0.531700 49.872000
0.544400 72.638100
0.557100 61.957700
0.569800 42.556600
0.582500 40.986200
0.595200 47.899500
0.607900 59.669000
0.620600 54.373400
0.633300 62.676000
0.646000 57.811900
0.658700 67.749500
0.671400 70.492600
0.684100 65.269500
0.696800 59.632800
0.709500 58.334800
0.722200 66.100700
0.734900 73.468900
0.747700 56.685400
0.760400 58.076200
0.773100 56.729500
0.785800 52.059000
0.798500 49.065900
0.811200 46.457800
0.823900 40.733200
0.836600 35.811400
0.849300 32.050700
0.862000 28.768500
0.874700 25.674100
0.887400 22.579700
0.900100 24.267600
0.912800 27.131500
0.925500 14.504000
0.938200 8.066600
0.950900 30.210800
0.963600 11.614100
0.976300 0.000000
0.989000 0.000000
1.001700 0.000000
1.014400 0.000000
1.027100 0.000000
1.039800 0.000000
1.052500 0.000000
1.065200 0.000000
1.077900 0.000000
1.090600 0.000000
1.103300 0.000000
1.116000 0.000000
1.128700 0.000000
1.141400 0.000000
1.154100 0.000000
1.166800 0.000000
1.179500 0.000000
1.192200 0.000000
1.204900 0.000000
1.217600 0.000000
1.230300 0.000000
1.243000 0.000000
1.255700 0.000000
1.268400 0.000000
1.281100 0.000000
1.293800 0.000000
1.306500 0.000000
1.319200 0.000000
1.331900 0.000000
1.344600 0.000000
1.357300 0.000000
1.370000 0.000000
1.382700 0.000000
1.395400 0.000000
1.408100 0.000000
1.420800 0.000000
1.433500 0.000000
1.446200 0.000000
1.458900 0.000000
1.471600 0.000000
1.484300 0.000000
1.497000 0.000000
1.509700 0.000000
1.522400 0.000000
1.535100 0.000000
1.547800 0.000000
1.560500 0.000000
1.573200 0.000000
1.585900 0.000000
1.598600 0.000000
1.611300 0.000000
1.624000 0.000000
1.636700 0.000000
1.649400 0.000000
1.662100 0.000000
1.674800 0.000000
1.687500 0.000000
1.700200 0.000000
1.712900 0.000000
1.725600 0.000000
1.738300 0.000000
1.751000 0.000000
1.763700 0.000000
1.776400 0.000000
1.789100 0.000000
1.801800 0.000000
1.814500 0.000000
1.827200 0.000000
1.839900 0.000000
1.852600 0.000000
1.865300 0.000000
1.878000 0.000000
1.890700 0.000000
1.903400 0.000000
1.916100 0.000000
1.928800 0.000000
1.941500 0.000000
1.954200 0.000000
1.966900 0.000000
1.979600 0.000000
1.992300 0.000000
2.005000 0.000000
2.017700 0.000000
2.030400 0.000000
2.043100 0.000000
2.055800 0.000000
2.068500 0.000000
2.081200 0.000000
2.093900 0.000000
2.106600 0.000000
2.119300 0.000000
2.132000 0.000000
2.144800 0.000000
2.157500 0.000000
2.170200 0.000000
2.182900 0.000000
2.195600 0.000000
2.208300 0.000000
2.221000 0.000000
2.233700 0.000000
2.246400 0.000000
2.259100 0.000000
2.271800 0.000000
2.284500 0.000000
2.297200 0.000000
2.309900 0.000000
2.322600 0.000000
2.335300 0.000000
2.348000 0.000000
2.360700 0.000000
2.373400 0.000000
2.386100 0.000000
2.398800 0.000000
2.411500 0.000000
2.424200 0.000000
2.436900 0.000000
2.449600 0.000000
2.462300 0.000000
2.475000 0.000000
2.487700 0.000000
2.500400 0.000000
2.513100 0.000000
2.525800 0.000000
2.538500 0.000000
2.551200 0.000000
2.563900 0.000000
2.576600 0.000000
2.589300 0.000000
2.602000 0.000000
2.614700 0.000000
2.627400 0.000000
2.640100 0.000000
2.652800 0.000000
2.665500 0.000000
2.678200 0.000000
2.690900 0.000000
2.703600 0.000000
2.716300 0.000000
2.729000 0.000000
2.741700 0.000000
2.754400 0.000000
2.767100 0.000000
2.779800 0.000000
2.792500 0.000000
2.805200 0.000000
2.817900 0.000000
2.830600 0.000000
2.843300 0.000000
2.856000 0.000000
2.868700 0.000000
2.881400 0.000000
2.894100 0.000000
2.906800 0.000000
2.919500 0.000000
2.932200 0.000000
2.944900 0.000000
2.957600 0.000000
2.970300 0.000000
2.983000 0.000000
2.995700 0.000000
3.008400 0.000000
3.021100 0.000000
3.033800 0.000000
3.046500 0.000000
3.059200 0.000000
3.071900 0.000000
3.084600 0.000000
3.097300 0.000000
3.110000 0.000000
3.122700 0.000000
3.135400 0.000000
3.148100 0.000000
3.160800 0.000000
3.173500 0.000000
3.186200 0.000000
3.198900 0.000000
3.211600 0.000000
3.224300 0.000000
3.237000 0.000000
3.249700 0.000000
3.262400 0.000000
3.275100 0.000000
3.287800 0.000000
3.300500 0.000000
3.313200 0.000000
3.325900 0.000000
3.338600 0.000000
3.351300 0.000000
3.364000 0.000000
3.376700 0.000000
3.389400 0.000700
3.402100 0.872200
3.414800 0.916100
3.427500 0.959900
3.440200 2.799100
3.452900 2.913000
3.465600 3.026900
3.478300 3.140800
3.491000 3.254700
3.503700 3.368600
3.516400 5.559000
3.529100 5.760900
3.541900 5.963500
3.554600 6.166100
3.567300 6.368700
3.580000 8.930600
3.592700 9.183800
3.605400 10.655500
3.618100 10.931300
3.630800 11.207100
3.643500 11.482800
3.656200 11.758600
3.668900 12.034300
3.681600 12.310100
3.694300 12.650700
3.707000 13.024800
3.719700 13.511500
3.732400 14.062800
3.745100 14.661100
3.757800 15.290400
3.770500 15.958300
3.783200 16.681400
3.795900 17.516000
3.808600 18.426300
3.821300 19.402000
3.834000 20.377700
3.846700 21.353300
3.859400 22.329000
3.872100 23.415200
3.884800 29.199200
3.897500 28.953100
3.910200 37.865700
3.922900 35.315500
3.935600 32.765300
3.948300 29.821800
3.961000 33.420500
3.973700 37.340400
3.986400 35.049100
3.999100 32.581900
4.011800 29.390600
4.024500 39.152400
4.037200 33.865600
4.049900 34.277100
4.062600 30.271800
4.075300 28.135000
4.088000 26.132300
4.100700 23.528700
4.113400 21.475400
4.126100 20.899900
4.138800 20.324400
4.151500 19.748900
4.164200 22.020400
4.176900 19.958900
4.189600 17.961300
4.202300 16.055800
4.215000 14.150400
4.227700 12.245000
4.240400 10.627300
4.253100 9.710200
4.265800 9.792800
4.278500 3.438600
4.291200 4.286200
4.303900 5.133800
4.316600 5.981400
4.329300 0.000000
4.342000 0.000000
4.354700 0.000000
4.367400 0.000000
4.380100 0.000000
4.392800 0.000000
4.405500 0.000000
4.418200 0.000000
4.430900 0.000000
4.443600 0.000000
4.456300 0.000000
4.469000 0.000000
4.481700 0.000000
4.494400 0.000000
4.507100 0.000000
4.519800 0.000000
4.532500 0.000000
4.545200 0.000000
4.557900 0.000000
4.570600 0.000000
4.583300 0.000000
4.596000 0.000000
4.608700 0.000000
4.621400 0.000000
4.634100 0.000000
4.646800 0.000000
4.659500 0.000000
4.672200 0.000000
4.684900 0.000000
4.697600 0.000000
4.710300 0.000000
4.723000 0.000000
4.735700 0.000000
4.748400 0.000000
4.761100 0.000000
4.773800 0.000000
4.786500 0.000000
4.799200 0.000000
4.811900 0.000000
4.824600 0.000000
4.837300 0.000000
4.850000 0.000000
4.862700 0.000000
4.875400 0.000000
4.888100 0.000000
4.900800 0.000000
4.913500 0.000000
4.926200 0.000000
4.939000 0.000000
4.951700 0.000000
4.964400 0.000000
4.977100 0.000000
4.989800 0.000000
5.002500 0.000000
5.015200 0.000000
5.027900 0.000000
5.040600 0.000000
5.053300 0.000000
5.066000 0.000000
5.078700 0.000000
5.091400 0.000000
5.104100 0.000000
5.116800 0.000000
5.129500 0.000000
5.142200 0.000000
5.154900 0.000000
5.167600 0.000000
5.180300 0.000000
5.193000 0.000000
5.205700 0.000000
5.218400 0.000000
5.231100 0.000000
5.243800 0.000000
5.256500 0.000000
5.269200 0.000000
5.281900 0.000000
5.294600 0.000000
5.307300 0.000000
5.320000 0.000000
5.332700 0.000000
5.345400 0.000000
5.358100 0.000000
5.370800 0.000000
5.383500 0.000000
5.396200 0.000000
5.408900 0.000000
5.421600 0.000000
5.434300 0.000000
5.447000 0.000000
5.459700 0.000000
5.472400 0.000300
5.485100 0.032600
5.497800 0.103100
5.510500 0.175800
5.523200 0.248500
5.535900 0.321200
5.548600 0.393900
5.561300 0.466600
5.574000 0.539300
5.586700 0.612000
5.599400 0.684700
5.612100 0.757400
5.624800 0.830100
5.637500 0.902700
5.650200 0.975400
5.662900 1.048100
5.675600 1.120800
5.688300 1.193500
5.701000 1.266200
5.713700 1.338900
5.726400 1.411600
5.739100 1.484300
5.751800 1.557000
5.764500 1.629700
5.777200 1.702400
5.789900 1.775100
5.802600 1.847700
5.815300 1.920400
5.828000 1.993100
5.840700 2.065800
5.853400 2.138500
5.866100 2.211200
5.878800 2.283900
5.891500 2.356600
5.904200 2.429300
5.916900 2.502000
5.929600 2.574700
5.942300 2.647400
5.955000 2.991400
5.967700 4.652800
5.980400 4.916400
5.993100 5.180100
6.005800 6.244800
6.018500 8.506500
6.031200 10.681700
6.043900 11.123800
6.056600 11.081300
6.069300 11.618500
6.082000 11.863400
6.094700 12.069300
6.107400 12.370300
6.120100 13.259200
6.132800 13.658500
6.145500 14.057800
6.158200 14.457000
6.170900 14.856300
6.183600 15.255500
6.196300 16.155100
6.209000 16.898700
6.221700 16.975500
6.234400 17.052200
6.247100 17.129000
6.259800 17.205800
6.272500 17.866900
6.285200 17.993200
6.297900 18.119500
6.310600 18.245900
6.323300 18.372200
6.336100 18.498600
6.348800 18.624900
6.361500 18.751300
6.374200 18.877600
6.386900 19.004000
6.399600 19.024400
6.412300 22.971300
6.425000 22.563500
6.437700 22.155700
6.450400 21.664700
6.463100 32.420100
6.475800 29.220600
6.488500 26.394000
6.501200 23.485500
6.513900 20.956000
6.526600 20.442600
6.539300 19.929200
6.552000 19.415800
6.564700 18.902400
6.577400 18.389000
6.590100 18.140900
6.602800 20.182300
6.615500 24.702100
6.628200 15.437500
6.640900 14.983700
6.653600 14.529900
6.666300 14.098200
6.679000 11.221600
6.691700 11.427200
6.704400 11.639100
6.717100 14.053600
6.729800 14.217100
6.742500 14.383400
6.755200 19.209400
6.767900 19.153500
6.780600 16.636000
6.793300 15.989300
6.806000 15.342600
6.818700 14.695900
6.831400 14.049200
6.844100 13.402500
6.856800 16.145400
6.869500 18.401500
6.882200 16.768000
6.894900 16.216100
6.907600 15.664200
6.920300 14.525100
6.933000 13.824100
6.945700 13.123100
6.958400 12.646800
6.971100 11.439200
6.983800 11.354300
6.996500 11.269400
7.009200 11.184500
7.021900 11.099600
7.034600 19.003800
7.047300 18.057200
7.060000 18.590600
7.072700 19.156400
7.085400 19.749000
7.098100 21.885800
7.110800 20.533900
7.123500 27.343400
7.136200 29.755100
7.148900 30.423400
7.161600 31.091800
7.174300 37.001500
7.187000 54.810900
7.199700 47.503400
7.212400 27.352500
7.225100 25.998400
7.237800 24.596500
7.250500 29.348500
7.263200 27.513800
7.275900 22.077000
7.288600 22.748300
7.301300 24.863000
7.314000 27.030200
7.326700 41.013600
7.339400 33.667200
7.352100 28.667700
7.364800 36.756000
7.377500 27.989400
7.390200 21.922800
7.402900 23.029900
7.415600 25.637400
7.428300 28.915000
7.441000 25.885700
7.453700 29.069300
7.466400 33.912700
7.479100 34.956700
7.491800 34.048300
7.504500 31.637200
7.517200 31.055000
7.529900 35.394100
7.542600 30.337200
7.555300 26.104900
7.568000 26.935700
7.580700 28.835100
7.593400 30.743800
7.606100 33.555300
7.618800 31.814600
7.631500 35.326900
7.644200 38.895700
7.656900 39.181200
7.669600 38.556600
7.682300 34.509600
7.695000 38.638100
7.707700 41.860100
7.720400 46.317000
7.733200 40.898700
7.745900 39.017500
7.758600 40.213300
7.771300 36.747700
7.784000 34.099600
7.796700 32.320500
7.809400 43.618700
7.822100 32.634000
7.834800 36.479900
7.847500 32.033000
7.860200 38.705800
7.872900 37.488900
7.885600 36.271900
7.898300 32.739700
7.911000 27.789200
7.923700 32.435800
7.936400 30.926600
7.949100 28.841700
7.961800 25.866400
7.974500 24.846500
7.987200 25.343200
7.999900 25.021200
8.012600 29.622300
8.025300 29.759500
8.038000 29.896700
8.050700 30.033900
8.063400 30.171200
8.076100 33.757300
8.088800 33.532900
8.101500 32.695900
8.114200 33.345300
8.126900 32.238700
8.139600 32.506800
8.152300 31.804500
8.165000 31.111100
8.177700 33.999800
8.190400 32.173900
8.203100 30.348000
8.215800 28.247600
8.228500 26.725000
8.241200 25.478200
8.253900 24.300100
8.266600 32.817400
8.279300 31.607400
8.292000 30.374400
8.304700 32.605300
8.317400 24.268600
8.330100 20.294000
8.342800 17.180800
8.355500 14.439800
8.368200 13.209600
8.380900 12.454400
8.393600 12.170800
8.406300 11.424000
8.419000 11.173700
8.431700 10.923400
8.444400 10.673100
8.457100 10.422800
8.469800 10.172500
8.482500 9.922200
8.495200 9.671900
8.507900 9.421500
8.520600 9.171200
8.533300 8.920900
8.546000 8.670600
8.558700 8.420300
8.571400 7.946100
8.584100 10.067800
8.596800 9.477700
8.609500 11.914000
8.622200 10.412400
8.634900 8.919800
8.647600 7.483100
8.660300 5.863000
8.673000 5.682400
8.685700 5.599000
8.698400 6.983100
8.711100 9.036800
8.723800 11.090400
8.736500 13.144100
8.749200 10.416200
8.761900 11.778600
8.774600 9.302900
8.787300 10.292600
8.800000 11.277900
8.812700 9.385100
8.825400 10.133600
8.838100 10.284200
8.850800 10.736900
8.863500 11.014000
8.876200 11.313400
8.888900 11.549400
8.901600 11.785400
8.914300 12.021400
8.927000 12.257400
8.939700 12.493400
8.952400 12.729500
8.965100 15.099900
8.977800 15.939000
8.990500 16.421700
9.003200 17.959900
9.015900 17.952500
9.028600 17.445000
9.041300 17.879300
9.054000 17.883300
9.066700 20.297800
9.079400 19.301100
9.092100 19.428200
9.104800 22.211700
9.117500 27.565200
9.130300 20.983400
9.143000 22.265900
9.155700 23.716300
9.168400 25.060500
9.181100 31.972300
9.193800 25.858800
9.206500 25.372700
9.219200 23.667000
9.231900 38.428700
9.244600 27.531600
9.257300 27.425000
9.270000 25.526000
9.282700 26.502400
9.295400 27.142900
9.308100 21.229000
9.320800 22.614300
9.333500 22.274300
9.346200 26.098300
9.358900 28.421700
9.371600 34.882500
9.384300 31.394700
9.397000 33.099500
9.409700 25.359000
9.422400 24.417400
9.435100 33.126100
9.447800 26.655200
9.460500 26.946400
9.473200 27.281000
9.485900 27.889800
9.498600 28.890400
9.511300 29.578500
9.524000 26.431600
9.536700 25.836300
9.549400 25.263300
9.562100 24.781700
9.574800 28.343000
9.587500 25.492900
9.600200 22.660400
9.612900 22.309900
9.625600 23.219400
9.638300 25.385800
9.651000 31.450000
9.663700 35.946300
9.676400 31.530000
9.689100 32.408300
9.701800 28.585100
9.714500 28.022700
9.727200 27.922300
9.739900 25.741900
9.752600 25.376900
9.765300 25.665200
9.778000 23.801600
9.790700 24.607400
9.803400 23.051600
9.816100 23.285700
9.828800 23.665900
9.841500 24.241300
9.854200 25.003200
9.866900 24.443200
9.879600 24.114800
9.892300 25.419000
9.905000 24.786100
9.917700 23.932300
9.930400 23.609600
9.943100 24.923400
9.955800 24.002700
9.968500 22.306900
9.981200 23.950200
9.993900 22.436400
10.006600 19.475000
10.019300 20.408200
10.032000 21.341500
10.044700 25.022700
10.057400 30.345100
10.070100 21.954700
10.082800 21.673900
10.095500 23.252000
10.108200 24.320000
10.120900 26.204700
10.133600 27.081100
10.146300 25.669900
10.159000 24.827900
10.171700 19.025900
10.184400 27.204000
10.197100 17.121500
10.209800 17.332400
10.222500 17.351500
10.235200 17.522100
10.247900 18.677500
10.260600 18.850200
10.273300 19.023000
10.286000 20.806700
10.298700 21.058400
10.311400 18.755100
10.324100 19.049500
10.336800 19.344000
10.349500 19.638400
10.362200 19.932900
10.374900 20.227300
10.387600 20.521700
10.400300 20.816200
10.413000 21.128700
10.425700 19.587700
10.438400 18.295600
10.451100 18.421700
10.463800 18.564600
10.476500 18.723800
10.489200 16.682900
10.501900 16.594800
10.514600 16.506600
10.527400 16.418500
10.540100 16.330400
10.552800 16.242300
10.565500 16.172000
10.578200 16.112400
10.590900 16.053200
10.603600 16.027700
10.616300 16.002700
10.629000 15.977600
10.641700 17.171500
10.654400 17.177500
10.667100 16.228200
10.679800 15.132800
10.692500 16.735700
10.705200 17.643600
10.717900 18.551400
10.730600 19.955900
10.743300 19.540500
10.756000 20.745900
10.768700 16.962100
10.781400 17.110900
10.794100 17.407300
10.806800 16.609900
10.819500 16.781300
10.832200 16.964500
10.844900 17.152600
10.857600 15.022000
10.870300 15.019900
10.883000 15.017800
10.895700 15.015700
10.908400 15.013600
10.921100 14.957300
10.933800 14.859400
10.946500 16.471400
10.959200 16.791900
10.971900 17.074300
10.984600 17.356600
10.997300 17.555400
11.010000 17.289600
11.022700 17.714200
11.035400 20.671700
11.048100 21.850600
11.060800 21.572800
11.073500 21.291200
11.086200 21.635100
11.098900 21.357100
11.111600 21.079100
11.124300 20.755300
11.137000 20.185100
11.149700 19.614900
11.162400 19.044700
11.175100 18.474400
11.187800 17.906300
11.200500 18.087400
11.213200 17.846300
11.225900 17.326300
11.238600 16.888000
11.251300 16.449700
11.264000 17.110900
11.276700 16.655600
11.289400 16.291000
11.302100 15.945700
11.314800 15.607000
11.327500 15.281200
11.340200 14.968300
11.352900 14.377100
11.365600 15.152900
11.378300 14.897300
11.391000 14.641700
11.403700 14.989400
11.416400 15.311000
11.429100 15.053300
11.441800 14.091800
11.454500 13.847300
11.467200 13.602900
11.479900 13.358400
11.492600 12.749700
11.505300 13.253100
11.518000 13.112600
11.530700 12.972100
11.543400 12.831600
11.556100 12.691000
11.568800 12.550500
11.581500 12.410000
11.594200 12.269500
11.606900 12.128900
11.619600 13.027300
11.632300 11.717500
11.645000 13.907600
11.657700 11.324600
11.670400 11.037700
11.683100 10.750800
11.695800 10.481100
11.708500 10.266300
11.721200 10.093900
11.733900 9.948800
11.746600 9.803600
11.759300 9.658400
11.772000 9.513300
11.784700 9.368100
11.797400 9.222900
11.810100 9.121100
11.822800 9.092500
11.835500 9.063900
11.848200 9.125800
11.860900 9.213100
11.873600 11.346500
11.886300 11.450900
11.899000 10.259200
11.911700 9.042900
11.924500 9.072200
11.937200 9.101600
11.949900 9.130900
11.962600 7.438700
11.975300 7.397100
11.988000 5.795200
12.000700 5.829100
12.013400 5.882600
12.026100 5.936100
12.038800 5.989500
12.051500 4.554100
12.064200 4.561900
12.076900 4.569700
12.089600 4.577500
12.102300 4.585300
12.115000 2.752100
12.127700 2.692900
12.140400 2.633800
12.153100 2.594100
12.165800 2.661300
12.178500 2.728600
12.191200 1.500400
12.203900 1.554200
12.216600 1.608000
12.229300 1.661800
12.242000 1.715700
12.254700 1.769500
12.267400 1.823300
12.280100 1.877100
12.292800 0.000000
12.305500 0.000000
12.318200 0.000000
12.330900 0.000000
12.343600 0.000000
12.356300 0.000000
12.369000 0.000000
12.381700 0.000000
12.394400 0.000000
12.407100 0.000000
12.419800 0.000000
12.432500 0.000000
12.445200 0.000000
12.457900 0.000000
12.470600 0.000000
12.483300 0.000000
12.496000 0.000000
12.508700 0.000000
12.521400 0.000000
12.534100 0.000000
12.546800 0.000000
12.559500 0.000000
12.572200 0.000000
12.584900 0.000000
12.597600 0.000000
12.610300 0.000000
12.623000 0.000000
12.635700 0.000000
12.648400 0.000000
12.661100 0.000000
12.673800 0.000000
12.686500 0.000000
12.699200 0.000000
12.711900 0.000000
12.724600 0.000000
12.737300 0.000000
12.750000 0.000000
12.762700 0.000000
12.775400 0.000000
12.788100 0.000000
12.800800 0.000000
12.813500 0.000000
12.826200 0.000000
12.838900 0.000000
12.851600 0.000000
12.864300 0.000000
12.877000 0.000000
12.889700 0.000000
12.902400 0.000000
12.915100 0.000000
12.927800 0.000000
12.940500 0.000000
12.953200 0.000000
12.965900 0.000000
12.978600 0.000000
12.991300 0.000000
13.004000 0.000000
13.016700 0.000000
13.029400 0.000000
13.042100 0.000000
13.054800 0.000000
13.067500 0.000000
13.080200 0.000000
13.092900 0.000000
13.105600 0.000000
13.118300 0.000000
13.131000 0.000000
13.143700 0.000000
13.156400 0.000000
13.169100 0.000000
13.181800 0.000000
13.194500 0.000000
13.207200 0.000000
13.219900 0.000000
13.232600 0.000000
13.245300 0.000000
13.258000 0.000000
13.270700 0.000000
13.283400 0.000000
13.296100 0.000000
13.308800 0.000000
13.321600 0.000000
13.334300 0.000000
13.347000 0.000000
13.359700 0.000000
13.372400 0.000000
13.385100 0.000000
13.397800 0.000000
13.410500 0.000000
13.423200 0.000000
13.435900 0.000000
e
