set title 'mp-1008681 - Density of States'
set xlabel 'Energy (eV)'
set ylabel 'DOS (states/eV)'
set grid
set xrange [-10:10]
set yrange [0:2.498]
set xzeroaxis lt -1
set terminal png size 800,600
set output 'mp-1008681_dos_gnuplot.png'
plot '-' using 1:2 with lines title 'DOS'
-52.543400 0.000000
-52.476500 0.000000
-52.409500 0.000000
-52.342600 0.000000
-52.275700 0.000000
-52.208800 0.000000
-52.141800 0.000000
-52.074900 0.000000
-52.008000 0.000000
-51.941100 0.000000
-51.874100 0.000000
-51.807200 0.000000
-51.740300 0.000000
-51.673400 0.000000
-51.606400 0.000000
-51.539500 0.000000
-51.472600 0.000000
-51.405700 0.000000
-51.338700 0.000000
-51.271800 0.000000
-51.204900 0.000000
-51.138000 0.000000
-51.071100 0.000000
-51.004100 0.000000
-50.937200 0.000000
-50.870300 0.000000
-50.803400 0.000000
-50.736400 0.000000
-50.669500 0.000000
-50.602600 0.000000
-50.535700 0.000000
-50.468700 0.000000
-50.401800 0.000000
-50.334900 0.000000
-50.268000 0.000000
-50.201000 0.000000
-50.134100 0.000000
-50.067200 0.000000
-50.000300 0.000000
-49.933300 0.000000
-49.866400 0.000000
-49.799500 0.000000
-49.732600 0.000000
-49.665600 0.000000
-49.598700 0.000000
-49.531800 0.000000
-49.464900 0.000000
-49.398000 0.000000
-49.331000 0.000000
-49.264100 0.000000
-49.197200 0.000000
-49.130300 0.000000
-49.063300 0.000000
-48.996400 0.000000
-48.929500 0.000000
-48.862600 0.000000
-48.795600 0.000000
-48.728700 0.000000
-48.661800 0.000000
-48.594900 0.000000
-48.527900 0.000000
-48.461000 0.000000
-48.394100 0.000000
-48.327200 0.000000
-48.260200 0.000000
-48.193300 0.000000
-48.126400 0.000000
-48.059500 0.000000
-47.992500 0.000000
-47.925600 0.000000
-47.858700 0.000000
-47.791800 0.000000
-47.724900 0.000000
-47.657900 0.000000
-47.591000 0.000000
-47.524100 0.000000
-47.457200 0.000000
-47.390200 0.000000
-47.323300 0.000000
-47.256400 0.000000
-47.189500 0.000000
-47.122500 0.000000
-47.055600 0.000000
-46.988700 0.000000
-46.921800 0.000000
-46.854800 0.000000
-46.787900 0.000000
-46.721000 0.000000
-46.654100 0.000000
-46.587100 0.000000
-46.520200 0.000000
-46.453300 1.258300
-46.386400 10.123100
-46.319400 3.622800
-46.252500 0.000000
-46.185600 0.000000
-46.118700 0.000000
-46.051700 0.000000
-45.984800 0.000000
-45.917900 0.000000
-45.851000 0.000000
-45.784100 0.000000
-45.717100 0.000000
-45.650200 0.000000
-45.583300 0.000000
-45.516400 0.000000
-45.449400 0.000000
-45.382500 0.000000
-45.315600 0.000000
-45.248700 0.000000
-45.181700 0.000000
-45.114800 0.000000
-45.047900 0.000000
-44.981000 0.000000
-44.914000 0.000000
-44.847100 0.000000
-44.780200 0.000000
-44.713300 0.000000
-44.646300 0.000000
-44.579400 0.000000
-44.512500 0.000000
-44.445600 0.000000
-44.378600 0.000000
-44.311700 0.000000
-44.244800 0.000000
-44.177900 0.000000
-44.111000 0.000000
-44.044000 0.000000
-43.977100 0.000000
-43.910200 0.000000
-43.843300 0.000000
-43.776300 0.000000
-43.709400 0.000000
-43.642500 0.000000
-43.575600 0.000000
-43.508600 0.000000
-43.441700 0.000000
-43.374800 0.000000
-43.307900 0.000000
-43.240900 0.000000
-43.174000 0.000000
-43.107100 0.000000
-43.040200 0.000000
-42.973200 0.000000
-42.906300 0.000000
-42.839400 0.000000
-42.772500 0.000000
-42.705500 0.000000
-42.638600 0.000000
-42.571700 0.000000
-42.504800 0.000000
-42.437900 0.000000
-42.370900 0.000000
-42.304000 0.000000
-42.237100 0.000000
-42.170200 0.000000
-42.103200 0.000000
-42.036300 0.000000
-41.969400 0.000000
-41.902500 0.000000
-41.835500 0.000000
-41.768600 0.000000
-41.701700 0.000000
-41.634800 0.000000
-41.567800 0.000000
-41.500900 0.000000
-41.434000 0.000000
-41.367100 0.000000
-41.300100 0.000000
-41.233200 0.000000
-41.166300 0.000000
-41.099400 0.000000
-41.032400 0.000000
-40.965500 0.000000
-40.898600 0.000000
-40.831700 0.000000
-40.764800 0.000000
-40.697800 0.000000
-40.630900 0.000000
-40.564000 0.000000
-40.497100 0.000000
-40.430100 0.000000
-40.363200 0.000000
-40.296300 0.000000
-40.229400 0.000000
-40.162400 0.000000
-40.095500 0.000000
-40.028600 0.000000
-39.961700 0.000000
-39.894700 0.000000
-39.827800 0.000000
-39.760900 0.000000
-39.694000 0.000000
-39.627000 0.000000
-39.560100 0.000000
-39.493200 0.000000
-39.426300 0.000000
-39.359300 0.000000
-39.292400 0.000000
-39.225500 0.000000
-39.158600 0.000000
-39.091700 0.000000
-39.024700 0.000000
-38.957800 0.000000
-38.890900 0.000000
-38.824000 0.000000
-38.757000 0.000000
-38.690100 0.000000
-38.623200 0.000000
-38.556300 0.000000
-38.489300 0.000000
-38.422400 0.000000
-38.355500 0.000000
-38.288600 0.000000
-38.221600 0.000000
-38.154700 0.000000
-38.087800 0.000000
-38.020900 0.000000
-37.953900 0.000000
-37.887000 0.000000
-37.820100 0.000000
-37.753200 0.000000
-37.686200 0.000000
-37.619300 0.000000
-37.552400 0.000000
-37.485500 0.000000
-37.418600 0.000000
-37.351600 0.000000
-37.284700 0.000000
-37.217800 0.000000
-37.150900 0.000000
-37.083900 0.000000
-37.017000 0.000000
-36.950100 0.000000
-36.883200 0.000000
-36.816200 0.000000
-36.749300 0.000000
-36.682400 0.000000
-36.615500 0.000000
-36.548500 0.000000
-36.481600 0.000000
-36.414700 0.000000
-36.347800 0.000000
-36.280800 0.000000
-36.213900 0.000000
-36.147000 0.000000
-36.080100 0.000000
-36.013100 0.000000
-35.946200 0.000000
-35.879300 0.000000
-35.812400 0.000000
-35.745500 0.000000
-35.678500 0.000000
-35.611600 0.000000
-35.544700 0.000000
-35.477800 0.000000
-35.410800 0.000000
-35.343900 0.000000
-35.277000 0.000000
-35.210100 0.000000
-35.143100 0.000000
-35.076200 0.000000
-35.009300 0.000000
-34.942400 0.000000
-34.875400 0.000000
-34.808500 0.000000
-34.741600 0.000000
-34.674700 0.000000
-34.607700 0.000000
-34.540800 0.000000
-34.473900 0.000000
-34.407000 0.000000
-34.340000 0.000000
-34.273100 0.000000
-34.206200 0.000000
-34.139300 0.000000
-34.072400 0.000000
-34.005400 0.000000
-33.938500 0.000000
-33.871600 0.000000
-33.804700 0.000000
-33.737700 0.000000
-33.670800 0.000000
-33.603900 0.000000
-33.537000 0.000000
-33.470000 0.000000
-33.403100 0.000000
-33.336200 0.000000
-33.269300 0.000000
-33.202300 0.000000
-33.135400 0.000000
-33.068500 0.000000
-33.001600 0.000000
-32.934600 0.000000
-32.867700 0.000000
-32.800800 0.000000
-32.733900 0.000000
-32.666900 0.000000
-32.600000 0.000000
-32.533100 0.000000
-32.466200 0.000000
-32.399300 0.000000
-32.332300 0.000000
-32.265400 0.000000
-32.198500 0.000000
-32.131600 0.000000
-32.064600 0.000000
-31.997700 0.000000
-31.930800 0.000000
-31.863900 0.000000
-31.796900 0.000000
-31.730000 0.000000
-31.663100 0.000000
-31.596200 0.000000
-31.529200 0.000000
-31.462300 0.000000
-31.395400 0.000000
-31.328500 0.000000
-31.261500 0.000000
-31.194600 0.000000
-31.127700 0.000000
-31.060800 0.000000
-30.993800 0.000000
-30.926900 0.000000
-30.860000 0.000000
-30.793100 0.000000
-30.726200 0.000000
-30.659200 0.000000
-30.592300 0.000000
-30.525400 0.000000
-30.458500 0.000000
-30.391500 0.000000
-30.324600 0.000000
-30.257700 0.000000
-30.190800 0.000000
-30.123800 0.000000
-30.056900 0.000000
-29.990000 0.000000
-29.923100 0.000000
-29.856100 0.000000
-29.789200 0.000000
-29.722300 0.000000
-29.655400 0.000000
-29.588400 0.000000
-29.521500 0.000000
-29.454600 0.000000
-29.387700 0.000000
-29.320700 0.000000
-29.253800 0.000000
-29.186900 0.000000
-29.120000 0.000000
-29.053100 0.000000
-28.986100 0.000000
-28.919200 0.000000
-28.852300 0.000000
-28.785400 0.000000
-28.718400 0.000000
-28.651500 0.000000
-28.584600 0.000000
-28.517700 0.000000
-28.450700 0.000000
-28.383800 0.000000
-28.316900 0.000000
-28.250000 0.000000
-28.183000 0.000000
-28.116100 0.000000
-28.049200 0.000000
-27.982300 0.000000
-27.915300 0.000000
-27.848400 0.000000
-27.781500 0.000000
-27.714600 0.000000
-27.647600 0.000000
-27.580700 0.000000
-27.513800 0.000000
-27.446900 0.000000
-27.380000 0.000000
-27.313000 0.000000
-27.246100 0.000000
-27.179200 0.000000
-27.112300 0.000000
-27.045300 0.000000
-26.978400 0.000000
-26.911500 0.000000
-26.844600 0.000000
-26.777600 0.000000
-26.710700 0.000000
-26.643800 0.000000
-26.576900 0.000000
-26.509900 0.000000
-26.443000 0.000000
-26.376100 0.000000
-26.309200 0.000000
-26.242200 0.000000
-26.175300 0.000000
-26.108400 0.000000
-26.041500 0.000000
-25.974500 0.000000
-25.907600 0.000000
-25.840700 0.000000
-25.773800 0.000000
-25.706800 0.000000
-25.639900 0.000000
-25.573000 0.000000
-25.506100 0.000000
-25.439200 0.000000
-25.372200 3.151900
-25.305300 8.298000
-25.238400 5.079400
-25.171500 4.455200
-25.104500 4.280000
-25.037600 4.509900
-24.970700 5.051000
-24.903800 9.169200
-24.836800 0.000000
-24.769900 0.000000
-24.703000 0.000000
-24.636100 0.000000
-24.569100 0.000000
-24.502200 0.000000
-24.435300 0.000000
-24.368400 0.000000
-24.301400 0.000000
-24.234500 0.000000
-24.167600 0.000000
-24.100700 0.000000
-24.033700 0.000000
-23.966800 0.000000
-23.899900 0.000000
-23.833000 0.000000
-23.766100 0.000000
-23.699100 0.000000
-23.632200 0.000000
-23.565300 0.000000
-23.498400 0.000000
-23.431400 0.000000
-23.364500 0.000000
-23.297600 0.000000
-23.230700 0.000000
-23.163700 0.000000
-23.096800 0.000000
-23.029900 0.000000
-22.963000 0.000000
-22.896000 0.000000
-22.829100 0.000000
-22.762200 0.000000
-22.695300 0.000000
-22.628300 0.000000
-22.561400 0.000000
-22.494500 0.000000
-22.427600 0.000000
-22.360600 0.000000
-22.293700 0.000000
-22.226800 0.000000
-22.159900 0.000000
-22.093000 0.000000
-22.026000 0.000000
-21.959100 0.000000
-21.892200 0.000000
-21.825300 0.000000
-21.758300 0.000000
-21.691400 0.000000
-21.624500 0.000000
-21.557600 0.000000
-21.490600 0.000000
-21.423700 0.000000
-21.356800 0.000000
-21.289900 0.000000
-21.222900 0.000000
-21.156000 0.000000
-21.089100 0.000000
-21.022200 0.000000
-20.955200 0.000000
-20.888300 0.000000
-20.821400 0.000000
-20.754500 0.000000
-20.687500 0.000000
-20.620600 0.000000
-20.553700 0.000000
-20.486800 0.000000
-20.419900 0.000000
-20.352900 0.000000
-20.286000 0.000000
-20.219100 0.000000
-20.152200 0.000000
-20.085200 0.000000
-20.018300 0.000000
-19.951400 0.000000
-19.884500 0.000000
-19.817500 0.000000
-19.750600 0.000000
-19.683700 0.000000
-19.616800 0.000000
-19.549800 0.000000
-19.482900 0.000000
-19.416000 0.000000
-19.349100 0.000000
-19.282100 0.000000
-19.215200 0.000000
-19.148300 0.000000
-19.081400 0.000000
-19.014400 0.000000
-18.947500 0.000000
-18.880600 0.000000
-18.813700 0.000000
-18.746800 0.000000
-18.679800 0.000000
-18.612900 0.000000
-18.546000 0.000000
-18.479100 0.000000
-18.412100 0.000000
-18.345200 0.000000
-18.278300 0.000000
-18.211400 0.000000
-18.144400 0.000000
-18.077500 0.000000
-18.010600 0.000000
-17.943700 0.000000
-17.876700 0.000000
-17.809800 0.000000
-17.742900 0.000000
-17.676000 0.000000
-17.609000 0.000000
-17.542100 0.000000
-17.475200 0.000000
-17.408300 0.000000
-17.341300 0.000000
-17.274400 0.000000
-17.207500 0.000000
-17.140600 0.000000
-17.073700 0.000000
-17.006700 0.000000
-16.939800 0.000000
-16.872900 0.000000
-16.806000 0.000000
-16.739000 0.000000
-16.672100 0.000000
-16.605200 0.000000
-16.538300 0.000000
-16.471300 0.000000
-16.404400 0.000000
-16.337500 0.000000
-16.270600 0.000000
-16.203600 0.000000
-16.136700 0.000000
-16.069800 0.000000
-16.002900 0.000000
-15.935900 0.000000
-15.869000 0.000000
-15.802100 0.000000
-15.735200 0.000000
-15.668200 0.000000
-15.601300 0.000000
-15.534400 0.000000
-15.467500 0.000000
-15.400600 0.000000
-15.333600 0.000000
-15.266700 0.000000
-15.199800 0.000000
-15.132900 0.000000
-15.065900 0.000000
-14.999000 0.000000
-14.932100 0.000000
-14.865200 0.000000
-14.798200 0.000000
-14.731300 0.000000
-14.664400 0.000000
-14.597500 0.000000
-14.530500 0.000000
-14.463600 0.000000
-14.396700 0.000000
-14.329800 0.000000
-14.262800 0.000000
-14.195900 0.000000
-14.129000 0.000000
-14.062100 0.000000
-13.995100 0.000000
-13.928200 0.000000
-13.861300 0.000000
-13.794400 0.000000
-13.727500 0.000000
-13.660500 0.000000
-13.593600 0.000000
-13.526700 0.000000
-13.459800 0.000000
-13.392800 0.000000
-13.325900 0.000000
-13.259000 0.000000
-13.192100 0.000000
-13.125100 0.000000
-13.058200 0.000000
-12.991300 0.000000
-12.924400 0.000000
-12.857400 0.000000
-12.790500 0.000000
-12.723600 0.000000
-12.656700 0.000000
-12.589700 0.000000
-12.522800 0.000000
-12.455900 0.000000
-12.389000 0.000000
-12.322000 0.000000
-12.255100 0.000000
-12.188200 0.000000
-12.121300 0.000000
-12.054400 0.000000
-11.987400 0.000000
-11.920500 0.000000
-11.853600 0.000000
-11.786700 0.000000
-11.719700 0.000000
-11.652800 0.000000
-11.585900 0.000000
-11.519000 0.000000
-11.452000 0.000000
-11.385100 0.000000
-11.318200 0.000000
-11.251300 0.000000
-11.184300 0.000000
-11.117400 0.000000
-11.050500 0.000000
-10.983600 0.000000
-10.916600 0.000000
-10.849700 0.000000
-10.782800 0.000000
-10.715900 0.000000
-10.648900 0.000000
-10.582000 0.000000
-10.515100 0.000000
-10.448200 0.000000
-10.381300 0.000000
-10.314300 0.000000
-10.247400 0.000000
-10.180500 0.000000
-10.113600 0.000000
-10.046600 0.000000
-9.979700 0.000000
-9.912800 0.000000
-9.845900 0.000000
-9.778900 0.000000
-9.712000 0.000000
-9.645100 0.000000
-9.578200 0.000000
-9.511200 0.000000
-9.444300 0.000000
-9.377400 0.000000
-9.310500 0.000000
-9.243500 0.000000
-9.176600 0.000000
-9.109700 0.000000
-9.042800 0.000000
-8.975800 0.000000
-8.908900 0.000000
-8.842000 0.000000
-8.775100 0.000000
-8.708200 0.000000
-8.641200 0.000000
-8.574300 0.000000
-8.507400 0.000000
-8.440500 0.000000
-8.373500 0.000000
-8.306600 0.000000
-8.239700 0.000000
-8.172800 0.000000
-8.105800 0.000000
-8.038900 0.000000
-7.972000 0.000000
-7.905100 0.000000
-7.838100 0.000000
-7.771200 0.000000
-7.704300 0.000000
-7.637400 0.000000
-7.570400 0.000000
-7.503500 0.000000
-7.436600 0.000000
-7.369700 0.000000
-7.302700 0.000000
-7.235800 0.000000
-7.168900 0.000000
-7.102000 0.000000
-7.035100 0.000000
-6.968100 0.000000
-6.901200 0.000000
-6.834300 0.000000
-6.767400 0.000000
-6.700400 0.000000
-6.633500 0.000000
-6.566600 0.000000
-6.499700 0.000000
-6.432700 0.000000
-6.365800 0.000000
-6.298900 0.000000
-6.232000 0.000000
-6.165000 0.000000
-6.098100 0.000000
-6.031200 0.000000
-5.964300 0.000000
-5.897300 0.000000
-5.830400 0.000000
-5.763500 0.000000
-5.696600 0.000000
-5.629600 0.000000
-5.562700 0.000000
-5.495800 0.000000
-5.428900 0.000000
-5.361900 0.000000
-5.295000 0.000000
-5.228100 0.000000
-5.161200 0.000000
-5.094300 0.000000
-5.027300 0.000000
-4.960400 0.000000
-4.893500 0.000000
-4.826600 0.000000
-4.759600 0.000000
-4.692700 0.000000
-4.625800 0.000000
-4.558900 0.000000
-4.491900 0.000000
-4.425000 0.000000
-4.358100 0.000000
-4.291200 0.000000
-4.224200 0.000000
-4.157300 0.000000
-4.090400 0.000000
-4.023500 0.000000
-3.956500 0.000000
-3.889600 0.000000
-3.822700 0.000000
-3.755800 0.000000
-3.688800 0.000000
-3.621900 0.000000
-3.555000 0.000000
-3.488100 0.000000
-3.421200 0.000000
-3.354200 0.000000
-3.287300 0.000000
-3.220400 0.000000
-3.153500 0.000000
-3.086500 0.000000
-3.019600 0.000000
-2.952700 0.000000
-2.885800 0.000000
-2.818800 0.000000
-2.751900 0.000000
-2.685000 0.000000
-2.618100 0.000000
-2.551100 0.000000
-2.484200 0.000000
-2.417300 0.000000
-2.350400 0.000000
-2.283400 0.000000
-2.216500 0.000000
-2.149600 0.000000
-2.082700 0.000000
-2.015700 0.000000
-1.948800 0.000000
-1.881900 0.000000
-1.815000 0.009500
-1.748100 0.018900
-1.681100 0.030800
-1.614200 0.034100
-1.547300 0.038600
-1.480400 0.043000
-1.413400 0.048900
-1.346500 0.053500
-1.279600 0.057000
-1.212700 0.059800
-1.145700 0.063700
-1.078800 0.067900
-1.011900 0.072300
-0.945000 0.076800
-0.878000 0.079600
-0.811100 0.082900
-0.744200 0.086300
-0.677300 0.090000
-0.610300 0.093700
-0.543400 0.097400
-0.476500 0.101600
-0.409600 0.105800
-0.342600 0.109600
-0.275700 0.113300
-0.208800 0.117000
-0.141900 0.120900
-0.075000 0.125100
-0.008000 0.129700
0.058900 0.134400
0.125800 0.139200
0.192700 0.144000
0.259700 0.148800
0.326600 0.153600
0.393500 0.159300
0.460400 0.165200
0.527400 0.171300
0.594300 0.177400
0.661200 0.183600
0.728100 0.189900
0.795100 0.197600
0.862000 0.207600
0.928900 0.218600
0.995800 0.229100
1.062800 0.239800
1.129700 0.250900
1.196600 0.262000
1.263500 0.279800
1.330500 0.314800
1.397400 0.333800
1.464300 0.342300
1.531200 0.370100
1.598100 0.543000
1.665100 0.900600
1.732000 0.842200
1.798900 0.784200
1.865800 0.754600
1.932800 0.846100
1.999700 0.635900
2.066600 0.573700
2.133500 0.517000
2.200500 0.382200
2.267400 0.335700
2.334300 0.230500
2.401200 0.186100
2.468200 0.327800
2.535100 0.604800
2.602000 0.660500
2.668900 0.657900
2.735900 0.734800
2.802800 0.954600
2.869700 1.330500
2.936600 1.680400
3.003600 1.552300
3.070500 1.532400
3.137400 1.500300
3.204300 1.263800
3.271200 1.239900
3.338200 1.240600
3.405100 1.163300
3.472000 1.141700
3.538900 1.276100
3.605900 1.319500
3.672800 1.124500
3.739700 0.962200
3.806600 0.804300
3.873600 0.726100
3.940500 0.722200
4.007400 0.739300
4.074300 0.567500
4.141300 0.486900
4.208200 0.427000
4.275100 0.375700
4.342000 0.370400
4.409000 0.333800
4.475900 0.372300
4.542800 0.588500
4.609700 0.863900
4.676700 0.867100
4.743600 0.789400
4.810500 0.798900
4.877400 0.824100
4.944300 0.852100
5.011300 0.890800
5.078200 0.953800
5.145100 0.979400
5.212000 0.902400
5.279000 0.903300
5.345900 1.248800
5.412800 0.917100
5.479700 0.860500
5.546700 0.925200
5.613600 0.775200
5.680500 1.063900
5.747400 1.509800
5.814400 1.980900
5.881300 2.270600
5.948200 2.076900
6.015100 2.109100
6.082100 1.616400
6.149000 1.385200
6.215900 1.403500
6.282800 1.264500
6.349800 1.228200
6.416700 1.243100
6.483600 1.223500
6.550500 1.154200
6.617400 1.066500
6.684400 1.025300
6.751300 0.960900
6.818200 0.935100
6.885100 0.842300
6.952100 0.554400
7.019000 0.294500
7.085900 0.274000
7.152800 0.255900
7.219800 0.240700
7.286700 0.233000
7.353600 0.216800
7.420500 0.210800
7.487500 0.223300
7.554400 0.122200
7.621300 0.116900
7.688200 0.111800
7.755200 0.107300
7.822100 0.123200
7.889000 0.126400
7.955900 0.123800
8.022900 0.124600
8.089800 0.126000
8.156700 0.128200
8.223600 0.132900
8.290500 0.138200
8.357500 0.144200
8.424400 0.150700
8.491300 0.158000
8.558200 0.174600
8.625200 0.190900
8.692100 0.208800
8.759000 0.265500
8.825900 0.368900
8.892900 0.783200
8.959800 0.551300
9.026700 0.518500
9.093600 0.500700
9.160600 0.466300
9.227500 0.439600
9.294400 0.402600
9.361300 0.384700
9.428300 0.370300
9.495200 0.361600
9.562100 0.354500
9.629000 0.344100
9.696000 0.331600
9.762900 0.323700
9.829800 0.315800
9.896700 0.307500
9.963600 0.299700
10.030600 0.292100
10.097500 0.282800
10.164400 0.276300
10.231300 0.270100
10.298300 0.268200
10.365200 0.260700
10.432100 0.253200
10.499000 0.245500
10.566000 0.238000
10.632900 0.230700
10.699800 0.220300
10.766700 0.246700
10.833700 0.194400
10.900600 0.189700
10.967500 0.186100
11.034400 0.208600
11.101400 0.207200
11.168300 0.195500
11.235200 0.188600
11.302100 0.181100
11.369100 0.177200
11.436000 0.176400
11.502900 0.177500
11.569800 0.178900
11.636700 0.192000
11.703700 0.183600
11.770600 0.182600
11.837500 0.185500
11.904400 0.193300
11.971400 0.194900
12.038300 0.202900
12.105200 0.199000
12.172100 0.205000
12.239100 0.212700
12.306000 0.223600
12.372900 0.243600
12.439800 0.283500
12.506800 0.321600
12.573700 0.415900
12.640600 0.589000
12.707500 0.643900
12.774500 0.633100
12.841400 0.532300
12.908300 0.531700
12.975200 0.524300
13.042200 0.518000
13.109100 0.515100
13.176000 0.498300
13.242900 0.474000
13.309800 0.455400
13.376800 0.432100
13.443700 0.426400
13.510600 0.428800
13.577500 0.424800
13.644500 0.424600
13.711400 0.423700
13.778300 0.413300
13.845200 0.407900
13.912200 0.400500
13.979100 0.403800
14.046000 0.394900
14.112900 0.387600
14.179900 0.375700
14.246800 0.374100
14.313700 0.373600
14.380600 0.374500
14.447600 0.375200
14.514500 0.375900
14.581400 0.370200
14.648300 0.364600
14.715300 0.360100
14.782200 0.357700
14.849100 0.355000
14.916000 0.352900
14.983000 0.351300
15.049900 0.359600
15.116800 0.364800
15.183700 0.368300
15.250600 0.372000
15.317600 0.360300
15.384500 0.359200
15.451400 0.360700
15.518300 0.357800
15.585300 0.357000
15.652200 0.356400
15.719100 0.355400
15.786000 0.355900
15.853000 0.357600
15.919900 0.365200
15.986800 0.469300
16.053700 0.501400
16.120700 0.524700
16.187600 0.543300
16.254500 0.560000
16.321400 0.598000
16.388400 0.594100
16.455300 0.559500
16.522200 0.512000
16.589100 0.500400
16.656100 0.501400
16.723000 0.516200
16.789900 0.542000
16.856800 0.503000
16.923700 0.506000
16.990700 0.480300
17.057600 0.479300
17.124500 0.492300
17.191400 0.487900
17.258400 0.494700
17.325300 0.486000
17.392200 0.490500
17.459100 0.537100
17.526100 0.570300
17.593000 0.496000
17.659900 0.439100
17.726800 0.390900
17.793800 0.391700
17.860700 0.390100
17.927600 0.388300
17.994500 0.387500
18.061500 0.400900
18.128400 0.412800
18.195300 0.445300
18.262200 0.459200
18.329200 0.462600
18.396100 0.483200
18.463000 0.507200
18.529900 0.537200
18.596800 0.558900
18.663800 0.611400
18.730700 0.740500
18.797600 0.825400
18.864500 0.669000
18.931500 0.646300
18.998400 0.596800
19.065300 0.600700
19.132200 0.528600
19.199200 0.433600
19.266100 0.411200
19.333000 0.401100
19.399900 0.391500
19.466900 0.387400
19.533800 0.380800
19.600700 0.384100
19.667600 0.452600
19.734600 0.544800
19.801500 0.470200
19.868400 0.476000
19.935300 0.483300
20.002300 0.492200
20.069200 0.484000
20.136100 0.474200
20.203000 0.471600
20.269900 0.474200
20.336900 0.491600
20.403800 0.480500
20.470700 0.477500
20.537600 0.471700
20.604600 0.453500
20.671500 0.449300
20.738400 0.452200
20.805300 0.450300
20.872300 0.450700
20.939200 0.444500
21.006100 0.439300
21.073000 0.432500
21.140000 0.427200
21.206900 0.425000
21.273800 0.415200
21.340700 0.403200
21.407700 0.373500
21.474600 0.344600
21.541500 0.347900
21.608400 0.298400
21.675400 0.303200
21.742300 0.420400
21.809200 0.367100
21.876100 0.313200
21.943000 0.295300
22.010000 0.281100
22.076900 0.282000
22.143800 0.508200
22.210700 0.320700
22.277700 0.328900
22.344600 0.358300
22.411500 0.383700
22.478400 0.398800
22.545400 0.379500
22.612300 0.377700
22.679200 0.378300
22.746100 0.378900
22.813100 0.461900
22.880000 0.596200
22.946900 0.703000
23.013800 0.770200
23.080800 0.619200
23.147700 0.569400
23.214600 0.518300
23.281500 0.483400
23.348500 0.449400
23.415400 0.412400
23.482300 0.419300
23.549200 0.387600
23.616100 0.392300
23.683100 0.411300
23.750000 0.450200
23.816900 0.488600
23.883800 0.548100
23.950800 0.559700
24.017700 0.555500
24.084600 0.554000
24.151500 0.741900
24.218500 0.666000
24.285400 0.704300
24.352300 0.650500
24.419200 0.656100
24.486200 0.630800
24.553100 0.603000
24.620000 0.552700
24.686900 0.538800
24.753900 0.558000
24.820800 0.499500
24.887700 0.436100
24.954600 0.440000
25.021600 0.437300
25.088500 0.440600
25.155400 0.445700
25.222300 0.454500
25.289200 0.499800
25.356200 0.533200
25.423100 0.568200
25.490000 0.614500
25.556900 0.706700
25.623900 0.784100
25.690800 0.752700
25.757700 0.782100
25.824600 0.645400
25.891600 0.585900
25.958500 0.541700
26.025400 0.506900
26.092300 0.463200
26.159300 0.435500
26.226200 0.415900
26.293100 0.431300
26.360000 0.442900
26.427000 0.405200
26.493900 0.391100
26.560800 0.402100
26.627700 0.563500
26.694700 0.421600
26.761600 0.430500
26.828500 0.506300
26.895400 0.588400
26.962300 0.666300
27.029300 0.661100
27.096200 0.659000
27.163100 0.646700
27.230000 0.626200
27.297000 0.606000
27.363900 0.609900
27.430800 0.578400
27.497700 0.576800
27.564700 0.536400
27.631600 0.524200
27.698500 0.521200
27.765400 0.530200
27.832400 0.499900
27.899300 0.477400
27.966200 0.471300
28.033100 0.477300
28.100100 0.497000
28.167000 0.483000
28.233900 0.464000
28.300800 0.497700
28.367800 0.587100
28.434700 0.642200
28.501600 0.576300
28.568500 0.470800
28.635400 0.441500
28.702400 0.409800
28.769300 0.394800
28.836200 0.396800
28.903100 0.408900
28.970100 0.428700
29.037000 0.440300
29.103900 0.520600
29.170800 0.560800
29.237800 0.616600
29.304700 0.610500
29.371600 0.571300
29.438500 0.575900
29.505500 0.600300
29.572400 0.624100
29.639300 0.633900
29.706200 0.634600
29.773200 0.612100
29.840100 0.613200
29.907000 0.645100
29.973900 0.621600
30.040900 0.582800
30.107800 0.468100
30.174700 0.418900
30.241600 0.393100
30.308500 0.374900
30.375500 0.397000
30.442400 0.413500
30.509300 0.427900
30.576200 0.436500
30.643200 0.440000
30.710100 0.459400
30.777000 0.484100
30.843900 0.494800
30.910900 0.504200
30.977800 0.531300
31.044700 0.541800
31.111600 0.539200
31.178600 0.554100
31.245500 0.535200
31.312400 0.539200
31.379300 0.536200
31.446300 0.524900
31.513200 0.524200
31.580100 0.546300
31.647000 0.534700
31.714000 0.528200
31.780900 0.521200
31.847800 0.513900
31.914700 0.507100
31.981600 0.520600
32.048600 0.517400
32.115500 0.517400
32.182400 0.494900
32.249300 0.480000
32.316300 0.480900
32.383200 0.520400
32.450100 0.567000
32.517000 0.551900
32.584000 0.554700
32.650900 0.559800
32.717800 0.576600
32.784700 0.583300
32.851700 0.565100
32.918600 0.541900
32.985500 0.534400
33.052400 0.530100
33.119400 0.529700
33.186300 0.496100
33.253200 0.468300
33.320100 0.430300
33.387100 0.404400
33.454000 0.405700
33.520900 0.413700
33.587800 0.448600
33.654700 0.516600
33.721700 0.524000
33.788600 0.593900
33.855500 0.628600
33.922400 0.591800
33.989400 0.599900
34.056300 0.629800
34.123200 0.663500
34.190100 0.637000
34.257100 0.631700
34.324000 0.624600
34.390900 0.617500
34.457800 0.733000
34.524800 0.653500
34.591700 0.655900
34.658600 0.654100
34.725500 0.648500
34.792500 0.648500
34.859400 0.626700
34.926300 0.627700
34.993200 0.629300
35.060200 0.675700
35.127100 0.667500
35.194000 0.642800
35.260900 0.684300
35.327900 0.689000
35.394800 0.739000
35.461700 0.704100
35.528600 0.689700
35.595500 0.635800
35.662500 0.664900
35.729400 0.706700
35.796300 0.758700
35.863200 0.770600
35.930200 0.800100
35.997100 0.842000
36.064000 0.840300
36.130900 0.821200
36.197900 0.791100
36.264800 0.775700
36.331700 0.714800
36.398600 0.660100
36.465600 0.643000
36.532500 0.621400
36.599400 0.604100
36.666300 0.563700
36.733300 0.521000
36.800200 0.499000
36.867100 0.494400
36.934000 0.509800
37.001000 0.501300
37.067900 0.499700
37.134800 0.527700
37.201700 0.542000
37.268600 0.602100
37.335600 0.649000
37.402500 0.629500
37.469400 0.601300
37.536300 0.554500
37.603300 0.499900
37.670200 0.488100
37.737100 0.476000
37.804000 0.490400
37.871000 0.491600
37.937900 0.490600
38.004800 0.505200
38.071700 0.522100
38.138700 0.559700
38.205600 0.603000
38.272500 0.641200
38.339400 0.677700
38.406400 0.673800
38.473300 0.736900
38.540200 0.700600
38.607100 0.749800
38.674100 0.773100
38.741000 0.769000
38.807900 0.694700
38.874800 0.685100
38.941700 0.735600
39.008700 0.737600
39.075600 0.748400
39.142500 0.729900
39.209400 0.715600
39.276400 0.689200
39.343300 0.655900
39.410200 0.642900
39.477100 0.633900
39.544100 0.605200
39.611000 0.600800
39.677900 0.601000
39.744800 0.626200
39.811800 0.677700
39.878700 0.713400
39.945600 0.722400
40.012500 0.669600
40.079500 0.579100
40.146400 0.464500
40.213300 0.392600
40.280200 0.334700
40.347200 0.314500
40.414100 0.339000
40.481000 0.395600
40.547900 0.429500
40.614800 0.470200
40.681800 0.510800
40.748700 0.517800
40.815600 0.514600
40.882500 0.521000
40.949500 0.521400
41.016400 0.536300
41.083300 0.547000
41.150200 0.560600
41.217200 0.587500
41.284100 0.654400
41.351000 0.708700
41.417900 0.605300
41.484900 0.540600
41.551800 0.604700
41.618700 0.637900
41.685600 0.651000
41.752600 0.678200
41.819500 0.704300
41.886400 0.753400
41.953300 0.644000
42.020300 0.645300
42.087200 0.656100
42.154100 0.680300
42.221000 0.709300
42.287900 0.753800
42.354900 0.831500
42.421800 0.904100
42.488700 0.902400
42.555600 0.927400
42.622600 1.038600
42.689500 1.021400
42.756400 0.984800
42.823300 0.856300
42.890300 0.810900
42.957200 0.781500
43.024100 0.731200
43.091000 0.712700
43.158000 0.692400
43.224900 0.658900
43.291800 0.657200
43.358700 0.691900
43.425700 0.737200
43.492600 0.753300
43.559500 0.812600
43.626400 0.919600
43.693400 0.820400
43.760300 0.800500
43.827200 0.717500
43.894100 0.573000
43.961000 0.532000
44.028000 0.499600
44.094900 0.475100
44.161800 0.439100
44.228700 0.422100
44.295700 0.409300
44.362600 0.416000
44.429500 0.422400
44.496400 0.479400
44.563400 0.505100
44.630300 0.485200
44.697200 0.508600
44.764100 0.544900
44.831100 0.594100
44.898000 0.602400
44.964900 0.600400
45.031800 0.604500
45.098800 0.622500
45.165700 0.669000
45.232600 0.778000
45.299500 0.844400
45.366500 0.795400
45.433400 0.757400
45.500300 0.744400
45.567200 0.735300
45.634100 0.698200
45.701100 0.688600
45.768000 0.683100
45.834900 0.642200
45.901800 0.641400
45.968800 0.664700
46.035700 0.625000
46.102600 0.703200
46.169500 0.585300
46.236500 0.519900
46.303400 0.509300
46.370300 0.522400
46.437200 0.547500
46.504200 0.596900
46.571100 0.619800
46.638000 0.714600
46.704900 0.792200
46.771900 0.809100
46.838800 0.825800
46.905700 0.882400
46.972600 0.937100
47.039600 0.770800
47.106500 0.722500
47.173400 0.695500
47.240300 0.771200
47.307200 0.719900
47.374200 0.744000
47.441100 0.708200
47.508000 0.689600
47.574900 0.722000
47.641900 0.697200
47.708800 0.690200
47.775700 0.677900
47.842600 0.669900
47.909600 0.667100
47.976500 0.713400
48.043400 0.774200
48.110300 0.862300
48.177300 0.838800
48.244200 0.804100
48.311100 0.823500
48.378000 0.866500
48.445000 0.833000
48.511900 0.850600
48.578800 0.855500
48.645700 0.845000
48.712700 0.840500
48.779600 0.824000
48.846500 0.822600
48.913400 0.844000
48.980300 0.833900
49.047300 0.855000
49.114200 0.880700
49.181100 0.873500
49.248000 0.833900
49.315000 0.793700
49.381900 0.732400
49.448800 0.753600
49.515700 0.712300
49.582700 0.693300
49.649600 0.694600
49.716500 0.657400
49.783400 0.632700
49.850400 0.601000
49.917300 0.564500
49.984200 0.535400
50.051100 0.500400
50.118100 0.447200
50.185000 0.439900
50.251900 0.434900
50.318800 0.451400
50.385800 0.475700
50.452700 0.509800
50.519600 0.550300
50.586500 0.599100
50.653400 0.684200
50.720400 0.838000
50.787300 0.928200
50.854200 0.989000
50.921100 0.955100
50.988100 0.863300
51.055000 0.820600
51.121900 0.764800
51.188800 0.728100
51.255800 0.700400
51.322700 0.656400
51.389600 0.625000
51.456500 0.571400
51.523500 0.542800
51.590400 0.579100
51.657300 0.608200
51.724200 0.681100
51.791200 0.748600
51.858100 0.836000
51.925000 0.986000
51.991900 0.880400
52.058900 0.840300
52.125800 0.825100
52.192700 0.765100
52.259600 0.727900
52.326500 0.725700
52.393500 0.735500
52.460400 0.788800
52.527300 0.795300
52.594200 0.845700
52.661200 0.729600
52.728100 0.712500
52.795000 0.690100
52.861900 0.666000
52.928900 0.644300
52.995800 0.618900
53.062700 0.623100
53.129600 0.633300
53.196600 0.612700
53.263500 0.590800
53.330400 0.561100
53.397300 0.532800
53.464300 0.518800
53.531200 0.478300
53.598100 0.444800
53.665000 0.418300
53.732000 0.444300
53.798900 0.454600
53.865800 0.465600
53.932700 0.487700
53.999600 0.512400
54.066600 0.541600
54.133500 0.582200
54.200400 0.650600
54.267300 0.715100
54.334300 0.796600
54.401200 0.832200
54.468100 0.839400
54.535000 0.840700
54.602000 0.881800
54.668900 0.843500
54.735800 0.818000
54.802700 0.787200
54.869700 0.764300
54.936600 0.710200
55.003500 0.680300
55.070400 0.616000
55.137400 0.554500
55.204300 0.512800
55.271200 0.465600
55.338100 0.434600
55.405100 0.458600
55.472000 0.492900
55.538900 0.576200
55.605800 0.634500
55.672800 0.672100
55.739700 0.714500
55.806600 0.762400
55.873500 0.756000
55.940400 0.742500
56.007400 0.755300
56.074300 0.766900
56.141200 0.762900
56.208100 0.738800
56.275100 0.699000
56.342000 0.669300
56.408900 0.629500
56.475800 0.624400
56.542800 0.644600
56.609700 0.670400
56.676600 0.728000
56.743500 0.750200
56.810500 0.700800
56.877400 0.688400
56.944300 0.691100
57.011200 0.741400
57.078200 0.768500
57.145100 0.833500
57.212000 0.844800
57.278900 0.830200
57.345900 0.804600
57.412800 0.826800
57.479700 0.815100
57.546600 0.768000
57.613500 0.717800
57.680500 0.643300
57.747400 0.628700
57.814300 0.611600
57.881200 0.646700
57.948200 0.680500
58.015100 0.801700
58.082000 0.889700
58.148900 0.936700
58.215900 0.982900
58.282800 0.966600
58.349700 0.875100
58.416600 0.881000
58.483600 0.856900
58.550500 0.851600
58.617400 0.829200
58.684300 0.809800
58.751300 0.832900
58.818200 0.823200
58.885100 0.794900
58.952000 0.763000
59.019000 0.756100
59.085900 0.752400
59.152800 0.745600
59.219700 0.736600
59.286600 0.755100
59.353600 0.780400
59.420500 0.791000
59.487400 0.809100
59.554300 0.811300
59.621300 0.820600
59.688200 0.816800
59.755100 0.806300
59.822000 0.790000
59.889000 0.788800
59.955900 0.816800
60.022800 0.777600
60.089700 0.755300
60.156700 0.737500
60.223600 0.746800
60.290500 0.766100
60.357400 0.780700
60.424400 0.757200
60.491300 0.753700
60.558200 0.756500
60.625100 0.763300
60.692100 0.768700
60.759000 0.802300
60.825900 0.813600
60.892800 0.826000
60.959700 0.849200
61.026700 0.777600
61.093600 0.766500
61.160500 0.767400
61.227400 0.816200
61.294400 0.843200
61.361300 0.801100
61.428200 0.791400
61.495100 0.811200
61.562100 0.818700
61.629000 0.805900
61.695900 0.817600
61.762800 0.875300
61.829800 0.990900
61.896700 0.918500
61.963600 0.883100
62.030500 0.829400
62.097500 0.834300
62.164400 0.838400
62.231300 0.804400
62.298200 0.787600
62.365200 0.806800
62.432100 0.822600
62.499000 0.817200
62.565900 0.798400
62.632800 0.807600
62.699800 0.793800
62.766700 0.794300
62.833600 0.779300
62.900500 0.765400
62.967500 0.759300
63.034400 0.754200
63.101300 0.751500
63.168200 0.767400
63.235200 0.772500
63.302100 0.742700
63.369000 0.758900
63.435900 0.773200
63.502900 0.774500
63.569800 0.777100
63.636700 0.796900
63.703600 0.838600
63.770600 0.839800
63.837500 0.837500
63.904400 0.868500
63.971300 0.854300
64.038300 0.808300
64.105200 0.829000
64.172100 0.840300
64.239000 0.832800
64.305900 0.824600
64.372900 0.810800
64.439800 0.788400
64.506700 0.778600
64.573600 0.775200
64.640600 0.778500
64.707500 0.787600
64.774400 0.750400
64.841300 0.765200
64.908300 0.767900
64.975200 0.771100
65.042100 0.781600
65.109000 0.771000
65.176000 0.741700
65.242900 0.727200
65.309800 0.700500
65.376700 0.687100
65.443700 0.728900
65.510600 0.746900
65.577500 0.783800
65.644400 0.773700
65.711400 0.764300
65.778300 0.764500
65.845200 0.765200
65.912100 0.784700
65.979000 0.794500
66.046000 0.828500
66.112900 0.899100
66.179800 0.865600
66.246700 0.835600
66.313700 0.844600
66.380600 0.818100
66.447500 0.746600
66.514400 0.707300
66.581400 0.703600
66.648300 0.725100
66.715200 0.717000
66.782100 0.720200
66.849100 0.728800
66.916000 0.722200
66.982900 0.746400
67.049800 0.729800
67.116800 0.717700
67.183700 0.704200
67.250600 0.709400
67.317500 0.720300
67.384500 0.688700
67.451400 0.692300
67.518300 0.694200
67.585200 0.689600
67.652100 0.694500
67.719100 0.678300
67.786000 0.662000
67.852900 0.653800
67.919800 0.648200
67.986800 0.669500
68.053700 0.687400
68.120600 0.706500
68.187500 0.690600
68.254500 0.707600
68.321400 0.736600
68.388300 0.712100
68.455200 0.692700
68.522200 0.684200
68.589100 0.681200
68.656000 0.722700
68.722900 0.686700
68.789900 0.693900
68.856800 0.681400
68.923700 0.644200
68.990600 0.633500
69.057600 0.641000
69.124500 0.643900
69.191400 0.655800
69.258300 0.678200
69.325200 0.704500
69.392200 0.751600
69.459100 0.844600
69.526000 0.920300
69.592900 0.912300
69.659900 0.821400
69.726800 0.753900
69.793700 0.625300
69.860600 0.618300
69.927600 0.646800
69.994500 0.706100
70.061400 1.403300
70.128300 0.756200
70.195300 0.786900
70.262200 0.791300
70.329100 0.707900
70.396000 0.711700
70.463000 0.627600
70.529900 0.574400
70.596800 0.514400
70.663700 0.433400
70.730700 0.385100
70.797600 0.344600
70.864500 0.313200
70.931400 0.290100
70.998300 0.271200
71.065300 0.255900
71.132200 0.241800
71.199100 0.234000
71.266000 0.220300
71.333000 0.211200
71.399900 0.196800
71.466800 0.192800
71.533700 0.189500
71.600700 0.182500
71.667600 0.178900
71.734500 0.178400
71.801400 0.183700
71.868400 0.214000
71.935300 0.271900
72.002200 0.331000
72.069100 0.206200
72.136100 0.155400
72.203000 0.145500
72.269900 0.138300
72.336800 0.126800
72.403800 0.114600
72.470700 0.101800
72.537600 0.091000
72.604500 0.086500
72.671400 0.078900
72.738400 0.082000
72.805300 0.099000
72.872200 0.108100
72.939100 0.108000
73.006100 0.101100
73.073000 0.075700
73.139900 0.058400
73.206800 0.043200
73.273800 0.037000
73.340700 0.030800
73.407600 0.024600
73.474500 0.018400
73.541500 0.012400
73.608400 0.008000
73.675300 0.004700
73.742200 0.002900
73.809200 0.002700
73.876100 0.002500
73.943000 0.002300
74.009900 0.002100
74.076900 0.001900
74.143800 0.001800
74.210700 0.001600
74.277600 0.001500
74.344500 0.001300
74.411500 0.001200
74.478400 0.001100
74.545300 0.000000
74.612200 0.000000
74.679200 0.000000
74.746100 0.000000
74.813000 0.000000
74.879900 0.000000
74.946900 0.000000
75.013800 0.000000
75.080700 0.000000
75.147600 0.000000
75.214600 0.000000
75.281500 0.000000
75.348400 0.000000
75.415300 0.000000
75.482300 0.000000
75.549200 0.000000
75.616100 0.000000
75.683000 0.000000
75.750000 0.000000
75.816900 0.000000
75.883800 0.000000
75.950700 0.000000
76.017700 0.000000
76.084600 0.000000
76.151500 0.000000
76.218400 0.000000
76.285300 0.000000
76.352300 0.000000
76.419200 0.000000
76.486100 0.000000
76.553000 0.000000
76.620000 0.000000
76.686900 0.000000
76.753800 0.000000
76.820700 0.000000
76.887700 0.000000
76.954600 0.000000
77.021500 0.000000
77.088400 0.000000
77.155400 0.000000
77.222300 0.000000
77.289200 0.000000
77.356100 0.000000
77.423100 0.000000
77.490000 0.000000
77.556900 0.000000
77.623800 0.000000
77.690800 0.000000
77.757700 0.000000
77.824600 0.000000
77.891500 0.000000
77.958400 0.000000
78.025400 0.000000
78.092300 0.000000
78.159200 0.000000
78.226100 0.000000
78.293100 0.000000
78.360000 0.000000
78.426900 0.000000
78.493800 0.000000
78.560800 0.000000
78.627700 0.000000
78.694600 0.000000
78.761500 0.000000
78.828500 0.000000
78.895400 0.000000
78.962300 0.000000
79.029200 0.000000
79.096200 0.000000
79.163100 0.000000
79.230000 0.000000
79.296900 0.000000
79.363900 0.000000
79.430800 0.000000
79.497700 0.000000
79.564600 0.000000
79.631500 0.000000
79.698500 0.000000
79.765400 0.000000
79.832300 0.000000
79.899200 0.000000
79.966200 0.000000
80.033100 0.000000
80.100000 0.000000
80.166900 0.000000
80.233900 0.000000
80.300800 0.000000
80.367700 0.000000
80.434600 0.000000
80.501600 0.000000
80.568500 0.000000
80.635400 0.000000
80.702300 0.000000
80.769300 0.000000
80.836200 0.000000
80.903100 0.000000
80.970000 0.000000
81.037000 0.000000
81.103900 0.000000
81.170800 0.000000
81.237700 0.000000
81.304600 0.000000
e
