set title 'mp-979285 - Density of States'
set xlabel 'Energy (eV)'
set ylabel 'DOS (states/eV)'
set grid
set xrange [-10:10]
set yrange [0:48.349]
set xzeroaxis lt -1
set terminal png size 800,600
set output 'mp-979285_dos_gnuplot.png'
plot '-' using 1:2 with lines title 'DOS'
-21.506400 0.000000
-21.477800 0.000000
-21.449200 0.000000
-21.420500 0.000000
-21.391900 0.000000
-21.363200 0.000000
-21.334600 0.000000
-21.306000 0.000000
-21.277300 0.000000
-21.248700 0.000000
-21.220100 0.000000
-21.191400 0.000000
-21.162800 0.000000
-21.134100 0.000000
-21.105500 0.000000
-21.076900 0.000000
-21.048200 0.000000
-21.019600 0.000000
-20.991000 0.000000
-20.962300 0.000000
-20.933700 0.000000
-20.905000 0.000000
-20.876400 0.000000
-20.847800 0.000000
-20.819100 0.000000
-20.790500 0.000000
-20.761900 0.000000
-20.733200 0.000000
-20.704600 0.000000
-20.675900 0.000000
-20.647300 0.000000
-20.618700 0.000000
-20.590000 0.000000
-20.561400 0.000000
-20.532700 0.000000
-20.504100 0.000000
-20.475500 0.000000
-20.446800 0.000000
-20.418200 0.000000
-20.389600 0.000000
-20.360900 0.000000
-20.332300 0.000000
-20.303600 0.000000
-20.275000 0.000000
-20.246400 0.000000
-20.217700 0.000000
-20.189100 0.000000
-20.160500 0.000000
-20.131800 0.000000
-20.103200 0.000000
-20.074500 0.000000
-20.045900 0.000000
-20.017300 0.000000
-19.988600 0.000000
-19.960000 0.000000
-19.931400 0.000000
-19.902700 0.000000
-19.874100 0.000000
-19.845400 0.000000
-19.816800 0.000000
-19.788200 0.000000
-19.759500 0.000000
-19.730900 0.000000
-19.702300 0.000000
-19.673600 0.000000
-19.645000 0.000000
-19.616300 0.000000
-19.587700 0.000000
-19.559100 0.000000
-19.530400 0.000000
-19.501800 0.000000
-19.473200 0.000000
-19.444500 0.000000
-19.415900 0.000000
-19.387200 0.000000
-19.358600 0.000000
-19.330000 0.000000
-19.301300 0.000000
-19.272700 0.000000
-19.244100 0.000000
-19.215400 0.000000
-19.186800 0.000000
-19.158100 0.000000
-19.129500 0.000000
-19.100900 0.000000
-19.072200 0.000000
-19.043600 0.000000
-19.015000 0.000000
-18.986300 0.000000
-18.957700 0.000000
-18.929000 0.000000
-18.900400 8.289600
-18.871800 58.660400
-18.843100 0.000000
-18.814500 0.000000
-18.785800 0.000000
-18.757200 0.000000
-18.728600 0.000000
-18.699900 0.000000
-18.671300 0.000000
-18.642700 0.000000
-18.614000 0.000000
-18.585400 0.000000
-18.556700 0.000000
-18.528100 0.000000
-18.499500 0.000000
-18.470800 0.000000
-18.442200 0.000000
-18.413600 0.000000
-18.384900 0.000000
-18.356300 0.000000
-18.327600 0.000000
-18.299000 0.000000
-18.270400 0.000000
-18.241700 0.000000
-18.213100 0.000000
-18.184500 0.000000
-18.155800 0.000000
-18.127200 0.000000
-18.098500 0.000000
-18.069900 0.000000
-18.041300 0.000000
-18.012600 0.000000
-17.984000 0.000000
-17.955400 0.000000
-17.926700 0.000000
-17.898100 0.000000
-17.869400 0.000000
-17.840800 0.000000
-17.812200 0.000000
-17.783500 0.000000
-17.754900 0.000000
-17.726300 0.000000
-17.697600 0.000000
-17.669000 0.000000
-17.640300 0.000000
-17.611700 0.000000
-17.583100 0.000000
-17.554400 0.000000
-17.525800 0.000000
-17.497200 0.000000
-17.468500 0.000000
-17.439900 0.000000
-17.411200 0.000000
-17.382600 0.000000
-17.354000 0.000000
-17.325300 0.000000
-17.296700 0.000000
-17.268100 0.000000
-17.239400 0.000000
-17.210800 0.000000
-17.182100 0.000000
-17.153500 0.000000
-17.124900 0.000000
-17.096200 0.000000
-17.067600 0.000000
-17.038900 0.000000
-17.010300 0.000000
-16.981700 0.000000
-16.953000 0.000000
-16.924400 0.000000
-16.895800 0.000000
-16.867100 0.000000
-16.838500 0.000000
-16.809800 0.000000
-16.781200 0.000000
-16.752600 0.000000
-16.723900 0.000000
-16.695300 0.000000
-16.666700 0.000000
-16.638000 0.000000
-16.609400 0.000000
-16.580700 0.000000
-16.552100 0.000000
-16.523500 0.000000
-16.494800 0.000000
-16.466200 0.000000
-16.437600 0.000000
-16.408900 0.000000
-16.380300 0.000000
-16.351600 0.000000
-16.323000 0.000000
-16.294400 0.000000
-16.265700 0.000000
-16.237100 0.000000
-16.208500 0.000000
-16.179800 0.000000
-16.151200 0.000000
-16.122500 0.000000
-16.093900 0.000000
-16.065300 0.000000
-16.036600 0.000000
-16.008000 0.000000
-15.979400 0.000000
-15.950700 0.000000
-15.922100 0.000000
-15.893400 0.000000
-15.864800 0.000000
-15.836200 0.000000
-15.807500 0.000000
-15.778900 0.000000
-15.750300 0.000000
-15.721600 0.000000
-15.693000 0.000000
-15.664300 0.000000
-15.635700 0.000000
-15.607100 0.000000
-15.578400 0.000000
-15.549800 0.000000
-15.521200 0.000000
-15.492500 0.000000
-15.463900 0.000000
-15.435200 0.000000
-15.406600 0.000000
-15.378000 0.000000
-15.349300 0.000000
-15.320700 0.000000
-15.292000 0.000000
-15.263400 0.000000
-15.234800 0.000000
-15.206100 0.000000
-15.177500 0.000000
-15.148900 0.000000
-15.120200 0.000000
-15.091600 0.000000
-15.062900 0.000000
-15.034300 0.000000
-15.005700 0.000000
-14.977000 0.000000
-14.948400 0.000000
-14.919800 0.000000
-14.891100 0.000000
-14.862500 0.000000
-14.833800 0.000000
-14.805200 0.000000
-14.776600 0.000000
-14.747900 0.000000
-14.719300 0.000000
-14.690700 0.000000
-14.662000 0.000000
-14.633400 0.000000
-14.604700 0.000000
-14.576100 0.000000
-14.547500 0.000000
-14.518800 0.000000
-14.490200 0.000000
-14.461600 0.000000
-14.432900 0.000000
-14.404300 0.000000
-14.375600 0.000000
-14.347000 0.000000
-14.318400 0.000000
-14.289700 0.000000
-14.261100 0.000000
-14.232500 0.000000
-14.203800 0.000000
-14.175200 0.000000
-14.146500 0.000000
-14.117900 0.000000
-14.089300 0.000000
-14.060600 0.000000
-14.032000 0.000000
-14.003400 0.000000
-13.974700 0.000000
-13.946100 0.000000
-13.917400 0.000000
-13.888800 0.000000
-13.860200 0.000000
-13.831500 0.000000
-13.802900 0.000000
-13.774300 0.000000
-13.745600 0.000000
-13.717000 0.000000
-13.688300 0.000000
-13.659700 0.000000
-13.631100 0.000000
-13.602400 0.000000
-13.573800 0.000000
-13.545100 0.000000
-13.516500 0.000000
-13.487900 0.000000
-13.459200 0.000000
-13.430600 0.000000
-13.402000 0.000000
-13.373300 0.000000
-13.344700 0.000000
-13.316000 0.000000
-13.287400 0.000000
-13.258800 0.000000
-13.230100 0.000000
-13.201500 0.000000
-13.172900 0.000000
-13.144200 0.000000
-13.115600 0.000000
-13.086900 0.000000
-13.058300 0.000000
-13.029700 0.000000
-13.001000 0.000000
-12.972400 0.000000
-12.943800 0.000000
-12.915100 0.000000
-12.886500 0.000000
-12.857800 0.000000
-12.829200 0.000000
-12.800600 0.000000
-12.771900 0.000000
-12.743300 0.000000
-12.714700 0.000000
-12.686000 0.000000
-12.657400 0.000000
-12.628700 0.000000
-12.600100 0.000000
-12.571500 0.000000
-12.542800 0.000000
-12.514200 0.000000
-12.485600 0.000000
-12.456900 0.000000
-12.428300 0.000000
-12.399600 0.000000
-12.371000 0.000000
-12.342400 0.000000
-12.313700 0.000000
-12.285100 0.000000
-12.256500 0.000000
-12.227800 0.000000
-12.199200 0.000000
-12.170500 0.000000
-12.141900 0.000000
-12.113300 0.000000
-12.084600 0.000000
-12.056000 0.000000
-12.027400 0.000000
-11.998700 0.000000
-11.970100 0.000000
-11.941400 0.000000
-11.912800 0.000000
-11.884200 0.000000
-11.855500 0.000000
-11.826900 0.000000
-11.798200 0.000000
-11.769600 0.000000
-11.741000 0.000000
-11.712300 0.000000
-11.683700 0.000000
-11.655100 0.000000
-11.626400 0.000000
-11.597800 0.000000
-11.569100 0.000000
-11.540500 0.000000
-11.511900 0.000000
-11.483200 0.000000
-11.454600 0.000000
-11.426000 0.000000
-11.397300 0.000000
-11.368700 0.000000
-11.340000 0.000000
-11.311400 0.000000
-11.282800 0.000000
-11.254100 0.000000
-11.225500 0.000000
-11.196900 0.000000
-11.168200 0.000000
-11.139600 0.000000
-11.110900 0.000000
-11.082300 0.000000
-11.053700 0.000000
-11.025000 0.000000
-10.996400 0.000000
-10.967800 0.000000
-10.939100 0.000000
-10.910500 0.000000
-10.881800 0.000000
-10.853200 0.000000
-10.824600 0.000000
-10.795900 0.000000
-10.767300 0.000000
-10.738700 0.000000
-10.710000 0.000000
-10.681400 0.000000
-10.652700 0.000000
-10.624100 0.000000
-10.595500 0.000000
-10.566800 0.000000
-10.538200 0.000000
-10.509600 0.000000
-10.480900 0.000000
-10.452300 0.000000
-10.423600 0.000000
-10.395000 0.000000
-10.366400 0.000000
-10.337700 0.000000
-10.309100 0.000000
-10.280500 0.000000
-10.251800 0.000000
-10.223200 0.000000
-10.194500 0.000000
-10.165900 0.000000
-10.137300 0.000000
-10.108600 0.000000
-10.080000 0.000000
-10.051400 0.000000
-10.022700 0.000000
-9.994100 0.000000
-9.965400 0.000000
-9.936800 0.000000
-9.908200 0.000000
-9.879500 0.000000
-9.850900 0.000000
-9.822200 0.000000
-9.793600 0.000000
-9.765000 0.000000
-9.736300 0.000000
-9.707700 0.000000
-9.679100 0.000000
-9.650400 0.000000
-9.621800 0.000000
-9.593100 0.000000
-9.564500 0.000000
-9.535900 0.000000
-9.507200 0.000000
-9.478600 0.000000
-9.450000 0.000000
-9.421300 0.000000
-9.392700 0.000000
-9.364000 0.000000
-9.335400 0.000000
-9.306800 0.000000
-9.278100 0.000000
-9.249500 0.000000
-9.220900 0.000000
-9.192200 0.000000
-9.163600 0.000000
-9.134900 0.000000
-9.106300 0.000000
-9.077700 0.000000
-9.049000 0.000000
-9.020400 0.000000
-8.991800 0.000000
-8.963100 0.000000
-8.934500 0.000000
-8.905800 0.000000
-8.877200 0.000000
-8.848600 0.000000
-8.819900 0.000000
-8.791300 0.000000
-8.762700 0.000000
-8.734000 0.000000
-8.705400 0.000000
-8.676700 0.000000
-8.648100 0.000000
-8.619500 0.000000
-8.590800 0.000000
-8.562200 0.000000
-8.533600 0.000000
-8.504900 0.000000
-8.476300 0.000000
-8.447600 0.000000
-8.419000 0.000000
-8.390400 0.000000
-8.361700 0.000000
-8.333100 0.000000
-8.304500 0.000000
-8.275800 0.000000
-8.247200 0.000000
-8.218500 0.000000
-8.189900 0.000000
-8.161300 0.000000
-8.132600 0.000000
-8.104000 0.000000
-8.075300 0.000000
-8.046700 0.000000
-8.018100 0.000000
-7.989400 0.000000
-7.960800 0.000000
-7.932200 0.000000
-7.903500 0.000000
-7.874900 0.000000
-7.846200 0.000000
-7.817600 0.000000
-7.789000 0.000000
-7.760300 0.000000
-7.731700 0.000000
-7.703100 0.000000
-7.674400 0.000000
-7.645800 7.588000
-7.617100 14.973200
-7.588500 26.105200
-7.559900 10.342600
-7.531200 6.508300
-7.502600 6.961500
-7.474000 8.577900
-7.445300 16.182700
-7.416700 16.316000
-7.388000 18.376900
-7.359400 14.271400
-7.330800 13.362300
-7.302100 24.789100
-7.273500 43.953300
-7.244900 0.000000
-7.216200 0.000000
-7.187600 0.000000
-7.158900 0.000000
-7.130300 0.000000
-7.101700 0.000000
-7.073000 0.000000
-7.044400 0.000000
-7.015800 0.000000
-6.987100 0.000000
-6.958500 0.000000
-6.929800 0.000000
-6.901200 0.000000
-6.872600 0.000000
-6.843900 0.000000
-6.815300 0.000000
-6.786700 0.000000
-6.758000 0.000000
-6.729400 0.000000
-6.700700 0.000000
-6.672100 0.000000
-6.643500 0.000000
-6.614800 0.000000
-6.586200 0.000000
-6.557600 0.000000
-6.528900 0.000000
-6.500300 0.000000
-6.471600 0.000000
-6.443000 0.000000
-6.414400 0.000000
-6.385700 0.000000
-6.357100 0.000000
-6.328400 0.000000
-6.299800 0.000000
-6.271200 0.000000
-6.242500 0.000000
-6.213900 0.000000
-6.185300 0.000000
-6.156600 0.000000
-6.128000 0.000000
-6.099300 0.000000
-6.070700 0.000000
-6.042100 0.000000
-6.013400 0.000000
-5.984800 0.000000
-5.956200 0.000000
-5.927500 0.000000
-5.898900 0.000000
-5.870200 0.000000
-5.841600 0.000000
-5.813000 0.000000
-5.784300 0.000000
-5.755700 0.000000
-5.727100 0.000000
-5.698400 0.000000
-5.669800 0.000000
-5.641100 0.000000
-5.612500 0.000000
-5.583900 0.000000
-5.555200 0.000000
-5.526600 0.000000
-5.498000 0.000000
-5.469300 0.000000
-5.440700 0.000000
-5.412000 0.000000
-5.383400 0.000000
-5.354800 0.000000
-5.326100 0.000000
-5.297500 0.000000
-5.268900 0.000000
-5.240200 0.000000
-5.211600 0.000000
-5.182900 0.000000
-5.154300 0.000000
-5.125700 0.000000
-5.097000 0.000000
-5.068400 0.000000
-5.039800 0.000000
-5.011100 0.000000
-4.982500 0.000000
-4.953800 0.000000
-4.925200 0.000000
-4.896600 0.000000
-4.867900 0.000000
-4.839300 0.000000
-4.810700 0.000000
-4.782000 0.000000
-4.753400 0.000000
-4.724700 0.000000
-4.696100 0.000000
-4.667500 0.000000
-4.638800 0.000000
-4.610200 0.000000
-4.581500 0.000000
-4.552900 0.000000
-4.524300 0.000000
-4.495600 0.000000
-4.467000 0.000000
-4.438400 0.000000
-4.409700 0.000000
-4.381100 0.000000
-4.352400 0.000000
-4.323800 0.000000
-4.295200 0.000000
-4.266500 0.000000
-4.237900 0.000000
-4.209300 0.000000
-4.180600 0.000000
-4.152000 0.000000
-4.123300 0.000000
-4.094700 0.000000
-4.066100 0.000000
-4.037400 0.000000
-4.008800 0.000000
-3.980200 0.000000
-3.951500 0.000000
-3.922900 0.000000
-3.894200 0.000000
-3.865600 0.000000
-3.837000 0.000000
-3.808300 0.000000
-3.779700 0.000000
-3.751100 0.000000
-3.722400 0.000000
-3.693800 0.000000
-3.665100 0.000000
-3.636500 0.000000
-3.607900 0.000000
-3.579200 0.000000
-3.550600 0.000000
-3.522000 0.000000
-3.493300 0.000000
-3.464700 0.000000
-3.436000 0.000000
-3.407400 0.000000
-3.378800 0.000000
-3.350100 0.000000
-3.321500 0.000000
-3.292900 0.000000
-3.264200 0.000000
-3.235600 0.000000
-3.206900 0.000000
-3.178300 0.000000
-3.149700 0.000000
-3.121000 0.000000
-3.092400 0.000000
-3.063800 0.000000
-3.035100 0.000000
-3.006500 0.000000
-2.977800 0.000000
-2.949200 0.000000
-2.920600 0.000000
-2.891900 0.000000
-2.863300 0.000000
-2.834600 0.000000
-2.806000 0.000000
-2.777400 0.000000
-2.748700 0.000000
-2.720100 0.000000
-2.691500 0.000000
-2.662800 0.000000
-2.634200 0.000000
-2.605500 0.000000
-2.576900 0.000000
-2.548300 0.000000
-2.519600 0.000000
-2.491000 0.000000
-2.462400 0.000000
-2.433700 0.000000
-2.405100 0.000000
-2.376400 0.000000
-2.347800 0.000000
-2.319200 0.000000
-2.290500 0.000000
-2.261900 0.000000
-2.233300 0.000000
-2.204600 0.000000
-2.176000 0.000000
-2.147300 0.000000
-2.118700 0.000000
-2.090100 0.000000
-2.061400 0.000000
-2.032800 0.000000
-2.004200 0.000000
-1.975500 0.000000
-1.946900 0.000000
-1.918200 0.000000
-1.889600 0.000000
-1.861000 0.000000
-1.832300 0.000000
-1.803700 0.000000
-1.775100 0.000000
-1.746400 0.000000
-1.717800 0.000000
-1.689100 0.000000
-1.660500 0.000000
-1.631900 0.000000
-1.603200 0.000000
-1.574600 0.000000
-1.546000 0.000000
-1.517300 0.000000
-1.488700 0.000000
-1.460000 0.000000
-1.431400 0.000000
-1.402800 0.000000
-1.374100 0.000000
-1.345500 0.000000
-1.316900 0.000000
-1.288200 0.000000
-1.259600 0.000000
-1.230900 0.000000
-1.202300 0.000000
-1.173700 0.000000
-1.145000 0.000000
-1.116400 0.000000
-1.087700 0.000000
-1.059100 0.000000
-1.030500 0.000000
-1.001800 0.000000
-0.973200 0.000000
-0.944600 0.000000
-0.915900 0.000000
-0.887300 0.000000
-0.858600 0.000000
-0.830000 0.000000
-0.801400 0.000000
-0.772700 0.091600
-0.744100 0.106800
-0.715500 0.121500
-0.686800 0.135600
-0.658200 0.149200
-0.629500 0.162200
-0.600900 0.174600
-0.572300 0.186500
-0.543600 0.197900
-0.515000 0.208700
-0.486400 0.218900
-0.457700 0.228600
-0.429100 0.237800
-0.400400 0.258600
-0.371800 0.278600
-0.343200 0.297700
-0.314500 0.315700
-0.285900 0.332900
-0.257300 0.349000
-0.228600 0.364300
-0.200000 0.378500
-0.171300 0.391800
-0.142700 0.404200
-0.114100 0.415600
-0.085400 0.407100
-0.056800 0.422600
-0.028200 0.438600
0.000500 0.455100
0.029100 0.472000
0.057800 0.489500
0.086400 0.507400
0.115000 0.525800
0.143700 0.544700
0.172300 0.564100
0.200900 0.584000
0.229600 0.604300
0.258200 0.625100
0.286900 0.646500
0.315500 0.668300
0.344100 0.690500
0.372800 0.713300
0.401400 0.736600
0.430000 0.760300
0.458700 0.790200
0.487300 0.847100
0.516000 0.909000
0.544600 0.973800
0.573200 1.040000
0.601900 1.107700
0.630500 1.176800
0.659200 1.247400
0.687800 1.500800
0.716400 1.569400
0.745100 1.566600
0.773700 1.564100
0.802300 1.561800
0.831000 1.559900
0.859600 1.558200
0.888300 1.556800
0.916900 1.555600
0.945500 1.566300
0.974200 1.575500
1.002800 1.581300
1.031400 1.583600
1.060100 1.582600
1.088700 1.578100
1.117400 1.570200
1.146000 1.558900
1.174600 1.544200
1.203300 1.526000
1.231900 2.967400
1.260500 3.172500
1.289200 2.533700
1.317800 1.568300
1.346500 1.348800
1.375100 1.150600
1.403700 0.973500
1.432400 0.817700
1.461000 0.683000
1.489600 0.569600
1.518300 0.579600
1.546900 0.628600
1.575600 0.677300
1.604200 0.725900
1.632800 0.774400
1.661500 0.822700
1.690100 0.870800
1.718700 0.913500
1.747400 0.979600
1.776000 1.054400
1.804700 1.138200
1.833300 1.230700
1.861900 1.332000
1.890600 1.442200
1.919200 1.561200
1.947800 3.095200
1.976500 4.226300
2.005100 3.971000
2.033800 4.068300
2.062400 4.156500
2.091000 4.368300
2.119700 4.713300
2.148300 5.019900
2.176900 3.979500
2.205600 3.323300
2.234200 3.256300
2.262900 3.191400
2.291500 3.208100
2.320100 3.223500
2.348800 3.237400
2.377400 3.249800
2.406100 3.241100
2.434700 3.267500
2.463300 3.259700
2.492000 3.217700
2.520600 3.141600
2.549200 2.690100
2.577900 2.569600
2.606500 2.474600
2.635200 2.405500
2.663800 2.362900
2.692400 2.315600
2.721100 2.263500
2.749700 2.206600
2.778300 2.145100
2.807000 2.078800
2.835600 2.220600
2.864300 2.297600
2.892900 1.733300
2.921500 1.631000
2.950200 1.526800
2.978800 1.420700
3.007400 1.312600
3.036100 1.202500
3.064700 1.090500
3.093400 1.008800
3.122000 0.851700
3.150600 0.717700
3.179300 0.606900
3.207900 1.244000
3.236500 0.763400
3.265200 0.771600
3.293800 0.785900
3.322500 0.806300
3.351100 0.712100
3.379700 0.764800
3.408400 0.818600
3.437000 0.873600
3.465600 0.929700
3.494300 0.987000
3.522900 1.045400
3.551600 1.104900
3.580200 1.316300
3.608800 1.412900
3.637500 1.515500
3.666100 1.623900
3.694700 1.738300
3.723400 1.858500
3.752000 2.102300
3.780700 2.252500
3.809300 2.255300
3.837900 2.348400
3.866600 2.640400
3.895200 2.897300
3.923800 2.475000
3.952500 2.421000
3.981100 2.369400
4.009800 2.320200
4.038400 2.273400
4.067000 2.413900
4.095700 2.407000
4.124300 2.400600
4.153000 2.394600
4.181600 2.402800
4.210200 2.413500
4.238900 2.423800
4.267500 2.433800
4.296100 2.443500
4.324800 3.166100
4.353400 3.302400
4.382100 3.149900
4.410700 3.352000
4.439300 3.696300
4.468000 4.068400
4.496600 3.434500
4.525200 3.204900
4.553900 2.979800
4.582500 2.759200
4.611200 2.504700
4.639800 2.536600
4.668400 2.641800
4.697100 2.752700
4.725700 2.892100
4.754300 3.059900
4.783000 3.448500
4.811600 3.758100
4.840300 4.083900
4.868900 6.434800
4.897500 3.577300
4.926200 3.355500
4.954800 3.040500
4.983400 2.793900
5.012100 2.550600
5.040700 2.265400
5.069400 2.026400
5.098000 1.824900
5.126600 1.660900
5.155300 1.589700
5.183900 1.581400
5.212500 1.617700
5.241200 1.716600
5.269800 1.871900
5.298500 2.049000
5.327100 2.521700
5.355700 2.476700
5.384400 2.551800
5.413000 2.622600
5.441600 2.689000
5.470300 2.751100
5.498900 2.808800
5.527600 2.862200
5.556200 3.399900
5.584800 3.813300
5.613500 5.124700
5.642100 2.681200
5.670700 2.247000
5.699400 1.833500
5.728000 1.467900
5.756700 1.147400
5.785300 0.868700
5.813900 0.496800
5.842600 0.110800
5.871200 0.146900
5.899900 0.187300
5.928500 0.232200
5.957100 0.281500
5.985800 0.335100
6.014400 0.393200
6.043000 0.455700
6.071700 0.522500
6.100300 0.543200
6.129000 0.603400
6.157600 0.673300
6.186200 0.753000
6.214900 0.842400
6.243500 0.941500
6.272100 1.050400
6.300800 1.169000
6.329400 1.297300
6.358100 1.435400
6.386700 1.583200
6.415300 1.740700
6.444000 1.908000
6.472600 2.469900
6.501200 2.953400
6.529900 3.494500
6.558500 4.144800
6.587200 9.471400
6.615800 4.794400
6.644400 3.591300
6.673100 2.464400
6.701700 2.311400
6.730300 2.163900
6.759000 2.025600
6.787600 3.316700
6.816300 5.645400
6.844900 6.091000
6.873500 1.761900
6.902200 1.945100
6.930800 2.103700
6.959400 2.262500
6.988100 2.421500
7.016700 2.621800
7.045400 2.785600
7.074000 2.949800
7.102600 3.118200
7.131300 3.361000
7.159900 3.704500
7.188500 4.807300
7.217200 2.952600
7.245800 3.030300
7.274500 2.857900
7.303100 2.799300
7.331700 2.741300
7.360400 2.683800
7.389000 2.627000
7.417600 2.570600
7.446300 2.514900
7.474900 2.459700
7.503600 2.794900
7.532200 2.237900
7.560800 2.248600
7.589500 2.312200
7.618100 2.367200
7.646800 2.553800
7.675400 2.622200
7.704000 2.771800
7.732700 2.945300
7.761300 3.142500
7.789900 3.481500
7.818600 3.989500
7.847200 3.972100
7.875900 3.922900
7.904500 4.250300
7.933100 4.269200
7.961800 3.889400
7.990400 3.434400
8.019000 3.023100
8.047700 2.551300
8.076300 2.019100
8.105000 1.516200
8.133600 0.707300
8.162200 0.740400
8.190900 0.776700
8.219500 0.816200
8.248100 0.858800
8.276800 0.904600
8.305400 0.953500
8.334100 1.005600
8.362700 1.060800
8.391300 1.119200
8.420000 1.180700
8.448600 1.245400
8.477200 1.313200
8.505900 1.384200
8.534500 2.259300
8.563200 2.131500
8.591800 2.205300
8.620400 2.241400
8.649100 2.239900
8.677700 2.200700
8.706300 2.735000
8.735000 2.593900
8.763600 2.686000
8.792300 2.757700
8.820900 2.983600
8.849500 3.241900
8.878200 3.442600
8.906800 2.536100
8.935400 1.846500
8.964100 1.442400
8.992700 1.273000
9.021400 1.245300
9.050000 1.223000
9.078600 1.206200
9.107300 1.194900
9.135900 1.189000
9.164500 1.188400
9.193200 1.192400
9.221800 1.201000
9.250500 1.214100
9.279100 1.470300
9.307700 1.389100
9.336400 1.389000
9.365000 1.408300
9.393700 1.931000
9.422300 1.991500
9.450900 2.057400
9.479600 2.127400
9.508200 2.201600
9.536800 2.279900
9.565500 2.362400
9.594100 2.449100
9.622800 2.540000
9.651400 3.216400
9.680000 3.313500
9.708700 3.070600
9.737300 3.660800
9.765900 3.306800
9.794600 3.337100
9.823200 3.786500
9.851900 4.053700
9.880500 4.287800
9.909100 4.488800
9.937800 4.656500
9.966400 4.794500
9.995000 4.915300
10.023700 4.527800
10.052300 4.091600
10.081000 3.188900
10.109600 2.293800
10.138200 1.529200
10.166900 1.481000
10.195500 1.438300
10.224100 1.401300
10.252800 2.119400
10.281400 2.149600
10.310100 2.132900
10.338700 1.996400
10.367300 1.936900
10.396000 1.859600
10.424600 1.894100
10.453200 1.940200
10.481900 1.989200
10.510500 2.040900
10.539200 2.095300
10.567800 2.152500
10.596400 2.222800
10.625100 2.428700
10.653700 2.804800
10.682300 4.011800
10.711000 4.262300
10.739600 3.769000
10.768300 3.381500
10.796900 2.788700
10.825500 2.913300
10.854200 2.891300
10.882800 2.873200
10.911400 2.859300
10.940100 2.849300
10.968700 2.843400
10.997400 2.841500
11.026000 2.843700
11.054600 2.848300
11.083300 2.860700
11.111900 2.882900
11.140600 2.901100
11.169200 3.117500
11.197800 3.000600
11.226500 2.920600
11.255100 2.864000
11.283700 2.688600
11.312400 2.597000
11.341000 2.507200
11.369700 2.419400
11.398300 2.333500
11.426900 2.249500
11.455600 5.778000
11.484200 1.861300
11.512800 0.596900
11.541500 0.552200
11.570100 0.605200
11.598800 0.788500
11.627400 0.951800
11.656000 1.095200
11.684700 1.317200
11.713300 1.581500
11.741900 1.871900
11.770600 2.176000
11.799200 2.598900
11.827900 2.872800
11.856500 3.109700
11.885100 3.309700
11.913800 3.810400
11.942400 3.413900
11.971000 2.845000
11.999700 2.905200
12.028300 3.097800
12.057000 3.271900
12.085600 3.358800
12.114200 3.445100
12.142900 3.530900
12.171500 3.616100
12.200100 3.700700
12.228800 3.784800
12.257400 3.932900
12.286100 3.949900
12.314700 4.013700
12.343300 4.268000
12.372000 3.932400
12.400600 3.761600
12.429200 3.664300
12.457900 3.612400
12.486500 3.823200
12.515200 3.381500
12.543800 3.717700
12.572400 3.837100
12.601100 3.901500
12.629700 3.932800
12.658300 3.701200
12.687000 3.373100
12.715600 2.776700
12.744300 2.176300
12.772900 1.811700
12.801500 1.470900
12.830200 1.153800
12.858800 0.775000
12.887500 0.768900
12.916100 1.207500
12.944700 1.550600
12.973400 1.885600
13.002000 2.113900
13.030600 2.742800
13.059300 2.853400
13.087900 2.944900
13.116600 3.017500
13.145200 3.071000
13.173800 3.286700
13.202500 3.410900
13.231100 3.035200
13.259700 2.985800
13.288400 2.960300
13.317000 2.687400
13.345700 2.545200
13.374300 2.410900
13.402900 2.284400
13.431600 2.165800
13.460200 2.055000
13.488800 1.952000
13.517500 1.856900
13.546100 1.769400
13.574800 1.687300
13.603400 2.149700
13.632000 2.388800
13.660700 2.677500
13.689300 2.974700
13.717900 5.756900
13.746600 4.175900
13.775200 4.050600
13.803900 3.920100
13.832500 3.784400
13.861100 3.655300
13.889800 3.849000
13.918400 4.128400
13.947000 4.712700
13.975700 4.432700
14.004300 4.044000
14.033000 4.048100
14.061600 5.131800
14.090200 4.580200
14.118900 4.026100
14.147500 3.525500
14.176100 3.078200
14.204800 2.684300
14.233400 2.590700
14.262100 2.564800
14.290700 2.569500
14.319300 2.574000
14.348000 2.716000
14.376600 2.737400
14.405200 2.752300
14.433900 2.760500
14.462500 2.762000
14.491200 3.260800
14.519800 2.800400
14.548400 2.672400
14.577100 2.551900
14.605700 2.438700
14.634400 2.332900
14.663000 2.625900
14.691600 2.553000
14.720300 2.499900
14.748900 2.457200
14.777500 2.425100
14.806200 2.592200
14.834800 2.949100
14.863500 3.066600
14.892100 3.157700
14.920700 2.982500
14.949400 3.009300
14.978000 3.021600
15.006600 2.804800
15.035300 2.844200
15.063900 2.894400
15.092600 3.200800
15.121200 3.230600
15.149800 3.182700
15.178500 2.660500
15.207100 2.709200
15.235700 3.130100
15.264400 3.389800
15.293000 3.575200
15.321700 3.587100
15.350300 3.803600
15.378900 4.022100
15.407600 4.189800
15.436200 4.296100
15.464800 4.340900
15.493500 4.406800
15.522100 4.128800
15.550800 4.054400
15.579400 3.923100
15.608000 3.835700
15.636700 3.738600
15.665300 3.631800
15.693900 3.404900
15.722600 3.313300
15.751200 3.565200
15.779900 3.113000
15.808500 2.984400
15.837100 2.859700
15.865800 2.738900
15.894400 2.622100
15.923000 2.509100
15.951700 2.400200
15.980300 2.295100
16.009000 2.346600
16.037600 2.141800
16.066200 1.513700
16.094900 1.426300
16.123500 1.350900
16.152100 1.287000
16.180800 1.232800
16.209400 1.188100
16.238100 1.152900
16.266700 1.476900
16.295300 1.622800
16.324000 1.793200
16.352600 1.987500
16.381300 2.203800
16.409900 3.169800
16.438500 3.394000
16.467200 3.703800
16.495800 3.167300
16.524400 2.284100
16.553100 2.235900
16.581700 2.190800
16.610400 2.718900
16.639000 2.627700
16.667600 2.555000
16.696300 2.674500
16.724900 2.827800
16.753500 3.153600
16.782200 3.477500
16.810800 3.789400
16.839500 4.100500
16.868100 4.452300
16.896700 4.783800
16.925400 3.923000
16.954000 3.845200
16.982600 3.624400
17.011300 3.560300
17.039900 3.546500
17.068600 3.623900
17.097200 3.635900
17.125800 3.649600
17.154500 3.527700
17.183100 3.491900
17.211700 3.458600
17.240400 3.427800
17.269000 3.399700
17.297700 3.374000
17.326300 3.549800
17.354900 3.519000
17.383600 3.088100
17.412200 3.028200
17.440800 2.985400
17.469500 3.858200
17.498100 2.951000
17.526800 2.867900
17.555400 2.803300
17.584000 2.757300
17.612700 2.733500
17.641300 2.731800
17.669900 2.629200
17.698600 2.668000
17.727200 2.734200
17.755900 2.828400
17.784500 2.950600
17.813100 3.100800
17.841800 2.803600
17.870400 2.949400
17.899000 3.015400
17.927700 3.077200
17.956300 3.134900
17.985000 3.197700
18.013600 3.259900
18.042200 3.293400
18.070900 3.401000
18.099500 3.518100
18.128200 3.630700
18.156800 4.224700
18.185400 4.080500
18.214100 3.740900
18.242700 3.754000
18.271300 3.746100
18.300000 3.740500
18.328600 3.753900
18.357300 3.774700
18.385900 3.802800
18.414500 3.846600
18.443200 3.942200
18.471800 4.010900
18.500400 3.775800
18.529100 4.528900
18.557700 4.848500
18.586400 4.603300
18.615000 4.589800
18.643600 4.303600
18.672300 4.305200
18.700900 4.210800
18.729500 4.064900
18.758200 3.919800
18.786800 3.775500
18.815500 3.604900
18.844100 3.464300
18.872700 3.324500
18.901400 3.185400
18.930000 3.047000
18.958600 2.930500
18.987300 2.917000
19.015900 3.092500
19.044600 3.175700
19.073200 3.276000
19.101800 3.405400
19.130500 5.668700
19.159100 3.037100
19.187700 2.852800
19.216400 2.631000
19.245000 2.448300
19.273700 2.297800
19.302300 2.845300
19.330900 2.855300
19.359600 2.868600
19.388200 2.605000
19.416800 2.423000
19.445500 2.289800
19.474100 2.235500
19.502800 2.347500
19.531400 2.556000
19.560000 2.890700
19.588700 2.935400
19.617300 3.003600
19.645900 3.056700
19.674600 3.072900
19.703200 3.107500
19.731900 3.023400
19.760500 3.156400
19.789100 3.295500
19.817800 3.665900
19.846400 4.044800
19.875100 4.389000
19.903700 4.726700
19.932300 5.628300
19.961000 10.574500
19.989600 5.822000
20.018200 4.901400
20.046900 4.891200
20.075500 4.555200
20.104200 4.408900
20.132800 4.256200
20.161400 4.097000
20.190100 3.931400
20.218700 3.759300
20.247300 3.582000
20.276000 3.444300
20.304600 3.303500
20.333300 3.160200
20.361900 3.025500
20.390500 2.900300
20.419200 2.707700
20.447800 2.441800
20.476400 2.254100
20.505100 2.080700
20.533700 1.772100
20.562400 1.711400
20.591000 1.663800
20.619600 1.629200
20.648300 1.498300
20.676900 1.651200
20.705500 1.721300
20.734200 1.791700
20.762800 1.862400
20.791500 1.933500
20.820100 2.005000
20.848700 2.076800
20.877400 2.197800
20.906000 2.276600
20.934600 2.347800
20.963300 2.411100
20.991900 2.466800
21.020600 2.555700
21.049200 2.598000
21.077800 2.632700
21.106500 2.588800
21.135100 2.622400
21.163700 2.673400
21.192400 2.728900
21.221000 2.788900
21.249700 2.853600
21.278300 2.922700
21.306900 2.996000
21.335600 3.073600
21.364200 3.185600
21.392800 3.857000
21.421500 2.845300
21.450100 2.885100
21.478800 2.948400
21.507400 3.036800
21.536000 3.357700
21.564700 3.563700
21.593300 3.848100
21.622000 4.145500
21.650600 4.484100
21.679200 5.598000
21.707900 4.599200
21.736500 4.978800
21.765100 5.365600
21.793800 7.492800
21.822400 4.822800
21.851100 5.025200
21.879700 4.957800
21.908300 4.844300
21.937000 4.719200
21.965600 4.582600
21.994200 4.434400
22.022900 4.114000
22.051500 3.807500
22.080200 3.686900
22.108800 3.585800
22.137400 3.510000
22.166100 3.387600
22.194700 3.294100
22.223300 3.251800
22.252000 2.993900
22.280600 2.797500
22.309300 2.575900
22.337900 2.556400
22.366500 3.488300
22.395200 2.757900
22.423800 2.926200
22.452400 3.198000
22.481100 3.573200
22.509700 4.028200
22.538400 4.482600
22.567000 5.167900
22.595600 5.900700
22.624300 6.110800
22.652900 5.737800
22.681500 6.052400
22.710200 6.588600
22.738800 5.591300
22.767500 5.430400
22.796100 5.216500
22.824700 4.913700
22.853400 4.477000
22.882000 4.097600
22.910600 4.069600
22.939300 3.889600
22.967900 3.724200
22.996600 3.943600
23.025200 3.887900
23.053800 3.634000
23.082500 3.310400
23.111100 3.305000
23.139700 3.290300
23.168400 3.266100
23.197000 3.174400
23.225700 3.182500
23.254300 3.192900
23.282900 3.204600
23.311600 3.948500
23.340200 4.002000
23.368900 3.932100
23.397500 3.976200
23.426100 3.980700
23.454800 3.945600
23.483400 3.873900
23.512000 3.708500
23.540700 3.593000
23.569300 3.411300
23.598000 3.311100
23.626600 3.248700
23.655200 3.191200
23.683900 3.146100
23.712500 3.202200
23.741100 3.282200
23.769800 3.386200
23.798400 3.514300
23.827100 3.666500
23.855700 4.152500
23.884300 3.431900
23.913000 3.443000
23.941600 3.101400
23.970200 3.129400
23.998900 3.123400
24.027500 3.083600
24.056200 2.822100
24.084800 2.628000
24.113400 2.447200
24.142100 2.279500
24.170700 2.539500
24.199300 2.624600
24.228000 2.585700
24.256600 2.442600
24.285300 2.254200
24.313900 2.219600
24.342500 2.511100
24.371200 2.538500
24.399800 2.589600
24.428400 2.703800
24.457100 2.849200
24.485700 3.062400
24.514400 3.489400
24.543000 3.656900
24.571600 3.769300
24.600300 3.800600
24.628900 3.525700
24.657500 3.529700
24.686200 3.531400
24.714800 3.530600
24.743500 3.533300
24.772100 3.535800
24.800700 3.536900
24.829400 3.536600
24.858000 3.474800
24.886600 3.486300
24.915300 3.450100
24.943900 3.489500
24.972600 3.528700
25.001200 3.567600
25.029800 3.978900
25.058500 3.860300
25.087100 3.720100
25.115800 3.637500
25.144400 3.589500
25.173000 3.433500
25.201700 3.305500
25.230300 3.219900
25.258900 3.159400
25.287600 3.123500
25.316200 3.090500
25.344900 3.917600
25.373500 3.764000
25.402100 3.782100
25.430800 3.866700
25.459400 3.958900
25.488000 4.100300
25.516700 4.136400
25.545300 4.183300
25.574000 4.241500
25.602600 4.282900
25.631200 4.356600
25.659900 4.063500
25.688500 4.024000
25.717100 3.664100
25.745800 3.556300
25.774400 3.455700
25.803100 3.362400
25.831700 3.276400
25.860300 3.197600
25.889000 3.126200
25.917600 3.062000
25.946200 3.005100
25.974900 2.955400
26.003500 3.108400
26.032200 3.331600
26.060800 3.633600
26.089400 4.014400
26.118100 7.347400
26.146700 5.635900
26.175300 4.919900
26.204000 4.861300
26.232600 4.791500
26.261300 4.706000
26.289900 4.604200
26.318500 4.539600
26.347200 4.688100
26.375800 4.516500
26.404400 4.236400
26.433100 4.314900
26.461700 3.494700
26.490400 2.872800
26.519000 2.888000
26.547600 3.427900
26.576300 4.200100
26.604900 5.203000
26.633500 6.782800
26.662200 6.805000
26.690800 6.164200
26.719500 4.867600
26.748100 4.288200
26.776700 4.206900
26.805400 4.154300
26.834000 4.506600
26.862700 4.339500
26.891300 4.221600
26.919900 3.928600
26.948600 3.905100
26.977200 4.329000
27.005800 3.479600
27.034500 3.069800
27.063100 3.302800
27.091800 3.384100
27.120400 3.375100
27.149000 3.363100
27.177700 3.348200
27.206300 3.330500
27.234900 3.309800
27.263600 3.286100
27.292200 3.138800
27.320900 3.142800
27.349500 3.195900
27.378100 3.558300
27.406800 3.842100
27.435400 4.008400
27.464000 3.975100
27.492700 4.010700
27.521300 4.046300
27.550000 4.081900
27.578600 4.117500
27.607200 4.153100
27.635900 4.188700
27.664500 4.167600
27.693100 4.094900
27.721800 4.100800
27.750400 4.098100
27.779100 4.086800
27.807700 4.067000
27.836300 4.049200
27.865000 4.100800
27.893600 4.097600
27.922200 4.039600
27.950900 3.770500
27.979500 3.722900
28.008200 3.663800
28.036800 3.695400
28.065400 3.666600
28.094100 3.530300
28.122700 3.794100
28.151300 3.560200
28.180000 3.190700
28.208600 2.723500
28.237300 2.851800
28.265900 2.888900
28.294500 2.921300
28.323200 2.987800
28.351800 3.144900
28.380400 3.433300
28.409100 3.680800
28.437700 4.364900
28.466400 4.581800
28.495000 4.664700
28.523600 4.613700
28.552300 4.394800
28.580900 4.233100
28.609600 4.108600
28.638200 3.977500
28.666800 3.839800
28.695500 3.695700
28.724100 3.838500
28.752700 3.031200
28.781400 2.909900
28.810000 2.786900
28.838700 2.662100
28.867300 2.535500
28.895900 2.407200
28.924600 2.331500
28.953200 2.126400
28.981800 1.986800
29.010500 1.905300
29.039100 1.810000
29.067800 1.824900
29.096400 1.874200
29.125000 1.958100
29.153700 2.076400
29.182300 2.229300
29.210900 2.416600
29.239600 2.742400
29.268200 2.865300
29.296900 2.949400
29.325500 3.000900
29.354100 2.912700
29.382800 2.886900
29.411400 2.791500
29.440000 2.531800
29.468700 2.097000
29.497300 1.650600
29.526000 1.215200
29.554600 1.155400
29.583200 1.107300
29.611900 1.067100
29.640500 1.029000
29.669100 0.934900
29.697800 0.910100
29.726400 0.886000
29.755100 0.862500
29.783700 0.839600
29.812300 0.817400
29.841000 0.795900
29.869600 0.775000
29.898200 0.754800
29.926900 0.735300
29.955500 0.716300
29.984200 0.698100
30.012800 0.680500
30.041400 0.663600
30.070100 0.647300
30.098700 0.631600
30.127300 0.616700
30.156000 0.602300
30.184600 0.588700
30.213300 0.575700
30.241900 0.563300
30.270500 0.551600
30.299200 0.540600
30.327800 0.530200
30.356500 0.520200
30.385100 0.510500
30.413700 0.501100
30.442400 0.491900
30.471000 0.483000
30.499600 0.474300
30.528300 0.465900
30.556900 0.457800
30.585600 0.449900
30.614200 0.442200
30.642800 0.434700
30.671500 0.427300
30.700100 0.419900
30.728700 0.412600
30.757400 0.405300
30.786000 0.398100
30.814700 0.391000
30.843300 0.383900
30.871900 0.376800
30.900600 0.369900
30.929200 0.351400
30.957800 0.344900
30.986500 0.338500
31.015100 0.332100
31.043800 0.325700
31.072400 0.319500
31.101000 0.313200
31.129700 0.307100
31.158300 0.300900
31.186900 0.294900
31.215600 0.288800
31.244200 0.282900
31.272900 0.276900
31.301500 0.271100
31.330100 0.265200
31.358800 0.259500
31.387400 0.253800
31.416000 0.248100
31.444700 0.242500
31.473300 0.225100
31.502000 0.220000
31.530600 0.214900
31.559200 0.196800
31.587900 0.178000
31.616500 0.174100
31.645100 0.170300
31.673800 0.166400
31.702400 0.162600
31.731100 0.158900
31.759700 0.207800
31.788300 0.241600
31.817000 0.257900
31.845600 0.256600
31.874200 0.237700
31.902900 0.096200
31.931500 0.093800
31.960200 0.091400
31.988800 0.089100
32.017400 0.086700
32.046100 0.084500
32.074700 0.082200
32.103400 0.080000
32.132000 0.077800
32.160600 0.075700
32.189300 0.073500
32.217900 0.071400
32.246500 0.069400
32.275200 0.067300
32.303800 0.065300
32.332500 0.063300
32.361100 0.061400
32.389700 0.059500
32.418400 0.057600
32.447000 0.055800
32.475600 0.053900
32.504300 0.052100
32.532900 0.050400
32.561600 0.048600
32.590200 0.046900
32.618800 0.045300
32.647500 0.043600
32.676100 0.042000
32.704700 0.040400
32.733400 0.038900
32.762000 0.037400
32.790700 0.035900
32.819300 0.034400
32.847900 0.033000
32.876600 0.031600
32.905200 0.030200
32.933800 0.028900
32.962500 0.027600
32.991100 0.026300
33.019800 0.025100
33.048400 0.023800
33.077000 0.022700
33.105700 0.021500
33.134300 0.020400
33.162900 0.019300
33.191600 0.000000
33.220200 0.000000
33.248900 0.000000
33.277500 0.000000
33.306100 0.000000
33.334800 0.000000
33.363400 0.000000
33.392000 0.000000
33.420700 0.000000
33.449300 0.000000
33.478000 0.000000
33.506600 0.000000
33.535200 0.000000
33.563900 0.000000
33.592500 0.000000
33.621100 0.000000
33.649800 0.000000
33.678400 0.000000
33.707100 0.000000
33.735700 0.000000
33.764300 0.000000
33.793000 0.000000
33.821600 0.000000
33.850300 0.000000
33.878900 0.000000
33.907500 0.000000
33.936200 0.000000
33.964800 0.000000
33.993400 0.000000
34.022100 0.000000
34.050700 0.000000
34.079400 0.000000
34.108000 0.000000
34.136600 0.000000
34.165300 0.000000
34.193900 0.000000
34.222500 0.000000
34.251200 0.000000
34.279800 0.000000
34.308500 0.000000
34.337100 0.000000
34.365700 0.000000
34.394400 0.000000
34.423000 0.000000
34.451600 0.000000
34.480300 0.000000
34.508900 0.000000
34.537600 0.000000
34.566200 0.000000
34.594800 0.000000
34.623500 0.000000
34.652100 0.000000
34.680700 0.000000
34.709400 0.000000
34.738000 0.000000
34.766700 0.000000
34.795300 0.000000
34.823900 0.000000
34.852600 0.000000
34.881200 0.000000
34.909800 0.000000
34.938500 0.000000
34.967100 0.000000
34.995800 0.000000
35.024400 0.000000
35.053000 0.000000
35.081700 0.000000
35.110300 0.000000
35.138900 0.000000
35.167600 0.000000
35.196200 0.000000
35.224900 0.000000
35.253500 0.000000
35.282100 0.000000
35.310800 0.000000
35.339400 0.000000
35.368000 0.000000
35.396700 0.000000
35.425300 0.000000
35.454000 0.000000
35.482600 0.000000
35.511200 0.000000
35.539900 0.000000
35.568500 0.000000
35.597200 0.000000
35.625800 0.000000
35.654400 0.000000
35.683100 0.000000
35.711700 0.000000
35.740300 0.000000
35.769000 0.000000
e
