set title 'mp-1076966 - Density of States'
set xlabel 'Energy (eV)'
set ylabel 'DOS (states/eV)'
set grid
set xrange [-10:10]
set yrange [0:16.823]
set xzeroaxis lt -1
set terminal png size 800,600
set output 'mp-1076966_dos_gnuplot.png'
plot '-' using 1:2 with lines title 'DOS'
-18.354000 0.000000
-18.337300 0.000000
-18.320700 0.000000
-18.304100 0.000000
-18.287500 0.000000
-18.270800 0.000000
-18.254200 0.000000
-18.237600 0.000000
-18.221000 0.000000
-18.204300 0.000000
-18.187700 0.000000
-18.171100 0.000000
-18.154500 0.000000
-18.137800 0.000000
-18.121200 0.000000
-18.104600 0.000000
-18.087900 0.000000
-18.071300 0.000000
-18.054700 0.000000
-18.038100 0.000000
-18.021400 0.000000
-18.004800 0.000000
-17.988200 0.000000
-17.971600 0.000000
-17.954900 0.000000
-17.938300 0.000000
-17.921700 0.000000
-17.905100 0.000000
-17.888400 0.000000
-17.871800 0.000000
-17.855200 0.000000
-17.838600 0.000000
-17.821900 0.000000
-17.805300 0.000000
-17.788700 0.000000
-17.772000 0.000000
-17.755400 0.000000
-17.738800 0.000000
-17.722200 0.000000
-17.705500 0.000000
-17.688900 0.000000
-17.672300 0.000000
-17.655700 0.000000
-17.639000 0.000000
-17.622400 0.000000
-17.605800 0.000000
-17.589200 0.000000
-17.572500 0.000000
-17.555900 0.000000
-17.539300 0.000000
-17.522600 0.000000
-17.506000 0.000000
-17.489400 0.000000
-17.472800 0.000000
-17.456100 0.000000
-17.439500 0.000000
-17.422900 0.000000
-17.406300 0.000000
-17.389600 0.000000
-17.373000 0.000000
-17.356400 0.000000
-17.339800 0.000000
-17.323100 0.000000
-17.306500 0.000000
-17.289900 0.000000
-17.273300 0.000000
-17.256600 0.000000
-17.240000 0.000000
-17.223400 0.000000
-17.206700 0.000000
-17.190100 0.000000
-17.173500 0.000000
-17.156900 0.000000
-17.140200 0.000000
-17.123600 0.000000
-17.107000 0.000000
-17.090400 0.000000
-17.073700 0.000000
-17.057100 0.000000
-17.040500 0.000000
-17.023900 0.000000
-17.007200 0.000000
-16.990600 0.000000
-16.974000 0.000000
-16.957400 0.000000
-16.940700 0.000000
-16.924100 0.000000
-16.907500 0.000000
-16.890800 0.000000
-16.874200 0.000000
-16.857600 0.000000
-16.841000 1.450800
-16.824300 17.922000
-16.807700 20.734800
-16.791100 28.421100
-16.774500 39.530600
-16.757800 66.284500
-16.741200 26.628500
-16.724600 26.675400
-16.708000 45.620800
-16.691300 120.297100
-16.674700 81.022900
-16.658100 23.316200
-16.641500 25.185600
-16.624800 21.849600
-16.608200 21.278600
-16.591600 23.434400
-16.574900 26.669300
-16.558300 32.033700
-16.541700 47.866900
-16.525100 33.764000
-16.508400 0.000000
-16.491800 0.000000
-16.475200 0.000000
-16.458600 0.000000
-16.441900 0.000000
-16.425300 0.000000
-16.408700 0.000000
-16.392100 0.000000
-16.375400 0.000000
-16.358800 0.000000
-16.342200 0.000000
-16.325600 0.000000
-16.308900 0.000000
-16.292300 0.000000
-16.275700 0.000000
-16.259000 0.000000
-16.242400 0.000000
-16.225800 0.000000
-16.209200 0.000000
-16.192500 0.000000
-16.175900 0.000000
-16.159300 0.000000
-16.142700 0.000000
-16.126000 0.000000
-16.109400 0.000000
-16.092800 0.000000
-16.076200 0.000000
-16.059500 0.000000
-16.042900 0.000000
-16.026300 0.000000
-16.009600 0.000000
-15.993000 0.000000
-15.976400 0.000000
-15.959800 0.000000
-15.943100 0.000000
-15.926500 0.000000
-15.909900 0.000000
-15.893300 0.000000
-15.876600 0.000000
-15.860000 0.000000
-15.843400 0.000000
-15.826800 0.000000
-15.810100 0.000000
-15.793500 0.000000
-15.776900 0.000000
-15.760300 0.000000
-15.743600 0.000000
-15.727000 0.000000
-15.710400 0.000000
-15.693700 0.000000
-15.677100 0.000000
-15.660500 0.000000
-15.643900 0.000000
-15.627200 0.000000
-15.610600 0.000000
-15.594000 0.000000
-15.577400 0.000000
-15.560700 0.000000
-15.544100 0.000000
-15.527500 0.000000
-15.510900 0.000000
-15.494200 0.000000
-15.477600 0.000000
-15.461000 0.000000
-15.444400 0.000000
-15.427700 0.000000
-15.411100 0.000000
-15.394500 0.000000
-15.377800 0.000000
-15.361200 0.000000
-15.344600 0.000000
-15.328000 0.000000
-15.311300 0.000000
-15.294700 0.000000
-15.278100 0.000000
-15.261500 0.000000
-15.244800 0.000000
-15.228200 0.000000
-15.211600 0.000000
-15.195000 0.000000
-15.178300 0.000000
-15.161700 0.000000
-15.145100 0.000000
-15.128500 0.000000
-15.111800 0.000000
-15.095200 0.000000
-15.078600 0.000000
-15.061900 0.000000
-15.045300 0.000000
-15.028700 0.000000
-15.012100 0.000000
-14.995400 0.000000
-14.978800 0.000000
-14.962200 0.000000
-14.945600 0.000000
-14.928900 0.000000
-14.912300 0.000000
-14.895700 0.000000
-14.879100 0.000000
-14.862400 0.000000
-14.845800 0.000000
-14.829200 0.000000
-14.812600 0.000000
-14.795900 0.000000
-14.779300 0.000000
-14.762700 0.000000
-14.746000 0.000000
-14.729400 0.000000
-14.712800 0.000000
-14.696200 0.000000
-14.679500 0.000000
-14.662900 0.000000
-14.646300 0.000000
-14.629700 0.000000
-14.613000 0.000000
-14.596400 0.000000
-14.579800 0.000000
-14.563200 0.000000
-14.546500 0.000000
-14.529900 0.000000
-14.513300 0.000000
-14.496700 0.000000
-14.480000 0.000000
-14.463400 0.000000
-14.446800 0.000000
-14.430100 0.000000
-14.413500 0.000000
-14.396900 0.000000
-14.380300 0.000000
-14.363600 0.000000
-14.347000 0.000000
-14.330400 0.000000
-14.313800 0.000000
-14.297100 0.000000
-14.280500 0.000000
-14.263900 0.000000
-14.247300 0.000000
-14.230600 0.000000
-14.214000 0.000000
-14.197400 0.000000
-14.180700 0.000000
-14.164100 0.000000
-14.147500 0.000000
-14.130900 0.000000
-14.114200 0.000000
-14.097600 0.000000
-14.081000 0.000000
-14.064400 0.000000
-14.047700 0.000000
-14.031100 0.000000
-14.014500 0.000000
-13.997900 0.000000
-13.981200 0.000000
-13.964600 0.000000
-13.948000 0.000000
-13.931400 0.000000
-13.914700 0.000000
-13.898100 0.000000
-13.881500 0.000000
-13.864800 0.000000
-13.848200 0.000000
-13.831600 0.000000
-13.815000 0.000000
-13.798300 0.000000
-13.781700 0.000000
-13.765100 0.000000
-13.748500 0.000000
-13.731800 0.000000
-13.715200 0.000000
-13.698600 0.000000
-13.682000 0.000000
-13.665300 0.000000
-13.648700 0.000000
-13.632100 0.000000
-13.615500 0.000000
-13.598800 0.000000
-13.582200 0.000000
-13.565600 0.000000
-13.548900 0.000000
-13.532300 0.000000
-13.515700 0.000000
-13.499100 0.000000
-13.482400 0.000000
-13.465800 0.000000
-13.449200 0.000000
-13.432600 0.000000
-13.415900 0.000000
-13.399300 0.000000
-13.382700 0.000000
-13.366100 0.000000
-13.349400 0.000000
-13.332800 0.000000
-13.316200 0.000000
-13.299600 0.000000
-13.282900 0.000000
-13.266300 0.000000
-13.249700 0.000000
-13.233000 0.000000
-13.216400 0.000000
-13.199800 0.000000
-13.183200 0.000000
-13.166500 0.000000
-13.149900 0.000000
-13.133300 0.000000
-13.116700 0.000000
-13.100000 0.000000
-13.083400 0.000000
-13.066800 0.000000
-13.050200 0.000000
-13.033500 0.000000
-13.016900 0.000000
-13.000300 0.000000
-12.983700 0.000000
-12.967000 0.000000
-12.950400 0.000000
-12.933800 0.000000
-12.917100 0.000000
-12.900500 0.000000
-12.883900 0.000000
-12.867300 0.000000
-12.850600 0.000000
-12.834000 0.000000
-12.817400 0.000000
-12.800800 0.000000
-12.784100 0.000000
-12.767500 0.000000
-12.750900 0.000000
-12.734300 0.000000
-12.717600 0.000000
-12.701000 0.000000
-12.684400 0.000000
-12.667700 0.000000
-12.651100 0.000000
-12.634500 0.000000
-12.617900 0.000000
-12.601200 0.000000
-12.584600 0.000000
-12.568000 0.000000
-12.551400 0.000000
-12.534700 0.000000
-12.518100 0.000000
-12.501500 0.000000
-12.484900 0.000000
-12.468200 0.000000
-12.451600 0.000000
-12.435000 0.000000
-12.418400 0.000000
-12.401700 0.000000
-12.385100 0.000000
-12.368500 0.000000
-12.351800 0.000000
-12.335200 0.000000
-12.318600 0.000000
-12.302000 0.000000
-12.285300 0.000000
-12.268700 0.000000
-12.252100 0.000000
-12.235500 0.000000
-12.218800 0.000000
-12.202200 0.000000
-12.185600 0.000000
-12.169000 0.000000
-12.152300 0.000000
-12.135700 0.000000
-12.119100 0.000000
-12.102500 0.000000
-12.085800 0.000000
-12.069200 0.000000
-12.052600 0.000000
-12.035900 0.000000
-12.019300 0.000000
-12.002700 0.000000
-11.986100 0.000000
-11.969400 0.000000
-11.952800 0.000000
-11.936200 0.000000
-11.919600 0.000000
-11.902900 0.000000
-11.886300 0.000000
-11.869700 0.000000
-11.853100 0.000000
-11.836400 0.000000
-11.819800 0.000000
-11.803200 0.000000
-11.786600 0.000000
-11.769900 0.000000
-11.753300 0.000000
-11.736700 0.000000
-11.720000 0.000000
-11.703400 0.000000
-11.686800 0.000000
-11.670200 0.000000
-11.653500 0.000000
-11.636900 0.000000
-11.620300 0.000000
-11.603700 0.000000
-11.587000 0.000000
-11.570400 0.000000
-11.553800 0.000000
-11.537200 0.000000
-11.520500 0.000000
-11.503900 0.000000
-11.487300 0.000000
-11.470700 0.000000
-11.454000 0.000000
-11.437400 0.000000
-11.420800 0.000000
-11.404100 0.000000
-11.387500 0.000000
-11.370900 0.000000
-11.354300 0.000000
-11.337600 0.000000
-11.321000 0.000000
-11.304400 0.000000
-11.287800 0.000000
-11.271100 0.000000
-11.254500 0.000000
-11.237900 0.000000
-11.221300 0.000000
-11.204600 0.000000
-11.188000 0.103000
-11.171400 0.464000
-11.154800 0.820900
-11.138100 0.818100
-11.121500 0.709900
-11.104900 0.725800
-11.088200 0.784900
-11.071600 0.844000
-11.055000 0.849400
-11.038400 0.782000
-11.021700 0.745400
-11.005100 0.754600
-10.988500 0.767000
-10.971900 0.779400
-10.955200 0.791700
-10.938600 0.805400
-10.922000 0.825700
-10.905400 0.840500
-10.888700 0.817000
-10.872100 0.787800
-10.855500 0.783900
-10.838800 0.785400
-10.822200 0.786900
-10.805600 0.788400
-10.789000 0.791100
-10.772300 0.800400
-10.755700 0.810700
-10.739100 0.821100
-10.722500 0.831500
-10.705800 0.841800
-10.689200 0.848100
-10.672600 0.829800
-10.656000 0.811000
-10.639300 0.808000
-10.622700 0.808700
-10.606100 0.810400
-10.589500 0.812100
-10.572800 0.814200
-10.556200 0.818800
-10.539600 0.823900
-10.522900 0.829000
-10.506300 0.834100
-10.489700 0.839200
-10.473100 0.844200
-10.456400 0.849300
-10.439800 0.854400
-10.423200 0.864700
-10.406600 0.859600
-10.389900 0.845700
-10.373300 0.843600
-10.356700 0.843600
-10.340100 0.843700
-10.323400 0.843700
-10.306800 0.844000
-10.290200 0.846400
-10.273600 0.849000
-10.256900 0.851600
-10.240300 0.854100
-10.223700 0.859000
-10.207000 0.864500
-10.190400 0.870100
-10.173800 0.875600
-10.157200 0.880800
-10.140500 0.886100
-10.123900 0.891300
-10.107300 0.896600
-10.090700 0.900700
-10.074000 0.890400
-10.057400 0.884200
-10.040800 0.883600
-10.024200 0.883000
-10.007500 0.882400
-9.990900 0.886700
-9.974300 0.891300
-9.957700 0.894900
-9.941000 0.898400
-9.924400 0.902000
-9.907800 0.905500
-9.891100 0.909100
-9.874500 0.912700
-9.857900 0.916400
-9.841300 0.920200
-9.824600 0.924000
-9.808000 0.927800
-9.791400 0.931500
-9.774800 0.935300
-9.758100 0.942200
-9.741500 0.950200
-9.724900 0.958200
-9.708300 0.960200
-9.691600 0.954200
-9.675000 0.955600
-9.658400 0.957000
-9.641800 0.958400
-9.625100 0.960200
-9.608500 0.963100
-9.591900 0.966100
-9.575200 0.969000
-9.558600 0.971900
-9.542000 0.974800
-9.525400 0.977800
-9.508700 0.992100
-9.492100 0.998600
-9.475500 1.005200
-9.458900 1.011700
-9.442200 1.018300
-9.425600 1.024800
-9.409000 1.031400
-9.392400 1.037900
-9.375700 1.043800
-9.359100 1.049600
-9.342500 1.055300
-9.325800 1.061100
-9.309200 1.066800
-9.292600 1.069500
-9.276000 1.074500
-9.259300 1.085700
-9.242700 1.096800
-9.226100 1.106900
-9.209500 1.114300
-9.192800 1.121600
-9.176200 1.129000
-9.159600 1.136300
-9.143000 1.143800
-9.126300 1.151500
-9.109700 1.159300
-9.093100 1.167000
-9.076500 1.174800
-9.059800 1.214100
-9.043200 1.231800
-9.026600 1.249400
-9.009900 1.266900
-8.993300 1.284500
-8.976700 1.302100
-8.960100 1.319600
-8.943400 1.337200
-8.926800 1.353700
-8.910200 1.369700
-8.893600 1.411500
-8.876900 1.472800
-8.860300 1.534100
-8.843700 1.595400
-8.827100 1.639800
-8.810400 1.686900
-8.793800 1.734300
-8.777200 1.782900
-8.760600 2.602500
-8.743900 1.955700
-8.727300 1.833400
-8.710700 1.711200
-8.694000 1.589400
-8.677400 1.548600
-8.660800 1.616100
-8.644200 1.391500
-8.627500 1.357500
-8.610900 1.323400
-8.594300 1.289300
-8.577700 1.255200
-8.561000 1.221100
-8.544400 1.187100
-8.527800 1.153000
-8.511200 1.118900
-8.494500 1.093800
-8.477900 1.088200
-8.461300 1.082500
-8.444700 1.076800
-8.428000 1.071200
-8.411400 1.065500
-8.394800 0.977600
-8.378100 0.980800
-8.361500 0.983500
-8.344900 0.987500
-8.328300 0.970100
-8.311600 1.042600
-8.295000 1.211500
-8.278400 1.299200
-8.261800 1.350000
-8.245100 1.420000
-8.228500 1.535700
-8.211900 1.726700
-8.195300 1.789400
-8.178600 1.733100
-8.162000 1.741800
-8.145400 1.766600
-8.128800 1.782200
-8.112100 1.769300
-8.095500 1.767400
-8.078900 1.792500
-8.062200 1.810400
-8.045600 1.779100
-8.029000 1.800300
-8.012400 1.823000
-7.995700 1.835300
-7.979100 1.846200
-7.962500 1.870700
-7.945900 1.950200
-7.929200 2.055700
-7.912600 2.168700
-7.896000 3.418600
-7.879400 4.442700
-7.862700 3.495600
-7.846100 2.723400
-7.829500 1.896400
-7.812900 1.571800
-7.796200 1.336100
-7.779600 1.038900
-7.763000 0.676600
-7.746300 0.360400
-7.729700 0.156000
-7.713100 0.000000
-7.696500 0.021200
-7.679800 0.339000
-7.663200 0.844900
-7.646600 1.680700
-7.630000 2.846600
-7.613300 4.162700
-7.596700 3.711600
-7.580100 3.452800
-7.563500 3.280600
-7.546800 3.258300
-7.530200 3.302600
-7.513600 3.329200
-7.496900 3.423800
-7.480300 3.643200
-7.463700 3.905700
-7.447100 4.113700
-7.430400 5.092200
-7.413800 5.816100
-7.397200 7.400100
-7.380600 11.916600
-7.363900 9.544300
-7.347300 8.410300
-7.330700 8.316400
-7.314100 8.069100
-7.297400 8.080200
-7.280800 7.699600
-7.264200 7.112100
-7.247600 6.278900
-7.230900 5.450300
-7.214300 5.284200
-7.197700 6.370700
-7.181000 9.571000
-7.164400 15.294000
-7.147800 14.217400
-7.131200 11.141000
-7.114500 9.948900
-7.097900 3.367000
-7.081300 0.795800
-7.064700 0.754800
-7.048000 0.713700
-7.031400 0.672600
-7.014800 0.631500
-6.998200 0.590400
-6.981500 0.540300
-6.964900 0.485100
-6.948300 0.438000
-6.931700 0.428500
-6.915000 0.419100
-6.898400 0.409600
-6.881800 0.400200
-6.865100 0.390700
-6.848500 0.381300
-6.831900 0.371800
-6.815300 0.368400
-6.798600 0.365500
-6.782000 0.362700
-6.765400 0.359800
-6.748800 0.356900
-6.732100 0.354100
-6.715500 0.351200
-6.698900 0.348300
-6.682300 0.345400
-6.665600 0.342600
-6.649000 0.323200
-6.632400 0.337300
-6.615800 0.351300
-6.599100 0.365400
-6.582500 0.370900
-6.565900 0.359700
-6.549200 0.348500
-6.532600 0.337200
-6.516000 0.326000
-6.499400 0.314800
-6.482700 0.303600
-6.466100 0.292400
-6.449500 0.281200
-6.432900 0.270000
-6.416200 0.275500
-6.399600 0.301100
-6.383000 0.326600
-6.366400 0.352100
-6.349700 0.377600
-6.333100 0.320700
-6.316500 0.249600
-6.299900 0.178500
-6.283200 0.107400
-6.266600 0.036300
-6.250000 0.000000
-6.233300 0.000000
-6.216700 0.000000
-6.200100 0.000000
-6.183500 0.000000
-6.166800 0.000000
-6.150200 0.000000
-6.133600 0.000000
-6.117000 0.000000
-6.100300 0.000000
-6.083700 0.000000
-6.067100 0.000000
-6.050500 0.000000
-6.033800 0.000000
-6.017200 0.000000
-6.000600 0.000000
-5.983900 0.000000
-5.967300 0.000000
-5.950700 0.000000
-5.934100 0.000000
-5.917400 0.000000
-5.900800 0.000000
-5.884200 0.000000
-5.867600 0.000000
-5.850900 0.000000
-5.834300 0.000000
-5.817700 0.000000
-5.801100 0.000000
-5.784400 0.000000
-5.767800 0.000000
-5.751200 0.000000
-5.734600 0.000000
-5.717900 0.000000
-5.701300 0.000000
-5.684700 0.000000
-5.668000 0.000000
-5.651400 0.000000
-5.634800 0.000000
-5.618200 0.000000
-5.601500 0.000000
-5.584900 0.000000
-5.568300 0.000000
-5.551700 0.000000
-5.535000 0.000000
-5.518400 0.000000
-5.501800 0.000000
-5.485200 0.000000
-5.468500 0.000000
-5.451900 0.000000
-5.435300 0.000000
-5.418700 0.000000
-5.402000 0.000000
-5.385400 0.000000
-5.368800 0.000000
-5.352100 0.000000
-5.335500 0.000000
-5.318900 0.000000
-5.302300 0.000000
-5.285600 0.000000
-5.269000 0.000000
-5.252400 0.000000
-5.235800 0.000000
-5.219100 0.000000
-5.202500 0.000000
-5.185900 0.000000
-5.169300 0.000000
-5.152600 0.000000
-5.136000 0.000000
-5.119400 0.000000
-5.102800 0.000000
-5.086100 0.000000
-5.069500 0.000000
-5.052900 0.000000
-5.036200 0.000000
-5.019600 0.000000
-5.003000 0.000000
-4.986400 0.000000
-4.969700 0.000000
-4.953100 0.000000
-4.936500 0.000000
-4.919900 0.000000
-4.903200 0.000000
-4.886600 0.000000
-4.870000 0.000000
-4.853400 0.000000
-4.836700 0.000000
-4.820100 0.000000
-4.803500 0.000000
-4.786900 0.000000
-4.770200 0.000000
-4.753600 0.000000
-4.737000 0.000000
-4.720300 0.000000
-4.703700 0.000000
-4.687100 0.000000
-4.670500 0.000000
-4.653800 0.000000
-4.637200 0.000000
-4.620600 0.000000
-4.604000 0.000000
-4.587300 0.000000
-4.570700 0.000000
-4.554100 0.000000
-4.537500 0.000000
-4.520800 0.000000
-4.504200 0.000000
-4.487600 0.000000
-4.471000 0.000000
-4.454300 0.000000
-4.437700 0.000000
-4.421100 0.000000
-4.404400 0.000000
-4.387800 0.000000
-4.371200 0.000000
-4.354600 0.000000
-4.337900 0.000000
-4.321300 0.000000
-4.304700 0.000000
-4.288100 0.000000
-4.271400 0.000000
-4.254800 0.000000
-4.238200 0.000000
-4.221600 0.000000
-4.204900 0.000000
-4.188300 0.000000
-4.171700 0.000000
-4.155000 0.000000
-4.138400 0.000000
-4.121800 0.000000
-4.105200 0.000000
-4.088500 0.000000
-4.071900 0.000000
-4.055300 0.000000
-4.038700 0.000000
-4.022000 0.000000
-4.005400 0.000000
-3.988800 0.000000
-3.972200 0.000000
-3.955500 0.000000
-3.938900 0.000000
-3.922300 0.000000
-3.905700 0.000000
-3.889000 0.000000
-3.872400 0.000000
-3.855800 0.000000
-3.839100 0.000000
-3.822500 0.000000
-3.805900 0.000000
-3.789300 0.000000
-3.772600 0.000000
-3.756000 0.000000
-3.739400 0.000000
-3.722800 0.000000
-3.706100 0.000000
-3.689500 0.000000
-3.672900 0.000000
-3.656300 0.000000
-3.639600 0.000000
-3.623000 0.000000
-3.606400 0.000000
-3.589800 0.000000
-3.573100 0.000000
-3.556500 0.000000
-3.539900 0.000000
-3.523200 0.000000
-3.506600 0.000000
-3.490000 0.000000
-3.473400 0.000000
-3.456700 0.000000
-3.440100 0.000000
-3.423500 0.000000
-3.406900 0.000000
-3.390200 0.000000
-3.373600 0.000000
-3.357000 0.000000
-3.340400 0.000000
-3.323700 0.000000
-3.307100 0.000000
-3.290500 0.000000
-3.273900 0.000000
-3.257200 0.000000
-3.240600 0.000000
-3.224000 0.000000
-3.207300 0.000000
-3.190700 0.000000
-3.174100 0.000000
-3.157500 0.000000
-3.140800 0.000000
-3.124200 0.000000
-3.107600 0.000000
-3.091000 0.000000
-3.074300 0.000000
-3.057700 0.000000
-3.041100 0.000000
-3.024500 0.000000
-3.007800 0.000000
-2.991200 0.000000
-2.974600 0.000000
-2.958000 0.000000
-2.941300 0.000000
-2.924700 0.000000
-2.908100 0.000000
-2.891400 0.000000
-2.874800 0.000000
-2.858200 0.000000
-2.841600 0.000000
-2.824900 0.000000
-2.808300 0.000000
-2.791700 0.000000
-2.775100 0.022500
-2.758400 0.109100
-2.741800 0.242400
-2.725200 0.453600
-2.708600 0.711700
-2.691900 0.812000
-2.675300 0.848700
-2.658700 0.857400
-2.642000 0.701300
-2.625400 0.732900
-2.608800 0.764400
-2.592200 0.934200
-2.575500 0.877000
-2.558900 0.871800
-2.542300 0.900300
-2.525700 0.784700
-2.509000 0.793300
-2.492400 0.801600
-2.475800 0.806800
-2.459200 0.809600
-2.442500 0.810400
-2.425900 0.815100
-2.409300 0.824000
-2.392700 0.875700
-2.376000 0.898200
-2.359400 0.901300
-2.342800 0.907100
-2.326100 0.860100
-2.309500 0.826500
-2.292900 0.804900
-2.276300 0.803300
-2.259600 0.807600
-2.243000 0.815100
-2.226400 0.825100
-2.209800 0.835000
-2.193100 0.844900
-2.176500 0.854900
-2.159900 0.864800
-2.143300 0.873400
-2.126600 0.880600
-2.110000 0.887900
-2.093400 0.914800
-2.076800 0.920400
-2.060100 0.924000
-2.043500 0.905800
-2.026900 0.881100
-2.010200 0.860500
-1.993600 0.848200
-1.977000 0.844200
-1.960400 0.844600
-1.943700 0.850900
-1.927100 0.857600
-1.910500 0.864300
-1.893900 0.871000
-1.877200 0.877700
-1.860600 0.884400
-1.844000 0.891300
-1.827400 0.898800
-1.810700 0.906700
-1.794100 0.915000
-1.777500 0.923700
-1.760900 0.932400
-1.744200 0.941100
-1.727600 0.962300
-1.711000 0.963800
-1.694300 0.971800
-1.677700 0.949600
-1.661100 0.937700
-1.644500 0.929200
-1.627800 0.921100
-1.611200 0.913900
-1.594600 0.910900
-1.578000 0.911800
-1.561300 0.917200
-1.544700 0.923400
-1.528100 0.930100
-1.511500 0.937200
-1.494800 0.945100
-1.478200 0.953200
-1.461600 0.961600
-1.445000 0.970000
-1.428300 0.978400
-1.411700 0.986800
-1.395100 0.995300
-1.378400 1.003700
-1.361800 1.012100
-1.345200 1.020500
-1.328600 1.046700
-1.311900 1.058400
-1.295300 1.056300
-1.278700 1.047300
-1.262100 1.041600
-1.245400 1.036100
-1.228800 1.030600
-1.212200 1.029500
-1.195600 1.035900
-1.178900 1.048200
-1.162300 1.060200
-1.145700 1.073300
-1.129100 1.087000
-1.112400 1.101600
-1.095800 1.116100
-1.079200 1.130700
-1.062500 1.145500
-1.045900 1.160500
-1.029300 1.175900
-1.012700 1.191600
-0.996000 1.207300
-0.979400 1.398600
-0.962800 1.797900
-0.946200 2.387100
-0.929500 4.787200
-0.912900 2.319100
-0.896300 2.315300
-0.879700 2.308200
-0.863000 2.387500
-0.846400 2.617100
-0.829800 2.855700
-0.813100 3.079800
-0.796500 3.262400
-0.779900 3.520400
-0.763300 3.768900
-0.746600 3.200600
-0.730000 2.977600
-0.713400 2.902600
-0.696800 2.836400
-0.680100 2.784500
-0.663500 2.727900
-0.646900 2.707200
-0.630300 2.701100
-0.613600 2.705200
-0.597000 2.713500
-0.580400 2.733900
-0.563800 2.738500
-0.547100 2.742700
-0.530500 2.724000
-0.513900 2.671500
-0.497200 2.657100
-0.480600 2.681900
-0.464000 2.712700
-0.447400 2.738300
-0.430700 2.755900
-0.414100 2.772400
-0.397500 2.802600
-0.380900 2.828400
-0.364200 2.871400
-0.347600 2.897800
-0.331000 2.726100
-0.314400 2.617700
-0.297700 2.529400
-0.281100 2.454000
-0.264500 2.363000
-0.247900 2.269200
-0.231200 2.184500
-0.214600 2.109400
-0.198000 2.045500
-0.181300 1.912500
-0.164700 1.840300
-0.148100 1.794900
-0.131500 1.762400
-0.114800 1.741500
-0.098200 1.732400
-0.081600 1.735900
-0.065000 1.756900
-0.048300 1.792500
-0.031700 1.848500
-0.015100 1.900300
0.001500 1.924900
0.018200 1.965800
0.034800 2.001100
0.051400 2.029500
0.068000 2.083900
0.084700 2.220700
0.101300 2.711900
0.117900 2.302900
0.134600 2.311600
0.151200 2.318900
0.167800 2.330300
0.184400 2.340500
0.201100 2.345600
0.217700 2.365500
0.234300 2.391400
0.250900 2.413700
0.267600 2.594600
0.284200 2.700700
0.300800 2.738800
0.317400 2.759900
0.334100 2.784900
0.350700 2.820800
0.367300 2.873400
0.383900 2.941300
0.400600 3.000900
0.417200 3.075700
0.433800 3.115400
0.450500 3.115400
0.467100 3.110200
0.483700 3.098400
0.500300 3.098200
0.517000 3.125100
0.533600 3.193600
0.550200 3.296400
0.566800 3.403500
0.583500 3.616000
0.600100 3.793900
0.616700 3.892300
0.633300 3.934500
0.650000 3.958500
0.666600 4.026800
0.683200 4.109700
0.699900 4.166800
0.716500 4.196200
0.733100 4.334500
0.749700 4.070900
0.766400 3.899000
0.783000 3.817600
0.799600 3.772000
0.816200 4.108900
0.832900 5.160800
0.849500 4.207000
0.866100 3.707200
0.882700 3.452300
0.899400 3.806200
0.916000 4.033600
0.932600 4.058400
0.949200 4.489500
0.965900 5.147400
0.982500 5.523500
0.999100 5.478300
1.015800 5.664000
1.032400 5.778900
1.049000 5.921800
1.065600 6.034600
1.082300 6.229300
1.098900 6.744400
1.115500 7.007400
1.132100 7.588100
1.148800 7.677800
1.165400 7.223500
1.182000 6.769700
1.198600 6.656900
1.215300 6.559900
1.231900 6.504600
1.248500 6.409200
1.265100 6.123100
1.281800 5.911600
1.298400 5.692600
1.315000 5.431600
1.331700 5.199600
1.348300 4.987200
1.364900 4.667200
1.381500 4.504500
1.398200 4.512500
1.414800 4.433700
1.431400 4.313600
1.448000 4.254300
1.464700 3.944000
1.481300 3.706000
1.497900 3.607700
1.514500 3.522900
1.531200 3.399500
1.547800 3.240200
1.564400 3.078600
1.581000 2.865300
1.597700 2.727200
1.614300 2.559900
1.630900 2.694700
1.647600 2.349700
1.664200 2.321400
1.680800 2.323200
1.697400 2.528500
1.714100 2.491100
1.730700 2.583200
1.747300 2.659000
1.763900 2.747400
1.780600 3.013500
1.797200 3.082600
1.813800 3.127300
1.830400 3.215400
1.847100 3.126600
1.863700 3.107500
1.880300 3.159700
1.896900 3.250400
1.913600 3.424500
1.930200 3.736800
1.946800 3.894900
1.963500 4.033600
1.980100 3.882200
1.996700 4.068100
2.013300 4.062900
2.030000 4.134800
2.046600 4.275900
2.063200 4.407600
2.079800 4.541900
2.096500 4.621700
2.113100 4.614400
2.129700 4.805600
2.146300 5.012900
2.163000 5.387400
2.179600 5.706900
2.196200 5.953900
2.212800 6.214000
2.229500 6.519100
2.246100 6.807300
2.262700 7.343900
2.279400 7.715800
2.296000 8.149800
2.312600 8.628100
2.329200 8.858200
2.345900 9.029000
2.362500 9.040400
2.379100 8.827100
2.395700 8.556300
2.412400 8.556300
2.429000 8.491400
2.445600 8.299700
2.462200 8.102700
2.478900 8.138700
2.495500 8.148300
2.512100 8.025900
2.528800 7.379200
2.545400 6.776500
2.562000 6.719900
2.578600 5.893200
2.595300 5.888300
2.611900 7.164900
2.628500 6.915000
2.645100 7.154600
2.661800 7.339900
2.678400 7.585000
2.695000 7.702800
2.711600 7.219900
2.728300 7.039600
2.744900 7.461100
2.761500 8.133600
2.778100 8.992600
2.794800 8.920100
2.811400 8.519600
2.828000 7.823400
2.844700 7.080300
2.861300 6.372300
2.877900 6.092500
2.894500 5.806400
2.911200 5.539200
2.927800 5.393700
2.944400 5.222200
2.961000 5.021500
2.977700 4.891300
2.994300 4.791400
3.010900 4.692800
3.027500 4.591500
3.044200 4.472200
3.060800 4.379800
3.077400 4.299500
3.094000 4.177300
3.110700 4.026700
3.127300 3.719900
3.143900 3.339700
3.160600 3.438300
3.177200 3.517000
3.193800 3.589200
3.210400 3.660400
3.227100 3.764200
3.243700 3.873500
3.260300 3.974500
3.276900 4.063000
3.293600 4.186300
3.310200 4.380900
3.326800 4.395900
3.343400 4.208800
3.360100 4.039800
3.376700 3.959000
3.393300 3.764300
3.409900 3.796500
3.426600 3.635400
3.443200 3.518400
3.459800 3.452200
3.476500 3.392000
3.493100 3.331500
3.509700 3.262900
3.526300 3.201200
3.543000 3.134000
3.559600 3.108100
3.576200 3.143000
3.592800 3.183600
3.609500 3.147100
3.626100 3.147900
3.642700 3.088400
3.659300 2.912800
3.676000 2.792700
3.692600 2.642600
3.709200 2.545300
3.725800 2.220700
3.742500 1.999600
3.759100 2.316100
3.775700 1.742600
3.792400 1.455800
3.809000 1.183400
3.825600 1.072300
3.842200 1.048300
3.858900 1.015300
3.875500 0.981600
3.892100 0.935800
3.908700 0.885700
3.925400 0.851400
3.942000 0.831300
3.958600 0.827100
3.975200 0.823100
3.991900 0.819700
4.008500 0.816500
4.025100 0.813600
4.041700 0.811100
4.058400 0.809100
4.075000 0.807700
4.091600 0.806500
4.108300 0.805400
4.124900 0.804200
4.141500 0.803100
4.158100 0.801900
4.174800 0.800700
4.191400 0.799600
4.208000 0.798300
4.224600 0.796700
4.241300 0.794600
4.257900 0.791700
4.274500 0.786300
4.291100 0.781300
4.307800 0.777900
4.324400 0.777200
4.341000 0.776500
4.357700 0.775800
4.374300 0.775200
4.390900 0.774500
4.407500 0.773800
4.424200 0.773200
4.440800 0.772500
4.457400 0.771800
4.474000 0.771100
4.490700 0.770500
4.507300 0.770100
4.523900 0.773400
4.540500 0.776100
4.557200 0.776700
4.573800 0.777500
4.590400 0.778300
4.607000 0.779100
4.623700 0.780000
4.640300 0.780800
4.656900 0.781600
4.673600 0.782400
4.690200 0.783200
4.706800 0.784000
4.723400 0.784900
4.740100 0.785500
4.756700 0.787800
4.773300 0.790800
4.789900 0.793900
4.806600 0.796900
4.823200 0.799700
4.839800 0.802400
4.856400 0.805300
4.873100 0.808200
4.889700 0.811000
4.906300 0.813900
4.922900 0.816800
4.939600 0.819600
4.956200 0.822500
4.972800 0.825400
4.989500 0.828200
5.006100 0.831100
5.022700 0.834000
5.039300 0.836800
5.056000 0.839800
5.072600 0.843300
5.089200 0.859500
5.105800 0.867100
5.122500 0.869700
5.139100 0.872500
5.155700 0.875300
5.172300 0.878100
5.189000 0.880900
5.205600 0.883600
5.222200 0.893700
5.238800 0.906300
5.255500 0.919000
5.272100 0.931600
5.288700 0.943400
5.305400 0.953900
5.322000 0.964500
5.338600 0.975300
5.355200 0.986500
5.371900 0.997700
5.388500 1.008900
5.405100 1.020100
5.421700 1.031200
5.438400 1.042200
5.455000 1.053100
5.471600 1.064100
5.488200 1.075700
5.504900 1.138700
5.521500 1.137000
5.538100 1.363100
5.554700 1.374000
5.571400 1.384900
5.588000 1.395900
5.604600 1.456800
5.621300 1.578700
5.637900 1.509900
5.654500 1.441100
5.671100 1.313300
5.687800 1.177100
5.704400 1.076600
5.721000 1.061200
5.737600 1.046600
5.754300 1.033100
5.770900 1.327900
5.787500 1.197100
5.804100 1.066400
5.820800 0.935700
5.837400 0.912200
5.854000 0.903300
5.870700 0.894900
5.887300 0.886800
5.903900 0.878600
5.920500 0.870500
5.937200 0.862300
5.953800 0.854200
5.970400 0.846000
5.987000 1.176600
6.003700 1.044900
6.020300 0.801200
6.036900 0.794900
6.053500 0.788700
6.070200 0.782400
6.086800 0.776200
6.103400 0.769900
6.120000 0.763700
6.136700 0.757400
6.153300 0.751200
6.169900 0.744900
6.186600 0.738600
6.203200 0.732400
6.219800 0.726100
6.236400 0.719900
6.253100 0.707200
6.269700 0.699400
6.286300 0.693700
6.302900 0.688100
6.319600 0.682400
6.336200 0.676800
6.352800 0.671400
6.369400 0.668000
6.386100 0.666700
6.402700 0.667500
6.419300 0.670300
6.435900 0.674100
6.452600 0.679100
6.469200 0.690800
6.485800 0.703200
6.502500 2.739400
6.519100 0.727000
6.535700 0.724800
6.552300 0.720100
6.569000 0.715000
6.585600 0.709800
6.602200 0.704400
6.618800 0.699200
6.635500 0.694500
6.652100 0.690300
6.668700 0.686700
6.685300 0.683100
6.702000 0.679300
6.718600 1.262800
6.735200 0.886500
6.751800 0.689500
6.768500 0.678000
6.785100 0.666700
6.801700 0.655700
6.818400 0.645000
6.835000 0.634500
6.851600 0.951700
6.868200 0.845700
6.884900 0.739100
6.901500 0.633600
6.918100 0.534600
6.934700 0.444600
6.951400 0.353800
6.968000 0.262600
6.984600 0.221800
7.001200 0.227800
7.017900 0.230400
7.034500 0.229000
7.051100 0.227900
7.067700 0.227100
7.084400 0.226600
7.101000 0.226300
7.117600 0.226300
7.134300 0.227600
7.150900 0.229900
7.167500 0.232200
7.184100 0.234300
7.200800 0.236400
7.217400 0.239900
7.234000 0.246000
7.250600 0.254600
7.267300 0.271600
7.283900 0.294600
7.300500 0.320000
7.317100 0.347600
7.333800 0.375400
7.350400 0.399900
7.367000 0.414700
7.383600 0.426900
7.400300 0.436800
7.416900 0.445800
7.433500 0.453900
7.450200 0.462700
7.466800 0.474000
7.483400 0.484400
7.500000 0.494100
7.516700 0.502500
7.533300 0.509200
7.549900 0.514400
7.566500 0.517900
7.583200 0.520900
7.599800 0.523900
7.616400 0.531500
7.633000 0.555100
7.649700 0.584700
7.666300 0.615500
7.682900 0.646500
7.699600 0.672500
7.716200 0.691300
7.732800 0.706000
7.749400 0.714000
7.766100 0.716900
7.782700 0.721300
7.799300 0.726800
7.815900 0.733700
7.832600 0.741500
7.849200 0.750700
7.865800 0.762400
7.882400 0.776800
7.899100 0.794800
7.915700 0.816800
7.932300 0.842700
7.948900 0.872200
7.965600 0.901600
7.982200 0.929600
7.998800 0.950300
8.015500 0.962700
8.032100 0.985300
8.048700 1.011600
8.065300 1.042300
8.082000 1.076700
8.098600 1.113800
8.115200 1.155000
8.131800 1.135100
8.148500 1.154000
8.165100 1.177200
8.181700 1.202200
8.198300 1.229900
8.215000 1.258500
8.231600 1.288200
8.248200 1.319200
8.264800 1.351400
8.281500 1.389800
8.298100 1.475800
8.314700 1.544400
8.331400 1.631500
8.348000 1.749600
8.364600 1.869200
8.381200 1.978600
8.397900 2.091500
8.414500 2.211500
8.431100 2.429500
8.447700 2.562500
8.464400 2.765000
8.481000 3.016100
8.497600 3.247400
8.514200 3.528800
8.530900 3.795500
8.547500 4.110600
8.564100 4.413600
8.580700 4.445600
8.597400 4.504900
8.614000 4.696000
8.630600 4.822300
8.647300 4.986800
8.663900 5.058400
8.680500 5.199000
8.697100 5.385900
8.713800 5.594000
8.730400 6.272700
8.747000 6.921300
8.763600 6.686900
8.780300 5.894000
8.796900 5.558100
8.813500 5.488000
8.830100 5.537600
8.846800 5.639200
8.863400 5.636800
8.880000 5.467600
8.896600 5.306400
8.913300 5.177100
8.929900 5.041900
8.946500 4.852000
8.963200 4.827100
8.979800 4.960700
8.996400 5.091400
9.013000 5.199800
9.029700 5.410500
9.046300 5.816600
9.062900 6.163500
9.079500 6.237700
9.096200 6.109400
9.112800 6.012600
9.129400 5.846700
9.146000 5.681000
9.162700 5.544900
9.179300 5.266300
9.195900 4.927400
9.212600 4.759800
9.229200 4.371100
9.245800 4.107600
9.262400 4.001800
9.279100 3.989700
9.295700 3.976500
9.312300 4.051800
9.328900 4.127400
9.345600 4.222000
9.362200 4.267500
9.378800 4.456300
9.395400 4.597400
9.412100 4.816900
9.428700 5.038100
9.445300 5.240700
9.461900 5.459900
9.478600 5.473200
9.495200 5.325700
9.511800 5.180800
9.528500 5.010800
9.545100 4.839200
9.561700 4.761200
9.578300 4.719600
9.595000 4.793000
9.611600 4.928900
9.628200 4.917700
9.644800 5.009500
9.661500 4.510700
9.678100 4.337200
9.694700 4.251500
9.711300 4.196100
9.728000 4.187300
9.744600 4.260000
9.761200 4.283000
9.777800 4.606600
9.794500 4.888200
9.811100 5.000200
9.827700 5.136200
9.844400 5.358500
9.861000 4.836100
9.877600 4.586800
9.894200 4.629000
9.910900 4.488500
9.927500 4.544900
9.944100 4.563800
9.960700 4.594600
9.977400 4.648900
9.994000 4.548800
10.010600 4.369000
10.027200 4.301800
10.043900 4.225500
10.060500 4.131600
10.077100 4.098600
10.093700 4.021300
10.110400 3.914400
10.127000 3.768700
10.143600 3.687700
10.160300 3.701300
10.176900 3.748600
10.193500 3.934200
10.210100 4.119100
10.226800 4.226300
10.243400 4.359300
10.260000 4.407600
10.276600 4.193300
10.293300 4.252500
10.309900 4.218300
10.326500 4.300000
10.343100 4.289400
10.359800 4.394000
10.376400 4.274200
10.393000 4.304000
10.409600 4.433800
10.426300 4.661700
10.442900 4.867100
10.459500 5.080500
10.476200 5.354800
10.492800 5.755900
10.509400 6.074300
10.526000 6.438400
10.542700 6.820800
10.559300 6.673300
10.575900 7.116800
10.592500 6.379800
10.609200 6.150000
10.625800 5.981500
10.642400 5.929800
10.659000 5.817200
10.675700 5.656200
10.692300 5.587100
10.708900 5.709200
10.725500 5.474800
10.742200 5.284600
10.758800 5.297000
10.775400 5.377300
10.792100 5.483600
10.808700 5.581900
10.825300 5.639900
10.841900 5.494600
10.858600 5.407000
10.875200 5.431000
10.891800 5.519900
10.908400 5.274300
10.925100 5.193000
10.941700 5.046000
10.958300 4.975700
10.974900 5.032900
10.991600 5.064600
11.008200 5.175300
11.024800 5.285600
11.041500 5.453600
11.058100 5.600500
11.074700 5.955300
11.091300 6.475400
11.108000 6.658200
11.124600 6.804500
11.141200 6.823600
11.157800 6.658600
11.174500 6.293200
11.191100 6.228900
11.207700 6.165300
11.224300 6.076500
11.241000 6.026200
11.257600 6.121300
11.274200 6.444100
11.290800 6.591900
11.307500 6.495000
11.324100 6.334100
11.340700 5.835200
11.357400 4.968000
11.374000 4.670000
11.390600 4.350700
11.407200 3.885000
11.423900 3.648500
11.440500 3.572800
11.457100 3.561100
11.473700 3.567500
11.490400 3.574900
11.507000 3.606900
11.523600 3.665400
11.540200 3.727100
11.556900 3.637400
11.573500 3.619900
11.590100 3.575200
11.606700 3.596900
11.623400 3.607500
11.640000 3.603900
11.656600 3.600500
11.673300 3.614300
11.689900 3.641400
11.706500 3.681800
11.723100 3.731100
11.739800 3.786100
11.756400 3.821300
11.773000 3.830600
11.789600 3.825500
11.806300 3.820400
11.822900 3.902700
11.839500 3.790700
11.856100 3.786600
11.872800 4.018900
11.889400 4.033100
11.906000 4.171300
11.922600 4.243600
11.939300 3.997300
11.955900 3.826300
11.972500 3.617200
11.989200 3.435500
12.005800 3.275700
12.022400 3.138100
12.039000 3.028900
12.055700 2.967100
12.072300 2.916100
12.088900 2.868500
12.105500 2.818500
12.122200 2.753300
12.138800 2.667800
12.155400 2.561800
12.172000 2.496900
12.188700 2.462100
12.205300 2.451100
12.221900 2.452200
12.238500 2.406300
12.255200 2.321600
12.271800 2.292100
12.288400 2.350700
12.305100 2.479800
12.321700 2.257500
12.338300 2.072200
12.354900 1.917400
12.371600 1.829300
12.388200 1.755900
12.404800 1.695900
12.421400 1.646700
12.438100 1.621700
12.454700 1.632400
12.471300 1.673900
12.487900 1.742000
12.504600 1.882900
12.521200 1.915700
12.537800 1.619400
12.554500 1.471600
12.571100 1.341300
12.587700 1.204300
12.604300 1.042500
12.621000 0.872000
12.637600 0.802200
12.654200 0.745100
12.670800 0.687600
12.687500 0.637300
12.704100 0.604100
12.720700 0.579200
12.737300 0.541900
12.754000 0.487400
12.770600 0.438700
12.787200 0.395100
12.803800 0.372000
12.820500 0.358200
12.837100 0.344300
12.853700 0.330600
12.870400 0.317400
12.887000 0.309400
12.903600 0.297000
12.920200 0.285000
12.936900 0.273200
12.953500 0.261700
12.970100 0.250600
12.986700 0.239700
13.003400 0.230800
13.020000 0.220400
13.036600 0.210600
13.053200 0.201300
13.069900 0.194400
13.086500 0.188500
13.103100 0.182600
13.119700 0.179400
13.136400 0.177000
13.153000 0.174100
13.169600 0.170500
13.186300 0.203300
13.202900 0.074500
13.219500 0.077000
13.236100 0.079200
13.252800 0.074600
13.269400 0.067500
13.286000 0.060800
13.302600 0.054300
13.319300 0.048200
13.335900 0.042300
13.352500 0.036800
13.369100 0.031600
13.385800 0.026700
13.402400 0.000000
13.419000 0.000000
13.435600 0.000000
13.452300 0.000000
13.468900 0.000000
13.485500 0.000000
13.502200 0.000000
13.518800 0.000000
13.535400 0.000000
13.552000 0.000000
13.568700 0.000000
13.585300 0.000000
13.601900 0.000000
13.618500 0.000000
13.635200 0.000000
13.651800 0.000000
13.668400 0.000000
13.685000 0.000000
13.701700 0.000000
13.718300 0.000000
13.734900 0.000000
13.751500 0.000000
13.768200 0.000000
13.784800 0.000000
13.801400 0.000000
13.818100 0.000000
13.834700 0.000000
13.851300 0.000000
13.867900 0.000000
13.884600 0.000000
13.901200 0.000000
13.917800 0.000000
13.934400 0.000000
13.951100 0.000000
13.967700 0.000000
13.984300 0.000000
14.000900 0.000000
14.017600 0.000000
14.034200 0.000000
14.050800 0.000000
14.067400 0.000000
14.084100 0.000000
14.100700 0.000000
14.117300 0.000000
14.134000 0.000000
14.150600 0.000000
14.167200 0.000000
14.183800 0.000000
14.200500 0.000000
14.217100 0.000000
14.233700 0.000000
14.250300 0.000000
14.267000 0.000000
14.283600 0.000000
14.300200 0.000000
14.316800 0.000000
14.333500 0.000000
14.350100 0.000000
14.366700 0.000000
14.383400 0.000000
14.400000 0.000000
14.416600 0.000000
14.433200 0.000000
14.449900 0.000000
14.466500 0.000000
14.483100 0.000000
14.499700 0.000000
14.516400 0.000000
14.533000 0.000000
14.549600 0.000000
14.566200 0.000000
14.582900 0.000000
14.599500 0.000000
14.616100 0.000000
14.632700 0.000000
14.649400 0.000000
14.666000 0.000000
14.682600 0.000000
14.699300 0.000000
14.715900 0.000000
14.732500 0.000000
14.749100 0.000000
14.765800 0.000000
14.782400 0.000000
14.799000 0.000000
14.815600 0.000000
14.832300 0.000000
14.848900 0.000000
14.865500 0.000000
14.882100 0.000000
14.898800 0.000000
e
