set title 'mp-1007661 - Density of States'
set xlabel 'Energy (eV)'
set ylabel 'DOS (states/eV)'
set grid
set xrange [-10:10]
set yrange [0:8.655]
set xzeroaxis lt -1
set terminal png size 800,600
set output 'mp-1007661_dos_gnuplot.png'
plot '-' using 1:2 with lines title 'DOS'
-11.458400 0.000000
-11.444500 0.000000
-11.430600 0.000000
-11.416700 0.000000
-11.402800 0.000000
-11.388900 0.000000
-11.375000 0.000000
-11.361100 0.000000
-11.347200 0.000000
-11.333200 0.000000
-11.319300 0.000000
-11.305400 0.000000
-11.291500 0.000000
-11.277600 0.000000
-11.263700 0.000000
-11.249800 0.000000
-11.235900 0.000000
-11.222000 0.000000
-11.208100 0.000000
-11.194200 0.000000
-11.180300 0.000000
-11.166400 0.000000
-11.152500 0.000000
-11.138600 0.000000
-11.124700 0.000000
-11.110800 0.000000
-11.096900 0.000000
-11.083000 0.000000
-11.069100 0.000000
-11.055200 0.000000
-11.041300 0.000000
-11.027400 0.000000
-11.013500 0.000000
-10.999600 0.000000
-10.985700 0.000000
-10.971800 0.000000
-10.957900 0.000000
-10.944000 0.000000
-10.930100 0.000000
-10.916200 0.000000
-10.902300 0.000000
-10.888400 0.000000
-10.874500 0.000000
-10.860600 0.000000
-10.846700 0.000000
-10.832800 0.000000
-10.818900 0.000000
-10.805000 0.000000
-10.791000 0.000000
-10.777100 0.000000
-10.763200 0.000000
-10.749300 0.000000
-10.735400 0.000000
-10.721500 0.000000
-10.707600 0.000000
-10.693700 0.000000
-10.679800 0.000000
-10.665900 0.000000
-10.652000 0.000000
-10.638100 0.000000
-10.624200 0.000000
-10.610300 0.000000
-10.596400 0.000000
-10.582500 0.000000
-10.568600 0.000000
-10.554700 0.000000
-10.540800 0.000000
-10.526900 0.000000
-10.513000 0.000000
-10.499100 0.000000
-10.485200 0.000000
-10.471300 0.000000
-10.457400 0.000000
-10.443500 0.000000
-10.429600 0.000000
-10.415700 0.000000
-10.401800 0.000000
-10.387900 0.000000
-10.374000 0.000000
-10.360100 0.000000
-10.346200 0.000000
-10.332300 0.000000
-10.318400 0.000000
-10.304500 0.000000
-10.290600 0.000000
-10.276700 0.000000
-10.262800 0.000000
-10.248900 0.000000
-10.234900 0.000000
-10.221000 0.000000
-10.207100 0.000000
-10.193200 35.579600
-10.179300 155.470400
-10.165400 56.275300
-10.151500 22.866500
-10.137600 0.370100
-10.123700 452.888300
-10.109800 279.978800
-10.095900 0.000000
-10.082000 0.000000
-10.068100 420.129800
-10.054200 0.000000
-10.040300 0.000000
-10.026400 0.000000
-10.012500 0.000000
-9.998600 0.000000
-9.984700 0.000000
-9.970800 0.000000
-9.956900 0.000000
-9.943000 0.000000
-9.929100 0.000000
-9.915200 0.000000
-9.901300 0.000000
-9.887400 0.000000
-9.873500 0.000000
-9.859600 0.000000
-9.845700 0.000000
-9.831800 0.000000
-9.817900 0.000000
-9.804000 0.000000
-9.790100 0.000000
-9.776200 0.000000
-9.762300 0.000000
-9.748400 0.000000
-9.734500 0.000000
-9.720600 0.000000
-9.706700 0.000000
-9.692700 0.000000
-9.678800 0.000000
-9.664900 0.000000
-9.651000 0.000000
-9.637100 0.000000
-9.623200 0.000000
-9.609300 0.000000
-9.595400 0.000000
-9.581500 0.000000
-9.567600 0.000000
-9.553700 0.000000
-9.539800 0.000000
-9.525900 0.000000
-9.512000 0.000000
-9.498100 0.000000
-9.484200 0.000000
-9.470300 0.000000
-9.456400 0.000000
-9.442500 0.000000
-9.428600 0.000000
-9.414700 0.000000
-9.400800 0.000000
-9.386900 0.000000
-9.373000 0.000000
-9.359100 0.000000
-9.345200 0.000000
-9.331300 0.000000
-9.317400 0.000000
-9.303500 0.000000
-9.289600 0.000000
-9.275700 0.000000
-9.261800 0.000000
-9.247900 0.000000
-9.234000 0.000000
-9.220100 0.000000
-9.206200 0.000000
-9.192300 0.000000
-9.178400 0.000000
-9.164500 0.000000
-9.150600 0.000000
-9.136600 0.000000
-9.122700 0.000000
-9.108800 0.000000
-9.094900 0.000000
-9.081000 0.000000
-9.067100 0.000000
-9.053200 0.000000
-9.039300 0.000000
-9.025400 0.000000
-9.011500 0.000000
-8.997600 0.000000
-8.983700 0.000000
-8.969800 0.000000
-8.955900 0.000000
-8.942000 0.000000
-8.928100 0.000000
-8.914200 0.000000
-8.900300 0.000000
-8.886400 0.000000
-8.872500 0.000000
-8.858600 0.000000
-8.844700 0.000000
-8.830800 0.000000
-8.816900 0.000000
-8.803000 0.000000
-8.789100 0.000000
-8.775200 0.000000
-8.761300 0.000000
-8.747400 0.000000
-8.733500 0.000000
-8.719600 0.000000
-8.705700 0.000000
-8.691800 0.000000
-8.677900 0.000000
-8.664000 0.000000
-8.650100 0.000000
-8.636200 0.000000
-8.622300 0.000000
-8.608400 0.000000
-8.594400 0.000000
-8.580500 0.000000
-8.566600 0.000000
-8.552700 0.000000
-8.538800 0.000000
-8.524900 0.000000
-8.511000 0.000000
-8.497100 0.000000
-8.483200 0.000000
-8.469300 0.000000
-8.455400 0.000000
-8.441500 0.000000
-8.427600 0.000000
-8.413700 0.000000
-8.399800 0.000000
-8.385900 0.000000
-8.372000 0.000000
-8.358100 0.000000
-8.344200 0.000000
-8.330300 0.000000
-8.316400 0.000000
-8.302500 0.000000
-8.288600 0.000000
-8.274700 0.000000
-8.260800 0.000000
-8.246900 0.000000
-8.233000 0.000000
-8.219100 0.000000
-8.205200 0.000000
-8.191300 0.000000
-8.177400 0.000000
-8.163500 0.000000
-8.149600 0.000000
-8.135700 0.000000
-8.121800 0.000000
-8.107900 0.000000
-8.094000 0.000000
-8.080100 0.000000
-8.066200 0.000000
-8.052300 0.000000
-8.038300 0.000000
-8.024400 0.000000
-8.010500 0.000000
-7.996600 0.000000
-7.982700 0.000000
-7.968800 0.000000
-7.954900 0.000000
-7.941000 0.000000
-7.927100 0.000000
-7.913200 0.000000
-7.899300 0.000000
-7.885400 0.000000
-7.871500 0.000000
-7.857600 0.000000
-7.843700 0.000000
-7.829800 0.000000
-7.815900 0.000000
-7.802000 0.000000
-7.788100 0.000000
-7.774200 0.000000
-7.760300 0.000000
-7.746400 0.000000
-7.732500 0.000000
-7.718600 0.000000
-7.704700 0.000000
-7.690800 0.000000
-7.676900 0.000000
-7.663000 0.000000
-7.649100 0.000000
-7.635200 0.000000
-7.621300 0.000000
-7.607400 0.000000
-7.593500 0.000000
-7.579600 0.000000
-7.565700 0.000000
-7.551800 0.000000
-7.537900 0.000000
-7.524000 0.000000
-7.510100 0.000000
-7.496100 0.000000
-7.482200 0.000000
-7.468300 0.000000
-7.454400 0.000000
-7.440500 0.000000
-7.426600 0.000000
-7.412700 0.000000
-7.398800 0.000000
-7.384900 0.000000
-7.371000 0.000000
-7.357100 0.000000
-7.343200 0.000000
-7.329300 0.000000
-7.315400 0.000000
-7.301500 0.000000
-7.287600 0.000000
-7.273700 0.000000
-7.259800 0.000000
-7.245900 0.000000
-7.232000 0.000000
-7.218100 0.000000
-7.204200 0.000000
-7.190300 0.000000
-7.176400 0.000000
-7.162500 0.000000
-7.148600 0.000000
-7.134700 0.000000
-7.120800 0.000000
-7.106900 0.000000
-7.093000 0.000000
-7.079100 0.000000
-7.065200 0.000000
-7.051300 0.000000
-7.037400 0.000000
-7.023500 0.000000
-7.009600 0.000000
-6.995700 0.000000
-6.981800 0.000000
-6.967900 0.000000
-6.954000 0.000000
-6.940000 0.000000
-6.926100 0.000000
-6.912200 0.000000
-6.898300 0.000000
-6.884400 0.000000
-6.870500 0.000000
-6.856600 0.000000
-6.842700 0.000000
-6.828800 0.000000
-6.814900 0.000000
-6.801000 0.000000
-6.787100 0.000000
-6.773200 0.000000
-6.759300 0.000000
-6.745400 0.000000
-6.731500 0.000000
-6.717600 0.000000
-6.703700 0.000000
-6.689800 0.000000
-6.675900 0.000000
-6.662000 0.000000
-6.648100 0.000000
-6.634200 0.000000
-6.620300 0.000000
-6.606400 0.000000
-6.592500 0.000000
-6.578600 0.000000
-6.564700 0.000000
-6.550800 0.000000
-6.536900 0.000000
-6.523000 0.000000
-6.509100 0.000000
-6.495200 0.000000
-6.481300 0.000000
-6.467400 0.000000
-6.453500 0.000000
-6.439600 0.000000
-6.425700 0.000000
-6.411800 0.000000
-6.397800 0.000000
-6.383900 0.000000
-6.370000 0.000000
-6.356100 0.000000
-6.342200 0.000000
-6.328300 0.000000
-6.314400 0.000000
-6.300500 0.000000
-6.286600 0.000000
-6.272700 0.000000
-6.258800 0.000000
-6.244900 0.000000
-6.231000 0.000000
-6.217100 0.000000
-6.203200 0.000000
-6.189300 0.000000
-6.175400 0.000000
-6.161500 0.000000
-6.147600 0.000000
-6.133700 0.000000
-6.119800 0.000000
-6.105900 0.000000
-6.092000 0.000000
-6.078100 0.000000
-6.064200 0.000000
-6.050300 0.000000
-6.036400 0.000000
-6.022500 0.000000
-6.008600 0.000000
-5.994700 0.000000
-5.980800 0.000000
-5.966900 0.000000
-5.953000 0.000000
-5.939100 0.000000
-5.925200 0.000000
-5.911300 0.000000
-5.897400 0.000000
-5.883500 0.000000
-5.869600 0.008900
-5.855700 0.076600
-5.841700 0.209600
-5.827800 0.285000
-5.813900 0.306600
-5.800000 0.328500
-5.786100 0.374800
-5.772200 0.423200
-5.758300 0.472100
-5.744400 0.511300
-5.730500 0.532700
-5.716600 0.544500
-5.702700 0.566500
-5.688800 0.594800
-5.674900 0.623400
-5.661000 0.652100
-5.647100 0.680800
-5.633200 0.709800
-5.619300 0.739800
-5.605400 0.763200
-5.591500 0.784900
-5.577600 0.806700
-5.563700 0.825200
-5.549800 0.845900
-5.535900 0.866900
-5.522000 0.888600
-5.508100 0.910700
-5.494200 0.933800
-5.480300 0.958000
-5.466400 0.983100
-5.452500 1.009000
-5.438600 1.034700
-5.424700 1.057900
-5.410800 1.078800
-5.396900 1.100400
-5.383000 1.122300
-5.369100 1.143000
-5.355200 1.164200
-5.341300 1.187100
-5.327400 1.210100
-5.313500 1.233500
-5.299500 1.257700
-5.285600 1.282500
-5.271700 1.307800
-5.257800 1.333400
-5.243900 1.359300
-5.230000 1.385400
-5.216100 1.411200
-5.202200 1.436300
-5.188300 1.461800
-5.174400 1.488700
-5.160500 1.517000
-5.146600 1.545600
-5.132700 1.575200
-5.118800 1.605300
-5.104900 1.635900
-5.091000 1.667100
-5.077100 1.698600
-5.063200 1.730600
-5.049300 1.763000
-5.035400 1.796200
-5.021500 1.830000
-5.007600 1.864400
-4.993700 1.900600
-4.979800 1.939400
-4.965900 1.979900
-4.952000 2.022700
-4.938100 2.066800
-4.924200 2.115200
-4.910300 2.168200
-4.896400 2.221100
-4.882500 2.277700
-4.868600 2.337200
-4.854700 2.398800
-4.840800 2.462600
-4.826900 2.527900
-4.813000 2.595900
-4.799100 2.674200
-4.785200 2.761400
-4.771300 2.854000
-4.757400 2.954700
-4.743400 3.084700
-4.729500 3.248100
-4.715600 3.445100
-4.701700 4.059800
-4.687800 3.913000
-4.673900 3.893400
-4.660000 3.897800
-4.646100 3.900700
-4.632200 3.847200
-4.618300 3.810300
-4.604400 3.784700
-4.590500 3.789500
-4.576600 3.812900
-4.562700 3.845200
-4.548800 3.889700
-4.534900 3.841600
-4.521000 3.822700
-4.507100 3.824200
-4.493200 3.805900
-4.479300 3.796300
-4.465400 3.789200
-4.451500 3.800200
-4.437600 3.840100
-4.423700 3.859700
-4.409800 3.871900
-4.395900 3.875800
-4.382000 4.140900
-4.368100 3.830400
-4.354200 3.771200
-4.340300 3.704400
-4.326400 3.818500
-4.312500 3.868900
-4.298600 3.872900
-4.284700 3.873100
-4.270800 4.009800
-4.256900 4.228100
-4.243000 4.297000
-4.229100 4.833500
-4.215200 5.055400
-4.201300 5.085000
-4.187300 4.951200
-4.173400 5.027800
-4.159500 7.525100
-4.145600 6.215200
-4.131700 1.048400
-4.117800 0.000000
-4.103900 0.000000
-4.090000 0.000000
-4.076100 0.000000
-4.062200 0.000000
-4.048300 0.000000
-4.034400 0.000000
-4.020500 0.000000
-4.006600 0.000000
-3.992700 0.000000
-3.978800 0.000000
-3.964900 0.000000
-3.951000 0.000000
-3.937100 0.000000
-3.923200 0.000000
-3.909300 0.000000
-3.895400 0.000000
-3.881500 0.000000
-3.867600 0.000000
-3.853700 0.000000
-3.839800 0.000000
-3.825900 0.000000
-3.812000 0.000000
-3.798100 0.000000
-3.784200 0.000000
-3.770300 0.000000
-3.756400 0.000000
-3.742500 0.000000
-3.728600 0.000000
-3.714700 0.000000
-3.700800 0.000000
-3.686900 0.000000
-3.673000 0.000000
-3.659100 0.000000
-3.645100 0.000000
-3.631200 0.000000
-3.617300 0.000000
-3.603400 0.000000
-3.589500 0.000000
-3.575600 0.000000
-3.561700 0.000000
-3.547800 0.000000
-3.533900 0.000000
-3.520000 0.000000
-3.506100 0.000000
-3.492200 0.000000
-3.478300 0.000000
-3.464400 0.000000
-3.450500 0.000000
-3.436600 0.000000
-3.422700 0.000000
-3.408800 0.000000
-3.394900 0.000000
-3.381000 0.000000
-3.367100 0.000000
-3.353200 0.000000
-3.339300 0.000000
-3.325400 0.000000
-3.311500 0.000000
-3.297600 0.000000
-3.283700 0.000000
-3.269800 0.000000
-3.255900 0.000000
-3.242000 0.000000
-3.228100 0.000000
-3.214200 0.000000
-3.200300 0.000000
-3.186400 0.000000
-3.172500 0.000000
-3.158600 0.000000
-3.144700 0.000000
-3.130800 0.000000
-3.116900 0.000000
-3.103000 0.000000
-3.089000 0.000000
-3.075100 0.000000
-3.061200 0.000000
-3.047300 0.000000
-3.033400 0.000000
-3.019500 0.000000
-3.005600 0.000000
-2.991700 0.000000
-2.977800 0.000000
-2.963900 0.000000
-2.950000 0.000000
-2.936100 0.000000
-2.922200 0.000000
-2.908300 0.000000
-2.894400 0.000000
-2.880500 0.000000
-2.866600 0.000000
-2.852700 0.000000
-2.838800 0.000000
-2.824900 0.000000
-2.811000 0.000000
-2.797100 0.000000
-2.783200 0.000000
-2.769300 0.000000
-2.755400 0.000000
-2.741500 0.000000
-2.727600 0.000000
-2.713700 0.000000
-2.699800 0.000000
-2.685900 0.000000
-2.672000 0.000000
-2.658100 0.000000
-2.644200 0.000000
-2.630300 0.000000
-2.616400 0.000000
-2.602500 0.000000
-2.588600 0.000000
-2.574700 0.000000
-2.560800 0.000000
-2.546800 0.000000
-2.532900 0.000000
-2.519000 0.000000
-2.505100 0.000000
-2.491200 0.000000
-2.477300 0.000000
-2.463400 0.000000
-2.449500 0.000000
-2.435600 0.000000
-2.421700 0.000000
-2.407800 0.000000
-2.393900 0.000000
-2.380000 0.000000
-2.366100 0.000000
-2.352200 0.000000
-2.338300 0.000000
-2.324400 0.000000
-2.310500 0.000000
-2.296600 0.000000
-2.282700 0.000000
-2.268800 0.000000
-2.254900 0.000000
-2.241000 0.000000
-2.227100 0.000000
-2.213200 0.000000
-2.199300 0.000000
-2.185400 0.000000
-2.171500 0.000000
-2.157600 0.000000
-2.143700 0.000000
-2.129800 0.000000
-2.115900 0.000000
-2.102000 0.000000
-2.088100 0.000000
-2.074200 0.000000
-2.060300 0.000000
-2.046400 0.000000
-2.032500 0.000000
-2.018600 0.000000
-2.004700 0.000000
-1.990700 0.000000
-1.976800 0.000000
-1.962900 0.000000
-1.949000 0.000000
-1.935100 0.000000
-1.921200 0.000000
-1.907300 0.000000
-1.893400 0.000000
-1.879500 0.000000
-1.865600 0.000000
-1.851700 0.000000
-1.837800 0.000000
-1.823900 0.000000
-1.810000 0.000000
-1.796100 0.000000
-1.782200 0.000000
-1.768300 0.000000
-1.754400 0.000000
-1.740500 0.000000
-1.726600 0.000000
-1.712700 0.000000
-1.698800 0.000000
-1.684900 0.000000
-1.671000 0.000000
-1.657100 0.000000
-1.643200 0.000000
-1.629300 0.000000
-1.615400 0.000000
-1.601500 0.000000
-1.587600 0.000000
-1.573700 0.000000
-1.559800 0.000000
-1.545900 0.000000
-1.532000 0.000000
-1.518100 0.000000
-1.504200 0.000000
-1.490300 0.000000
-1.476400 0.000000
-1.462500 0.000000
-1.448500 0.000000
-1.434600 0.000000
-1.420700 0.000000
-1.406800 0.000000
-1.392900 0.000000
-1.379000 0.000000
-1.365100 0.000000
-1.351200 0.000000
-1.337300 0.000000
-1.323400 0.000000
-1.309500 0.000000
-1.295600 0.000000
-1.281700 0.000000
-1.267800 0.000000
-1.253900 0.000000
-1.240000 0.000000
-1.226100 0.000000
-1.212200 0.000000
-1.198300 2.816000
-1.184400 2.586600
-1.170500 3.154400
-1.156600 3.698200
-1.142700 3.976500
-1.128800 4.774400
-1.114900 6.079600
-1.101000 6.842700
-1.087100 7.867900
-1.073200 5.554000
-1.059300 4.777100
-1.045400 4.348100
-1.031500 4.037200
-1.017600 3.733900
-1.003700 3.492300
-0.989800 3.321500
-0.975900 3.228900
-0.962000 3.096800
-0.948100 2.906400
-0.934200 2.890100
-0.920300 2.923600
-0.906400 2.965300
-0.892400 3.100900
-0.878500 3.408000
-0.864600 3.304600
-0.850700 3.208800
-0.836800 3.115200
-0.822900 3.017800
-0.809000 2.925800
-0.795100 2.840200
-0.781200 2.748700
-0.767300 2.658700
-0.753400 2.421800
-0.739500 2.420700
-0.725600 2.422100
-0.711700 2.352600
-0.697800 2.335200
-0.683900 2.318300
-0.670000 2.301700
-0.656100 2.285800
-0.642200 2.271400
-0.628300 2.260100
-0.614400 2.249600
-0.600500 2.233000
-0.586600 2.212800
-0.572700 2.215800
-0.558800 2.209500
-0.544900 2.189200
-0.531000 2.164100
-0.517100 2.126100
-0.503200 2.083700
-0.489300 2.061200
-0.475400 2.066600
-0.461500 2.095000
-0.447600 2.132400
-0.433700 2.114300
-0.419800 2.085500
-0.405900 2.022500
-0.392000 1.905600
-0.378100 1.768800
-0.364200 1.714400
-0.350200 1.662400
-0.336300 1.613500
-0.322400 1.567800
-0.308500 1.525300
-0.294600 1.485900
-0.280700 1.449900
-0.266800 1.414700
-0.252900 1.381700
-0.239000 1.350900
-0.225100 1.320300
-0.211200 1.296700
-0.197300 1.276400
-0.183400 1.256600
-0.169500 1.237100
-0.155600 1.217800
-0.141700 1.198900
-0.127800 1.180200
-0.113900 1.161700
-0.100000 1.143600
-0.086100 1.125800
-0.072200 1.108200
-0.058300 1.090800
-0.044400 1.073800
-0.030500 1.057200
-0.016600 1.040800
-0.002700 1.024400
0.011200 1.008300
0.025100 0.992400
0.039000 0.976700
0.052900 0.961300
0.066800 0.946200
0.080700 0.931300
0.094600 0.916100
0.108500 0.900200
0.122400 0.884500
0.136300 0.869200
0.150200 0.854300
0.164100 0.839300
0.178000 0.826400
0.191900 0.815200
0.205900 0.804700
0.219800 0.794700
0.233700 0.785400
0.247600 0.776500
0.261500 0.767600
0.275400 0.758800
0.289300 0.750000
0.303200 0.741400
0.317100 0.732700
0.331000 0.724100
0.344900 0.715600
0.358800 0.707200
0.372700 0.698700
0.386600 0.690400
0.400500 0.682000
0.414400 0.673500
0.428300 0.665200
0.442200 0.656800
0.456100 0.648600
0.470000 0.640300
0.483900 0.632100
0.497800 0.623300
0.511700 0.614800
0.525600 0.606600
0.539500 0.598600
0.553400 0.591000
0.567300 0.583600
0.581200 0.576600
0.595100 0.569700
0.609000 0.562900
0.622900 0.556100
0.636800 0.549300
0.650700 0.542100
0.664600 0.535100
0.678500 0.528100
0.692400 0.521200
0.706300 0.514400
0.720200 0.507700
0.734100 0.501400
0.748100 0.495800
0.762000 0.490200
0.775900 0.484700
0.789800 0.479100
0.803700 0.473600
0.817600 0.468100
0.831500 0.462200
0.845400 0.456600
0.859300 0.451200
0.873200 0.445900
0.887100 0.440700
0.901000 0.435400
0.914900 0.430200
0.928800 0.425000
0.942700 0.419800
0.956600 0.414700
0.970500 0.409500
0.984400 0.404300
0.998300 0.399200
1.012200 0.394900
1.026100 0.390600
1.040000 0.386400
1.053900 0.382200
1.067800 0.378000
1.081700 0.373800
1.095600 0.369600
1.109500 0.365500
1.123400 0.361300
1.137300 0.357200
1.151200 0.353000
1.165100 0.348700
1.179000 0.462300
1.192900 0.530200
1.206800 0.549300
1.220700 0.582100
1.234600 0.616200
1.248500 0.651500
1.262400 0.688200
1.276300 0.723500
1.290200 0.755200
1.304200 0.783700
1.318100 0.799600
1.332000 0.921800
1.345900 1.152100
1.359800 1.418800
1.373700 1.716300
1.387600 2.035900
1.401500 2.538100
1.415400 2.737300
1.429300 2.868400
1.443200 2.929700
1.457100 2.924000
1.471000 2.886200
1.484900 2.874200
1.498800 2.676200
1.512700 2.539800
1.526600 2.378800
1.540500 2.324800
1.554400 2.274300
1.568300 2.224800
1.582200 2.153900
1.596100 2.105800
1.610000 2.078900
1.623900 2.067100
1.637800 2.052500
1.651700 2.037600
1.665600 2.027400
1.679500 2.010000
1.693400 1.995500
1.707300 1.995500
1.721200 2.014300
1.735100 2.026700
1.749000 2.040400
1.762900 2.060400
1.776800 2.086700
1.790700 2.119500
1.804600 2.154600
1.818500 2.170100
1.832400 2.180200
1.846400 2.199800
1.860300 2.227300
1.874200 2.258500
1.888100 2.312900
1.902000 2.381700
1.915900 2.451700
1.929800 2.522800
1.943700 2.594900
1.957600 2.668100
1.971500 2.738700
1.985400 2.805300
1.999300 2.823500
2.013200 2.806800
2.027100 2.793700
2.041000 2.820500
2.054900 2.840800
2.068800 2.881800
2.082700 2.924700
2.096600 2.959600
2.110500 2.995500
2.124400 3.033900
2.138300 3.071600
2.152200 3.117600
2.166100 3.106700
2.180000 3.086600
2.193900 3.053000
2.207800 3.013700
2.221700 2.960500
2.235600 2.894400
2.249500 2.833800
2.263400 2.773500
2.277300 2.755900
2.291200 2.791300
2.305100 2.836700
2.319000 3.143000
2.332900 3.159000
2.346800 3.262500
2.360700 3.379000
2.374600 3.477100
2.388500 3.533400
2.402500 3.650800
2.416400 3.691600
2.430300 3.649300
2.444200 3.640800
2.458100 3.613200
2.472000 3.608100
2.485900 3.598700
2.499800 3.589400
2.513700 3.760400
2.527600 3.761000
2.541500 3.864000
2.555400 3.889700
2.569300 3.937900
2.583200 4.008600
2.597100 4.136300
2.611000 4.270200
2.624900 4.293400
2.638800 4.261000
2.652700 4.196400
2.666600 4.044300
2.680500 3.902100
2.694400 3.783100
2.708300 3.817600
2.722200 3.811500
2.736100 3.833600
2.750000 3.853700
2.763900 3.869500
2.777800 3.881900
2.791700 3.881100
2.805600 3.884700
2.819500 3.975000
2.833400 4.071100
2.847300 4.183800
2.861200 4.331200
2.875100 4.514800
2.889000 4.951500
2.902900 4.905500
2.916800 4.849100
2.930700 4.866400
2.944700 4.933000
2.958600 5.013700
2.972500 5.076300
2.986400 5.149300
3.000300 5.245900
3.014200 5.505200
3.028100 5.612400
3.042000 5.594500
3.055900 5.520200
3.069800 5.363000
3.083700 5.214000
3.097600 5.268500
3.111500 5.298600
3.125400 5.078900
3.139300 4.818400
3.153200 4.603300
3.167100 4.449400
3.181000 4.305700
3.194900 4.219700
3.208800 4.270200
3.222700 4.118700
3.236600 3.953900
3.250500 3.825600
3.264400 3.721100
3.278300 3.644700
3.292200 3.579300
3.306100 3.525900
3.320000 3.463200
3.333900 3.397300
3.347800 3.330400
3.361700 3.262000
3.375600 3.192200
3.389500 3.119300
3.403400 3.036800
3.417300 2.962300
3.431200 2.892800
3.445100 2.817600
3.459000 2.744500
3.472900 2.672600
3.486800 2.584500
3.500800 2.496300
3.514700 2.410700
3.528600 2.331300
3.542500 2.254000
3.556400 2.178800
3.570300 2.107100
3.584200 2.042200
3.598100 1.989600
3.612000 1.941000
3.625900 1.889700
3.639800 1.835200
3.653700 1.766700
3.667600 1.711900
3.681500 1.660900
3.695400 1.613600
3.709300 1.571100
3.723200 1.536800
3.737100 1.507000
3.751000 1.476400
3.764900 1.444800
3.778800 1.412600
3.792700 1.386500
3.806600 1.363000
3.820500 1.333100
3.834400 1.294100
3.848300 1.255800
3.862200 1.217800
3.876100 1.180900
3.890000 1.145300
3.903900 1.114600
3.917800 1.084200
3.931700 1.054000
3.945600 1.024100
3.959500 0.990700
3.973400 0.962800
3.987300 0.936200
4.001200 0.910400
4.015100 0.886300
4.029000 0.860600
4.042900 0.833600
4.056900 0.804800
4.070800 0.774500
4.084700 0.744500
4.098600 0.715300
4.112500 0.686500
4.126400 0.657600
4.140300 0.628800
4.154200 0.600000
4.168100 0.571700
4.182000 0.548500
4.195900 0.533300
4.209800 0.515600
4.223700 0.495700
4.237600 0.467000
4.251500 0.428800
4.265400 0.389400
4.279300 0.347300
4.293200 0.307200
4.307100 0.268900
4.321000 0.232500
4.334900 0.209900
4.348800 0.195100
4.362700 0.176200
4.376600 0.153100
4.390500 0.097600
4.404400 0.048200
4.418300 0.016000
4.432200 0.001100
4.446100 0.000000
4.460000 0.000100
4.473900 0.000200
4.487800 0.000300
4.501700 0.000600
4.515600 0.000800
4.529500 0.001200
4.543400 0.001500
4.557300 0.002000
4.571200 0.002400
4.585100 0.003000
4.599100 0.003600
4.613000 0.004200
4.626900 0.004900
4.640800 0.005600
4.654700 0.006400
4.668600 0.007300
4.682500 0.008200
4.696400 0.009200
4.710300 0.010300
4.724200 0.011700
4.738100 0.013300
4.752000 0.015200
4.765900 0.017400
4.779800 0.019900
4.793700 0.022700
4.807600 0.025700
4.821500 0.029100
4.835400 0.032800
4.849300 0.036700
4.863200 0.040800
4.877100 0.045100
4.891000 0.049700
4.904900 0.054500
4.918800 0.059600
4.932700 0.064900
4.946600 0.070500
4.960500 0.076200
4.974400 0.082000
4.988300 0.088100
5.002200 0.094400
5.016100 0.100900
5.030000 0.107500
5.043900 0.114300
5.057800 0.121300
5.071700 0.128500
5.085600 0.135900
5.099500 0.143500
5.113400 0.151100
5.127300 0.158000
5.141200 0.165100
5.155200 0.172100
5.169100 0.179100
5.183000 0.186000
5.196900 0.201000
5.210800 0.232700
5.224700 0.276300
5.238600 0.325100
5.252500 0.379000
5.266400 0.438500
5.280300 0.503300
5.294200 0.573700
5.308100 0.649700
5.322000 0.742900
5.335900 0.873800
5.349800 0.939500
5.363700 1.006900
5.377600 1.076200
5.391500 1.145800
5.405400 1.214900
5.419300 1.284200
5.433200 1.353900
5.447100 1.424100
5.461000 1.495800
5.474900 1.571400
5.488800 1.650900
5.502700 1.734200
5.516600 1.821100
5.530500 1.911400
5.544400 2.006200
5.558300 2.155100
5.572200 2.277500
5.586100 2.387200
5.600000 2.534700
5.613900 2.706400
5.627800 2.804900
5.641700 2.890000
5.655600 2.970000
5.669500 3.026200
5.683400 3.071400
5.697400 3.106200
5.711300 3.144800
5.725200 3.190500
5.739100 3.237400
5.753000 3.286200
5.766900 3.334000
5.780800 3.380500
5.794700 3.425700
5.808600 3.463300
5.822500 3.495600
5.836400 3.539700
5.850300 3.671600
5.864200 3.712500
5.878100 3.792700
5.892000 3.879300
5.905900 3.967100
5.919800 4.019700
5.933700 4.065800
5.947600 4.146000
5.961500 4.130800
5.975400 4.039100
5.989300 3.989700
6.003200 3.950400
6.017100 3.908500
6.031000 3.855600
6.044900 3.793500
6.058800 3.744300
6.072700 3.699400
6.086600 3.656000
6.100500 3.626600
6.114400 3.593200
6.128300 3.551100
6.142200 3.497300
6.156100 3.424600
6.170000 3.330800
6.183900 3.218800
6.197800 3.124200
6.211700 3.019900
6.225600 2.912200
6.239500 2.806400
6.253500 2.698900
6.267400 2.595900
6.281300 2.491300
6.295200 2.387400
6.309100 2.285600
6.323000 2.190200
6.336900 2.116100
6.350800 2.066500
6.364700 2.019900
6.378600 1.973600
6.392500 1.928700
6.406400 1.885400
6.420300 1.843800
6.434200 1.804600
6.448100 1.767100
6.462000 1.731000
6.475900 1.697200
6.489800 1.662300
6.503700 1.629100
6.517600 1.598500
6.531500 1.570500
6.545400 1.544700
6.559300 1.521300
6.573200 1.499800
6.587100 1.479000
6.601000 1.448300
6.614900 1.428200
6.628800 1.399200
6.642700 1.402700
6.656600 1.412200
6.670500 1.417200
6.684400 1.411500
6.698300 1.396400
6.712200 1.386000
6.726100 1.393700
6.740000 1.413000
6.753900 1.433500
6.767800 1.450000
6.781700 1.412700
6.795700 1.256600
6.809600 1.085600
6.823500 0.920300
6.837400 0.823000
6.851300 0.749800
6.865200 0.693400
6.879100 0.643800
6.893000 0.601000
6.906900 0.569200
6.920800 0.592000
6.934700 0.614800
6.948600 0.627500
6.962500 0.649900
6.976400 0.683500
6.990300 0.813600
7.004200 0.915000
7.018100 1.027300
7.032000 1.311800
7.045900 1.947800
7.059800 1.159200
7.073700 0.928500
7.087600 0.993000
7.101500 1.029400
7.115400 1.059200
7.129300 1.127500
7.143200 1.249800
7.157100 1.500200
7.171000 1.860400
7.184900 2.280500
7.198800 2.501300
7.212700 2.648700
7.226600 2.763800
7.240500 2.813700
7.254400 2.893700
7.268300 3.091800
7.282200 3.325000
7.296100 3.591300
7.310000 3.766100
7.323900 3.970500
7.337800 4.288700
7.351800 4.448400
7.365700 4.271900
7.379600 4.257700
7.393500 4.263500
7.407400 4.335100
7.421300 4.398600
7.435200 4.463600
7.449100 4.533100
7.463000 4.604700
7.476900 4.687400
7.490800 4.802800
7.504700 4.841600
7.518600 4.939800
7.532500 5.023100
7.546400 5.020100
7.560300 5.040500
7.574200 5.078400
7.588100 5.107100
7.602000 5.136500
7.615900 5.133500
7.629800 5.023600
7.643700 4.862700
7.657600 4.619200
7.671500 4.075800
7.685400 3.151200
7.699300 2.874900
7.713200 2.654500
7.727100 2.542800
7.741000 2.646100
7.754900 2.751800
7.768800 2.828500
7.782700 2.890100
7.796600 3.009400
7.810500 3.263100
7.824400 3.517800
7.838300 3.740300
7.852200 3.835100
7.866100 3.890300
7.880000 3.968400
7.894000 3.944100
7.907900 3.810300
7.921800 3.721000
7.935700 3.695500
7.949600 3.712800
7.963500 3.751900
7.977400 3.825900
7.991300 3.932700
8.005200 4.034300
8.019100 4.073300
8.033000 4.030200
8.046900 4.260200
8.060800 4.046900
8.074700 3.808300
8.088600 3.654400
8.102500 3.521600
8.116400 3.413000
8.130300 3.327600
8.144200 3.266500
8.158100 3.275600
8.172000 3.355200
8.185900 3.241000
8.199800 3.168200
8.213700 3.183300
8.227600 3.198000
8.241500 3.135900
8.255400 3.014400
8.269300 2.953000
8.283200 2.866600
8.297100 2.794200
8.311000 2.812400
8.324900 2.848900
8.338800 2.889100
8.352700 2.924600
8.366600 2.956500
8.380500 3.030700
8.394400 3.141100
8.408300 3.296400
8.422200 3.446000
8.436100 3.596600
8.450100 3.717500
8.464000 3.871600
8.477900 4.016000
8.491800 4.092900
8.505700 4.149500
8.519600 4.141300
8.533500 4.107800
8.547400 4.056900
8.561300 4.004500
8.575200 3.957800
8.589100 3.917000
8.603000 3.869900
8.616900 3.821400
8.630800 3.743700
8.644700 3.633300
8.658600 3.534900
8.672500 3.482900
8.686400 3.496500
8.700300 3.558100
8.714200 3.684000
8.728100 3.652300
8.742000 3.598600
8.755900 3.610400
8.769800 3.629800
8.783700 3.573400
8.797600 3.462000
8.811500 3.333600
8.825400 3.146600
8.839300 3.003400
8.853200 2.888000
8.867100 2.700400
8.881000 2.615400
8.894900 2.511500
8.908800 2.485900
8.922700 2.465800
8.936600 2.480400
8.950500 2.435100
8.964400 2.438300
8.978300 2.443400
8.992300 2.473900
9.006200 2.463000
9.020100 2.452900
9.034000 2.443600
9.047900 2.434500
9.061800 2.424500
9.075700 2.413700
9.089600 2.401700
9.103500 2.390200
9.117400 2.380800
9.131300 2.390200
9.145200 2.414500
9.159100 2.454900
9.173000 2.463200
9.186900 2.475900
9.200800 2.487900
9.214700 2.549500
9.228600 2.572800
9.242500 2.737400
9.256400 2.549800
9.270300 2.613700
9.284200 2.677100
9.298100 2.776100
9.312000 3.057800
9.325900 3.196400
9.339800 3.307800
9.353700 3.343700
9.367600 3.326800
9.381500 3.306200
9.395400 3.290900
9.409300 3.252700
9.423200 3.189800
9.437100 3.110000
9.451000 3.025200
9.464900 2.944000
9.478800 2.843100
9.492700 2.747600
9.506600 2.659800
9.520500 2.585700
9.534400 2.546500
9.548400 2.518600
9.562300 2.494700
9.576200 2.475300
9.590100 2.461300
9.604000 2.451500
9.617900 2.444700
9.631800 2.439800
9.645700 2.446000
9.659600 2.492500
9.673500 2.628600
9.687400 2.823700
9.701300 2.887300
9.715200 2.831300
9.729100 2.849900
9.743000 2.831500
9.756900 2.800900
9.770800 2.752900
9.784700 2.697800
9.798600 2.668200
9.812500 2.694300
9.826400 2.669700
9.840300 2.652000
9.854200 2.627800
9.868100 2.588200
9.882000 2.579200
9.895900 2.569100
9.909800 2.562400
9.923700 2.556300
9.937600 2.521900
9.951500 2.539500
9.965400 2.542600
9.979300 2.561600
9.993200 2.650600
10.007100 2.680500
10.021000 2.722800
10.034900 2.769900
10.048800 2.787000
10.062700 2.830000
10.076600 2.858400
10.090600 2.874200
10.104500 2.829500
10.118400 2.672900
10.132300 2.587900
10.146200 2.529800
10.160100 2.512600
10.174000 2.522000
10.187900 2.557200
10.201800 2.607000
10.215700 2.681400
10.229600 2.744300
10.243500 2.774700
10.257400 3.164500
10.271300 3.276300
10.285200 2.956600
10.299100 2.954100
10.313000 2.984000
10.326900 3.019400
10.340800 3.056200
10.354700 3.112500
10.368600 3.285100
10.382500 3.536500
10.396400 3.595500
10.410300 3.691000
10.424200 3.770700
10.438100 3.817600
10.452000 3.720700
10.465900 3.817700
10.479800 4.115400
10.493700 4.410300
10.507600 4.620100
10.521500 4.464800
10.535400 3.781200
10.549300 3.439600
10.563200 3.239500
10.577100 3.277500
10.591000 3.278600
10.604900 3.281500
10.618800 3.296800
10.632700 3.250200
10.646700 3.165500
10.660600 3.091500
10.674500 2.970600
10.688400 2.804200
10.702300 2.693400
10.716200 2.610200
10.730100 2.538500
10.744000 2.475600
10.757900 2.420500
10.771800 2.370300
10.785700 2.332000
10.799600 2.300300
10.813500 2.299300
10.827400 2.317600
10.841300 2.337600
10.855200 2.356800
10.869100 2.376800
10.883000 2.404400
10.896900 2.469800
10.910800 2.584800
10.924700 2.737500
10.938600 2.925600
10.952500 3.252000
10.966400 3.404700
10.980300 3.392500
10.994200 3.114600
11.008100 3.052700
11.022000 3.041200
11.035900 2.950400
11.049800 2.889600
11.063700 2.813200
11.077600 2.812800
11.091500 2.847300
11.105400 2.903800
11.119300 2.982400
11.133200 3.079900
11.147100 3.166700
11.161000 3.249000
11.174900 3.472000
11.188900 3.568100
11.202800 3.663800
11.216700 3.730900
11.230600 3.813100
11.244500 3.877700
11.258400 3.916900
11.272300 3.902700
11.286200 3.903800
11.300100 3.893700
11.314000 3.870000
11.327900 3.836900
11.341800 3.847100
11.355700 3.903500
11.369600 3.981400
11.383500 4.191100
11.397400 4.294200
11.411300 4.379600
11.425200 4.442200
11.439100 4.467600
11.453000 4.439600
11.466900 4.343200
11.480800 4.261700
11.494700 4.155000
11.508600 4.001200
11.522500 3.939200
11.536400 3.840000
11.550300 3.425500
11.564200 3.237300
11.578100 3.127800
11.592000 3.047200
11.605900 2.986800
11.619800 3.002000
11.633700 3.058100
11.647600 2.925500
11.661500 2.768100
11.675400 2.779800
11.689300 2.821100
11.703200 2.885400
11.717100 2.915800
11.731000 2.921300
11.745000 2.931800
11.758900 2.946500
11.772800 3.028400
11.786700 3.137000
11.800600 3.179900
11.814500 3.193400
11.828400 3.186900
11.842300 3.185200
11.856200 3.189100
11.870100 3.210100
11.884000 3.253600
11.897900 3.325900
11.911800 3.527300
11.925700 3.784000
11.939600 3.864600
11.953500 3.644600
11.967400 3.584800
11.981300 3.565200
11.995200 3.551500
12.009100 3.536600
12.023000 3.538500
12.036900 3.604000
12.050800 3.838000
12.064700 4.040500
12.078600 4.223000
12.092500 4.391700
12.106400 4.538600
12.120300 4.621800
12.134200 4.671700
12.148100 4.621200
12.162000 4.424300
12.175900 4.306900
12.189800 4.183500
12.203700 4.088700
12.217600 4.034000
12.231500 3.999900
12.245400 3.980700
12.259300 3.969800
12.273200 3.949900
12.287100 3.954300
12.301100 3.935100
12.315000 3.858900
12.328900 3.823300
12.342800 3.804900
12.356700 3.795900
12.370600 3.776500
12.384500 3.747300
12.398400 3.771500
12.412300 3.758000
12.426200 3.733500
12.440100 3.722400
12.454000 3.707400
12.467900 3.674200
12.481800 3.621400
12.495700 3.564700
12.509600 3.491600
12.523500 3.390000
12.537400 3.279300
12.551300 3.159100
12.565200 3.075100
12.579100 3.005900
12.593000 2.958400
12.606900 2.907400
12.620800 2.874900
12.634700 2.926600
12.648600 3.089300
12.662500 3.159400
12.676400 3.122300
12.690300 3.093800
12.704200 3.151100
12.718100 3.219800
12.732000 3.272300
12.745900 3.316100
12.759800 3.360700
12.773700 3.421700
12.787600 3.436700
12.801500 3.434800
12.815400 3.436600
12.829300 3.418400
12.843300 3.396600
12.857200 3.379500
12.871100 3.353800
12.885000 3.335800
12.898900 3.302400
12.912800 3.257700
12.926700 3.221700
12.940600 3.205000
12.954500 3.192000
12.968400 3.202900
12.982300 3.198900
12.996200 3.179500
13.010100 3.160400
13.024000 3.136400
13.037900 3.099200
13.051800 3.074700
13.065700 3.060900
13.079600 3.066000
13.093500 3.080100
13.107400 3.096400
13.121300 3.059300
13.135200 3.066100
13.149100 3.049600
13.163000 3.037800
13.176900 3.030600
13.190800 3.095800
13.204700 3.250100
13.218600 3.122200
13.232500 2.983100
13.246400 2.940600
13.260300 2.922800
13.274200 2.895700
13.288100 2.867900
13.302000 2.850800
13.315900 2.783300
13.329800 2.838600
13.343700 2.917100
13.357600 3.010800
13.371500 3.139700
13.385400 3.320500
13.399400 3.510200
13.413300 3.698600
13.427200 3.883600
13.441100 4.089000
13.455000 4.321200
13.468900 4.590700
13.482800 5.204100
13.496700 5.232200
13.510600 5.387200
13.524500 5.414100
13.538400 5.413000
13.552300 5.324100
13.566200 5.083900
13.580100 4.823200
13.594000 4.578200
13.607900 4.334800
13.621800 4.088500
13.635700 3.798500
13.649600 3.375800
13.663500 2.988400
13.677400 2.823300
13.691300 2.694900
13.705200 2.599200
13.719100 2.544500
13.733000 2.432000
13.746900 2.254400
13.760800 2.197900
13.774700 2.176100
13.788600 2.165500
13.802500 2.165300
13.816400 2.183800
13.830300 2.214200
13.844200 2.297100
13.858100 2.329500
13.872000 2.326200
13.885900 2.329500
13.899800 2.444600
13.913700 2.435800
13.927600 2.423700
13.941600 2.481300
13.955500 2.562300
13.969400 2.655800
13.983300 2.759200
13.997200 3.096400
14.011100 3.357900
14.025000 3.560700
14.038900 3.740800
14.052800 3.894200
14.066700 3.937000
14.080600 3.970900
14.094500 4.042300
14.108400 4.036400
14.122300 3.851400
14.136200 3.717000
14.150100 3.630100
14.164000 3.529500
14.177900 3.401700
14.191800 3.245500
14.205700 3.068600
14.219600 2.875000
14.233500 2.597100
14.247400 2.206600
14.261300 1.997200
14.275200 1.840100
14.289100 1.724800
14.303000 1.623500
14.316900 1.529000
14.330800 1.437100
14.344700 1.356700
14.358600 1.281900
14.372500 1.210300
14.386400 1.141800
14.400300 1.076500
14.414200 1.012300
14.428100 0.938900
14.442000 0.854900
14.455900 0.780500
14.469800 0.722500
14.483700 0.681200
14.497700 0.656700
14.511600 0.640600
14.525500 0.625200
14.539400 0.610900
14.553300 0.601100
14.567200 0.588100
14.581100 0.565800
14.595000 0.544600
14.608900 0.527600
14.622800 0.513900
14.636700 0.500400
14.650600 0.487000
14.664500 0.474200
14.678400 0.461800
14.692300 0.449800
14.706200 0.438100
14.720100 0.426800
14.734000 0.433600
14.747900 0.407100
14.761800 0.381300
14.775700 0.356000
14.789600 0.331300
14.803500 0.307100
14.817400 0.283600
14.831300 0.260600
14.845200 0.214000
14.859100 0.203900
14.873000 0.194100
14.886900 0.184400
14.900800 0.175400
14.914700 0.165900
14.928600 0.155900
14.942500 0.146100
14.956400 0.136900
14.970300 0.128400
14.984200 0.120700
14.998100 0.113700
15.012000 0.107300
15.025900 0.135400
15.039900 0.114600
15.053800 0.093500
15.067700 0.072200
15.081600 0.050500
15.095500 0.000000
15.109400 0.000000
15.123300 0.000000
15.137200 0.000000
15.151100 0.000000
15.165000 0.000000
15.178900 0.000000
15.192800 0.000000
15.206700 0.000000
15.220600 0.000000
15.234500 0.000000
15.248400 0.000000
15.262300 0.000000
15.276200 0.000000
15.290100 0.000000
15.304000 0.000000
15.317900 0.000000
15.331800 0.000000
15.345700 0.000000
15.359600 0.000000
15.373500 0.000000
15.387400 0.000000
15.401300 0.000000
15.415200 0.000000
15.429100 0.000000
15.443000 0.000000
15.456900 0.000000
15.470800 0.000000
15.484700 0.000000
15.498600 0.000000
15.512500 0.000000
15.526400 0.000000
15.540300 0.000000
15.554200 0.000000
15.568100 0.000000
15.582000 0.000000
15.596000 0.000000
15.609900 0.000000
15.623800 0.000000
15.637700 0.000000
15.651600 0.000000
15.665500 0.000000
15.679400 0.000000
15.693300 0.000000
15.707200 0.000000
15.721100 0.000000
15.735000 0.000000
15.748900 0.000000
15.762800 0.000000
15.776700 0.000000
15.790600 0.000000
15.804500 0.000000
15.818400 0.000000
15.832300 0.000000
15.846200 0.000000
15.860100 0.000000
15.874000 0.000000
15.887900 0.000000
15.901800 0.000000
15.915700 0.000000
15.929600 0.000000
15.943500 0.000000
15.957400 0.000000
15.971300 0.000000
15.985200 0.000000
15.999100 0.000000
16.013000 0.000000
16.026900 0.000000
16.040800 0.000000
16.054700 0.000000
16.068600 0.000000
16.082500 0.000000
16.096400 0.000000
16.110300 0.000000
16.124200 0.000000
16.138200 0.000000
16.152100 0.000000
16.166000 0.000000
16.179900 0.000000
16.193800 0.000000
16.207700 0.000000
16.221600 0.000000
16.235500 0.000000
16.249400 0.000000
16.263300 0.000000
16.277200 0.000000
16.291100 0.000000
16.305000 0.000000
16.318900 0.000000
16.332800 0.000000
16.346700 0.000000
e
