set title 'mp-2723 - Density of States'
set xlabel 'Energy (eV)'
set ylabel 'DOS (states/eV)'
set grid
set xrange [-10:10]
set yrange [0:10.717]
set xzeroaxis lt -1
set terminal png size 800,600
set output 'mp-2723_dos_gnuplot.png'
plot '-' using 1:2 with lines title 'DOS'
-17.096300 0.000000
-17.074700 0.000000
-17.053200 0.000000
-17.031600 0.000000
-17.010000 0.000000
-16.988500 0.000000
-16.966900 0.000000
-16.945400 0.000000
-16.923800 0.000000
-16.902300 0.000000
-16.880700 0.000000
-16.859100 0.000000
-16.837600 0.000000
-16.816000 0.000000
-16.794500 0.000000
-16.772900 0.000000
-16.751300 0.000000
-16.729800 0.000000
-16.708200 0.000000
-16.686700 0.000000
-16.665100 0.000000
-16.643600 0.000000
-16.622000 0.000000
-16.600400 0.000000
-16.578900 0.000000
-16.557300 0.000000
-16.535800 0.000000
-16.514200 0.000000
-16.492700 0.000000
-16.471100 0.000000
-16.449500 0.000000
-16.428000 0.000000
-16.406400 0.000000
-16.384900 0.000000
-16.363300 0.000000
-16.341800 0.000000
-16.320200 0.000000
-16.298600 0.000000
-16.277100 0.000000
-16.255500 0.000000
-16.234000 0.000000
-16.212400 0.000000
-16.190900 0.000000
-16.169300 0.000000
-16.147700 0.000000
-16.126200 0.000000
-16.104600 0.000000
-16.083100 0.000000
-16.061500 0.000000
-16.039900 0.000000
-16.018400 0.000000
-15.996800 0.000000
-15.975300 0.000000
-15.953700 0.000000
-15.932200 0.000000
-15.910600 0.000000
-15.889000 0.000000
-15.867500 0.000000
-15.845900 0.000000
-15.824400 0.000000
-15.802800 0.000000
-15.781300 0.000000
-15.759700 0.000000
-15.738100 0.000000
-15.716600 0.000000
-15.695000 0.000000
-15.673500 0.000000
-15.651900 0.000000
-15.630400 0.000000
-15.608800 0.000000
-15.587200 0.000000
-15.565700 0.000000
-15.544100 0.000000
-15.522600 0.000000
-15.501000 0.000000
-15.479500 0.000000
-15.457900 0.000000
-15.436300 0.000000
-15.414800 0.000000
-15.393200 0.000000
-15.371700 0.000000
-15.350100 0.000000
-15.328500 0.000000
-15.307000 0.000000
-15.285400 0.000000
-15.263900 0.000000
-15.242300 0.000000
-15.220800 0.000000
-15.199200 0.000000
-15.177600 0.000000
-15.156100 0.000000
-15.134500 0.000400
-15.113000 0.057400
-15.091400 0.111200
-15.069900 0.129300
-15.048300 0.168800
-15.026700 0.194800
-15.005200 0.209400
-14.983600 0.231400
-14.962100 0.253800
-14.940500 0.280000
-14.919000 0.301800
-14.897400 0.318800
-14.875800 0.337200
-14.854300 0.359000
-14.832700 0.381000
-14.811200 0.405300
-14.789600 0.430900
-14.768100 0.454300
-14.746500 0.476900
-14.724900 0.499000
-14.703400 0.526400
-14.681800 0.557100
-14.660300 0.587300
-14.638700 0.620400
-14.617100 0.658200
-14.595600 0.696200
-14.574000 0.732600
-14.552500 0.787300
-14.530900 0.835100
-14.509400 0.902400
-14.487800 0.986500
-14.466200 1.451400
-14.444700 1.419300
-14.423100 1.215100
-14.401600 1.192600
-14.380000 1.180200
-14.358500 1.173900
-14.336900 1.210400
-14.315300 1.249100
-14.293800 1.292100
-14.272200 1.374500
-14.250700 1.420000
-14.229100 1.410800
-14.207600 1.432100
-14.186000 1.442000
-14.164400 1.482700
-14.142900 1.523900
-14.121300 1.568900
-14.099800 1.627000
-14.078200 1.685500
-14.056700 1.776600
-14.035100 1.886700
-14.013500 2.044400
-13.992000 2.289000
-13.970400 3.461700
-13.948900 2.911300
-13.927300 3.125800
-13.905700 5.127900
-13.884200 2.959200
-13.862600 2.927800
-13.841100 5.136800
-13.819500 3.179100
-13.798000 3.276900
-13.776400 3.937400
-13.754800 3.903900
-13.733300 2.494500
-13.711700 2.125800
-13.690200 3.116600
-13.668600 0.167900
-13.647100 0.000000
-13.625500 0.000000
-13.603900 0.155700
-13.582400 1.419800
-13.560800 2.290600
-13.539300 3.738700
-13.517700 6.087900
-13.496200 6.058300
-13.474600 8.274800
-13.453000 8.428900
-13.431500 8.633400
-13.409900 6.647100
-13.388400 4.874000
-13.366800 3.939100
-13.345300 3.261500
-13.323700 3.023300
-13.302100 2.858400
-13.280600 2.668100
-13.259000 2.512900
-13.237500 2.379300
-13.215900 2.275300
-13.194300 2.174200
-13.172800 2.059800
-13.151200 1.940300
-13.129700 2.024600
-13.108100 1.438400
-13.086600 1.159900
-13.065000 0.894900
-13.043400 0.674700
-13.021900 0.449900
-13.000300 0.112600
-12.978800 0.000000
-12.957200 0.000000
-12.935700 0.000000
-12.914100 0.000000
-12.892500 0.000000
-12.871000 0.000000
-12.849400 0.000000
-12.827900 0.000000
-12.806300 0.000000
-12.784800 0.000000
-12.763200 0.000000
-12.741600 0.000000
-12.720100 0.000000
-12.698500 0.000000
-12.677000 0.000000
-12.655400 0.000000
-12.633900 0.000000
-12.612300 0.000000
-12.590700 0.000000
-12.569200 0.000000
-12.547600 0.000000
-12.526100 0.000000
-12.504500 0.000000
-12.482900 0.000000
-12.461400 0.000000
-12.439800 0.000000
-12.418300 0.000000
-12.396700 0.000000
-12.375200 0.000000
-12.353600 0.000000
-12.332000 0.000000
-12.310500 0.000000
-12.288900 0.000000
-12.267400 0.000000
-12.245800 0.000000
-12.224300 0.000000
-12.202700 0.000000
-12.181100 0.000000
-12.159600 0.000000
-12.138000 0.000000
-12.116500 0.000000
-12.094900 0.000000
-12.073400 0.000000
-12.051800 0.000000
-12.030200 0.000000
-12.008700 0.000000
-11.987100 0.000000
-11.965600 0.000000
-11.944000 0.000000
-11.922500 0.000000
-11.900900 0.000000
-11.879300 0.000000
-11.857800 0.000000
-11.836200 0.000000
-11.814700 0.000000
-11.793100 0.000000
-11.771500 0.000000
-11.750000 0.000000
-11.728400 0.000000
-11.706900 0.000000
-11.685300 0.000000
-11.663800 0.000000
-11.642200 0.000000
-11.620600 0.000000
-11.599100 0.000000
-11.577500 0.000000
-11.556000 0.000000
-11.534400 0.000000
-11.512900 0.000000
-11.491300 0.000000
-11.469700 0.000000
-11.448200 0.000000
-11.426600 0.000000
-11.405100 0.000000
-11.383500 0.000000
-11.362000 0.000000
-11.340400 0.000000
-11.318800 0.000000
-11.297300 0.000000
-11.275700 0.000000
-11.254200 0.000000
-11.232600 0.000000
-11.211100 0.000000
-11.189500 0.000000
-11.167900 0.000000
-11.146400 0.000000
-11.124800 0.000000
-11.103300 0.000000
-11.081700 0.000000
-11.060100 0.000000
-11.038600 0.000000
-11.017000 0.000000
-10.995500 0.000000
-10.973900 0.000000
-10.952400 0.000000
-10.930800 0.000000
-10.909200 0.000000
-10.887700 0.000000
-10.866100 0.000000
-10.844600 0.000000
-10.823000 0.000000
-10.801500 0.000000
-10.779900 0.000000
-10.758300 0.000000
-10.736800 0.000000
-10.715200 0.000000
-10.693700 0.000000
-10.672100 0.000000
-10.650600 0.000000
-10.629000 0.000000
-10.607400 0.000000
-10.585900 0.000000
-10.564300 0.000000
-10.542800 0.000000
-10.521200 0.000000
-10.499700 0.000000
-10.478100 0.000000
-10.456500 0.000000
-10.435000 0.000000
-10.413400 0.000000
-10.391900 0.000000
-10.370300 0.000000
-10.348700 0.000000
-10.327200 0.000000
-10.305600 0.000000
-10.284100 0.000000
-10.262500 0.000000
-10.241000 0.000000
-10.219400 0.000000
-10.197800 0.000000
-10.176300 0.000000
-10.154700 0.000000
-10.133200 0.000000
-10.111600 0.000000
-10.090100 0.000000
-10.068500 0.000000
-10.046900 0.000000
-10.025400 0.000000
-10.003800 0.000000
-9.982300 0.000000
-9.960700 0.000000
-9.939200 0.000000
-9.917600 0.000000
-9.896000 0.000000
-9.874500 0.000000
-9.852900 0.000000
-9.831400 0.000000
-9.809800 0.000000
-9.788300 0.000000
-9.766700 0.000000
-9.745100 0.000000
-9.723600 0.000000
-9.702000 0.000000
-9.680500 0.000000
-9.658900 0.000000
-9.637300 0.000000
-9.615800 0.000000
-9.594200 0.000000
-9.572700 0.000000
-9.551100 0.000000
-9.529600 0.000000
-9.508000 0.000000
-9.486400 0.000000
-9.464900 0.000000
-9.443300 0.000000
-9.421800 0.000000
-9.400200 0.000000
-9.378700 0.000000
-9.357100 0.000000
-9.335500 0.000000
-9.314000 0.000000
-9.292400 0.000000
-9.270900 0.000000
-9.249300 0.000000
-9.227800 0.000000
-9.206200 0.000000
-9.184600 0.000000
-9.163100 0.000000
-9.141500 0.000000
-9.120000 0.000000
-9.098400 0.000000
-9.076900 0.000000
-9.055300 0.000000
-9.033700 0.000000
-9.012200 0.000000
-8.990600 0.000000
-8.969100 0.000000
-8.947500 0.000000
-8.925900 0.000000
-8.904400 0.000000
-8.882800 0.000000
-8.861300 0.000000
-8.839700 0.000000
-8.818200 0.000000
-8.796600 0.000000
-8.775000 0.000000
-8.753500 0.000000
-8.731900 0.000000
-8.710400 0.000000
-8.688800 0.000000
-8.667300 0.000000
-8.645700 0.000000
-8.624100 0.000000
-8.602600 0.000000
-8.581000 0.000000
-8.559500 0.000000
-8.537900 0.000000
-8.516400 0.000000
-8.494800 0.000000
-8.473200 0.000000
-8.451700 0.000000
-8.430100 0.000000
-8.408600 0.000000
-8.387000 0.000000
-8.365500 0.000000
-8.343900 0.000000
-8.322300 0.000000
-8.300800 0.000000
-8.279200 0.000000
-8.257700 0.000000
-8.236100 0.000000
-8.214500 0.000000
-8.193000 0.000000
-8.171400 0.000000
-8.149900 0.000000
-8.128300 0.000000
-8.106800 0.000000
-8.085200 0.000000
-8.063600 0.000000
-8.042100 0.000000
-8.020500 0.000000
-7.999000 0.000000
-7.977400 0.000000
-7.955900 0.000000
-7.934300 0.000000
-7.912700 0.000000
-7.891200 0.000000
-7.869600 0.000000
-7.848100 0.000000
-7.826500 0.000000
-7.805000 0.000000
-7.783400 0.000000
-7.761800 0.000000
-7.740300 0.000000
-7.718700 0.000000
-7.697200 0.000000
-7.675600 0.000000
-7.654100 0.000000
-7.632500 0.000000
-7.610900 0.000000
-7.589400 0.000000
-7.567800 0.000000
-7.546300 0.000000
-7.524700 0.000000
-7.503100 0.000000
-7.481600 0.000000
-7.460000 0.000000
-7.438500 0.000000
-7.416900 0.000000
-7.395400 0.000000
-7.373800 0.000000
-7.352200 0.000000
-7.330700 0.000000
-7.309100 0.000000
-7.287600 0.000000
-7.266000 0.000000
-7.244500 0.000000
-7.222900 0.000000
-7.201300 0.000000
-7.179800 0.000000
-7.158200 0.000000
-7.136700 0.000000
-7.115100 0.000000
-7.093600 0.000000
-7.072000 0.000000
-7.050400 0.000000
-7.028900 0.000000
-7.007300 0.000000
-6.985800 0.000000
-6.964200 0.000000
-6.942700 0.000000
-6.921100 0.000000
-6.899500 0.000000
-6.878000 0.000000
-6.856400 0.000000
-6.834900 0.000000
-6.813300 0.000000
-6.791700 0.000000
-6.770200 0.000000
-6.748600 0.000000
-6.727100 0.000000
-6.705500 0.000000
-6.684000 0.000000
-6.662400 0.000000
-6.640800 0.000000
-6.619300 0.000000
-6.597700 0.000000
-6.576200 0.000000
-6.554600 0.000000
-6.533100 0.000000
-6.511500 0.000000
-6.489900 0.000000
-6.468400 0.000000
-6.446800 0.000000
-6.425300 0.000000
-6.403700 0.000000
-6.382200 0.000000
-6.360600 0.000000
-6.339000 0.000000
-6.317500 0.000000
-6.295900 0.000000
-6.274400 0.000000
-6.252800 0.000000
-6.231300 0.000000
-6.209700 0.000000
-6.188100 0.000000
-6.166600 0.000000
-6.145000 0.000000
-6.123500 0.000000
-6.101900 0.000000
-6.080300 0.000000
-6.058800 0.000000
-6.037200 0.000000
-6.015700 0.000000
-5.994100 0.000000
-5.972600 0.000000
-5.951000 0.000000
-5.929400 0.000000
-5.907900 0.000000
-5.886300 0.000000
-5.864800 0.000000
-5.843200 0.000000
-5.821700 0.000000
-5.800100 0.000000
-5.778500 0.000000
-5.757000 0.000000
-5.735400 0.000000
-5.713900 0.000000
-5.692300 0.000000
-5.670800 0.000000
-5.649200 0.000000
-5.627600 0.000000
-5.606100 0.000000
-5.584500 0.000000
-5.563000 0.000000
-5.541400 0.000000
-5.519900 0.000000
-5.498300 0.000000
-5.476700 0.000000
-5.455200 0.000000
-5.433600 0.000000
-5.412100 0.000000
-5.390500 0.000000
-5.368900 0.000000
-5.347400 0.000000
-5.325800 0.000000
-5.304300 0.000000
-5.282700 0.000000
-5.261200 0.000000
-5.239600 0.000000
-5.218000 0.000000
-5.196500 0.000000
-5.174900 0.000000
-5.153400 0.000000
-5.131800 0.000000
-5.110300 0.000000
-5.088700 0.000000
-5.067100 0.000000
-5.045600 0.000000
-5.024000 0.000000
-5.002500 0.000000
-4.980900 0.000000
-4.959400 0.000000
-4.937800 0.000000
-4.916200 0.000000
-4.894700 0.000000
-4.873100 0.000000
-4.851600 0.000000
-4.830000 0.000000
-4.808500 0.000000
-4.786900 0.000000
-4.765300 0.000000
-4.743800 0.000000
-4.722200 0.000000
-4.700700 0.000000
-4.679100 0.000000
-4.657500 0.000000
-4.636000 0.000000
-4.614400 0.000000
-4.592900 0.000000
-4.571300 0.000000
-4.549800 0.000000
-4.528200 0.000000
-4.506600 0.000000
-4.485100 0.000000
-4.463500 0.000000
-4.442000 0.000000
-4.420400 0.000000
-4.398900 0.000000
-4.377300 0.000000
-4.355700 0.000000
-4.334200 0.000000
-4.312600 0.000000
-4.291100 0.000000
-4.269500 0.000000
-4.248000 0.000000
-4.226400 0.000000
-4.204800 0.000000
-4.183300 0.000000
-4.161700 0.000000
-4.140200 0.000000
-4.118600 0.000000
-4.097100 0.000000
-4.075500 0.000000
-4.053900 0.000000
-4.032400 0.000000
-4.010800 0.000000
-3.989300 0.000000
-3.967700 0.000000
-3.946100 0.000000
-3.924600 0.000000
-3.903000 0.000000
-3.881500 0.000000
-3.859900 0.000000
-3.838400 0.000000
-3.816800 0.000000
-3.795200 0.000000
-3.773700 0.000000
-3.752100 0.000000
-3.730600 0.001200
-3.709000 0.012100
-3.687500 0.032600
-3.665900 0.062900
-3.644300 0.073600
-3.622800 0.087100
-3.601200 0.150100
-3.579700 0.411800
-3.558100 0.614700
-3.536600 0.628300
-3.515000 0.561700
-3.493400 0.597900
-3.471900 0.620700
-3.450300 0.634000
-3.428800 0.645800
-3.407200 0.663800
-3.385700 0.662500
-3.364100 0.675900
-3.342500 0.689800
-3.321000 0.694500
-3.299400 0.692200
-3.277900 0.694500
-3.256300 0.705900
-3.234700 0.717500
-3.213200 0.728600
-3.191600 0.739500
-3.170100 0.744800
-3.148500 0.750700
-3.127000 0.756700
-3.105400 0.758400
-3.083800 0.761900
-3.062300 0.769700
-3.040700 0.778300
-3.019200 0.787500
-2.997600 0.797500
-2.976100 0.808000
-2.954500 0.820200
-2.932900 0.832800
-2.911400 0.844900
-2.889800 0.855000
-2.868300 0.866300
-2.846700 0.877900
-2.825200 0.889500
-2.803600 0.902000
-2.782000 0.916300
-2.760500 0.931500
-2.738900 0.946000
-2.717400 0.961500
-2.695800 0.978300
-2.674300 0.998900
-2.652700 1.021800
-2.631100 1.046100
-2.609600 1.071400
-2.588000 1.105900
-2.566500 1.145400
-2.544900 1.184300
-2.523300 1.224300
-2.501800 2.149400
-2.480200 2.041000
-2.458700 2.224100
-2.437100 2.475900
-2.415600 2.867100
-2.394000 3.005900
-2.372400 3.100700
-2.350900 3.015700
-2.329300 2.845200
-2.307800 2.574600
-2.286200 2.423200
-2.264700 2.062600
-2.243100 1.996900
-2.221500 2.030800
-2.200000 2.198200
-2.178400 2.254400
-2.156900 2.147400
-2.135300 1.945200
-2.113800 1.580200
-2.092200 1.327200
-2.070600 1.142600
-2.049100 1.026700
-2.027500 0.770000
-2.006000 0.773300
-1.984400 1.062800
-1.962900 3.157500
-1.941300 4.327400
-1.919700 5.079600
-1.898200 5.823600
-1.876600 6.742500
-1.855100 8.353200
-1.833500 8.785900
-1.811900 8.741000
-1.790400 9.743100
-1.768800 4.467900
-1.747300 3.525200
-1.725700 3.308500
-1.704200 2.682800
-1.682600 2.353600
-1.661000 2.116900
-1.639500 1.931100
-1.617900 1.763500
-1.596400 1.598700
-1.574800 1.422600
-1.553300 1.311500
-1.531700 1.264200
-1.510100 1.222900
-1.488600 1.119200
-1.467000 1.042500
-1.445500 0.943400
-1.423900 0.769100
-1.402400 0.651700
-1.380800 0.572100
-1.359200 0.646500
-1.337700 0.716000
-1.316100 0.775200
-1.294600 0.844200
-1.273000 0.923300
-1.251500 1.050800
-1.229900 1.145000
-1.208300 1.187600
-1.186800 1.228500
-1.165200 1.275500
-1.143700 1.322300
-1.122100 1.337100
-1.100500 1.403700
-1.079000 1.514000
-1.057400 1.645800
-1.035900 1.779100
-1.014300 1.835900
-0.992800 1.863200
-0.971200 1.707300
-0.949600 1.546600
-0.928100 1.303800
-0.906500 1.201100
-0.885000 1.202000
-0.863400 1.207200
-0.841900 1.256800
-0.820300 1.286000
-0.798700 1.344700
-0.777200 1.370900
-0.755600 1.407400
-0.734100 1.468700
-0.712500 1.553100
-0.691000 1.643400
-0.669400 1.732400
-0.647800 1.800900
-0.626300 1.821800
-0.604700 1.780200
-0.583200 1.726400
-0.561600 1.662000
-0.540100 1.667100
-0.518500 1.644000
-0.496900 1.633000
-0.475400 1.636400
-0.453800 1.686500
-0.432300 1.802100
-0.410700 1.751600
-0.389100 1.741100
-0.367600 1.722000
-0.346000 1.662600
-0.324500 1.617700
-0.302900 1.559200
-0.281400 1.514100
-0.259800 1.478800
-0.238200 1.441200
-0.216700 1.410800
-0.195100 1.429200
-0.173600 1.458400
-0.152000 1.513000
-0.130500 1.567900
-0.108900 1.604700
-0.087300 1.588700
-0.065800 1.568400
-0.044200 1.553100
-0.022700 1.549900
-0.001100 1.559700
0.020400 1.564000
0.042000 1.591800
0.063600 1.615800
0.085100 1.710000
0.106700 1.797900
0.128200 1.875800
0.149800 2.098400
0.171300 2.079900
0.192900 2.078100
0.214500 2.191600
0.236000 2.386000
0.257600 2.905100
0.279100 2.930200
0.300700 2.975700
0.322300 2.953700
0.343800 2.786600
0.365400 2.635300
0.386900 2.551300
0.408500 2.497300
0.430000 2.453100
0.451600 2.517200
0.473200 2.591400
0.494700 2.654400
0.516300 2.846400
0.537800 3.087500
0.559400 3.248800
0.580900 3.153100
0.602500 3.095900
0.624100 2.843700
0.645600 2.642000
0.667200 2.502900
0.688700 2.434100
0.710300 2.442400
0.731800 2.281800
0.753400 2.240200
0.775000 2.333200
0.796500 2.435100
0.818100 2.415500
0.839600 2.442600
0.861200 2.533800
0.882700 2.721800
0.904300 2.893600
0.925900 2.862400
0.947400 2.790700
0.969000 2.636900
0.990500 2.875300
1.012100 2.730800
1.033700 2.792600
1.055200 2.575200
1.076800 2.420000
1.098300 2.304000
1.119900 2.338200
1.141400 2.345200
1.163000 2.329400
1.184600 2.284000
1.206100 2.270100
1.227700 2.309400
1.249200 2.265800
1.270800 2.193800
1.292300 2.108600
1.313900 2.058000
1.335500 2.049700
1.357000 1.974600
1.378600 1.910600
1.400100 1.882100
1.421700 1.887500
1.443200 1.895000
1.464800 1.958200
1.486400 1.967900
1.507900 1.887600
1.529500 1.828300
1.551000 1.990100
1.572600 2.183700
1.594100 2.413400
1.615700 2.031200
1.637300 1.969600
1.658800 1.987500
1.680400 1.536700
1.701900 1.384400
1.723500 1.372900
1.745100 1.439900
1.766600 1.507900
1.788200 1.599600
1.809700 1.667100
1.831300 1.722200
1.852800 1.782200
1.874400 1.814200
1.896000 1.970700
1.917500 1.767900
1.939100 1.629000
1.960600 1.630000
1.982200 1.643700
2.003700 1.608600
2.025300 1.582900
2.046900 1.546900
2.068400 1.543200
2.090000 1.740100
2.111500 1.569700
2.133100 1.511000
2.154600 1.486100
2.176200 1.483600
2.197800 1.451500
2.219300 1.452700
2.240900 1.461000
2.262400 1.472900
2.284000 1.479900
2.305500 1.467000
2.327100 1.464800
2.348700 1.514500
2.370200 1.458100
2.391800 1.422700
2.413300 1.490100
2.434900 1.486000
2.456500 1.467700
2.478000 1.503000
2.499600 1.574100
2.521100 1.625200
2.542700 1.675200
2.564200 1.717100
2.585800 1.870500
2.607400 1.750100
2.628900 1.742300
2.650500 1.623900
2.672000 1.508200
2.693600 1.443600
2.715100 1.294900
2.736700 0.997900
2.758300 0.833400
2.779800 0.746600
2.801400 0.704400
2.822900 0.673700
2.844500 0.712300
2.866000 0.708100
2.887600 0.716400
2.909200 0.602400
2.930700 0.547100
2.952300 0.521400
2.973800 0.496000
2.995400 0.477600
3.016900 0.464300
3.038500 0.448500
3.060100 0.432200
3.081600 0.421700
3.103200 0.457700
3.124700 0.445600
3.146300 0.400600
3.167900 0.400400
3.189400 0.400500
3.211000 0.407900
3.232500 0.430700
3.254100 0.464900
3.275600 0.516300
3.297200 0.569000
3.318800 0.641800
3.340300 0.705000
3.361900 0.895800
3.383400 1.108200
3.405000 1.394800
3.426500 1.595400
3.448100 1.749700
3.469700 1.802400
3.491200 1.872200
3.512800 1.939600
3.534300 1.915200
3.555900 1.880100
3.577400 1.881000
3.599000 1.898400
3.620600 1.859200
3.642100 1.842300
3.663700 1.859400
3.685200 1.883000
3.706800 1.920600
3.728300 1.986700
3.749900 2.067300
3.771500 2.160400
3.793000 2.372500
3.814600 2.614200
3.836100 2.954800
3.857700 3.235900
3.879300 3.411900
3.900800 2.772200
3.922400 3.884900
3.943900 5.433800
3.965500 7.785000
3.987000 5.762300
4.008600 5.521000
4.030200 4.950100
4.051700 5.058000
4.073300 4.200900
4.094800 4.043200
4.116400 4.198600
4.137900 3.760200
4.159500 3.320900
4.181100 3.286800
4.202600 3.323900
4.224200 3.121300
4.245700 2.827400
4.267300 2.726300
4.288800 2.673900
4.310400 2.728100
4.332000 2.771900
4.353500 2.746100
4.375100 2.723000
4.396600 2.741100
4.418200 2.755300
4.439700 2.704700
4.461300 2.721700
4.482900 2.799900
4.504400 2.491700
4.526000 2.099600
4.547500 1.957800
4.569100 1.875600
4.590700 1.859100
4.612200 1.848600
4.633800 1.860900
4.655300 1.867700
4.676900 1.864200
4.698400 1.866400
4.720000 1.857700
4.741600 1.807100
4.763100 1.748700
4.784700 1.525800
4.806200 1.354700
4.827800 1.256900
4.849300 1.200300
4.870900 1.128500
4.892500 0.945900
4.914000 0.747300
4.935600 0.678900
4.957100 0.672200
4.978700 0.640000
5.000200 0.622700
5.021800 0.627500
5.043400 0.615500
5.064900 0.761700
5.086500 0.655700
5.108000 0.689300
5.129600 0.701000
5.151200 0.726500
5.172700 0.758000
5.194300 0.808400
5.215800 0.905400
5.237400 0.988400
5.258900 1.068600
5.280500 1.126700
5.302100 1.357100
5.323600 1.381400
5.345200 1.559700
5.366700 1.750100
5.388300 1.705300
5.409800 1.632300
5.431400 1.620100
5.453000 1.597200
5.474500 1.471600
5.496100 1.337200
5.517600 1.258400
5.539200 1.236600
5.560700 1.226700
5.582300 1.227000
5.603900 1.563700
5.625400 1.771300
5.647000 1.623400
5.668500 1.560100
5.690100 1.556900
5.711600 1.568800
5.733200 1.564100
5.754800 1.564300
5.776300 1.576400
5.797900 1.586000
5.819400 1.597100
5.841000 1.614000
5.862600 1.645300
5.884100 1.649400
5.905700 1.650600
5.927200 1.678500
5.948800 1.774400
5.970300 1.682600
5.991900 1.655500
6.013500 1.716100
6.035000 1.841500
6.056600 1.957700
6.078100 1.947600
6.099700 1.740300
6.121200 1.617400
6.142800 1.540700
6.164400 1.487600
6.185900 1.462700
6.207500 1.385000
6.229000 1.291900
6.250600 1.164200
6.272100 0.944300
6.293700 0.797400
6.315300 0.692000
6.336800 0.587100
6.358400 0.476800
6.379900 0.309500
6.401500 0.279300
6.423000 0.267900
6.444600 0.255600
6.466200 0.244300
6.487700 0.235700
6.509300 0.228800
6.530800 0.219900
6.552400 0.212500
6.574000 0.207200
6.595500 0.204700
6.617100 0.211600
6.638600 0.237500
6.660200 0.263200
6.681700 0.300500
6.703300 0.223900
6.724900 0.098300
6.746400 0.036400
6.768000 0.000000
6.789500 0.000000
6.811100 0.011500
6.832600 0.265400
6.854200 0.441000
6.875800 0.693800
6.897300 0.777900
6.918900 0.828900
6.940400 0.771100
6.962000 0.714600
6.983500 0.712200
7.005100 0.724800
7.026700 0.739700
7.048200 0.753700
7.069800 0.748900
7.091300 0.727600
7.112900 0.722000
7.134400 0.718100
7.156000 0.722600
7.177600 0.728400
7.199100 0.736800
7.220700 0.747400
7.242200 0.759600
7.263800 0.769900
7.285400 0.782200
7.306900 0.784900
7.328500 0.781700
7.350000 0.782300
7.371600 0.788000
7.393100 0.795800
7.414700 0.803700
7.436300 0.813200
7.457800 0.824000
7.479400 0.835800
7.500900 0.848700
7.522500 0.862700
7.544000 0.876900
7.565600 0.892100
7.587200 0.907900
7.608700 0.925500
7.630300 0.940800
7.651800 0.962800
7.673400 0.992400
7.694900 1.026700
7.716500 1.067200
7.738100 1.113000
7.759600 1.152000
7.781200 1.181000
7.802700 1.197300
7.824300 1.202700
7.845800 1.216200
7.867400 1.207900
7.889000 1.248800
7.910500 1.233100
7.932100 1.228200
7.953600 1.226000
7.975200 1.225400
7.996800 1.236000
8.018300 1.200600
8.039900 1.126400
8.061400 1.068900
8.083000 1.009100
8.104500 0.992100
8.126100 0.986700
8.147700 1.006200
8.169200 1.062900
8.190800 1.055400
8.212300 1.015200
8.233900 1.040400
8.255400 1.103700
8.277000 1.145700
8.298600 1.111700
8.320100 1.080200
8.341700 1.064000
8.363200 1.058500
8.384800 1.060700
8.406300 1.065700
8.427900 1.064100
8.449500 1.054600
8.471000 1.064000
8.492600 1.078000
8.514100 1.051300
8.535700 1.015800
8.557200 0.999200
8.578800 0.998400
8.600400 1.016800
8.621900 1.067600
8.643500 0.998700
8.665000 0.958900
8.686600 0.859700
8.708200 0.847900
8.729700 0.868300
8.751300 0.873500
8.772800 0.894100
8.794400 0.920100
8.815900 0.956600
8.837500 1.003600
8.859100 1.062000
8.880600 1.179500
8.902200 1.244700
8.923700 1.372600
8.945300 1.425700
8.966800 1.458200
8.988400 1.459600
9.010000 1.451900
9.031500 1.455200
9.053100 1.486200
9.074600 1.381800
9.096200 1.373000
9.117700 1.377200
9.139300 1.386100
9.160900 1.434100
9.182400 1.509200
9.204000 1.594100
9.225500 1.626500
9.247100 1.697000
9.268600 1.875600
9.290200 1.842500
9.311800 1.663400
9.333300 1.562900
9.354900 1.522900
9.376400 1.530200
9.398000 1.515300
9.419600 1.510800
9.441100 1.520000
9.462700 1.630100
9.484200 1.661200
9.505800 1.645000
9.527300 1.591200
9.548900 1.556100
9.570500 1.527300
9.592000 1.487300
9.613600 1.468400
9.635100 1.452200
9.656700 1.433000
9.678200 1.420300
9.699800 1.413200
9.721400 1.412600
9.742900 1.431000
9.764500 1.498500
9.786000 1.428200
9.807600 1.325300
9.829100 1.127000
9.850700 0.989000
9.872300 1.012500
9.893800 1.039400
9.915400 1.071700
9.936900 1.122100
9.958500 1.185200
9.980000 1.270000
10.001600 1.427700
10.023200 1.634200
10.044700 1.696800
10.066300 1.680200
10.087800 1.469500
10.109400 1.420500
10.131000 1.357700
10.152500 1.116800
10.174100 0.792600
10.195600 0.686100
10.217200 0.447900
10.238700 0.423900
10.260300 0.403700
10.281900 0.388300
10.303400 0.379300
10.325000 0.371900
10.346500 0.363500
10.368100 0.354500
10.389600 0.340200
10.411200 0.332200
10.432800 0.324800
10.454300 0.317200
10.475900 0.308400
10.497400 0.300800
10.519000 0.298400
10.540500 0.300800
10.562100 0.303900
10.583700 0.299400
10.605200 0.294300
10.626800 0.285900
10.648300 0.267500
10.669900 0.237600
10.691400 0.200800
10.713000 0.161900
10.734600 0.084600
10.756100 0.020500
10.777700 0.003100
10.799200 0.000000
10.820800 0.000000
10.842400 0.000000
10.863900 0.016500
10.885500 0.049300
10.907000 0.097100
10.928600 0.147700
10.950100 0.189000
10.971700 0.216800
10.993300 0.229200
11.014800 0.240800
11.036400 0.326800
11.057900 0.247900
11.079500 0.204400
11.101000 0.188300
11.122600 0.174000
11.144200 0.161800
11.165700 0.153900
11.187300 0.147900
11.208800 0.135800
11.230400 0.118200
11.251900 0.105400
11.273500 0.100600
11.295100 0.101400
11.316600 0.102400
11.338200 0.103400
11.359700 0.104500
11.381300 0.105500
11.402800 0.106600
11.424400 0.107600
11.446000 0.108400
11.467500 0.109000
11.489100 0.109800
11.510600 0.110800
11.532200 0.112100
11.553800 0.113300
11.575300 0.114700
11.596900 0.116100
11.618400 0.117500
11.640000 0.118900
11.661500 0.120400
11.683100 0.122000
11.704700 0.123600
11.726200 0.125200
11.747800 0.126900
11.769300 0.128500
11.790900 0.130200
11.812400 0.131900
11.834000 0.133700
11.855600 0.135400
11.877100 0.137200
11.898700 0.138900
11.920200 0.140700
11.941800 0.142400
11.963300 0.144200
11.984900 0.146100
12.006500 0.148000
12.028000 0.150000
12.049600 0.151900
12.071100 0.153800
12.092700 0.155700
12.114200 0.157700
12.135800 0.159600
12.157400 0.161700
12.178900 0.163700
12.200500 0.165900
12.222000 0.168000
12.243600 0.170100
12.265200 0.172300
12.286700 0.174400
12.308300 0.176600
12.329800 0.178800
12.351400 0.181000
12.372900 0.183100
12.394500 0.185300
12.416100 0.187500
12.437600 0.189800
12.459200 0.192200
12.480700 0.194600
12.502300 0.197200
12.523800 0.206100
12.545400 0.215200
12.567000 0.223800
12.588500 0.231900
12.610100 0.231900
12.631600 0.230500
12.653200 0.229300
12.674700 0.228600
12.696300 0.230800
12.717900 0.232900
12.739400 0.234900
12.761000 0.236900
12.782500 0.238700
12.804100 0.240500
12.825600 0.241800
12.847200 0.241600
12.868800 0.241400
12.890300 0.241600
12.911900 0.243200
12.933400 0.244500
12.955000 0.245900
12.976600 0.247200
12.998100 0.248500
13.019700 0.249700
13.041200 0.250900
13.062800 0.252500
13.084300 0.263800
13.105900 0.276400
13.127500 0.289800
13.149000 0.297700
13.170600 0.298600
13.192100 0.299200
13.213700 0.300300
13.235200 0.305200
13.256800 0.310100
13.278400 0.315200
13.299900 0.320400
13.321500 0.325600
13.343000 0.329600
13.364600 0.334600
13.386100 0.338200
13.407700 0.342700
13.429300 0.347500
13.450800 0.352500
13.472400 0.357500
13.493900 0.362400
13.515500 0.367400
13.537000 0.372600
13.558600 0.377800
13.580200 0.383300
13.601700 0.389800
13.623300 0.396400
13.644800 0.403100
13.666400 0.409600
13.688000 0.415500
13.709500 0.421400
13.731100 0.427400
13.752600 0.433500
13.774200 0.439700
13.795700 0.446100
13.817300 0.452900
13.838900 0.460800
13.860400 0.468600
13.882000 0.476700
13.903500 0.484300
13.925100 0.492300
13.946600 0.501100
13.968200 0.510700
13.989800 0.520700
14.011300 0.531100
14.032900 0.541400
14.054400 0.552100
14.076000 0.563000
14.097500 0.574700
14.119100 0.587000
14.140700 0.598700
14.162200 0.611500
14.183800 0.629100
14.205300 0.650000
14.226900 0.674500
14.248400 0.719500
14.270000 0.776400
14.291600 0.839000
14.313100 0.873600
14.334700 0.874000
14.356200 0.866700
14.377800 0.849500
14.399400 0.832300
14.420900 0.826100
14.442500 0.836400
14.464000 0.847800
14.485600 0.844700
14.507100 0.839400
14.528700 0.828900
14.550300 0.832000
14.571800 0.838700
14.593400 0.855800
14.614900 0.863300
14.636500 0.898400
14.658000 0.935600
14.679600 0.954500
14.701200 0.955600
14.722700 0.966800
14.744300 0.983000
14.765800 0.982800
14.787400 1.058000
14.808900 1.032900
14.830500 1.033600
14.852100 1.039400
14.873600 1.026200
14.895200 1.017500
14.916700 1.022200
14.938300 1.023600
14.959800 1.013200
14.981400 1.008900
15.003000 1.035900
15.024500 1.014300
15.046100 1.020600
15.067600 1.026000
15.089200 1.017900
15.110800 1.019900
15.132300 1.033500
15.153900 1.034900
15.175400 1.032500
15.197000 0.840700
15.218500 0.928000
15.240100 1.174700
15.261700 1.165600
15.283200 1.228800
15.304800 1.366000
15.326300 1.439300
15.347900 1.585000
15.369400 1.651200
15.391000 1.075100
15.412600 1.115400
15.434100 1.113500
15.455700 1.140100
15.477200 1.130900
15.498800 1.156600
15.520300 1.146800
15.541900 1.134800
15.563500 1.108600
15.585000 1.094300
15.606600 1.051200
15.628100 1.037000
15.649700 1.026600
15.671200 1.015800
15.692800 1.005600
15.714400 0.994700
15.735900 0.990000
15.757500 0.990400
15.779000 1.010100
15.800600 1.025900
15.822200 1.020300
15.843700 1.020100
15.865300 1.024000
15.886800 1.032200
15.908400 1.048400
15.929900 1.083200
15.951500 1.088300
15.973100 1.077900
15.994600 1.079400
16.016200 1.091300
16.037700 1.144600
16.059300 1.157800
16.080800 1.185700
16.102400 1.212400
16.124000 1.274600
16.145500 1.258100
16.167100 1.247900
16.188600 1.225200
16.210200 1.238800
16.231700 1.226600
16.253300 1.246100
16.274900 1.243300
16.296400 1.237700
16.318000 1.223100
16.339500 1.213500
16.361100 1.205900
16.382600 1.206400
16.404200 1.207900
16.425800 1.212000
16.447300 1.217400
16.468900 1.224200
16.490400 1.231600
16.512000 1.229900
16.533600 1.223300
16.555100 1.215400
16.576700 1.202300
16.598200 1.123300
16.619800 1.096900
16.641300 1.130700
16.662900 1.033900
16.684500 1.078800
16.706000 1.184300
16.727600 1.229900
16.749100 1.295200
16.770700 1.469300
16.792200 1.501400
16.813800 1.376800
16.835400 1.229000
16.856900 1.156300
16.878500 0.955400
16.900000 0.820900
16.921600 0.763600
16.943100 0.775600
16.964700 0.773500
16.986300 0.772100
17.007800 0.791300
17.029400 0.804800
17.050900 0.808200
17.072500 0.795100
17.094000 0.765500
17.115600 0.740800
17.137200 0.705000
17.158700 0.683400
17.180300 0.669100
17.201800 0.666200
17.223400 0.655300
17.245000 0.639400
17.266500 0.646700
17.288100 0.875400
17.309600 0.694100
17.331200 0.629400
17.352700 0.555700
17.374300 0.507900
17.395900 0.480200
17.417400 0.477900
17.439000 0.668800
17.460500 0.648600
17.482100 0.619500
17.503600 0.609200
17.525200 0.609100
17.546800 0.616900
17.568300 0.613800
17.589900 0.614500
17.611400 0.619300
17.633000 0.590400
17.654500 0.594700
17.676100 0.596200
17.697700 0.599700
17.719200 0.585000
17.740800 0.583600
17.762300 0.574800
17.783900 0.567500
17.805400 0.566600
17.827000 0.566800
17.848600 0.567200
17.870100 0.567900
17.891700 0.572100
17.913200 0.578500
17.934800 0.586200
17.956400 0.594900
17.977900 0.604200
17.999500 0.614000
18.021000 0.631800
18.042600 0.652000
18.064100 0.657300
18.085700 0.668200
18.107300 0.678500
18.128800 0.689700
18.150400 0.702700
18.171900 0.716900
18.193500 0.776100
18.215000 0.823400
18.236600 0.870100
18.258200 0.913800
18.279700 0.957500
18.301300 0.996600
18.322800 1.041700
18.344400 1.105000
18.365900 1.214600
18.387500 1.322100
18.409100 1.482700
18.430600 1.390600
18.452200 1.339300
18.473700 1.305200
18.495300 1.295800
18.516800 1.287600
18.538400 1.305600
18.560000 1.314800
18.581500 1.335800
18.603100 1.381300
18.624600 1.412500
18.646200 1.436100
18.667800 1.481900
18.689300 1.584100
18.710900 1.616600
18.732400 1.741300
18.754000 1.792900
18.775500 1.901900
18.797100 2.142800
18.818700 2.688000
18.840200 2.130900
18.861800 2.118500
18.883300 2.273400
18.904900 1.896100
18.926400 1.964600
18.948000 1.736100
18.969600 1.662100
18.991100 1.536000
19.012700 1.341200
19.034200 1.364500
19.055800 1.369800
19.077300 1.346700
19.098900 1.319100
19.120500 1.332300
19.142000 1.270200
19.163600 1.148200
19.185100 0.914000
19.206700 0.633900
19.228200 0.507000
19.249800 0.425200
19.271400 0.356600
19.292900 0.332400
19.314500 0.348800
19.336000 0.379400
19.357600 0.403900
19.379200 0.435400
19.400700 0.457400
19.422300 0.479800
19.443800 0.505300
19.465400 0.531100
19.486900 0.541200
19.508500 0.550900
19.530100 0.578100
19.551600 0.622800
19.573200 0.695300
19.594700 0.820700
19.616300 0.966100
19.637800 1.075400
19.659400 1.124200
19.681000 1.089200
19.702500 1.057700
19.724100 1.078700
19.745600 1.132700
19.767200 1.145000
19.788700 1.200000
19.810300 1.294800
19.831900 1.378600
19.853400 1.399900
19.875000 1.401400
19.896500 1.433100
19.918100 1.527700
19.939600 1.612200
19.961200 1.756500
19.982800 1.864600
20.004300 1.929800
20.025900 1.979000
20.047400 1.994700
20.069000 1.894300
20.090600 1.806300
20.112100 1.764800
20.133700 1.546200
20.155200 1.353100
20.176800 1.275800
20.198300 1.187100
20.219900 1.115100
20.241500 1.110500
20.263000 1.158100
20.284600 1.344800
20.306100 1.495600
20.327700 1.501700
20.349200 1.486900
20.370800 1.337700
20.392400 1.232600
20.413900 1.175300
20.435500 1.153500
20.457000 1.176800
20.478600 1.212200
20.500100 1.206700
20.521700 1.241400
20.543300 1.299300
20.564800 1.381900
20.586400 1.468700
20.607900 1.458200
20.629500 1.413800
20.651000 1.345700
20.672600 1.294000
20.694200 1.263000
20.715700 1.245400
20.737300 1.236200
20.758800 1.232900
20.780400 1.223800
20.802000 1.210100
20.823500 1.178300
20.845100 1.179200
20.866600 1.204200
20.888200 1.239600
20.909700 1.366900
20.931300 1.437200
20.952900 1.477300
20.974400 1.466200
20.996000 1.455600
21.017500 1.400200
21.039100 1.324700
21.060600 1.256900
21.082200 1.209800
21.103800 1.172300
21.125300 1.147200
21.146900 1.168500
21.168400 1.196200
21.190000 1.211000
21.211500 1.221000
21.233100 1.213400
21.254700 1.202200
21.276200 1.187800
21.297800 1.184000
21.319300 1.217400
21.340900 1.205700
21.362400 1.200500
21.384000 1.199000
21.405600 1.198900
21.427100 1.200800
21.448700 1.213800
21.470200 1.241700
21.491800 1.244500
21.513400 1.245700
21.534900 1.233300
21.556500 1.211600
21.578000 1.189100
21.599600 1.179500
21.621100 1.146200
21.642700 1.076200
21.664300 1.010300
21.685800 0.967600
21.707400 0.932500
21.728900 0.908600
21.750500 0.885300
21.772000 0.863900
21.793600 0.844300
21.815200 0.826200
21.836700 0.808300
21.858300 0.790700
21.879800 0.774500
21.901400 0.759200
21.922900 0.745400
21.944500 0.734300
21.966100 0.726200
21.987600 0.725200
22.009200 0.724700
22.030700 0.727300
22.052300 0.732700
22.073800 0.739200
22.095400 0.755200
22.117000 0.772400
22.138500 0.789500
22.160100 0.808400
22.181600 0.876500
22.203200 0.858400
22.224800 0.810100
22.246300 0.757100
22.267900 0.716100
22.289400 0.693600
22.311000 0.671700
22.332500 0.645700
22.354100 0.627700
22.375700 0.613900
22.397200 0.603600
22.418800 0.592800
22.440300 0.581900
22.461900 0.571500
22.483400 0.562500
22.505000 0.555400
22.526600 0.548100
22.548100 0.541900
22.569700 0.536600
22.591200 0.531700
22.612800 0.526900
22.634300 0.522700
22.655900 0.518100
22.677500 0.513100
22.699000 0.508100
22.720600 0.502200
22.742100 0.494800
22.763700 0.486300
22.785200 0.476900
22.806800 0.466400
22.828400 0.458700
22.849900 0.446100
22.871500 0.433900
22.893000 0.422000
22.914600 0.408800
22.936200 0.397700
22.957700 0.388700
22.979300 0.380000
23.000800 0.374700
23.022400 0.366400
23.043900 0.358200
23.065500 0.351600
23.087100 0.343900
23.108600 0.335700
23.130200 0.329000
23.151700 0.317700
23.173300 0.307900
23.194800 0.298500
23.216400 0.289300
23.238000 0.279800
23.259500 0.270400
23.281100 0.260700
23.302600 0.264000
23.324200 0.256200
23.345700 0.236200
23.367300 0.219200
23.388900 0.204000
23.410400 0.166500
23.432000 0.160800
23.453500 0.155500
23.475100 0.150700
23.496600 0.147400
23.518200 0.143900
23.539800 0.140200
23.561300 0.135900
23.582900 0.130600
23.604400 0.125200
23.626000 0.120000
23.647600 0.114400
23.669100 0.108000
23.690700 0.101700
23.712200 0.093100
23.733800 0.084800
23.755300 0.076900
23.776900 0.068600
23.798500 0.057700
23.820000 0.046800
23.841600 0.035700
23.863100 0.025800
23.884700 0.013700
23.906200 0.009500
23.927800 0.006000
23.949400 0.003300
23.970900 0.001400
23.992500 0.000300
24.014000 0.000000
24.035600 0.000000
24.057100 0.000000
24.078700 0.000000
24.100300 0.000000
24.121800 0.000000
24.143400 0.000000
24.164900 0.000000
24.186500 0.000000
24.208000 0.000000
24.229600 0.000000
24.251200 0.000000
24.272700 0.000000
24.294300 0.000000
24.315800 0.000000
24.337400 0.000000
24.359000 0.000000
24.380500 0.000000
24.402100 0.000000
24.423600 0.000000
24.445200 0.000000
24.466700 0.000000
24.488300 0.000000
24.509900 0.000000
24.531400 0.000000
24.553000 0.000000
24.574500 0.000000
24.596100 0.000000
24.617600 0.000000
24.639200 0.000000
24.660800 0.000000
24.682300 0.000000
24.703900 0.000000
24.725400 0.000000
24.747000 0.000000
24.768500 0.000000
24.790100 0.000000
24.811700 0.000000
24.833200 0.000000
24.854800 0.000000
24.876300 0.000000
24.897900 0.000000
24.919400 0.000000
24.941000 0.000000
24.962600 0.000000
24.984100 0.000000
25.005700 0.000000
25.027200 0.000000
25.048800 0.000000
25.070400 0.000000
25.091900 0.000000
25.113500 0.000000
25.135000 0.000000
25.156600 0.000000
25.178100 0.000000
25.199700 0.000000
25.221300 0.000000
25.242800 0.000000
25.264400 0.000000
25.285900 0.000000
25.307500 0.000000
25.329000 0.000000
25.350600 0.000000
25.372200 0.000000
25.393700 0.000000
25.415300 0.000000
25.436800 0.000000
25.458400 0.000000
25.479900 0.000000
25.501500 0.000000
25.523100 0.000000
25.544600 0.000000
25.566200 0.000000
25.587700 0.000000
25.609300 0.000000
25.630800 0.000000
25.652400 0.000000
25.674000 0.000000
25.695500 0.000000
25.717100 0.000000
25.738600 0.000000
25.760200 0.000000
25.781800 0.000000
25.803300 0.000000
25.824900 0.000000
25.846400 0.000000
25.868000 0.000000
25.889500 0.000000
25.911100 0.000000
25.932700 0.000000
25.954200 0.000000
25.975800 0.000000
25.997300 0.000000
26.018900 0.000000
e
