set title 'mp-570882 - Density of States'
set xlabel 'Energy (eV)'
set ylabel 'DOS (states/eV)'
set grid
set xrange [-10:10]
set yrange [0:717.584]
set xzeroaxis lt -1
set terminal png size 800,600
set output 'mp-570882_dos_gnuplot.png'
plot '-' using 1:2 with lines title 'DOS'
-12.008800 0.000000
-11.995400 0.000000
-11.982100 0.000000
-11.968700 0.000000
-11.955400 0.000000
-11.942100 0.000000
-11.928700 0.000000
-11.915400 0.000000
-11.902000 0.000000
-11.888700 0.000000
-11.875300 0.000000
-11.862000 0.000000
-11.848600 0.000000
-11.835300 0.000000
-11.821900 0.000000
-11.808600 0.000000
-11.795200 0.000000
-11.781900 0.000000
-11.768500 0.000000
-11.755200 0.000000
-11.741900 0.000000
-11.728500 0.000000
-11.715200 0.000000
-11.701800 0.000000
-11.688500 0.000000
-11.675100 0.000000
-11.661800 0.000000
-11.648400 0.000000
-11.635100 0.000000
-11.621700 0.000000
-11.608400 0.000000
-11.595000 0.000000
-11.581700 0.000000
-11.568400 0.000000
-11.555000 0.000000
-11.541700 0.000000
-11.528300 0.000000
-11.515000 0.000000
-11.501600 0.000000
-11.488300 0.000000
-11.474900 0.000000
-11.461600 0.000000
-11.448200 0.000000
-11.434900 0.000000
-11.421500 0.000000
-11.408200 0.000000
-11.394800 0.000000
-11.381500 0.000000
-11.368200 0.000000
-11.354800 0.000000
-11.341500 0.000000
-11.328100 0.000000
-11.314800 0.000000
-11.301400 0.000000
-11.288100 0.000000
-11.274700 0.000000
-11.261400 0.000000
-11.248000 0.000000
-11.234700 0.000000
-11.221300 0.000000
-11.208000 0.000000
-11.194700 0.000000
-11.181300 0.000000
-11.168000 0.000000
-11.154600 0.000000
-11.141300 0.000000
-11.127900 0.000000
-11.114600 0.000000
-11.101200 0.000000
-11.087900 0.000000
-11.074500 0.000000
-11.061200 0.000000
-11.047800 0.000000
-11.034500 0.000000
-11.021100 0.000000
-11.007800 0.000000
-10.994500 0.000000
-10.981100 0.000000
-10.967800 0.000000
-10.954400 0.000000
-10.941100 0.000000
-10.927700 0.000000
-10.914400 0.000000
-10.901000 0.000000
-10.887700 0.000000
-10.874300 0.000000
-10.861000 0.000000
-10.847600 0.000000
-10.834300 0.000000
-10.821000 0.000000
-10.807600 0.000000
-10.794300 0.042400
-10.780900 0.536800
-10.767600 1.944600
-10.754200 3.364100
-10.740900 5.377500
-10.727500 7.893600
-10.714200 10.822500
-10.700800 12.189100
-10.687500 11.563900
-10.674100 13.270600
-10.660800 12.000300
-10.647400 11.494300
-10.634100 11.908400
-10.620800 12.322500
-10.607400 12.736600
-10.594100 13.150800
-10.580700 13.564900
-10.567400 13.979000
-10.554000 14.422300
-10.540700 14.917800
-10.527300 15.425700
-10.514000 16.007800
-10.500600 16.641300
-10.487300 17.275500
-10.473900 17.909400
-10.460600 18.530400
-10.447300 19.142300
-10.433900 19.751800
-10.420600 20.361300
-10.407200 20.970900
-10.393900 21.580400
-10.380500 22.190000
-10.367200 22.799500
-10.353800 26.691800
-10.340500 36.172100
-10.327100 46.613400
-10.313800 67.594900
-10.300400 80.154400
-10.287100 90.843800
-10.273700 111.649800
-10.260400 116.563100
-10.247100 137.456400
-10.233700 199.836900
-10.220400 164.108400
-10.207000 138.248400
-10.193700 0.000000
-10.180300 0.000000
-10.167000 0.000000
-10.153600 0.000000
-10.140300 0.000000
-10.126900 0.000000
-10.113600 0.000000
-10.100200 0.000000
-10.086900 0.000000
-10.073600 0.000000
-10.060200 0.000000
-10.046900 0.000000
-10.033500 0.000000
-10.020200 0.000000
-10.006800 0.000000
-9.993500 0.000000
-9.980100 0.000000
-9.966800 0.000000
-9.953400 0.000000
-9.940100 0.000000
-9.926700 0.000000
-9.913400 0.000000
-9.900000 0.000000
-9.886700 0.000000
-9.873400 0.000000
-9.860000 0.000000
-9.846700 0.000000
-9.833300 0.000000
-9.820000 0.000000
-9.806600 0.000000
-9.793300 0.000000
-9.779900 0.000000
-9.766600 0.000000
-9.753200 0.000000
-9.739900 0.000000
-9.726500 0.000000
-9.713200 0.000000
-9.699900 0.000000
-9.686500 0.000000
-9.673200 0.000000
-9.659800 0.000000
-9.646500 0.000000
-9.633100 0.000000
-9.619800 0.000000
-9.606400 0.000000
-9.593100 0.000000
-9.579700 0.000000
-9.566400 0.000000
-9.553000 0.000000
-9.539700 0.000000
-9.526300 0.000000
-9.513000 0.000000
-9.499700 0.000000
-9.486300 0.000000
-9.473000 0.000000
-9.459600 0.000000
-9.446300 0.000000
-9.432900 0.000000
-9.419600 0.000000
-9.406200 0.000000
-9.392900 0.000000
-9.379500 0.000000
-9.366200 0.000000
-9.352800 0.000000
-9.339500 0.000000
-9.326200 0.000000
-9.312800 0.000000
-9.299500 0.000000
-9.286100 0.000000
-9.272800 0.000000
-9.259400 0.000000
-9.246100 0.000000
-9.232700 0.000000
-9.219400 0.000000
-9.206000 0.000000
-9.192700 0.000000
-9.179300 0.000000
-9.166000 0.000000
-9.152600 0.000000
-9.139300 0.000000
-9.126000 0.000000
-9.112600 0.000000
-9.099300 0.000000
-9.085900 0.000000
-9.072600 0.000000
-9.059200 0.000000
-9.045900 0.000000
-9.032500 0.000000
-9.019200 0.000000
-9.005800 0.000000
-8.992500 0.000000
-8.979100 0.000000
-8.965800 0.000000
-8.952500 0.000000
-8.939100 0.000000
-8.925800 0.000000
-8.912400 0.000000
-8.899100 0.000000
-8.885700 0.000000
-8.872400 0.000000
-8.859000 0.000000
-8.845700 0.000000
-8.832300 0.000000
-8.819000 0.000000
-8.805600 0.000000
-8.792300 0.000000
-8.778900 0.000000
-8.765600 0.000000
-8.752300 0.000000
-8.738900 0.000000
-8.725600 0.000000
-8.712200 0.000000
-8.698900 0.000000
-8.685500 0.000000
-8.672200 0.000000
-8.658800 0.000000
-8.645500 0.000000
-8.632100 0.000000
-8.618800 0.000000
-8.605400 0.000000
-8.592100 0.000000
-8.578800 0.000000
-8.565400 0.000000
-8.552100 0.000000
-8.538700 0.000000
-8.525400 0.000000
-8.512000 0.000000
-8.498700 0.000000
-8.485300 0.000000
-8.472000 0.000000
-8.458600 0.000000
-8.445300 0.000000
-8.431900 0.000000
-8.418600 0.000000
-8.405200 0.000000
-8.391900 0.000000
-8.378600 0.000000
-8.365200 0.000000
-8.351900 0.000000
-8.338500 0.000000
-8.325200 0.000000
-8.311800 0.000000
-8.298500 0.000000
-8.285100 0.000000
-8.271800 0.000000
-8.258400 0.000000
-8.245100 0.000000
-8.231700 0.000000
-8.218400 0.000000
-8.205100 0.000000
-8.191700 0.000000
-8.178400 0.000000
-8.165000 0.000000
-8.151700 0.000000
-8.138300 0.000000
-8.125000 0.000000
-8.111600 0.000000
-8.098300 0.000000
-8.084900 0.000000
-8.071600 0.000000
-8.058200 0.000000
-8.044900 0.000000
-8.031500 0.000000
-8.018200 0.000000
-8.004900 0.000000
-7.991500 0.000000
-7.978200 0.000000
-7.964800 0.000000
-7.951500 0.000000
-7.938100 0.000000
-7.924800 0.000000
-7.911400 0.000000
-7.898100 0.000000
-7.884700 0.000000
-7.871400 0.000000
-7.858000 0.000000
-7.844700 0.000000
-7.831400 0.000000
-7.818000 0.000000
-7.804700 0.000000
-7.791300 0.000000
-7.778000 0.000000
-7.764600 0.000000
-7.751300 0.000000
-7.737900 0.000000
-7.724600 0.000000
-7.711200 0.000000
-7.697900 0.000000
-7.684500 0.000000
-7.671200 0.000000
-7.657800 0.000000
-7.644500 0.000000
-7.631200 0.000000
-7.617800 0.000000
-7.604500 0.000000
-7.591100 0.000000
-7.577800 0.000000
-7.564400 0.000000
-7.551100 0.000000
-7.537700 0.000000
-7.524400 0.000000
-7.511000 0.000000
-7.497700 0.000000
-7.484300 0.000000
-7.471000 0.000000
-7.457700 0.000000
-7.444300 0.000000
-7.431000 0.000000
-7.417600 0.000000
-7.404300 0.000000
-7.390900 0.000000
-7.377600 0.000000
-7.364200 0.000000
-7.350900 0.000000
-7.337500 0.000000
-7.324200 0.000000
-7.310800 0.000000
-7.297500 0.000000
-7.284100 0.000000
-7.270800 0.000000
-7.257500 0.000000
-7.244100 0.000000
-7.230800 0.000000
-7.217400 0.000000
-7.204100 0.000000
-7.190700 0.000000
-7.177400 0.000000
-7.164000 0.000000
-7.150700 0.000000
-7.137300 0.000000
-7.124000 0.000000
-7.110600 0.000000
-7.097300 0.000000
-7.084000 0.000000
-7.070600 0.000000
-7.057300 0.000000
-7.043900 0.000000
-7.030600 0.000000
-7.017200 0.000000
-7.003900 0.000000
-6.990500 0.000000
-6.977200 0.000000
-6.963800 0.000000
-6.950500 0.000000
-6.937100 0.000000
-6.923800 0.000000
-6.910400 0.000000
-6.897100 0.000000
-6.883800 0.000000
-6.870400 0.000000
-6.857100 0.000000
-6.843700 0.000000
-6.830400 0.000000
-6.817000 0.000000
-6.803700 0.000000
-6.790300 0.000000
-6.777000 0.000000
-6.763600 0.000000
-6.750300 0.000000
-6.736900 0.000000
-6.723600 0.000000
-6.710300 0.000000
-6.696900 0.000000
-6.683600 0.000000
-6.670200 0.000000
-6.656900 0.000000
-6.643500 0.000000
-6.630200 0.000000
-6.616800 0.000000
-6.603500 0.000000
-6.590100 0.000000
-6.576800 0.000000
-6.563400 0.000000
-6.550100 0.000000
-6.536700 0.000000
-6.523400 0.000000
-6.510100 0.000000
-6.496700 69.793600
-6.483400 141.687000
-6.470000 304.892700
-6.456700 234.040600
-6.443300 123.386500
-6.430000 95.669300
-6.416600 90.572200
-6.403300 99.603400
-6.389900 331.684300
-6.376600 236.293500
-6.363200 162.584000
-6.349900 82.886100
-6.336600 134.265700
-6.323200 652.349500
-6.309900 217.272600
-6.296500 197.038600
-6.283200 318.668300
-6.269800 110.120900
-6.256500 99.961800
-6.243100 86.170200
-6.229800 72.378500
-6.216400 62.403800
-6.203100 0.000000
-6.189700 0.000000
-6.176400 0.000000
-6.163000 0.000000
-6.149700 0.000000
-6.136400 0.000000
-6.123000 0.000000
-6.109700 0.000000
-6.096300 0.000000
-6.083000 0.000000
-6.069600 0.000000
-6.056300 0.000000
-6.042900 0.000000
-6.029600 0.000000
-6.016200 0.000000
-6.002900 0.000000
-5.989500 0.000000
-5.976200 0.000000
-5.962900 0.000000
-5.949500 0.000000
-5.936200 0.000000
-5.922800 0.000000
-5.909500 0.000000
-5.896100 0.000000
-5.882800 0.000000
-5.869400 0.000000
-5.856100 0.000000
-5.842700 0.000000
-5.829400 0.000000
-5.816000 0.000000
-5.802700 0.000000
-5.789300 0.000000
-5.776000 0.000000
-5.762700 0.000000
-5.749300 0.000000
-5.736000 0.000000
-5.722600 0.000000
-5.709300 0.000000
-5.695900 0.000000
-5.682600 0.000000
-5.669200 0.000000
-5.655900 0.000000
-5.642500 0.000000
-5.629200 0.000000
-5.615800 0.000000
-5.602500 0.000000
-5.589200 0.000000
-5.575800 0.000000
-5.562500 0.000000
-5.549100 0.000000
-5.535800 0.000000
-5.522400 0.000000
-5.509100 0.000000
-5.495700 0.000000
-5.482400 0.000000
-5.469000 0.000000
-5.455700 0.000000
-5.442300 0.000000
-5.429000 0.000000
-5.415600 0.000000
-5.402300 0.000000
-5.389000 0.000000
-5.375600 0.000000
-5.362300 0.000000
-5.348900 0.000000
-5.335600 0.000000
-5.322200 0.000000
-5.308900 0.000000
-5.295500 0.000000
-5.282200 0.000000
-5.268800 0.000000
-5.255500 0.000000
-5.242100 0.000000
-5.228800 0.000000
-5.215500 0.000000
-5.202100 0.000000
-5.188800 0.000000
-5.175400 0.000000
-5.162100 0.000000
-5.148700 0.000000
-5.135400 0.000000
-5.122000 0.000000
-5.108700 0.000000
-5.095300 0.000000
-5.082000 0.000000
-5.068600 0.000000
-5.055300 0.000000
-5.041900 0.000000
-5.028600 0.000000
-5.015300 0.000000
-5.001900 0.000000
-4.988600 0.000000
-4.975200 0.000000
-4.961900 0.000000
-4.948500 0.000000
-4.935200 0.000000
-4.921800 0.000000
-4.908500 0.000000
-4.895100 0.000000
-4.881800 0.000000
-4.868400 0.000000
-4.855100 0.000000
-4.841800 0.000000
-4.828400 0.000000
-4.815100 0.000000
-4.801700 0.000000
-4.788400 0.000000
-4.775000 0.000000
-4.761700 0.000000
-4.748300 0.000000
-4.735000 0.000000
-4.721600 0.000000
-4.708300 0.000000
-4.694900 0.000000
-4.681600 0.000000
-4.668200 0.000000
-4.654900 0.000000
-4.641600 0.000000
-4.628200 0.000000
-4.614900 0.000000
-4.601500 0.000000
-4.588200 0.000000
-4.574800 0.000000
-4.561500 0.000000
-4.548100 0.000000
-4.534800 0.000000
-4.521400 0.000000
-4.508100 0.000000
-4.494700 0.000000
-4.481400 0.000000
-4.468100 0.000000
-4.454700 0.000000
-4.441400 0.000000
-4.428000 0.000000
-4.414700 0.000000
-4.401300 0.000000
-4.388000 0.000000
-4.374600 0.000000
-4.361300 0.000000
-4.347900 0.000000
-4.334600 0.000000
-4.321200 0.000000
-4.307900 0.000000
-4.294500 0.000000
-4.281200 0.000000
-4.267900 0.000000
-4.254500 0.000000
-4.241200 0.000000
-4.227800 0.000000
-4.214500 0.000000
-4.201100 0.000000
-4.187800 0.000000
-4.174400 0.000000
-4.161100 0.000000
-4.147700 0.000000
-4.134400 0.000000
-4.121000 0.000000
-4.107700 0.000000
-4.094400 0.000000
-4.081000 0.000000
-4.067700 0.000000
-4.054300 0.000000
-4.041000 0.000000
-4.027600 0.000000
-4.014300 0.000000
-4.000900 0.000000
-3.987600 0.000000
-3.974200 0.000000
-3.960900 0.000000
-3.947500 0.000000
-3.934200 0.000000
-3.920800 0.000000
-3.907500 0.000000
-3.894200 0.000000
-3.880800 0.000000
-3.867500 0.000000
-3.854100 0.000000
-3.840800 0.000000
-3.827400 0.000000
-3.814100 0.000000
-3.800700 0.000000
-3.787400 0.000000
-3.774000 0.000000
-3.760700 0.000000
-3.747300 0.000000
-3.734000 0.000000
-3.720700 0.000000
-3.707300 0.000000
-3.694000 0.000000
-3.680600 0.000000
-3.667300 0.000000
-3.653900 0.000000
-3.640600 0.000000
-3.627200 0.000000
-3.613900 0.000000
-3.600500 0.000000
-3.587200 0.000000
-3.573800 0.000000
-3.560500 0.000000
-3.547100 0.000000
-3.533800 0.000000
-3.520500 0.000000
-3.507100 0.000000
-3.493800 0.000000
-3.480400 0.000000
-3.467100 0.000000
-3.453700 0.000000
-3.440400 0.000000
-3.427000 0.000000
-3.413700 0.000000
-3.400300 0.000000
-3.387000 0.000000
-3.373600 0.000000
-3.360300 0.000000
-3.347000 0.000000
-3.333600 0.000000
-3.320300 0.000000
-3.306900 0.000000
-3.293600 0.000000
-3.280200 0.000000
-3.266900 0.000000
-3.253500 0.000000
-3.240200 0.000000
-3.226800 0.000000
-3.213500 0.000000
-3.200100 0.000000
-3.186800 0.000000
-3.173400 0.000000
-3.160100 0.000000
-3.146800 0.000000
-3.133400 0.000000
-3.120100 0.000000
-3.106700 0.000000
-3.093400 0.000000
-3.080000 0.000000
-3.066700 0.000000
-3.053300 0.000000
-3.040000 0.000000
-3.026600 0.000000
-3.013300 0.000000
-2.999900 0.000000
-2.986600 0.000000
-2.973300 0.000000
-2.959900 0.000000
-2.946600 0.000000
-2.933200 0.000000
-2.919900 0.000000
-2.906500 0.000000
-2.893200 0.000000
-2.879800 0.000000
-2.866500 0.000000
-2.853100 0.000000
-2.839800 0.000000
-2.826400 0.000000
-2.813100 0.000000
-2.799700 0.000000
-2.786400 0.000000
-2.773100 0.000000
-2.759700 0.000000
-2.746400 0.000000
-2.733000 0.000000
-2.719700 0.000000
-2.706300 0.000000
-2.693000 0.000000
-2.679600 0.000000
-2.666300 0.000000
-2.652900 0.000000
-2.639600 0.000000
-2.626200 0.000000
-2.612900 0.000000
-2.599600 0.000000
-2.586200 0.000000
-2.572900 18.693400
-2.559500 9.929400
-2.546200 27.562200
-2.532800 26.820400
-2.519500 42.324300
-2.506100 35.986900
-2.492800 41.148600
-2.479400 42.825800
-2.466100 39.206700
-2.452700 34.358900
-2.439400 30.939300
-2.426000 30.297300
-2.412700 27.233000
-2.399400 24.209700
-2.386000 21.933000
-2.372700 19.634700
-2.359300 17.883100
-2.346000 16.213600
-2.332600 16.141300
-2.319300 16.068900
-2.305900 16.592800
-2.292600 17.532000
-2.279200 18.473600
-2.265900 23.470100
-2.252500 27.628500
-2.239200 24.417500
-2.225900 23.999500
-2.212500 26.980700
-2.199200 33.769400
-2.185800 7.783900
-2.172500 7.918500
-2.159100 8.053200
-2.145800 8.177400
-2.132400 8.091500
-2.119100 7.984900
-2.105700 7.862800
-2.092400 7.740600
-2.079000 7.618400
-2.065700 7.496200
-2.052300 12.326900
-2.039000 1.909700
-2.025700 1.860400
-2.012300 1.811200
-1.999000 1.762000
-1.985600 1.712700
-1.972300 4.591200
-1.958900 3.315300
-1.945600 2.039500
-1.932200 0.763600
-1.918900 0.000000
-1.905500 0.000000
-1.892200 0.000000
-1.878800 0.000000
-1.865500 0.000000
-1.852200 0.000000
-1.838800 0.000000
-1.825500 0.000000
-1.812100 0.000000
-1.798800 0.000000
-1.785400 0.000000
-1.772100 0.000000
-1.758700 0.000000
-1.745400 0.000000
-1.732000 0.000000
-1.718700 0.000000
-1.705300 0.000000
-1.692000 0.000000
-1.678600 0.000000
-1.665300 5.255800
-1.652000 3.755200
-1.638600 7.289600
-1.625300 5.774200
-1.611900 4.757400
-1.598600 11.409700
-1.585200 8.588600
-1.571900 10.288200
-1.558500 9.841300
-1.545200 9.394500
-1.531800 8.947600
-1.518500 15.597400
-1.505100 12.739900
-1.491800 17.289100
-1.478500 16.318300
-1.465100 15.347600
-1.451800 14.894600
-1.438400 15.464500
-1.425100 16.034300
-1.411700 16.604200
-1.398400 17.174100
-1.385000 17.743900
-1.371700 24.891100
-1.358300 16.343300
-1.345000 21.080000
-1.331600 14.340800
-1.318300 20.226700
-1.304900 12.531100
-1.291600 12.746200
-1.278300 17.805300
-1.264900 15.416300
-1.251600 13.027200
-1.238200 14.337200
-1.224900 8.721000
-1.211500 8.732200
-1.198200 20.685300
-1.184800 12.101400
-1.171500 6.424700
-1.158100 6.344200
-1.144800 6.833300
-1.131400 6.792700
-1.118100 6.754100
-1.104800 7.343900
-1.091400 7.974000
-1.078100 8.017200
-1.064700 8.066200
-1.051400 8.782300
-1.038000 8.870900
-1.024700 9.649200
-1.011300 10.417500
-0.998000 10.561100
-0.984600 10.704700
-0.971300 10.848300
-0.957900 10.989400
-0.944600 11.129000
-0.931200 11.261200
-0.917900 11.393400
-0.904600 11.525600
-0.891200 11.657800
-0.877900 11.785400
-0.864500 11.902700
-0.851200 12.020000
-0.837800 12.137300
-0.824500 12.254700
-0.811100 12.372000
-0.797800 12.489300
-0.784400 12.606600
-0.771100 12.723900
-0.757700 12.841200
-0.744400 13.764800
-0.731100 14.512300
-0.717700 16.030900
-0.704400 18.712400
-0.691000 19.291500
-0.677700 20.855700
-0.664300 21.514200
-0.651000 23.308900
-0.637600 24.688900
-0.624300 25.310800
-0.610900 25.566600
-0.597600 27.149800
-0.584200 26.168100
-0.570900 26.428200
-0.557500 26.688400
-0.544200 28.858700
-0.530900 29.462100
-0.517500 28.096900
-0.504200 28.167700
-0.490800 28.238500
-0.477500 27.116400
-0.464100 26.977300
-0.450800 26.678700
-0.437400 26.522100
-0.424100 26.476100
-0.410700 26.509500
-0.397400 26.680200
-0.384000 26.851000
-0.370700 27.177800
-0.357400 27.896700
-0.344000 27.899100
-0.330700 28.687500
-0.317300 29.493800
-0.304000 30.248400
-0.290600 30.211400
-0.277300 30.737300
-0.263900 30.541500
-0.250600 28.011000
-0.237200 28.142100
-0.223900 28.464700
-0.210500 27.325300
-0.197200 24.203700
-0.183800 22.166400
-0.170500 37.956200
-0.157200 21.021700
-0.143800 20.380100
-0.130500 19.838600
-0.117100 19.297000
-0.103800 18.755500
-0.090400 19.298800
-0.077100 18.574600
-0.063700 17.850500
-0.050400 17.202200
-0.037000 16.566700
-0.023700 15.890600
-0.010300 15.214600
0.003000 14.538500
0.016300 13.904300
0.029700 13.290100
0.043000 12.734500
0.056400 12.220200
0.069700 11.936900
0.083100 11.743900
0.096400 11.601900
0.109800 12.371300
0.123100 12.452600
0.136500 12.533100
0.149800 12.704900
0.163200 12.785300
0.176500 12.954600
0.189900 13.034100
0.203200 14.508400
0.216500 16.077200
0.229900 16.755500
0.243200 17.433800
0.256600 18.112100
0.269900 21.292500
0.283300 22.876700
0.296600 23.169800
0.310000 23.462800
0.323300 23.181300
0.336700 24.507200
0.350000 25.879000
0.363400 27.671400
0.376700 28.028200
0.390000 32.647700
0.403400 35.514700
0.416700 37.945800
0.430100 46.375000
0.443400 45.734800
0.456800 45.897000
0.470100 47.161800
0.483500 48.199700
0.496800 53.643100
0.510200 52.476800
0.523500 61.061900
0.536900 65.395300
0.550200 38.167700
0.563600 38.956400
0.576900 46.787900
0.590200 49.192700
0.603600 37.377300
0.616900 30.989200
0.630300 31.040500
0.643600 40.311900
0.657000 37.859300
0.670300 50.938600
0.683700 43.847300
0.697000 48.525000
0.710400 55.065200
0.723700 48.747900
0.737100 48.926100
0.750400 46.253700
0.763700 42.808200
0.777100 41.271300
0.790400 39.231300
0.803800 37.298100
0.817100 34.111100
0.830500 30.092800
0.843800 28.072500
0.857200 24.209700
0.870500 21.875200
0.883900 19.552900
0.897200 17.262000
0.910600 19.355800
0.923900 19.770600
0.937300 13.489100
0.950600 15.655000
0.963900 8.998200
0.977300 12.588700
0.990600 0.000000
1.004000 0.000000
1.017300 0.000000
1.030700 0.000000
1.044000 0.000000
1.057400 0.000000
1.070700 0.000000
1.084100 0.000000
1.097400 0.000000
1.110800 0.000000
1.124100 0.000000
1.137400 0.000000
1.150800 0.000000
1.164100 0.000000
1.177500 0.000000
1.190800 0.000000
1.204200 0.000000
1.217500 0.000000
1.230900 0.000000
1.244200 0.000000
1.257600 0.000000
1.270900 0.000000
1.284300 0.000000
1.297600 0.000000
1.311000 0.000000
1.324300 0.000000
1.337600 0.000000
1.351000 0.000000
1.364300 0.000000
1.377700 0.000000
1.391000 0.000000
1.404400 0.000000
1.417700 0.000000
1.431100 0.000000
1.444400 0.000000
1.457800 0.000000
1.471100 0.000000
1.484500 0.000000
1.497800 0.000000
1.511100 0.000000
1.524500 0.000000
1.537800 0.000000
1.551200 0.000000
1.564500 0.000000
1.577900 0.000000
1.591200 0.000000
1.604600 0.000000
1.617900 0.000000
1.631300 0.000000
1.644600 0.000000
1.658000 0.000000
1.671300 0.000000
1.684700 0.000000
1.698000 0.000000
1.711300 0.000000
1.724700 0.000000
1.738000 0.000000
1.751400 0.000000
1.764700 0.000000
1.778100 0.000000
1.791400 0.000000
1.804800 0.000000
1.818100 0.000000
1.831500 0.000000
1.844800 0.000000
1.858200 0.000000
1.871500 0.000000
1.884800 0.000000
1.898200 0.000000
1.911500 0.000000
1.924900 0.000000
1.938200 0.000000
1.951600 0.000000
1.964900 0.000000
1.978300 0.000000
1.991600 0.000000
2.005000 0.000000
2.018300 0.000000
2.031700 0.000000
2.045000 0.000000
2.058400 0.000000
2.071700 0.000000
2.085000 0.000000
2.098400 0.000000
2.111700 0.000000
2.125100 0.000000
2.138400 0.000000
2.151800 0.000000
2.165100 0.000000
2.178500 0.000000
2.191800 0.000000
2.205200 0.000000
2.218500 0.000000
2.231900 0.000000
2.245200 0.000000
2.258500 0.000000
2.271900 0.000000
2.285200 0.000000
2.298600 0.000000
2.311900 0.000000
2.325300 0.000000
2.338600 0.000000
2.352000 0.000000
2.365300 0.000000
2.378700 0.000000
2.392000 0.000000
2.405400 0.000000
2.418700 0.000000
2.432100 0.000000
2.445400 0.000000
2.458700 0.000000
2.472100 0.000000
2.485400 0.000000
2.498800 0.000000
2.512100 0.000000
2.525500 0.000000
2.538800 0.000000
2.552200 0.000000
2.565500 0.000000
2.578900 0.000000
2.592200 0.000000
2.605600 0.000000
2.618900 0.000000
2.632200 0.000000
2.645600 0.000000
2.658900 0.000000
2.672300 0.000000
2.685600 0.000000
2.699000 0.000000
2.712300 0.000000
2.725700 0.000000
2.739000 0.000000
2.752400 0.000000
2.765700 0.000000
2.779100 0.000000
2.792400 0.000000
2.805800 0.000000
2.819100 0.000000
2.832400 0.000000
2.845800 0.000000
2.859100 0.000000
2.872500 0.000000
2.885800 0.000000
2.899200 0.000000
2.912500 0.000000
2.925900 0.000000
2.939200 0.000000
2.952600 0.000000
2.965900 0.000000
2.979300 0.000000
2.992600 0.000000
3.005900 0.000000
3.019300 0.000000
3.032600 0.000000
3.046000 0.000000
3.059300 0.000000
3.072700 0.000000
3.086000 0.000000
3.099400 0.000000
3.112700 0.000000
3.126100 0.000000
3.139400 0.000000
3.152800 0.000000
3.166100 0.000000
3.179500 0.000000
3.192800 0.000000
3.206100 0.000000
3.219500 0.000000
3.232800 0.000000
3.246200 0.000000
3.259500 0.000000
3.272900 0.000000
3.286200 0.000000
3.299600 0.000000
3.312900 0.000000
3.326300 0.000000
3.339600 0.000000
3.353000 0.000000
3.366300 0.000000
3.379600 0.000000
3.393000 0.000000
3.406300 0.006000
3.419700 0.015700
3.433000 1.694100
3.446400 1.781600
3.459700 1.869100
3.473100 1.956500
3.486400 2.044000
3.499800 2.131500
3.513100 3.243300
3.526500 3.370900
3.539800 4.589200
3.553200 4.742800
3.566500 4.896400
3.579800 5.050000
3.593200 6.658800
3.606500 6.821500
3.619900 8.324100
3.633200 8.534400
3.646600 8.744700
3.659900 8.954900
3.673300 9.165200
3.686600 9.375500
3.700000 9.585700
3.713300 9.890400
3.726700 10.295300
3.740000 10.700200
3.753300 11.172200
3.766700 11.936700
3.780000 12.759800
3.793400 13.582900
3.806700 14.432900
3.820100 15.307400
3.833400 16.181800
3.846800 17.056200
3.860100 18.001500
3.873500 19.058200
3.886800 20.115000
3.900200 17.849200
3.913500 18.853600
3.926900 29.102900
3.940200 23.151900
3.953500 21.548400
3.966900 21.182300
3.980200 21.130800
3.993600 20.361200
4.006900 25.652700
4.020300 26.249000
4.033600 23.811000
4.047000 24.523200
4.060300 23.128200
4.073700 22.119000
4.087000 21.083700
4.100400 21.040000
4.113700 19.292900
4.127000 18.267500
4.140400 17.095800
4.153700 15.924000
4.167100 14.350300
4.180400 13.571700
4.193800 12.793200
4.207100 12.107000
4.220500 11.517500
4.233800 13.264400
4.247200 10.093900
4.260500 7.401900
4.273900 13.148200
4.287200 3.904900
4.300600 4.716600
4.313900 5.528200
4.327200 6.339900
4.340600 0.000000
4.353900 0.000000
4.367300 0.000000
4.380600 0.000000
4.394000 0.000000
4.407300 0.000000
4.420700 0.000000
4.434000 0.000000
4.447400 0.000000
4.460700 0.000000
4.474100 0.000000
4.487400 0.000000
4.500700 0.000000
4.514100 0.000000
4.527400 0.000000
4.540800 0.000000
4.554100 0.000000
4.567500 0.000000
4.580800 0.000000
4.594200 0.000000
4.607500 0.000000
4.620900 0.000000
4.634200 0.000000
4.647600 0.000000
4.660900 0.000000
4.674300 0.000000
4.687600 0.000000
4.700900 0.000000
4.714300 0.000000
4.727600 0.000000
4.741000 0.000000
4.754300 0.000000
4.767700 0.000000
4.781000 0.000000
4.794400 0.000000
4.807700 0.000000
4.821100 0.000000
4.834400 0.000000
4.847800 0.000000
4.861100 0.000000
4.874400 0.000000
4.887800 0.000000
4.901100 0.000000
4.914500 0.000000
4.927800 0.000000
4.941200 0.000000
4.954500 0.000000
4.967900 0.000000
4.981200 0.000000
4.994600 0.000000
5.007900 0.000000
5.021300 0.000000
5.034600 0.000000
5.048000 0.000000
5.061300 0.000000
5.074600 0.000000
5.088000 0.000000
5.101300 0.000000
5.114700 0.000000
5.128000 0.000000
5.141400 0.000000
5.154700 0.000000
5.168100 0.000000
5.181400 0.000000
5.194800 0.000000
5.208100 0.000000
5.221500 0.000000
5.234800 0.000000
5.248100 0.000000
5.261500 0.000000
5.274800 0.000000
5.288200 0.000000
5.301500 0.000000
5.314900 0.000000
5.328200 0.000000
5.341600 0.000000
5.354900 0.000000
5.368300 0.000000
5.381600 0.000000
5.395000 0.000000
5.408300 0.000000
5.421700 0.000000
5.435000 0.000000
5.448300 0.000000
5.461700 0.000000
5.475000 0.000000
5.488400 0.002500
5.501700 0.020500
5.515100 0.070000
5.528400 0.126900
5.541800 0.183800
5.555100 0.240700
5.568500 0.297600
5.581800 0.354500
5.595200 0.411400
5.608500 0.468300
5.621800 0.525200
5.635200 0.582200
5.648500 0.639100
5.661900 0.696000
5.675200 0.752900
5.688600 0.809800
5.701900 0.866700
5.715300 0.923600
5.728600 0.980500
5.742000 1.037400
5.755300 1.094300
5.768700 1.151200
5.782000 1.208100
5.795400 1.265000
5.808700 1.321900
5.822000 1.378800
5.835400 1.435700
5.848700 1.492600
5.862100 1.549500
5.875400 1.606400
5.888800 1.663300
5.902100 1.720200
5.915500 1.777100
5.928800 1.834000
5.942200 1.890900
5.955500 1.947800
5.968900 2.004700
5.982200 2.074700
5.995500 3.612000
6.008900 4.543600
6.022200 4.880900
6.035600 5.995700
6.048900 7.085600
6.062300 8.471300
6.075600 8.688200
6.089000 8.895800
6.102300 9.103400
6.115700 9.392700
6.129000 10.260800
6.142400 10.650300
6.155700 11.109000
6.169100 11.518200
6.182400 12.240700
6.195700 12.432700
6.209100 12.624600
6.222400 12.816600
6.235800 13.008500
6.249100 13.688900
6.262500 13.743100
6.275800 13.797300
6.289200 13.851500
6.302500 13.905700
6.315900 13.959900
6.329200 14.014100
6.342600 14.068300
6.355900 14.122500
6.369200 14.176700
6.382600 14.230900
6.395900 17.839500
6.409300 17.736500
6.422600 17.633500
6.436000 17.151600
6.449300 19.986000
6.462700 18.881000
6.476000 17.723100
6.489400 16.761000
6.502700 16.113300
6.516100 15.465600
6.529400 14.664100
6.542800 13.988600
6.556100 14.947600
6.569400 19.031000
6.582800 15.412800
6.596100 13.388900
6.609500 12.937300
6.622800 12.485700
6.636200 12.034200
6.649500 11.582600
6.662900 11.315400
6.676200 12.309500
6.689600 13.413800
6.702900 14.518100
6.716300 12.219000
6.729600 10.791700
6.742900 10.827200
6.756300 10.862800
6.769600 8.863000
6.783000 10.989400
6.796300 10.649800
6.809700 12.878900
6.823000 12.390300
6.836400 11.901800
6.849700 11.413200
6.863100 10.924600
6.876400 10.436100
6.889800 9.648600
6.903100 9.161000
6.916500 7.789300
6.929800 7.714800
6.943100 7.702100
6.956500 7.689400
6.969800 11.227000
6.983200 10.858200
6.996500 10.489500
7.009900 10.120700
7.023200 18.453700
7.036600 15.345600
7.049900 12.378800
7.063300 13.655400
7.076600 15.096300
7.090000 15.976900
7.103300 20.020200
7.116600 18.181400
7.130000 17.026900
7.143300 27.297600
7.156700 25.732500
7.170000 24.167400
7.183400 46.225300
7.196700 25.267700
7.210100 19.126800
7.223400 19.544700
7.236800 15.964500
7.250100 15.696000
7.263500 15.616900
7.276800 15.798100
7.290200 16.175800
7.303500 16.793500
7.316800 17.533600
7.330200 18.410700
7.343500 19.530700
7.356900 23.196600
7.370200 21.844100
7.383600 20.491700
7.396900 19.139300
7.410300 16.860700
7.423600 19.213700
7.437000 30.871500
7.450300 21.430200
7.463700 22.087100
7.477000 22.640600
7.490300 24.117600
7.503700 25.504500
7.517000 28.067300
7.530400 28.635200
7.543700 27.297300
7.557100 27.864300
7.570400 30.494500
7.583800 26.956900
7.597100 26.538800
7.610500 26.120700
7.623800 24.832200
7.637200 23.233300
7.650500 24.698300
7.663900 30.177600
7.677200 70.344700
7.690500 29.386800
7.703900 29.032500
7.717200 29.015800
7.730600 24.977200
7.743900 24.286800
7.757300 31.598500
7.770600 39.004400
7.784000 30.573800
7.797300 35.958100
7.810700 30.665100
7.824000 25.626700
7.837400 23.400900
7.850700 23.461900
7.864000 23.547800
7.877400 24.602900
7.890700 25.696300
7.904100 19.056300
7.917400 17.000600
7.930800 15.435700
7.944100 14.174200
7.957500 17.423900
7.970800 19.058800
7.984200 23.241100
7.997500 24.180900
8.010900 25.120700
8.024200 25.734900
8.037600 24.683200
8.050900 22.716000
8.064200 20.990700
8.077600 20.465800
8.090900 23.311100
8.104300 22.912600
8.117600 22.514000
8.131000 22.115500
8.144300 21.717000
8.157700 27.479500
8.171000 25.774500
8.184400 24.343300
8.197700 27.221400
8.211100 30.510100
8.224400 27.385100
8.237700 24.127100
8.251100 22.147900
8.264400 24.751600
8.277800 22.795100
8.291100 21.423300
8.304500 19.635000
8.317800 21.246700
8.331200 18.260100
8.344500 16.117900
8.357900 12.309300
8.371200 10.922500
8.384600 9.535600
8.397900 8.848000
8.411300 8.649300
8.424600 8.450500
8.437900 8.251800
8.451300 8.053100
8.464600 7.854300
8.478000 7.121700
8.491300 6.810700
8.504700 6.568300
8.518000 6.325900
8.531400 6.083500
8.544700 5.841100
8.558100 5.675800
8.571400 5.678700
8.584800 5.681500
8.598100 5.684300
8.611400 5.687100
8.624800 5.264000
8.638100 5.300800
8.651500 5.337600
8.664800 5.374400
8.678200 5.424400
8.691500 5.065100
8.704900 5.256700
8.718200 4.979600
8.731600 6.541100
8.744900 8.088800
8.758300 9.636400
8.771600 4.843400
8.785000 5.006500
8.798300 5.169600
8.811600 5.332600
8.825000 5.126400
8.838300 6.226600
8.851700 10.698400
8.865000 10.618000
8.878400 10.939300
8.891700 9.798800
8.905100 10.728500
8.918400 11.122500
8.931800 10.874900
8.945100 10.627300
8.958500 10.379700
8.971800 10.602600
8.985100 10.209200
8.998500 9.815700
9.011800 9.995500
9.025200 10.921300
9.038500 10.220300
9.051900 9.519400
9.065200 9.434500
9.078600 8.934000
9.091900 8.433400
9.105300 8.786000
9.118600 8.341100
9.132000 10.820600
9.145300 20.658600
9.158700 18.404600
9.172000 23.118000
9.185300 20.760200
9.198700 20.245000
9.212000 23.919500
9.225400 23.935200
9.238700 22.444100
9.252100 22.256100
9.265400 17.452300
9.278800 19.280900
9.292100 20.795200
9.305500 22.309500
9.318800 20.722300
9.332200 13.389300
9.345500 13.537500
9.358800 27.156600
9.372200 23.127800
9.385500 19.375100
9.398900 20.197100
9.412200 22.209000
9.425600 20.979800
9.438900 21.146500
9.452300 21.473500
9.465600 21.800500
9.479000 19.526200
9.492300 18.946400
9.505700 18.779200
9.519000 16.094100
9.532400 15.704700
9.545700 15.439000
9.559000 15.218300
9.572400 15.453700
9.585700 19.283900
9.599100 22.620600
9.612400 21.068300
9.625800 19.516000
9.639100 21.806800
9.652500 24.829400
9.665800 21.299600
9.679200 20.975500
9.692500 20.673200
9.705900 20.405500
9.719200 20.153200
9.732500 18.473500
9.745900 18.223400
9.759200 18.046800
9.772600 18.068400
9.785900 18.140500
9.799300 17.985000
9.812600 21.531600
9.826000 28.268600
9.839300 16.601900
9.852700 17.392000
9.866000 15.986100
9.879400 17.048300
9.892700 18.804900
9.906100 20.561500
9.919400 22.396300
9.932700 22.550200
9.946100 24.729000
9.959400 26.907800
9.972800 22.554300
9.986100 20.942600
9.999500 29.518200
10.012800 19.317800
10.026200 17.066700
10.039500 17.907000
10.052900 18.815200
10.066200 19.723400
10.079600 16.603200
10.092900 17.067600
10.106200 42.966800
10.119600 13.853500
10.132900 13.806500
10.146300 14.372800
10.159600 14.940500
10.173000 15.508200
10.186300 16.075900
10.199700 12.522900
10.213000 12.495800
10.226400 12.468600
10.239700 13.871500
10.253100 16.631600
10.266400 17.984300
10.279800 14.110400
10.293100 15.028800
10.306400 15.260700
10.319800 15.492500
10.333100 15.724300
10.346500 15.956100
10.359800 12.870600
10.373200 12.711600
10.386500 12.579900
10.399900 12.815400
10.413200 13.314400
10.426600 13.813500
10.439900 14.312600
10.453300 14.822900
10.466600 11.739500
10.479900 12.184500
10.493300 12.629400
10.506600 13.074400
10.520000 13.519300
10.533300 13.968400
10.546700 14.438400
10.560000 14.930300
10.573400 11.167600
10.586700 11.098000
10.600100 11.028400
10.613400 10.964200
10.626800 10.907200
10.640100 10.850300
10.653500 10.793400
10.666800 10.736500
10.680100 10.684600
10.693500 10.639400
10.706800 10.600500
10.720200 10.578800
10.733500 9.171400
10.746900 9.098300
10.760200 9.034700
10.773600 8.958800
10.786900 70.671500
10.800300 10.674800
10.813600 11.696800
10.827000 11.648400
10.840300 11.605600
10.853600 11.576400
10.867000 11.649700
10.880300 11.844600
10.893700 12.005800
10.907000 12.151200
10.920400 12.173700
10.933700 12.065900
10.947100 12.003400
10.960400 11.861600
10.973800 16.015100
10.987100 16.041300
11.000500 16.067500
11.013800 16.093700
11.027200 16.119900
11.040500 16.504900
11.053800 17.668800
11.067200 17.313100
11.080500 16.957400
11.093900 16.612900
11.107200 16.273900
11.120600 16.516000
11.133900 16.282200
11.147300 16.048400
11.160600 15.814600
11.174000 18.211300
11.187300 17.713100
11.200700 17.214900
11.214000 18.175600
11.227300 17.672100
11.240700 17.185100
11.254000 17.310300
11.267400 16.849400
11.280700 16.432800
11.294100 17.883800
11.307400 17.210100
11.320800 16.617400
11.334100 16.658400
11.347500 16.139100
11.360800 15.638200
11.374200 15.436700
11.387500 15.285300
11.400900 15.134000
11.414200 14.938600
11.427500 19.459800
11.440900 14.641200
11.454200 14.373000
11.467600 14.115900
11.480900 13.495100
11.494300 13.243800
11.507600 22.812200
11.521000 16.573800
11.534300 15.932400
11.547700 15.964100
11.561000 37.117700
11.574400 19.909900
11.587700 20.390700
11.601000 21.148500
11.614400 18.973600
11.627700 17.238600
11.641100 17.467200
11.654400 17.315900
11.667800 15.563200
11.681100 15.649300
11.694500 15.742600
11.707800 15.856600
11.721200 15.983000
11.734500 16.113900
11.747900 14.766000
11.761200 14.976300
11.774600 16.295300
11.787900 18.333900
11.801200 20.357100
11.814600 22.142800
11.827900 17.102200
11.841300 16.182800
11.854600 16.279500
11.868000 16.376200
11.881300 14.555400
11.894700 14.752200
11.908000 15.337000
11.921400 15.631100
11.934700 16.020400
11.948100 16.312000
11.961400 16.603500
11.974700 17.134100
11.988100 17.664500
12.001400 18.062800
12.014800 18.645500
12.028100 18.558700
12.041500 19.626300
12.054800 20.693800
12.068200 17.562800
12.081500 14.776800
12.094900 16.084500
12.108200 16.223200
12.121600 15.852100
12.134900 16.776500
12.148300 18.165500
12.161600 19.158300
12.174900 16.960500
12.188300 16.884800
12.201600 16.809000
12.215000 17.186700
12.228300 16.005800
12.241700 16.454400
12.255000 16.903000
12.268400 17.351600
12.281700 17.770800
12.295100 20.631800
12.308400 20.454900
12.321800 18.987900
12.335100 19.175800
12.348400 21.053700
12.361800 22.004500
12.375100 20.667400
12.388500 19.330300
12.401800 18.145900
12.415200 18.339500
12.428500 18.107900
12.441900 16.508300
12.455200 15.390100
12.468600 14.324400
12.481900 13.677400
12.495300 13.608300
12.508600 14.420000
12.522000 13.519600
12.535300 13.130000
12.548600 12.802000
12.562000 12.474000
12.575300 12.146000
12.588700 12.456500
12.602000 12.145100
12.615400 11.833800
12.628700 11.522500
12.642100 11.211200
12.655400 10.899800
12.668800 10.588500
12.682100 10.277200
12.695500 10.132900
12.708800 10.026100
12.722100 12.364600
12.735500 12.566100
12.748800 12.823500
12.762200 13.265100
12.775500 13.706700
12.788900 14.148300
12.802200 14.589900
12.815600 11.323100
12.828900 18.644700
12.842300 21.906000
12.855600 11.918900
12.869000 9.663700
12.882300 11.318100
12.895700 11.487900
12.909000 15.097800
12.922300 14.889300
12.935700 13.292600
12.949000 11.099300
12.962400 8.905900
12.975700 7.317500
12.989100 7.128800
13.002400 6.940100
13.015800 14.245900
13.029100 11.071200
13.042500 10.802300
13.055800 10.142000
13.069200 9.481700
13.082500 8.821300
13.095800 8.161000
13.109200 66.353400
13.122500 13.160800
13.135900 11.592600
13.149200 10.024400
13.162600 8.654800
13.175900 8.731900
13.189300 9.586600
13.202600 10.441200
13.216000 11.295800
13.229300 7.548700
13.242700 7.159000
13.256000 6.769400
13.269400 6.379800
13.282700 5.990200
13.296000 5.600600
13.309400 4.504700
13.322700 4.273400
13.336100 4.042100
13.349400 3.810700
13.362800 3.579400
13.376100 3.348100
13.389500 3.116800
13.402800 1.816300
13.416200 1.704400
13.429500 1.592500
13.442900 1.480700
13.456200 1.368800
13.469500 1.256900
13.482900 0.000000
13.496200 0.000000
13.509600 0.000000
13.522900 0.000000
13.536300 0.000000
13.549600 0.000000
13.563000 0.000000
13.576300 0.000000
13.589700 0.000000
13.603000 0.000000
13.616400 0.000000
13.629700 0.000000
13.643100 0.000000
13.656400 0.000000
13.669700 0.000000
13.683100 0.000000
13.696400 0.000000
13.709800 0.000000
13.723100 0.000000
13.736500 0.000000
13.749800 0.000000
13.763200 0.000000
13.776500 0.000000
13.789900 0.000000
13.803200 0.000000
13.816600 0.000000
13.829900 0.000000
13.843200 0.000000
13.856600 0.000000
13.869900 0.000000
13.883300 0.000000
13.896600 0.000000
13.910000 0.000000
13.923300 0.000000
13.936700 0.000000
13.950000 0.000000
13.963400 0.000000
13.976700 0.000000
13.990100 0.000000
14.003400 0.000000
14.016800 0.000000
14.030100 0.000000
14.043400 0.000000
14.056800 0.000000
14.070100 0.000000
14.083500 0.000000
14.096800 0.000000
14.110200 0.000000
14.123500 0.000000
14.136900 0.000000
14.150200 0.000000
14.163600 0.000000
14.176900 0.000000
14.190300 0.000000
14.203600 0.000000
14.216900 0.000000
14.230300 0.000000
14.243600 0.000000
14.257000 0.000000
14.270300 0.000000
14.283700 0.000000
14.297000 0.000000
14.310400 0.000000
14.323700 0.000000
14.337100 0.000000
14.350400 0.000000
14.363800 0.000000
14.377100 0.000000
14.390500 0.000000
14.403800 0.000000
14.417100 0.000000
14.430500 0.000000
14.443800 0.000000
14.457200 0.000000
14.470500 0.000000
14.483900 0.000000
14.497200 0.000000
14.510600 0.000000
14.523900 0.000000
14.537300 0.000000
14.550600 0.000000
14.564000 0.000000
14.577300 0.000000
14.590600 0.000000
14.604000 0.000000
14.617300 0.000000
14.630700 0.000000
14.644000 0.000000
14.657400 0.000000
14.670700 0.000000
14.684100 0.000000
e
