set title 'mp-13066 - Density of States'
set xlabel 'Energy (eV)'
set ylabel 'DOS (states/eV)'
set grid
set xrange [-10:10]
set yrange [0:14.341]
set xzeroaxis lt -1
set terminal png size 800,600
set output 'mp-13066_dos_gnuplot.png'
plot '-' using 1:2 with lines title 'DOS'
-23.056100 0.000000
-23.027200 0.000000
-22.998300 0.000000
-22.969400 0.000000
-22.940500 0.000000
-22.911600 0.000000
-22.882700 0.000000
-22.853800 0.000000
-22.824900 0.000000
-22.796000 0.000000
-22.767100 0.000000
-22.738200 0.000000
-22.709200 0.000000
-22.680300 0.000000
-22.651400 0.000000
-22.622500 0.000000
-22.593600 0.000000
-22.564700 0.000000
-22.535800 0.000000
-22.506900 0.000000
-22.478000 0.000000
-22.449100 0.000000
-22.420200 0.000000
-22.391300 0.000000
-22.362400 0.000000
-22.333400 0.000000
-22.304500 0.000000
-22.275600 0.000000
-22.246700 0.000000
-22.217800 0.000000
-22.188900 0.000000
-22.160000 0.000000
-22.131100 0.000000
-22.102200 0.000000
-22.073300 0.000000
-22.044400 0.000000
-22.015500 0.000000
-21.986500 0.000000
-21.957600 0.000000
-21.928700 0.000000
-21.899800 0.000000
-21.870900 0.000000
-21.842000 0.000000
-21.813100 0.000000
-21.784200 0.000000
-21.755300 0.000000
-21.726400 0.000000
-21.697500 0.000000
-21.668600 0.000000
-21.639700 0.000000
-21.610700 0.000000
-21.581800 0.000000
-21.552900 0.000000
-21.524000 0.000000
-21.495100 0.000000
-21.466200 0.000000
-21.437300 0.000000
-21.408400 0.000000
-21.379500 0.000000
-21.350600 0.000000
-21.321700 0.000000
-21.292800 0.000000
-21.263800 0.000000
-21.234900 0.000000
-21.206000 0.000000
-21.177100 0.000000
-21.148200 0.000000
-21.119300 0.000000
-21.090400 0.000000
-21.061500 0.000000
-21.032600 0.000000
-21.003700 0.000000
-20.974800 0.000000
-20.945900 0.000000
-20.916900 0.000000
-20.888000 0.000000
-20.859100 0.000000
-20.830200 0.000000
-20.801300 0.000000
-20.772400 0.000000
-20.743500 0.000000
-20.714600 0.000000
-20.685700 0.000000
-20.656800 0.000000
-20.627900 0.000000
-20.599000 0.000000
-20.570100 0.000000
-20.541100 0.000000
-20.512200 0.000000
-20.483300 0.000000
-20.454400 0.000000
-20.425500 0.089500
-20.396600 1.634700
-20.367700 3.843200
-20.338800 6.053000
-20.309900 8.216600
-20.281000 10.019300
-20.252100 18.121200
-20.223200 20.935900
-20.194200 21.864600
-20.165300 7.787100
-20.136400 5.898900
-20.107500 4.634100
-20.078600 3.197000
-20.049700 2.419200
-20.020800 2.035500
-19.991900 1.954600
-19.963000 1.874600
-19.934100 1.804000
-19.905200 1.743400
-19.876300 1.672800
-19.847300 1.567200
-19.818400 5.161200
-19.789500 8.410200
-19.760600 10.990500
-19.731700 10.903600
-19.702800 9.136000
-19.673900 11.144100
-19.645000 19.251800
-19.616100 20.128600
-19.587200 17.476100
-19.558300 30.933800
-19.529400 32.990200
-19.500500 39.621600
-19.471500 29.615200
-19.442600 23.583100
-19.413700 11.359300
-19.384800 6.508500
-19.355900 0.000000
-19.327000 0.000000
-19.298100 0.000000
-19.269200 0.000000
-19.240300 0.000000
-19.211400 0.000000
-19.182500 0.000000
-19.153600 0.000000
-19.124600 0.000000
-19.095700 0.000000
-19.066800 0.000000
-19.037900 0.000000
-19.009000 0.000000
-18.980100 0.000000
-18.951200 0.000000
-18.922300 0.000000
-18.893400 0.000000
-18.864500 0.000000
-18.835600 0.000000
-18.806700 0.000000
-18.777800 0.000000
-18.748800 0.000000
-18.719900 0.000000
-18.691000 0.000000
-18.662100 0.000000
-18.633200 0.000000
-18.604300 0.000000
-18.575400 0.000000
-18.546500 0.000000
-18.517600 0.000000
-18.488700 0.000000
-18.459800 0.000000
-18.430900 0.000000
-18.401900 0.000000
-18.373000 0.000000
-18.344100 0.000000
-18.315200 0.000000
-18.286300 0.000000
-18.257400 0.000000
-18.228500 0.000000
-18.199600 0.000000
-18.170700 0.000000
-18.141800 0.000000
-18.112900 0.000000
-18.084000 0.000000
-18.055000 0.000000
-18.026100 0.000000
-17.997200 0.000000
-17.968300 0.000000
-17.939400 0.000000
-17.910500 0.000000
-17.881600 0.000000
-17.852700 0.000000
-17.823800 0.000000
-17.794900 0.000000
-17.766000 0.000000
-17.737100 0.000000
-17.708200 0.000000
-17.679200 0.000000
-17.650300 0.000000
-17.621400 0.000000
-17.592500 0.000000
-17.563600 0.000000
-17.534700 0.000000
-17.505800 0.000000
-17.476900 0.000000
-17.448000 0.000000
-17.419100 0.000000
-17.390200 0.000000
-17.361300 0.000000
-17.332300 0.000000
-17.303400 0.000000
-17.274500 0.000000
-17.245600 0.000000
-17.216700 0.000000
-17.187800 0.000000
-17.158900 0.000000
-17.130000 0.000000
-17.101100 0.000000
-17.072200 0.000000
-17.043300 0.000000
-17.014400 0.000000
-16.985500 0.000000
-16.956500 0.000000
-16.927600 0.000000
-16.898700 0.000000
-16.869800 0.000000
-16.840900 0.000000
-16.812000 0.000000
-16.783100 0.000000
-16.754200 0.000000
-16.725300 0.000000
-16.696400 0.000000
-16.667500 0.000000
-16.638600 0.000000
-16.609600 0.000000
-16.580700 0.000000
-16.551800 0.000000
-16.522900 0.000000
-16.494000 0.000000
-16.465100 0.000000
-16.436200 0.000000
-16.407300 0.000000
-16.378400 0.000000
-16.349500 0.000000
-16.320600 0.000000
-16.291700 0.000000
-16.262700 0.000000
-16.233800 0.000000
-16.204900 0.000000
-16.176000 0.000000
-16.147100 0.000000
-16.118200 0.000000
-16.089300 0.000000
-16.060400 0.000000
-16.031500 0.000000
-16.002600 0.000000
-15.973700 0.000000
-15.944800 0.000000
-15.915900 0.000000
-15.886900 0.000000
-15.858000 0.000000
-15.829100 0.000000
-15.800200 0.000000
-15.771300 0.000000
-15.742400 0.000000
-15.713500 0.000000
-15.684600 0.000000
-15.655700 0.000000
-15.626800 0.000000
-15.597900 0.000000
-15.569000 0.000000
-15.540000 0.000000
-15.511100 0.000000
-15.482200 0.000000
-15.453300 0.000000
-15.424400 0.000000
-15.395500 0.000000
-15.366600 0.000000
-15.337700 0.000000
-15.308800 0.000000
-15.279900 0.000000
-15.251000 0.000000
-15.222100 0.000000
-15.193100 0.000000
-15.164200 0.000000
-15.135300 0.000000
-15.106400 0.000000
-15.077500 0.000000
-15.048600 0.000000
-15.019700 0.000000
-14.990800 0.000000
-14.961900 0.000000
-14.933000 0.000000
-14.904100 0.000000
-14.875200 0.000000
-14.846300 0.000000
-14.817300 0.000000
-14.788400 0.000000
-14.759500 0.000000
-14.730600 0.000000
-14.701700 0.000000
-14.672800 0.000000
-14.643900 0.000000
-14.615000 0.000000
-14.586100 0.000000
-14.557200 0.000000
-14.528300 0.000000
-14.499400 0.000000
-14.470400 0.000000
-14.441500 0.000000
-14.412600 0.000000
-14.383700 0.003200
-14.354800 0.016800
-14.325900 0.041200
-14.297000 0.076400
-14.268100 0.121800
-14.239200 0.175100
-14.210300 0.236100
-14.181400 0.304800
-14.152500 0.334200
-14.123600 0.358600
-14.094600 0.378300
-14.065700 0.407000
-14.036800 0.452300
-14.007900 0.521600
-13.979000 0.590400
-13.950100 0.652200
-13.921200 0.707100
-13.892300 0.755000
-13.863400 0.796000
-13.834500 0.783400
-13.805600 0.874600
-13.776700 1.060900
-13.747700 1.403300
-13.718800 1.788500
-13.689900 2.124300
-13.661000 2.242300
-13.632100 2.189500
-13.603200 2.374000
-13.574300 2.672600
-13.545400 3.719200
-13.516500 4.875000
-13.487600 5.690300
-13.458700 6.160700
-13.429800 6.506100
-13.400800 6.885900
-13.371900 7.540100
-13.343000 6.234600
-13.314100 5.494500
-13.285200 5.397800
-13.256300 5.434800
-13.227400 6.098200
-13.198500 7.943100
-13.169600 7.858400
-13.140700 7.568800
-13.111800 6.931000
-13.082900 7.907800
-13.054000 6.238400
-13.025000 6.306200
-12.996100 5.724600
-12.967200 7.073300
-12.938300 8.143300
-12.909400 8.855600
-12.880500 6.929800
-12.851600 5.917100
-12.822700 5.143700
-12.793800 4.574700
-12.764900 3.840400
-12.736000 3.097500
-12.707100 1.474500
-12.678100 0.544800
-12.649200 0.055800
-12.620300 0.000000
-12.591400 0.000000
-12.562500 0.000000
-12.533600 0.000000
-12.504700 0.000000
-12.475800 0.000000
-12.446900 0.000000
-12.418000 0.000000
-12.389100 0.000000
-12.360200 0.000000
-12.331300 0.000000
-12.302300 0.000000
-12.273400 0.000000
-12.244500 0.000000
-12.215600 0.000000
-12.186700 0.000000
-12.157800 0.000000
-12.128900 0.000000
-12.100000 0.000000
-12.071100 0.000000
-12.042200 0.000000
-12.013300 0.000000
-11.984400 0.000000
-11.955400 0.000000
-11.926500 0.000000
-11.897600 0.000000
-11.868700 0.000000
-11.839800 0.000000
-11.810900 0.000000
-11.782000 0.000000
-11.753100 0.000000
-11.724200 0.000000
-11.695300 0.000000
-11.666400 0.000000
-11.637500 0.000000
-11.608500 0.000000
-11.579600 0.000000
-11.550700 0.000000
-11.521800 0.000000
-11.492900 0.000000
-11.464000 0.000000
-11.435100 0.000000
-11.406200 0.000000
-11.377300 0.000000
-11.348400 0.000000
-11.319500 0.000000
-11.290600 0.000000
-11.261700 0.000000
-11.232700 0.000000
-11.203800 0.000000
-11.174900 0.000000
-11.146000 0.000000
-11.117100 0.000000
-11.088200 0.000000
-11.059300 0.000000
-11.030400 0.000000
-11.001500 0.000000
-10.972600 0.000000
-10.943700 0.000000
-10.914800 0.000000
-10.885800 0.000000
-10.856900 0.000000
-10.828000 0.000000
-10.799100 0.000000
-10.770200 0.000000
-10.741300 0.000000
-10.712400 0.000000
-10.683500 0.000000
-10.654600 0.000000
-10.625700 0.000000
-10.596800 0.000000
-10.567900 0.000000
-10.538900 0.000000
-10.510000 0.000000
-10.481100 0.000000
-10.452200 0.000000
-10.423300 0.000000
-10.394400 0.000000
-10.365500 0.000000
-10.336600 0.000000
-10.307700 0.000000
-10.278800 0.000000
-10.249900 0.000000
-10.221000 0.000000
-10.192100 0.000000
-10.163100 0.000000
-10.134200 0.000000
-10.105300 0.000000
-10.076400 0.000000
-10.047500 0.000000
-10.018600 0.000000
-9.989700 0.000000
-9.960800 0.000000
-9.931900 0.000000
-9.903000 0.000000
-9.874100 0.000000
-9.845200 0.000000
-9.816200 0.000000
-9.787300 0.000000
-9.758400 0.000000
-9.729500 0.000000
-9.700600 0.000000
-9.671700 0.000000
-9.642800 0.000000
-9.613900 0.000000
-9.585000 0.000000
-9.556100 0.000000
-9.527200 0.000000
-9.498300 0.000000
-9.469400 0.000000
-9.440400 0.000000
-9.411500 0.000000
-9.382600 0.000000
-9.353700 0.000000
-9.324800 0.000000
-9.295900 0.000000
-9.267000 0.000000
-9.238100 0.000000
-9.209200 0.000000
-9.180300 0.000000
-9.151400 0.000000
-9.122500 0.000000
-9.093500 0.000000
-9.064600 0.000000
-9.035700 0.000000
-9.006800 0.000000
-8.977900 0.000000
-8.949000 0.000000
-8.920100 0.000000
-8.891200 0.000000
-8.862300 0.000000
-8.833400 0.000000
-8.804500 0.000000
-8.775600 0.000000
-8.746600 0.000000
-8.717700 0.000000
-8.688800 0.000000
-8.659900 0.000000
-8.631000 0.000000
-8.602100 0.000000
-8.573200 0.000000
-8.544300 0.000000
-8.515400 0.000000
-8.486500 0.000000
-8.457600 0.000000
-8.428700 0.000000
-8.399800 0.000000
-8.370800 0.000000
-8.341900 0.000000
-8.313000 0.000000
-8.284100 0.000000
-8.255200 0.000000
-8.226300 0.000000
-8.197400 0.000000
-8.168500 0.000000
-8.139600 0.000000
-8.110700 0.000000
-8.081800 0.000000
-8.052900 0.000000
-8.023900 0.000000
-7.995000 0.000000
-7.966100 0.000000
-7.937200 0.000000
-7.908300 0.000000
-7.879400 0.000000
-7.850500 0.000000
-7.821600 0.000000
-7.792700 0.000000
-7.763800 0.000000
-7.734900 0.000000
-7.706000 0.000000
-7.677100 0.000000
-7.648100 0.000000
-7.619200 0.000000
-7.590300 0.000000
-7.561400 0.000000
-7.532500 0.000000
-7.503600 0.000000
-7.474700 0.000000
-7.445800 0.000000
-7.416900 0.000000
-7.388000 0.000000
-7.359100 0.000000
-7.330200 0.000000
-7.301200 0.000000
-7.272300 0.000000
-7.243400 0.000000
-7.214500 0.000000
-7.185600 0.000000
-7.156700 0.000000
-7.127800 0.000000
-7.098900 0.000000
-7.070000 0.000000
-7.041100 0.000000
-7.012200 0.000000
-6.983300 0.000000
-6.954300 0.000000
-6.925400 0.000000
-6.896500 0.000000
-6.867600 0.000000
-6.838700 0.000000
-6.809800 0.000000
-6.780900 0.000000
-6.752000 0.000000
-6.723100 0.000000
-6.694200 0.000000
-6.665300 0.000000
-6.636400 0.000000
-6.607500 0.000000
-6.578500 0.000000
-6.549600 0.000000
-6.520700 0.000000
-6.491800 0.000000
-6.462900 0.000000
-6.434000 0.000000
-6.405100 0.000000
-6.376200 0.000000
-6.347300 0.000000
-6.318400 0.000000
-6.289500 0.000000
-6.260600 0.000000
-6.231600 0.000000
-6.202700 0.000000
-6.173800 0.000000
-6.144900 0.000000
-6.116000 0.000000
-6.087100 0.000000
-6.058200 0.000000
-6.029300 0.000000
-6.000400 0.000000
-5.971500 0.000000
-5.942600 0.000000
-5.913700 0.000000
-5.884800 0.000000
-5.855800 0.000000
-5.826900 0.000000
-5.798000 0.000000
-5.769100 0.000000
-5.740200 0.000000
-5.711300 0.000000
-5.682400 0.000000
-5.653500 0.000000
-5.624600 0.000000
-5.595700 0.000000
-5.566800 0.000000
-5.537900 0.000000
-5.508900 0.000000
-5.480000 0.000000
-5.451100 0.000000
-5.422200 0.000000
-5.393300 0.000000
-5.364400 0.000000
-5.335500 0.000000
-5.306600 0.000000
-5.277700 0.000000
-5.248800 0.000000
-5.219900 0.000000
-5.191000 0.000000
-5.162000 0.000000
-5.133100 0.000000
-5.104200 0.000000
-5.075300 0.000000
-5.046400 0.000000
-5.017500 0.000000
-4.988600 0.000000
-4.959700 0.000000
-4.930800 0.000000
-4.901900 0.000000
-4.873000 0.000000
-4.844100 0.000000
-4.815200 0.000000
-4.786200 0.000000
-4.757300 0.000000
-4.728400 0.000000
-4.699500 0.000000
-4.670600 0.000000
-4.641700 0.000000
-4.612800 0.000000
-4.583900 0.000000
-4.555000 0.000000
-4.526100 0.000000
-4.497200 0.000000
-4.468300 0.000000
-4.439300 0.000000
-4.410400 0.000000
-4.381500 0.000000
-4.352600 0.000000
-4.323700 0.000000
-4.294800 0.000000
-4.265900 0.000000
-4.237000 0.000000
-4.208100 0.000000
-4.179200 0.000000
-4.150300 0.000000
-4.121400 0.000000
-4.092400 0.000000
-4.063500 0.000000
-4.034600 0.000000
-4.005700 0.000000
-3.976800 0.000000
-3.947900 0.000000
-3.919000 0.000000
-3.890100 0.000000
-3.861200 0.000000
-3.832300 0.000000
-3.803400 0.000000
-3.774500 0.000000
-3.745600 0.000000
-3.716600 0.000000
-3.687700 0.000000
-3.658800 0.000000
-3.629900 0.000000
-3.601000 0.000000
-3.572100 0.000000
-3.543200 0.000000
-3.514300 0.000000
-3.485400 0.000000
-3.456500 0.000000
-3.427600 0.000000
-3.398700 0.000000
-3.369700 0.000000
-3.340800 0.000000
-3.311900 0.000000
-3.283000 0.000000
-3.254100 0.000000
-3.225200 0.000000
-3.196300 0.000000
-3.167400 0.000000
-3.138500 0.000000
-3.109600 0.000000
-3.080700 0.000000
-3.051800 0.000000
-3.022900 0.000000
-2.993900 0.000000
-2.965000 0.000000
-2.936100 0.000000
-2.907200 0.000000
-2.878300 0.000000
-2.849400 0.000000
-2.820500 0.000000
-2.791600 0.000000
-2.762700 0.000000
-2.733800 0.000000
-2.704900 0.000000
-2.676000 0.000000
-2.647000 0.000000
-2.618100 0.000000
-2.589200 0.000000
-2.560300 0.000000
-2.531400 0.000000
-2.502500 0.000000
-2.473600 0.000000
-2.444700 0.000000
-2.415800 0.000000
-2.386900 0.000000
-2.358000 0.000000
-2.329100 0.000000
-2.300100 0.000000
-2.271200 0.000000
-2.242300 0.000000
-2.213400 0.000000
-2.184500 0.000000
-2.155600 0.000000
-2.126700 0.000000
-2.097800 0.000000
-2.068900 0.000000
-2.040000 0.000000
-2.011100 0.000000
-1.982200 0.000000
-1.953300 0.000000
-1.924300 0.016600
-1.895400 0.084200
-1.866500 0.162100
-1.837600 0.250200
-1.808700 0.348600
-1.779800 0.457200
-1.750900 0.576000
-1.722000 0.705100
-1.693100 0.686600
-1.664200 0.727300
-1.635300 0.795800
-1.606400 0.876500
-1.577400 0.959200
-1.548500 1.043900
-1.519600 1.130300
-1.490700 1.219800
-1.461800 1.324000
-1.432900 1.445300
-1.404000 1.583800
-1.375100 2.079400
-1.346200 2.157300
-1.317300 2.238300
-1.288400 2.507800
-1.259500 2.943300
-1.230600 3.495100
-1.201600 3.655900
-1.172700 4.009100
-1.143800 4.603400
-1.114900 5.233300
-1.086000 5.158400
-1.057100 4.444600
-1.028200 3.431900
-0.999300 2.438600
-0.970400 1.520600
-0.941500 0.979800
-0.912600 1.176300
-0.883700 1.581000
-0.854700 1.638400
-0.825800 1.968800
-0.796900 3.540700
-0.768000 3.947400
-0.739100 4.639700
-0.710200 6.095500
-0.681300 7.665500
-0.652400 6.025500
-0.623500 5.717900
-0.594600 5.420800
-0.565700 5.389800
-0.536800 6.084900
-0.507800 6.121900
-0.478900 6.398900
-0.450000 6.346100
-0.421100 6.740500
-0.392200 9.409700
-0.363300 9.702400
-0.334400 9.902000
-0.305500 10.128900
-0.276600 10.769600
-0.247700 10.346500
-0.218800 6.465600
-0.189900 5.389100
-0.161000 4.689400
-0.132000 4.204600
-0.103100 4.116600
-0.074200 4.376000
-0.045300 4.885700
-0.016400 5.150000
0.012500 5.369300
0.041400 5.585000
0.070300 5.893800
0.099200 6.227100
0.128100 6.207400
0.157000 4.213400
0.185900 3.152500
0.214900 2.711600
0.243800 2.566800
0.272700 2.573500
0.301600 2.665300
0.330500 2.786300
0.359400 2.936400
0.388300 3.269200
0.417200 4.057100
0.446100 6.695800
0.475000 7.555800
0.503900 7.294100
0.532800 6.853000
0.561800 6.627200
0.590700 10.374800
0.619600 3.815600
0.648500 3.085500
0.677400 2.894200
0.706300 2.865900
0.735200 2.600700
0.764100 3.478900
0.793000 3.861300
0.821900 3.954000
0.850800 4.297800
0.879700 4.382900
0.908600 4.283400
0.937600 4.178300
0.966500 4.144100
0.995400 4.136800
1.024300 3.517100
1.053200 2.388400
1.082100 2.611800
1.111000 1.699600
1.139900 1.396500
1.168800 1.903900
1.197700 2.455100
1.226600 3.163100
1.255500 5.502200
1.284500 9.272900
1.313400 10.887900
1.342300 10.592800
1.371200 8.112100
1.400100 4.682000
1.429000 3.142100
1.457900 4.691700
1.486800 6.749000
1.515700 10.002100
1.544600 13.037100
1.573500 9.129200
1.602400 5.076300
1.631300 8.672700
1.660300 10.144100
1.689200 9.274000
1.718100 8.547200
1.747000 7.782600
1.775900 6.975700
1.804800 6.381900
1.833700 6.104700
1.862600 5.250100
1.891500 4.174500
1.920400 3.956300
1.949300 3.378900
1.978200 4.048900
2.007200 3.645200
2.036100 2.244100
2.065000 1.493400
2.093900 1.044500
2.122800 0.670700
2.151700 0.322600
2.180600 0.194100
2.209500 0.120000
2.238400 0.063500
2.267300 0.024900
2.296200 0.004000
2.325100 0.000000
2.354100 0.000000
2.383000 0.000000
2.411900 0.000000
2.440800 0.000000
2.469700 0.000000
2.498600 0.000000
2.527500 0.000000
2.556400 0.000000
2.585300 0.000000
2.614200 0.000000
2.643100 0.000000
2.672000 0.000000
2.700900 0.000000
2.729900 0.000000
2.758800 0.000000
2.787700 0.000000
2.816600 0.000000
2.845500 0.000000
2.874400 0.000000
2.903300 0.000000
2.932200 0.000000
2.961100 0.000000
2.990000 0.000000
3.018900 0.000000
3.047800 0.000000
3.076800 0.000000
3.105700 0.000000
3.134600 0.000000
3.163500 0.000000
3.192400 0.000000
3.221300 0.000000
3.250200 0.000000
3.279100 0.000000
3.308000 0.000000
3.336900 0.000000
3.365800 0.000000
3.394700 0.000000
3.423600 0.000000
3.452600 0.000000
3.481500 0.000000
3.510400 0.000000
3.539300 0.000000
3.568200 0.000000
3.597100 0.000000
3.626000 0.000000
3.654900 0.000000
3.683800 0.000000
3.712700 0.000000
3.741600 0.000000
3.770500 0.000000
3.799500 0.000000
3.828400 0.000000
3.857300 0.000000
3.886200 0.000000
3.915100 0.000000
3.944000 0.000000
3.972900 0.000000
4.001800 0.000000
4.030700 0.000000
4.059600 0.000000
4.088500 0.000000
4.117400 0.000000
4.146400 0.000000
4.175300 0.000000
4.204200 0.000000
4.233100 0.000000
4.262000 0.000000
4.290900 0.000000
4.319800 0.000000
4.348700 0.000000
4.377600 0.000000
4.406500 0.000000
4.435400 0.000000
4.464300 0.000000
4.493200 0.000000
4.522200 0.000000
4.551100 0.000000
4.580000 0.000000
4.608900 0.000000
4.637800 0.000000
4.666700 0.000000
4.695600 0.000000
4.724500 0.000000
4.753400 0.000000
4.782300 0.000000
4.811200 0.000000
4.840100 0.000000
4.869100 0.000000
4.898000 0.000000
4.926900 0.000000
4.955800 0.000000
4.984700 0.000000
5.013600 0.000000
5.042500 0.000000
5.071400 0.000000
5.100300 0.000000
5.129200 0.000000
5.158100 0.000000
5.187000 0.000000
5.216000 0.000000
5.244900 0.000000
5.273800 0.000000
5.302700 0.000000
5.331600 0.000000
5.360500 0.000000
5.389400 0.000000
5.418300 0.000000
5.447200 0.000000
5.476100 0.000000
5.505000 0.000000
5.533900 0.000000
5.562800 0.000000
5.591800 0.000000
5.620700 0.000000
5.649600 0.000000
5.678500 0.000000
5.707400 0.000000
5.736300 0.000000
5.765200 0.000000
5.794100 0.000000
5.823000 0.000000
5.851900 0.000000
5.880800 0.000000
5.909700 0.000000
5.938700 0.000000
5.967600 0.000000
5.996500 0.000000
6.025400 0.000000
6.054300 0.000000
6.083200 0.000000
6.112100 0.000000
6.141000 0.000000
6.169900 0.000000
6.198800 0.000000
6.227700 0.000000
6.256600 0.000000
6.285500 0.000000
6.314500 0.000000
6.343400 0.000000
6.372300 0.000000
6.401200 0.000000
6.430100 0.000000
6.459000 0.000000
6.487900 0.000000
6.516800 0.000000
6.545700 0.001000
6.574600 0.003400
6.603500 0.007200
6.632400 0.012500
6.661400 0.019300
6.690300 0.027500
6.719200 0.037200
6.748100 0.125800
6.777000 0.202100
6.805900 0.297000
6.834800 0.411000
6.863700 0.626300
6.892600 0.958800
6.921500 1.364600
6.950400 1.957200
6.979300 2.527700
7.008300 3.109500
7.037200 3.485300
7.066100 3.275800
7.095000 3.008500
7.123900 2.708700
7.152800 2.263500
7.181700 2.088000
7.210600 1.978500
7.239500 1.887400
7.268400 1.812100
7.297300 1.756900
7.326200 1.714200
7.355100 1.835900
7.384100 1.813200
7.413000 1.800200
7.441900 1.786200
7.470800 1.770300
7.499700 1.752300
7.528600 1.732300
7.557500 1.760100
7.586400 1.798400
7.615300 2.082900
7.644200 2.597600
7.673100 2.503000
7.702000 2.434000
7.731000 3.018300
7.759900 2.233400
7.788800 0.947400
7.817700 0.734300
7.846600 0.827400
7.875500 1.163800
7.904400 1.151000
7.933300 1.240000
7.962200 1.362800
7.991100 1.521400
8.020000 1.716000
8.048900 2.139000
8.077800 3.057900
8.106800 3.878900
8.135700 4.554300
8.164600 5.780500
8.193500 7.554600
8.222400 11.801100
8.251300 6.709200
8.280200 6.058800
8.309100 5.520300
8.338000 5.057100
8.366900 4.538000
8.395800 3.748800
8.424700 3.257500
8.453700 2.923800
8.482600 2.749100
8.511500 2.798100
8.540400 3.095200
8.569300 3.384300
8.598200 3.364000
8.627100 3.272900
8.656000 3.200200
8.684900 3.114500
8.713800 3.030800
8.742700 2.942000
8.771600 2.824500
8.800600 2.725000
8.829500 2.648600
8.858400 2.614300
8.887300 2.596400
8.916200 2.594400
8.945100 2.604000
8.974000 2.624800
9.002900 2.657400
9.031800 2.721900
9.060700 2.877800
9.089600 3.127800
9.118500 3.766900
9.147400 4.808700
9.176400 3.887500
9.205300 4.086700
9.234200 4.419300
9.263100 4.768600
9.292000 5.162000
9.320900 5.341100
9.349800 4.538400
9.378700 5.765500
9.407600 3.636100
9.436500 3.342700
9.465400 3.091100
9.494300 3.015500
9.523300 3.550100
9.552200 4.531700
9.581100 5.693800
9.610000 4.607000
9.638900 5.112000
9.667800 6.130500
9.696700 7.161400
9.725600 7.401500
9.754500 6.299900
9.783400 4.625400
9.812300 3.880000
9.841200 3.296900
9.870200 3.005700
9.899100 2.373200
9.928000 1.899100
9.956900 1.580900
9.985800 1.465600
10.014700 1.442900
10.043600 1.569100
10.072500 1.815600
10.101400 1.646500
10.130300 1.773400
10.159200 1.730100
10.188100 1.445600
10.217000 1.502900
10.246000 1.714600
10.274900 2.045200
10.303800 2.570800
10.332700 3.268300
10.361600 3.645500
10.390500 3.965100
10.419400 4.197700
10.448300 3.589200
10.477200 3.192200
10.506100 2.848200
10.535000 2.558800
10.563900 2.336700
10.592900 2.232100
10.621800 2.127300
10.650700 2.020500
10.679600 1.935800
10.708500 2.433800
10.737400 2.312300
10.766300 2.215800
10.795200 2.215600
10.824100 2.438800
10.853000 2.865800
10.881900 3.712500
10.910800 5.192100
10.939700 6.734800
10.968700 7.743300
10.997600 7.120200
11.026500 6.595500
11.055400 6.206000
11.084300 5.195000
11.113200 4.833200
11.142100 4.495900
11.171000 1.787400
11.199900 1.096900
11.228800 0.185900
11.257700 0.087900
11.286600 0.028000
11.315600 0.001500
11.344500 0.011500
11.373400 0.141900
11.402300 0.431700
11.431200 0.897500
11.460100 1.735100
11.489000 3.962100
11.517900 3.156900
11.546800 4.360200
11.575700 6.151300
11.604600 7.482000
11.633500 7.451300
11.662500 6.008100
11.691400 4.569300
11.720300 4.077200
11.749200 4.538700
11.778100 5.415700
11.807000 6.082600
11.835900 7.041600
11.864800 6.393000
11.893700 5.933200
11.922600 5.637600
11.951500 5.251900
11.980400 4.654500
12.009300 4.716300
12.038300 4.943300
12.067200 6.819700
12.096100 4.797500
12.125000 4.206500
12.153900 3.041300
12.182800 2.912300
12.211700 2.527800
12.240600 2.280100
12.269500 1.672100
12.298400 1.848200
12.327300 2.273300
12.356200 2.786400
12.385200 3.386800
12.414100 4.752400
12.443000 5.747600
12.471900 7.992200
12.500800 6.132700
12.529700 6.233300
12.558600 6.701300
12.587500 7.059700
12.616400 7.411500
12.645300 2.324800
12.674200 1.588100
12.703100 1.083900
12.732000 0.690300
12.761000 0.411500
12.789900 0.217600
12.818800 0.102200
12.847700 0.070200
12.876600 0.126800
12.905500 0.261100
12.934400 0.531500
12.963300 1.176200
12.992200 1.966700
13.021100 2.881200
13.050000 2.775600
13.078900 3.123600
13.107900 3.405200
13.136800 4.029400
13.165700 4.355100
13.194600 3.542400
13.223500 3.158400
13.252400 2.859300
13.281300 2.690600
13.310200 2.516600
13.339100 2.276100
13.368000 2.071300
13.396900 2.271200
13.425800 3.582400
13.454800 2.564600
13.483700 2.454900
13.512600 2.349100
13.541500 2.260700
13.570400 2.169300
13.599300 2.075000
13.628200 1.976400
13.657100 1.801700
13.686000 1.596100
13.714900 1.563700
13.743800 1.535800
13.772700 1.512700
13.801600 1.509400
13.830600 1.527300
13.859500 1.556600
13.888400 1.608800
13.917300 1.570700
13.946200 1.525900
13.975100 1.445100
14.004000 1.378400
14.032900 1.325800
14.061800 1.286600
14.090700 1.260600
14.119600 1.247000
14.148500 1.244900
14.177500 1.246300
14.206400 1.244100
14.235300 1.237500
14.264200 1.230800
14.293100 1.223800
14.322000 1.179700
14.350900 1.168500
14.379800 1.158000
14.408700 1.148700
14.437600 1.142700
14.466500 1.140400
14.495400 1.141600
14.524300 1.137000
14.553300 1.121500
14.582200 1.117900
14.611100 1.123600
14.640000 1.130000
14.668900 1.136900
14.697800 1.143900
14.726700 1.151000
14.755600 1.161400
14.784500 1.587000
14.813400 1.430600
14.842300 1.619900
14.871200 1.827300
14.900200 1.877200
14.929100 1.936700
14.958000 2.005700
14.986900 2.155800
15.015800 2.302900
15.044700 2.519000
15.073600 2.694400
15.102500 3.046900
15.131400 3.204500
15.160300 3.029100
15.189200 2.959300
15.218100 2.914800
15.247100 2.848900
15.276000 2.760400
15.304900 2.619900
15.333800 2.449300
15.362700 2.342100
15.391600 2.255500
15.420500 2.200700
15.449400 2.198700
15.478300 2.251800
15.507200 2.259500
15.536100 2.282200
15.565000 2.341300
15.593900 2.521100
15.622900 2.718400
15.651800 2.437900
15.680700 2.387300
15.709600 1.721000
15.738500 1.655500
15.767400 1.606400
15.796300 1.583100
15.825200 1.545800
15.854100 1.462400
15.883000 1.304000
15.911900 1.069200
15.940800 0.844700
15.969800 0.594500
15.998700 0.359400
16.027600 0.167400
16.056500 0.126100
16.085400 0.114000
16.114300 0.121100
16.143200 0.147300
16.172100 0.186000
16.201000 0.226500
16.229900 0.268800
16.258800 0.306000
16.287700 0.329300
16.316700 0.350000
16.345600 0.370100
16.374500 0.389700
16.403400 0.408700
16.432300 0.427200
16.461200 0.445000
16.490100 0.462400
16.519000 0.479100
16.547900 0.495500
16.576800 0.512700
16.605700 0.530700
16.634600 0.549500
16.663500 0.573900
16.692500 0.736100
16.721400 0.819400
16.750300 0.895100
16.779200 0.963200
16.808100 1.023700
16.837000 1.076600
16.865900 1.121800
16.894800 1.159500
16.923700 1.191600
16.952600 1.172400
16.981500 1.184000
17.010400 1.184500
17.039400 1.183300
17.068300 1.182700
17.097200 1.182600
17.126100 1.191400
17.155000 1.200300
17.183900 1.205900
17.212800 1.208300
17.241700 1.207500
17.270600 1.203700
17.299500 1.209100
17.328400 1.230200
17.357300 1.259200
17.386200 1.299300
17.415200 1.347000
17.444100 1.402400
17.473000 1.654000
17.501900 1.741600
17.530800 1.844700
17.559700 1.789100
17.588600 1.747100
17.617500 1.849200
17.646400 1.968600
17.675300 2.060400
17.704200 2.026900
17.733100 1.911600
17.762100 1.969800
17.791000 2.021300
17.819900 2.066100
17.848800 2.097600
17.877700 2.144900
17.906600 2.213800
17.935500 2.271700
17.964400 2.305900
17.993300 2.321400
18.022200 2.340200
18.051100 2.376800
18.080000 2.424600
18.109000 2.488400
18.137900 2.590800
18.166800 2.671500
18.195700 2.644100
18.224600 2.575200
18.253500 2.556100
18.282400 2.536400
18.311300 2.552400
18.340200 2.605100
18.369100 2.664100
18.398000 2.731400
18.426900 2.928200
18.455800 2.732100
18.484800 2.578900
18.513700 2.327900
18.542600 2.201600
18.571500 2.184700
18.600400 2.179500
18.629300 2.182400
18.658200 2.192800
18.687100 2.212600
18.716000 2.236200
18.744900 2.191500
18.773800 2.053500
18.802700 1.977200
18.831700 1.939100
18.860600 1.934000
18.889500 2.110100
18.918400 2.250700
18.947300 2.354600
18.976200 2.432300
19.005100 2.489800
19.034000 2.530900
19.062900 2.666100
19.091800 2.619200
19.120700 2.572700
19.149600 2.344100
19.178500 2.271000
19.207500 2.193800
19.236400 2.124300
19.265300 2.060500
19.294200 2.003000
19.323100 1.951300
19.352000 1.902700
19.380900 1.757000
19.409800 1.675300
19.438700 1.587100
19.467600 1.490500
19.496500 1.463000
19.525400 1.260700
19.554400 1.165100
19.583300 1.073700
19.612200 0.986300
19.641100 0.916000
19.670000 0.886100
19.698900 0.900200
19.727800 0.957400
19.756700 1.057700
19.785600 1.269100
19.814500 1.335800
19.843400 1.397700
19.872300 1.454900
19.901300 1.507300
19.930200 1.554900
19.959100 1.597800
19.988000 1.732200
20.016900 1.626900
20.045800 1.540600
20.074700 1.508900
20.103600 1.505300
20.132500 1.540800
20.161400 1.576600
20.190300 1.618900
20.219200 1.692500
20.248100 1.775200
20.277100 1.865300
20.306000 2.016700
20.334900 2.196700
20.363800 2.374200
20.392700 2.549500
20.421600 2.721900
20.450500 2.889000
20.479400 3.043600
20.508300 3.151700
20.537200 3.289200
20.566100 3.386200
20.595000 3.262500
20.624000 2.948300
20.652900 2.665600
20.681800 2.472900
20.710700 2.305100
20.739600 2.229000
20.768500 2.195500
20.797400 2.172000
20.826300 2.156900
20.855200 2.158000
20.884100 2.165500
20.913000 2.218300
20.941900 2.248300
20.970900 2.181400
20.999800 2.253800
21.028700 2.546600
21.057600 2.645400
21.086500 2.706300
21.115400 2.766900
21.144300 2.832700
21.173200 2.938900
21.202100 3.223000
21.231000 3.258800
21.259900 3.152900
21.288800 3.096100
21.317700 3.054400
21.346700 3.027500
21.375600 3.002300
21.404500 2.999900
21.433400 2.726400
21.462300 2.711100
21.491200 2.706700
21.520100 2.713300
21.549000 3.095400
21.577900 2.937800
21.606800 2.492800
21.635700 2.023900
21.664600 1.939900
21.693600 1.899800
21.722500 1.865500
21.751400 1.831900
21.780300 1.798900
21.809200 1.766500
21.838100 1.734300
21.867000 1.702000
21.895900 1.673100
21.924800 1.699200
21.953700 1.712900
21.982600 1.706000
22.011500 1.686200
22.040400 1.672400
22.069400 1.657900
22.098300 1.644600
22.127200 1.632600
22.156100 1.622100
22.185000 1.618500
22.213900 1.653000
22.242800 1.731600
22.271700 1.874900
22.300600 1.987500
22.329500 2.041700
22.358400 2.070800
22.387300 2.101900
22.416300 2.179200
22.445200 2.441700
22.474100 2.702900
22.503000 2.935700
22.531900 3.158200
22.560800 3.399300
22.589700 3.593700
22.618600 3.757500
22.647500 3.844200
22.676400 3.846300
22.705300 3.727100
22.734200 3.213100
22.763200 2.528200
22.792100 1.770200
22.821000 1.668300
22.849900 1.576000
22.878800 1.492800
22.907700 1.422100
22.936600 1.372900
22.965500 1.818500
22.994400 1.844200
23.023300 1.857700
23.052200 1.896300
23.081100 1.988800
23.110000 2.088800
23.139000 2.198600
23.167900 2.333100
23.196800 2.471700
23.225700 2.606200
23.254600 2.736400
23.283500 2.860300
23.312400 3.037500
23.341300 3.333500
23.370200 3.378200
23.399100 3.223800
23.428000 2.800800
23.456900 2.505000
23.485900 2.325000
23.514800 2.242300
23.543700 2.186000
23.572600 2.126500
23.601500 2.061500
23.630400 2.028500
23.659300 2.115000
23.688200 2.013500
23.717100 1.927900
23.746000 1.857100
23.774900 1.800800
23.803800 1.758900
23.832700 1.725600
23.861700 1.699300
23.890600 1.709900
23.919500 1.631900
23.948400 1.688200
23.977300 1.785500
24.006200 1.892200
24.035100 2.224600
24.064000 2.410600
24.092900 2.285400
24.121800 2.235000
24.150700 2.198900
24.179600 2.163400
24.208600 2.124600
24.237500 2.797300
24.266400 2.440900
24.295300 2.229300
24.324200 2.154500
24.353100 2.100100
24.382000 2.065300
24.410900 2.033600
24.439800 2.000400
24.468700 1.982500
24.497600 2.066400
24.526500 2.019900
24.555500 2.035300
24.584400 1.951400
24.613300 1.850500
24.642200 1.816300
24.671100 1.819500
24.700000 1.824700
24.728900 1.832500
24.757800 1.843500
24.786700 1.828900
24.815600 1.785800
24.844500 1.753600
24.873400 1.732800
24.902300 1.748900
24.931300 1.861200
24.960200 2.132200
24.989100 2.184500
25.018000 2.193900
25.046900 2.204900
25.075800 2.219200
25.104700 2.237100
25.133600 2.260500
25.162500 2.304900
25.191400 2.374500
25.220300 2.460300
25.249200 2.580400
25.278200 2.740400
25.307100 3.039300
25.336000 3.220500
25.364900 3.366900
25.393800 3.413300
25.422700 3.297200
25.451600 3.145300
25.480500 2.978500
25.509400 2.864800
25.538300 2.747200
25.567200 2.661400
25.596100 2.648300
25.625100 2.549300
25.654000 2.425900
25.682900 2.296700
25.711800 2.188900
25.740700 2.096800
25.769600 2.013500
25.798500 1.940400
25.827400 1.876800
25.856300 1.822400
25.885200 1.783600
25.914100 1.763400
25.943000 1.761800
25.971900 1.802000
26.000900 1.899500
26.029800 2.034700
26.058700 2.180700
26.087600 2.402200
26.116500 2.687500
26.145400 3.060700
26.174300 3.593400
26.203200 4.309700
26.232100 4.621100
26.261000 4.348700
26.289900 3.623000
26.318800 3.369300
26.347800 3.165500
26.376700 2.956800
26.405600 2.754900
26.434500 2.560600
26.463400 2.358800
26.492300 2.177900
26.521200 2.040100
26.550100 1.945400
26.579000 2.033000
26.607900 2.197000
26.636800 2.330200
26.665700 2.467900
26.694600 2.542800
26.723600 2.568500
26.752500 2.573300
26.781400 2.586500
26.810300 2.616600
26.839200 2.621200
26.868100 2.747800
26.897000 2.746900
26.925900 2.679300
26.954800 2.626700
26.983700 2.563600
27.012600 2.480200
27.041500 2.473300
27.070500 2.499200
27.099400 2.540800
27.128300 2.483700
27.157200 2.383900
27.186100 2.231500
27.215000 2.078900
27.243900 1.926700
27.272800 1.811800
27.301700 1.715500
27.330600 1.642600
27.359500 1.599500
27.388400 1.585900
27.417400 1.590100
27.446300 1.596500
27.475200 1.605800
27.504100 1.668000
27.533000 1.899200
27.561900 2.309800
27.590800 2.636100
27.619700 3.310500
27.648600 3.166600
27.677500 2.968800
27.706400 2.866600
27.735300 2.856800
27.764200 2.852900
27.793200 2.790500
27.822100 2.796900
27.851000 2.850200
27.879900 2.927000
27.908800 3.077700
27.937700 3.306100
27.966600 3.473800
27.995500 3.548900
28.024400 4.729200
28.053300 3.373600
28.082200 3.203400
28.111100 3.018600
28.140100 2.830400
28.169000 2.655500
28.197900 2.548300
28.226800 2.450500
28.255700 2.373200
28.284600 2.368400
28.313500 2.291700
28.342400 2.242900
28.371300 2.230000
28.400200 2.159800
28.429100 2.121700
28.458000 2.084700
28.486900 2.111000
28.515900 2.194000
28.544800 2.464800
28.573700 2.562900
28.602600 2.502000
28.631500 2.429000
28.660400 2.370000
28.689300 2.349100
28.718200 2.343700
28.747100 2.333800
28.776000 2.316000
28.804900 2.297500
28.833800 2.290000
28.862800 2.263500
28.891700 2.080000
28.920600 1.994700
28.949500 1.971200
28.978400 1.955200
29.007300 1.982600
29.036200 2.025800
29.065100 2.495900
29.094000 2.460700
29.122900 2.220700
29.151800 2.274200
29.180700 2.420100
29.209700 2.574000
29.238600 2.717700
29.267500 2.837700
29.296400 2.899400
29.325300 2.907400
29.354200 2.974700
29.383100 3.204300
29.412000 3.317900
29.440900 3.173200
29.469800 3.081500
29.498700 3.029600
29.527600 3.009200
29.556500 3.011300
29.585500 3.029600
29.614400 3.062300
29.643300 3.033600
29.672200 3.132400
29.701100 3.266200
29.730000 3.240500
29.758900 3.103900
29.787800 2.929700
29.816700 2.625300
29.845600 2.734300
29.874500 2.780800
29.903400 2.982200
29.932400 2.965500
29.961300 2.856500
29.990200 2.915400
30.019100 2.974900
30.048000 3.081200
30.076900 3.164800
30.105800 3.218500
30.134700 3.254000
30.163600 3.262500
30.192500 3.233500
30.221400 3.081500
30.250300 2.924700
30.279200 2.812200
30.308200 2.731600
30.337100 2.687300
30.366000 2.648500
30.394900 2.483700
30.423800 2.435200
30.452700 2.386800
30.481600 2.337900
30.510500 2.288200
30.539400 2.238400
30.568300 2.182500
30.597200 2.118900
30.626100 2.049800
30.655100 1.997700
30.684000 2.000500
30.712900 1.985700
30.741800 1.968600
30.770700 1.976100
30.799600 1.993700
30.828500 2.021300
30.857400 2.058200
30.886300 3.470400
30.915200 2.818600
30.944100 2.524900
30.973000 2.410900
31.002000 2.354100
31.030900 2.333700
31.059800 2.347900
31.088700 2.340900
31.117600 2.359500
31.146500 2.387800
31.175400 2.381800
31.204300 2.353900
31.233200 2.220200
31.262100 1.988400
31.291000 1.740200
31.319900 1.475800
31.348800 1.181200
31.377800 1.010000
31.406700 0.848300
31.435600 0.696300
31.464500 0.553800
31.493400 0.420800
31.522300 0.297500
31.551200 0.177300
31.580100 0.065000
31.609000 0.026600
31.637900 0.023700
31.666800 0.021000
31.695700 0.018500
31.724700 0.016100
31.753600 0.013900
31.782500 0.011900
31.811400 0.010000
31.840300 0.008300
31.869200 0.006700
31.898100 0.005300
31.927000 0.004100
31.955900 0.003000
31.984800 0.002100
32.013700 0.001400
32.042600 0.000800
32.071600 0.000400
32.100500 0.000100
32.129400 0.000000
32.158300 0.000000
32.187200 0.000000
32.216100 0.000000
32.245000 0.000000
32.273900 0.000000
32.302800 0.000000
32.331700 0.000000
32.360600 0.000000
32.389500 0.000000
32.418400 0.000000
32.447400 0.000000
32.476300 0.000000
32.505200 0.000000
32.534100 0.000000
32.563000 0.000000
32.591900 0.000000
32.620800 0.000000
32.649700 0.000000
32.678600 0.000000
32.707500 0.000000
32.736400 0.000000
32.765300 0.000000
32.794300 0.000000
32.823200 0.000000
32.852100 0.000000
32.881000 0.000000
32.909900 0.000000
32.938800 0.000000
32.967700 0.000000
32.996600 0.000000
33.025500 0.000000
33.054400 0.000000
33.083300 0.000000
33.112200 0.000000
33.141100 0.000000
33.170100 0.000000
33.199000 0.000000
33.227900 0.000000
33.256800 0.000000
33.285700 0.000000
33.314600 0.000000
33.343500 0.000000
33.372400 0.000000
33.401300 0.000000
33.430200 0.000000
33.459100 0.000000
33.488000 0.000000
33.517000 0.000000
33.545900 0.000000
33.574800 0.000000
33.603700 0.000000
33.632600 0.000000
33.661500 0.000000
33.690400 0.000000
33.719300 0.000000
33.748200 0.000000
33.777100 0.000000
33.806000 0.000000
33.834900 0.000000
33.863900 0.000000
33.892800 0.000000
33.921700 0.000000
33.950600 0.000000
33.979500 0.000000
34.008400 0.000000
34.037300 0.000000
34.066200 0.000000
34.095100 0.000000
34.124000 0.000000
34.152900 0.000000
34.181800 0.000000
34.210700 0.000000
34.239700 0.000000
34.268600 0.000000
34.297500 0.000000
34.326400 0.000000
34.355300 0.000000
34.384200 0.000000
34.413100 0.000000
34.442000 0.000000
34.470900 0.000000
34.499800 0.000000
34.528700 0.000000
34.557600 0.000000
34.586600 0.000000
34.615500 0.000000
34.644400 0.000000
34.673300 0.000000
34.702200 0.000000
34.731100 0.000000
34.760000 0.000000
e
