set title 'mp-982871 - Density of States'
set xlabel 'Energy (eV)'
set ylabel 'DOS (states/eV)'
set grid
set xrange [-10:10]
set yrange [0:34.575]
set xzeroaxis lt -1
set terminal png size 800,600
set output 'mp-982871_dos_gnuplot.png'
plot '-' using 1:2 with lines title 'DOS'
-25.267700 0.000000
-25.239000 0.000000
-25.210300 0.000000
-25.181700 0.000000
-25.153000 0.000000
-25.124400 0.000000
-25.095700 0.000000
-25.067000 0.000000
-25.038400 0.000000
-25.009700 0.000000
-24.981100 0.000000
-24.952400 0.000000
-24.923700 0.000000
-24.895100 0.000000
-24.866400 0.000000
-24.837800 0.000000
-24.809100 0.000000
-24.780400 0.000000
-24.751800 0.000000
-24.723100 0.000000
-24.694500 0.000000
-24.665800 0.000000
-24.637100 0.000000
-24.608500 0.000000
-24.579800 0.000000
-24.551200 0.000000
-24.522500 0.000000
-24.493800 0.000000
-24.465200 0.000000
-24.436500 0.000000
-24.407900 0.000000
-24.379200 0.000000
-24.350500 0.000000
-24.321900 0.000000
-24.293200 0.000000
-24.264600 0.000000
-24.235900 0.000000
-24.207200 0.000000
-24.178600 0.000000
-24.149900 0.000000
-24.121200 0.000000
-24.092600 0.000000
-24.063900 0.000000
-24.035300 0.000000
-24.006600 0.000000
-23.977900 0.000000
-23.949300 0.000000
-23.920600 0.000000
-23.892000 0.000000
-23.863300 0.000000
-23.834600 0.000000
-23.806000 0.000000
-23.777300 0.000000
-23.748700 0.000000
-23.720000 0.000000
-23.691300 0.000000
-23.662700 0.000000
-23.634000 0.000000
-23.605400 0.000000
-23.576700 0.000000
-23.548000 0.000000
-23.519400 0.000000
-23.490700 0.000000
-23.462100 0.000000
-23.433400 0.000000
-23.404700 0.000000
-23.376100 0.000000
-23.347400 0.000000
-23.318800 0.000000
-23.290100 0.000000
-23.261400 0.000000
-23.232800 0.000000
-23.204100 0.000000
-23.175500 0.000000
-23.146800 0.000000
-23.118100 0.000000
-23.089500 0.000000
-23.060800 0.000000
-23.032200 0.000000
-23.003500 0.000000
-22.974800 0.000000
-22.946200 0.000000
-22.917500 0.000000
-22.888800 0.000000
-22.860200 0.000000
-22.831500 0.000000
-22.802900 0.000000
-22.774200 0.000000
-22.745500 0.000000
-22.716900 0.000000
-22.688200 0.000000
-22.659600 563.690700
-22.630900 0.000000
-22.602200 0.000000
-22.573600 0.000000
-22.544900 0.000000
-22.516300 0.000000
-22.487600 0.000000
-22.458900 0.000000
-22.430300 0.000000
-22.401600 0.000000
-22.373000 0.000000
-22.344300 0.000000
-22.315600 0.000000
-22.287000 0.000000
-22.258300 0.000000
-22.229700 0.000000
-22.201000 0.000000
-22.172300 0.000000
-22.143700 0.000000
-22.115000 0.000000
-22.086400 0.000000
-22.057700 0.000000
-22.029000 0.000000
-22.000400 0.000000
-21.971700 20.183700
-21.943100 134.569300
-21.914400 424.071000
-21.885700 0.000000
-21.857100 0.000000
-21.828400 0.000000
-21.799800 0.000000
-21.771100 0.000000
-21.742400 0.000000
-21.713800 0.000000
-21.685100 0.000000
-21.656400 0.000000
-21.627800 0.000000
-21.599100 0.000000
-21.570500 0.000000
-21.541800 0.000000
-21.513100 0.000000
-21.484500 0.000000
-21.455800 0.000000
-21.427200 0.000000
-21.398500 0.000000
-21.369800 0.000000
-21.341200 0.000000
-21.312500 0.000000
-21.283900 0.000000
-21.255200 0.000000
-21.226500 0.000000
-21.197900 0.000000
-21.169200 0.000000
-21.140600 0.000000
-21.111900 0.000000
-21.083200 0.000000
-21.054600 0.000000
-21.025900 0.000000
-20.997300 0.000000
-20.968600 0.000000
-20.939900 0.000000
-20.911300 0.000000
-20.882600 0.000000
-20.854000 0.000000
-20.825300 0.000000
-20.796600 0.000000
-20.768000 0.000000
-20.739300 0.000000
-20.710700 0.000000
-20.682000 0.000000
-20.653300 0.000000
-20.624700 0.000000
-20.596000 0.000000
-20.567400 0.000000
-20.538700 0.000000
-20.510000 0.000000
-20.481400 0.000000
-20.452700 0.000000
-20.424000 0.000000
-20.395400 0.000000
-20.366700 0.000000
-20.338100 0.000000
-20.309400 0.000000
-20.280700 0.000000
-20.252100 0.000000
-20.223400 0.000000
-20.194800 0.000000
-20.166100 0.000000
-20.137400 0.000000
-20.108800 0.000000
-20.080100 0.000000
-20.051500 0.000000
-20.022800 0.000000
-19.994100 0.000000
-19.965500 0.000000
-19.936800 0.000000
-19.908200 0.000000
-19.879500 0.000000
-19.850800 0.000000
-19.822200 0.000000
-19.793500 0.000000
-19.764900 0.000000
-19.736200 0.000000
-19.707500 0.000000
-19.678900 0.000000
-19.650200 0.000000
-19.621600 0.000000
-19.592900 0.000000
-19.564200 0.000000
-19.535600 0.000000
-19.506900 0.000000
-19.478300 0.000000
-19.449600 0.000000
-19.420900 0.000000
-19.392300 0.000000
-19.363600 0.000000
-19.335000 0.000000
-19.306300 0.000000
-19.277600 0.000000
-19.249000 0.000000
-19.220300 0.000000
-19.191600 0.000000
-19.163000 0.000000
-19.134300 0.000000
-19.105700 0.000000
-19.077000 0.000000
-19.048300 0.000000
-19.019700 0.000000
-18.991000 0.000000
-18.962400 0.000000
-18.933700 0.000000
-18.905000 0.000000
-18.876400 0.000000
-18.847700 0.000000
-18.819100 0.000000
-18.790400 0.000000
-18.761700 0.000000
-18.733100 0.000000
-18.704400 0.000000
-18.675800 0.000000
-18.647100 0.000000
-18.618400 0.000000
-18.589800 0.000000
-18.561100 0.000000
-18.532500 0.000000
-18.503800 0.000000
-18.475100 0.000000
-18.446500 0.000000
-18.417800 0.000000
-18.389200 0.000000
-18.360500 0.000000
-18.331800 0.000000
-18.303200 0.000000
-18.274500 0.000000
-18.245900 0.000000
-18.217200 0.000000
-18.188500 0.000000
-18.159900 0.000000
-18.131200 0.000000
-18.102600 0.000000
-18.073900 0.000000
-18.045200 0.000000
-18.016600 0.000000
-17.987900 0.000000
-17.959200 0.000000
-17.930600 0.000000
-17.901900 0.000000
-17.873300 0.000000
-17.844600 0.000000
-17.815900 0.000000
-17.787300 0.000000
-17.758600 0.000000
-17.730000 0.000000
-17.701300 0.000000
-17.672600 0.000000
-17.644000 0.000000
-17.615300 0.000000
-17.586700 0.000000
-17.558000 0.000000
-17.529300 0.000000
-17.500700 0.000000
-17.472000 0.000000
-17.443400 0.000000
-17.414700 0.000000
-17.386000 0.000000
-17.357400 0.000000
-17.328700 0.000000
-17.300100 0.000000
-17.271400 0.000000
-17.242700 0.000000
-17.214100 0.000000
-17.185400 0.000000
-17.156800 0.000000
-17.128100 0.000000
-17.099400 0.000000
-17.070800 0.000000
-17.042100 0.000000
-17.013500 0.000000
-16.984800 0.000000
-16.956100 0.000000
-16.927500 0.000000
-16.898800 0.000000
-16.870200 0.000000
-16.841500 0.000000
-16.812800 0.000000
-16.784200 0.000000
-16.755500 0.000000
-16.726800 0.000000
-16.698200 0.000000
-16.669500 0.000000
-16.640900 0.000000
-16.612200 0.000000
-16.583500 0.000000
-16.554900 0.000000
-16.526200 0.000000
-16.497600 0.000000
-16.468900 0.000000
-16.440200 0.000000
-16.411600 0.000000
-16.382900 0.000000
-16.354300 0.000000
-16.325600 0.000000
-16.296900 0.000000
-16.268300 0.000000
-16.239600 0.000000
-16.211000 0.000000
-16.182300 0.000000
-16.153600 0.000000
-16.125000 0.000000
-16.096300 0.000000
-16.067700 0.000000
-16.039000 0.000000
-16.010300 0.000000
-15.981700 0.000000
-15.953000 0.000000
-15.924400 0.000000
-15.895700 0.000000
-15.867000 0.000000
-15.838400 0.000000
-15.809700 0.000000
-15.781100 0.000000
-15.752400 0.000000
-15.723700 0.000000
-15.695100 0.000000
-15.666400 0.000000
-15.637700 0.000000
-15.609100 0.000000
-15.580400 0.000000
-15.551800 0.000000
-15.523100 0.000000
-15.494400 0.000000
-15.465800 0.000000
-15.437100 0.000000
-15.408500 0.000000
-15.379800 0.000000
-15.351100 0.000000
-15.322500 0.000000
-15.293800 0.000000
-15.265200 0.000000
-15.236500 0.000000
-15.207800 0.000000
-15.179200 0.000000
-15.150500 0.000000
-15.121900 0.000000
-15.093200 0.000000
-15.064500 0.000000
-15.035900 0.000000
-15.007200 0.000000
-14.978600 0.000000
-14.949900 0.000000
-14.921200 0.000000
-14.892600 0.000000
-14.863900 0.000000
-14.835300 0.000000
-14.806600 0.000000
-14.777900 0.000000
-14.749300 0.000000
-14.720600 0.000000
-14.692000 0.000000
-14.663300 0.000000
-14.634600 0.000000
-14.606000 0.000000
-14.577300 0.000000
-14.548700 0.000000
-14.520000 0.000000
-14.491300 0.000000
-14.462700 0.000000
-14.434000 0.000000
-14.405300 0.000000
-14.376700 0.000000
-14.348000 0.000000
-14.319400 0.000000
-14.290700 0.000000
-14.262000 0.000000
-14.233400 0.000000
-14.204700 0.000000
-14.176100 0.000000
-14.147400 0.000000
-14.118700 0.000000
-14.090100 0.000000
-14.061400 0.000000
-14.032800 0.000000
-14.004100 0.000000
-13.975400 0.000000
-13.946800 0.000000
-13.918100 0.000000
-13.889500 0.000000
-13.860800 0.000000
-13.832100 0.000000
-13.803500 0.000000
-13.774800 0.000000
-13.746200 0.000000
-13.717500 0.000000
-13.688800 0.000000
-13.660200 0.000000
-13.631500 0.000000
-13.602900 0.000000
-13.574200 0.000000
-13.545500 0.000000
-13.516900 0.000000
-13.488200 0.000000
-13.459600 0.000000
-13.430900 0.000000
-13.402200 0.000000
-13.373600 0.000000
-13.344900 0.000000
-13.316300 0.000000
-13.287600 0.000000
-13.258900 0.000000
-13.230300 0.000000
-13.201600 0.000000
-13.172900 0.000000
-13.144300 0.000000
-13.115600 0.000000
-13.087000 0.000000
-13.058300 0.000000
-13.029600 0.000000
-13.001000 0.000000
-12.972300 0.000000
-12.943700 0.000000
-12.915000 0.000000
-12.886300 0.000000
-12.857700 0.000000
-12.829000 0.000000
-12.800400 0.000000
-12.771700 0.000000
-12.743000 0.000000
-12.714400 0.000000
-12.685700 0.000000
-12.657100 0.000000
-12.628400 0.000000
-12.599700 0.000000
-12.571100 0.000000
-12.542400 0.000000
-12.513800 0.000000
-12.485100 0.000000
-12.456400 0.000000
-12.427800 0.000000
-12.399100 0.000000
-12.370500 0.000000
-12.341800 0.000000
-12.313100 0.000000
-12.284500 0.000000
-12.255800 0.000000
-12.227200 0.000000
-12.198500 0.000000
-12.169800 0.000000
-12.141200 0.000000
-12.112500 0.000000
-12.083900 0.000000
-12.055200 0.000000
-12.026500 0.000000
-11.997900 0.000000
-11.969200 0.000000
-11.940500 0.000000
-11.911900 0.000000
-11.883200 0.000000
-11.854600 0.000000
-11.825900 0.000000
-11.797200 0.000000
-11.768600 0.000000
-11.739900 0.000000
-11.711300 0.000000
-11.682600 0.000000
-11.653900 0.000000
-11.625300 0.000000
-11.596600 0.000000
-11.568000 0.000000
-11.539300 0.000000
-11.510600 0.000000
-11.482000 0.000000
-11.453300 0.000000
-11.424700 0.000000
-11.396000 0.000000
-11.367300 0.000000
-11.338700 0.000000
-11.310000 0.000000
-11.281400 0.000000
-11.252700 0.000000
-11.224000 0.000000
-11.195400 0.000000
-11.166700 0.000000
-11.138100 0.000000
-11.109400 0.000000
-11.080700 0.000000
-11.052100 0.000000
-11.023400 0.000000
-10.994800 0.000000
-10.966100 0.000000
-10.937400 0.000000
-10.908800 0.000000
-10.880100 0.000000
-10.851500 0.000000
-10.822800 0.000000
-10.794100 0.000000
-10.765500 0.000000
-10.736800 0.000000
-10.708100 0.000000
-10.679500 0.000000
-10.650800 0.000000
-10.622200 0.000000
-10.593500 0.000000
-10.564800 0.000000
-10.536200 0.000000
-10.507500 0.000000
-10.478900 0.000000
-10.450200 0.000000
-10.421500 0.000000
-10.392900 0.000000
-10.364200 0.000000
-10.335600 0.000000
-10.306900 0.000000
-10.278200 0.000000
-10.249600 0.000000
-10.220900 0.000000
-10.192300 0.000000
-10.163600 0.000000
-10.134900 0.000000
-10.106300 0.000000
-10.077600 0.000000
-10.049000 0.000000
-10.020300 0.000000
-9.991600 0.000000
-9.963000 0.000000
-9.934300 0.000000
-9.905700 0.000000
-9.877000 0.000000
-9.848300 0.000000
-9.819700 0.000000
-9.791000 0.000000
-9.762400 0.000000
-9.733700 0.000000
-9.705000 0.000000
-9.676400 0.000000
-9.647700 0.000000
-9.619100 0.000000
-9.590400 0.000000
-9.561700 0.000000
-9.533100 0.000000
-9.504400 0.000000
-9.475700 0.000000
-9.447100 0.000000
-9.418400 0.000000
-9.389800 0.000000
-9.361100 0.000000
-9.332400 0.000000
-9.303800 0.000000
-9.275100 0.000000
-9.246500 0.000000
-9.217800 0.000000
-9.189100 0.000000
-9.160500 0.000000
-9.131800 0.000000
-9.103200 0.000000
-9.074500 0.000000
-9.045800 0.000000
-9.017200 0.000000
-8.988500 0.000000
-8.959900 0.000000
-8.931200 0.000000
-8.902500 0.000000
-8.873900 0.000000
-8.845200 0.000000
-8.816600 0.000000
-8.787900 0.000000
-8.759200 0.000000
-8.730600 0.000000
-8.701900 0.000000
-8.673300 0.000000
-8.644600 0.000000
-8.615900 0.000000
-8.587300 0.000000
-8.558600 0.000000
-8.530000 0.000000
-8.501300 0.000000
-8.472600 0.000000
-8.444000 0.000000
-8.415300 0.000000
-8.386700 0.000000
-8.358000 0.000000
-8.329300 0.000000
-8.300700 0.000000
-8.272000 0.000000
-8.243300 0.000000
-8.214700 0.000000
-8.186000 0.000000
-8.157400 0.000000
-8.128700 0.000000
-8.100000 0.000000
-8.071400 0.000000
-8.042700 0.000000
-8.014100 0.000000
-7.985400 0.000000
-7.956700 0.000000
-7.928100 0.000000
-7.899400 0.000000
-7.870800 0.000000
-7.842100 0.000000
-7.813400 0.000000
-7.784800 0.000000
-7.756100 0.000000
-7.727500 0.000000
-7.698800 0.000000
-7.670100 0.000000
-7.641500 0.000000
-7.612800 0.000000
-7.584200 0.000000
-7.555500 0.000000
-7.526800 0.000000
-7.498200 0.000000
-7.469500 0.000000
-7.440900 0.000000
-7.412200 0.000000
-7.383500 0.000000
-7.354900 0.000000
-7.326200 0.000000
-7.297600 0.000000
-7.268900 0.000000
-7.240200 0.000000
-7.211600 0.000000
-7.182900 0.000000
-7.154200 0.000000
-7.125600 0.000000
-7.096900 0.000000
-7.068300 0.000000
-7.039600 0.000000
-7.010900 0.000000
-6.982300 0.000000
-6.953600 0.000000
-6.925000 0.000000
-6.896300 0.000000
-6.867600 0.000000
-6.839000 0.000000
-6.810300 0.000000
-6.781700 0.000000
-6.753000 0.000000
-6.724300 0.000000
-6.695700 0.000000
-6.667000 0.000000
-6.638400 0.000000
-6.609700 0.000000
-6.581000 0.000000
-6.552400 0.000000
-6.523700 0.000000
-6.495100 0.000000
-6.466400 0.000000
-6.437700 0.000000
-6.409100 0.000000
-6.380400 0.000000
-6.351800 0.000000
-6.323100 0.000000
-6.294400 0.000000
-6.265800 0.000000
-6.237100 0.000000
-6.208500 0.000000
-6.179800 0.000000
-6.151100 0.000000
-6.122500 0.000000
-6.093800 0.000000
-6.065200 0.000000
-6.036500 0.000000
-6.007800 0.000000
-5.979200 0.000000
-5.950500 0.000000
-5.921800 0.000000
-5.893200 0.000000
-5.864500 0.000000
-5.835900 0.000000
-5.807200 0.000000
-5.778500 0.000000
-5.749900 0.000000
-5.721200 0.000000
-5.692600 0.000000
-5.663900 0.000000
-5.635200 0.000000
-5.606600 0.000000
-5.577900 0.000000
-5.549300 0.000000
-5.520600 0.000000
-5.491900 0.000000
-5.463300 0.000000
-5.434600 0.000000
-5.406000 0.000000
-5.377300 0.000000
-5.348600 0.000000
-5.320000 0.000000
-5.291300 0.000000
-5.262700 0.000000
-5.234000 0.000000
-5.205300 0.000000
-5.176700 0.000000
-5.148000 0.000000
-5.119400 0.000000
-5.090700 0.000000
-5.062000 0.000000
-5.033400 0.000000
-5.004700 0.000000
-4.976100 0.000000
-4.947400 0.000000
-4.918700 0.000000
-4.890100 0.000000
-4.861400 0.000000
-4.832800 0.000000
-4.804100 0.000000
-4.775400 0.000000
-4.746800 0.000000
-4.718100 0.000000
-4.689400 0.000000
-4.660800 0.000000
-4.632100 0.000000
-4.603500 0.000000
-4.574800 0.000000
-4.546100 0.000000
-4.517500 0.000000
-4.488800 0.000000
-4.460200 0.000000
-4.431500 0.000000
-4.402800 0.000000
-4.374200 0.000000
-4.345500 0.000000
-4.316900 0.000000
-4.288200 0.000000
-4.259500 0.000000
-4.230900 0.000000
-4.202200 0.000000
-4.173600 0.000000
-4.144900 0.000000
-4.116200 0.000000
-4.087600 0.000000
-4.058900 0.000000
-4.030300 0.000000
-4.001600 0.000000
-3.972900 0.000000
-3.944300 0.000000
-3.915600 0.000000
-3.887000 0.000000
-3.858300 0.000000
-3.829600 0.000000
-3.801000 0.000000
-3.772300 0.000000
-3.743700 0.000000
-3.715000 0.000000
-3.686300 0.000000
-3.657700 0.000000
-3.629000 0.000000
-3.600400 0.000000
-3.571700 0.000000
-3.543000 0.000000
-3.514400 0.000000
-3.485700 0.000000
-3.457000 0.000000
-3.428400 0.000000
-3.399700 0.000000
-3.371100 0.000000
-3.342400 0.000000
-3.313700 0.000000
-3.285100 0.000000
-3.256400 0.000000
-3.227800 0.000000
-3.199100 0.000000
-3.170400 0.000000
-3.141800 0.000000
-3.113100 0.000000
-3.084500 0.000000
-3.055800 0.000000
-3.027100 0.000000
-2.998500 0.000000
-2.969800 0.000000
-2.941200 0.000000
-2.912500 0.000000
-2.883800 0.000000
-2.855200 0.000000
-2.826500 0.000000
-2.797900 0.000000
-2.769200 0.000000
-2.740500 0.000000
-2.711900 0.015900
-2.683200 0.069100
-2.654600 0.175800
-2.625900 0.154100
-2.597200 0.174800
-2.568600 0.200500
-2.539900 0.231000
-2.511300 0.262200
-2.482600 0.281400
-2.453900 0.291700
-2.425300 0.299600
-2.396600 0.316000
-2.368000 0.332900
-2.339300 0.350500
-2.310600 0.368700
-2.282000 0.387500
-2.253300 0.402700
-2.224600 0.418700
-2.196000 0.431400
-2.167300 0.444100
-2.138700 0.456900
-2.110000 0.469500
-2.081300 0.481800
-2.052700 0.495200
-2.024000 0.509300
-1.995400 0.525900
-1.966700 0.542600
-1.938000 0.558700
-1.909400 0.573800
-1.880700 0.589400
-1.852100 0.604700
-1.823400 0.619000
-1.794700 0.632000
-1.766100 0.646900
-1.737400 0.662300
-1.708800 0.678500
-1.680100 0.695800
-1.651400 0.713900
-1.622800 0.732800
-1.594100 0.752400
-1.565500 0.772700
-1.536800 0.793200
-1.508100 0.814500
-1.479500 0.837400
-1.450800 0.861200
-1.422200 0.885900
-1.393500 0.911800
-1.364800 0.944300
-1.336200 0.978800
-1.307500 1.019300
-1.278900 1.063500
-1.250200 1.112600
-1.221500 1.166800
-1.192900 1.274400
-1.164200 1.353000
-1.135600 1.411900
-1.106900 1.450800
-1.078200 1.474600
-1.049600 1.520100
-1.020900 1.535000
-0.992200 1.557200
-0.963600 1.538300
-0.934900 1.519900
-0.906300 1.548100
-0.877600 1.494500
-0.848900 1.468600
-0.820300 1.451500
-0.791600 1.418500
-0.763000 1.371100
-0.734300 1.360600
-0.705600 1.396700
-0.677000 1.449000
-0.648300 1.387500
-0.619700 1.168200
-0.591000 1.127900
-0.562300 1.096800
-0.533700 1.099400
-0.505000 1.116000
-0.476400 1.202900
-0.447700 1.068100
-0.419000 1.085400
-0.390400 0.825600
-0.361700 0.564600
-0.333100 0.628700
-0.304400 0.152600
-0.275700 0.111100
-0.247100 0.076100
-0.218400 0.047700
-0.189800 0.000000
-0.161100 0.000000
-0.132400 0.000000
-0.103800 0.000000
-0.075100 0.000000
-0.046500 0.000000
-0.017800 0.000000
0.010900 0.462600
0.039500 2.854600
0.068200 7.544400
0.096800 7.978400
0.125500 10.344700
0.154200 10.207100
0.182800 13.805100
0.211500 21.117100
0.240200 22.546700
0.268800 18.254100
0.297500 16.543600
0.326100 6.114400
0.354800 11.987400
0.383500 19.221100
0.412100 18.112600
0.440800 14.061500
0.469400 12.267200
0.498100 26.774400
0.526800 31.432000
0.555400 25.072600
0.584100 12.907100
0.612700 7.459400
0.641400 7.546100
0.670100 14.516000
0.698700 0.000000
0.727400 0.000000
0.756000 0.000000
0.784700 0.000000
0.813400 0.000000
0.842000 0.000000
0.870700 0.000000
0.899300 0.264800
0.928000 0.139600
0.956700 0.156100
0.985300 0.174600
1.014000 0.195300
1.042600 0.247800
1.071300 0.272900
1.100000 0.306100
1.128600 0.341000
1.157300 0.377900
1.185900 0.411500
1.214600 0.453700
1.243300 0.496000
1.271900 0.520600
1.300600 0.561300
1.329300 0.604500
1.357900 0.648000
1.386600 0.688900
1.415200 0.724700
1.443900 0.772500
1.472600 0.824000
1.501200 0.876200
1.529900 0.931300
1.558500 0.992300
1.587200 1.070600
1.615900 1.166900
1.644500 1.316100
1.673200 1.480700
1.701800 1.729500
1.730500 1.706500
1.759200 1.667300
1.787800 1.695700
1.816500 1.724200
1.845100 1.779300
1.873800 1.908700
1.902500 2.269300
1.931100 2.138500
1.959800 2.107700
1.988400 2.133400
2.017100 1.949600
2.045800 1.724900
2.074400 1.540400
2.103100 1.382200
2.131700 1.208700
2.160400 1.057800
2.189100 0.904100
2.217700 0.786000
2.246400 0.727300
2.275000 0.691100
2.303700 0.667600
2.332400 0.655500
2.361000 0.628400
2.389700 0.633900
2.418300 0.663600
2.447000 0.692900
2.475700 0.712700
2.504300 0.704300
2.533000 0.774800
2.561700 0.865300
2.590300 1.043000
2.619000 1.026500
2.647600 1.083900
2.676300 1.112300
2.705000 1.122400
2.733600 1.102700
2.762300 1.113400
2.790900 1.120800
2.819600 1.124200
2.848300 1.110000
2.876900 1.110300
2.905600 1.109800
2.934200 1.104300
2.962900 1.110200
2.991600 1.115500
3.020200 1.118900
3.048900 1.128300
3.077500 1.136200
3.106200 1.154900
3.134900 1.181700
3.163500 1.200200
3.192200 1.244900
3.220800 1.251200
3.249500 1.280700
3.278200 1.304000
3.306800 1.365900
3.335500 1.464600
3.364100 1.429700
3.392800 1.466500
3.421500 1.517800
3.450100 1.575100
3.478800 1.614600
3.507400 1.679300
3.536100 1.608200
3.564800 1.610100
3.593400 1.606700
3.622100 1.602900
3.650700 1.600800
3.679400 1.636500
3.708100 1.664300
3.736700 1.646100
3.765400 1.653300
3.794100 1.650500
3.822700 1.648800
3.851400 1.646200
3.880000 1.653500
3.908700 1.662500
3.937400 1.673400
3.966000 1.683500
3.994700 1.690200
4.023300 1.694400
4.052000 1.693800
4.080700 1.687500
4.109300 1.686100
4.138000 1.694600
4.166600 1.714100
4.195300 1.713200
4.224000 1.703200
4.252600 1.692200
4.281300 1.678900
4.309900 1.667000
4.338600 1.683700
4.367300 1.667000
4.395900 1.656700
4.424600 1.646500
4.453200 1.637100
4.481900 1.628600
4.510600 1.619700
4.539200 1.611500
4.567900 1.605300
4.596500 1.604900
4.625200 1.606300
4.653900 1.571700
4.682500 1.533000
4.711200 1.489000
4.739800 1.443200
4.768500 1.421700
4.797200 1.374100
4.825800 1.326100
4.854500 1.281000
4.883100 1.242000
4.911800 1.208000
4.940500 1.218700
4.969100 1.161100
4.997800 1.135200
5.026500 1.120500
5.055100 1.105900
5.083800 1.090200
5.112400 1.079500
5.141100 1.077700
5.169800 1.074400
5.198400 1.074300
5.227100 1.074200
5.255700 1.063700
5.284400 1.059000
5.313100 1.060200
5.341700 1.063400
5.370400 1.065800
5.399000 1.078900
5.427700 1.060000
5.456400 1.061700
5.485000 1.066600
5.513700 1.073600
5.542300 1.079900
5.571000 1.063600
5.599700 1.053100
5.628300 1.043600
5.657000 1.041300
5.685600 1.059300
5.714300 1.058400
5.743000 1.053800
5.771600 1.044500
5.800300 1.029900
5.828900 1.016000
5.857600 0.993600
5.886300 0.984200
5.914900 0.931100
5.943600 0.896300
5.972200 0.864500
6.000900 0.881200
6.029600 0.747700
6.058200 0.733600
6.086900 0.728100
6.115500 0.726100
6.144200 0.727200
6.172900 0.731100
6.201500 0.737200
6.230200 0.744300
6.258900 0.756000
6.287500 0.780100
6.316200 0.832700
6.344800 0.917400
6.373500 0.995500
6.402200 1.046200
6.430800 1.089900
6.459500 1.124100
6.488100 1.150800
6.516800 1.171300
6.545500 1.163900
6.574100 1.182400
6.602800 1.238000
6.631400 1.321800
6.660100 1.479100
6.688800 1.745000
6.717400 1.629700
6.746100 1.519000
6.774700 1.582500
6.803400 1.685300
6.832100 1.864600
6.860700 1.932100
6.889400 2.007800
6.918000 1.948700
6.946700 1.887100
6.975400 1.823200
7.004000 1.751500
7.032700 1.694600
7.061300 1.683800
7.090000 1.718600
7.118700 1.832000
7.147300 1.871700
7.176000 1.928600
7.204600 1.949700
7.233300 1.947100
7.262000 1.939700
7.290600 1.931300
7.319300 1.921500
7.347900 1.906900
7.376600 1.901300
7.405300 1.918100
7.433900 1.905300
7.462600 1.829900
7.491300 1.753900
7.519900 1.717600
7.548600 1.569000
7.577200 1.499100
7.605900 1.444800
7.634600 1.408300
7.663200 1.387600
7.691900 1.387400
7.720500 1.381400
7.749200 1.378200
7.777900 1.378700
7.806500 1.381400
7.835200 1.379800
7.863800 1.388400
7.892500 1.435600
7.921200 1.641600
7.949800 1.671200
7.978500 2.005500
8.007100 1.803200
8.035800 1.751000
8.064500 1.720100
8.093100 1.707700
8.121800 1.726500
8.150400 1.752600
8.179100 1.819600
8.207800 1.988100
8.236400 2.152000
8.265100 2.140000
8.293700 2.275000
8.322400 2.312500
8.351100 2.496000
8.379700 2.784000
8.408400 2.646900
8.437000 2.692000
8.465700 2.823500
8.494400 2.864500
8.523000 2.884600
8.551700 2.895500
8.580300 2.876600
8.609000 2.841400
8.637700 2.961800
8.666300 2.824700
8.695000 2.755800
8.723700 2.717000
8.752300 2.656600
8.781000 2.536400
8.809600 2.485300
8.838300 2.485400
8.867000 2.535200
8.895600 2.669800
8.924300 2.665500
8.952900 2.640600
8.981600 2.594600
9.010300 2.538900
9.038900 2.482100
9.067600 2.422300
9.096200 2.398200
9.124900 2.399100
9.153600 2.402100
9.182200 2.379300
9.210900 2.338300
9.239500 2.292900
9.268200 2.214700
9.296900 2.147400
9.325500 2.149500
9.354200 2.114300
9.382800 2.106500
9.411500 2.110300
9.440200 2.124400
9.468800 2.109100
9.497500 2.167700
9.526100 2.252900
9.554800 2.486000
9.583500 2.706400
9.612100 2.704700
9.640800 2.677900
9.669400 2.679600
9.698100 2.742300
9.726800 2.750200
9.755400 2.713300
9.784100 2.617900
9.812800 2.536600
9.841400 2.475100
9.870100 2.446800
9.898700 2.368800
9.927400 2.337800
9.956100 2.342800
9.984700 2.354400
10.013400 2.336900
10.042000 2.377200
10.070700 2.346400
10.099400 2.317200
10.128000 2.295100
10.156700 2.307900
10.185300 2.287300
10.214000 2.310100
10.242700 2.351000
10.271300 2.363400
10.300000 2.427600
10.328600 2.488700
10.357300 2.816500
10.386000 2.875500
10.414600 2.601900
10.443300 2.520700
10.471900 2.441800
10.500600 2.379500
10.529300 2.269300
10.557900 2.196100
10.586600 2.157400
10.615200 2.145000
10.643900 2.138900
10.672600 2.128200
10.701200 2.159900
10.729900 2.154400
10.758500 2.193400
10.787200 2.205800
10.815900 2.307200
10.844500 2.317200
10.873200 2.313300
10.901800 2.329500
10.930500 2.327200
10.959200 2.331700
10.987800 2.359000
11.016500 2.403000
11.045200 2.444900
11.073800 2.469800
11.102500 2.478200
11.131100 2.471800
11.159800 2.444800
11.188500 2.360500
11.217100 2.163200
11.245800 2.142300
11.274400 2.096400
11.303100 2.077900
11.331800 2.056200
11.360400 2.032600
11.389100 2.024300
11.417700 2.009600
11.446400 1.991700
11.475100 1.976800
11.503700 1.962500
11.532400 1.941700
11.561000 1.919800
11.589700 1.896700
11.618400 1.877900
11.647000 1.859100
11.675700 1.846300
11.704300 1.837500
11.733000 1.838800
11.761700 1.855100
11.790300 1.899300
11.819000 1.957400
11.847600 2.012900
11.876300 2.043600
11.905000 2.108300
11.933600 2.169600
11.962300 2.249500
11.990900 2.347600
12.019600 2.323000
12.048300 2.497000
12.076900 2.267600
12.105600 2.254300
12.134200 2.256200
12.162900 2.262700
12.191600 2.293900
12.220200 2.230700
12.248900 2.202300
12.277600 2.241000
12.306200 2.271300
12.334900 2.266800
12.363500 2.208900
12.392200 2.196700
12.420900 2.180400
12.449500 2.168200
12.478200 2.152900
12.506800 2.136100
12.535500 2.126600
12.564200 2.121500
12.592800 2.118300
12.621500 2.111700
12.650100 2.140200
12.678800 2.205000
12.707500 2.233100
12.736100 2.234200
12.764800 2.450300
12.793400 2.306400
12.822100 2.223500
12.850800 2.153700
12.879400 2.110500
12.908100 2.110600
12.936700 2.099000
12.965400 2.096500
12.994100 2.087200
13.022700 2.098600
13.051400 2.133300
13.080000 2.118300
13.108700 2.170000
13.137400 2.223200
13.166000 2.297200
13.194700 2.269000
13.223300 2.250900
13.252000 2.219600
13.280700 2.193000
13.309300 2.182000
13.338000 2.136200
13.366600 2.197100
13.395300 2.188400
13.424000 2.175200
13.452600 2.165100
13.481300 2.146100
13.510000 2.107100
13.538600 2.056800
13.567300 2.033200
13.595900 2.010000
13.624600 1.986300
13.653300 1.947300
13.681900 1.915600
13.710600 1.906000
13.739200 1.954200
13.767900 2.078000
13.796600 2.228200
13.825200 2.928000
13.853900 2.694400
13.882500 2.816600
13.911200 2.779800
13.939900 2.848500
13.968500 2.889500
13.997200 2.931300
14.025800 2.902800
14.054500 2.798300
14.083200 2.703100
14.111800 2.780700
14.140500 2.658100
14.169100 2.595000
14.197800 2.591000
14.226500 2.586800
14.255100 2.541200
14.283800 2.464100
14.312400 2.381300
14.341100 2.269500
14.369800 2.136300
14.398400 2.040100
14.427100 1.935500
14.455700 1.680800
14.484400 1.647800
14.513100 1.623000
14.541700 1.645400
14.570400 1.713300
14.599000 1.804000
14.627700 1.913400
14.656400 2.050600
14.685000 2.217100
14.713700 2.474500
14.742400 2.829800
14.771000 2.993600
14.799700 2.829900
14.828300 2.595100
14.857000 2.533800
14.885700 2.551600
14.914300 2.572000
14.943000 2.616400
14.971600 2.598400
15.000300 2.706300
15.029000 2.668400
15.057600 2.697600
15.086300 2.681100
15.114900 2.682800
15.143600 2.677800
15.172300 2.682700
15.200900 2.598700
15.229600 2.501700
15.258200 2.559800
15.286900 2.574800
15.315600 2.599300
15.344200 2.633900
15.372900 2.580200
15.401500 2.575800
15.430200 2.516100
15.458900 2.538000
15.487500 2.590700
15.516200 2.560200
15.544800 2.584500
15.573500 2.587500
15.602200 2.736600
15.630800 2.544900
15.659500 2.531500
15.688100 2.514300
15.716800 2.542700
15.745500 2.599300
15.774100 2.550400
15.802800 2.594500
15.831400 2.610600
15.860100 2.656500
15.888800 2.711800
15.917400 2.805600
15.946100 2.947600
15.974800 2.908200
16.003400 2.884900
16.032100 2.871400
16.060700 2.860600
16.089400 2.826700
16.118100 2.819000
16.146700 2.771500
16.175400 2.710000
16.204000 2.663800
16.232700 2.652700
16.261400 2.665900
16.290000 2.806900
16.318700 2.860800
16.347300 2.743500
16.376000 2.508300
16.404700 2.409100
16.433300 2.376700
16.462000 2.304000
16.490600 2.274700
16.519300 2.281600
16.548000 2.292700
16.576600 2.310300
16.605300 2.349800
16.633900 2.403600
16.662600 2.459800
16.691300 2.524600
16.719900 2.669700
16.748600 2.878400
16.777200 3.108900
16.805900 3.260300
16.834600 3.361900
16.863200 3.451900
16.891900 3.556700
16.920500 3.634100
16.949200 3.611500
16.977900 3.444600
17.006500 3.387300
17.035200 3.297100
17.063800 3.164000
17.092500 3.105900
17.121200 3.106600
17.149800 3.316400
17.178500 3.703300
17.207200 3.582300
17.235800 3.468100
17.264500 3.423100
17.293100 3.402200
17.321800 3.280300
17.350500 3.176100
17.379100 2.957700
17.407800 2.840300
17.436400 2.871900
17.465100 2.975500
17.493800 3.180700
17.522400 3.207800
17.551100 3.265600
17.579700 3.300000
17.608400 3.283000
17.637100 3.226600
17.665700 3.174200
17.694400 3.128200
17.723000 3.168300
17.751700 3.226200
17.780400 3.312100
17.809000 3.370500
17.837700 3.299400
17.866300 3.253900
17.895000 3.404400
17.923700 3.129100
17.952300 2.873000
17.981000 2.748000
18.009600 2.673400
18.038300 2.618600
18.067000 2.645200
18.095600 2.610000
18.124300 2.538700
18.152900 2.474400
18.181600 2.662200
18.210300 2.761000
18.238900 2.678000
18.267600 2.641200
18.296300 2.631200
18.324900 2.620600
18.353600 2.614400
18.382200 2.608800
18.410900 2.577800
18.439600 2.531000
18.468200 2.471300
18.496900 2.713000
18.525500 2.725300
18.554200 2.775500
18.582900 2.817600
18.611500 2.924100
18.640200 3.122500
18.668800 3.067900
18.697500 3.037500
18.726200 3.097800
18.754800 3.139800
18.783500 3.106200
18.812100 3.107000
18.840800 3.141900
18.869500 3.157900
18.898100 3.163400
18.926800 3.169800
18.955400 3.171900
18.984100 3.192800
19.012800 3.222100
19.041400 3.230800
19.070100 3.173700
19.098700 3.108300
19.127400 3.066800
19.156100 2.987200
19.184700 2.953000
19.213400 3.044200
19.242000 3.005500
19.270700 3.047600
19.299400 3.075300
19.328000 3.097100
19.356700 3.114800
19.385300 3.131200
19.414000 3.123700
19.442700 3.177300
19.471300 3.299100
19.500000 3.378600
19.528700 3.414700
19.557300 3.470200
19.586000 3.490200
19.614600 3.479400
19.643300 3.512900
19.672000 3.583400
19.700600 3.794800
19.729300 3.708700
19.757900 3.509700
19.786600 3.408100
19.815300 3.312900
19.843900 3.270800
19.872600 3.092000
19.901200 3.072200
19.929900 3.064700
19.958600 3.085000
19.987200 3.029200
20.015900 3.100100
20.044500 2.857600
20.073200 2.849500
20.101900 2.869400
20.130500 2.907900
20.159200 3.065900
20.187800 3.074000
20.216500 3.105200
20.245200 3.135500
20.273800 3.161800
20.302500 3.141800
20.331100 3.154200
20.359800 3.066100
20.388500 3.005200
20.417100 2.946400
20.445800 3.007000
20.474400 3.010000
20.503100 3.040400
20.531800 3.091100
20.560400 3.139100
20.589100 3.191400
20.617700 3.005900
20.646400 2.933600
20.675100 2.915900
20.703700 2.866800
20.732400 2.856000
20.761100 2.802400
20.789700 2.670000
20.818400 2.609500
20.847000 2.569500
20.875700 2.561000
20.904400 2.595700
20.933000 2.648600
20.961700 2.688800
20.990300 2.658800
21.019000 2.654600
21.047700 2.650400
21.076300 2.642700
21.105000 2.640100
21.133600 2.667100
21.162300 2.686900
21.191000 2.734500
21.219600 2.702300
21.248300 2.785600
21.276900 2.798100
21.305600 2.790200
21.334300 2.797500
21.362900 2.798800
21.391600 2.826400
21.420200 2.888900
21.448900 2.966600
21.477600 3.043000
21.506200 3.086800
21.534900 3.178800
21.563500 3.204900
21.592200 3.256100
21.620900 3.337400
21.649500 3.654700
21.678200 3.609500
21.706800 3.563100
21.735500 3.473000
21.764200 3.779300
21.792800 3.489700
21.821500 3.510300
21.850100 3.387200
21.878800 3.310400
21.907500 3.221700
21.936100 3.316900
21.964800 3.252200
21.993500 3.241700
22.022100 3.219400
22.050800 3.219400
22.079400 3.216100
22.108100 3.346900
22.136800 3.333900
22.165400 3.240300
22.194100 3.071200
22.222700 2.987300
22.251400 2.968200
22.280100 3.127900
22.308700 3.211600
22.337400 3.133600
22.366000 3.061900
22.394700 3.038800
22.423400 3.021500
22.452000 3.013600
22.480700 3.086900
22.509300 3.157400
22.538000 3.270800
22.566700 3.423700
22.595300 3.563600
22.624000 3.697100
22.652600 3.800800
22.681300 3.824800
22.710000 3.797200
22.738600 3.743500
22.767300 3.585400
22.795900 3.361600
22.824600 3.156100
22.853300 3.018600
22.881900 2.899600
22.910600 2.829300
22.939200 2.779500
22.967900 2.782300
22.996600 2.841300
23.025200 2.923600
23.053900 3.152800
23.082500 3.396200
23.111200 3.605100
23.139900 3.802800
23.168500 3.927400
23.197200 3.926200
23.225900 3.822900
23.254500 3.826500
23.283200 3.783600
23.311800 3.750100
23.340500 3.737000
23.369200 3.719000
23.397800 3.688400
23.426500 3.523900
23.455100 3.406400
23.483800 3.346200
23.512500 3.352100
23.541100 3.461600
23.569800 3.406800
23.598400 3.341800
23.627100 3.271200
23.655800 3.219300
23.684400 3.193200
23.713100 3.283100
23.741700 3.097000
23.770400 2.932800
23.799100 2.827800
23.827700 2.794300
23.856400 2.787800
23.885000 2.766700
23.913700 2.769600
23.942400 2.995200
23.971000 3.068700
23.999700 2.928000
24.028300 2.921800
24.057000 2.895400
24.085700 2.809700
24.114300 2.843200
24.143000 2.886800
24.171600 2.931700
24.200300 2.989100
24.229000 3.126100
24.257600 3.199300
24.286300 3.231500
24.314900 3.112800
24.343600 3.092700
24.372300 3.231800
24.400900 3.132000
24.429600 3.101600
24.458300 3.046200
24.486900 3.147800
24.515600 3.260800
24.544200 3.188600
24.572900 3.275600
24.601600 3.366000
24.630200 3.457800
24.658900 3.426900
24.687500 2.995200
24.716200 2.732800
24.744900 2.530700
24.773500 2.474800
24.802200 2.593700
24.830800 2.735000
24.859500 2.799700
24.888200 3.021500
24.916800 3.212000
24.945500 3.280800
24.974100 3.189400
25.002800 3.277700
25.031500 3.384200
25.060100 3.541600
25.088800 3.705200
25.117400 3.825200
25.146100 3.962400
25.174800 4.138400
25.203400 4.367600
25.232100 4.613400
25.260700 4.661700
25.289400 4.351600
25.318100 3.800200
25.346700 3.270800
25.375400 2.934000
25.404000 2.742700
25.432700 2.644800
25.461400 2.596200
25.490000 2.852100
25.518700 2.819100
25.547300 2.819000
25.576000 2.833800
25.604700 2.872700
25.633300 3.153000
25.662000 3.211200
25.690700 3.313100
25.719300 3.400900
25.748000 3.575600
25.776600 3.838900
25.805300 4.003000
25.834000 4.036500
25.862600 3.978100
25.891300 3.912100
25.919900 3.965000
25.948600 4.030900
25.977300 3.931900
26.005900 3.813600
26.034600 3.720500
26.063200 3.670100
26.091900 3.628500
26.120600 3.606800
26.149200 3.692600
26.177900 3.639100
26.206500 3.621400
26.235200 3.690700
26.263900 3.660300
26.292500 3.569400
26.321200 3.478400
26.349800 3.443100
26.378500 3.430600
26.407200 3.428700
26.435800 3.353500
26.464500 3.292900
26.493100 3.284100
26.521800 3.383000
26.550500 3.506800
26.579100 3.496400
26.607800 3.433300
26.636400 3.427200
26.665100 3.330000
26.693800 3.337000
26.722400 3.636300
26.751100 3.433000
26.779800 3.529000
26.808400 3.698700
26.837100 3.922900
26.865700 4.060500
26.894400 3.947500
26.923100 3.835000
26.951700 3.717700
26.980400 3.584900
27.009000 3.564400
27.037700 3.395600
27.066400 3.267800
27.095000 3.194200
27.123700 3.150400
27.152300 3.136500
27.181000 3.109900
27.209700 3.020300
27.238300 3.044700
27.267000 3.408300
27.295600 3.255500
27.324300 3.230400
27.353000 3.158700
27.381600 3.094600
27.410300 2.973300
27.438900 2.857000
27.467600 2.717800
27.496300 2.558500
27.524900 2.431800
27.553600 2.253600
27.582200 2.118900
27.610900 2.001100
27.639600 1.891800
27.668200 1.826900
27.696900 1.776500
27.725500 1.733100
27.754200 1.718600
27.782900 1.699700
27.811500 1.694200
27.840200 1.683200
27.868800 1.666000
27.897500 1.659700
27.926200 1.651900
27.954800 1.587500
27.983500 1.494900
28.012200 1.426800
28.040800 1.399300
28.069500 1.402900
28.098100 1.375200
28.126800 1.343100
28.155500 1.331800
28.184100 1.325400
28.212800 1.312500
28.241400 1.275200
28.270100 1.210600
28.298800 1.162700
28.327400 1.099800
28.356100 0.942300
28.384700 0.885500
28.413400 0.840300
28.442100 0.805800
28.470700 0.772600
28.499400 0.722700
28.528000 0.670700
28.556700 0.629300
28.585400 0.483400
28.614000 0.518400
28.642700 0.520500
28.671300 0.508500
28.700000 0.486700
28.728700 0.470700
28.757300 0.453900
28.786000 0.435300
28.814600 0.414000
28.843300 0.389900
28.872000 0.390700
28.900600 0.378500
28.929300 0.359500
28.957900 0.333900
28.986600 0.296900
29.015300 0.257000
29.043900 0.224200
29.072600 0.197100
29.101200 0.175000
29.129900 0.152300
29.158600 0.131200
29.187200 0.111600
29.215900 0.098400
29.244600 0.079800
29.273200 0.057600
29.301900 0.045100
29.330500 0.033800
29.359200 0.023700
29.387900 0.014800
29.416500 0.007100
29.445200 0.000500
29.473800 0.000000
29.502500 0.000000
29.531200 0.000000
29.559800 0.000000
29.588500 0.000000
29.617100 0.000000
29.645800 0.000000
29.674500 0.000000
29.703100 0.000000
29.731800 0.000000
29.760400 0.000000
29.789100 0.000000
29.817800 0.000000
29.846400 0.000000
29.875100 0.000000
29.903700 0.000000
29.932400 0.000000
29.961100 0.000000
29.989700 0.000000
30.018400 0.000000
30.047000 0.000000
30.075700 0.000000
30.104400 0.000000
30.133000 0.000000
30.161700 0.000000
30.190300 0.000000
30.219000 0.000000
30.247700 0.000000
30.276300 0.000000
30.305000 0.000000
30.333600 0.000000
30.362300 0.000000
30.391000 0.000000
30.419600 0.000000
30.448300 0.000000
30.477000 0.000000
30.505600 0.000000
30.534300 0.000000
30.562900 0.000000
30.591600 0.000000
30.620300 0.000000
30.648900 0.000000
30.677600 0.000000
30.706200 0.000000
30.734900 0.000000
30.763600 0.000000
30.792200 0.000000
30.820900 0.000000
30.849500 0.000000
30.878200 0.000000
30.906900 0.000000
30.935500 0.000000
30.964200 0.000000
30.992800 0.000000
31.021500 0.000000
31.050200 0.000000
31.078800 0.000000
31.107500 0.000000
31.136100 0.000000
31.164800 0.000000
31.193500 0.000000
31.222100 0.000000
31.250800 0.000000
31.279400 0.000000
31.308100 0.000000
31.336800 0.000000
31.365400 0.000000
31.394100 0.000000
31.422700 0.000000
31.451400 0.000000
31.480100 0.000000
31.508700 0.000000
31.537400 0.000000
31.566000 0.000000
31.594700 0.000000
31.623400 0.000000
31.652000 0.000000
31.680700 0.000000
31.709400 0.000000
31.738000 0.000000
31.766700 0.000000
31.795300 0.000000
31.824000 0.000000
31.852700 0.000000
31.881300 0.000000
31.910000 0.000000
31.938600 0.000000
31.967300 0.000000
31.996000 0.000000
32.024600 0.000000
32.053300 0.000000
e
