set title 'mp-2213 - Density of States'
set xlabel 'Energy (eV)'
set ylabel 'DOS (states/eV)'
set grid
set xrange [-10:10]
set yrange [0:4.424]
set xzeroaxis lt -1
set terminal png size 800,600
set output 'mp-2213_dos_gnuplot.png'
plot '-' using 1:2 with lines title 'DOS'
-63.014900 0.000000
-62.953600 0.000000
-62.892300 0.000000
-62.831000 0.000000
-62.769700 0.000000
-62.708400 0.000000
-62.647100 0.000000
-62.585800 0.000000
-62.524500 0.000000
-62.463200 0.000000
-62.401900 0.000000
-62.340700 0.000000
-62.279400 0.000000
-62.218100 0.000000
-62.156800 0.000000
-62.095500 0.000000
-62.034200 0.000000
-61.972900 0.000000
-61.911600 0.000000
-61.850300 0.000000
-61.789000 0.000000
-61.727700 0.000000
-61.666400 0.000000
-61.605100 0.000000
-61.543800 0.000000
-61.482500 0.000000
-61.421200 0.000000
-61.359900 0.000000
-61.298700 0.000000
-61.237400 0.000000
-61.176100 0.000000
-61.114800 0.000000
-61.053500 0.000000
-60.992200 0.000000
-60.930900 0.000000
-60.869600 0.000000
-60.808300 0.000000
-60.747000 0.000000
-60.685700 0.000000
-60.624400 0.000000
-60.563100 0.000000
-60.501800 0.000000
-60.440500 0.000000
-60.379200 0.000000
-60.317900 0.000000
-60.256600 0.000000
-60.195400 0.000000
-60.134100 0.000000
-60.072800 0.000000
-60.011500 0.000000
-59.950200 0.000000
-59.888900 0.000000
-59.827600 0.000000
-59.766300 0.000000
-59.705000 0.000000
-59.643700 0.000000
-59.582400 0.000000
-59.521100 0.000000
-59.459800 0.000000
-59.398500 0.000000
-59.337200 0.000000
-59.275900 0.000000
-59.214600 0.000000
-59.153300 0.000000
-59.092100 0.000000
-59.030800 0.000000
-58.969500 0.000000
-58.908200 0.000000
-58.846900 0.000000
-58.785600 0.000000
-58.724300 0.000000
-58.663000 0.000000
-58.601700 0.000000
-58.540400 0.000000
-58.479100 0.000000
-58.417800 0.000000
-58.356500 0.000000
-58.295200 0.000000
-58.233900 0.000000
-58.172600 0.000000
-58.111300 0.000000
-58.050100 0.000000
-57.988800 0.000000
-57.927500 0.000000
-57.866200 0.000000
-57.804900 0.000000
-57.743600 0.000000
-57.682300 0.000000
-57.621000 0.000000
-57.559700 0.000000
-57.498400 0.000000
-57.437100 21.776000
-57.375800 12.230200
-57.314500 0.000000
-57.253200 0.000000
-57.191900 0.000000
-57.130600 0.000000
-57.069300 0.000000
-57.008000 0.000000
-56.946800 0.000000
-56.885500 0.000000
-56.824200 0.000000
-56.762900 0.000000
-56.701600 0.000000
-56.640300 0.000000
-56.579000 0.000000
-56.517700 0.000000
-56.456400 0.000000
-56.395100 0.000000
-56.333800 0.000000
-56.272500 0.000000
-56.211200 0.000000
-56.149900 0.000000
-56.088600 0.000000
-56.027300 0.000000
-55.966000 0.000000
-55.904700 0.000000
-55.843500 0.000000
-55.782200 0.000000
-55.720900 0.000000
-55.659600 0.000000
-55.598300 0.000000
-55.537000 0.000000
-55.475700 0.000000
-55.414400 0.000000
-55.353100 0.000000
-55.291800 0.000000
-55.230500 0.000000
-55.169200 0.000000
-55.107900 0.000000
-55.046600 0.000000
-54.985300 0.000000
-54.924000 0.000000
-54.862700 0.000000
-54.801500 0.000000
-54.740200 0.000000
-54.678900 0.000000
-54.617600 0.000000
-54.556300 0.000000
-54.495000 0.000000
-54.433700 0.000000
-54.372400 0.000000
-54.311100 0.000000
-54.249800 0.000000
-54.188500 0.000000
-54.127200 0.000000
-54.065900 0.000000
-54.004600 0.000000
-53.943300 0.000000
-53.882000 0.000000
-53.820700 0.000000
-53.759400 0.000000
-53.698200 0.000000
-53.636900 0.000000
-53.575600 0.000000
-53.514300 0.000000
-53.453000 0.000000
-53.391700 0.000000
-53.330400 0.000000
-53.269100 0.000000
-53.207800 0.000000
-53.146500 0.000000
-53.085200 0.000000
-53.023900 0.000000
-52.962600 0.000000
-52.901300 0.000000
-52.840000 0.000000
-52.778700 0.000000
-52.717400 0.000000
-52.656100 0.000000
-52.594900 0.000000
-52.533600 0.000000
-52.472300 0.000000
-52.411000 0.000000
-52.349700 0.000000
-52.288400 0.000000
-52.227100 0.000000
-52.165800 0.000000
-52.104500 0.000000
-52.043200 0.000000
-51.981900 0.000000
-51.920600 0.000000
-51.859300 0.000000
-51.798000 0.000000
-51.736700 0.000000
-51.675400 0.000000
-51.614100 0.000000
-51.552800 0.000000
-51.491600 0.000000
-51.430300 0.000000
-51.369000 0.000000
-51.307700 0.000000
-51.246400 0.000000
-51.185100 0.000000
-51.123800 0.000000
-51.062500 0.000000
-51.001200 0.000000
-50.939900 0.000000
-50.878600 0.000000
-50.817300 0.000000
-50.756000 0.000000
-50.694700 0.000000
-50.633400 0.000000
-50.572100 0.000000
-50.510800 0.000000
-50.449600 0.000000
-50.388300 0.000000
-50.327000 0.000000
-50.265700 0.000000
-50.204400 0.000000
-50.143100 0.000000
-50.081800 0.000000
-50.020500 0.000000
-49.959200 0.000000
-49.897900 0.000000
-49.836600 0.000000
-49.775300 0.000000
-49.714000 0.000000
-49.652700 0.000000
-49.591400 0.000000
-49.530100 0.000000
-49.468800 0.000000
-49.407500 0.000000
-49.346300 0.000000
-49.285000 0.000000
-49.223700 0.000000
-49.162400 0.000000
-49.101100 0.000000
-49.039800 0.000000
-48.978500 0.000000
-48.917200 0.000000
-48.855900 0.000000
-48.794600 0.000000
-48.733300 0.000000
-48.672000 0.000000
-48.610700 0.000000
-48.549400 0.000000
-48.488100 0.000000
-48.426800 0.000000
-48.365500 0.000000
-48.304200 0.000000
-48.243000 0.000000
-48.181700 0.000000
-48.120400 0.000000
-48.059100 0.000000
-47.997800 0.000000
-47.936500 21.938800
-47.875200 0.000000
-47.813900 7.231900
-47.752600 5.559600
-47.691300 6.306500
-47.630000 10.468000
-47.568700 0.000000
-47.507400 0.000000
-47.446100 0.000000
-47.384800 0.000000
-47.323500 0.000000
-47.262200 0.000000
-47.201000 0.000000
-47.139700 0.000000
-47.078400 0.000000
-47.017100 0.000000
-46.955800 0.000000
-46.894500 0.000000
-46.833200 0.000000
-46.771900 0.000000
-46.710600 0.000000
-46.649300 0.000000
-46.588000 0.000000
-46.526700 0.000000
-46.465400 0.000000
-46.404100 0.000000
-46.342800 0.000000
-46.281500 0.000000
-46.220200 0.000000
-46.158900 0.000000
-46.097700 0.000000
-46.036400 0.000000
-45.975100 0.000000
-45.913800 0.000000
-45.852500 0.000000
-45.791200 0.000000
-45.729900 0.000000
-45.668600 0.000000
-45.607300 0.000000
-45.546000 0.000000
-45.484700 0.000000
-45.423400 0.000000
-45.362100 0.000000
-45.300800 0.000000
-45.239500 0.000000
-45.178200 0.000000
-45.116900 0.000000
-45.055600 0.000000
-44.994400 0.000000
-44.933100 0.000000
-44.871800 0.000000
-44.810500 0.000000
-44.749200 0.000000
-44.687900 0.000000
-44.626600 0.000000
-44.565300 0.000000
-44.504000 0.000000
-44.442700 0.000000
-44.381400 0.000000
-44.320100 0.000000
-44.258800 0.000000
-44.197500 0.000000
-44.136200 0.000000
-44.074900 0.000000
-44.013600 0.000000
-43.952400 0.000000
-43.891100 0.000000
-43.829800 0.000000
-43.768500 0.000000
-43.707200 0.000000
-43.645900 0.000000
-43.584600 0.000000
-43.523300 0.000000
-43.462000 0.000000
-43.400700 0.000000
-43.339400 0.000000
-43.278100 0.000000
-43.216800 0.000000
-43.155500 0.000000
-43.094200 0.000000
-43.032900 0.000000
-42.971600 0.000000
-42.910300 0.000000
-42.849100 0.000000
-42.787800 0.000000
-42.726500 0.000000
-42.665200 0.000000
-42.603900 0.000000
-42.542600 0.000000
-42.481300 0.000000
-42.420000 0.000000
-42.358700 0.000000
-42.297400 0.000000
-42.236100 0.000000
-42.174800 0.000000
-42.113500 0.000000
-42.052200 0.000000
-41.990900 0.000000
-41.929600 0.000000
-41.868300 0.000000
-41.807000 0.000000
-41.745800 0.000000
-41.684500 0.000000
-41.623200 0.000000
-41.561900 0.000000
-41.500600 0.000000
-41.439300 0.000000
-41.378000 0.000000
-41.316700 0.000000
-41.255400 0.000000
-41.194100 0.000000
-41.132800 0.000000
-41.071500 0.000000
-41.010200 0.000000
-40.948900 0.000000
-40.887600 0.000000
-40.826300 0.000000
-40.765000 0.000000
-40.703700 0.000000
-40.642500 0.000000
-40.581200 0.000000
-40.519900 0.000000
-40.458600 0.000000
-40.397300 0.000000
-40.336000 0.000000
-40.274700 0.000000
-40.213400 0.000000
-40.152100 0.000000
-40.090800 0.000000
-40.029500 0.000000
-39.968200 0.000000
-39.906900 0.000000
-39.845600 0.000000
-39.784300 0.000000
-39.723000 0.000000
-39.661700 0.000000
-39.600500 0.000000
-39.539200 0.000000
-39.477900 0.000000
-39.416600 0.000000
-39.355300 0.000000
-39.294000 0.000000
-39.232700 0.000000
-39.171400 0.000000
-39.110100 0.000000
-39.048800 0.000000
-38.987500 0.000000
-38.926200 0.000000
-38.864900 0.000000
-38.803600 0.000000
-38.742300 0.000000
-38.681000 0.000000
-38.619700 0.000000
-38.558400 0.000000
-38.497200 0.000000
-38.435900 0.000000
-38.374600 0.000000
-38.313300 0.000000
-38.252000 0.000000
-38.190700 0.000000
-38.129400 0.000000
-38.068100 0.000000
-38.006800 0.000000
-37.945500 0.000000
-37.884200 0.000000
-37.822900 0.000000
-37.761600 0.000000
-37.700300 0.000000
-37.639000 0.000000
-37.577700 0.000000
-37.516400 0.000000
-37.455100 0.000000
-37.393900 0.000000
-37.332600 0.000000
-37.271300 0.000000
-37.210000 0.000000
-37.148700 0.000000
-37.087400 0.000000
-37.026100 0.000000
-36.964800 0.000000
-36.903500 0.000000
-36.842200 0.000000
-36.780900 0.000000
-36.719600 0.000000
-36.658300 0.000000
-36.597000 0.000000
-36.535700 0.000000
-36.474400 0.000000
-36.413100 0.000000
-36.351900 0.000000
-36.290600 0.000000
-36.229300 0.000000
-36.168000 0.000000
-36.106700 0.000000
-36.045400 0.000000
-35.984100 0.000000
-35.922800 0.000000
-35.861500 0.000000
-35.800200 0.000000
-35.738900 0.000000
-35.677600 0.000000
-35.616300 0.000000
-35.555000 0.000000
-35.493700 0.000000
-35.432400 0.000000
-35.371100 0.000000
-35.309800 0.000000
-35.248600 0.000000
-35.187300 0.000000
-35.126000 0.000000
-35.064700 0.000000
-35.003400 0.000000
-34.942100 0.000000
-34.880800 0.000000
-34.819500 0.000000
-34.758200 0.000000
-34.696900 0.000000
-34.635600 0.000000
-34.574300 0.000000
-34.513000 0.000000
-34.451700 0.000000
-34.390400 0.000000
-34.329100 0.000000
-34.267800 0.000000
-34.206500 0.000000
-34.145300 0.000000
-34.084000 0.000000
-34.022700 0.000000
-33.961400 0.000000
-33.900100 0.000000
-33.838800 0.000000
-33.777500 0.000000
-33.716200 0.000000
-33.654900 0.000000
-33.593600 0.000000
-33.532300 0.000000
-33.471000 0.000000
-33.409700 0.000000
-33.348400 0.000000
-33.287100 0.000000
-33.225800 0.000000
-33.164500 0.000000
-33.103300 0.000000
-33.042000 0.000000
-32.980700 0.000000
-32.919400 0.000000
-32.858100 0.000000
-32.796800 0.000000
-32.735500 0.000000
-32.674200 0.000000
-32.612900 0.000000
-32.551600 0.000000
-32.490300 0.000000
-32.429000 0.000000
-32.367700 0.000000
-32.306400 0.000000
-32.245100 0.000000
-32.183800 0.000000
-32.122500 0.000000
-32.061200 0.000000
-32.000000 0.000000
-31.938700 0.000000
-31.877400 0.000000
-31.816100 0.000000
-31.754800 0.000000
-31.693500 0.000000
-31.632200 0.000000
-31.570900 0.000000
-31.509600 0.000000
-31.448300 0.000000
-31.387000 0.000000
-31.325700 0.000000
-31.264400 0.000000
-31.203100 0.000000
-31.141800 0.000000
-31.080500 0.000000
-31.019200 0.000000
-30.957900 0.000000
-30.896700 0.000000
-30.835400 0.000000
-30.774100 0.000000
-30.712800 0.000000
-30.651500 0.000000
-30.590200 0.000000
-30.528900 0.000000
-30.467600 0.000000
-30.406300 0.000000
-30.345000 0.000000
-30.283700 0.000000
-30.222400 0.000000
-30.161100 0.000000
-30.099800 0.000000
-30.038500 0.000000
-29.977200 0.000000
-29.915900 0.000000
-29.854600 0.000000
-29.793400 0.000000
-29.732100 0.000000
-29.670800 0.000000
-29.609500 0.000000
-29.548200 0.000000
-29.486900 0.000000
-29.425600 0.000000
-29.364300 0.000000
-29.303000 0.000000
-29.241700 0.000000
-29.180400 0.000000
-29.119100 0.000000
-29.057800 0.000000
-28.996500 0.000000
-28.935200 0.000000
-28.873900 0.000000
-28.812600 0.000000
-28.751400 0.000000
-28.690100 0.000000
-28.628800 0.000000
-28.567500 0.000000
-28.506200 0.000000
-28.444900 0.000000
-28.383600 0.000000
-28.322300 0.000000
-28.261000 0.000000
-28.199700 0.000000
-28.138400 0.000000
-28.077100 0.000000
-28.015800 0.000000
-27.954500 0.000000
-27.893200 0.000000
-27.831900 0.000000
-27.770600 0.000000
-27.709300 0.000000
-27.648100 0.000000
-27.586800 0.000000
-27.525500 0.000000
-27.464200 0.000000
-27.402900 0.000000
-27.341600 0.000000
-27.280300 0.000000
-27.219000 0.000000
-27.157700 0.000000
-27.096400 0.000000
-27.035100 0.000000
-26.973800 0.000000
-26.912500 0.000000
-26.851200 0.000000
-26.789900 0.000000
-26.728600 0.000000
-26.667300 0.000000
-26.606000 0.000000
-26.544800 0.000000
-26.483500 0.000000
-26.422200 0.000000
-26.360900 0.000000
-26.299600 0.000000
-26.238300 0.000000
-26.177000 0.000000
-26.115700 0.000000
-26.054400 0.000000
-25.993100 0.000000
-25.931800 0.000000
-25.870500 0.000000
-25.809200 0.000000
-25.747900 0.000000
-25.686600 0.000000
-25.625300 0.000000
-25.564000 0.000000
-25.502800 0.000000
-25.441500 0.000000
-25.380200 0.000000
-25.318900 0.000000
-25.257600 0.000000
-25.196300 0.000000
-25.135000 0.000000
-25.073700 0.000000
-25.012400 0.000000
-24.951100 0.000000
-24.889800 0.000000
-24.828500 0.000000
-24.767200 0.000000
-24.705900 0.000000
-24.644600 0.000000
-24.583300 0.000000
-24.522000 0.000000
-24.460700 0.000000
-24.399500 0.000000
-24.338200 0.000000
-24.276900 0.000000
-24.215600 0.000000
-24.154300 0.000000
-24.093000 0.000000
-24.031700 0.000000
-23.970400 0.000000
-23.909100 0.000000
-23.847800 0.000000
-23.786500 0.000000
-23.725200 0.000000
-23.663900 0.000000
-23.602600 0.000000
-23.541300 0.000000
-23.480000 0.000000
-23.418700 0.000000
-23.357400 0.000000
-23.296200 0.000000
-23.234900 0.000000
-23.173600 0.000000
-23.112300 0.000000
-23.051000 0.000000
-22.989700 0.000000
-22.928400 0.000000
-22.867100 0.000000
-22.805800 0.000000
-22.744500 0.000000
-22.683200 0.000000
-22.621900 0.000000
-22.560600 0.000000
-22.499300 0.000000
-22.438000 0.000000
-22.376700 0.000000
-22.315400 0.000000
-22.254200 0.000000
-22.192900 0.000000
-22.131600 0.000000
-22.070300 0.000000
-22.009000 0.000000
-21.947700 0.000000
-21.886400 0.000000
-21.825100 0.000000
-21.763800 0.000000
-21.702500 0.000000
-21.641200 0.000000
-21.579900 0.000000
-21.518600 0.000000
-21.457300 0.000000
-21.396000 0.000000
-21.334700 0.000000
-21.273400 0.000000
-21.212100 0.000000
-21.150900 0.000000
-21.089600 0.000000
-21.028300 0.000000
-20.967000 0.000000
-20.905700 0.000000
-20.844400 0.000000
-20.783100 0.000000
-20.721800 0.000000
-20.660500 0.000000
-20.599200 0.000000
-20.537900 0.000000
-20.476600 0.000000
-20.415300 0.000000
-20.354000 0.000000
-20.292700 0.000000
-20.231400 0.000000
-20.170100 0.000000
-20.108800 0.000000
-20.047600 0.000000
-19.986300 0.000000
-19.925000 0.000000
-19.863700 0.000000
-19.802400 0.000000
-19.741100 0.000000
-19.679800 0.000000
-19.618500 0.000000
-19.557200 0.000000
-19.495900 0.000000
-19.434600 0.000000
-19.373300 0.000000
-19.312000 0.000000
-19.250700 0.000000
-19.189400 0.000000
-19.128100 0.000000
-19.066800 0.000000
-19.005500 0.000000
-18.944300 0.000000
-18.883000 0.000000
-18.821700 0.000000
-18.760400 0.000000
-18.699100 0.000000
-18.637800 0.000000
-18.576500 0.000000
-18.515200 0.000000
-18.453900 0.000000
-18.392600 0.000000
-18.331300 0.000000
-18.270000 0.000000
-18.208700 0.000000
-18.147400 0.000000
-18.086100 0.000000
-18.024800 0.000000
-17.963500 0.000000
-17.902300 0.000000
-17.841000 0.000000
-17.779700 0.000000
-17.718400 0.000000
-17.657100 0.000000
-17.595800 0.000000
-17.534500 0.000000
-17.473200 0.000000
-17.411900 0.000000
-17.350600 0.000000
-17.289300 0.000000
-17.228000 0.000000
-17.166700 0.000000
-17.105400 0.000000
-17.044100 0.000000
-16.982800 0.000000
-16.921500 0.000000
-16.860200 0.000000
-16.799000 0.000000
-16.737700 0.000000
-16.676400 0.000000
-16.615100 0.000000
-16.553800 0.000000
-16.492500 0.000000
-16.431200 0.000000
-16.369900 0.000000
-16.308600 0.000000
-16.247300 0.000000
-16.186000 0.000000
-16.124700 0.000000
-16.063400 0.000000
-16.002100 0.000000
-15.940800 0.000000
-15.879500 0.000000
-15.818200 0.000000
-15.756900 0.000000
-15.695700 0.000000
-15.634400 0.000000
-15.573100 0.000000
-15.511800 0.000000
-15.450500 0.000000
-15.389200 0.000000
-15.327900 0.000000
-15.266600 0.000000
-15.205300 0.000000
-15.144000 0.000000
-15.082700 0.000000
-15.021400 0.000000
-14.960100 0.000000
-14.898800 0.000000
-14.837500 0.000000
-14.776200 0.000000
-14.714900 0.000000
-14.653700 0.000000
-14.592400 0.000000
-14.531100 0.000000
-14.469800 0.000000
-14.408500 0.000000
-14.347200 0.000000
-14.285900 0.000000
-14.224600 0.000000
-14.163300 0.000000
-14.102000 0.000000
-14.040700 0.000000
-13.979400 0.000000
-13.918100 0.000000
-13.856800 0.000000
-13.795500 0.000000
-13.734200 0.000000
-13.672900 0.000000
-13.611600 0.000000
-13.550400 0.000000
-13.489100 0.000000
-13.427800 0.000000
-13.366500 0.000000
-13.305200 0.000000
-13.243900 0.000000
-13.182600 0.000000
-13.121300 0.000000
-13.060000 0.000000
-12.998700 0.000000
-12.937400 0.000000
-12.876100 0.000000
-12.814800 0.000000
-12.753500 0.000000
-12.692200 0.000000
-12.630900 0.000000
-12.569600 0.000000
-12.508300 0.000000
-12.447100 0.000000
-12.385800 0.000000
-12.324500 0.000000
-12.263200 0.000000
-12.201900 0.000000
-12.140600 0.000000
-12.079300 0.000000
-12.018000 0.000000
-11.956700 0.000000
-11.895400 0.000000
-11.834100 0.000000
-11.772800 0.000000
-11.711500 0.000000
-11.650200 0.000000
-11.588900 0.000000
-11.527600 0.000000
-11.466300 0.000000
-11.405100 0.000000
-11.343800 0.000000
-11.282500 0.000000
-11.221200 0.000000
-11.159900 0.000000
-11.098600 0.000000
-11.037300 0.000000
-10.976000 0.000000
-10.914700 0.000000
-10.853400 0.000000
-10.792100 0.000000
-10.730800 0.000000
-10.669500 0.000000
-10.608200 0.000000
-10.546900 0.000000
-10.485600 0.000000
-10.424300 0.000000
-10.363000 0.000000
-10.301800 0.000000
-10.240500 0.000000
-10.179200 0.000000
-10.117900 0.000000
-10.056600 0.000000
-9.995300 0.000000
-9.934000 0.000000
-9.872700 0.000000
-9.811400 0.000000
-9.750100 0.000000
-9.688800 0.000000
-9.627500 0.000000
-9.566200 0.000000
-9.504900 0.000000
-9.443600 0.000000
-9.382300 0.000000
-9.321000 0.000000
-9.259700 0.000000
-9.198500 0.000000
-9.137200 0.000000
-9.075900 0.000000
-9.014600 0.000000
-8.953300 0.000000
-8.892000 0.000000
-8.830700 0.000000
-8.769400 0.000000
-8.708100 0.000000
-8.646800 0.000000
-8.585500 0.000000
-8.524200 0.000000
-8.462900 0.000000
-8.401600 0.000000
-8.340300 0.000000
-8.279000 0.000000
-8.217700 0.000000
-8.156400 0.000000
-8.095200 0.000000
-8.033900 0.000000
-7.972600 0.000000
-7.911300 0.000000
-7.850000 0.000000
-7.788700 0.000000
-7.727400 0.000000
-7.666100 0.000000
-7.604800 0.000000
-7.543500 0.000000
-7.482200 0.000000
-7.420900 0.000000
-7.359600 0.000000
-7.298300 0.000000
-7.237000 0.000000
-7.175700 0.000000
-7.114400 0.000000
-7.053200 0.000000
-6.991900 0.000000
-6.930600 0.000000
-6.869300 0.000000
-6.808000 0.000000
-6.746700 0.000000
-6.685400 0.000000
-6.624100 0.000000
-6.562800 0.000000
-6.501500 0.000000
-6.440200 0.000000
-6.378900 0.000000
-6.317600 0.000000
-6.256300 0.000000
-6.195000 0.000000
-6.133700 0.000000
-6.072400 0.000000
-6.011100 0.000000
-5.949900 0.000000
-5.888600 0.000000
-5.827300 0.000000
-5.766000 0.000000
-5.704700 0.000000
-5.643400 0.000000
-5.582100 0.000000
-5.520800 0.000000
-5.459500 0.000000
-5.398200 0.000000
-5.336900 0.000000
-5.275600 0.000000
-5.214300 0.000000
-5.153000 0.000000
-5.091700 0.000000
-5.030400 0.000000
-4.969100 0.000000
-4.907800 0.000000
-4.846600 0.000000
-4.785300 0.000000
-4.724000 0.000000
-4.662700 0.000000
-4.601400 0.000000
-4.540100 0.000000
-4.478800 0.000000
-4.417500 0.000000
-4.356200 0.000000
-4.294900 0.000000
-4.233600 0.000000
-4.172300 0.000000
-4.111000 0.000000
-4.049700 0.000000
-3.988400 0.000000
-3.927100 0.000000
-3.865800 0.000000
-3.804600 0.000000
-3.743300 0.000000
-3.682000 0.000000
-3.620700 0.000000
-3.559400 0.000000
-3.498100 0.000000
-3.436800 0.000000
-3.375500 0.000000
-3.314200 0.000000
-3.252900 0.000000
-3.191600 0.000000
-3.130300 0.000000
-3.069000 0.000000
-3.007700 0.000000
-2.946400 0.000000
-2.885100 0.000000
-2.823800 0.000000
-2.762500 0.000000
-2.701300 0.000000
-2.640000 0.000000
-2.578700 0.000000
-2.517400 0.000000
-2.456100 0.000000
-2.394800 0.000000
-2.333500 0.000000
-2.272200 0.000000
-2.210900 0.009600
-2.149600 0.018500
-2.088300 0.026600
-2.027000 0.030900
-1.965700 0.035100
-1.904400 0.039600
-1.843100 0.044200
-1.781800 0.046900
-1.720500 0.049900
-1.659200 0.053300
-1.598000 0.057300
-1.536700 0.060200
-1.475400 0.062700
-1.414100 0.065400
-1.352800 0.068400
-1.291500 0.071500
-1.230200 0.074600
-1.168900 0.077300
-1.107600 0.079900
-1.046300 0.082500
-0.985000 0.085200
-0.923700 0.088000
-0.862400 0.091200
-0.801100 0.094300
-0.739800 0.097100
-0.678500 0.099800
-0.617200 0.102500
-0.555900 0.105600
-0.494700 0.108700
-0.433400 0.112000
-0.372100 0.115300
-0.310800 0.118500
-0.249500 0.121800
-0.188200 0.125300
-0.126900 0.129000
-0.065600 0.132700
-0.004300 0.136400
0.057000 0.140300
0.118300 0.144800
0.179600 0.149500
0.240900 0.154100
0.302200 0.165400
0.363500 0.169700
0.424800 0.171800
0.486100 0.176300
0.547300 0.180400
0.608600 0.184500
0.669900 0.189000
0.731200 0.196900
0.792500 0.211800
0.853800 0.224000
0.915100 0.233600
0.976400 0.245600
1.037700 0.259700
1.099000 0.276000
1.160300 0.294800
1.221600 0.318600
1.282900 0.349800
1.344200 0.394900
1.405500 0.537100
1.466800 0.626500
1.528100 0.650100
1.589400 0.838100
1.650600 0.871800
1.711900 0.879800
1.773200 1.057400
1.834500 1.096400
1.895800 1.145100
1.957100 1.191400
2.018400 1.226000
2.079700 1.281100
2.141000 1.205900
2.202300 1.342400
2.263600 1.461200
2.324900 1.599100
2.386200 1.812600
2.447500 1.908800
2.508800 2.013000
2.570100 1.938800
2.631400 1.890300
2.692700 1.896500
2.753900 1.994700
2.815200 1.877900
2.876500 1.527900
2.937800 1.871800
2.999100 1.815100
3.060400 1.648700
3.121700 1.525400
3.183000 1.523500
3.244300 1.545300
3.305600 1.500200
3.366900 1.604000
3.428200 1.781900
3.489500 1.909800
3.550800 2.096900
3.612100 2.199600
3.673400 2.406900
3.734700 2.332800
3.795900 2.364800
3.857200 2.304700
3.918500 2.522800
3.979800 2.724100
4.041100 3.091700
4.102400 3.454500
4.163700 3.215300
4.225000 3.501400
4.286300 3.267800
4.347600 2.566200
4.408900 2.237800
4.470200 2.593000
4.531500 2.322500
4.592800 2.114200
4.654100 2.004400
4.715400 1.896700
4.776700 2.060500
4.838000 2.550900
4.899200 2.644000
4.960500 2.657700
5.021800 2.650100
5.083100 2.348400
5.144400 2.515100
5.205700 2.800900
5.267000 2.459500
5.328300 2.056200
5.389600 2.325700
5.450900 2.288900
5.512200 2.291800
5.573500 2.347900
5.634800 2.451900
5.696100 2.734600
5.757400 2.879000
5.818700 3.500100
5.880000 4.021600
5.941300 3.901900
6.002500 3.246100
6.063800 1.992400
6.125100 1.488300
6.186400 0.638200
6.247700 0.572100
6.309000 0.522900
6.370300 0.486300
6.431600 0.442500
6.492900 0.323400
6.554200 0.322500
6.615500 0.321200
6.676800 0.321600
6.738100 0.326400
6.799400 0.322100
6.860700 0.317300
6.922000 0.312700
6.983300 0.311400
7.044500 0.310600
7.105800 0.310700
7.167100 0.310400
7.228400 0.315100
7.289700 0.349500
7.351000 0.297600
7.412300 0.282300
7.473600 0.275700
7.534900 0.268000
7.596200 0.263200
7.657500 0.258900
7.718800 0.256400
7.780100 0.253500
7.841400 0.253000
7.902700 0.253900
7.964000 0.254900
8.025300 0.262100
8.086600 0.279800
8.147800 0.282800
8.209100 0.275400
8.270400 0.269100
8.331700 0.269300
8.393000 0.267300
8.454300 0.266100
8.515600 0.265400
8.576900 0.264100
8.638200 0.262900
8.699500 0.261700
8.760800 0.260800
8.822100 0.260800
8.883400 0.260000
8.944700 0.258800
9.006000 0.258100
9.067300 0.255400
9.128600 0.252900
9.189900 0.253400
9.251100 0.258400
9.312400 0.263800
9.373700 0.257500
9.435000 0.251400
9.496300 0.249600
9.557600 0.247400
9.618900 0.244600
9.680200 0.242200
9.741500 0.238700
9.802800 0.235900
9.864100 0.233300
9.925400 0.230800
9.986700 0.227800
10.048000 0.225000
10.109300 0.222300
10.170600 0.219800
10.231900 0.217100
10.293200 0.213900
10.354400 0.211200
10.415700 0.208400
10.477000 0.205600
10.538300 0.203200
10.599600 0.200400
10.660900 0.196900
10.722200 0.194100
10.783500 0.191000
10.844800 0.187900
10.906100 0.184300
10.967400 0.181200
11.028700 0.178000
11.090000 0.174600
11.151300 0.171400
11.212600 0.168100
11.273900 0.164900
11.335200 0.161500
11.396400 0.158800
11.457700 0.155500
11.519000 0.152200
11.580300 0.148700
11.641600 0.145200
11.702900 0.141600
11.764200 0.137900
11.825500 0.134400
11.886800 0.131500
11.948100 0.128100
12.009400 0.124800
12.070700 0.120700
12.132000 0.117000
12.193300 0.112700
12.254600 0.107900
12.315900 0.103300
12.377200 0.133900
12.438500 0.144000
12.499700 0.158800
12.561000 0.182200
12.622300 0.198700
12.683600 0.214500
12.744900 0.226300
12.806200 0.231700
12.867500 0.267200
12.928800 0.264900
12.990100 0.267300
13.051400 0.278100
13.112700 0.284000
13.174000 0.292000
13.235300 0.299300
13.296600 0.313600
13.357900 0.327200
13.419200 0.334500
13.480500 0.332300
13.541800 0.327000
13.603000 0.322400
13.664300 0.316800
13.725600 0.311100
13.786900 0.304900
13.848200 0.298300
13.909500 0.291000
13.970800 0.284200
14.032100 0.281600
14.093400 0.280900
14.154700 0.278200
14.216000 0.271800
14.277300 0.266000
14.338600 0.261800
14.399900 0.258400
14.461200 0.255600
14.522500 0.252600
14.583800 0.250400
14.645000 0.248300
14.706300 0.252200
14.767600 0.247200
14.828900 0.245700
14.890200 0.241600
14.951500 0.239500
15.012800 0.237700
15.074100 0.235500
15.135400 0.233100
15.196700 0.231500
15.258000 0.230100
15.319300 0.229200
15.380600 0.229300
15.441900 0.226700
15.503200 0.226800
15.564500 0.227400
15.625800 0.228400
15.687100 0.229400
15.748300 0.234200
15.809600 0.253600
15.870900 0.264000
15.932200 0.283500
15.993500 0.299900
16.054800 0.332400
16.116100 0.329500
16.177400 0.297000
16.238700 0.299200
16.300000 0.265400
16.361300 0.263100
16.422600 0.261600
16.483900 0.270000
16.545200 0.300200
16.606500 0.331200
16.667800 0.361600
16.729100 0.374900
16.790400 0.373000
16.851600 0.372900
16.912900 0.371200
16.974200 0.369300
17.035500 0.365200
17.096800 0.361500
17.158100 0.361500
17.219400 0.363300
17.280700 0.368300
17.342000 0.365000
17.403300 0.361900
17.464600 0.360300
17.525900 0.358500
17.587200 0.354400
17.648500 0.352200
17.709800 0.352400
17.771100 0.352500
17.832400 0.357800
17.893600 0.360600
17.954900 0.366300
18.016200 0.370800
18.077500 0.369600
18.138800 0.367300
18.200100 0.371200
18.261400 0.371700
18.322700 0.373500
18.384000 0.379200
18.445300 0.382400
18.506600 0.385000
18.567900 0.390200
18.629200 0.382200
18.690500 0.377100
18.751800 0.372800
18.813100 0.379400
18.874400 0.375800
18.935700 0.374700
18.996900 0.387000
19.058200 0.366500
19.119500 0.367200
19.180800 0.365900
19.242100 0.366700
19.303400 0.364000
19.364700 0.365100
19.426000 0.371700
19.487300 0.373700
19.548600 0.380600
19.609900 0.390400
19.671200 0.392900
19.732500 0.397900
19.793800 0.402800
19.855100 0.396400
19.916400 0.394800
19.977700 0.394800
20.039000 0.398100
20.100200 0.401300
20.161500 0.405500
20.222800 0.407000
20.284100 0.412700
20.345400 0.412000
20.406700 0.410200
20.468000 0.407400
20.529300 0.404900
20.590600 0.405500
20.651900 0.405700
20.713200 0.405800
20.774500 0.409500
20.835800 0.413100
20.897100 0.417300
20.958400 0.424600
21.019700 0.428400
21.081000 0.431700
21.142300 0.458000
21.203500 0.463900
21.264800 0.447800
21.326100 0.444700
21.387400 0.443200
21.448700 0.447200
21.510000 0.450900
21.571300 0.463600
21.632600 0.450900
21.693900 0.454700
21.755200 0.450400
21.816500 0.453800
21.877800 0.454800
21.939100 0.455900
22.000400 0.448700
22.061700 0.442700
22.123000 0.439900
22.184300 0.437600
22.245500 0.434500
22.306800 0.432800
22.368100 0.432800
22.429400 0.429600
22.490700 0.426100
22.552000 0.424600
22.613300 0.424900
22.674600 0.422500
22.735900 0.420400
22.797200 0.417700
22.858500 0.414400
22.919800 0.411900
22.981100 0.407200
23.042400 0.412700
23.103700 0.403900
23.165000 0.405200
23.226300 0.394400
23.287600 0.389400
23.348800 0.389800
23.410100 0.392600
23.471400 0.391200
23.532700 0.388800
23.594000 0.389800
23.655300 0.389000
23.716600 0.389300
23.777900 0.390200
23.839200 0.387300
23.900500 0.387000
23.961800 0.386600
24.023100 0.385100
24.084400 0.382700
24.145700 0.380100
24.207000 0.377700
24.268300 0.383600
24.329600 0.375900
24.390900 0.374000
24.452100 0.376300
24.513400 0.366700
24.574700 0.363100
24.636000 0.361500
24.697300 0.361200
24.758600 0.358400
24.819900 0.356700
24.881200 0.355300
24.942500 0.354400
25.003800 0.353100
25.065100 0.350100
25.126400 0.347300
25.187700 0.346800
25.249000 0.349500
25.310300 0.340900
25.371600 0.337900
25.432900 0.345800
25.494100 0.337700
25.555400 0.334700
25.616700 0.331000
25.678000 0.327000
25.739300 0.324600
25.800600 0.322900
25.861900 0.322600
25.923200 0.323300
25.984500 0.324600
26.045800 0.330800
26.107100 0.336100
26.168400 0.340900
26.229700 0.345400
26.291000 0.350800
26.352300 0.351600
26.413600 0.355100
26.474900 0.359900
26.536200 0.361900
26.597400 0.361800
26.658700 0.363000
26.720000 0.364800
26.781300 0.366700
26.842600 0.367300
26.903900 0.365700
26.965200 0.369500
27.026500 0.381600
27.087800 0.387100
27.149100 0.389200
27.210400 0.395900
27.271700 0.403300
27.333000 0.403500
27.394300 0.402700
27.455600 0.406800
27.516900 0.419200
27.578200 0.440700
27.639500 0.450000
27.700700 0.448900
27.762000 0.454800
27.823300 0.461500
27.884600 0.471700
27.945900 0.477700
28.007200 0.469600
28.068500 0.465300
28.129800 0.468200
28.191100 0.477800
28.252400 0.481800
28.313700 0.476000
28.375000 0.472700
28.436300 0.470500
28.497600 0.467400
28.558900 0.461600
28.620200 0.458700
28.681500 0.457500
28.742700 0.458200
28.804000 0.463200
28.865300 0.473600
28.926600 0.488800
28.987900 0.504200
29.049200 0.517600
29.110500 0.534400
29.171800 0.547700
29.233100 0.555200
29.294400 0.563000
29.355700 0.569800
29.417000 0.571300
29.478300 0.567500
29.539600 0.554100
29.600900 0.534000
29.662200 0.511600
29.723500 0.477800
29.784800 0.453100
29.846000 0.443500
29.907300 0.425900
29.968600 0.428200
30.029900 0.438500
30.091200 0.454600
30.152500 0.474300
30.213800 0.497400
30.275100 0.507400
30.336400 0.511100
30.397700 0.528600
30.459000 0.560700
30.520300 0.561700
30.581600 0.575500
30.642900 0.579700
30.704200 0.578900
30.765500 0.569600
30.826800 0.557600
30.888100 0.543200
30.949300 0.517400
31.010600 0.503700
31.071900 0.493400
31.133200 0.488400
31.194500 0.484100
31.255800 0.486200
31.317100 0.502200
31.378400 0.501000
31.439700 0.487700
31.501000 0.482200
31.562300 0.477400
31.623600 0.472800
31.684900 0.466300
31.746200 0.460400
31.807500 0.455200
31.868800 0.451600
31.930100 0.446400
31.991400 0.442100
32.052600 0.438600
32.113900 0.436700
32.175200 0.438200
32.236500 0.433900
32.297800 0.434100
32.359100 0.428800
32.420400 0.421400
32.481700 0.409300
32.543000 0.399300
32.604300 0.388400
32.665600 0.382300
32.726900 0.376800
32.788200 0.368700
32.849500 0.366000
32.910800 0.362900
32.972100 0.361500
33.033400 0.362300
33.094600 0.356000
33.155900 0.344000
33.217200 0.343000
33.278500 0.344300
33.339800 0.347600
33.401100 0.352800
33.462400 0.357900
33.523700 0.368100
33.585000 0.370000
33.646300 0.357500
33.707600 0.343900
33.768900 0.330100
33.830200 0.320100
33.891500 0.309200
33.952800 0.294800
34.014100 0.280300
34.075400 0.274700
34.136700 0.269400
34.197900 0.263200
34.259200 0.258200
34.320500 0.254800
34.381800 0.253200
34.443100 0.258700
34.504400 0.271500
34.565700 0.292800
34.627000 0.322400
34.688300 0.359200
34.749600 0.392600
34.810900 0.421500
34.872200 0.454400
34.933500 0.478800
34.994800 0.495000
35.056100 0.510100
35.117400 0.530000
35.178700 0.552800
35.240000 0.568600
35.301200 0.572800
35.362500 0.573600
35.423800 0.578300
35.485100 0.587800
35.546400 0.612000
35.607700 0.627100
35.669000 0.636500
35.730300 0.639400
35.791600 0.648500
35.852900 0.642000
35.914200 0.633900
35.975500 0.627400
36.036800 0.628900
36.098100 0.619900
36.159400 0.607100
36.220700 0.600900
36.282000 0.599100
36.343200 0.601400
36.404500 0.611200
36.465800 0.604700
36.527100 0.581200
36.588400 0.574000
36.649700 0.563700
36.711000 0.565800
36.772300 0.562000
36.833600 0.546700
36.894900 0.528300
36.956200 0.511400
37.017500 0.499200
37.078800 0.491900
37.140100 0.483700
37.201400 0.475100
37.262700 0.474700
37.324000 0.474300
37.385300 0.467000
37.446500 0.460600
37.507800 0.453200
37.569100 0.447100
37.630400 0.441800
37.691700 0.437500
37.753000 0.439700
37.814300 0.434200
37.875600 0.429000
37.936900 0.420100
37.998200 0.425800
38.059500 0.419600
38.120800 0.418000
38.182100 0.415400
38.243400 0.411300
38.304700 0.411400
38.366000 0.405500
38.427300 0.400600
38.488600 0.399600
38.549800 0.399700
38.611100 0.408200
38.672400 0.417000
38.733700 0.410700
38.795000 0.410200
38.856300 0.418200
38.917600 0.432800
38.978900 0.461300
39.040200 0.479900
39.101500 0.474500
39.162800 0.483300
39.224100 0.496200
39.285400 0.511500
39.346700 0.530500
39.408000 0.555100
39.469300 0.573700
39.530600 0.584800
39.591800 0.591600
39.653100 0.601200
39.714400 0.601000
39.775700 0.582000
39.837000 0.573700
39.898300 0.565700
39.959600 0.560400
40.020900 0.555100
40.082200 0.556900
40.143500 0.555100
40.204800 0.556700
40.266100 0.563900
40.327400 0.570900
40.388700 0.568800
40.450000 0.566900
40.511300 0.562000
40.572600 0.561200
40.633900 0.561100
40.695100 0.567300
40.756400 0.570000
40.817700 0.571300
40.879000 0.572900
40.940300 0.569500
41.001600 0.560700
41.062900 0.551300
41.124200 0.548400
41.185500 0.534900
41.246800 0.525600
41.308100 0.514200
41.369400 0.508500
41.430700 0.508500
41.492000 0.513100
41.553300 0.515500
41.614600 0.521700
41.675900 0.521900
41.737200 0.523600
41.798400 0.525800
41.859700 0.531100
41.921000 0.532800
41.982300 0.534800
42.043600 0.534400
42.104900 0.533500
42.166200 0.540400
42.227500 0.545300
42.288800 0.556200
42.350100 0.563900
42.411400 0.573300
42.472700 0.589500
42.534000 0.611600
42.595300 0.636200
42.656600 0.668800
42.717900 0.712000
42.779200 0.771400
42.840500 0.852300
42.901700 1.028000
42.963000 1.256600
43.024300 1.665400
43.085600 1.759800
43.146900 1.955400
43.208200 2.602700
43.269500 0.682700
43.330800 0.526600
43.392100 0.434200
43.453400 0.374600
43.514700 0.328000
43.576000 0.280900
43.637300 0.249800
43.698600 0.223600
43.759900 0.198500
43.821200 0.181900
43.882500 0.174800
43.943700 0.170000
44.005000 0.159200
44.066300 0.154700
44.127600 0.146800
44.188900 0.141400
44.250200 0.136500
44.311500 0.132200
44.372800 0.124900
44.434100 0.118500
44.495400 0.113700
44.556700 0.110700
44.618000 0.108000
44.679300 0.105500
44.740600 0.101900
44.801900 0.101300
44.863200 0.100900
44.924500 0.100200
44.985800 0.099500
45.047000 0.097100
45.108300 0.093100
45.169600 0.089200
45.230900 0.087000
45.292200 0.084800
45.353500 0.082200
45.414800 0.079900
45.476100 0.076900
45.537400 0.074400
45.598700 0.072800
45.660000 0.071600
45.721300 0.071000
45.782600 0.070200
45.843900 0.068000
45.905200 0.066300
45.966500 0.064900
46.027800 0.064100
46.089100 0.063300
46.150300 0.062300
46.211600 0.061200
46.272900 0.060200
46.334200 0.059200
46.395500 0.058200
46.456800 0.057200
46.518100 0.056300
46.579400 0.055400
46.640700 0.054500
46.702000 0.053700
46.763300 0.053900
46.824600 0.053500
46.885900 0.052200
46.947200 0.051300
47.008500 0.050500
47.069800 0.049800
47.131100 0.049100
47.192300 0.048600
47.253600 0.047800
47.314900 0.046900
47.376200 0.046100
47.437500 0.044600
47.498800 0.043200
47.560100 0.042100
47.621400 0.041200
47.682700 0.040400
47.744000 0.039700
47.805300 0.039000
47.866600 0.038400
47.927900 0.037700
47.989200 0.037100
48.050500 0.036500
48.111800 0.035700
48.173100 0.035000
48.234400 0.034200
48.295600 0.034000
48.356900 0.034400
48.418200 0.033100
48.479500 0.031700
48.540800 0.031200
48.602100 0.030800
48.663400 0.030400
48.724700 0.029900
48.786000 0.029300
48.847300 0.028700
48.908600 0.028000
48.969900 0.027500
49.031200 0.027000
49.092500 0.026400
49.153800 0.025900
49.215100 0.025500
49.276400 0.024300
49.337700 0.023500
49.398900 0.022100
49.460200 0.020600
49.521500 0.018500
49.582800 0.016500
49.644100 0.014800
49.705400 0.013800
49.766700 0.013100
49.828000 0.012800
49.889300 0.012500
49.950600 0.012400
50.011900 0.012000
50.073200 0.011600
50.134500 0.011300
50.195800 0.011200
50.257100 0.010900
50.318400 0.010700
50.379700 0.010400
50.440900 0.010200
50.502200 0.009900
50.563500 0.009700
50.624800 0.009500
50.686100 0.009200
50.747400 0.009000
50.808700 0.008800
50.870000 0.008600
50.931300 0.008500
50.992600 0.008300
51.053900 0.008200
51.115200 0.008300
51.176500 0.008300
51.237800 0.008100
51.299100 0.007900
51.360400 0.007600
51.421700 0.007300
51.483000 0.007000
51.544200 0.006700
51.605500 0.006500
51.666800 0.006200
51.728100 0.006000
51.789400 0.005700
51.850700 0.005500
51.912000 0.005300
51.973300 0.005100
52.034600 0.004900
52.095900 0.005000
52.157200 0.004800
52.218500 0.004600
52.279800 0.004400
52.341100 0.004200
52.402400 0.004000
52.463700 0.003800
52.525000 0.003700
52.586300 0.003500
52.647500 0.003400
52.708800 0.003300
52.770100 0.003100
52.831400 0.002900
52.892700 0.002800
52.954000 0.002600
53.015300 0.003000
53.076600 0.005000
53.137900 0.000000
53.199200 0.000000
53.260500 0.000000
53.321800 0.000000
53.383100 0.000000
53.444400 0.000000
53.505700 0.000000
53.567000 0.000000
53.628300 0.000000
53.689600 0.000000
53.750800 0.000000
53.812100 0.000000
53.873400 0.000000
53.934700 0.000000
53.996000 0.000000
54.057300 0.000000
54.118600 0.000000
54.179900 0.000000
54.241200 0.000000
54.302500 0.000000
54.363800 0.000000
54.425100 0.000000
54.486400 0.000000
54.547700 0.000000
54.609000 0.000000
54.670300 0.000000
54.731600 0.000000
54.792800 0.000000
54.854100 0.000000
54.915400 0.000000
54.976700 0.000000
55.038000 0.000000
55.099300 0.000000
55.160600 0.000000
55.221900 0.000000
55.283200 0.000000
55.344500 0.000000
55.405800 0.000000
55.467100 0.000000
55.528400 0.000000
55.589700 0.000000
55.651000 0.000000
55.712300 0.000000
55.773600 0.000000
55.834900 0.000000
55.896100 0.000000
55.957400 0.000000
56.018700 0.000000
56.080000 0.000000
56.141300 0.000000
56.202600 0.000000
56.263900 0.000000
56.325200 0.000000
56.386500 0.000000
56.447800 0.000000
56.509100 0.000000
56.570400 0.000000
56.631700 0.000000
56.693000 0.000000
56.754300 0.000000
56.815600 0.000000
56.876900 0.000000
56.938200 0.000000
56.999400 0.000000
57.060700 0.000000
57.122000 0.000000
57.183300 0.000000
57.244600 0.000000
57.305900 0.000000
57.367200 0.000000
57.428500 0.000000
57.489800 0.000000
57.551100 0.000000
57.612400 0.000000
57.673700 0.000000
57.735000 0.000000
57.796300 0.000000
57.857600 0.000000
57.918900 0.000000
57.980200 0.000000
58.041400 0.000000
58.102700 0.000000
58.164000 0.000000
58.225300 0.000000
58.286600 0.000000
58.347900 0.000000
58.409200 0.000000
58.470500 0.000000
58.531800 0.000000
58.593100 0.000000
58.654400 0.000000
58.715700 0.000000
58.777000 0.000000
58.838300 0.000000
58.899600 0.000000
58.960900 0.000000
59.022200 0.000000
59.083500 0.000000
59.144700 0.000000
59.206000 0.000000
59.267300 0.000000
59.328600 0.000000
59.389900 0.000000
59.451200 0.000000
59.512500 0.000000
59.573800 0.000000
e
