set title 'mp-341 - Density of States'
set xlabel 'Energy (eV)'
set ylabel 'DOS (states/eV)'
set grid
set xrange [-10:10]
set yrange [0:25.306]
set xzeroaxis lt -1
set terminal png size 800,600
set output 'mp-341_dos_gnuplot.png'
plot '-' using 1:2 with lines title 'DOS'
-24.783200 0.000000
-24.759200 0.000000
-24.735300 0.000000
-24.711300 0.000000
-24.687300 0.000000
-24.663300 0.000000
-24.639300 0.000000
-24.615300 0.000000
-24.591300 0.000000
-24.567400 0.000000
-24.543400 0.000000
-24.519400 0.000000
-24.495400 0.000000
-24.471400 0.000000
-24.447400 0.000000
-24.423400 0.000000
-24.399400 0.000000
-24.375500 0.000000
-24.351500 0.000000
-24.327500 0.000000
-24.303500 0.000000
-24.279500 0.000000
-24.255500 0.000000
-24.231500 0.000000
-24.207600 0.000000
-24.183600 0.000000
-24.159600 0.000000
-24.135600 0.000000
-24.111600 0.000000
-24.087600 0.000000
-24.063600 0.000000
-24.039600 0.000000
-24.015700 0.000000
-23.991700 0.000000
-23.967700 0.000000
-23.943700 0.000000
-23.919700 0.000000
-23.895700 0.000000
-23.871700 0.000000
-23.847700 0.000000
-23.823800 0.000000
-23.799800 0.000000
-23.775800 0.000000
-23.751800 0.000000
-23.727800 0.000000
-23.703800 0.000000
-23.679800 0.000000
-23.655900 0.000000
-23.631900 0.000000
-23.607900 0.000000
-23.583900 0.000000
-23.559900 0.000000
-23.535900 0.000000
-23.511900 0.000000
-23.487900 0.000000
-23.464000 0.000000
-23.440000 0.000000
-23.416000 0.000000
-23.392000 0.000000
-23.368000 0.000000
-23.344000 0.000000
-23.320000 0.000000
-23.296000 0.000000
-23.272100 0.000000
-23.248100 0.000000
-23.224100 0.000000
-23.200100 0.000000
-23.176100 0.000000
-23.152100 0.000000
-23.128100 0.000000
-23.104200 0.000000
-23.080200 0.000000
-23.056200 0.000000
-23.032200 0.000000
-23.008200 0.000000
-22.984200 0.000000
-22.960200 0.000000
-22.936200 0.000000
-22.912300 0.000000
-22.888300 0.000000
-22.864300 0.000000
-22.840300 0.000000
-22.816300 0.000000
-22.792300 0.000000
-22.768300 0.000000
-22.744400 0.000000
-22.720400 0.000000
-22.696400 0.000000
-22.672400 0.000000
-22.648400 0.000000
-22.624400 0.000000
-22.600400 0.044600
-22.576400 1.332400
-22.552500 2.281300
-22.528500 3.710200
-22.504500 6.089500
-22.480500 9.469200
-22.456500 13.289600
-22.432500 8.478200
-22.408500 6.305000
-22.384500 10.536700
-22.360600 10.454300
-22.336600 11.345200
-22.312600 15.152600
-22.288600 40.588800
-22.264600 45.275100
-22.240600 22.242500
-22.216600 12.763300
-22.192700 12.792700
-22.168700 20.672500
-22.144700 1.200300
-22.120700 0.000000
-22.096700 0.000000
-22.072700 0.000000
-22.048700 0.000000
-22.024700 0.000000
-22.000800 0.000000
-21.976800 0.000000
-21.952800 0.000000
-21.928800 0.000000
-21.904800 0.000000
-21.880800 0.000000
-21.856800 0.000000
-21.832800 0.000000
-21.808900 3.226600
-21.784900 7.106800
-21.760900 14.894500
-21.736900 37.714400
-21.712900 12.275900
-21.688900 5.937100
-21.664900 0.154200
-21.641000 0.000000
-21.617000 0.000000
-21.593000 0.000000
-21.569000 0.000000
-21.545000 0.000000
-21.521000 0.000000
-21.497000 0.000000
-21.473000 0.000000
-21.449100 0.000000
-21.425100 0.000000
-21.401100 0.000000
-21.377100 0.000000
-21.353100 0.000000
-21.329100 0.000000
-21.305100 0.000000
-21.281100 0.000000
-21.257200 0.000000
-21.233200 0.000000
-21.209200 0.000000
-21.185200 0.000000
-21.161200 0.000000
-21.137200 0.000000
-21.113200 0.000000
-21.089300 0.000000
-21.065300 0.000000
-21.041300 0.000000
-21.017300 0.000000
-20.993300 0.000000
-20.969300 0.000000
-20.945300 0.000000
-20.921300 0.000000
-20.897400 0.000000
-20.873400 0.000000
-20.849400 0.000000
-20.825400 0.000000
-20.801400 0.000000
-20.777400 0.000000
-20.753400 0.000000
-20.729500 0.000000
-20.705500 0.000000
-20.681500 0.000000
-20.657500 0.000000
-20.633500 0.000000
-20.609500 0.000000
-20.585500 0.000000
-20.561500 0.000000
-20.537600 0.000000
-20.513600 0.000000
-20.489600 0.000000
-20.465600 0.000000
-20.441600 0.000000
-20.417600 0.000000
-20.393600 0.000000
-20.369600 0.000000
-20.345700 0.000000
-20.321700 0.000000
-20.297700 0.000000
-20.273700 0.000000
-20.249700 0.000000
-20.225700 0.000000
-20.201700 0.000000
-20.177800 0.000000
-20.153800 0.000000
-20.129800 0.000000
-20.105800 0.000000
-20.081800 0.000000
-20.057800 0.000000
-20.033800 0.000000
-20.009800 0.000000
-19.985900 0.000000
-19.961900 0.000000
-19.937900 0.000000
-19.913900 0.000000
-19.889900 0.000000
-19.865900 0.000000
-19.841900 0.000000
-19.817900 0.000000
-19.794000 0.000000
-19.770000 0.000000
-19.746000 0.000000
-19.722000 0.000000
-19.698000 0.000000
-19.674000 0.000000
-19.650000 0.000000
-19.626100 0.000000
-19.602100 0.000000
-19.578100 0.000000
-19.554100 0.000000
-19.530100 0.000000
-19.506100 0.000000
-19.482100 0.000000
-19.458100 0.000000
-19.434200 0.000000
-19.410200 0.000000
-19.386200 0.000000
-19.362200 0.000000
-19.338200 0.000000
-19.314200 0.000000
-19.290200 0.000000
-19.266300 0.000000
-19.242300 0.000000
-19.218300 0.000000
-19.194300 0.000000
-19.170300 0.000000
-19.146300 0.000000
-19.122300 0.000000
-19.098300 0.000000
-19.074400 0.000000
-19.050400 0.000000
-19.026400 0.000000
-19.002400 0.000000
-18.978400 0.000000
-18.954400 0.000000
-18.930400 0.000000
-18.906400 0.000000
-18.882500 0.000000
-18.858500 0.000000
-18.834500 0.000000
-18.810500 0.000000
-18.786500 0.000000
-18.762500 0.000000
-18.738500 0.000000
-18.714600 0.000000
-18.690600 0.000000
-18.666600 0.000000
-18.642600 0.000000
-18.618600 0.000000
-18.594600 0.000000
-18.570600 0.000000
-18.546600 0.000000
-18.522700 0.000000
-18.498700 0.000000
-18.474700 0.000000
-18.450700 0.000000
-18.426700 0.000000
-18.402700 0.000000
-18.378700 0.000000
-18.354700 0.000000
-18.330800 0.000000
-18.306800 0.000000
-18.282800 0.000000
-18.258800 0.000000
-18.234800 0.000000
-18.210800 0.000000
-18.186800 0.000000
-18.162900 0.000000
-18.138900 0.000000
-18.114900 0.000000
-18.090900 0.000000
-18.066900 0.000000
-18.042900 0.000000
-18.018900 0.000000
-17.994900 0.000000
-17.971000 0.000000
-17.947000 0.000000
-17.923000 0.000000
-17.899000 0.000000
-17.875000 0.000000
-17.851000 0.000000
-17.827000 0.000000
-17.803100 0.000000
-17.779100 0.000000
-17.755100 0.000000
-17.731100 0.000000
-17.707100 0.000000
-17.683100 0.000000
-17.659100 0.000000
-17.635100 0.000000
-17.611200 0.000000
-17.587200 0.000000
-17.563200 0.000000
-17.539200 0.000000
-17.515200 0.000000
-17.491200 0.000000
-17.467200 0.000000
-17.443200 0.000000
-17.419300 0.000000
-17.395300 0.000000
-17.371300 0.000000
-17.347300 0.000000
-17.323300 0.000000
-17.299300 0.000000
-17.275300 0.000000
-17.251400 0.000000
-17.227400 0.000000
-17.203400 0.000000
-17.179400 0.000000
-17.155400 0.000000
-17.131400 0.000000
-17.107400 0.000000
-17.083400 0.000000
-17.059500 0.000000
-17.035500 0.000000
-17.011500 0.000000
-16.987500 0.000000
-16.963500 0.000000
-16.939500 0.000000
-16.915500 0.000000
-16.891500 0.000000
-16.867600 0.000000
-16.843600 0.000000
-16.819600 0.000000
-16.795600 0.000000
-16.771600 0.000000
-16.747600 0.000000
-16.723600 0.000000
-16.699700 0.000000
-16.675700 0.000000
-16.651700 0.000000
-16.627700 0.000000
-16.603700 0.000000
-16.579700 0.000000
-16.555700 0.000000
-16.531700 0.000000
-16.507800 0.000000
-16.483800 1.151300
-16.459800 1.683500
-16.435800 1.496400
-16.411800 1.620300
-16.387800 1.721300
-16.363800 1.876300
-16.339800 1.990100
-16.315900 2.254500
-16.291900 2.518000
-16.267900 2.781400
-16.243900 3.522000
-16.219900 5.202400
-16.195900 4.720700
-16.171900 4.676100
-16.148000 34.419200
-16.124000 44.524800
-16.100000 112.506400
-16.076000 29.904600
-16.052000 4.342800
-16.028000 2.807200
-16.004000 2.030900
-15.980000 1.908900
-15.956100 1.769800
-15.932100 1.717200
-15.908100 1.664500
-15.884100 1.585200
-15.860100 1.493400
-15.836100 3.284500
-15.812100 4.043400
-15.788200 4.127600
-15.764200 3.987000
-15.740200 4.011400
-15.716200 4.334800
-15.692200 4.242900
-15.668200 4.301900
-15.644200 4.346800
-15.620200 4.741400
-15.596300 4.910200
-15.572300 5.349800
-15.548300 5.561600
-15.524300 6.731000
-15.500300 8.016700
-15.476300 8.408900
-15.452300 21.660600
-15.428300 0.000000
-15.404400 0.000000
-15.380400 0.000000
-15.356400 0.000000
-15.332400 0.000000
-15.308400 0.000000
-15.284400 0.000000
-15.260400 0.000000
-15.236500 0.000000
-15.212500 0.000000
-15.188500 0.000000
-15.164500 0.000000
-15.140500 0.000000
-15.116500 0.000000
-15.092500 0.000000
-15.068500 0.000000
-15.044600 0.000000
-15.020600 0.000000
-14.996600 0.000000
-14.972600 0.000000
-14.948600 0.000000
-14.924600 0.000000
-14.900600 0.000000
-14.876600 0.000000
-14.852700 0.000000
-14.828700 0.000000
-14.804700 0.000000
-14.780700 0.000000
-14.756700 0.000000
-14.732700 0.000000
-14.708700 0.000000
-14.684800 0.000000
-14.660800 0.000000
-14.636800 0.000000
-14.612800 0.000000
-14.588800 0.000000
-14.564800 0.000000
-14.540800 0.000000
-14.516800 0.000000
-14.492900 0.000000
-14.468900 0.000000
-14.444900 0.000000
-14.420900 0.000000
-14.396900 0.000000
-14.372900 0.000000
-14.348900 0.000000
-14.325000 0.000000
-14.301000 0.000000
-14.277000 0.000000
-14.253000 0.000000
-14.229000 0.000000
-14.205000 0.000000
-14.181000 0.000000
-14.157000 0.000000
-14.133100 0.000000
-14.109100 0.000000
-14.085100 0.000000
-14.061100 0.000000
-14.037100 0.000000
-14.013100 0.000000
-13.989100 0.000000
-13.965100 0.000000
-13.941200 0.000000
-13.917200 0.000000
-13.893200 0.000000
-13.869200 0.000000
-13.845200 0.000000
-13.821200 0.000000
-13.797200 0.000000
-13.773300 0.000000
-13.749300 0.000000
-13.725300 0.000000
-13.701300 0.000000
-13.677300 0.000000
-13.653300 0.000000
-13.629300 0.000000
-13.605300 0.000000
-13.581400 0.000000
-13.557400 0.000000
-13.533400 0.000000
-13.509400 0.000000
-13.485400 0.000000
-13.461400 0.000000
-13.437400 0.000000
-13.413400 0.000000
-13.389500 0.000000
-13.365500 0.000000
-13.341500 0.000000
-13.317500 0.000000
-13.293500 0.000000
-13.269500 0.000000
-13.245500 0.000000
-13.221600 0.000000
-13.197600 0.000000
-13.173600 0.000000
-13.149600 0.000000
-13.125600 0.000000
-13.101600 0.000000
-13.077600 0.000000
-13.053600 0.000000
-13.029700 0.000000
-13.005700 0.000000
-12.981700 0.000000
-12.957700 0.000000
-12.933700 0.000000
-12.909700 0.000000
-12.885700 0.000000
-12.861800 0.000000
-12.837800 0.000000
-12.813800 0.000000
-12.789800 0.000000
-12.765800 0.000000
-12.741800 0.000000
-12.717800 0.000000
-12.693800 0.000000
-12.669900 0.000000
-12.645900 0.000000
-12.621900 0.000000
-12.597900 0.000000
-12.573900 0.000000
-12.549900 0.000000
-12.525900 0.000000
-12.501900 0.000000
-12.478000 0.000000
-12.454000 0.000000
-12.430000 0.000000
-12.406000 0.000000
-12.382000 0.000000
-12.358000 0.000000
-12.334000 0.000000
-12.310100 0.000000
-12.286100 0.000000
-12.262100 0.000000
-12.238100 0.000000
-12.214100 0.000000
-12.190100 0.000000
-12.166100 0.000000
-12.142100 0.000000
-12.118200 0.000000
-12.094200 0.000000
-12.070200 0.000000
-12.046200 0.000000
-12.022200 0.000000
-11.998200 0.000000
-11.974200 0.000000
-11.950200 0.000000
-11.926300 0.000000
-11.902300 0.000000
-11.878300 0.000000
-11.854300 0.000000
-11.830300 0.000000
-11.806300 0.000000
-11.782300 0.000000
-11.758400 0.000000
-11.734400 0.000000
-11.710400 0.000000
-11.686400 0.000000
-11.662400 0.000000
-11.638400 0.000000
-11.614400 0.000000
-11.590400 0.000000
-11.566500 0.000000
-11.542500 0.000000
-11.518500 0.000000
-11.494500 0.000000
-11.470500 0.000000
-11.446500 0.000000
-11.422500 0.000000
-11.398500 0.000000
-11.374600 0.000000
-11.350600 0.000000
-11.326600 0.000000
-11.302600 0.000000
-11.278600 0.000000
-11.254600 0.000000
-11.230600 0.000000
-11.206700 0.000000
-11.182700 0.000000
-11.158700 0.000000
-11.134700 0.000000
-11.110700 0.000000
-11.086700 0.000000
-11.062700 0.000000
-11.038700 0.000000
-11.014800 0.000000
-10.990800 0.000000
-10.966800 0.000000
-10.942800 0.000000
-10.918800 0.000000
-10.894800 0.000000
-10.870800 0.000000
-10.846900 0.000000
-10.822900 0.000000
-10.798900 0.000000
-10.774900 0.000000
-10.750900 0.000000
-10.726900 0.000000
-10.702900 0.000000
-10.678900 0.000000
-10.655000 0.000000
-10.631000 0.000000
-10.607000 0.000000
-10.583000 0.000000
-10.559000 0.000000
-10.535000 0.000000
-10.511000 0.000000
-10.487000 0.000000
-10.463100 0.000000
-10.439100 0.000000
-10.415100 0.000000
-10.391100 0.000000
-10.367100 0.000000
-10.343100 0.000000
-10.319100 0.000000
-10.295200 0.000000
-10.271200 0.000000
-10.247200 0.000000
-10.223200 0.000000
-10.199200 0.000000
-10.175200 0.000000
-10.151200 0.000000
-10.127200 0.000000
-10.103300 0.000000
-10.079300 0.000000
-10.055300 0.000000
-10.031300 0.000000
-10.007300 0.000000
-9.983300 0.000000
-9.959300 0.000000
-9.935300 0.000000
-9.911400 0.000000
-9.887400 0.000000
-9.863400 0.000000
-9.839400 0.000000
-9.815400 0.000000
-9.791400 0.000000
-9.767400 0.000000
-9.743500 0.000000
-9.719500 0.000000
-9.695500 0.000000
-9.671500 0.000000
-9.647500 0.000000
-9.623500 0.000000
-9.599500 0.000000
-9.575500 0.000000
-9.551600 0.000000
-9.527600 0.000000
-9.503600 0.000000
-9.479600 0.000000
-9.455600 0.000000
-9.431600 0.000000
-9.407600 0.000000
-9.383700 0.000000
-9.359700 0.000000
-9.335700 0.000000
-9.311700 0.000000
-9.287700 0.000000
-9.263700 0.000000
-9.239700 0.000000
-9.215700 0.000000
-9.191800 0.000000
-9.167800 0.000000
-9.143800 0.000000
-9.119800 0.000000
-9.095800 0.000000
-9.071800 0.000000
-9.047800 0.000000
-9.023800 3.768600
-8.999900 0.770100
-8.975900 0.987000
-8.951900 0.850900
-8.927900 0.848600
-8.903900 0.846400
-8.879900 0.886300
-8.855900 0.941400
-8.832000 0.917300
-8.808000 0.878200
-8.784000 0.858200
-8.760000 0.860100
-8.736000 0.878100
-8.712000 0.896100
-8.688000 0.914200
-8.664000 0.932200
-8.640100 0.904100
-8.616100 0.894200
-8.592100 0.884300
-8.568100 0.885500
-8.544100 0.892300
-8.520100 0.899000
-8.496100 0.905800
-8.472100 0.913400
-8.448200 0.925400
-8.424200 0.938600
-8.400200 0.951500
-8.376200 0.933500
-8.352200 0.931200
-8.328200 0.932100
-8.304200 0.937100
-8.280300 0.942900
-8.256300 0.949900
-8.232300 0.957400
-8.208300 0.965600
-8.184300 0.974700
-8.160300 0.983900
-8.136300 0.993100
-8.112300 1.008400
-8.088400 1.031500
-8.064400 1.049400
-8.040400 1.065400
-8.016400 1.079600
-7.992400 1.094000
-7.968400 1.108400
-7.944400 1.122500
-7.920500 1.135600
-7.896500 1.148100
-7.872500 1.160500
-7.848500 1.363800
-7.824500 1.516000
-7.800500 1.661300
-7.776500 1.763200
-7.752500 1.840900
-7.728600 1.540200
-7.704600 1.369600
-7.680600 1.213000
-7.656600 1.118000
-7.632600 1.053500
-7.608600 0.989200
-7.584600 0.925000
-7.560600 0.871800
-7.536700 0.830700
-7.512700 0.800900
-7.488700 0.770000
-7.464700 0.736500
-7.440700 0.702900
-7.416700 0.669300
-7.392700 0.637800
-7.368800 0.612000
-7.344800 0.589900
-7.320800 0.572600
-7.296800 0.557600
-7.272800 0.540400
-7.248800 0.522000
-7.224800 0.503000
-7.200800 0.483000
-7.176900 0.461600
-7.152900 0.442700
-7.128900 0.426300
-7.104900 0.411400
-7.080900 0.397900
-7.056900 0.386000
-7.032900 0.375900
-7.008900 0.365800
-6.985000 0.354700
-6.961000 0.342800
-6.937000 0.331200
-6.913000 0.319600
-6.889000 0.307700
-6.865000 0.294700
-6.841000 0.283800
-6.817100 0.273400
-6.793100 0.263300
-6.769100 0.253500
-6.745100 0.243900
-6.721100 0.234700
-6.697100 0.225800
-6.673100 0.217100
-6.649100 0.208800
-6.625200 0.201400
-6.601200 0.194700
-6.577200 0.188300
-6.553200 0.182400
-6.529200 0.176900
-6.505200 0.171900
-6.481200 0.167400
-6.457200 0.158800
-6.433300 0.148100
-6.409300 0.138400
-6.385300 0.128800
-6.361300 0.119000
-6.337300 0.108700
-6.313300 0.098100
-6.289300 0.085500
-6.265400 0.073100
-6.241400 0.065200
-6.217400 0.057300
-6.193400 0.049400
-6.169400 0.041500
-6.145400 0.034100
-6.121400 0.028300
-6.097400 0.023300
-6.073500 0.019000
-6.049500 0.015300
-6.025500 0.012000
-6.001500 0.009100
-5.977500 0.006600
-5.953500 0.004500
-5.929500 0.002700
-5.905600 0.001300
-5.881600 0.000300
-5.857600 0.000000
-5.833600 0.000000
-5.809600 0.000000
-5.785600 0.025600
-5.761600 0.374300
-5.737600 0.662700
-5.713700 0.994300
-5.689700 1.570900
-5.665700 1.859900
-5.641700 2.292300
-5.617700 2.962500
-5.593700 2.813100
-5.569700 2.673100
-5.545700 2.502300
-5.521800 2.270400
-5.497800 2.048100
-5.473800 1.753100
-5.449800 1.286600
-5.425800 1.278900
-5.401800 1.265500
-5.377800 1.253700
-5.353900 1.242600
-5.329900 1.233700
-5.305900 1.227900
-5.281900 1.225000
-5.257900 1.202700
-5.233900 1.192400
-5.209900 1.184800
-5.185900 1.167300
-5.162000 1.146300
-5.138000 1.137100
-5.114000 1.123400
-5.090000 1.103000
-5.066000 1.073100
-5.042000 1.030600
-5.018000 1.026900
-4.994000 1.023700
-4.970100 1.022900
-4.946100 1.023900
-4.922100 1.026700
-4.898100 1.033600
-4.874100 1.061400
-4.850100 1.107200
-4.826100 1.287300
-4.802200 1.627500
-4.778200 1.740300
-4.754200 1.863100
-4.730200 1.996400
-4.706200 2.188500
-4.682200 2.412900
-4.658200 2.655000
-4.634200 2.937300
-4.610300 3.230600
-4.586300 3.646700
-4.562300 4.373200
-4.538300 4.852800
-4.514300 5.607500
-4.490300 7.607600
-4.466300 7.870900
-4.442400 9.628900
-4.418400 6.426800
-4.394400 5.681800
-4.370400 5.140800
-4.346400 4.812400
-4.322400 4.655000
-4.298400 4.637700
-4.274400 2.971000
-4.250500 2.205800
-4.226500 1.952300
-4.202500 1.507700
-4.178500 1.392900
-4.154500 1.338800
-4.130500 1.308000
-4.106500 1.280600
-4.082500 1.241900
-4.058600 1.223700
-4.034600 1.210600
-4.010600 1.205000
-3.986600 1.207100
-3.962600 1.220500
-3.938600 1.238700
-3.914600 1.252100
-3.890700 1.269200
-3.866700 1.291000
-3.842700 1.320200
-3.818700 1.369800
-3.794700 1.432500
-3.770700 1.507000
-3.746700 1.591100
-3.722700 1.713100
-3.698800 1.937700
-3.674800 2.107600
-3.650800 2.220600
-3.626800 2.434000
-3.602800 2.797100
-3.578800 4.429400
-3.554800 4.584100
-3.530800 5.068200
-3.506900 6.697700
-3.482900 9.038400
-3.458900 13.039700
-3.434900 11.482700
-3.410900 8.546200
-3.386900 7.725200
-3.362900 10.393900
-3.339000 11.729300
-3.315000 9.686600
-3.291000 6.888400
-3.267000 7.882300
-3.243000 8.284000
-3.219000 8.354000
-3.195000 8.550200
-3.171000 9.160700
-3.147100 9.200700
-3.123100 12.740500
-3.099100 18.531400
-3.075100 15.791200
-3.051100 10.742800
-3.027100 11.479900
-3.003100 8.670000
-2.979200 7.857500
-2.955200 6.319900
-2.931200 9.046600
-2.907200 11.261700
-2.883200 23.005900
-2.859200 14.340200
-2.835200 11.879400
-2.811200 8.443800
-2.787300 9.278700
-2.763300 7.488300
-2.739300 6.979000
-2.715300 6.673200
-2.691300 8.937300
-2.667300 13.175300
-2.643300 18.939100
-2.619300 17.213100
-2.595400 19.122900
-2.571400 17.836800
-2.547400 15.881400
-2.523400 15.795900
-2.499400 12.759500
-2.475400 11.623600
-2.451400 10.034000
-2.427500 9.497800
-2.403500 6.969600
-2.379500 7.521800
-2.355500 8.057800
-2.331500 10.400800
-2.307500 11.407600
-2.283500 11.380400
-2.259500 11.526700
-2.235600 14.776200
-2.211600 17.535200
-2.187600 15.658600
-2.163600 13.584000
-2.139600 12.755400
-2.115600 12.220400
-2.091600 12.472100
-2.067600 11.315200
-2.043700 6.296900
-2.019700 3.668400
-1.995700 1.428200
-1.971700 0.000000
-1.947700 0.000000
-1.923700 0.000000
-1.899700 0.000000
-1.875800 0.000000
-1.851800 0.000000
-1.827800 0.000000
-1.803800 0.000000
-1.779800 0.000000
-1.755800 0.000000
-1.731800 0.000000
-1.707800 0.000000
-1.683900 0.000000
-1.659900 0.000000
-1.635900 0.000000
-1.611900 0.000000
-1.587900 0.000000
-1.563900 0.000000
-1.539900 0.000000
-1.516000 0.000000
-1.492000 0.000000
-1.468000 0.000000
-1.444000 0.000000
-1.420000 0.000000
-1.396000 0.000000
-1.372000 0.000000
-1.348000 0.000000
-1.324100 0.000000
-1.300100 0.000000
-1.276100 0.000000
-1.252100 0.000000
-1.228100 0.000000
-1.204100 0.000000
-1.180100 0.000000
-1.156100 0.000000
-1.132200 0.000000
-1.108200 0.000000
-1.084200 0.000000
-1.060200 0.000000
-1.036200 0.000000
-1.012200 0.000000
-0.988200 0.000000
-0.964300 0.000000
-0.940300 0.000000
-0.916300 0.000000
-0.892300 0.000000
-0.868300 0.000000
-0.844300 0.000000
-0.820300 0.000000
-0.796300 0.000000
-0.772400 0.000000
-0.748400 0.000000
-0.724400 0.000000
-0.700400 0.000000
-0.676400 0.000000
-0.652400 0.000000
-0.628400 0.000000
-0.604400 0.000000
-0.580500 0.000000
-0.556500 0.000000
-0.532500 0.000000
-0.508500 0.000000
-0.484500 0.000000
-0.460500 0.000000
-0.436500 0.000000
-0.412600 0.000000
-0.388600 0.000000
-0.364600 0.000000
-0.340600 0.000000
-0.316600 0.000000
-0.292600 0.000000
-0.268600 0.000000
-0.244600 0.000000
-0.220700 0.000000
-0.196700 0.000000
-0.172700 0.000000
-0.148700 0.000000
-0.124700 0.000000
-0.100700 0.000000
-0.076700 0.000000
-0.052700 0.000100
-0.028800 0.017300
-0.004800 0.065000
0.019200 0.105400
0.043200 0.114900
0.067200 0.133500
0.091200 0.155900
0.115200 0.178000
0.139100 0.201300
0.163100 0.218100
0.187100 0.230800
0.211100 0.247300
0.235100 0.264800
0.259100 0.283000
0.283100 0.302300
0.307100 0.323300
0.331000 0.345600
0.355000 0.369300
0.379000 0.392900
0.403000 0.413300
0.427000 0.438500
0.451000 0.468300
0.475000 0.499700
0.498900 0.533100
0.522900 0.568000
0.546900 0.633700
0.570900 0.730800
0.594900 0.801900
0.618900 0.768500
0.642900 0.782600
0.666900 0.795600
0.690800 0.789000
0.714800 0.770700
0.738800 0.774400
0.762800 0.779300
0.786800 0.783300
0.810800 0.786700
0.834800 0.788600
0.858800 0.782200
0.882700 0.778100
0.906700 0.781300
0.930700 0.784700
0.954700 0.788500
0.978700 0.793400
1.002700 0.799300
1.026700 0.805200
1.050600 0.810100
1.074600 0.813900
1.098600 0.814300
1.122600 0.819600
1.146600 0.826100
1.170600 0.833000
1.194600 0.840700
1.218600 0.849400
1.242500 0.858200
1.266500 0.867100
1.290500 0.876200
1.314500 0.886300
1.338500 0.897100
1.362500 0.910000
1.386500 0.922200
1.410500 0.935500
1.434400 0.957600
1.458400 0.980500
1.482400 1.003900
1.506400 1.029600
1.530400 1.058100
1.554400 1.090000
1.578400 1.128000
1.602300 1.183700
1.626300 1.256000
1.650300 1.301100
1.674300 1.381900
1.698300 1.632900
1.722300 2.151400
1.746300 1.716500
1.770300 1.370000
1.794200 1.302400
1.818200 1.202900
1.842200 1.042300
1.866200 0.980500
1.890200 0.947700
1.914200 0.914900
1.938200 0.882900
1.962100 0.849700
1.986100 0.789500
2.010100 0.734000
2.034100 0.716600
2.058100 0.698800
2.082100 0.680300
2.106100 0.661200
2.130100 0.642500
2.154000 0.623900
2.178000 0.605300
2.202000 0.579800
2.226000 0.544400
2.250000 0.532900
2.274000 0.522000
2.298000 0.510700
2.322000 0.499100
2.345900 0.487300
2.369900 0.475700
2.393900 0.464400
2.417900 0.453200
2.441900 0.442000
2.465900 0.430800
2.489900 0.417700
2.513800 0.406400
2.537800 0.395700
2.561800 0.385000
2.585800 0.374600
2.609800 0.365000
2.633800 0.356800
2.657800 0.348600
2.681800 0.340500
2.705700 0.332300
2.729700 0.324200
2.753700 0.316100
2.777700 0.356400
2.801700 0.335200
2.825700 0.312600
2.849700 0.289900
2.873700 0.267300
2.897600 0.244700
2.921600 0.222100
2.945600 0.199400
2.969600 0.000000
2.993600 0.000000
3.017600 0.000000
3.041600 0.000000
3.065500 0.000000
3.089500 0.000000
3.113500 0.000000
3.137500 0.000000
3.161500 0.000000
3.185500 0.000000
3.209500 0.000000
3.233500 0.000000
3.257400 0.000000
3.281400 0.000000
3.305400 0.000000
3.329400 0.000000
3.353400 0.000000
3.377400 0.000000
3.401400 0.000000
3.425300 0.000000
3.449300 0.000000
3.473300 0.000000
3.497300 0.000000
3.521300 0.000000
3.545300 0.000000
3.569300 0.000000
3.593300 0.000000
3.617200 0.000000
3.641200 0.000000
3.665200 0.000000
3.689200 0.000000
3.713200 0.000000
3.737200 0.000000
3.761200 0.000000
3.785200 0.000000
3.809100 0.000000
3.833100 0.000000
3.857100 0.000000
3.881100 0.000000
3.905100 0.000000
3.929100 0.000000
3.953100 0.000000
3.977000 0.000000
4.001000 0.000000
4.025000 0.000000
4.049000 0.000000
4.073000 0.000000
4.097000 0.000000
4.121000 0.000000
4.145000 0.000000
4.168900 0.000000
4.192900 0.000000
4.216900 0.000000
4.240900 0.000000
4.264900 0.000000
4.288900 0.000000
4.312900 0.000000
4.336900 0.000000
4.360800 0.000000
4.384800 0.000000
4.408800 0.000000
4.432800 0.000000
4.456800 0.000000
4.480800 0.000000
4.504800 0.000000
4.528700 0.000000
4.552700 0.000000
4.576700 0.000000
4.600700 0.000000
4.624700 0.000000
4.648700 0.000000
4.672700 0.000000
4.696700 0.000000
4.720600 0.000000
4.744600 0.000000
4.768600 0.000000
4.792600 0.000000
4.816600 0.000000
4.840600 0.000000
4.864600 0.000000
4.888600 0.000000
4.912500 0.000000
4.936500 0.000000
4.960500 0.000000
4.984500 0.000000
5.008500 0.000000
5.032500 0.000000
5.056500 0.000000
5.080400 0.000000
5.104400 0.000000
5.128400 0.000000
5.152400 0.000000
5.176400 0.000000
5.200400 0.000000
5.224400 0.000000
5.248400 0.000000
5.272300 0.000000
5.296300 0.000000
5.320300 0.000000
5.344300 0.000000
5.368300 0.000000
5.392300 0.000000
5.416300 0.000000
5.440200 0.000000
5.464200 0.000000
5.488200 0.000000
5.512200 0.000000
5.536200 0.000000
5.560200 0.000000
5.584200 0.000000
5.608200 0.000000
5.632100 0.000000
5.656100 0.000000
5.680100 0.000000
5.704100 0.000000
5.728100 0.000000
5.752100 0.000000
5.776100 0.000000
5.800100 0.000000
5.824000 0.000000
5.848000 0.000000
5.872000 0.000000
5.896000 0.000000
5.920000 0.000000
5.944000 0.000000
5.968000 0.000000
5.991900 0.000000
6.015900 0.000000
6.039900 0.000000
6.063900 0.000000
6.087900 0.000000
6.111900 0.000000
6.135900 0.000000
6.159900 0.000000
6.183800 0.000000
6.207800 0.000000
6.231800 0.000000
6.255800 0.000000
6.279800 0.000000
6.303800 0.000000
6.327800 0.000000
6.351800 0.000000
6.375700 0.000000
6.399700 0.000000
6.423700 0.190400
6.447700 0.223100
6.471700 0.290800
6.495700 0.375400
6.519700 0.484500
6.543600 0.709900
6.567600 0.829200
6.591600 1.041100
6.615600 1.340600
6.639600 1.419000
6.663600 1.638800
6.687600 1.972800
6.711600 2.615700
6.735500 2.602800
6.759500 2.427400
6.783500 2.440600
6.807500 2.117600
6.831500 1.892200
6.855500 1.908600
6.879500 1.956100
6.903400 1.820500
6.927400 1.721300
6.951400 1.577800
6.975400 1.422900
6.999400 1.329100
7.023400 1.259300
7.047400 1.210100
7.071400 1.183400
7.095300 1.172900
7.119300 1.173200
7.143300 1.173500
7.167300 1.173900
7.191300 1.174300
7.215300 1.174800
7.239300 1.176100
7.263300 1.178400
7.287200 1.181800
7.311200 1.191600
7.335200 1.234800
7.359200 1.390800
7.383200 1.260900
7.407200 1.166500
7.431200 1.133900
7.455100 1.112000
7.479100 1.093500
7.503100 1.083400
7.527100 1.078200
7.551100 1.074300
7.575100 1.072300
7.599100 1.071700
7.623100 1.071300
7.647000 1.070900
7.671000 1.070500
7.695000 1.070200
7.719000 1.069900
7.743000 1.130800
7.767000 1.527100
7.791000 1.723500
7.815000 1.890400
7.838900 2.045000
7.862900 2.292500
7.886900 2.670900
7.910900 2.675100
7.934900 2.443800
7.958900 1.910500
7.982900 1.489800
8.006800 1.285400
8.030800 1.159800
8.054800 1.105500
8.078800 1.074700
8.102800 1.057200
8.126800 1.062900
8.150800 1.091400
8.174800 1.136100
8.198700 1.191900
8.222700 1.233200
8.246700 1.271100
8.270700 1.302700
8.294700 1.332000
8.318700 1.359300
8.342700 1.407700
8.366600 1.504000
8.390600 1.591200
8.414600 1.669000
8.438600 1.763400
8.462600 1.982700
8.486600 1.980400
8.510600 2.120200
8.534600 2.168900
8.558500 2.260300
8.582500 2.911100
8.606500 4.232800
8.630500 3.538100
8.654500 3.228800
8.678500 3.050600
8.702500 2.920100
8.726500 2.833700
8.750400 2.733500
8.774400 2.692900
8.798400 2.647600
8.822400 2.623600
8.846400 2.623200
8.870400 2.647300
8.894400 2.718200
8.918300 2.836500
8.942300 2.836700
8.966300 2.716500
8.990300 2.601000
9.014300 2.544200
9.038300 2.462600
9.062300 2.356800
9.086300 2.238600
9.110200 2.168200
9.134200 2.133800
9.158200 2.134800
9.182200 2.135400
9.206200 2.129300
9.230200 2.137000
9.254200 2.276200
9.278200 2.488700
9.302100 2.592000
9.326100 2.699400
9.350100 2.788600
9.374100 2.864000
9.398100 2.376100
9.422100 2.225200
9.446100 2.058400
9.470000 1.967100
9.494000 1.890100
9.518000 1.805700
9.542000 1.753800
9.566000 1.754700
9.590000 1.728800
9.614000 1.806600
9.638000 1.823900
9.661900 2.105900
9.685900 1.992700
9.709900 1.429600
9.733900 1.129700
9.757900 0.947000
9.781900 0.787700
9.805900 0.655300
9.829900 0.545700
9.853800 0.438600
9.877800 0.340300
9.901800 0.260200
9.925800 0.162400
9.949800 0.051300
9.973800 0.022200
9.997800 0.014800
10.021700 0.008900
10.045700 0.004600
10.069700 0.001600
10.093700 0.000200
10.117700 0.000000
10.141700 0.000000
10.165700 0.000900
10.189700 0.008000
10.213600 0.037800
10.237600 0.074600
10.261600 0.106600
10.285600 0.130300
10.309600 0.165400
10.333600 0.215600
10.357600 0.242200
10.381500 0.256800
10.405500 0.266200
10.429500 0.279600
10.453500 0.296000
10.477500 0.314400
10.501500 0.343700
10.525500 0.373100
10.549500 0.387000
10.573400 0.405400
10.597400 0.432000
10.621400 0.461000
10.645400 0.494300
10.669400 0.510400
10.693400 0.507500
10.717400 0.519100
10.741400 0.532100
10.765300 0.546400
10.789300 0.561500
10.813300 0.578700
10.837300 0.599200
10.861300 0.624200
10.885300 0.657000
10.909300 0.696800
10.933200 0.740100
10.957200 0.788200
10.981200 0.845500
11.005200 0.900600
11.029200 0.930600
11.053200 0.951300
11.077200 0.958100
11.101200 0.991700
11.125100 1.034300
11.149100 1.096600
11.173100 1.194100
11.197100 1.265400
11.221100 1.295200
11.245100 1.331700
11.269100 1.369600
11.293100 1.409400
11.317000 1.758400
11.341000 1.781300
11.365000 1.819500
11.389000 1.814000
11.413000 1.800300
11.437000 1.806200
11.461000 1.817500
11.484900 1.828300
11.508900 1.829500
11.532900 1.837300
11.556900 1.839000
11.580900 1.831800
11.604900 1.829300
11.628900 1.839200
11.652900 1.847700
11.676800 1.869300
11.700800 1.948700
11.724800 1.937500
11.748800 1.915400
11.772800 1.841500
11.796800 1.812200
11.820800 1.736400
11.844700 1.575800
11.868700 1.331300
11.892700 1.256400
11.916700 1.237000
11.940700 1.250000
11.964700 1.254300
11.988700 1.275500
12.012700 1.174500
12.036600 1.073000
12.060600 1.020200
12.084600 1.088700
12.108600 1.036200
12.132600 0.956700
12.156600 0.932900
12.180600 0.948900
12.204600 0.996700
12.228500 1.063100
12.252500 1.184600
12.276500 1.263200
12.300500 1.337000
12.324500 1.405600
12.348500 1.502900
12.372500 1.618800
12.396400 1.767600
12.420400 1.941400
12.444400 2.134100
12.468400 2.580000
12.492400 2.707100
12.516400 2.817000
12.540400 3.024500
12.564400 3.446100
12.588300 4.868500
12.612300 4.090600
12.636300 3.325000
12.660300 2.993400
12.684300 2.793300
12.708300 3.023800
12.732300 3.481200
12.756300 4.400500
12.780200 3.993000
12.804200 3.981500
12.828200 3.885800
12.852200 3.879500
12.876200 3.843600
12.900200 3.693100
12.924200 3.486000
12.948100 3.432200
12.972100 3.127700
12.996100 2.929900
13.020100 2.870500
13.044100 2.692500
13.068100 2.660800
13.092100 2.779200
13.116100 3.070100
13.140000 3.098000
13.164000 3.225800
13.188000 3.332600
13.212000 3.525800
13.236000 3.654300
13.260000 4.029100
13.284000 3.901900
13.307900 3.517600
13.331900 3.010700
13.355900 2.672300
13.379900 2.392400
13.403900 2.149200
13.427900 2.005200
13.451900 1.894700
13.475900 1.854300
13.499800 1.805500
13.523800 1.777100
13.547800 1.707000
13.571800 1.677600
13.595800 1.576000
13.619800 1.482100
13.643800 1.387000
13.667800 1.319300
13.691700 1.262900
13.715700 1.250300
13.739700 1.146500
13.763700 1.083200
13.787700 1.029200
13.811700 0.997800
13.835700 0.990600
13.859600 1.007300
13.883600 1.023200
13.907600 1.031500
13.931600 1.055700
13.955600 1.045400
13.979600 1.048300
14.003600 1.057500
14.027600 1.069600
14.051500 1.086100
14.075500 1.106800
14.099500 1.129600
14.123500 1.152400
14.147500 1.175800
14.171500 1.199400
14.195500 1.230000
14.219500 1.545600
14.243400 1.854000
14.267400 2.184200
14.291400 2.552800
14.315400 2.951700
14.339400 3.427700
14.363400 3.899600
14.387400 4.113200
14.411300 4.004600
14.435300 4.201000
14.459300 3.501600
14.483300 3.539400
14.507300 4.126900
14.531300 3.600900
14.555300 2.748900
14.579300 2.310700
14.603200 2.064600
14.627200 2.058000
14.651200 1.988300
14.675200 1.932500
14.699200 1.934000
14.723200 1.932100
14.747200 1.966600
14.771100 1.995000
14.795100 2.002600
14.819100 2.030700
14.843100 2.066800
14.867100 2.132800
14.891100 2.286400
14.915100 2.397500
14.939100 2.448100
14.963000 2.345400
14.987000 2.296300
15.011000 2.323600
15.035000 2.361500
15.059000 2.425300
15.083000 2.463800
15.107000 2.479600
15.131000 2.482000
15.154900 2.476600
15.178900 2.480500
15.202900 2.494100
15.226900 2.518200
15.250900 2.513700
15.274900 2.500800
15.298900 2.511800
15.322800 2.588600
15.346800 2.576200
15.370800 2.901100
15.394800 3.122600
15.418800 3.011100
15.442800 2.935400
15.466800 3.012700
15.490800 2.898400
15.514700 2.840000
15.538700 2.823100
15.562700 2.917400
15.586700 2.921000
15.610700 3.001600
15.634700 3.019500
15.658700 3.022100
15.682700 2.869500
15.706600 2.817000
15.730600 2.833400
15.754600 2.764300
15.778600 2.725800
15.802600 2.736900
15.826600 2.430100
15.850600 2.297000
15.874500 2.188200
15.898500 2.077300
15.922500 1.982100
15.946500 1.888800
15.970500 1.695900
15.994500 1.603000
16.018500 1.522200
16.042500 1.461000
16.066400 1.419200
16.090400 1.413100
16.114400 1.483100
16.138400 1.581600
16.162400 1.763000
16.186400 1.831700
16.210400 1.862500
16.234400 1.893500
16.258300 1.909300
16.282300 1.949600
16.306300 1.982100
16.330300 2.028800
16.354300 2.025200
16.378300 2.015000
16.402300 2.036800
16.426200 2.034500
16.450200 2.006100
16.474200 1.979800
16.498200 1.958400
16.522200 1.935600
16.546200 1.939700
16.570200 1.961700
16.594200 1.906700
16.618100 1.868600
16.642100 1.883700
16.666100 1.870600
16.690100 1.858100
16.714100 1.874800
16.738100 1.797500
16.762100 1.751300
16.786000 1.718100
16.810000 1.692000
16.834000 1.700700
16.858000 1.708800
16.882000 1.659100
16.906000 1.662200
16.930000 1.669700
16.954000 1.666700
16.977900 1.661900
17.001900 1.616600
17.025900 1.586300
17.049900 1.575600
17.073900 1.566300
17.097900 1.537800
17.121900 1.525500
17.145900 1.522200
17.169800 1.525300
17.193800 1.533600
17.217800 1.545800
17.241800 1.564500
17.265800 1.554900
17.289800 1.556900
17.313800 1.573000
17.337700 1.588700
17.361700 1.616600
17.385700 1.630900
17.409700 1.664300
17.433700 1.706200
17.457700 1.752000
17.481700 1.794800
17.505700 1.845100
17.529600 1.902700
17.553600 1.971000
17.577600 2.050100
17.601600 2.128400
17.625600 2.198600
17.649600 2.269000
17.673600 2.321700
17.697600 2.341200
17.721500 2.376100
17.745500 2.298500
17.769500 2.240600
17.793500 2.207500
17.817500 2.135000
17.841500 1.890100
17.865500 1.707500
17.889400 1.706400
17.913400 1.779400
17.937400 1.807000
17.961400 1.847400
17.985400 1.893100
18.009400 1.967300
18.033400 2.071600
18.057400 2.128500
18.081300 2.297900
18.105300 2.499900
18.129300 2.641200
18.153300 2.727800
18.177300 2.837300
18.201300 2.876000
18.225300 2.749100
18.249200 2.488400
18.273200 2.270300
18.297200 2.066600
18.321200 1.801300
18.345200 1.650900
18.369200 1.569700
18.393200 1.496400
18.417200 1.428000
18.441100 1.350900
18.465100 1.317400
18.489100 1.224000
18.513100 1.180100
18.537100 1.206700
18.561100 1.231500
18.585100 1.233900
18.609100 1.331300
18.633000 1.543600
18.657000 1.783200
18.681000 2.000700
18.705000 2.237200
18.729000 2.357900
18.753000 2.530800
18.777000 2.687500
18.800900 2.786500
18.824900 2.834000
18.848900 2.733200
18.872900 2.558900
18.896900 2.500300
18.920900 2.499000
18.944900 2.503800
18.968900 2.683500
18.992800 2.728000
19.016800 2.759300
19.040800 2.784400
19.064800 2.787400
19.088800 2.818800
19.112800 2.910300
19.136800 3.015300
19.160800 3.016800
19.184700 3.093500
19.208700 3.270400
19.232700 3.045400
19.256700 3.069800
19.280700 3.494000
19.304700 3.742700
19.328700 3.891100
19.352600 3.512200
19.376600 3.320900
19.400600 3.227300
19.424600 3.001600
19.448600 2.771200
19.472600 2.593200
19.496600 2.457800
19.520600 2.391800
19.544500 2.334900
19.568500 2.267500
19.592500 2.263100
19.616500 2.313400
19.640500 2.466700
19.664500 2.810100
19.688500 3.265800
19.712400 2.984000
19.736400 3.014600
19.760400 3.110300
19.784400 3.252000
19.808400 3.724800
19.832400 4.428200
19.856400 5.157600
19.880400 5.564600
19.904300 5.047100
19.928300 5.493400
19.952300 6.130900
19.976300 6.078000
20.000300 5.630500
20.024300 5.332300
20.048300 4.498300
20.072300 4.280000
20.096200 3.130300
20.120200 3.009600
20.144200 3.401900
20.168200 3.732200
20.192200 3.259500
20.216200 2.868400
20.240200 2.474700
20.264100 2.196600
20.288100 1.967200
20.312100 1.812300
20.336100 1.747200
20.360100 1.700100
20.384100 1.679100
20.408100 1.636500
20.432100 1.518700
20.456000 1.381600
20.480000 1.243000
20.504000 1.156900
20.528000 1.082100
20.552000 1.002900
20.576000 0.935200
20.600000 0.778700
20.624000 0.667000
20.647900 0.555800
20.671900 0.400900
20.695900 0.287200
20.719900 0.208700
20.743900 0.159400
20.767900 0.120700
20.791900 0.085400
20.815800 0.056900
20.839800 0.038200
20.863800 0.024700
20.887800 0.014800
20.911800 0.008400
20.935800 0.004400
20.959800 0.002000
20.983800 0.000600
21.007700 0.000000
21.031700 0.000000
21.055700 0.000000
21.079700 0.000000
21.103700 0.000000
21.127700 0.000000
21.151700 0.000000
21.175700 0.000000
21.199600 0.000000
21.223600 0.000000
21.247600 0.000000
21.271600 0.000000
21.295600 0.000000
21.319600 0.000000
21.343600 0.000000
21.367500 0.000000
21.391500 0.000000
21.415500 0.000000
21.439500 0.000000
21.463500 0.000000
21.487500 0.000000
21.511500 0.000000
21.535500 0.000000
21.559400 0.000000
21.583400 0.000000
21.607400 0.000000
21.631400 0.000000
21.655400 0.000000
21.679400 0.000000
21.703400 0.000000
21.727300 0.000000
21.751300 0.000000
21.775300 0.000000
21.799300 0.000000
21.823300 0.000000
21.847300 0.000000
21.871300 0.000000
21.895300 0.000000
21.919200 0.000000
21.943200 0.000000
21.967200 0.000000
21.991200 0.000000
22.015200 0.000000
22.039200 0.000000
22.063200 0.000000
22.087200 0.000000
22.111100 0.000000
22.135100 0.000000
22.159100 0.000000
22.183100 0.000000
22.207100 0.000000
22.231100 0.000000
22.255100 0.000000
22.279000 0.000000
22.303000 0.000000
22.327000 0.000000
22.351000 0.000000
22.375000 0.000000
22.399000 0.000000
22.423000 0.000000
22.447000 0.000000
22.470900 0.000000
22.494900 0.000000
22.518900 0.000000
22.542900 0.000000
22.566900 0.000000
22.590900 0.000000
22.614900 0.000000
22.638900 0.000000
22.662800 0.000000
22.686800 0.000000
22.710800 0.000000
22.734800 0.000000
22.758800 0.000000
22.782800 0.000000
22.806800 0.000000
22.830700 0.000000
22.854700 0.000000
22.878700 0.000000
22.902700 0.000000
22.926700 0.000000
22.950700 0.000000
22.974700 0.000000
22.998700 0.000000
23.022600 0.000000
23.046600 0.000000
23.070600 0.000000
23.094600 0.000000
23.118600 0.000000
23.142600 0.000000
23.166600 0.000000
23.190500 0.000000
e
