set title 'mp-1019324 - Density of States'
set xlabel 'Energy (eV)'
set ylabel 'DOS (states/eV)'
set grid
set xrange [-10:10]
set yrange [0:15.553]
set xzeroaxis lt -1
set terminal png size 800,600
set output 'mp-1019324_dos_gnuplot.png'
plot '-' using 1:2 with lines title 'DOS'
-18.559900 0.000000
-18.543300 0.000000
-18.526700 0.000000
-18.510100 0.000000
-18.493500 0.000000
-18.476900 0.000000
-18.460200 0.000000
-18.443600 0.000000
-18.427000 0.000000
-18.410400 0.000000
-18.393800 0.000000
-18.377200 0.000000
-18.360600 0.000000
-18.344000 0.000000
-18.327400 0.000000
-18.310800 0.000000
-18.294200 0.000000
-18.277600 0.000000
-18.261000 0.000000
-18.244400 0.000000
-18.227800 0.000000
-18.211200 0.000000
-18.194600 0.000000
-18.178000 0.000000
-18.161400 0.000000
-18.144800 0.000000
-18.128200 0.000000
-18.111600 0.000000
-18.095000 0.000000
-18.078400 0.000000
-18.061800 0.000000
-18.045200 0.000000
-18.028600 0.000000
-18.012000 0.000000
-17.995400 0.000000
-17.978800 0.000000
-17.962200 0.000000
-17.945600 0.000000
-17.929000 0.000000
-17.912400 0.000000
-17.895800 0.000000
-17.879200 0.000000
-17.862600 0.000000
-17.846000 0.000000
-17.829400 0.000000
-17.812800 0.000000
-17.796200 0.000000
-17.779600 0.000000
-17.763000 0.000000
-17.746400 0.000000
-17.729800 0.000000
-17.713200 0.000000
-17.696600 0.000000
-17.680000 0.000000
-17.663400 0.000000
-17.646800 0.000000
-17.630200 0.000000
-17.613600 0.000000
-17.597000 0.000000
-17.580400 0.000000
-17.563800 0.000000
-17.547200 0.000000
-17.530600 0.000000
-17.514000 0.000000
-17.497400 0.000000
-17.480800 0.000000
-17.464200 0.000000
-17.447500 0.000000
-17.430900 0.000000
-17.414300 0.000000
-17.397700 0.000000
-17.381100 0.000000
-17.364500 0.000000
-17.347900 0.000000
-17.331300 0.000000
-17.314700 0.000000
-17.298100 0.000000
-17.281500 0.000000
-17.264900 0.000000
-17.248300 0.000000
-17.231700 0.000000
-17.215100 0.000000
-17.198500 0.000000
-17.181900 0.000000
-17.165300 0.000000
-17.148700 0.000000
-17.132100 0.000000
-17.115500 0.000000
-17.098900 0.000000
-17.082300 0.000000
-17.065700 0.000000
-17.049100 83.793200
-17.032500 124.300400
-17.015900 135.776400
-16.999300 383.865500
-16.982700 0.000000
-16.966100 0.000000
-16.949500 0.000000
-16.932900 0.000000
-16.916300 0.000000
-16.899700 0.000000
-16.883100 0.000000
-16.866500 0.000000
-16.849900 0.000000
-16.833300 0.000000
-16.816700 0.000000
-16.800100 0.000000
-16.783500 0.000000
-16.766900 0.000000
-16.750300 0.000000
-16.733700 0.000000
-16.717100 0.000000
-16.700500 0.000000
-16.683900 0.000000
-16.667300 0.000000
-16.650700 0.000000
-16.634100 0.000000
-16.617500 0.000000
-16.600900 0.000000
-16.584300 0.000000
-16.567700 0.000000
-16.551100 0.000000
-16.534500 0.000000
-16.517900 0.000000
-16.501300 0.000000
-16.484700 0.000000
-16.468100 0.000000
-16.451500 0.000000
-16.434800 0.000000
-16.418200 0.000000
-16.401600 0.000000
-16.385000 0.000000
-16.368400 0.000000
-16.351800 0.000000
-16.335200 0.000000
-16.318600 0.000000
-16.302000 0.000000
-16.285400 0.000000
-16.268800 0.000000
-16.252200 0.000000
-16.235600 0.000000
-16.219000 0.000000
-16.202400 0.000000
-16.185800 0.000000
-16.169200 0.000000
-16.152600 0.000000
-16.136000 0.000000
-16.119400 0.000000
-16.102800 0.000000
-16.086200 0.000000
-16.069600 0.000000
-16.053000 0.000000
-16.036400 0.000000
-16.019800 0.000000
-16.003200 0.000000
-15.986600 0.000000
-15.970000 0.000000
-15.953400 0.000000
-15.936800 0.000000
-15.920200 0.000000
-15.903600 0.000000
-15.887000 0.000000
-15.870400 0.000000
-15.853800 0.000000
-15.837200 0.000000
-15.820600 0.000000
-15.804000 0.000000
-15.787400 0.000000
-15.770800 0.000000
-15.754200 0.000000
-15.737600 0.000000
-15.721000 0.000000
-15.704400 0.000000
-15.687800 0.000000
-15.671200 0.000000
-15.654600 0.000000
-15.638000 0.000000
-15.621400 0.000000
-15.604800 0.000000
-15.588200 0.000000
-15.571600 0.000000
-15.555000 0.000000
-15.538400 0.000000
-15.521800 0.000000
-15.505200 0.000000
-15.488600 0.000000
-15.472000 0.000000
-15.455400 0.000000
-15.438800 0.000000
-15.422100 0.000000
-15.405500 0.000000
-15.388900 0.000000
-15.372300 0.000000
-15.355700 0.000000
-15.339100 0.000000
-15.322500 0.000000
-15.305900 0.000000
-15.289300 0.000000
-15.272700 0.000000
-15.256100 0.000000
-15.239500 0.000000
-15.222900 0.000000
-15.206300 0.000000
-15.189700 0.000000
-15.173100 0.000000
-15.156500 0.000000
-15.139900 0.000000
-15.123300 0.000000
-15.106700 0.000000
-15.090100 0.000000
-15.073500 0.000000
-15.056900 0.000000
-15.040300 0.000000
-15.023700 0.000000
-15.007100 0.000000
-14.990500 0.000000
-14.973900 0.000000
-14.957300 0.000000
-14.940700 0.000000
-14.924100 0.000000
-14.907500 0.000000
-14.890900 0.000000
-14.874300 0.000000
-14.857700 0.000000
-14.841100 0.000000
-14.824500 0.000000
-14.807900 0.000000
-14.791300 0.000000
-14.774700 0.000000
-14.758100 0.000000
-14.741500 0.000000
-14.724900 0.000000
-14.708300 0.000000
-14.691700 0.000000
-14.675100 0.000000
-14.658500 0.000000
-14.641900 0.000000
-14.625300 0.000000
-14.608700 0.000000
-14.592100 0.000000
-14.575500 0.000000
-14.558900 0.000000
-14.542300 0.000000
-14.525700 0.000000
-14.509100 0.000000
-14.492500 0.000000
-14.475900 0.000000
-14.459300 0.000000
-14.442700 0.000000
-14.426100 0.000000
-14.409500 0.000000
-14.392800 0.000000
-14.376200 0.000000
-14.359600 0.000000
-14.343000 0.000000
-14.326400 0.000000
-14.309800 0.000000
-14.293200 0.000000
-14.276600 0.000000
-14.260000 0.000000
-14.243400 0.000000
-14.226800 0.000000
-14.210200 0.000000
-14.193600 0.000000
-14.177000 0.000000
-14.160400 0.000000
-14.143800 0.000000
-14.127200 0.000000
-14.110600 0.000000
-14.094000 0.000000
-14.077400 0.000000
-14.060800 0.000000
-14.044200 0.000000
-14.027600 0.000000
-14.011000 0.000000
-13.994400 0.000000
-13.977800 0.000000
-13.961200 0.000000
-13.944600 0.000000
-13.928000 0.000000
-13.911400 0.000000
-13.894800 0.000000
-13.878200 0.000000
-13.861600 0.000000
-13.845000 0.000000
-13.828400 0.000000
-13.811800 0.000000
-13.795200 0.000000
-13.778600 0.000000
-13.762000 0.000000
-13.745400 0.000000
-13.728800 0.000000
-13.712200 0.000000
-13.695600 0.000000
-13.679000 0.000000
-13.662400 0.000000
-13.645800 0.000000
-13.629200 0.000000
-13.612600 0.000000
-13.596000 0.000000
-13.579400 0.000000
-13.562800 0.000000
-13.546200 0.000000
-13.529600 0.000000
-13.513000 0.000000
-13.496400 0.000000
-13.479800 0.000000
-13.463200 0.000000
-13.446600 0.000000
-13.430000 0.000000
-13.413400 0.000000
-13.396800 0.000000
-13.380100 0.000000
-13.363500 0.000000
-13.346900 0.000000
-13.330300 0.000000
-13.313700 0.000000
-13.297100 0.000000
-13.280500 0.000000
-13.263900 0.000000
-13.247300 0.000000
-13.230700 0.000000
-13.214100 0.000000
-13.197500 0.000000
-13.180900 0.000000
-13.164300 0.000000
-13.147700 0.000000
-13.131100 0.000000
-13.114500 0.000000
-13.097900 0.000000
-13.081300 0.000000
-13.064700 0.000000
-13.048100 0.000000
-13.031500 0.000000
-13.014900 0.000000
-12.998300 0.000000
-12.981700 0.000000
-12.965100 0.000000
-12.948500 0.000000
-12.931900 0.000000
-12.915300 0.000000
-12.898700 0.000000
-12.882100 0.000000
-12.865500 0.000000
-12.848900 0.000000
-12.832300 0.000000
-12.815700 0.000000
-12.799100 0.000000
-12.782500 0.000000
-12.765900 0.000000
-12.749300 0.000000
-12.732700 0.000000
-12.716100 0.000000
-12.699500 0.000000
-12.682900 0.000000
-12.666300 0.000000
-12.649700 0.000000
-12.633100 0.000000
-12.616500 0.000000
-12.599900 0.000000
-12.583300 0.000000
-12.566700 0.000000
-12.550100 0.000000
-12.533500 0.000000
-12.516900 0.000000
-12.500300 0.000000
-12.483700 0.000000
-12.467100 0.000000
-12.450500 0.000000
-12.433900 0.000000
-12.417300 0.000000
-12.400700 0.000000
-12.384100 0.000000
-12.367400 0.000000
-12.350800 0.000000
-12.334200 0.000000
-12.317600 0.000000
-12.301000 0.000000
-12.284400 0.000000
-12.267800 0.000000
-12.251200 0.000000
-12.234600 0.000000
-12.218000 0.000000
-12.201400 0.000000
-12.184800 0.000000
-12.168200 0.000000
-12.151600 0.000000
-12.135000 0.000000
-12.118400 0.000000
-12.101800 0.000000
-12.085200 0.000000
-12.068600 0.000000
-12.052000 0.000000
-12.035400 0.000000
-12.018800 0.000000
-12.002200 0.000000
-11.985600 0.000000
-11.969000 0.000000
-11.952400 0.000000
-11.935800 0.000000
-11.919200 0.000000
-11.902600 0.000000
-11.886000 0.000000
-11.869400 0.000000
-11.852800 0.000000
-11.836200 0.000000
-11.819600 0.000000
-11.803000 0.000000
-11.786400 0.000000
-11.769800 0.000000
-11.753200 0.000000
-11.736600 0.000000
-11.720000 0.000000
-11.703400 0.000000
-11.686800 0.000000
-11.670200 0.000000
-11.653600 0.000000
-11.637000 0.000000
-11.620400 0.000000
-11.603800 0.000000
-11.587200 0.000000
-11.570600 0.000000
-11.554000 0.000000
-11.537400 0.000000
-11.520800 0.000000
-11.504200 0.000000
-11.487600 0.000000
-11.471000 0.000000
-11.454400 0.000000
-11.437800 0.000000
-11.421200 0.000000
-11.404600 0.000000
-11.388000 0.000000
-11.371400 0.000000
-11.354700 0.000000
-11.338100 0.000000
-11.321500 0.000000
-11.304900 0.000000
-11.288300 0.000000
-11.271700 0.000000
-11.255100 0.000000
-11.238500 0.000000
-11.221900 0.000000
-11.205300 0.000000
-11.188700 0.000000
-11.172100 0.000000
-11.155500 0.000000
-11.138900 0.000000
-11.122300 0.000000
-11.105700 0.000000
-11.089100 0.000000
-11.072500 0.000000
-11.055900 0.000000
-11.039300 0.000000
-11.022700 0.000000
-11.006100 0.000000
-10.989500 0.000000
-10.972900 0.000000
-10.956300 0.000000
-10.939700 0.000000
-10.923100 0.000000
-10.906500 0.000000
-10.889900 0.000000
-10.873300 0.000000
-10.856700 0.000000
-10.840100 0.000000
-10.823500 0.000000
-10.806900 0.000000
-10.790300 0.000000
-10.773700 0.000000
-10.757100 0.000000
-10.740500 0.000000
-10.723900 0.000000
-10.707300 0.000000
-10.690700 0.000000
-10.674100 0.000000
-10.657500 0.000000
-10.640900 0.000000
-10.624300 0.000000
-10.607700 0.000000
-10.591100 0.000000
-10.574500 0.000000
-10.557900 0.000000
-10.541300 0.000000
-10.524700 0.000000
-10.508100 0.000000
-10.491500 0.000000
-10.474900 0.000000
-10.458300 0.000000
-10.441700 0.000000
-10.425100 0.000000
-10.408500 0.000000
-10.391900 0.000000
-10.375300 0.000000
-10.358700 0.000000
-10.342000 0.000000
-10.325400 0.000000
-10.308800 0.000000
-10.292200 0.000000
-10.275600 0.000000
-10.259000 0.000000
-10.242400 0.000000
-10.225800 0.000000
-10.209200 0.000000
-10.192600 0.000000
-10.176000 0.000000
-10.159400 0.000000
-10.142800 0.000000
-10.126200 0.000000
-10.109600 0.000000
-10.093000 0.000000
-10.076400 0.000000
-10.059800 0.000000
-10.043200 0.000000
-10.026600 0.000000
-10.010000 0.000000
-9.993400 0.000000
-9.976800 0.000000
-9.960200 0.000000
-9.943600 0.000000
-9.927000 0.000000
-9.910400 0.000000
-9.893800 0.000000
-9.877200 0.000000
-9.860600 0.000000
-9.844000 0.000000
-9.827400 0.000000
-9.810800 0.000000
-9.794200 0.000000
-9.777600 0.000000
-9.761000 0.000000
-9.744400 0.000000
-9.727800 0.000000
-9.711200 0.000000
-9.694600 0.000000
-9.678000 0.000000
-9.661400 0.000000
-9.644800 0.000000
-9.628200 0.000000
-9.611600 0.000000
-9.595000 0.000000
-9.578400 0.000000
-9.561800 0.000000
-9.545200 0.000000
-9.528600 0.000000
-9.512000 0.000000
-9.495400 0.000000
-9.478800 0.000000
-9.462200 0.000000
-9.445600 0.000000
-9.429000 0.000000
-9.412400 0.000000
-9.395800 0.000000
-9.379200 0.000000
-9.362600 0.000000
-9.346000 0.000000
-9.329400 0.000000
-9.312700 0.000000
-9.296100 0.000000
-9.279500 0.000000
-9.262900 0.000000
-9.246300 0.000000
-9.229700 0.000000
-9.213100 0.000000
-9.196500 0.000000
-9.179900 0.000000
-9.163300 0.000000
-9.146700 0.000000
-9.130100 0.000000
-9.113500 0.000000
-9.096900 0.000000
-9.080300 0.000000
-9.063700 0.000000
-9.047100 0.000000
-9.030500 0.000000
-9.013900 0.000000
-8.997300 0.000000
-8.980700 0.000000
-8.964100 0.000000
-8.947500 0.000000
-8.930900 0.000000
-8.914300 0.000000
-8.897700 0.000000
-8.881100 0.000000
-8.864500 0.000000
-8.847900 0.000000
-8.831300 0.000000
-8.814700 0.000000
-8.798100 0.000000
-8.781500 0.000000
-8.764900 0.000000
-8.748300 0.000000
-8.731700 0.000000
-8.715100 0.000000
-8.698500 0.000000
-8.681900 0.000000
-8.665300 0.000000
-8.648700 0.000000
-8.632100 0.000000
-8.615500 0.000000
-8.598900 0.000000
-8.582300 0.000000
-8.565700 0.000000
-8.549100 0.000000
-8.532500 0.000000
-8.515900 0.000000
-8.499300 0.000000
-8.482700 0.000000
-8.466100 0.000000
-8.449500 0.000000
-8.432900 0.000000
-8.416300 0.000000
-8.399700 0.000000
-8.383100 0.000000
-8.366500 0.000000
-8.349900 0.000000
-8.333300 0.000000
-8.316700 0.000000
-8.300000 0.000000
-8.283400 0.000000
-8.266800 0.000000
-8.250200 0.000000
-8.233600 0.000000
-8.217000 0.000000
-8.200400 0.000000
-8.183800 0.000000
-8.167200 0.000000
-8.150600 0.000000
-8.134000 0.000000
-8.117400 0.000000
-8.100800 0.000000
-8.084200 0.000000
-8.067600 0.000000
-8.051000 0.000000
-8.034400 0.000000
-8.017800 0.000000
-8.001200 0.000000
-7.984600 0.000000
-7.968000 0.000000
-7.951400 0.000000
-7.934800 0.000000
-7.918200 0.000000
-7.901600 0.000000
-7.885000 0.000000
-7.868400 0.000000
-7.851800 0.000000
-7.835200 0.000000
-7.818600 0.000000
-7.802000 0.000000
-7.785400 0.000000
-7.768800 0.000000
-7.752200 0.000000
-7.735600 0.000000
-7.719000 0.000000
-7.702400 0.000000
-7.685800 0.000000
-7.669200 0.000000
-7.652600 0.000000
-7.636000 0.000000
-7.619400 0.000000
-7.602800 0.000000
-7.586200 0.000000
-7.569600 0.000000
-7.553000 0.000000
-7.536400 0.000000
-7.519800 0.000000
-7.503200 0.000000
-7.486600 0.000000
-7.470000 0.000000
-7.453400 0.000000
-7.436800 0.000000
-7.420200 0.000000
-7.403600 0.000000
-7.387000 0.000000
-7.370400 0.000000
-7.353800 0.000000
-7.337200 0.000000
-7.320600 0.000000
-7.304000 0.000000
-7.287300 0.000000
-7.270700 0.000000
-7.254100 0.000000
-7.237500 0.000000
-7.220900 0.000000
-7.204300 0.000000
-7.187700 0.000000
-7.171100 0.000000
-7.154500 0.000000
-7.137900 0.000000
-7.121300 0.000000
-7.104700 0.000000
-7.088100 0.000000
-7.071500 0.000000
-7.054900 0.000000
-7.038300 0.000000
-7.021700 0.166300
-7.005100 0.547000
-6.988500 0.931200
-6.971900 1.036900
-6.955300 0.922400
-6.938700 0.890000
-6.922100 0.955600
-6.905500 1.025900
-6.888900 1.053300
-6.872300 1.017300
-6.855700 0.954500
-6.839100 0.932900
-6.822500 0.947600
-6.805900 0.962200
-6.789300 0.976900
-6.772700 0.991600
-6.756100 1.010800
-6.739500 1.035600
-6.722900 1.042200
-6.706300 1.017800
-6.689700 0.988900
-6.673100 0.980200
-6.656500 0.981900
-6.639900 0.983600
-6.623300 0.985400
-6.606700 0.989400
-6.590100 0.998600
-6.573500 1.012000
-6.556900 1.024600
-6.540300 1.037300
-6.523700 1.049900
-6.507100 1.061300
-6.490500 1.054800
-6.473900 1.031800
-6.457300 1.017400
-6.440700 1.016400
-6.424100 1.018600
-6.407500 1.021400
-6.390900 1.024300
-6.374300 1.028600
-6.357700 1.034600
-6.341100 1.041000
-6.324500 1.047500
-6.307900 1.053900
-6.291300 1.060300
-6.274600 1.066700
-6.258000 1.073100
-6.241400 1.082200
-6.224800 1.094500
-6.208200 1.096100
-6.191600 1.083100
-6.175000 1.075900
-6.158400 1.076500
-6.141800 1.077300
-6.125200 1.078000
-6.108600 1.079100
-6.092000 1.081700
-6.075400 1.085200
-6.058800 1.088800
-6.042200 1.093000
-6.025600 1.100500
-6.009000 1.109400
-5.992400 1.118400
-5.975800 1.127200
-5.959200 1.135000
-5.942600 1.142500
-5.926000 1.150000
-5.909400 1.157500
-5.892800 1.165000
-5.876200 1.169700
-5.859600 1.162100
-5.843000 1.155100
-5.826400 1.154900
-5.809800 1.155100
-5.793200 1.167200
-5.776600 1.175300
-5.760000 1.181900
-5.743400 1.188600
-5.726800 1.195400
-5.710200 1.202100
-5.693600 1.208800
-5.677000 1.215600
-5.660400 1.222200
-5.643800 1.228600
-5.627200 1.235100
-5.610600 1.241500
-5.594000 1.248900
-5.577400 1.263900
-5.560800 1.281000
-5.544200 1.298200
-5.527600 1.314800
-5.511000 1.327400
-5.494400 1.338500
-5.477800 1.340000
-5.461200 1.340600
-5.444600 1.346400
-5.428000 1.352300
-5.411400 1.358700
-5.394800 1.366400
-5.378200 1.374100
-5.361600 1.409400
-5.345000 1.439500
-5.328400 1.458900
-5.311800 1.478500
-5.295200 1.498200
-5.278600 1.517800
-5.261900 1.537400
-5.245300 1.557000
-5.228700 1.576100
-5.212100 1.594100
-5.195500 1.634000
-5.178900 1.703400
-5.162300 1.772800
-5.145700 1.842300
-5.129100 1.905700
-5.112500 2.080900
-5.095900 2.378800
-5.079300 2.511100
-5.062700 4.156200
-5.046100 3.456800
-5.029500 3.041200
-5.012900 2.997800
-4.996300 2.941900
-4.979700 2.923800
-4.963100 3.102900
-4.946500 3.383100
-4.929900 3.105700
-4.913300 3.097700
-4.896700 3.107100
-4.880100 3.076800
-4.863500 3.030700
-4.846900 3.013100
-4.830300 3.005800
-4.813700 3.001700
-4.797100 3.002000
-4.780500 2.991100
-4.763900 3.003900
-4.747300 3.064700
-4.730700 3.149300
-4.714100 3.269500
-4.697500 3.444400
-4.680900 3.692500
-4.664300 4.181900
-4.647700 5.335200
-4.631100 7.751300
-4.614500 3.009800
-4.597900 1.862100
-4.581300 1.390000
-4.564700 1.053700
-4.548100 1.099000
-4.531500 1.250400
-4.514900 1.525200
-4.498300 1.983500
-4.481700 2.455400
-4.465100 3.149200
-4.448500 4.197900
-4.431900 4.585300
-4.415300 4.777000
-4.398700 4.934300
-4.382100 5.036200
-4.365500 5.120700
-4.348900 5.276400
-4.332300 5.483800
-4.315700 5.700300
-4.299100 6.092900
-4.282500 6.786700
-4.265900 7.905400
-4.249200 12.730100
-4.232600 9.532100
-4.216000 8.302600
-4.199400 8.076900
-4.182800 8.447200
-4.166200 9.253100
-4.149600 11.054700
-4.133000 11.717600
-4.116400 11.525400
-4.099800 10.830500
-4.083200 11.001500
-4.066600 10.053600
-4.050000 7.683600
-4.033400 1.133300
-4.016800 1.098400
-4.000200 1.063500
-3.983600 1.028500
-3.967000 0.993600
-3.950400 0.958600
-3.933800 0.923600
-3.917200 0.888600
-3.900600 0.853500
-3.884000 0.818500
-3.867400 0.783400
-3.850800 0.725400
-3.834200 0.709400
-3.817600 0.693400
-3.801000 0.677400
-3.784400 0.661400
-3.767800 0.645400
-3.751200 0.628800
-3.734600 0.604900
-3.718000 0.580900
-3.701400 0.567900
-3.684800 0.556200
-3.668200 0.544400
-3.651600 0.532700
-3.635000 0.521000
-3.618400 0.509300
-3.601800 0.497500
-3.585200 0.486400
-3.568600 0.482500
-3.552000 0.478500
-3.535400 0.474600
-3.518800 0.470600
-3.502200 0.466600
-3.485600 0.462700
-3.469000 0.458700
-3.452400 0.454800
-3.435800 0.450800
-3.419200 0.446800
-3.402600 0.424000
-3.386000 0.440500
-3.369400 0.457000
-3.352800 0.473500
-3.336200 0.465700
-3.319600 0.451700
-3.303000 0.437600
-3.286400 0.423600
-3.269800 0.409600
-3.253200 0.395500
-3.236600 0.381500
-3.219900 0.367500
-3.203300 0.353400
-3.186700 0.339400
-3.170100 0.343400
-3.153500 0.373000
-3.136900 0.402600
-3.120300 0.432200
-3.103700 0.461800
-3.087100 0.419400
-3.070500 0.337900
-3.053900 0.256400
-3.037300 0.174900
-3.020700 0.093400
-3.004100 0.011900
-2.987500 0.000000
-2.970900 0.000000
-2.954300 0.000000
-2.937700 0.000000
-2.921100 0.000000
-2.904500 0.000000
-2.887900 0.000000
-2.871300 0.000000
-2.854700 0.000000
-2.838100 0.000000
-2.821500 0.000000
-2.804900 0.000000
-2.788300 0.000000
-2.771700 0.000000
-2.755100 0.000000
-2.738500 0.000000
-2.721900 0.000000
-2.705300 0.000000
-2.688700 0.000000
-2.672100 0.000000
-2.655500 0.000000
-2.638900 0.000000
-2.622300 0.000000
-2.605700 0.000000
-2.589100 0.000000
-2.572500 0.000000
-2.555900 0.000000
-2.539300 0.000000
-2.522700 0.000000
-2.506100 0.000000
-2.489500 0.000000
-2.472900 0.000000
-2.456300 0.000000
-2.439700 0.000000
-2.423100 0.000000
-2.406500 0.000000
-2.389900 0.000000
-2.373300 0.000000
-2.356700 0.000000
-2.340100 0.000000
-2.323500 0.000000
-2.306900 0.000000
-2.290300 0.000000
-2.273700 0.000000
-2.257100 0.000000
-2.240500 0.000000
-2.223900 0.000000
-2.207200 0.000000
-2.190600 0.000000
-2.174000 0.000000
-2.157400 0.000000
-2.140800 0.000000
-2.124200 0.000000
-2.107600 0.000000
-2.091000 0.000000
-2.074400 0.000000
-2.057800 0.000000
-2.041200 0.000000
-2.024600 0.000000
-2.008000 0.000000
-1.991400 0.000000
-1.974800 0.000000
-1.958200 0.000000
-1.941600 0.000000
-1.925000 0.000000
-1.908400 0.000000
-1.891800 0.000000
-1.875200 0.000000
-1.858600 0.000000
-1.842000 0.000000
-1.825400 0.000000
-1.808800 0.000000
-1.792200 0.000000
-1.775600 0.000000
-1.759000 0.000000
-1.742400 0.000000
-1.725800 0.000000
-1.709200 0.000000
-1.692600 0.000000
-1.676000 0.000000
-1.659400 0.000000
-1.642800 0.000000
-1.626200 0.000000
-1.609600 0.000000
-1.593000 0.000000
-1.576400 0.000000
-1.559800 0.000000
-1.543200 0.000000
-1.526600 0.000000
-1.510000 0.000000
-1.493400 0.000000
-1.476800 0.000000
-1.460200 0.000000
-1.443600 0.000000
-1.427000 0.000000
-1.410400 0.000000
-1.393800 0.000000
-1.377200 0.000000
-1.360600 0.000000
-1.344000 0.000000
-1.327400 0.000000
-1.310800 0.000000
-1.294200 0.000000
-1.277600 0.000000
-1.261000 0.000000
-1.244400 0.000000
-1.227800 0.000000
-1.211200 0.000000
-1.194500 0.000000
-1.177900 0.000000
-1.161300 0.000000
-1.144700 0.000000
-1.128100 0.000000
-1.111500 0.000000
-1.094900 0.000000
-1.078300 0.000000
-1.061700 0.000000
-1.045100 0.000000
-1.028500 0.000000
-1.011900 0.000000
-0.995300 0.000000
-0.978700 0.000000
-0.962100 0.000000
-0.945500 0.000000
-0.928900 0.000000
-0.912300 0.000000
-0.895700 0.000000
-0.879100 0.000000
-0.862500 0.000000
-0.845900 0.000000
-0.829300 0.000000
-0.812700 0.000000
-0.796100 0.000000
-0.779500 0.000000
-0.762900 0.000000
-0.746300 0.000000
-0.729700 0.000000
-0.713100 0.000000
-0.696500 0.000000
-0.679900 0.000000
-0.663300 0.000000
-0.646700 0.000000
-0.630100 0.000000
-0.613500 0.000000
-0.596900 0.000000
-0.580300 0.000000
-0.563700 0.000000
-0.547100 0.000000
-0.530500 0.000000
-0.513900 0.000000
-0.497300 0.000000
-0.480700 0.000000
-0.464100 0.000000
-0.447500 0.000000
-0.430900 0.000000
-0.414300 0.000000
-0.397700 0.000000
-0.381100 0.000000
-0.364500 0.000000
-0.347900 0.000000
-0.331300 0.000000
-0.314700 0.000000
-0.298100 0.000000
-0.281500 0.000000
-0.264900 0.000000
-0.248300 0.000000
-0.231700 0.000000
-0.215100 0.000000
-0.198500 0.000000
-0.181800 0.000000
-0.165200 0.000000
-0.148600 0.000000
-0.132000 0.000000
-0.115400 0.000000
-0.098800 0.000000
-0.082200 0.000000
-0.065600 0.000000
-0.049000 0.000000
-0.032400 0.000000
-0.015800 0.000000
0.000800 0.000000
0.017400 0.000000
0.034000 0.000000
0.050600 0.000000
0.067200 0.000000
0.083800 0.000000
0.100400 0.000000
0.117000 0.000000
0.133600 0.000000
0.150200 0.027100
0.166800 0.105900
0.183400 0.219600
0.200000 0.366100
0.216600 0.541800
0.233200 0.605800
0.249800 0.692600
0.266400 0.797800
0.283000 0.904100
0.299600 1.001800
0.316200 1.131000
0.332800 1.137000
0.349400 1.034500
0.366000 1.021000
0.382600 1.039000
0.399200 1.055700
0.415800 1.071000
0.432400 1.128000
0.449000 1.128600
0.465600 1.040400
0.482200 1.046800
0.498800 1.055200
0.515400 1.101500
0.532000 1.107700
0.548600 1.105200
0.565200 1.090200
0.581800 1.082400
0.598400 1.078000
0.615000 1.077600
0.631600 1.095100
0.648200 1.104700
0.664800 1.074000
0.681400 1.052900
0.698000 1.048600
0.714600 1.055600
0.731200 1.063700
0.747800 1.073300
0.764400 1.085000
0.781000 1.097800
0.797600 1.110600
0.814200 1.139200
0.830900 1.148400
0.847500 1.152200
0.864100 1.149100
0.880700 1.146100
0.897300 1.141600
0.913900 1.144000
0.930500 1.150800
0.947100 1.133400
0.963700 1.120400
0.980300 1.111900
0.996900 1.108700
1.013500 1.114100
1.030100 1.126000
1.046700 1.138300
1.063300 1.150700
1.079900 1.163400
1.096500 1.176500
1.113100 1.189900
1.129700 1.203700
1.146300 1.217700
1.162900 1.232000
1.179500 1.267400
1.196100 1.294000
1.212700 1.321900
1.229300 1.358600
1.245900 1.416100
1.262500 1.783500
1.279100 2.321700
1.295700 3.011800
1.312300 3.304800
1.328900 3.515200
1.345500 3.562500
1.362100 4.150200
1.378700 5.251700
1.395300 6.835600
1.411900 4.584000
1.428500 3.541400
1.445100 3.363300
1.461700 3.217900
1.478300 3.185600
1.494900 3.164500
1.511500 3.123700
1.528100 3.129100
1.544700 3.205400
1.561300 3.300500
1.577900 3.407600
1.594500 3.527600
1.611100 3.811800
1.627700 4.110300
1.644300 4.187000
1.660900 4.051700
1.677500 3.956300
1.694100 4.000000
1.710700 4.069300
1.727300 4.227900
1.743900 4.245300
1.760500 4.119400
1.777100 4.011700
1.793700 3.928900
1.810300 4.141700
1.826900 4.115800
1.843600 3.347500
1.860200 3.134700
1.876800 2.915400
1.893400 2.816000
1.910000 2.750300
1.926600 2.743100
1.943200 2.727800
1.959800 2.758800
1.976400 2.871300
1.993000 2.929400
2.009600 2.849800
2.026200 2.836900
2.042800 2.805500
2.059400 2.701300
2.076000 2.594800
2.092600 2.526700
2.109200 2.502400
2.125800 2.456800
2.142400 2.501300
2.159000 2.626800
2.175600 2.757000
2.192200 2.892800
2.208800 3.036900
2.225400 3.188500
2.242000 3.752000
2.258600 4.225400
2.275200 4.521600
2.291800 4.667600
2.308400 5.106800
2.325000 5.686900
2.341600 9.948200
2.358200 7.193400
2.374800 6.239400
2.391400 5.881800
2.408000 5.250500
2.424600 4.077600
2.441200 3.702700
2.457800 3.428700
2.474400 3.270300
2.491000 3.187000
2.507600 3.095100
2.524200 2.995000
2.540800 2.945500
2.557400 2.757700
2.574000 2.720000
2.590600 2.740300
2.607200 2.855900
2.623800 3.006900
2.640400 3.257600
2.657000 3.166200
2.673600 3.169300
2.690200 3.221600
2.706800 3.316900
2.723400 3.440400
2.740000 3.501000
2.756600 3.565400
2.773200 3.662800
2.789800 3.957300
2.806400 4.174300
2.823000 4.152600
2.839600 4.227900
2.856200 4.355400
2.872900 4.530500
2.889500 4.702800
2.906100 4.930200
2.922700 5.069600
2.939300 5.187200
2.955900 5.337300
2.972500 5.500800
2.989100 5.655300
3.005700 5.892900
3.022300 5.906100
3.038900 5.979200
3.055500 6.169200
3.072100 6.240900
3.088700 6.212400
3.105300 6.142600
3.121900 5.841900
3.138500 5.809800
3.155100 5.835700
3.171700 5.669500
3.188300 5.477400
3.204900 5.652000
3.221500 5.467900
3.238100 5.166400
3.254700 4.821000
3.271300 4.439600
3.287900 4.341700
3.304500 4.385100
3.321100 4.556500
3.337700 4.616700
3.354300 4.686300
3.370900 4.754600
3.387500 4.881100
3.404100 4.988700
3.420700 5.098200
3.437300 5.200700
3.453900 5.268200
3.470500 5.141600
3.487100 4.908900
3.503700 4.551500
3.520300 4.395200
3.536900 4.308300
3.553500 4.277300
3.570100 4.206200
3.586700 4.178500
3.603300 4.113500
3.619900 4.100300
3.636500 4.162400
3.653100 4.259600
3.669700 4.499400
3.686300 4.772200
3.702900 4.862700
3.719500 5.006200
3.736100 5.080700
3.752700 5.264400
3.769300 5.461200
3.785900 5.615100
3.802500 5.591100
3.819100 5.722500
3.835700 5.761000
3.852300 5.573100
3.868900 5.544900
3.885600 5.610500
3.902200 5.738600
3.918800 5.933000
3.935400 6.153900
3.952000 6.478500
3.968600 6.859700
3.985200 7.351300
4.001800 8.339400
4.018400 9.121300
4.035000 7.858600
4.051600 6.920300
4.068200 6.059900
4.084800 5.665300
4.101400 5.597200
4.118000 5.742900
4.134600 6.180100
4.151200 6.807400
4.167800 7.388700
4.184400 7.108900
4.201000 6.939500
4.217600 6.553700
4.234200 5.919400
4.250800 5.335600
4.267400 4.999500
4.284000 4.866000
4.300600 4.811100
4.317200 4.897000
4.333800 5.155700
4.350400 5.461100
4.367000 5.195800
4.383600 4.478000
4.400200 4.694700
4.416800 5.327600
4.433400 5.228400
4.450000 5.292400
4.466600 5.334100
4.483200 5.350900
4.499800 5.513600
4.516400 5.630800
4.533000 5.744100
4.549600 6.003200
4.566200 6.464100
4.582800 6.975600
4.599400 7.276600
4.616000 7.620900
4.632600 8.116800
4.649200 8.378300
4.665800 8.798100
4.682400 8.602700
4.699000 7.594100
4.715600 6.568400
4.732200 6.140500
4.748800 5.923600
4.765400 5.458500
4.782000 5.228600
4.798600 5.084300
4.815200 5.041600
4.831800 5.123900
4.848400 5.322900
4.865000 5.408600
4.881600 5.510100
4.898300 5.367300
4.914900 5.234400
4.931500 5.188500
4.948100 5.264200
4.964700 4.813400
4.981300 4.544900
4.997900 4.235200
5.014500 3.925200
5.031100 3.666300
5.047700 3.661800
5.064300 3.306100
5.080900 2.980300
5.097500 2.792400
5.114100 2.551100
5.130700 2.373400
5.147300 2.333500
5.163900 2.409300
5.180500 2.535900
5.197100 2.745500
5.213700 2.880400
5.230300 3.005500
5.246900 3.105400
5.263500 3.187400
5.280100 3.267400
5.296700 3.372700
5.313300 3.471800
5.329900 3.622600
5.346500 3.664100
5.363100 3.593600
5.379700 3.474600
5.396300 3.387000
5.412900 3.317300
5.429500 3.237800
5.446100 3.170300
5.462700 3.125600
5.479300 3.168900
5.495900 3.014700
5.512500 2.957600
5.529100 2.784500
5.545700 2.634800
5.562300 2.504800
5.578900 2.347500
5.595500 2.155400
5.612100 2.035400
5.628700 1.963900
5.645300 1.892400
5.661900 1.845300
5.678500 1.817000
5.695100 1.776700
5.711700 1.728300
5.728300 1.676200
5.744900 1.620900
5.761500 1.564200
5.778100 1.507300
5.794700 1.449100
5.811300 1.385100
5.827900 1.184000
5.844500 1.101200
5.861100 1.094200
5.877700 1.091400
5.894300 1.088900
5.911000 1.086500
5.927600 1.083900
5.944200 1.081000
5.960800 1.076400
5.977400 1.067300
5.994000 1.058900
6.010600 1.053600
6.027200 1.049200
6.043800 1.045200
6.060400 1.041500
6.077000 1.038100
6.093600 1.036700
6.110200 1.035500
6.126800 1.034400
6.143400 1.033400
6.160000 1.032500
6.176600 1.031500
6.193200 1.030600
6.209800 1.029800
6.226400 1.027700
6.243000 1.026400
6.259600 1.018500
6.276200 1.001700
6.292800 0.990600
6.309400 0.993600
6.326000 0.994800
6.342600 0.998300
6.359200 1.001900
6.375800 1.005500
6.392400 1.009300
6.409000 1.015200
6.425600 1.024700
6.442200 1.037700
6.458800 1.054300
6.475400 1.073200
6.492000 1.094100
6.508600 1.116400
6.525200 1.140100
6.541800 1.159300
6.558400 1.173200
6.575000 1.182300
6.591600 1.186500
6.608200 1.189300
6.624800 1.192100
6.641400 1.194000
6.658000 1.194400
6.674600 1.193500
6.691200 1.196000
6.707800 1.187500
6.724400 1.184500
6.741000 1.237100
6.757600 1.252700
6.774200 1.243200
6.790800 1.261700
6.807400 1.272300
6.824000 1.273200
6.840600 1.284500
6.857200 1.300900
6.873800 1.315800
6.890400 1.331200
6.907000 1.350400
6.923700 1.376600
6.940300 1.380400
6.956900 1.418600
6.973500 1.451600
6.990100 1.478800
7.006700 1.502700
7.023300 1.525800
7.039900 1.600200
7.056500 1.726500
7.073100 1.794100
7.089700 1.915000
7.106300 1.993000
7.122900 1.974200
7.139500 1.974100
7.156100 1.997600
7.172700 2.082800
7.189300 1.954400
7.205900 1.889800
7.222500 1.849200
7.239100 1.801900
7.255700 1.748700
7.272300 1.712100
7.288900 1.691400
7.305500 1.691300
7.322100 1.693300
7.338700 1.694600
7.355300 1.690800
7.371900 1.668800
7.388500 1.686900
7.405100 1.712200
7.421700 1.738800
7.438300 1.765300
7.454900 1.793900
7.471500 1.833800
7.488100 1.887100
7.504700 1.885500
7.521300 1.864800
7.537900 1.934300
7.554500 2.010100
7.571100 2.095200
7.587700 2.174400
7.604300 2.255000
7.620900 2.374600
7.637500 2.506700
7.654100 3.001800
7.670700 3.063700
7.687300 3.165400
7.703900 3.271200
7.720500 3.411800
7.737100 3.527700
7.753700 3.599500
7.770300 3.603300
7.786900 3.529200
7.803500 3.557300
7.820100 3.755400
7.836700 3.795300
7.853300 4.076100
7.869900 4.397800
7.886500 4.616600
7.903100 4.837000
7.919700 5.063300
7.936400 5.393400
7.953000 5.714500
7.969600 6.021200
7.986200 6.265200
8.002800 6.384600
8.019400 6.692000
8.036000 7.208800
8.052600 7.482100
8.069200 7.778200
8.085800 8.158100
8.102400 8.281400
8.119000 8.868900
8.135600 9.477400
8.152200 9.708300
8.168800 10.042100
8.185400 10.550400
8.202000 10.793300
8.218600 11.104700
8.235200 12.558100
8.251800 14.138800
8.268400 12.028000
8.285000 10.947500
8.301600 9.504000
8.318200 8.647700
8.334800 7.717100
8.351400 7.660400
8.368000 7.696900
8.384600 7.594100
8.401200 7.426700
8.417800 7.408100
8.434400 6.962500
8.451000 6.709300
8.467600 6.416100
8.484200 6.368600
8.500800 6.535000
8.517400 8.066900
8.534000 6.237400
8.550600 6.542000
8.567200 7.277500
8.583800 7.833100
8.600400 7.590800
8.617000 7.599100
8.633600 7.533700
8.650200 7.523500
8.666800 7.768100
8.683400 8.281100
8.700000 8.739700
8.716600 8.375700
8.733200 8.306100
8.749800 8.123700
8.766400 8.166300
8.783000 8.194000
8.799600 8.227500
8.816200 8.437700
8.832800 8.774400
8.849400 9.321400
8.866000 9.792700
8.882600 10.157400
8.899200 9.598600
8.915800 8.849100
8.932400 9.047900
8.949000 8.969500
8.965700 9.198300
8.982300 9.545800
8.998900 8.996100
9.015500 7.663800
9.032100 7.374500
9.048700 7.732600
9.065300 8.328100
9.081900 8.119800
9.098500 8.029700
9.115100 7.787200
9.131700 7.417400
9.148300 7.160800
9.164900 7.131500
9.181500 7.107000
9.198100 7.097700
9.214700 7.245700
9.231300 7.747600
9.247900 8.130500
9.264500 7.282300
9.281100 6.388800
9.297700 5.859900
9.314300 5.663200
9.330900 5.565700
9.347500 5.364000
9.364100 5.266900
9.380700 5.298000
9.397300 5.410100
9.413900 5.538000
9.430500 5.532300
9.447100 5.625700
9.463700 5.753500
9.480300 5.923500
9.496900 6.050800
9.513500 6.084600
9.530100 6.233200
9.546700 6.304000
9.563300 6.415400
9.579900 5.604200
9.596500 4.743000
9.613100 4.485000
9.629700 4.494000
9.646300 4.513300
9.662900 4.699200
9.679500 4.962100
9.696100 5.059500
9.712700 5.343300
9.729300 5.610400
9.745900 5.815100
9.762500 5.596700
9.779100 5.770300
9.795700 5.973100
9.812300 6.080800
9.828900 6.300300
9.845500 6.984400
9.862100 7.438400
9.878700 8.007600
9.895300 8.591500
9.911900 9.648300
9.928500 9.009500
9.945100 9.325400
9.961700 9.844500
9.978400 9.156300
9.995000 8.426700
10.011600 8.112400
10.028200 8.009400
10.044800 8.332100
10.061400 7.735900
10.078000 7.185500
10.094600 6.372100
10.111200 6.062400
10.127800 6.361200
10.144400 5.983700
10.161000 5.854700
10.177600 6.154400
10.194200 6.521400
10.210800 6.851700
10.227400 6.298000
10.244000 7.148200
10.260600 8.183000
10.277200 9.101100
10.293800 9.615100
10.310400 9.654900
10.327000 9.385000
10.343600 8.921700
10.360200 8.220800
10.376800 7.464000
10.393400 6.902400
10.410000 6.687100
10.426600 6.462000
10.443200 6.288600
10.459800 6.234600
10.476400 6.339300
10.493000 6.316900
10.509600 6.269300
10.526200 5.888700
10.542800 5.800300
10.559400 5.689300
10.576000 5.610200
10.592600 5.381800
10.609200 5.573000
10.625800 6.181500
10.642400 6.980200
10.659000 8.128600
10.675600 8.556700
10.692200 8.826100
10.708800 8.341500
10.725400 7.606900
10.742000 6.242900
10.758600 5.592300
10.775200 5.626300
10.791800 5.910400
10.808400 6.482300
10.825000 6.088700
10.841600 5.852500
10.858200 5.305300
10.874800 4.583300
10.891400 4.194400
10.908000 3.928500
10.924600 4.082400
10.941200 3.882000
10.957800 4.119700
10.974400 3.983000
10.991100 3.687800
11.007700 3.489400
11.024300 3.342200
11.040900 3.062100
11.057500 2.783200
11.074100 2.562400
11.090700 2.354900
11.107300 2.233100
11.123900 1.988400
11.140500 1.808300
11.157100 1.706900
11.173700 1.691800
11.190300 1.687500
11.206900 1.683700
11.223500 1.680500
11.240100 1.677800
11.256700 1.675700
11.273300 1.674200
11.289900 1.682400
11.306500 1.715200
11.323100 1.783400
11.339700 1.880000
11.356300 2.060000
11.372900 1.986300
11.389500 1.854000
11.406100 1.667500
11.422700 1.473700
11.439300 1.269100
11.455900 1.100200
11.472500 0.981600
11.489100 0.919400
11.505700 0.871800
11.522300 0.834000
11.538900 0.805700
11.555500 0.780700
11.572100 0.766600
11.588700 0.748300
11.605300 0.736200
11.621900 0.729800
11.638500 0.733000
11.655100 0.754200
11.671700 0.787600
11.688300 0.825700
11.704900 0.877000
11.721500 0.969100
11.738100 1.085900
11.754700 1.230000
11.771300 1.408500
11.787900 1.661900
11.804500 1.909900
11.821100 2.179400
11.837700 2.469000
11.854300 2.669900
11.870900 2.900300
11.887500 3.182200
11.904100 3.495100
11.920700 3.429800
11.937300 3.549700
11.953900 3.738000
11.970500 4.046700
11.987100 3.624900
12.003800 3.620800
12.020400 3.572900
12.037000 3.574600
12.053600 3.629800
12.070200 3.679500
12.086800 3.715200
12.103400 3.754900
12.120000 3.778100
12.136600 3.787200
12.153200 3.777100
12.169800 3.752200
12.186400 3.662800
12.203000 3.670500
12.219600 3.575500
12.236200 3.353100
12.252800 3.122200
12.269400 3.060800
12.286000 3.026200
12.302600 3.691000
12.319200 3.258500
12.335800 2.880600
12.352400 2.720400
12.369000 2.714000
12.385600 2.708200
12.402200 2.779500
12.418800 2.979700
12.435400 3.362500
12.452000 3.601500
12.468600 3.794000
12.485200 3.983100
12.501800 4.171400
12.518400 4.413800
12.535000 4.667700
12.551600 4.824200
12.568200 5.126900
12.584800 5.020200
12.601400 4.765400
12.618000 4.539800
12.634600 4.303600
12.651200 4.034900
12.667800 3.802200
12.684400 3.769700
12.701000 3.852300
12.717600 4.463800
12.734200 3.835200
12.750800 3.306000
12.767400 2.875000
12.784000 2.599900
12.800600 2.072400
12.817200 1.803700
12.833800 1.477800
12.850400 1.271700
12.867000 1.131200
12.883600 1.005600
12.900200 0.895200
12.916800 0.811800
12.933400 0.731200
12.950000 0.653500
12.966600 0.578600
12.983200 0.498900
12.999800 0.462800
13.016500 0.445700
13.033100 0.382900
13.049700 0.268000
13.066300 0.167600
13.082900 0.103500
13.099500 0.061700
13.116100 0.027900
13.132700 0.002000
13.149300 0.000000
13.165900 0.000000
13.182500 0.000000
13.199100 0.000000
13.215700 0.000000
13.232300 0.000000
13.248900 0.000000
13.265500 0.000000
13.282100 0.000000
13.298700 0.000000
13.315300 0.000000
13.331900 0.000000
13.348500 0.000000
13.365100 0.000000
13.381700 0.000000
13.398300 0.000000
13.414900 0.000000
13.431500 0.000000
13.448100 0.000000
13.464700 0.000000
13.481300 0.000000
13.497900 0.000000
13.514500 0.000000
13.531100 0.000000
13.547700 0.000000
13.564300 0.000000
13.580900 0.000000
13.597500 0.000000
13.614100 0.000000
13.630700 0.000000
13.647300 0.000000
13.663900 0.000000
13.680500 0.000000
13.697100 0.000000
13.713700 0.000000
13.730300 0.000000
13.746900 0.000000
13.763500 0.000000
13.780100 0.000000
13.796700 0.000000
13.813300 0.000000
13.829900 0.000000
13.846500 0.000000
13.863100 0.000000
13.879700 0.000000
13.896300 0.000000
13.912900 0.000000
13.929500 0.000000
13.946100 0.000000
13.962700 0.000000
13.979300 0.000000
13.995900 0.000000
14.012500 0.000000
14.029100 0.000000
14.045800 0.000000
14.062400 0.000000
14.079000 0.000000
14.095600 0.000000
14.112200 0.000000
14.128800 0.000000
14.145400 0.000000
14.162000 0.000000
14.178600 0.000000
14.195200 0.000000
14.211800 0.000000
14.228400 0.000000
14.245000 0.000000
14.261600 0.000000
14.278200 0.000000
14.294800 0.000000
14.311400 0.000000
14.328000 0.000000
14.344600 0.000000
14.361200 0.000000
14.377800 0.000000
14.394400 0.000000
14.411000 0.000000
14.427600 0.000000
14.444200 0.000000
14.460800 0.000000
14.477400 0.000000
14.494000 0.000000
14.510600 0.000000
14.527200 0.000000
14.543800 0.000000
14.560400 0.000000
14.577000 0.000000
14.593600 0.000000
14.610200 0.000000
14.626800 0.000000
14.643400 0.000000
e
