set title 'mp-1186067 - Density of States'
set xlabel 'Energy (eV)'
set ylabel 'DOS (states/eV)'
set grid
set xrange [-10:10]
set yrange [0:36.507]
set xzeroaxis lt -1
set terminal png size 800,600
set output 'mp-1186067_dos_gnuplot.png'
plot '-' using 1:2 with lines title 'DOS'
-25.682200 0.000000
-25.655000 0.000000
-25.627700 0.000000
-25.600500 0.000000
-25.573300 0.000000
-25.546100 0.000000
-25.518900 0.000000
-25.491700 0.000000
-25.464500 0.000000
-25.437300 0.000000
-25.410100 0.000000
-25.382900 0.000000
-25.355700 0.000000
-25.328500 0.000000
-25.301300 0.000000
-25.274100 0.000000
-25.246900 0.000000
-25.219700 0.000000
-25.192400 0.000000
-25.165200 0.000000
-25.138000 0.000000
-25.110800 0.000000
-25.083600 0.000000
-25.056400 0.000000
-25.029200 0.000000
-25.002000 0.000000
-24.974800 0.000000
-24.947600 0.000000
-24.920400 0.000000
-24.893200 0.000000
-24.866000 0.000000
-24.838800 0.000000
-24.811600 0.000000
-24.784400 0.000000
-24.757200 0.000000
-24.729900 0.000000
-24.702700 0.000000
-24.675500 0.000000
-24.648300 0.000000
-24.621100 0.000000
-24.593900 0.000000
-24.566700 0.000000
-24.539500 0.000000
-24.512300 0.000000
-24.485100 0.000000
-24.457900 0.000000
-24.430700 0.000000
-24.403500 0.000000
-24.376300 0.000000
-24.349100 0.000000
-24.321900 0.000000
-24.294700 0.000000
-24.267400 0.000000
-24.240200 0.000000
-24.213000 0.000000
-24.185800 0.000000
-24.158600 0.000000
-24.131400 0.000000
-24.104200 0.000000
-24.077000 0.000000
-24.049800 0.000000
-24.022600 0.000000
-23.995400 0.000000
-23.968200 0.000000
-23.941000 0.000000
-23.913800 0.000000
-23.886600 0.000000
-23.859400 0.000000
-23.832200 0.000000
-23.804900 0.000000
-23.777700 0.000000
-23.750500 0.000000
-23.723300 0.000000
-23.696100 0.000000
-23.668900 0.000000
-23.641700 0.000000
-23.614500 0.000000
-23.587300 0.000000
-23.560100 0.000000
-23.532900 0.000000
-23.505700 0.000000
-23.478500 0.000000
-23.451300 0.000000
-23.424100 0.000000
-23.396900 0.000000
-23.369700 0.000200
-23.342400 0.004500
-23.315200 0.076400
-23.288000 0.725800
-23.260800 3.934500
-23.233600 12.425400
-23.206400 24.468500
-23.179200 35.623300
-23.152000 45.778000
-23.124800 47.655600
-23.097600 32.795400
-23.070400 13.431100
-23.043200 3.163800
-23.016000 0.424100
-22.988800 0.032200
-22.961600 0.001700
-22.934400 0.008200
-22.907200 0.135400
-22.879900 1.308200
-22.852700 7.574600
-22.825500 27.246300
-22.798300 63.936800
-22.771100 102.102100
-22.743900 111.417700
-22.716700 79.997200
-22.689500 35.942900
-22.662300 9.718400
-22.635100 1.542800
-22.607900 0.141700
-22.580700 0.007500
-22.553500 0.000200
-22.526300 0.000000
-22.499100 0.000000
-22.471900 0.000000
-22.444700 0.000000
-22.417400 0.000000
-22.390200 0.000000
-22.363000 0.000000
-22.335800 0.000000
-22.308600 0.000000
-22.281400 0.000000
-22.254200 0.000000
-22.227000 0.000000
-22.199800 0.000000
-22.172600 0.000000
-22.145400 0.000000
-22.118200 0.000000
-22.091000 0.000000
-22.063800 0.000000
-22.036600 0.000000
-22.009400 0.000000
-21.982100 0.000000
-21.954900 0.000000
-21.927700 0.000000
-21.900500 0.000000
-21.873300 0.000000
-21.846100 0.000000
-21.818900 0.000000
-21.791700 0.000000
-21.764500 0.000000
-21.737300 0.000000
-21.710100 0.000000
-21.682900 0.000000
-21.655700 0.000000
-21.628500 0.000000
-21.601300 0.000000
-21.574100 0.000000
-21.546900 0.000000
-21.519600 0.000000
-21.492400 0.000000
-21.465200 0.000000
-21.438000 0.000000
-21.410800 0.000000
-21.383600 0.000000
-21.356400 0.000000
-21.329200 0.000000
-21.302000 0.000000
-21.274800 0.000000
-21.247600 0.000000
-21.220400 0.000000
-21.193200 0.000000
-21.166000 0.000000
-21.138800 0.000000
-21.111600 0.000000
-21.084400 0.000000
-21.057100 0.000000
-21.029900 0.000000
-21.002700 0.000000
-20.975500 0.000000
-20.948300 0.000000
-20.921100 0.000000
-20.893900 0.000000
-20.866700 0.000000
-20.839500 0.000000
-20.812300 0.000000
-20.785100 0.000000
-20.757900 0.000000
-20.730700 0.000000
-20.703500 0.000000
-20.676300 0.000000
-20.649100 0.000000
-20.621900 0.000000
-20.594600 0.000000
-20.567400 0.000000
-20.540200 0.000000
-20.513000 0.000000
-20.485800 0.000000
-20.458600 0.000000
-20.431400 0.000000
-20.404200 0.000000
-20.377000 0.000000
-20.349800 0.000000
-20.322600 0.000000
-20.295400 0.000000
-20.268200 0.000000
-20.241000 0.000000
-20.213800 0.000000
-20.186600 0.000000
-20.159400 0.000000
-20.132100 0.000000
-20.104900 0.000000
-20.077700 0.000000
-20.050500 0.000000
-20.023300 0.000000
-19.996100 0.000000
-19.968900 0.000000
-19.941700 0.000000
-19.914500 0.000000
-19.887300 0.000000
-19.860100 0.000000
-19.832900 0.000000
-19.805700 0.000000
-19.778500 0.000000
-19.751300 0.000000
-19.724100 0.000000
-19.696900 0.000000
-19.669600 0.000000
-19.642400 0.000000
-19.615200 0.000000
-19.588000 0.000000
-19.560800 0.000000
-19.533600 0.000000
-19.506400 0.000000
-19.479200 0.000000
-19.452000 0.000000
-19.424800 0.000000
-19.397600 0.000000
-19.370400 0.000000
-19.343200 0.000000
-19.316000 0.000000
-19.288800 0.000000
-19.261600 0.000000
-19.234400 0.000000
-19.207100 0.000000
-19.179900 0.000000
-19.152700 0.000000
-19.125500 0.000000
-19.098300 0.000000
-19.071100 0.000000
-19.043900 0.000000
-19.016700 0.000000
-18.989500 0.000000
-18.962300 0.000000
-18.935100 0.000000
-18.907900 0.000000
-18.880700 0.000000
-18.853500 0.000000
-18.826300 0.000000
-18.799100 0.000000
-18.771900 0.000000
-18.744600 0.000000
-18.717400 0.000000
-18.690200 0.000000
-18.663000 0.000000
-18.635800 0.000000
-18.608600 0.000000
-18.581400 0.000000
-18.554200 0.000000
-18.527000 0.000000
-18.499800 0.000000
-18.472600 0.000000
-18.445400 0.000000
-18.418200 0.000000
-18.391000 0.000000
-18.363800 0.000000
-18.336600 0.000000
-18.309300 0.000000
-18.282100 0.000000
-18.254900 0.000000
-18.227700 0.000000
-18.200500 0.000000
-18.173300 0.000000
-18.146100 0.000000
-18.118900 0.000000
-18.091700 0.000000
-18.064500 0.000000
-18.037300 0.000000
-18.010100 0.000000
-17.982900 0.000000
-17.955700 0.000000
-17.928500 0.000000
-17.901300 0.000000
-17.874100 0.000000
-17.846800 0.000000
-17.819600 0.000000
-17.792400 0.000000
-17.765200 0.000000
-17.738000 0.000000
-17.710800 0.000000
-17.683600 0.000000
-17.656400 0.000000
-17.629200 0.000000
-17.602000 0.000000
-17.574800 0.000000
-17.547600 0.000000
-17.520400 0.000000
-17.493200 0.000000
-17.466000 0.000000
-17.438800 0.000000
-17.411600 0.000000
-17.384300 0.000000
-17.357100 0.000000
-17.329900 0.000000
-17.302700 0.000000
-17.275500 0.000000
-17.248300 0.000000
-17.221100 0.000000
-17.193900 0.000000
-17.166700 0.000000
-17.139500 0.000000
-17.112300 0.000000
-17.085100 0.000000
-17.057900 0.000000
-17.030700 0.000000
-17.003500 0.000000
-16.976300 0.000000
-16.949100 0.000000
-16.921800 0.000000
-16.894600 0.000000
-16.867400 0.000000
-16.840200 0.000000
-16.813000 0.000000
-16.785800 0.000000
-16.758600 0.000000
-16.731400 0.000000
-16.704200 0.000000
-16.677000 0.000000
-16.649800 0.000000
-16.622600 0.000000
-16.595400 0.000000
-16.568200 0.000000
-16.541000 0.000000
-16.513800 0.000000
-16.486600 0.000000
-16.459300 0.000000
-16.432100 0.000000
-16.404900 0.000000
-16.377700 0.000000
-16.350500 0.000000
-16.323300 0.000000
-16.296100 0.000000
-16.268900 0.000000
-16.241700 0.000000
-16.214500 0.000000
-16.187300 0.000000
-16.160100 0.000000
-16.132900 0.000000
-16.105700 0.000000
-16.078500 0.000000
-16.051300 0.000000
-16.024100 0.000000
-15.996800 0.000000
-15.969600 0.000000
-15.942400 0.000000
-15.915200 0.000000
-15.888000 0.000000
-15.860800 0.000000
-15.833600 0.000000
-15.806400 0.000000
-15.779200 0.000000
-15.752000 0.000000
-15.724800 0.000000
-15.697600 0.000000
-15.670400 0.000000
-15.643200 0.000000
-15.616000 0.000000
-15.588800 0.000000
-15.561600 0.000000
-15.534300 0.000000
-15.507100 0.000000
-15.479900 0.000000
-15.452700 0.000000
-15.425500 0.000000
-15.398300 0.000000
-15.371100 0.000000
-15.343900 0.000000
-15.316700 0.000000
-15.289500 0.000000
-15.262300 0.000000
-15.235100 0.000000
-15.207900 0.000000
-15.180700 0.000000
-15.153500 0.000000
-15.126300 0.000000
-15.099000 0.000000
-15.071800 0.000000
-15.044600 0.000000
-15.017400 0.000000
-14.990200 0.000000
-14.963000 0.000000
-14.935800 0.000000
-14.908600 0.000000
-14.881400 0.000000
-14.854200 0.000000
-14.827000 0.000000
-14.799800 0.000000
-14.772600 0.000000
-14.745400 0.000000
-14.718200 0.000000
-14.691000 0.000000
-14.663800 0.000000
-14.636500 0.000000
-14.609300 0.000000
-14.582100 0.000000
-14.554900 0.000000
-14.527700 0.000000
-14.500500 0.000000
-14.473300 0.000000
-14.446100 0.000000
-14.418900 0.000000
-14.391700 0.000000
-14.364500 0.000000
-14.337300 0.000000
-14.310100 0.000000
-14.282900 0.000000
-14.255700 0.000000
-14.228500 0.000000
-14.201300 0.000000
-14.174000 0.000000
-14.146800 0.000000
-14.119600 0.000000
-14.092400 0.000000
-14.065200 0.000000
-14.038000 0.000000
-14.010800 0.000000
-13.983600 0.000000
-13.956400 0.000000
-13.929200 0.000000
-13.902000 0.000000
-13.874800 0.000000
-13.847600 0.000000
-13.820400 0.000000
-13.793200 0.000000
-13.766000 0.000000
-13.738800 0.000000
-13.711500 0.000000
-13.684300 0.000000
-13.657100 0.000000
-13.629900 0.000000
-13.602700 0.000000
-13.575500 0.000000
-13.548300 0.000000
-13.521100 0.000000
-13.493900 0.000000
-13.466700 0.000000
-13.439500 0.000000
-13.412300 0.000000
-13.385100 0.000000
-13.357900 0.000000
-13.330700 0.000000
-13.303500 0.000000
-13.276300 0.000000
-13.249000 0.000000
-13.221800 0.000000
-13.194600 0.000000
-13.167400 0.000000
-13.140200 0.000000
-13.113000 0.000000
-13.085800 0.000000
-13.058600 0.000000
-13.031400 0.000000
-13.004200 0.000000
-12.977000 0.000000
-12.949800 0.000000
-12.922600 0.000000
-12.895400 0.000000
-12.868200 0.000000
-12.841000 0.000000
-12.813800 0.000000
-12.786500 0.000000
-12.759300 0.000000
-12.732100 0.000000
-12.704900 0.000000
-12.677700 0.000000
-12.650500 0.000000
-12.623300 0.000000
-12.596100 0.000000
-12.568900 0.000000
-12.541700 0.000000
-12.514500 0.000000
-12.487300 0.000000
-12.460100 0.000000
-12.432900 0.000000
-12.405700 0.000000
-12.378500 0.000000
-12.351300 0.000000
-12.324000 0.000000
-12.296800 0.000000
-12.269600 0.000000
-12.242400 0.000000
-12.215200 0.000000
-12.188000 0.000000
-12.160800 0.000000
-12.133600 0.000000
-12.106400 0.000000
-12.079200 0.000000
-12.052000 0.000000
-12.024800 0.000000
-11.997600 0.000000
-11.970400 0.000000
-11.943200 0.000000
-11.916000 0.000000
-11.888800 0.000000
-11.861500 0.000000
-11.834300 0.000000
-11.807100 0.000000
-11.779900 0.000000
-11.752700 0.000000
-11.725500 0.000000
-11.698300 0.000000
-11.671100 0.000000
-11.643900 0.000000
-11.616700 0.000000
-11.589500 0.000000
-11.562300 0.000000
-11.535100 0.000000
-11.507900 0.000000
-11.480700 0.000000
-11.453500 0.000000
-11.426200 0.000000
-11.399000 0.000000
-11.371800 0.000000
-11.344600 0.000000
-11.317400 0.000000
-11.290200 0.000000
-11.263000 0.000000
-11.235800 0.000000
-11.208600 0.000000
-11.181400 0.000000
-11.154200 0.000000
-11.127000 0.000000
-11.099800 0.000000
-11.072600 0.000000
-11.045400 0.000000
-11.018200 0.000000
-10.991000 0.000000
-10.963700 0.000000
-10.936500 0.000000
-10.909300 0.000000
-10.882100 0.000000
-10.854900 0.000000
-10.827700 0.000000
-10.800500 0.000000
-10.773300 0.000000
-10.746100 0.000000
-10.718900 0.000000
-10.691700 0.000000
-10.664500 0.000000
-10.637300 0.000000
-10.610100 0.000000
-10.582900 0.000000
-10.555700 0.000000
-10.528500 0.000000
-10.501200 0.000000
-10.474000 0.000000
-10.446800 0.000000
-10.419600 0.000000
-10.392400 0.000000
-10.365200 0.000000
-10.338000 0.000000
-10.310800 0.000000
-10.283600 0.000000
-10.256400 0.000000
-10.229200 0.000000
-10.202000 0.000000
-10.174800 0.000000
-10.147600 0.000000
-10.120400 0.000000
-10.093200 0.000000
-10.066000 0.000000
-10.038700 0.000000
-10.011500 0.000000
-9.984300 0.000000
-9.957100 0.000000
-9.929900 0.000000
-9.902700 0.000000
-9.875500 0.000000
-9.848300 0.000000
-9.821100 0.000000
-9.793900 0.000000
-9.766700 0.000000
-9.739500 0.000000
-9.712300 0.000000
-9.685100 0.000000
-9.657900 0.000000
-9.630700 0.000000
-9.603500 0.000000
-9.576200 0.000000
-9.549000 0.000000
-9.521800 0.000000
-9.494600 0.000000
-9.467400 0.000000
-9.440200 0.000000
-9.413000 0.000000
-9.385800 0.000000
-9.358600 0.000000
-9.331400 0.000000
-9.304200 0.000000
-9.277000 0.000000
-9.249800 0.000000
-9.222600 0.000000
-9.195400 0.000000
-9.168200 0.000000
-9.141000 0.000000
-9.113700 0.000000
-9.086500 0.000000
-9.059300 0.000000
-9.032100 0.000000
-9.004900 0.000000
-8.977700 0.000000
-8.950500 0.000000
-8.923300 0.000000
-8.896100 0.000000
-8.868900 0.000000
-8.841700 0.000000
-8.814500 0.000000
-8.787300 0.000000
-8.760100 0.000000
-8.732900 0.000000
-8.705700 0.000000
-8.678500 0.000000
-8.651200 0.000000
-8.624000 0.000000
-8.596800 0.000000
-8.569600 0.000000
-8.542400 0.000000
-8.515200 0.000000
-8.488000 0.000000
-8.460800 0.000000
-8.433600 0.000000
-8.406400 0.000000
-8.379200 0.000000
-8.352000 0.000000
-8.324800 0.000000
-8.297600 0.000000
-8.270400 0.000000
-8.243200 0.000000
-8.215900 0.000000
-8.188700 0.000000
-8.161500 0.000000
-8.134300 0.000000
-8.107100 0.000000
-8.079900 0.000000
-8.052700 0.000000
-8.025500 0.000000
-7.998300 0.000000
-7.971100 0.000000
-7.943900 0.000000
-7.916700 0.000000
-7.889500 0.000000
-7.862300 0.000000
-7.835100 0.000000
-7.807900 0.000000
-7.780700 0.000000
-7.753400 0.000000
-7.726200 0.000000
-7.699000 0.000000
-7.671800 0.000000
-7.644600 0.000000
-7.617400 0.000000
-7.590200 0.000000
-7.563000 0.000000
-7.535800 0.000000
-7.508600 0.000000
-7.481400 0.000000
-7.454200 0.000000
-7.427000 0.000000
-7.399800 0.000000
-7.372600 0.000000
-7.345400 0.000000
-7.318200 0.000000
-7.290900 0.000000
-7.263700 0.000000
-7.236500 0.000000
-7.209300 0.000000
-7.182100 0.000000
-7.154900 0.000000
-7.127700 0.000000
-7.100500 0.000000
-7.073300 0.000000
-7.046100 0.000000
-7.018900 0.000000
-6.991700 0.000000
-6.964500 0.000000
-6.937300 0.000000
-6.910100 0.000000
-6.882900 0.000000
-6.855700 0.000000
-6.828400 0.000000
-6.801200 0.000000
-6.774000 0.000000
-6.746800 0.000000
-6.719600 0.000000
-6.692400 0.000000
-6.665200 0.000000
-6.638000 0.000000
-6.610800 0.000000
-6.583600 0.000000
-6.556400 0.000000
-6.529200 0.000000
-6.502000 0.000000
-6.474800 0.000000
-6.447600 0.000000
-6.420400 0.000000
-6.393200 0.000000
-6.365900 0.000000
-6.338700 0.000000
-6.311500 0.000000
-6.284300 0.000000
-6.257100 0.000000
-6.229900 0.000000
-6.202700 0.000000
-6.175500 0.000000
-6.148300 0.000000
-6.121100 0.000000
-6.093900 0.000000
-6.066700 0.000000
-6.039500 0.000000
-6.012300 0.000000
-5.985100 0.000000
-5.957900 0.000000
-5.930700 0.000000
-5.903400 0.000000
-5.876200 0.000000
-5.849000 0.000000
-5.821800 0.000000
-5.794600 0.000000
-5.767400 0.000000
-5.740200 0.000000
-5.713000 0.000000
-5.685800 0.000000
-5.658600 0.000000
-5.631400 0.000000
-5.604200 0.000000
-5.577000 0.000000
-5.549800 0.000000
-5.522600 0.000000
-5.495400 0.000000
-5.468200 0.000000
-5.440900 0.000000
-5.413700 0.000000
-5.386500 0.000000
-5.359300 0.000000
-5.332100 0.000000
-5.304900 0.000000
-5.277700 0.000000
-5.250500 0.000000
-5.223300 0.000000
-5.196100 0.000000
-5.168900 0.000000
-5.141700 0.000000
-5.114500 0.000000
-5.087300 0.000000
-5.060100 0.000000
-5.032900 0.000000
-5.005600 0.000000
-4.978400 0.000000
-4.951200 0.000000
-4.924000 0.000000
-4.896800 0.000000
-4.869600 0.000000
-4.842400 0.000000
-4.815200 0.000000
-4.788000 0.000000
-4.760800 0.000000
-4.733600 0.000000
-4.706400 0.000000
-4.679200 0.000000
-4.652000 0.000000
-4.624800 0.000000
-4.597600 0.000000
-4.570400 0.000000
-4.543100 0.000000
-4.515900 0.000000
-4.488700 0.000000
-4.461500 0.000000
-4.434300 0.000000
-4.407100 0.000000
-4.379900 0.000000
-4.352700 0.000000
-4.325500 0.000000
-4.298300 0.000000
-4.271100 0.000000
-4.243900 0.000000
-4.216700 0.000000
-4.189500 0.000000
-4.162300 0.000000
-4.135100 0.000000
-4.107900 0.000000
-4.080600 0.000000
-4.053400 0.000000
-4.026200 0.000000
-3.999000 0.000000
-3.971800 0.000000
-3.944600 0.000000
-3.917400 0.000000
-3.890200 0.000000
-3.863000 0.000000
-3.835800 0.000000
-3.808600 0.000000
-3.781400 0.000000
-3.754200 0.000000
-3.727000 0.000000
-3.699800 0.000000
-3.672600 0.000000
-3.645400 0.000000
-3.618100 0.000000
-3.590900 0.000000
-3.563700 0.000000
-3.536500 0.000000
-3.509300 0.000000
-3.482100 0.000000
-3.454900 0.000000
-3.427700 0.000000
-3.400500 0.000000
-3.373300 0.000000
-3.346100 0.000000
-3.318900 0.000000
-3.291700 0.000000
-3.264500 0.000000
-3.237300 0.000000
-3.210100 0.000000
-3.182900 0.000000
-3.155600 0.000000
-3.128400 0.000000
-3.101200 0.000000
-3.074000 0.000000
-3.046800 0.000000
-3.019600 0.000000
-2.992400 0.000000
-2.965200 0.000000
-2.938000 0.000000
-2.910800 0.000000
-2.883600 0.000000
-2.856400 0.000000
-2.829200 0.000000
-2.802000 0.000000
-2.774800 0.000000
-2.747600 0.000000
-2.720400 0.000000
-2.693100 0.000000
-2.665900 0.000000
-2.638700 0.000000
-2.611500 0.000000
-2.584300 0.000000
-2.557100 0.000100
-2.529900 0.000800
-2.502700 0.005400
-2.475500 0.021100
-2.448300 0.051900
-2.421100 0.089000
-2.393900 0.114200
-2.366700 0.125100
-2.339500 0.175500
-2.312300 0.300600
-2.285100 0.379300
-2.257900 0.298500
-2.230600 0.157900
-2.203400 0.104800
-2.176200 0.180200
-2.149000 0.333000
-2.121800 0.452500
-2.094600 0.453800
-2.067400 0.424100
-2.040200 0.518900
-2.013000 0.630100
-1.985800 0.553400
-1.958600 0.351400
-1.931400 0.215000
-1.904200 0.214900
-1.877000 0.263000
-1.849800 0.270200
-1.822600 0.322200
-1.795400 0.597200
-1.768100 1.005700
-1.740900 1.114900
-1.713700 0.804800
-1.686500 0.463800
-1.659300 0.392000
-1.632100 0.563500
-1.604900 0.761100
-1.577700 0.776400
-1.550500 0.669100
-1.523300 0.615600
-1.496100 0.542500
-1.468900 0.393500
-1.441700 0.368700
-1.414500 0.592300
-1.387300 0.926100
-1.360100 1.248200
-1.332800 1.591300
-1.305600 1.735800
-1.278400 1.449700
-1.251200 1.184800
-1.224000 1.351300
-1.196800 1.568400
-1.169600 1.506000
-1.142400 1.570200
-1.115200 2.288600
-1.088000 3.623500
-1.060800 4.955800
-1.033600 5.804400
-1.006400 6.463000
-0.979200 7.506300
-0.952000 9.338400
-0.924800 12.111600
-0.897600 15.800500
-0.870300 19.886300
-0.843100 22.909200
-0.815900 24.168200
-0.788700 25.250100
-0.761500 27.450800
-0.734300 29.977800
-0.707100 32.299100
-0.679900 33.188400
-0.652700 29.360800
-0.625500 20.816800
-0.598300 12.263400
-0.571100 7.096700
-0.543900 4.844100
-0.516700 3.612200
-0.489500 2.513700
-0.462300 1.708300
-0.435100 1.339600
-0.407800 1.268500
-0.380600 1.310900
-0.353400 1.409800
-0.326200 1.434400
-0.299000 1.170900
-0.271800 0.821100
-0.244600 0.855000
-0.217400 1.253200
-0.190200 1.462100
-0.163000 1.291500
-0.135800 1.197400
-0.108600 1.329900
-0.081400 1.313600
-0.054200 1.090300
-0.027000 0.913700
0.000200 0.868600
0.027400 0.932200
0.054700 0.974400
0.081900 0.877200
0.109100 0.915300
0.136300 1.410700
0.163500 2.009100
0.190700 2.114700
0.217900 1.827400
0.245100 1.522200
0.272300 1.260400
0.299500 1.007100
0.326700 0.704600
0.353900 0.424400
0.381100 0.381700
0.408300 0.609400
0.435500 0.845000
0.462700 0.845200
0.489900 0.732900
0.517200 0.760300
0.544400 0.931100
0.571600 1.202200
0.598800 1.527000
0.626000 1.656700
0.653200 1.473500
0.680400 1.208300
0.707600 1.087300
0.734800 1.106000
0.762000 1.104500
0.789200 0.988000
0.816400 0.860800
0.843600 0.752700
0.870800 0.591700
0.898000 0.486000
0.925200 0.482000
0.952400 0.507000
0.979700 0.597200
1.006900 0.799100
1.034100 1.086900
1.061300 1.346300
1.088500 1.466200
1.115700 1.471400
1.142900 1.364800
1.170100 1.219600
1.197300 1.248700
1.224500 1.367000
1.251700 1.273800
1.278900 1.098000
1.306100 1.089000
1.333300 1.091700
1.360500 0.983800
1.387700 0.914300
1.414900 1.014500
1.442200 1.176900
1.469400 1.189800
1.496600 1.037300
1.523800 0.943200
1.551000 1.012500
1.578200 1.086000
1.605400 1.114700
1.632600 1.268200
1.659800 1.586400
1.687000 1.946700
1.714200 2.195600
1.741400 2.093400
1.768600 1.698100
1.795800 1.297800
1.823000 0.963000
1.850200 0.724700
1.877500 0.711200
1.904700 0.836500
1.931900 0.857000
1.959100 0.774700
1.986300 0.741200
2.013500 0.800700
2.040700 0.887200
2.067900 0.945000
2.095100 1.069700
2.122300 1.392600
2.149500 1.814400
2.176700 1.989800
2.203900 1.809200
2.231100 1.616000
2.258300 1.755800
2.285500 2.118600
2.312700 2.170900
2.340000 1.641100
2.367200 0.959800
2.394400 0.610500
2.421600 0.619500
2.448800 0.852600
2.476000 1.190700
2.503200 1.453700
2.530400 1.469100
2.557600 1.292100
2.584800 1.175800
2.612000 1.172300
2.639200 1.200500
2.666400 1.335400
2.693600 1.526300
2.720800 1.531300
2.748000 1.420500
2.775200 1.542800
2.802500 1.868300
2.829700 2.137800
2.856900 2.342400
2.884100 2.365500
2.911300 2.129400
2.938500 1.988200
2.965700 2.060500
2.992900 2.001300
3.020100 1.653600
3.047300 1.297200
3.074500 1.178400
3.101700 1.162000
3.128900 1.055000
3.156100 0.993000
3.183300 1.260900
3.210500 1.668700
3.237700 1.700200
3.265000 1.387000
3.292200 1.147200
3.319400 1.197800
3.346600 1.543700
3.373800 1.940200
3.401000 2.012400
3.428200 1.748400
3.455400 1.622800
3.482600 1.873500
3.509800 2.142500
3.537000 2.086000
3.564200 1.693400
3.591400 1.189800
3.618600 0.975900
3.645800 1.210400
3.673000 1.527600
3.700200 1.573200
3.727500 1.564200
3.754700 1.817200
3.781900 2.092600
3.809100 1.971600
3.836300 1.511200
3.863500 1.090700
3.890700 1.068400
3.917900 1.415500
3.945100 1.592900
3.972300 1.398500
3.999500 1.263100
4.026700 1.392400
4.053900 1.554700
4.081100 1.620600
4.108300 1.526800
4.135500 1.178400
4.162700 0.712600
4.190000 0.476800
4.217200 0.709900
4.244400 1.207400
4.271600 1.450400
4.298800 1.406700
4.326000 1.523300
4.353200 1.806700
4.380400 1.929800
4.407600 1.854300
4.434800 1.623700
4.462000 1.239900
4.489200 0.897400
4.516400 0.797600
4.543600 0.998300
4.570800 1.433900
4.598000 1.802900
4.625200 1.792100
4.652500 1.446200
4.679700 1.118100
4.706900 0.990000
4.734100 0.914700
4.761300 0.864800
4.788500 0.982900
4.815700 1.092700
4.842900 0.969200
4.870100 0.931100
4.897300 1.418900
4.924500 2.122900
4.951700 2.267900
4.978900 1.714100
5.006100 1.015000
5.033300 0.665500
5.060500 0.761600
5.087700 1.169000
5.115000 1.697700
5.142200 2.031000
5.169400 1.986700
5.196600 1.856200
5.223800 1.940800
5.251000 2.155000
5.278200 2.345900
5.305400 2.501200
5.332600 2.585600
5.359800 2.473900
5.387000 2.192600
5.414200 1.998100
5.441400 2.059900
5.468600 2.236700
5.495800 2.131500
5.523000 1.589800
5.550300 1.040800
5.577500 0.893200
5.604700 1.175500
5.631900 1.614400
5.659100 1.818900
5.686300 1.810800
5.713500 1.931200
5.740700 2.270600
5.767900 2.712000
5.795100 3.184900
5.822300 3.345900
5.849500 2.790100
5.876700 2.022200
5.903900 1.718800
5.931100 1.691600
5.958300 1.596000
5.985500 1.415900
6.012800 1.245600
6.040000 1.223500
6.067200 1.332900
6.094400 1.364900
6.121600 1.321100
6.148800 1.383900
6.176000 1.499900
6.203200 1.509400
6.230400 1.386500
6.257600 1.183100
6.284800 1.060400
6.312000 1.340100
6.339200 2.106100
6.366400 2.924000
6.393600 3.285000
6.420800 2.885500
6.448000 1.909900
6.475300 1.076300
6.502500 0.880800
6.529700 1.293300
6.556900 1.943500
6.584100 2.298600
6.611300 2.124000
6.638500 1.806100
6.665700 1.768600
6.692900 1.809000
6.720100 1.706600
6.747300 1.658500
6.774500 1.838900
6.801700 2.332700
6.828900 2.865400
6.856100 2.863500
6.883300 2.279700
6.910500 1.498000
6.937800 0.865400
6.965000 0.649800
6.992200 0.778100
7.019400 0.971200
7.046600 1.268700
7.073800 1.838200
7.101000 2.451400
7.128200 2.650900
7.155400 2.403400
7.182600 2.160300
7.209800 2.142100
7.237000 2.228300
7.264200 2.335300
7.291400 2.339000
7.318600 2.136700
7.345800 1.851900
7.373000 1.596800
7.400300 1.475200
7.427500 1.512800
7.454700 1.484900
7.481900 1.331300
7.509100 1.315000
7.536300 1.460400
7.563500 1.494100
7.590700 1.428600
7.617900 1.619800
7.645100 2.123600
7.672300 2.433600
7.699500 2.266200
7.726700 2.144100
7.753900 2.513400
7.781100 2.811300
7.808300 2.432000
7.835500 1.878600
7.862800 1.917000
7.890000 2.371900
7.917200 2.539700
7.944400 2.498600
7.971600 2.876300
7.998800 3.504400
8.026000 3.531700
8.053200 2.801800
8.080400 2.165700
8.107600 2.311100
8.134800 3.058700
8.162000 3.607100
8.189200 3.375100
8.216400 2.671000
8.243600 2.064200
8.270800 1.647000
8.298000 1.376300
8.325300 1.422800
8.352500 1.811200
8.379700 2.208500
8.406900 2.271800
8.434100 1.974900
8.461300 1.569400
8.488500 1.204000
8.515700 0.974000
8.542900 1.077800
8.570100 1.483200
8.597300 2.114600
8.624500 2.887200
8.651700 3.298100
8.678900 3.009600
8.706100 2.454800
8.733300 2.302200
8.760600 2.511000
8.787800 2.504900
8.815000 2.291200
8.842200 2.332200
8.869400 2.554200
8.896600 2.587600
8.923800 2.507300
8.951000 2.405500
8.978200 2.165400
9.005400 1.931200
9.032600 2.066200
9.059800 2.701700
9.087000 3.414400
9.114200 3.682800
9.141400 3.516200
9.168600 3.183800
9.195800 2.814300
9.223100 2.523200
9.250300 2.362500
9.277500 2.256400
9.304700 2.079200
9.331900 1.893800
9.359100 1.915400
9.386300 2.065500
9.413500 2.225500
9.440700 2.473400
9.467900 2.656200
9.495100 2.521900
9.522300 2.221800
9.549500 2.094600
9.576700 2.090700
9.603900 1.951400
9.631100 1.680200
9.658300 1.351200
9.685600 1.083200
9.712800 1.127100
9.740000 1.469100
9.767200 1.774300
9.794400 1.766400
9.821600 1.487900
9.848800 1.398300
9.876000 1.865500
9.903200 2.563700
9.930400 2.863000
9.957600 2.691000
9.984800 2.462000
10.012000 2.396900
10.039200 2.577800
10.066400 2.896100
10.093600 2.913000
10.120800 2.595600
10.148100 2.457100
10.175300 2.701300
10.202500 2.979900
10.229700 2.989200
10.256900 2.743600
10.284100 2.385000
10.311300 2.037000
10.338500 1.892700
10.365700 2.131000
10.392900 2.590900
10.420100 2.876800
10.447300 2.694200
10.474500 2.115400
10.501700 1.646900
10.528900 1.725200
10.556100 2.204200
10.583300 2.481300
10.610600 2.235900
10.637800 1.992100
10.665000 2.315000
10.692200 2.861000
10.719400 3.008700
10.746600 2.764700
10.773800 2.487400
10.801000 2.296500
10.828200 2.105600
10.855400 1.846600
10.882600 1.546500
10.909800 1.323600
10.937000 1.253100
10.964200 1.360200
10.991400 1.799600
11.018600 2.652500
11.045800 3.422100
11.073100 3.472800
11.100300 2.890100
11.127500 2.228800
11.154700 1.780400
11.181900 1.619600
11.209100 1.767900
11.236300 1.902800
11.263500 1.790800
11.290700 1.737200
11.317900 1.971600
11.345100 2.360300
11.372300 2.777100
11.399500 3.229500
11.426700 3.616700
11.453900 3.557600
11.481100 2.896900
11.508300 2.048700
11.535600 1.484300
11.562800 1.218300
11.590000 1.070800
11.617200 1.059600
11.644400 1.228600
11.671600 1.633300
11.698800 2.373600
11.726000 3.224600
11.753200 3.583800
11.780400 3.371900
11.807600 3.256200
11.834800 3.371800
11.862000 3.135800
11.889200 2.431900
11.916400 1.966300
11.943600 2.248400
11.970800 2.855000
11.998100 3.204600
12.025300 3.361000
12.052500 3.626400
12.079700 3.931900
12.106900 3.911800
12.134100 3.405100
12.161300 2.804400
12.188500 2.658000
12.215700 2.752000
12.242900 2.565700
12.270100 2.294500
12.297300 2.227000
12.324500 2.251800
12.351700 2.351400
12.378900 2.759300
12.406100 3.464800
12.433400 4.047400
12.460600 4.194100
12.487800 3.853400
12.515000 3.205700
12.542200 2.767100
12.569400 2.789100
12.596600 2.813100
12.623800 2.601000
12.651000 2.581900
12.678200 2.839800
12.705400 2.817900
12.732600 2.440000
12.759800 2.292500
12.787000 2.476400
12.814200 2.562700
12.841400 2.485700
12.868600 2.474800
12.895900 2.585000
12.923100 2.770600
12.950300 3.005900
12.977500 3.053000
13.004700 2.658500
13.031900 2.218000
13.059100 2.444900
13.086300 3.017200
13.113500 2.939900
13.140700 2.342200
13.167900 2.108900
13.195100 2.300300
13.222300 2.431900
13.249500 2.328600
13.276700 2.111400
13.303900 2.027300
13.331100 2.164900
13.358400 2.420200
13.385600 2.717900
13.412800 2.827700
13.440000 2.607300
13.467200 2.384400
13.494400 2.456100
13.521600 2.834000
13.548800 3.336800
13.576000 3.410400
13.603200 2.885400
13.630400 2.391400
13.657600 2.288900
13.684800 2.392900
13.712000 2.496700
13.739200 2.633700
13.766400 2.814600
13.793600 2.732100
13.820900 2.339800
13.848100 1.940700
13.875300 1.597700
13.902500 1.360000
13.929700 1.492700
13.956900 1.987900
13.984100 2.530600
14.011300 2.853100
14.038500 2.888000
14.065700 2.881400
14.092900 3.118700
14.120100 3.428800
14.147300 3.485000
14.174500 3.353900
14.201700 3.102400
14.228900 2.636600
14.256100 2.247800
14.283400 2.249900
14.310600 2.317100
14.337800 2.191100
14.365000 2.056500
14.392200 1.921200
14.419400 1.734300
14.446600 1.621300
14.473800 1.644500
14.501000 1.862100
14.528200 2.447600
14.555400 3.175500
14.582600 3.432300
14.609800 3.087300
14.637000 2.582400
14.664200 2.372000
14.691400 2.378400
14.718600 2.144300
14.745900 1.769000
14.773100 1.639000
14.800300 1.735000
14.827500 1.911500
14.854700 2.178000
14.881900 2.459400
14.909100 2.457700
14.936300 2.183100
14.963500 2.232200
14.990700 3.002200
15.017900 4.015500
15.045100 4.358400
15.072300 3.799600
15.099500 3.162400
15.126700 3.041200
15.153900 3.174600
15.181100 3.368700
15.208400 3.601300
15.235600 3.601200
15.262800 3.267700
15.290000 2.933000
15.317200 2.743900
15.344400 2.668500
15.371600 2.951200
15.398800 3.438600
15.426000 3.367600
15.453200 2.551600
15.480400 1.724600
15.507600 1.439500
15.534800 1.743200
15.562000 2.704300
15.589200 3.773300
15.616400 3.799000
15.643700 2.887100
15.670900 2.234100
15.698100 2.264200
15.725300 2.568500
15.752500 2.829900
15.779700 3.003700
15.806900 3.042600
15.834100 2.999100
15.861300 3.018500
15.888500 2.957700
15.915700 2.698100
15.942900 2.556300
15.970100 2.850000
15.997300 3.363900
16.024500 3.608600
16.051700 3.375100
16.078900 2.800100
16.106200 2.321100
16.133400 2.259300
16.160600 2.376600
16.187800 2.366700
16.215000 2.500700
16.242200 3.270200
16.269400 4.366700
16.296600 4.765100
16.323800 4.243500
16.351000 3.719400
16.378200 3.844100
16.405400 4.185400
16.432600 4.155600
16.459800 3.907300
16.487000 3.732500
16.514200 3.498300
16.541400 2.985100
16.568700 2.501100
16.595900 2.587800
16.623100 3.195600
16.650300 3.883600
16.677500 4.271200
16.704700 4.166300
16.731900 3.785900
16.759100 3.454200
16.786300 3.200500
16.813500 3.056000
16.840700 3.160800
16.867900 3.503600
16.895100 3.739000
16.922300 3.486800
16.949500 3.074200
16.976700 3.039100
17.003900 3.191800
17.031200 3.128000
17.058400 2.773500
17.085600 2.248900
17.112800 1.927000
17.140000 2.075100
17.167200 2.477300
17.194400 2.816200
17.221600 2.835100
17.248800 2.442100
17.276000 2.033200
17.303200 2.047500
17.330400 2.390700
17.357600 2.625400
17.384800 2.599700
17.412000 2.762300
17.439200 3.428000
17.466400 4.122200
17.493700 4.179600
17.520900 3.812400
17.548100 3.620500
17.575300 3.457700
17.602500 3.014300
17.629700 2.528400
17.656900 2.453100
17.684100 2.855200
17.711300 3.114800
17.738500 2.837000
17.765700 2.623000
17.792900 2.968300
17.820100 3.497400
17.847300 3.704400
17.874500 3.630400
17.901700 3.495900
17.928900 3.155700
17.956200 2.585600
17.983400 2.255700
18.010600 2.489300
18.037800 2.838600
18.065000 2.777300
18.092200 2.699100
18.119400 3.126000
18.146600 3.727200
18.173800 3.834800
18.201000 3.393100
18.228200 3.031800
18.255400 3.198800
18.282600 3.510300
18.309800 3.294700
18.337000 2.787400
18.364200 2.604600
18.391400 2.679000
18.418700 2.840700
18.445900 3.129800
18.473100 3.423100
18.500300 3.560200
18.527500 3.514100
18.554700 3.264700
18.581900 2.900900
18.609100 2.687800
18.636300 2.618800
18.663500 2.500300
18.690700 2.326400
18.717900 2.161200
18.745100 2.200000
18.772300 2.679600
18.799500 3.477100
18.826700 4.067100
18.853900 4.078900
18.881200 3.705300
18.908400 3.243700
18.935600 2.965500
18.962800 3.197300
18.990000 3.818300
19.017200 4.210200
19.044400 3.894100
19.071600 3.177500
19.098800 2.750400
19.126000 2.660700
19.153200 2.496500
19.180400 2.388400
19.207600 2.623600
19.234800 2.696400
19.262000 2.265600
19.289200 1.913400
19.316500 2.204200
19.343700 3.112600
19.370900 4.128800
19.398100 4.608000
19.425300 4.346000
19.452500 3.701900
19.479700 3.146300
19.506900 3.005000
19.534100 3.365800
19.561300 3.810700
19.588500 3.976900
19.615700 4.143300
19.642900 4.351100
19.670100 4.151300
19.697300 3.506800
19.724500 2.898600
19.751700 2.599100
19.779000 2.528400
19.806200 2.748400
19.833400 3.330200
19.860600 3.844300
19.887800 3.731100
19.915000 3.042800
19.942200 2.378900
19.969400 2.278500
19.996600 2.617000
20.023800 2.808000
20.051000 2.736100
20.078200 2.681000
20.105400 2.794600
20.132600 3.056500
20.159800 3.300100
20.187000 3.525700
20.214200 3.717500
20.241500 3.652600
20.268700 3.348000
20.295900 3.123900
20.323100 3.465100
20.350300 4.385800
20.377500 4.957300
20.404700 4.418900
20.431900 3.265400
20.459100 2.488000
20.486300 2.414000
20.513500 2.781900
20.540700 3.285600
20.567900 3.758300
20.595100 4.097900
20.622300 4.270500
20.649500 4.340500
20.676700 4.431800
20.704000 4.428200
20.731200 4.056300
20.758400 3.533200
20.785600 3.471300
20.812800 3.846100
20.840000 3.957600
20.867200 3.599900
20.894400 3.129300
20.921600 2.874200
20.948800 3.003500
20.976000 3.561200
21.003200 4.341300
21.030400 4.717700
21.057600 4.403600
21.084800 3.913400
21.112000 3.525700
21.139200 2.981300
21.166500 2.410400
21.193700 2.230400
21.220900 2.442900
21.248100 2.712900
21.275300 2.830000
21.302500 2.828400
21.329700 2.722000
21.356900 2.588900
21.384100 2.724500
21.411300 3.294600
21.438500 4.291400
21.465700 5.446300
21.492900 5.920000
21.520100 5.278000
21.547300 4.123800
21.574500 3.115700
21.601700 2.426000
21.629000 2.147100
21.656200 2.237200
21.683400 2.474600
21.710600 2.853900
21.737800 3.372500
21.765000 3.613800
21.792200 3.222300
21.819400 2.700400
21.846600 2.808600
21.873800 3.349000
21.901000 3.709500
21.928200 4.033400
21.955400 4.593000
21.982600 4.944700
22.009800 4.735300
22.037000 4.157000
22.064200 3.517100
22.091500 3.290600
22.118700 3.642300
22.145900 3.791700
22.173100 3.239300
22.200300 2.576100
22.227500 2.209600
22.254700 2.073500
22.281900 2.353600
22.309100 3.364000
22.336300 4.855700
22.363500 5.813000
22.390700 5.519900
22.417900 4.351100
22.445100 3.142700
22.472300 2.512400
22.499500 2.640100
22.526800 3.158900
22.554000 3.347800
22.581200 2.962500
22.608400 2.668400
22.635600 2.979500
22.662800 3.511500
22.690000 3.625600
22.717200 3.347800
22.744400 3.127100
22.771600 3.066600
22.798800 3.325000
22.826000 4.015600
22.853200 4.632100
22.880400 4.537700
22.907600 3.768500
22.934800 3.093300
22.962000 3.006000
22.989300 3.252000
23.016500 3.375900
23.043700 3.173100
23.070900 2.843300
23.098100 2.603200
23.125300 2.359300
23.152500 2.206600
23.179700 2.684400
23.206900 3.825200
23.234100 4.913900
23.261300 5.478400
23.288500 5.322100
23.315700 4.689500
23.342900 4.354200
23.370100 4.324100
23.397300 3.903000
23.424500 3.096200
23.451800 2.520200
23.479000 2.342500
23.506200 2.510300
23.533400 3.303900
23.560600 4.570500
23.587800 5.316200
23.615000 5.061600
23.642200 4.469300
23.669400 4.256400
23.696600 4.607000
23.723800 5.390900
23.751000 6.325400
23.778200 7.694000
23.805400 11.000500
23.832600 17.181000
23.859800 25.171800
23.887000 32.420000
23.914300 35.146500
23.941500 31.220800
23.968700 23.136700
23.995900 15.638800
24.023100 11.452800
24.050300 9.464000
24.077500 7.645100
24.104700 5.888700
24.131900 4.655200
24.159100 4.012300
24.186300 3.866400
24.213500 3.611300
24.240700 2.933100
24.267900 2.269700
24.295100 1.789500
24.322300 1.423800
24.349500 1.280800
24.376800 1.307700
24.404000 1.333600
24.431200 1.381100
24.458400 1.465500
24.485600 1.475100
24.512800 1.394400
24.540000 1.323700
24.567200 1.248600
24.594400 1.144000
24.621600 1.107300
24.648800 1.182400
24.676000 1.349600
24.703200 1.643300
24.730400 2.037600
24.757600 2.300300
24.784800 2.264100
24.812000 2.010800
24.839300 1.578800
24.866500 0.968500
24.893700 0.427800
24.920900 0.232500
24.948100 0.400100
24.975300 0.737700
25.002500 0.951200
25.029700 0.882900
25.056900 0.686600
25.084100 0.550200
25.111300 0.427500
25.138500 0.315900
25.165700 0.335000
25.192900 0.462500
25.220100 0.615400
25.247300 0.804500
25.274500 0.947700
25.301800 0.991000
25.329000 1.158300
25.356200 1.424800
25.383400 1.383600
25.410600 0.981300
25.437800 0.553400
25.465000 0.327500
25.492200 0.264000
25.519400 0.237800
25.546600 0.207200
25.573800 0.192200
25.601000 0.210600
25.628200 0.210100
25.655400 0.142200
25.682600 0.058100
25.709800 0.014900
25.737000 0.012200
25.764300 0.054800
25.791500 0.165400
25.818700 0.287200
25.845900 0.289600
25.873100 0.188800
25.900300 0.144000
25.927500 0.203300
25.954700 0.263500
25.981900 0.254500
26.009100 0.227400
26.036300 0.202200
26.063500 0.135700
26.090700 0.057200
26.117900 0.020700
26.145100 0.031100
26.172300 0.071200
26.199600 0.114100
26.226800 0.152500
26.254000 0.188300
26.281200 0.175100
26.308400 0.101700
26.335600 0.034400
26.362800 0.006600
26.390000 0.000700
26.417200 0.000000
26.444400 0.000000
26.471600 0.000000
26.498800 0.000000
26.526000 0.000000
26.553200 0.000000
26.580400 0.000000
26.607600 0.000000
26.634800 0.000000
26.662100 0.000000
26.689300 0.000000
26.716500 0.000000
26.743700 0.000000
26.770900 0.000000
26.798100 0.000000
26.825300 0.000000
26.852500 0.000000
26.879700 0.000000
26.906900 0.000000
26.934100 0.000000
26.961300 0.000000
26.988500 0.000000
27.015700 0.000000
27.042900 0.000000
27.070100 0.000000
27.097300 0.000000
27.124600 0.000000
27.151800 0.000000
27.179000 0.000000
27.206200 0.000000
27.233400 0.000000
27.260600 0.000000
27.287800 0.000000
27.315000 0.000000
27.342200 0.000000
27.369400 0.000000
27.396600 0.000000
27.423800 0.000000
27.451000 0.000000
27.478200 0.000000
27.505400 0.000000
27.532600 0.000000
27.559800 0.000000
27.587100 0.000000
27.614300 0.000000
27.641500 0.000000
27.668700 0.000000
27.695900 0.000000
27.723100 0.000000
27.750300 0.000000
27.777500 0.000000
27.804700 0.000000
27.831900 0.000000
27.859100 0.000000
27.886300 0.000000
27.913500 0.000000
27.940700 0.000000
27.967900 0.000000
27.995100 0.000000
28.022300 0.000000
28.049600 0.000000
28.076800 0.000000
28.104000 0.000000
28.131200 0.000000
28.158400 0.000000
28.185600 0.000000
28.212800 0.000000
28.240000 0.000000
28.267200 0.000000
28.294400 0.000000
28.321600 0.000000
28.348800 0.000000
28.376000 0.000000
28.403200 0.000000
28.430400 0.000000
28.457600 0.000000
28.484800 0.000000
28.512100 0.000000
28.539300 0.000000
28.566500 0.000000
28.593700 0.000000
28.620900 0.000000
28.648100 0.000000
28.675300 0.000000
28.702500 0.000000
28.729700 0.000000
e
