set title 'mp-13456 - Density of States'
set xlabel 'Energy (eV)'
set ylabel 'DOS (states/eV)'
set grid
set xrange [-10:10]
set yrange [0:218.113]
set xzeroaxis lt -1
set terminal png size 800,600
set output 'mp-13456_dos_gnuplot.png'
plot '-' using 1:2 with lines title 'DOS'
-12.482700 0.000000
-12.467300 0.000000
-12.451800 0.000000
-12.436300 0.000000
-12.420800 0.000000
-12.405300 0.000000
-12.389800 0.000000
-12.374300 0.000000
-12.358800 0.000000
-12.343400 0.000000
-12.327900 0.000000
-12.312400 0.000000
-12.296900 0.000000
-12.281400 0.000000
-12.265900 0.000000
-12.250400 0.000000
-12.235000 0.000000
-12.219500 0.000000
-12.204000 0.000000
-12.188500 0.000000
-12.173000 0.000000
-12.157500 0.000000
-12.142000 0.000000
-12.126500 0.000000
-12.111100 0.000000
-12.095600 0.000000
-12.080100 0.000000
-12.064600 0.000000
-12.049100 0.000000
-12.033600 0.000000
-12.018100 0.000000
-12.002700 0.000000
-11.987200 0.000000
-11.971700 0.000000
-11.956200 0.000000
-11.940700 0.000000
-11.925200 0.000000
-11.909700 0.000000
-11.894200 0.000000
-11.878800 0.000000
-11.863300 0.000000
-11.847800 0.000000
-11.832300 0.000000
-11.816800 0.000000
-11.801300 0.000000
-11.785800 0.000000
-11.770400 0.000000
-11.754900 0.000000
-11.739400 0.000000
-11.723900 0.000000
-11.708400 0.000000
-11.692900 0.000000
-11.677400 0.000000
-11.661900 0.000000
-11.646500 0.000000
-11.631000 0.000000
-11.615500 0.000000
-11.600000 0.000000
-11.584500 0.000000
-11.569000 0.000000
-11.553500 0.000000
-11.538100 0.000000
-11.522600 0.000000
-11.507100 0.000000
-11.491600 0.000000
-11.476100 0.000000
-11.460600 0.000000
-11.445100 0.000000
-11.429600 0.000000
-11.414200 0.000000
-11.398700 0.000000
-11.383200 0.000000
-11.367700 0.000000
-11.352200 0.000000
-11.336700 0.000000
-11.321200 0.000000
-11.305800 0.000000
-11.290300 0.000000
-11.274800 0.000000
-11.259300 0.000000
-11.243800 0.000000
-11.228300 0.000000
-11.212800 0.000000
-11.197300 0.000000
-11.181900 0.000000
-11.166400 0.000000
-11.150900 0.000000
-11.135400 0.000000
-11.119900 0.000000
-11.104400 0.000000
-11.088900 0.000000
-11.073500 0.002100
-11.058000 0.035500
-11.042500 0.088100
-11.027000 0.169800
-11.011500 0.257600
-10.996000 0.345400
-10.980500 0.433200
-10.965000 0.525000
-10.949600 0.645000
-10.934100 0.772500
-10.918600 0.907700
-10.903100 1.050400
-10.887600 1.200700
-10.872100 1.358600
-10.856600 1.537400
-10.841200 1.724500
-10.825700 1.911500
-10.810200 2.098500
-10.794700 2.285600
-10.779200 2.472600
-10.763700 2.659700
-10.748200 2.846800
-10.732700 3.062600
-10.717300 3.296900
-10.701800 3.330300
-10.686300 3.434000
-10.670800 3.538700
-10.655300 3.707400
-10.639800 3.928500
-10.624300 4.085200
-10.608900 4.255900
-10.593400 4.464800
-10.577900 4.680200
-10.562400 4.897200
-10.546900 5.107800
-10.531400 5.308600
-10.515900 5.499600
-10.500400 5.715900
-10.485000 5.955500
-10.469500 6.196500
-10.454000 6.468000
-10.438500 6.752100
-10.423000 7.048700
-10.407500 7.357900
-10.392000 7.680100
-10.376600 8.016100
-10.361100 8.365600
-10.345600 8.733100
-10.330100 9.142600
-10.314600 9.549200
-10.299100 9.953000
-10.283600 10.376000
-10.268100 10.803000
-10.252700 11.248700
-10.237200 11.815300
-10.221700 17.522800
-10.206200 31.592300
-10.190700 12.376900
-10.175200 12.135900
-10.159700 23.230600
-10.144300 21.844300
-10.128800 17.570100
-10.113300 11.138800
-10.097800 11.906500
-10.082300 28.428700
-10.066800 21.093200
-10.051300 21.249000
-10.035800 20.011600
-10.020400 12.509300
-10.004900 13.708400
-9.989400 14.754400
-9.973900 24.091700
-9.958400 24.159600
-9.942900 10.034400
-9.927400 10.780700
-9.912000 32.567200
-9.896500 0.000000
-9.881000 0.000000
-9.865500 0.000000
-9.850000 0.000000
-9.834500 0.000000
-9.819000 0.000000
-9.803500 0.000000
-9.788100 0.000000
-9.772600 0.000000
-9.757100 0.000000
-9.741600 0.000000
-9.726100 0.000000
-9.710600 0.000000
-9.695100 0.000000
-9.679700 0.000000
-9.664200 0.000000
-9.648700 0.000000
-9.633200 0.000000
-9.617700 0.000000
-9.602200 0.000000
-9.586700 0.000000
-9.571200 0.000000
-9.555800 0.000000
-9.540300 0.000000
-9.524800 0.000000
-9.509300 0.000000
-9.493800 0.000000
-9.478300 0.000000
-9.462800 0.000000
-9.447400 0.000000
-9.431900 0.000000
-9.416400 0.000000
-9.400900 0.000000
-9.385400 0.000000
-9.369900 0.000000
-9.354400 0.000000
-9.338900 0.000000
-9.323500 0.000000
-9.308000 0.000000
-9.292500 0.000000
-9.277000 0.000000
-9.261500 0.000000
-9.246000 0.000000
-9.230500 0.000000
-9.215100 0.000000
-9.199600 0.000000
-9.184100 0.000000
-9.168600 0.000000
-9.153100 0.000000
-9.137600 0.000000
-9.122100 0.000000
-9.106600 0.000000
-9.091200 0.000000
-9.075700 0.000000
-9.060200 0.000000
-9.044700 0.000000
-9.029200 0.000000
-9.013700 0.000000
-8.998200 0.000000
-8.982800 0.000000
-8.967300 0.000000
-8.951800 0.000000
-8.936300 0.000000
-8.920800 0.000000
-8.905300 0.000000
-8.889800 0.000000
-8.874300 0.000000
-8.858900 0.000000
-8.843400 0.000000
-8.827900 0.000000
-8.812400 0.000000
-8.796900 0.000000
-8.781400 0.000000
-8.765900 0.000000
-8.750500 0.000000
-8.735000 0.000000
-8.719500 0.000000
-8.704000 0.000000
-8.688500 0.000000
-8.673000 0.000000
-8.657500 0.000000
-8.642000 0.000000
-8.626600 0.000000
-8.611100 0.000000
-8.595600 0.000000
-8.580100 0.000000
-8.564600 0.000000
-8.549100 0.000000
-8.533600 0.000000
-8.518200 0.000000
-8.502700 0.000000
-8.487200 0.000000
-8.471700 0.000000
-8.456200 0.000000
-8.440700 0.000000
-8.425200 0.000000
-8.409700 0.000000
-8.394300 0.000000
-8.378800 0.000000
-8.363300 0.000000
-8.347800 0.000000
-8.332300 0.000000
-8.316800 0.000000
-8.301300 0.000000
-8.285900 0.000000
-8.270400 0.000000
-8.254900 0.000000
-8.239400 0.000000
-8.223900 0.000000
-8.208400 0.000000
-8.192900 0.000000
-8.177400 0.000000
-8.162000 0.000000
-8.146500 0.000000
-8.131000 0.000000
-8.115500 0.000000
-8.100000 0.000000
-8.084500 0.000000
-8.069000 0.000000
-8.053500 0.000000
-8.038100 0.000000
-8.022600 0.000000
-8.007100 0.000000
-7.991600 0.000000
-7.976100 0.000000
-7.960600 0.000000
-7.945100 0.000000
-7.929700 0.000000
-7.914200 0.000000
-7.898700 0.000000
-7.883200 0.000000
-7.867700 0.000000
-7.852200 0.000000
-7.836700 0.000000
-7.821200 0.000000
-7.805800 0.000000
-7.790300 0.000000
-7.774800 0.000000
-7.759300 0.000000
-7.743800 0.000000
-7.728300 0.000000
-7.712800 0.000000
-7.697400 0.000000
-7.681900 0.000000
-7.666400 0.000000
-7.650900 0.000000
-7.635400 0.000000
-7.619900 0.000000
-7.604400 0.000000
-7.588900 0.000000
-7.573500 0.000000
-7.558000 0.000000
-7.542500 0.000000
-7.527000 0.000000
-7.511500 0.000000
-7.496000 0.000000
-7.480500 0.000000
-7.465100 0.000000
-7.449600 0.000000
-7.434100 0.000000
-7.418600 0.000000
-7.403100 0.000000
-7.387600 0.000000
-7.372100 0.000000
-7.356600 0.000000
-7.341200 0.000000
-7.325700 0.000000
-7.310200 0.000000
-7.294700 0.000000
-7.279200 0.000000
-7.263700 0.000000
-7.248200 0.000000
-7.232800 0.000000
-7.217300 0.000000
-7.201800 0.000000
-7.186300 0.000000
-7.170800 0.000000
-7.155300 0.000000
-7.139800 0.000000
-7.124300 0.000000
-7.108900 0.000000
-7.093400 0.000000
-7.077900 0.000000
-7.062400 0.000000
-7.046900 0.000000
-7.031400 0.000000
-7.015900 0.000000
-7.000500 0.000000
-6.985000 0.000000
-6.969500 0.000000
-6.954000 0.000000
-6.938500 0.000000
-6.923000 0.000000
-6.907500 0.000000
-6.892000 0.000000
-6.876600 0.000000
-6.861100 0.000000
-6.845600 0.000000
-6.830100 0.000000
-6.814600 0.000000
-6.799100 0.000000
-6.783600 0.000000
-6.768200 0.000000
-6.752700 0.000000
-6.737200 0.000000
-6.721700 0.000000
-6.706200 0.000000
-6.690700 0.000000
-6.675200 0.000000
-6.659700 0.000000
-6.644300 0.000000
-6.628800 0.000000
-6.613300 0.000000
-6.597800 0.000000
-6.582300 0.000000
-6.566800 0.000000
-6.551300 0.000000
-6.535900 0.000000
-6.520400 0.000000
-6.504900 0.000000
-6.489400 0.000000
-6.473900 0.000000
-6.458400 0.000000
-6.442900 0.000000
-6.427400 0.000000
-6.412000 0.000000
-6.396500 0.000000
-6.381000 0.000000
-6.365500 0.000000
-6.350000 0.000000
-6.334500 0.000000
-6.319000 0.000000
-6.303600 0.000000
-6.288100 0.000000
-6.272600 0.000000
-6.257100 0.000000
-6.241600 0.000000
-6.226100 0.000000
-6.210600 0.000000
-6.195100 0.000000
-6.179700 0.000000
-6.164200 0.000000
-6.148700 0.000000
-6.133200 0.000000
-6.117700 0.000000
-6.102200 0.000000
-6.086700 0.000000
-6.071300 0.000000
-6.055800 0.000000
-6.040300 0.000000
-6.024800 0.000000
-6.009300 0.000000
-5.993800 0.000000
-5.978300 0.000000
-5.962800 0.000000
-5.947400 0.000000
-5.931900 0.000000
-5.916400 0.000000
-5.900900 0.000000
-5.885400 0.000000
-5.869900 0.000000
-5.854400 0.000000
-5.839000 0.000000
-5.823500 0.000000
-5.808000 0.000000
-5.792500 0.000000
-5.777000 0.000000
-5.761500 0.000000
-5.746000 0.000000
-5.730500 0.000000
-5.715100 0.000000
-5.699600 0.000000
-5.684100 0.000000
-5.668600 0.000000
-5.653100 0.000000
-5.637600 0.000000
-5.622100 0.000000
-5.606700 0.000000
-5.591200 0.000000
-5.575700 0.000000
-5.560200 0.000000
-5.544700 0.000000
-5.529200 0.000000
-5.513700 0.000000
-5.498200 0.000000
-5.482800 0.000000
-5.467300 0.000000
-5.451800 0.000000
-5.436300 0.000000
-5.420800 0.000000
-5.405300 0.000000
-5.389800 0.000000
-5.374400 0.000000
-5.358900 0.000000
-5.343400 0.000000
-5.327900 0.000000
-5.312400 0.000000
-5.296900 0.000000
-5.281400 0.000000
-5.265900 0.000000
-5.250500 0.000000
-5.235000 0.000000
-5.219500 0.000000
-5.204000 0.000000
-5.188500 0.000000
-5.173000 0.000000
-5.157500 0.000000
-5.142100 0.000000
-5.126600 0.000000
-5.111100 0.000000
-5.095600 0.000000
-5.080100 0.000000
-5.064600 0.000000
-5.049100 0.000000
-5.033600 0.000000
-5.018200 0.000000
-5.002700 0.000000
-4.987200 0.000000
-4.971700 0.000000
-4.956200 0.000000
-4.940700 0.000000
-4.925200 0.000000
-4.909800 0.000000
-4.894300 0.000000
-4.878800 0.000000
-4.863300 0.000000
-4.847800 0.000000
-4.832300 0.000000
-4.816800 0.000000
-4.801300 0.000000
-4.785900 0.000000
-4.770400 0.000000
-4.754900 0.000000
-4.739400 0.000000
-4.723900 0.000000
-4.708400 0.000000
-4.692900 0.000000
-4.677500 0.000000
-4.662000 0.000000
-4.646500 0.000000
-4.631000 0.000000
-4.615500 0.000000
-4.600000 0.000000
-4.584500 0.000000
-4.569000 0.000000
-4.553600 0.000000
-4.538100 0.000000
-4.522600 0.000000
-4.507100 0.000000
-4.491600 0.000000
-4.476100 0.000000
-4.460600 0.000000
-4.445200 0.000000
-4.429700 0.000000
-4.414200 0.000000
-4.398700 57.832400
-4.383200 144.158200
-4.367700 45.200500
-4.352200 61.279900
-4.336700 76.188300
-4.321300 96.469300
-4.305800 115.438600
-4.290300 144.207900
-4.274800 134.007000
-4.259300 110.043100
-4.243800 119.162600
-4.228300 79.703800
-4.212900 72.452700
-4.197400 55.816500
-4.181900 68.149500
-4.166400 51.616300
-4.150900 73.743400
-4.135400 74.713000
-4.119900 55.421500
-4.104400 59.236000
-4.089000 53.587700
-4.073500 78.047200
-4.058000 12.295200
-4.042500 37.996000
-4.027000 20.750900
-4.011500 15.993600
-3.996000 34.086400
-3.980600 47.053400
-3.965100 68.923100
-3.949600 61.523100
-3.934100 131.945900
-3.918600 198.284900
-3.903100 165.091500
-3.887600 120.523000
-3.872100 66.622500
-3.856700 97.560300
-3.841200 43.378300
-3.825700 52.645300
-3.810200 41.574900
-3.794700 34.869600
-3.779200 28.315700
-3.763700 33.208500
-3.748300 33.798200
-3.732800 15.059000
-3.717300 18.755400
-3.701800 20.907000
-3.686300 21.836100
-3.670800 22.188000
-3.655300 19.981700
-3.639800 15.214500
-3.624400 9.353100
-3.608900 8.210400
-3.593400 7.036900
-3.577900 8.964500
-3.562400 6.749100
-3.546900 0.000000
-3.531400 0.000000
-3.516000 0.000000
-3.500500 0.000000
-3.485000 0.000000
-3.469500 0.000000
-3.454000 0.000000
-3.438500 0.000000
-3.423000 0.000000
-3.407500 0.000000
-3.392100 0.000000
-3.376600 0.000000
-3.361100 0.000000
-3.345600 0.000000
-3.330100 0.000000
-3.314600 0.000000
-3.299100 0.000000
-3.283700 0.000000
-3.268200 0.000000
-3.252700 0.000000
-3.237200 0.000000
-3.221700 0.000000
-3.206200 0.000000
-3.190700 0.000000
-3.175200 0.006400
-3.159800 0.024300
-3.144300 0.043700
-3.128800 0.064700
-3.113300 0.114900
-3.097800 0.193900
-3.082300 0.292400
-3.066800 0.410200
-3.051300 0.563300
-3.035900 0.754100
-3.020400 0.946500
-3.004900 1.140500
-2.989400 1.336100
-2.973900 1.533300
-2.958400 1.732100
-2.942900 1.943700
-2.927500 2.197600
-2.912000 2.469900
-2.896500 2.760500
-2.881000 3.069500
-2.865500 3.396900
-2.850000 3.742600
-2.834500 4.183500
-2.819000 4.635900
-2.803600 5.090700
-2.788100 5.547800
-2.772600 6.007400
-2.757100 6.622200
-2.741600 7.391300
-2.726100 8.014700
-2.710600 8.492300
-2.695200 8.824300
-2.679700 9.028300
-2.664200 9.295300
-2.648700 9.791100
-2.633200 10.526200
-2.617700 11.506400
-2.602200 7.631300
-2.586700 16.192800
-2.571300 5.973000
-2.555800 6.262800
-2.540300 6.523200
-2.524800 6.754400
-2.509300 6.956200
-2.493800 7.149100
-2.478300 7.969200
-2.462900 8.823000
-2.447400 8.142800
-2.431900 5.946500
-2.416400 3.752400
-2.400900 3.964300
-2.385400 4.175600
-2.369900 4.829400
-2.354400 5.791800
-2.339000 5.976700
-2.323500 5.784500
-2.308000 6.024600
-2.292500 6.290100
-2.277000 6.557900
-2.261500 6.929800
-2.246000 7.463200
-2.230600 7.748400
-2.215100 7.785400
-2.199600 7.574200
-2.184100 7.114800
-2.168600 6.407100
-2.153100 5.451300
-2.137600 5.079000
-2.122100 5.129400
-2.106700 5.182300
-2.091200 5.242700
-2.075700 5.313700
-2.060200 5.395100
-2.044700 5.487000
-2.029200 5.589400
-2.013700 6.011900
-1.998300 6.948700
-1.982800 7.173000
-1.967300 6.684700
-1.951800 5.483800
-1.936300 3.739500
-1.920800 3.718400
-1.905300 3.697500
-1.889800 3.676800
-1.874400 3.656200
-1.858900 3.635800
-1.843400 3.615500
-1.827900 3.631600
-1.812400 4.352200
-1.796900 4.064600
-1.781400 2.768900
-1.766000 2.652400
-1.750500 2.634400
-1.735000 2.616400
-1.719500 2.598500
-1.704000 2.582100
-1.688500 2.599700
-1.673000 2.614900
-1.657500 2.627900
-1.642100 2.638700
-1.626600 2.647100
-1.611100 2.653300
-1.595600 2.657100
-1.580100 2.658700
-1.564600 2.658000
-1.549100 2.655100
-1.533700 2.649800
-1.518200 2.642300
-1.502700 2.632500
-1.487200 2.620400
-1.471700 2.606000
-1.456200 2.579200
-1.440700 2.530100
-1.425200 2.478300
-1.409800 2.428100
-1.394300 2.379400
-1.378800 2.332200
-1.363300 2.286600
-1.347800 2.242500
-1.332300 2.200000
-1.316800 2.159000
-1.301400 2.119600
-1.285900 2.081800
-1.270400 2.045500
-1.254900 2.010700
-1.239400 1.977400
-1.223900 1.936300
-1.208400 1.906800
-1.192900 1.879700
-1.177500 1.852900
-1.162000 1.827000
-1.146500 1.801500
-1.131000 1.776300
-1.115500 1.751300
-1.100000 1.726400
-1.084500 1.701800
-1.069100 1.677300
-1.053600 1.653100
-1.038100 1.629000
-1.022600 1.605100
-1.007100 1.581400
-0.991600 1.558000
-0.976100 3.146800
-0.960600 4.798200
-0.945200 5.894000
-0.929700 7.329400
-0.914200 9.964800
-0.898700 10.287300
-0.883200 9.193900
-0.867700 7.916400
-0.852200 7.938100
-0.836800 7.950400
-0.821300 7.955400
-0.805800 7.947400
-0.790300 7.926500
-0.774800 7.809800
-0.759300 7.636000
-0.743800 7.451700
-0.728300 7.241500
-0.712900 7.961600
-0.697400 8.542200
-0.681900 8.905700
-0.666400 9.052100
-0.650900 8.981500
-0.635400 8.659400
-0.619900 8.102200
-0.604500 7.643700
-0.589000 7.519800
-0.573500 8.589400
-0.558000 10.576400
-0.542500 10.996500
-0.527000 9.820000
-0.511500 8.118900
-0.496000 7.831600
-0.480600 7.604200
-0.465100 7.535400
-0.449600 7.456500
-0.434100 7.294300
-0.418600 7.128500
-0.403100 6.965300
-0.387600 6.804700
-0.372200 6.635200
-0.356700 6.389200
-0.341200 6.168100
-0.325700 5.972900
-0.310200 7.628000
-0.294700 9.202600
-0.279200 9.884300
-0.263700 9.671300
-0.248300 8.563600
-0.232800 8.251700
-0.217300 8.152700
-0.201800 8.043500
-0.186300 7.924000
-0.170800 7.790000
-0.155300 7.656000
-0.139900 7.528600
-0.124400 8.738400
-0.108900 11.235200
-0.093400 11.496500
-0.077900 9.522500
-0.062400 8.751000
-0.046900 8.636300
-0.031400 8.516800
-0.016000 8.397800
-0.000500 8.279400
0.015000 8.151800
0.030500 8.023600
0.046000 14.670700
0.061500 10.329700
0.077000 9.369700
0.092400 9.250000
0.107900 9.133700
0.123400 9.020000
0.138900 8.908600
0.154400 8.799200
0.169900 8.691900
0.185400 8.586800
0.200900 8.483800
0.216300 8.383000
0.231800 8.284200
0.247300 8.188900
0.262800 8.095100
0.278300 7.995800
0.293800 8.493800
0.309300 9.089000
0.324700 9.545500
0.340200 9.860100
0.355700 10.001000
0.371200 10.040800
0.386700 9.924000
0.402200 9.665900
0.417700 9.274200
0.433200 9.136000
0.448600 9.022100
0.464100 8.902200
0.479600 8.764400
0.495100 8.607600
0.510600 8.451300
0.526100 8.304800
0.541600 8.150700
0.557000 7.998400
0.572500 7.847900
0.588000 7.701700
0.603500 7.567000
0.619000 7.428000
0.634500 7.285000
0.650000 7.138500
0.665500 6.986600
0.680900 6.828600
0.696400 23.437200
0.711900 11.660700
0.727400 11.173100
0.742900 10.688400
0.758400 10.219300
0.773900 12.327200
0.789300 13.643400
0.804800 13.721200
0.820300 12.508600
0.835800 11.568700
0.851300 11.307000
0.866800 11.042300
0.882300 10.774700
0.897800 10.504500
0.913200 10.235200
0.928700 9.991700
0.944200 9.746200
0.959700 9.498700
0.975200 9.269500
0.990700 9.058100
1.006200 8.844200
1.021600 8.630800
1.037100 8.418100
1.052600 8.197100
1.068100 7.976300
1.083600 7.758400
1.099100 7.537000
1.114600 7.310800
1.130100 7.090700
1.145500 6.876900
1.161000 6.664900
1.176500 6.461000
1.192000 6.261500
1.207500 6.066500
1.223000 5.875900
1.238500 5.689800
1.253900 5.612100
1.269400 5.491700
1.284900 5.308600
1.300400 5.102900
1.315900 4.902900
1.331400 4.710700
1.346900 4.526100
1.362400 4.349200
1.377800 4.256300
1.393300 4.125000
1.408800 4.040900
1.424300 3.917000
1.439800 3.798000
1.455300 3.826800
1.470800 3.653900
1.486200 3.474200
1.501700 3.296500
1.517200 3.125400
1.532700 2.955800
1.548200 2.786800
1.563700 2.618500
1.579200 2.450800
1.594700 2.283800
1.610100 2.117400
1.625600 1.951700
1.641100 1.791600
1.656600 1.637000
1.672100 1.483900
1.687600 1.332400
1.703100 1.182400
1.718500 1.034000
1.734000 0.887200
1.749500 0.745500
1.765000 0.623100
1.780500 0.506900
1.796000 0.399600
1.811500 0.297100
1.827000 0.194600
1.842400 0.110900
1.857900 0.052200
1.873400 0.010600
1.888900 0.000000
1.904400 0.000000
1.919900 0.000000
1.935400 0.000000
1.950900 0.000000
1.966300 0.000000
1.981800 0.000000
1.997300 0.000000
2.012800 0.000000
2.028300 0.000000
2.043800 0.000000
2.059300 0.000000
2.074700 0.000000
2.090200 0.000000
2.105700 0.000000
2.121200 0.000000
2.136700 0.000000
2.152200 0.000000
2.167700 0.000000
2.183200 0.000000
2.198600 0.000000
2.214100 0.000000
2.229600 0.000000
2.245100 0.000000
2.260600 0.000000
2.276100 0.000000
2.291600 0.000000
2.307000 0.000000
2.322500 0.000000
2.338000 0.000000
2.353500 0.000000
2.369000 0.000000
2.384500 0.000000
2.400000 0.000000
2.415500 0.000000
2.430900 0.000000
2.446400 0.000000
2.461900 0.000000
2.477400 0.000000
2.492900 0.000000
2.508400 0.000000
2.523900 0.000000
2.539300 0.000000
2.554800 0.000000
2.570300 0.000000
2.585800 0.000000
2.601300 0.000000
2.616800 0.000000
2.632300 0.000000
2.647800 0.000000
2.663200 0.000000
2.678700 0.000000
2.694200 0.000000
2.709700 0.000000
2.725200 0.000000
2.740700 0.000000
2.756200 0.000000
2.771600 0.000000
2.787100 0.000000
2.802600 0.000000
2.818100 0.000000
2.833600 0.000000
2.849100 0.000000
2.864600 0.000000
2.880100 0.000000
2.895500 0.000000
2.911000 0.000000
2.926500 0.000000
2.942000 0.000000
2.957500 0.000000
2.973000 0.000000
2.988500 0.000000
3.003900 0.000000
3.019400 0.000000
3.034900 0.000000
3.050400 0.000000
3.065900 0.000000
3.081400 0.000000
3.096900 0.000000
3.112400 0.000000
3.127800 0.000000
3.143300 0.000000
3.158800 0.000000
3.174300 0.000000
3.189800 0.000000
3.205300 0.000000
3.220800 0.000000
3.236200 0.000000
3.251700 0.000000
3.267200 0.000000
3.282700 0.000000
3.298200 0.000000
3.313700 0.000000
3.329200 0.000000
3.344700 0.000000
3.360100 0.000000
3.375600 0.000000
3.391100 0.000000
3.406600 0.000000
3.422100 0.000000
3.437600 0.000000
3.453100 0.000000
3.468500 0.000000
3.484000 0.000000
3.499500 0.000000
3.515000 0.000000
3.530500 0.000000
3.546000 0.000000
3.561500 0.000000
3.577000 0.000000
3.592400 0.000000
3.607900 0.000000
3.623400 0.000000
3.638900 0.000000
3.654400 0.000000
3.669900 0.000000
3.685400 0.000000
3.700800 0.000000
3.716300 0.000000
3.731800 0.000000
3.747300 0.000000
3.762800 0.000000
3.778300 0.000000
3.793800 0.000000
3.809300 0.000000
3.824700 0.000000
3.840200 0.000000
3.855700 0.000000
3.871200 0.000000
3.886700 0.000000
3.902200 0.000000
3.917700 0.000000
3.933100 0.000000
3.948600 0.000000
3.964100 0.000000
3.979600 0.000200
3.995100 0.001700
4.010600 0.003200
4.026100 0.004900
4.041600 0.006800
4.057000 0.008800
4.072500 0.010900
4.088000 0.013200
4.103500 0.015600
4.119000 0.018200
4.134500 0.020900
4.150000 0.023700
4.165400 0.026700
4.180900 0.029800
4.196400 0.033000
4.211900 0.036400
4.227400 0.039900
4.242900 0.043600
4.258400 0.047400
4.273900 0.051400
4.289300 0.055400
4.304800 0.059700
4.320300 0.064000
4.335800 0.069300
4.351300 0.075800
4.366800 0.082300
4.382300 0.088800
4.397700 0.095300
4.413200 0.101800
4.428700 0.108300
4.444200 0.114800
4.459700 0.121300
4.475200 0.127800
4.490700 0.134400
4.506200 0.140900
4.521600 0.147400
4.537100 0.154000
4.552600 0.160500
4.568100 0.167100
4.583600 0.173600
4.599100 0.180200
4.614600 0.186700
4.630000 0.193300
4.645500 0.199900
4.661000 0.206400
4.676500 0.213000
4.692000 0.219600
4.707500 0.226200
4.723000 0.232800
4.738500 0.239400
4.753900 0.246000
4.769400 0.252600
4.784900 0.262500
4.800400 0.272800
4.815900 0.283500
4.831400 0.294500
4.846900 0.305900
4.862300 0.317600
4.877800 0.329700
4.893300 0.342100
4.908800 0.354900
4.924300 0.368000
4.939800 0.381500
4.955300 0.395400
4.970800 0.409600
4.986200 0.424100
5.001700 0.439000
5.017200 0.454300
5.032700 0.469900
5.048200 0.485900
5.063700 0.502400
5.079200 0.526500
5.094600 0.552600
5.110100 0.580500
5.125600 0.611700
5.141100 0.643600
5.156600 0.675400
5.172100 0.707300
5.187600 0.742000
5.203100 0.779900
5.218500 0.821800
5.234000 0.895100
5.249500 0.985000
5.265000 1.089200
5.280500 1.212300
5.296000 1.361800
5.311500 1.511200
5.326900 1.660400
5.342400 1.810100
5.357900 1.963300
5.373400 2.119000
5.388900 2.276700
5.404400 2.434300
5.419900 2.591800
5.435400 2.778700
5.450800 3.110400
5.466300 3.333600
5.481800 3.540300
5.497300 3.730400
5.512800 3.904100
5.528300 4.065300
5.543800 4.252100
5.559200 4.345100
5.574700 4.424800
5.590200 4.504500
5.605700 4.584100
5.621200 4.663600
5.636700 4.742900
5.652200 4.822200
5.667700 4.901400
5.683100 4.983400
5.698600 5.125000
5.714100 5.278500
5.729600 5.444500
5.745100 5.632100
5.760600 5.790000
5.776100 5.919900
5.791500 6.039400
5.807000 6.153400
5.822500 6.261900
5.838000 6.365300
5.853500 6.485600
5.869000 6.613600
5.884500 6.756400
5.900000 7.010500
5.915400 7.084400
5.930900 7.158300
5.946400 7.232100
5.961900 7.305900
5.977400 7.379700
5.992900 7.453500
6.008400 7.527200
6.023800 7.600900
6.039300 7.680000
6.054800 7.767800
6.070300 7.858600
6.085800 7.952500
6.101300 8.108300
6.116800 8.510000
6.132300 8.896500
6.147700 8.868100
6.163200 8.792900
6.178700 8.721000
6.194200 8.652300
6.209700 8.586800
6.225200 8.532500
6.240700 8.509600
6.256100 13.242500
6.271600 11.807800
6.287100 7.997700
6.302600 8.008600
6.318100 7.924800
6.333600 7.790600
6.349100 7.657000
6.364600 7.524100
6.380000 7.393100
6.395500 7.280300
6.411000 10.491800
6.426500 11.968500
6.442000 6.318800
6.457500 6.262400
6.473000 6.196300
6.488400 6.120500
6.503900 6.034900
6.519400 5.937300
6.534900 6.355400
6.550400 6.629400
6.565900 6.743100
6.581400 6.696500
6.596900 6.457500
6.612300 6.067600
6.627800 5.527600
6.643300 4.837600
6.658800 4.355600
6.674300 4.286900
6.689800 4.218300
6.705300 4.150000
6.720700 4.081900
6.736200 4.014000
6.751700 3.946300
6.767200 3.878800
6.782700 3.811500
6.798200 4.183100
6.813700 4.478200
6.829200 4.636400
6.844600 4.657900
6.860100 4.547800
6.875600 4.327900
6.891100 3.988500
6.906600 3.543300
6.922100 3.028500
6.937600 3.148800
6.953000 3.290900
6.968500 3.455100
6.984000 3.679000
6.999500 3.964100
7.015000 4.243000
7.030500 4.504500
7.046000 4.730200
7.061500 4.951500
7.076900 5.121100
7.092400 5.239000
7.107900 5.305200
7.123400 5.324600
7.138900 5.324500
7.154400 5.308900
7.169900 5.277700
7.185400 5.231100
7.200800 5.168900
7.216300 5.091200
7.231800 4.997900
7.247300 4.889200
7.262800 4.765300
7.278300 4.702400
7.293800 4.857400
7.309200 4.992700
7.324700 5.265700
7.340200 5.559700
7.355700 5.838600
7.371200 6.102700
7.386700 6.164500
7.402200 5.996400
7.417700 5.817000
7.433100 5.637500
7.448600 5.457600
7.464100 5.277600
7.479600 5.097300
7.495100 4.916700
7.510600 4.736000
7.526100 4.555000
7.541500 4.378400
7.557000 4.276700
7.572500 4.190800
7.588000 4.120700
7.603500 4.066200
7.619000 4.027600
7.634500 4.004700
7.650000 3.997500
7.665400 13.535100
7.680900 3.449400
7.696400 3.537500
7.711900 3.641400
7.727400 3.761100
7.742900 3.896600
7.758400 5.821200
7.773800 3.525000
7.789300 3.823100
7.804800 4.137300
7.820300 4.467400
7.835800 23.134800
7.851300 8.008200
7.866800 7.686700
7.882300 7.365000
7.897700 7.043000
7.913200 6.720700
7.928700 6.338700
7.944200 5.613300
7.959700 4.507600
7.975200 3.350300
7.990700 2.554800
8.006100 2.317300
8.021600 2.186000
8.037100 2.054700
8.052600 2.812500
8.068100 4.455500
8.083600 5.658300
8.099100 6.421000
8.114600 6.743600
8.130000 6.626000
8.145500 6.068300
8.161000 5.552900
8.176500 5.643000
8.192000 5.742300
8.207500 5.798000
8.223000 5.810000
8.238400 5.779600
8.253900 5.704700
8.269400 5.616600
8.284900 5.514700
8.300400 5.382100
8.315900 5.218900
8.331400 7.011200
8.346900 12.439700
8.362300 13.051300
8.377800 6.367300
8.393300 3.863900
8.408800 1.619900
8.424300 0.322200
8.439800 1.031700
8.455300 2.062500
8.470700 3.180300
8.486200 4.397800
8.501700 5.722300
8.517200 6.878200
8.532700 7.808100
8.548200 8.500000
8.563700 8.954000
8.579200 8.969600
8.594600 8.922000
8.610100 8.821000
8.625600 8.666700
8.641100 8.459000
8.656600 8.197900
8.672100 7.998800
8.687600 7.757100
8.703000 7.227000
8.718500 6.408700
8.734000 5.363700
8.749500 4.706500
8.765000 2.457500
8.780500 1.772600
8.796000 1.985800
8.811500 2.201900
8.826900 2.421100
8.842400 4.423500
8.857900 10.446300
8.873400 15.463100
8.888900 18.403900
8.904400 12.928800
8.919900 12.701700
8.935300 11.943000
8.950800 12.592200
8.966300 13.458000
8.981800 13.279900
8.997300 12.238800
9.012800 9.220900
9.028300 6.970400
9.043800 6.598300
9.059200 6.224100
9.074700 5.932400
9.090200 5.725500
9.105700 8.351000
9.121200 10.329200
9.136700 9.649600
9.152200 7.245800
9.167600 7.054500
9.183100 6.885200
9.198600 6.737500
9.214100 6.656600
9.229600 6.650500
9.245100 6.701400
9.260600 6.426600
9.276100 6.374500
9.291500 6.547000
9.307000 6.358900
9.322500 6.187000
9.338000 6.102000
9.353500 6.088700
9.369000 6.080000
9.384500 6.075800
9.399900 6.076200
9.415400 6.081000
9.430900 6.090500
9.446400 6.104500
9.461900 6.127200
9.477400 6.310700
9.492900 6.447100
9.508400 6.536200
9.523800 6.578100
9.539300 18.617300
9.554800 8.157300
9.570300 8.010600
9.585800 7.887300
9.601300 7.796600
9.616800 7.738500
9.632200 7.713000
9.647700 7.720000
9.663200 7.759500
9.678700 7.800900
9.694200 7.779000
9.709700 7.779300
9.725200 8.028100
9.740700 19.687800
9.756100 9.356600
9.771600 9.152100
9.787100 8.860500
9.802600 8.585200
9.818100 8.326800
9.833600 8.112300
9.849100 7.942000
9.864500 7.816200
9.880000 8.437800
9.895500 11.864100
9.911000 11.663200
9.926500 8.600000
9.942000 8.392300
9.957500 8.198100
9.973000 8.048900
9.988400 8.038600
10.003900 7.977100
10.019400 7.926600
10.034900 7.909600
10.050400 7.908000
10.065900 10.207400
10.081400 10.776000
10.096800 10.981900
10.112300 10.736800
10.127800 10.040800
10.143300 8.893900
10.158800 8.005900
10.174300 7.666700
10.189800 7.393100
10.205300 7.133200
10.220700 6.892900
10.236200 6.674600
10.251700 6.478700
10.267200 6.333900
10.282700 6.214400
10.298200 6.120300
10.313700 6.051700
10.329100 6.008500
10.344600 5.990600
10.360100 6.014700
10.375600 6.573700
10.391100 6.968000
10.406600 7.605800
10.422100 7.945400
10.437600 7.975700
10.453000 7.694300
10.468500 7.101500
10.484000 6.210600
10.499500 5.881500
10.515000 5.722500
10.530500 5.555700
10.546000 5.423500
10.561400 5.305200
10.576900 6.198300
10.592400 8.078300
10.607900 8.533500
10.623400 7.564100
10.638900 5.911300
10.654400 5.938700
10.669900 5.961900
10.685300 5.980900
10.700800 5.995600
10.716300 6.006100
10.731800 6.012300
10.747300 6.025300
10.762800 6.071500
10.778300 6.213100
10.793700 6.797600
10.809200 6.586600
10.824700 6.267600
10.840200 5.966800
10.855700 5.664400
10.871200 5.259700
10.886700 4.752500
10.902200 4.156800
10.917600 4.220200
10.933100 4.304000
10.948600 4.381200
10.964100 4.451300
10.979600 4.510300
10.995100 4.557300
11.010600 4.593800
11.026000 4.626500
11.041500 4.645800
11.057000 4.651600
11.072500 4.643800
11.088000 4.622700
11.103500 4.588000
11.119000 4.539800
11.134500 4.478200
11.149900 4.403100
11.165400 4.319700
11.180900 4.230800
11.196400 4.164600
11.211900 4.161400
11.227400 4.125300
11.242900 4.054700
11.258300 3.985000
11.273800 3.916200
11.289300 3.848200
11.304800 3.781000
11.320300 3.714600
11.335800 3.649100
11.351300 3.584400
11.366800 3.520500
11.382200 3.457500
11.397700 3.395300
11.413200 3.334000
11.428700 3.273500
11.444200 3.213800
11.459700 3.155000
11.475200 3.097500
11.490600 3.046800
11.506100 3.203400
11.521600 3.342600
11.537100 3.456500
11.552600 3.545100
11.568100 3.608500
11.583600 3.679800
11.599100 3.728700
11.614500 3.753200
11.630000 3.753400
11.645500 3.729300
11.661000 3.680800
11.676500 3.607900
11.692000 3.510700
11.707500 3.389200
11.722900 3.245600
11.738400 3.119600
11.753900 3.117800
11.769400 3.117700
11.784900 3.119200
11.800400 3.122000
11.815900 3.126300
11.831400 3.132000
11.846800 3.139200
11.862300 3.147700
11.877800 3.157700
11.893300 3.169100
11.908800 3.181900
11.924300 3.198500
11.939800 3.217700
11.955200 3.237600
11.970700 3.258000
11.986200 3.279100
12.001700 3.300200
12.017200 3.318000
12.032700 3.332100
12.048200 3.342400
12.063700 3.354300
12.079100 3.385700
12.094600 3.438100
12.110100 3.551700
12.125600 3.684900
12.141100 3.810800
12.156600 3.929300
12.172100 4.020300
12.187600 4.212500
12.203000 4.839700
12.218500 5.339400
12.234000 5.707600
12.249500 5.944300
12.265000 6.049500
12.280500 6.023300
12.296000 5.865700
12.311400 5.570400
12.326900 5.121400
12.342400 5.024300
12.357900 4.926700
12.373400 4.828500
12.388900 4.729700
12.404400 4.630400
12.419900 4.532900
12.435300 4.442400
12.450800 4.360100
12.466300 4.286700
12.481800 4.220200
12.497300 4.167800
12.512800 4.126900
12.528300 4.097400
12.543700 4.085500
12.559200 4.097000
12.574700 4.115800
12.590200 4.201800
12.605700 5.421000
12.621200 6.225500
12.636700 6.629700
12.652200 7.165200
12.667600 7.034800
12.683100 6.267500
12.698600 6.081600
12.714100 5.735700
12.729600 5.763200
12.745100 5.798000
12.760600 5.819500
12.776000 5.817000
12.791500 5.799700
12.807000 5.767700
12.822500 5.721000
12.838000 5.659600
12.853500 5.583400
12.869000 5.494000
12.884500 5.409800
12.899900 5.336300
12.915400 5.273500
12.930900 5.221500
12.946400 5.261000
12.961900 5.357000
12.977400 5.491000
12.992900 5.662900
13.008300 5.738000
13.023800 5.746100
13.039300 5.738200
13.054800 5.706700
13.070300 5.726600
13.085800 6.156900
13.101300 6.475400
13.116800 6.682000
13.132200 6.788600
13.147700 6.805700
13.163200 6.731600
13.178700 6.566300
13.194200 6.309900
13.209700 5.962200
13.225200 5.531000
13.240600 5.235800
13.256100 5.038200
13.271600 4.901400
13.287100 4.840200
13.302600 4.795100
13.318100 4.766000
13.333600 4.753900
13.349100 5.162200
13.364500 5.717200
13.380000 6.134200
13.395500 6.408100
13.411000 6.538800
13.426500 6.526400
13.442000 6.370800
13.457500 6.103800
13.472900 5.815500
13.488400 5.794900
13.503900 5.810700
13.519400 5.774800
13.534900 5.686900
13.550400 5.547100
13.565900 5.346900
13.581400 5.099400
13.596800 4.902000
13.612300 4.859300
13.627800 4.807000
13.643300 4.767400
13.658800 4.739200
13.674300 4.722500
13.689800 5.146400
13.705200 5.934100
13.720700 6.451500
13.736200 6.698500
13.751700 6.675100
13.767200 6.381300
13.782700 5.820100
13.798200 5.186800
13.813700 5.115200
13.829100 5.046800
13.844600 4.981700
13.860100 4.918800
13.875600 4.855000
13.891100 4.790100
13.906600 4.698900
13.922100 4.603400
13.937500 4.510100
13.953000 4.419200
13.968500 4.330600
13.984000 4.244300
13.999500 4.170700
14.015000 4.101900
14.030500 4.031800
14.046000 3.956800
14.061400 3.878400
14.076900 3.800700
14.092400 3.719400
14.107900 3.650400
14.123400 3.598400
14.138900 3.549000
14.154400 3.514700
14.169800 3.489500
14.185300 3.470400
14.200800 3.457400
14.216300 3.308200
14.231800 3.314400
14.247300 3.329000
14.262800 3.344800
14.278300 3.362100
14.293700 3.382600
14.309200 3.404700
14.324700 3.437900
14.340200 3.473500
14.355700 3.509700
14.371200 3.546600
14.386700 3.627700
14.402100 3.721100
14.417600 3.814600
14.433100 3.908200
14.448600 4.001900
14.464100 3.844000
14.479600 3.909600
14.495100 3.975900
14.510600 4.043000
14.526000 4.110600
14.541500 4.179000
14.557000 4.248100
14.572500 4.317800
14.588000 4.388200
14.603500 4.459300
14.619000 4.532700
14.634400 4.611300
14.649900 4.691700
14.665400 4.772600
14.680900 4.854000
14.696400 4.935800
14.711900 5.033100
14.727400 5.132100
14.742900 5.231200
14.758300 5.330200
14.773800 5.429300
14.789300 5.528400
14.804800 5.627600
14.820300 5.726800
14.835800 5.825900
14.851300 5.925100
14.866700 6.026100
14.882200 6.138500
14.897700 6.253100
14.913200 6.390400
14.928700 6.538100
14.944200 6.695200
14.959700 6.861800
14.975200 7.038600
14.990600 7.225200
15.006100 7.421000
15.021600 7.698600
15.037100 8.260100
15.052600 8.597400
15.068100 8.710400
15.083600 8.599200
15.099000 8.263800
15.114500 7.704100
15.130000 6.920000
15.145500 6.034100
15.161000 6.138400
15.176500 7.943800
15.192000 10.557500
15.207500 12.212600
15.222900 12.909100
15.238400 12.772600
15.253900 12.368100
15.269400 6.667000
15.284900 6.423700
15.300400 6.979500
15.315900 7.531900
15.331300 8.060500
15.346800 8.565400
15.362300 9.046600
15.377800 9.541600
15.393300 10.224000
15.408800 10.601400
15.424300 10.673900
15.439800 10.441400
15.455200 9.902300
15.470700 9.136600
15.486200 8.131400
15.501700 8.451800
15.517200 8.878800
15.532700 9.330500
15.548200 9.750600
15.563600 10.146100
15.579100 16.578400
15.594600 7.179200
15.610100 7.289600
15.625600 7.390700
15.641100 7.491700
15.656600 7.592700
15.672100 7.693700
15.687500 7.794600
15.703000 7.895400
15.718500 8.040000
15.734000 8.203200
15.749500 8.772400
15.765000 9.143100
15.780500 9.311100
15.795900 9.222400
15.811400 8.877100
15.826900 8.275000
15.842400 7.416300
15.857900 6.685200
15.873400 6.680600
15.888900 6.646400
15.904400 6.582700
15.919800 7.235600
15.935300 7.522400
15.950800 7.336000
15.966300 6.676700
15.981800 5.551700
15.997300 3.963100
16.012800 3.623000
16.028200 3.401600
16.043700 3.160500
16.059200 4.677400
16.074700 5.061000
16.090200 3.861700
16.105700 1.079600
16.121200 0.796900
16.136700 0.806000
16.152100 0.815100
16.167600 0.824300
16.183100 0.833400
16.198600 0.866800
16.214100 1.179400
16.229600 1.616500
16.245100 2.178000
16.260500 2.865100
16.276000 3.771700
16.291500 4.828400
16.307000 6.035300
16.322500 14.181700
16.338000 14.596900
16.353500 14.776300
16.369000 14.583100
16.384400 14.017000
16.399900 13.250600
16.415400 12.111800
16.430900 8.554400
16.446400 7.313200
16.461900 5.387300
16.477400 6.100100
16.492800 6.840000
16.508300 7.607000
16.523800 10.944900
16.539300 10.997900
16.554800 7.003000
16.570300 6.590800
16.585800 7.012600
16.601300 7.434700
16.616700 7.857100
16.632200 8.279900
16.647700 8.901000
16.663200 9.325400
16.678700 9.278800
16.694200 8.761100
16.709700 7.772400
16.725100 6.312600
16.740600 5.877900
16.756100 5.849500
16.771600 5.800700
16.787100 5.492300
16.802600 4.859600
16.818100 4.322500
16.833600 4.046400
16.849000 3.788900
16.864500 3.550100
16.880000 2.943800
16.895500 2.688600
16.911000 2.673900
16.926500 2.659200
16.942000 2.482400
16.957400 1.854000
16.972900 1.695600
16.988400 1.538400
17.003900 1.381900
17.019400 1.226300
17.034900 1.071400
17.050400 0.917400
17.065900 0.764200
17.081300 0.307600
17.096800 0.000000
17.112300 0.000000
17.127800 0.000000
17.143300 0.000000
17.158800 0.000000
17.174300 0.000000
17.189800 0.000000
17.205200 0.000000
17.220700 0.000000
17.236200 0.000000
17.251700 0.000000
17.267200 0.000000
17.282700 0.000000
17.298200 0.000000
17.313600 0.000000
17.329100 0.000000
17.344600 0.000000
17.360100 0.000000
17.375600 0.000000
17.391100 0.000000
17.406600 0.000000
17.422100 0.000000
17.437500 0.000000
17.453000 0.000000
17.468500 0.000000
17.484000 0.000000
17.499500 0.000000
17.515000 0.000000
17.530500 0.000000
17.545900 0.000000
17.561400 0.000000
17.576900 0.000000
17.592400 0.000000
17.607900 0.000000
17.623400 0.000000
17.638900 0.000000
17.654400 0.000000
17.669800 0.000000
17.685300 0.000000
17.700800 0.000000
17.716300 0.000000
17.731800 0.000000
17.747300 0.000000
17.762800 0.000000
17.778200 0.000000
17.793700 0.000000
17.809200 0.000000
17.824700 0.000000
17.840200 0.000000
17.855700 0.000000
17.871200 0.000000
17.886700 0.000000
17.902100 0.000000
17.917600 0.000000
17.933100 0.000000
17.948600 0.000000
17.964100 0.000000
17.979600 0.000000
17.995100 0.000000
18.010500 0.000000
18.026000 0.000000
18.041500 0.000000
18.057000 0.000000
18.072500 0.000000
18.088000 0.000000
18.103500 0.000000
18.119000 0.000000
18.134400 0.000000
18.149900 0.000000
18.165400 0.000000
18.180900 0.000000
18.196400 0.000000
18.211900 0.000000
18.227400 0.000000
18.242800 0.000000
18.258300 0.000000
18.273800 0.000000
18.289300 0.000000
18.304800 0.000000
18.320300 0.000000
18.335800 0.000000
18.351300 0.000000
18.366700 0.000000
18.382200 0.000000
18.397700 0.000000
18.413200 0.000000
18.428700 0.000000
18.444200 0.000000
18.459700 0.000000
18.475100 0.000000
18.490600 0.000000
e
