set title 'mp-1222693 - Density of States'
set xlabel 'Energy (eV)'
set ylabel 'DOS (states/eV)'
set grid
set xrange [-10:10]
set yrange [0:22.517]
set xzeroaxis lt -1
set terminal png size 800,600
set output 'mp-1222693_dos_gnuplot.png'
plot '-' using 1:2 with lines title 'DOS'
-34.661600 0.000000
-34.626000 0.000000
-34.590300 0.000000
-34.554700 0.000000
-34.519100 0.000000
-34.483400 0.000000
-34.447800 0.000000
-34.412100 0.000000
-34.376500 0.000000
-34.340800 0.000000
-34.305200 0.000000
-34.269600 0.000000
-34.233900 0.000000
-34.198300 0.000000
-34.162600 0.000000
-34.127000 0.000000
-34.091400 0.000000
-34.055700 0.000000
-34.020100 0.000000
-33.984400 0.000000
-33.948800 0.000000
-33.913200 0.000000
-33.877500 0.000000
-33.841900 0.000000
-33.806200 0.000000
-33.770600 0.000000
-33.735000 0.000000
-33.699300 0.000000
-33.663700 0.000000
-33.628000 0.000000
-33.592400 0.000000
-33.556800 0.000000
-33.521100 0.000000
-33.485500 0.000000
-33.449800 0.000000
-33.414200 0.000000
-33.378600 0.000000
-33.342900 0.000000
-33.307300 0.000000
-33.271600 0.000000
-33.236000 0.000000
-33.200300 0.000000
-33.164700 0.000000
-33.129100 0.000000
-33.093400 0.000000
-33.057800 0.000000
-33.022100 0.000000
-32.986500 0.000000
-32.950900 0.000000
-32.915200 0.000000
-32.879600 0.000000
-32.843900 0.000000
-32.808300 0.000000
-32.772700 0.000000
-32.737000 0.000000
-32.701400 0.000000
-32.665700 0.000000
-32.630100 0.000000
-32.594500 0.000000
-32.558800 0.000000
-32.523200 0.000000
-32.487500 0.000000
-32.451900 0.000000
-32.416300 0.000000
-32.380600 0.000000
-32.345000 0.000000
-32.309300 0.000000
-32.273700 0.000000
-32.238100 0.000000
-32.202400 0.000000
-32.166800 0.000000
-32.131100 0.000000
-32.095500 0.000000
-32.059800 0.000000
-32.024200 0.000000
-31.988600 0.000000
-31.952900 0.000000
-31.917300 0.000000
-31.881600 0.000000
-31.846000 0.000000
-31.810400 0.000000
-31.774700 0.000000
-31.739100 0.000000
-31.703400 0.000000
-31.667800 0.000000
-31.632200 0.000000
-31.596500 0.000000
-31.560900 0.000000
-31.525200 0.000000
-31.489600 0.000000
-31.454000 0.000000
-31.418300 3.165700
-31.382700 6.914200
-31.347000 9.289700
-31.311400 14.576500
-31.275800 24.547900
-31.240100 0.000000
-31.204500 0.000000
-31.168800 0.000000
-31.133200 0.000000
-31.097600 0.000000
-31.061900 0.000000
-31.026300 0.000000
-30.990600 0.000000
-30.955000 0.000000
-30.919300 0.000000
-30.883700 0.000000
-30.848100 0.000000
-30.812400 0.000000
-30.776800 0.000000
-30.741100 0.000000
-30.705500 0.000000
-30.669900 0.000000
-30.634200 0.000000
-30.598600 0.000000
-30.562900 0.000000
-30.527300 0.000000
-30.491700 0.000000
-30.456000 0.000000
-30.420400 0.000000
-30.384700 0.000000
-30.349100 0.000000
-30.313500 0.000000
-30.277800 0.000000
-30.242200 0.000000
-30.206500 0.000000
-30.170900 0.000000
-30.135300 0.000000
-30.099600 0.000000
-30.064000 0.000000
-30.028300 0.000000
-29.992700 0.000000
-29.957100 0.000000
-29.921400 0.000000
-29.885800 0.000000
-29.850100 0.000000
-29.814500 0.000000
-29.778800 0.000000
-29.743200 0.000000
-29.707600 0.000000
-29.671900 0.000000
-29.636300 0.000000
-29.600600 0.000000
-29.565000 0.000000
-29.529400 0.000000
-29.493700 0.000000
-29.458100 0.000000
-29.422400 0.000000
-29.386800 0.000000
-29.351200 0.000000
-29.315500 0.000000
-29.279900 0.000000
-29.244200 0.000000
-29.208600 0.000000
-29.173000 0.000000
-29.137300 0.000000
-29.101700 0.000000
-29.066000 0.000000
-29.030400 0.000000
-28.994800 0.000000
-28.959100 0.000000
-28.923500 0.000000
-28.887800 0.000000
-28.852200 0.000000
-28.816600 0.000000
-28.780900 0.000000
-28.745300 0.000000
-28.709600 0.000000
-28.674000 0.000000
-28.638300 0.000000
-28.602700 0.000000
-28.567100 0.000000
-28.531400 0.000000
-28.495800 0.000000
-28.460100 0.000000
-28.424500 0.000000
-28.388900 0.000000
-28.353200 0.000000
-28.317600 0.000000
-28.281900 0.000000
-28.246300 0.000000
-28.210700 0.000000
-28.175000 0.000000
-28.139400 0.000000
-28.103700 0.000000
-28.068100 0.000000
-28.032500 0.000000
-27.996800 0.000000
-27.961200 0.000000
-27.925500 0.000000
-27.889900 0.000000
-27.854300 0.000000
-27.818600 0.000000
-27.783000 0.000000
-27.747300 0.000000
-27.711700 0.000000
-27.676100 0.000000
-27.640400 0.000000
-27.604800 0.000000
-27.569100 0.000000
-27.533500 0.000000
-27.497800 0.000000
-27.462200 0.000000
-27.426600 0.000000
-27.390900 0.000000
-27.355300 0.000000
-27.319600 0.000000
-27.284000 0.000000
-27.248400 0.000000
-27.212700 0.000000
-27.177100 0.000000
-27.141400 0.000000
-27.105800 0.000000
-27.070200 0.000000
-27.034500 0.000000
-26.998900 0.000000
-26.963200 0.000000
-26.927600 0.000000
-26.892000 0.000000
-26.856300 0.000000
-26.820700 0.000000
-26.785000 0.000000
-26.749400 0.000000
-26.713800 0.000000
-26.678100 0.000000
-26.642500 0.000000
-26.606800 0.000000
-26.571200 0.000000
-26.535600 0.000000
-26.499900 0.000000
-26.464300 0.000000
-26.428600 0.000000
-26.393000 0.000000
-26.357300 0.000000
-26.321700 0.000000
-26.286100 0.000000
-26.250400 0.000000
-26.214800 0.000000
-26.179100 0.000000
-26.143500 0.000000
-26.107900 0.000000
-26.072200 0.000000
-26.036600 0.000000
-26.000900 0.000000
-25.965300 0.000000
-25.929700 0.000000
-25.894000 0.000000
-25.858400 0.000000
-25.822700 0.000000
-25.787100 0.000000
-25.751500 0.000000
-25.715800 0.000000
-25.680200 0.000000
-25.644500 0.000000
-25.608900 0.000000
-25.573300 0.000000
-25.537600 0.000000
-25.502000 0.000000
-25.466300 0.000000
-25.430700 0.000000
-25.395100 0.000000
-25.359400 0.000000
-25.323800 0.000000
-25.288100 0.000000
-25.252500 0.000000
-25.216800 0.000000
-25.181200 0.000000
-25.145600 0.000000
-25.109900 0.000000
-25.074300 0.000000
-25.038600 0.000000
-25.003000 0.000000
-24.967400 0.000000
-24.931700 0.000000
-24.896100 0.000000
-24.860400 0.000000
-24.824800 0.000000
-24.789200 0.000000
-24.753500 0.000000
-24.717900 0.000000
-24.682200 0.000000
-24.646600 0.000000
-24.611000 0.000000
-24.575300 0.000000
-24.539700 0.000000
-24.504000 0.000000
-24.468400 0.000000
-24.432800 0.000000
-24.397100 0.000000
-24.361500 4.028900
-24.325800 4.713600
-24.290200 5.707100
-24.254600 7.388800
-24.218900 9.773900
-24.183300 27.027700
-24.147600 0.000000
-24.112000 0.000000
-24.076300 0.000000
-24.040700 0.000000
-24.005100 0.000000
-23.969400 0.000000
-23.933800 0.000000
-23.898100 0.000000
-23.862500 0.000000
-23.826900 0.000000
-23.791200 0.000000
-23.755600 0.000000
-23.719900 0.000000
-23.684300 0.000000
-23.648700 0.000000
-23.613000 0.000000
-23.577400 0.000000
-23.541700 0.000000
-23.506100 0.000000
-23.470500 0.000000
-23.434800 0.000000
-23.399200 0.000000
-23.363500 0.000000
-23.327900 0.000000
-23.292300 0.000000
-23.256600 0.000000
-23.221000 0.000000
-23.185300 0.000000
-23.149700 0.000000
-23.114100 0.000000
-23.078400 0.000000
-23.042800 0.000000
-23.007100 0.000000
-22.971500 0.000000
-22.935800 0.000000
-22.900200 0.000000
-22.864600 0.000000
-22.828900 0.000000
-22.793300 0.000000
-22.757600 0.000000
-22.722000 0.000000
-22.686400 0.000000
-22.650700 0.000000
-22.615100 0.000000
-22.579400 0.000000
-22.543800 0.000000
-22.508200 0.000000
-22.472500 0.000000
-22.436900 0.000000
-22.401200 0.000000
-22.365600 0.000000
-22.330000 0.000000
-22.294300 0.000000
-22.258700 0.000000
-22.223000 0.000000
-22.187400 0.000000
-22.151800 0.000000
-22.116100 0.000000
-22.080500 0.000000
-22.044800 0.000000
-22.009200 0.000000
-21.973600 0.000000
-21.937900 0.000000
-21.902300 0.000000
-21.866600 0.000000
-21.831000 0.000000
-21.795300 0.000000
-21.759700 0.000000
-21.724100 0.000000
-21.688400 0.000000
-21.652800 0.000000
-21.617100 0.000000
-21.581500 0.000000
-21.545900 0.000000
-21.510200 0.000000
-21.474600 0.000000
-21.438900 0.000000
-21.403300 0.000000
-21.367700 0.000000
-21.332000 0.000000
-21.296400 0.000000
-21.260700 0.000000
-21.225100 0.000000
-21.189500 0.000000
-21.153800 0.000000
-21.118200 0.000000
-21.082500 0.000000
-21.046900 0.000000
-21.011300 0.000000
-20.975600 0.000000
-20.940000 0.000000
-20.904300 0.000000
-20.868700 0.000000
-20.833100 0.000000
-20.797400 0.000000
-20.761800 0.000000
-20.726100 0.000000
-20.690500 0.000000
-20.654800 0.000000
-20.619200 0.000000
-20.583600 0.000000
-20.547900 0.000000
-20.512300 0.000000
-20.476600 0.000000
-20.441000 0.000000
-20.405400 0.000000
-20.369700 0.000000
-20.334100 0.000000
-20.298400 0.000000
-20.262800 0.000000
-20.227200 0.000000
-20.191500 0.000000
-20.155900 0.000000
-20.120200 0.000000
-20.084600 0.000000
-20.049000 0.000000
-20.013300 0.000000
-19.977700 0.000000
-19.942000 0.000000
-19.906400 0.000000
-19.870800 0.000000
-19.835100 0.000000
-19.799500 0.000000
-19.763800 0.000000
-19.728200 0.000000
-19.692600 0.000000
-19.656900 0.000000
-19.621300 0.000000
-19.585600 0.000000
-19.550000 0.000000
-19.514300 0.000000
-19.478700 0.000000
-19.443100 0.000000
-19.407400 0.000000
-19.371800 0.000000
-19.336100 0.000000
-19.300500 0.000000
-19.264900 0.000000
-19.229200 0.000000
-19.193600 0.000000
-19.157900 0.000000
-19.122300 0.000000
-19.086700 0.000000
-19.051000 0.000000
-19.015400 0.000000
-18.979700 0.000000
-18.944100 0.000000
-18.908500 0.000000
-18.872800 0.000000
-18.837200 0.000000
-18.801500 0.000000
-18.765900 0.000000
-18.730300 0.000000
-18.694600 0.000000
-18.659000 0.000000
-18.623300 0.000000
-18.587700 0.000000
-18.552100 0.000000
-18.516400 0.000000
-18.480800 0.000000
-18.445100 0.000000
-18.409500 0.000000
-18.373800 0.000000
-18.338200 0.000000
-18.302600 0.000000
-18.266900 0.000000
-18.231300 0.000000
-18.195600 0.000000
-18.160000 0.000000
-18.124400 0.000000
-18.088700 0.000000
-18.053100 0.000000
-18.017400 0.000000
-17.981800 0.000000
-17.946200 0.000000
-17.910500 0.000000
-17.874900 0.000000
-17.839200 0.000000
-17.803600 0.000000
-17.768000 0.000000
-17.732300 0.000000
-17.696700 0.000000
-17.661000 0.000000
-17.625400 0.000000
-17.589800 0.000000
-17.554100 0.000000
-17.518500 0.000000
-17.482800 0.000000
-17.447200 0.000000
-17.411600 0.000000
-17.375900 0.000000
-17.340300 0.000000
-17.304600 0.000000
-17.269000 0.000000
-17.233300 0.000000
-17.197700 0.000000
-17.162100 0.000000
-17.126400 0.000000
-17.090800 0.000000
-17.055100 0.000000
-17.019500 0.000000
-16.983900 0.000000
-16.948200 0.000000
-16.912600 0.000000
-16.876900 0.000000
-16.841300 0.000000
-16.805700 0.000000
-16.770000 0.000000
-16.734400 0.000000
-16.698700 0.000000
-16.663100 0.000000
-16.627500 0.000000
-16.591800 0.000000
-16.556200 0.000000
-16.520500 0.000000
-16.484900 0.000000
-16.449300 0.000000
-16.413600 0.000000
-16.378000 0.000000
-16.342300 0.000000
-16.306700 0.000000
-16.271100 0.000000
-16.235400 0.000000
-16.199800 0.000000
-16.164100 0.000000
-16.128500 0.000000
-16.092800 0.000000
-16.057200 0.000000
-16.021600 0.000000
-15.985900 0.000000
-15.950300 0.000000
-15.914600 0.000000
-15.879000 0.000000
-15.843400 0.000000
-15.807700 0.000000
-15.772100 0.000000
-15.736400 0.000000
-15.700800 0.000000
-15.665200 0.000000
-15.629500 0.000000
-15.593900 0.000000
-15.558200 0.000000
-15.522600 0.000000
-15.487000 0.000000
-15.451300 0.000000
-15.415700 0.000000
-15.380000 0.000000
-15.344400 0.000000
-15.308800 0.000000
-15.273100 0.000000
-15.237500 0.000000
-15.201800 0.000000
-15.166200 0.000000
-15.130600 0.000000
-15.094900 0.000000
-15.059300 0.000000
-15.023600 0.000000
-14.988000 0.000000
-14.952300 0.000000
-14.916700 0.000000
-14.881100 0.000000
-14.845400 0.000000
-14.809800 0.000000
-14.774100 0.000000
-14.738500 0.000000
-14.702900 0.000000
-14.667200 0.000000
-14.631600 0.000000
-14.595900 0.000000
-14.560300 0.000000
-14.524700 0.000000
-14.489000 0.000000
-14.453400 0.000000
-14.417700 0.000000
-14.382100 0.000000
-14.346500 0.000000
-14.310800 0.000000
-14.275200 0.000000
-14.239500 0.000000
-14.203900 0.000000
-14.168300 0.000000
-14.132600 0.000000
-14.097000 0.000000
-14.061300 0.000000
-14.025700 0.000000
-13.990100 0.000000
-13.954400 0.000000
-13.918800 0.000000
-13.883100 0.000000
-13.847500 0.000000
-13.811800 0.000000
-13.776200 0.000000
-13.740600 0.000000
-13.704900 0.000000
-13.669300 0.000000
-13.633600 0.000000
-13.598000 0.000000
-13.562400 0.000000
-13.526700 0.000000
-13.491100 0.000000
-13.455400 0.000000
-13.419800 0.000000
-13.384200 0.000000
-13.348500 0.000000
-13.312900 0.000000
-13.277200 0.000000
-13.241600 0.000000
-13.206000 0.000000
-13.170300 0.000000
-13.134700 0.000000
-13.099000 0.000000
-13.063400 0.000000
-13.027800 0.000000
-12.992100 0.000000
-12.956500 0.000000
-12.920800 0.000000
-12.885200 0.000000
-12.849600 0.000000
-12.813900 0.000000
-12.778300 0.000000
-12.742600 0.000000
-12.707000 0.000000
-12.671300 0.000000
-12.635700 0.000000
-12.600100 0.000000
-12.564400 0.000000
-12.528800 0.000000
-12.493100 0.000000
-12.457500 0.000000
-12.421900 0.000000
-12.386200 0.000000
-12.350600 0.000000
-12.314900 0.000000
-12.279300 0.000000
-12.243700 0.000000
-12.208000 0.000000
-12.172400 0.000000
-12.136700 0.000000
-12.101100 0.000000
-12.065500 0.000000
-12.029800 0.000000
-11.994200 0.000000
-11.958500 0.000000
-11.922900 0.000000
-11.887300 0.000000
-11.851600 0.000000
-11.816000 0.000000
-11.780300 0.000000
-11.744700 0.000000
-11.709100 0.000000
-11.673400 0.000000
-11.637800 0.000000
-11.602100 0.000000
-11.566500 0.000000
-11.530800 0.000000
-11.495200 0.000000
-11.459600 0.000000
-11.423900 0.000000
-11.388300 0.000000
-11.352600 0.000000
-11.317000 0.000000
-11.281400 0.000000
-11.245700 0.000000
-11.210100 0.000000
-11.174400 0.000000
-11.138800 0.000000
-11.103200 0.000000
-11.067500 0.000000
-11.031900 0.000000
-10.996200 0.000000
-10.960600 0.000000
-10.925000 0.000000
-10.889300 0.000000
-10.853700 0.000000
-10.818000 0.000000
-10.782400 0.000000
-10.746800 0.000000
-10.711100 0.000000
-10.675500 0.000000
-10.639800 0.000000
-10.604200 0.000000
-10.568500 0.000000
-10.532900 0.000000
-10.497300 0.000000
-10.461600 0.000000
-10.426000 0.000000
-10.390300 0.000000
-10.354700 0.384400
-10.319100 1.289800
-10.283400 1.944200
-10.247800 2.647600
-10.212100 2.700000
-10.176500 2.884400
-10.140900 3.259700
-10.105200 3.765000
-10.069600 4.119800
-10.033900 4.258000
-9.998300 3.103500
-9.962700 2.768500
-9.927000 2.459000
-9.891400 2.381300
-9.855700 2.595800
-9.820100 3.437900
-9.784500 3.584500
-9.748800 3.281700
-9.713200 2.033300
-9.677500 3.736400
-9.641900 7.711500
-9.606300 12.233300
-9.570600 9.680400
-9.535000 6.669800
-9.499300 5.180900
-9.463700 5.031200
-9.428000 4.305900
-9.392400 3.137500
-9.356800 2.581500
-9.321100 2.413700
-9.285500 2.393300
-9.249800 2.484100
-9.214200 2.575000
-9.178600 2.746500
-9.142900 2.909800
-9.107300 4.199600
-9.071600 5.043800
-9.036000 4.330600
-9.000400 3.484700
-8.964700 3.253800
-8.929100 3.024400
-8.893400 3.083500
-8.857800 3.148500
-8.822200 3.566500
-8.786500 3.693900
-8.750900 3.925600
-8.715200 4.446600
-8.679600 5.152900
-8.644000 3.293700
-8.608300 3.885100
-8.572700 4.164400
-8.537000 4.074000
-8.501400 3.974500
-8.465800 2.918400
-8.430100 2.090400
-8.394500 1.783500
-8.358800 1.594800
-8.323200 2.051400
-8.287500 2.603200
-8.251900 2.891500
-8.216300 3.618200
-8.180600 3.990500
-8.145000 3.097600
-8.109300 3.547000
-8.073700 12.166600
-8.038100 8.741200
-8.002400 9.896600
-7.966800 13.208100
-7.931100 10.326900
-7.895500 7.354700
-7.859900 7.281000
-7.824200 7.734400
-7.788600 5.409500
-7.752900 4.433800
-7.717300 3.894400
-7.681700 3.414200
-7.646000 3.301500
-7.610400 3.062800
-7.574700 2.893100
-7.539100 2.710400
-7.503500 2.593800
-7.467800 0.000000
-7.432200 0.000000
-7.396500 0.000000
-7.360900 0.000000
-7.325300 0.000000
-7.289600 0.000000
-7.254000 0.000000
-7.218300 0.000000
-7.182700 0.000000
-7.147000 0.000000
-7.111400 0.000000
-7.075800 0.000000
-7.040100 0.000000
-7.004500 0.000000
-6.968800 0.000000
-6.933200 0.000000
-6.897600 0.000000
-6.861900 0.000000
-6.826300 0.000000
-6.790600 0.000000
-6.755000 0.000000
-6.719400 0.000000
-6.683700 0.000000
-6.648100 0.000000
-6.612400 0.000000
-6.576800 0.000000
-6.541200 0.000000
-6.505500 0.000000
-6.469900 0.000000
-6.434200 0.000000
-6.398600 0.000000
-6.363000 0.000000
-6.327300 0.000000
-6.291700 0.000000
-6.256000 0.000000
-6.220400 0.000000
-6.184800 0.000000
-6.149100 0.000000
-6.113500 0.000000
-6.077800 0.000000
-6.042200 0.000000
-6.006500 0.000000
-5.970900 0.000000
-5.935300 0.000000
-5.899600 0.000000
-5.864000 0.000000
-5.828300 0.000000
-5.792700 0.000000
-5.757100 0.000000
-5.721400 0.000000
-5.685800 0.000000
-5.650100 0.000000
-5.614500 0.000000
-5.578900 0.000000
-5.543200 0.000000
-5.507600 0.000000
-5.471900 0.000000
-5.436300 0.000000
-5.400700 0.000000
-5.365000 0.000000
-5.329400 0.000000
-5.293700 0.000000
-5.258100 0.000000
-5.222500 0.000000
-5.186800 0.000000
-5.151200 0.000000
-5.115500 0.000000
-5.079900 0.000000
-5.044300 0.000000
-5.008600 0.000000
-4.973000 0.000000
-4.937300 0.000000
-4.901700 0.000000
-4.866000 0.000000
-4.830400 0.000000
-4.794800 0.000000
-4.759100 0.000000
-4.723500 0.000000
-4.687800 0.000000
-4.652200 0.000000
-4.616600 0.000000
-4.580900 0.000000
-4.545300 0.000000
-4.509600 0.000000
-4.474000 0.000000
-4.438400 0.000000
-4.402700 0.000000
-4.367100 0.000000
-4.331400 0.000000
-4.295800 0.000000
-4.260200 0.000000
-4.224500 0.000000
-4.188900 0.000000
-4.153200 0.000000
-4.117600 0.000000
-4.082000 0.000000
-4.046300 0.000000
-4.010700 0.000000
-3.975000 0.000000
-3.939400 0.000000
-3.903800 0.000000
-3.868100 0.000000
-3.832500 0.000000
-3.796800 0.000000
-3.761200 0.000000
-3.725500 0.000000
-3.689900 0.000000
-3.654300 0.000000
-3.618600 0.000000
-3.583000 0.000000
-3.547300 0.000000
-3.511700 0.000000
-3.476100 0.000000
-3.440400 0.000000
-3.404800 0.000000
-3.369100 0.000000
-3.333500 0.000000
-3.297900 0.000000
-3.262200 0.000000
-3.226600 0.000000
-3.190900 0.000000
-3.155300 0.000000
-3.119700 0.000000
-3.084000 0.000000
-3.048400 0.000000
-3.012700 0.000000
-2.977100 0.000000
-2.941500 0.000000
-2.905800 0.000000
-2.870200 0.000000
-2.834500 0.000000
-2.798900 0.000000
-2.763300 0.000000
-2.727600 0.000000
-2.692000 0.000000
-2.656300 0.000000
-2.620700 0.000000
-2.585000 0.000000
-2.549400 0.000000
-2.513800 0.000000
-2.478100 0.000000
-2.442500 0.000000
-2.406800 0.000000
-2.371200 0.000000
-2.335600 0.000000
-2.299900 0.000000
-2.264300 0.000000
-2.228600 0.000000
-2.193000 0.000000
-2.157400 0.000000
-2.121700 0.000000
-2.086100 0.000000
-2.050400 0.000000
-2.014800 0.000000
-1.979200 0.000000
-1.943500 0.000000
-1.907900 0.000000
-1.872200 0.000000
-1.836600 0.000000
-1.801000 0.000000
-1.765300 0.000000
-1.729700 0.000000
-1.694000 0.000000
-1.658400 0.000000
-1.622800 0.000000
-1.587100 0.000000
-1.551500 0.000000
-1.515800 0.000000
-1.480200 0.000000
-1.444500 0.000000
-1.408900 0.000000
-1.373300 0.000000
-1.337600 0.000000
-1.302000 0.000000
-1.266300 0.000000
-1.230700 0.000000
-1.195100 0.000000
-1.159400 0.000000
-1.123800 0.000000
-1.088100 0.000000
-1.052500 0.000000
-1.016900 0.000000
-0.981200 0.000000
-0.945600 0.000000
-0.909900 0.000000
-0.874300 0.000000
-0.838700 0.000000
-0.803000 0.000000
-0.767400 0.000000
-0.731700 0.000000
-0.696100 0.000000
-0.660500 0.000000
-0.624800 0.000000
-0.589200 0.000000
-0.553500 0.000000
-0.517900 0.000000
-0.482300 0.000000
-0.446600 0.000000
-0.411000 0.000000
-0.375300 0.000000
-0.339700 0.000000
-0.304000 0.000000
-0.268400 0.000000
-0.232800 0.000000
-0.197100 0.000000
-0.161500 0.000000
-0.125800 0.000000
-0.090200 0.000000
-0.054600 0.000000
-0.018900 0.000000
0.016700 0.000000
0.052400 0.000000
0.088000 0.000000
0.123600 0.000000
0.159300 0.000000
0.194900 0.000000
0.230600 0.000000
0.266200 0.000000
0.301800 0.000000
0.337500 0.000000
0.373100 0.000000
0.408800 0.000000
0.444400 0.000000
0.480000 0.000000
0.515700 0.000000
0.551300 0.000000
0.587000 0.000000
0.622600 0.000000
0.658200 0.000000
0.693900 0.000000
0.729500 0.000000
0.765200 0.000000
0.800800 0.000000
0.836500 0.000000
0.872100 0.000000
0.907700 0.000000
0.943400 0.000000
0.979000 0.000000
1.014700 0.000000
1.050300 0.000000
1.085900 0.000000
1.121600 0.000000
1.157200 0.000000
1.192900 0.000000
1.228500 0.000000
1.264100 0.000000
1.299800 0.000000
1.335400 0.000000
1.371100 0.000000
1.406700 0.000000
1.442300 0.000000
1.478000 0.000000
1.513600 0.000000
1.549300 0.000000
1.584900 0.000000
1.620500 0.000000
1.656200 0.000000
1.691800 0.000000
1.727500 0.000000
1.763100 0.000000
1.798700 0.000000
1.834400 0.000000
1.870000 0.000000
1.905700 0.000000
1.941300 0.000000
1.977000 0.000000
2.012600 0.000000
2.048200 0.000000
2.083900 0.000000
2.119500 0.000000
2.155200 0.000000
2.190800 0.000000
2.226400 0.000000
2.262100 0.000000
2.297700 0.000000
2.333400 0.000000
2.369000 0.000000
2.404600 0.000000
2.440300 0.000000
2.475900 0.000000
2.511600 0.000000
2.547200 0.000000
2.582800 0.000000
2.618500 0.000000
2.654100 0.000000
2.689800 0.000000
2.725400 0.000000
2.761000 0.000000
2.796700 0.000000
2.832300 0.000000
2.868000 0.000000
2.903600 0.000000
2.939200 0.000000
2.974900 0.000000
3.010500 0.000000
3.046200 0.000000
3.081800 0.000000
3.117500 0.000000
3.153100 0.000000
3.188700 0.000000
3.224400 0.000000
3.260000 0.000000
3.295700 0.000000
3.331300 0.000000
3.366900 0.000000
3.402600 0.000000
3.438200 0.000000
3.473900 0.000000
3.509500 0.000000
3.545100 0.000000
3.580800 0.000000
3.616400 0.000000
3.652100 0.000000
3.687700 0.000000
3.723300 0.000000
3.759000 0.000000
3.794600 0.000000
3.830300 0.000000
3.865900 0.000000
3.901500 0.000000
3.937200 0.000000
3.972800 0.000000
4.008500 0.002900
4.044100 0.010000
4.079700 0.019700
4.115400 0.031900
4.151000 0.045300
4.186700 0.059700
4.222300 0.075200
4.258000 0.074200
4.293600 0.077300
4.329200 0.083700
4.364900 0.089800
4.400500 0.095600
4.436200 0.101500
4.471800 0.108100
4.507400 0.115000
4.543100 0.122100
4.578700 0.129300
4.614400 0.136800
4.650000 0.144500
4.685600 0.152400
4.721300 0.160200
4.756900 0.167900
4.792600 0.175600
4.828200 0.184000
4.863800 0.193500
4.899500 0.204300
4.935100 0.216800
4.970800 0.231400
5.006400 0.245300
5.042000 0.258200
5.077700 0.270300
5.113300 0.280600
5.149000 0.285400
5.184600 0.281800
5.220200 0.286900
5.255900 0.294900
5.291500 0.303200
5.327200 0.311600
5.362800 0.357300
5.398500 0.437800
5.434100 0.545300
5.469700 0.638000
5.505400 0.726800
5.541000 0.815900
5.576700 0.913700
5.612300 1.036400
5.647900 1.140900
5.683600 1.228400
5.719200 1.295300
5.754900 1.372900
5.790500 1.468500
5.826100 1.558300
5.861800 1.667600
5.897400 1.733200
5.933100 1.826500
5.968700 1.946500
6.004300 2.083900
6.040000 2.287000
6.075600 2.519500
6.111300 2.592600
6.146900 2.604100
6.182500 2.584000
6.218200 2.644700
6.253800 2.762600
6.289500 2.905100
6.325100 3.111800
6.360700 3.108600
6.396400 2.916500
6.432000 2.914400
6.467700 3.089400
6.503300 3.162500
6.539000 3.243700
6.574600 3.423900
6.610200 3.604200
6.645900 3.509300
6.681500 3.588200
6.717200 3.661400
6.752800 3.715200
6.788400 3.839000
6.824100 3.738900
6.859700 3.690800
6.895400 3.530600
6.931000 3.385000
6.966600 3.532800
7.002300 3.591400
7.037900 3.237700
7.073600 2.997400
7.109200 2.408500
7.144800 2.215400
7.180500 2.149500
7.216100 1.955800
7.251800 1.753000
7.287400 1.776400
7.323000 1.755000
7.358700 1.932900
7.394300 2.488800
7.430000 1.860700
7.465600 1.730100
7.501200 1.943800
7.536900 2.602300
7.572500 3.149800
7.608200 3.478300
7.643800 3.675200
7.679500 4.001800
7.715100 4.791400
7.750700 4.916100
7.786400 4.556000
7.822000 4.022400
7.857700 3.799300
7.893300 3.754600
7.928900 3.598300
7.964600 3.602800
8.000200 3.413700
8.035900 3.251000
8.071500 2.746000
8.107100 2.459300
8.142800 2.389300
8.178400 2.435300
8.214100 3.100400
8.249700 2.939500
8.285300 2.996500
8.321000 3.057800
8.356600 2.890100
8.392300 3.012000
8.427900 2.639700
8.463500 2.590000
8.499200 2.791100
8.534800 3.193100
8.570500 3.176300
8.606100 3.249500
8.641700 3.298700
8.677400 3.337700
8.713000 3.391100
8.748700 3.492800
8.784300 3.569300
8.820000 3.715600
8.855600 3.785300
8.891200 3.694700
8.926900 3.538600
8.962500 3.480400
8.998200 3.637300
9.033800 3.665400
9.069400 3.597600
9.105100 3.700800
9.140700 4.040400
9.176400 5.118100
9.212000 5.271500
9.247600 5.624400
9.283300 5.230500
9.318900 5.004800
9.354600 5.577100
9.390200 5.968100
9.425800 6.585800
9.461500 6.300600
9.497100 6.782800
9.532800 8.080200
9.568400 10.637600
9.604000 13.645700
9.639700 14.101700
9.675300 14.309400
9.711000 15.975800
9.746600 18.081700
9.782200 20.401500
9.817900 16.555800
9.853500 15.945000
9.889200 17.388800
9.924800 16.309000
9.960500 17.747100
9.996100 20.469800
10.031700 23.811900
10.067400 32.173900
10.103000 33.834900
10.138700 30.950400
10.174300 7.428600
10.209900 5.852100
10.245600 5.173900
10.281200 5.737200
10.316900 5.834100
10.352500 6.449800
10.388100 7.829800
10.423800 10.758500
10.459400 16.396900
10.495100 24.004600
10.530700 34.863600
10.566300 33.327100
10.602000 26.613700
10.637600 16.351200
10.673300 17.935900
10.708900 25.511800
10.744500 18.964500
10.780200 20.444400
10.815800 11.450800
10.851500 11.209800
10.887100 9.099700
10.922700 8.764600
10.958400 8.059500
10.994000 8.081200
11.029700 7.797000
11.065300 8.038700
11.101000 6.653100
11.136600 5.989900
11.172200 5.595100
11.207900 5.589300
11.243500 6.198200
11.279200 5.619800
11.314800 5.251400
11.350400 4.344600
11.386100 3.585200
11.421700 3.265400
11.457400 2.895800
11.493000 2.466800
11.528600 2.478000
11.564300 2.684200
11.599900 3.112600
11.635600 3.510700
11.671200 3.725900
11.706800 3.886300
11.742500 3.835300
11.778100 3.793600
11.813800 3.861500
11.849400 3.381800
11.885000 3.025800
11.920700 2.753800
11.956300 2.636900
11.992000 2.580000
12.027600 2.651000
12.063200 2.266100
12.098900 2.005100
12.134500 2.021000
12.170200 2.169100
12.205800 2.523100
12.241500 2.727300
12.277100 2.980300
12.312700 3.035700
12.348400 2.831500
12.384000 2.954700
12.419700 2.978900
12.455300 2.639100
12.490900 2.502700
12.526600 2.504900
12.562200 2.387000
12.597900 2.293900
12.633500 2.209900
12.669100 2.132600
12.704800 2.070000
12.740400 2.028500
12.776100 2.014700
12.811700 1.996300
12.847300 1.978000
12.883000 1.960500
12.918600 1.942100
12.954300 1.899800
12.989900 1.852800
13.025500 1.823500
13.061200 1.802300
13.096800 1.780500
13.132500 1.751400
13.168100 1.731700
13.203700 1.711200
13.239400 1.696200
13.275000 1.705900
13.310700 1.727900
13.346300 1.752700
13.382000 1.758300
13.417600 1.754400
13.453200 1.734800
13.488900 1.730200
13.524500 1.727600
13.560200 1.732600
13.595800 1.738200
13.631400 1.753400
13.667100 1.773300
13.702700 1.795400
13.738400 1.822100
13.774000 1.856400
13.809600 1.888600
13.845300 1.916700
13.880900 1.943400
13.916600 1.969600
13.952200 1.994000
13.987800 2.017000
14.023500 2.049300
14.059100 2.068300
14.094800 2.168300
14.130400 2.205300
14.166000 2.256200
14.201700 2.296200
14.237300 2.316200
14.273000 2.351000
14.308600 2.401800
14.344200 2.460900
14.379900 2.587900
14.415500 2.778900
14.451200 2.936400
14.486800 3.158400
14.522500 3.178300
14.558100 3.117100
14.593700 3.042900
14.629400 2.989300
14.665000 2.899600
14.700700 2.745100
14.736300 2.564700
14.771900 2.444400
14.807600 2.378300
14.843200 2.342200
14.878900 2.304200
14.914500 2.266000
14.950100 2.224000
14.985800 2.144100
15.021400 2.093400
15.057100 2.002600
15.092700 2.239100
15.128300 2.019500
15.164000 1.732100
15.199600 1.572600
15.235300 1.437200
15.270900 1.327300
15.306500 1.242600
15.342200 1.175500
15.377800 1.122600
15.413500 1.090500
15.449100 1.116800
15.484700 1.147200
15.520400 1.155400
15.556000 1.148700
15.591700 1.104900
15.627300 1.092100
15.663000 1.072700
15.698600 1.051000
15.734200 1.043200
15.769900 1.049300
15.805500 1.062900
15.841200 1.079000
15.876800 1.096600
15.912400 1.115600
15.948100 1.136600
15.983700 1.165500
16.019400 1.201100
16.055000 1.240000
16.090600 1.337800
16.126300 1.522500
16.161900 1.610000
16.197600 1.655400
16.233200 1.693000
16.268800 1.775700
16.304500 1.995800
16.340100 2.148300
16.375800 2.263800
16.411400 2.131700
16.447000 1.865600
16.482700 1.573300
16.518300 1.317100
16.554000 1.040700
16.589600 0.924100
16.625200 0.863100
16.660900 0.821500
16.696500 0.793400
16.732200 0.779200
16.767800 0.810900
16.803500 0.849100
16.839100 0.881600
16.874700 0.934200
16.910400 1.089500
16.946000 1.197900
16.981700 1.155600
17.017300 1.153500
17.052900 1.060100
17.088600 0.987300
17.124200 0.912500
17.159900 0.844200
17.195500 0.787000
17.231100 0.738900
17.266800 0.694400
17.302400 0.645700
17.338100 0.603700
17.373700 0.563500
17.409300 0.520600
17.445000 0.484500
17.480600 0.461000
17.516300 0.445100
17.551900 0.450400
17.587500 0.495600
17.623200 0.583600
17.658800 0.851800
17.694500 1.275300
17.730100 1.955900
17.765700 1.954700
17.801400 1.804600
17.837000 1.718900
17.872700 1.704600
17.908300 1.649200
17.944000 1.636700
17.979600 1.666700
18.015200 1.663400
18.050900 1.681000
18.086500 1.749900
18.122200 1.747100
18.157800 1.813800
18.193400 1.551600
18.229100 1.417800
18.264700 1.423400
18.300400 1.491400
18.336000 1.501400
18.371600 1.532500
18.407300 1.603800
18.442900 1.640100
18.478600 1.650900
18.514200 1.707700
18.549800 1.853700
18.585500 1.907500
18.621100 1.994800
18.656800 2.002300
18.692400 1.922500
18.728000 1.810600
18.763700 1.779100
18.799300 1.782700
18.835000 1.797800
18.870600 1.830000
18.906200 1.867200
18.941900 1.902000
18.977500 1.921300
19.013200 1.920400
19.048800 1.929700
19.084500 1.950000
19.120100 1.963600
19.155700 1.985600
19.191400 2.017100
19.227000 2.059800
19.262700 2.102400
19.298300 2.130800
19.333900 2.217700
19.369600 2.310400
19.405200 2.329600
19.440900 2.381500
19.476500 2.286300
19.512100 2.198700
19.547800 2.135700
19.583400 1.982600
19.619100 1.895400
19.654700 1.855700
19.690300 1.872600
19.726000 1.867500
19.761600 1.828700
19.797300 1.813800
19.832900 1.645100
19.868500 1.624900
19.904200 1.642700
19.939800 1.678700
19.975500 1.702700
20.011100 1.714100
20.046700 1.713200
20.082400 1.741200
20.118000 1.764800
20.153700 1.780300
20.189300 1.822100
20.225000 1.875700
20.260600 1.870200
20.296200 1.882800
20.331900 1.898300
20.367500 1.906300
20.403200 1.960100
20.438800 1.834500
20.474400 1.838500
20.510100 1.855300
20.545700 1.877500
20.581400 1.896600
20.617000 1.915400
20.652600 2.134500
20.688300 2.093800
20.723900 2.108500
20.759600 2.234100
20.795200 2.191500
20.830800 2.190600
20.866500 2.252500
20.902100 2.380500
20.937800 2.457200
20.973400 2.406700
21.009000 2.405000
21.044700 2.385000
21.080300 2.382200
21.116000 2.370200
21.151600 2.314700
21.187200 2.349900
21.222900 2.379900
21.258500 2.467500
21.294200 2.522100
21.329800 2.345200
21.365500 2.285800
21.401100 2.075200
21.436700 1.959000
21.472400 1.992300
21.508000 1.907600
21.543700 1.823600
21.579300 1.781100
21.614900 2.001900
21.650600 2.255000
21.686200 2.778300
21.721900 3.268300
21.757500 3.359800
21.793100 3.378300
21.828800 3.707900
21.864400 5.067400
21.900100 4.043100
21.935700 3.350700
21.971300 2.981900
22.007000 2.626900
22.042600 2.451200
22.078300 2.404800
22.113900 2.345700
22.149500 2.311100
22.185200 2.279500
22.220800 2.172000
22.256500 2.114400
22.292100 2.209900
22.327700 2.521900
22.363400 2.434400
22.399000 2.594000
22.434700 2.263500
22.470300 1.988800
22.506000 1.864300
22.541600 1.821800
22.577200 1.808300
22.612900 1.881400
22.648500 1.972300
22.684200 2.084600
22.719800 2.171900
22.755400 2.176800
22.791100 2.220600
22.826700 2.257000
22.862400 2.315000
22.898000 2.445900
22.933600 2.632000
22.969300 2.572200
23.004900 2.541200
23.040600 2.615200
23.076200 2.596000
23.111800 2.761600
23.147500 2.513800
23.183100 2.287900
23.218800 2.193800
23.254400 2.285300
23.290000 2.449900
23.325700 2.578900
23.361300 2.580500
23.397000 2.509000
23.432600 2.460900
23.468200 2.609300
23.503900 2.841600
23.539500 2.958700
23.575200 3.111600
23.610800 3.365000
23.646500 3.614200
23.682100 3.744300
23.717700 3.742600
23.753400 3.582000
23.789000 3.372200
23.824700 3.182500
23.860300 2.969200
23.895900 2.838800
23.931600 2.818000
23.967200 2.824400
24.002900 2.832900
24.038500 2.823400
24.074100 2.781100
24.109800 2.749100
24.145400 2.685100
24.181100 2.599600
24.216700 2.526600
24.252300 2.464700
24.288000 2.428000
24.323600 2.316500
24.359300 2.271100
24.394900 2.274100
24.430500 2.254200
24.466200 2.278000
24.501800 2.359900
24.537500 2.419200
24.573100 2.456400
24.608700 2.468700
24.644400 2.298100
24.680000 1.993800
24.715700 1.956500
24.751300 1.448700
24.787000 0.981500
24.822600 0.898200
24.858200 0.849500
24.893900 0.804700
24.929500 0.770700
24.965200 0.764700
25.000800 0.786200
25.036400 0.865900
25.072100 1.193200
25.107700 1.145900
25.143400 1.182300
25.179000 1.260800
25.214600 1.381500
25.250300 1.511300
25.285900 1.663900
25.321600 2.049100
25.357200 2.221500
25.392800 2.276600
25.428500 2.357400
25.464100 2.577700
25.499800 2.547600
25.535400 2.388100
25.571000 2.214700
25.606700 2.154700
25.642300 2.079800
25.678000 2.054600
25.713600 2.074100
25.749200 2.204100
25.784900 2.353700
25.820500 2.565100
25.856200 2.572000
25.891800 2.552100
25.927500 2.590800
25.963100 2.550800
25.998700 2.524300
26.034400 2.494500
26.070000 2.436800
26.105700 2.361200
26.141300 2.358100
26.176900 2.320600
26.212600 2.283800
26.248200 2.237500
26.283900 2.197000
26.319500 2.201600
26.355100 2.252500
26.390800 2.360200
26.426400 2.452700
26.462100 2.424600
26.497700 2.580300
26.533300 2.673600
26.569000 2.629700
26.604600 2.620100
26.640300 2.599600
26.675900 2.527500
26.711500 2.444000
26.747200 2.367700
26.782800 2.315400
26.818500 2.270000
26.854100 2.253900
26.889700 2.266200
26.925400 2.306800
26.961000 2.380400
26.996700 2.495400
27.032300 2.594400
27.068000 2.665000
27.103600 2.721100
27.139200 2.754200
27.174900 2.791000
27.210500 2.887800
27.246200 2.904600
27.281800 2.918300
27.317400 3.012400
27.353100 3.178000
27.388700 3.137800
27.424400 2.961800
27.460000 2.831700
27.495600 2.787300
27.531300 2.809200
27.566900 2.734800
27.602600 2.814900
27.638200 2.792200
27.673800 2.784400
27.709500 2.695200
27.745100 2.724600
27.780800 2.842100
27.816400 2.949100
27.852000 3.163200
27.887700 3.090600
27.923300 3.045400
27.959000 3.034700
27.994600 3.079200
28.030200 2.946200
28.065900 2.933900
28.101500 2.946000
28.137200 3.077100
28.172800 3.152100
28.208500 3.164000
28.244100 3.196600
28.279700 3.143100
28.315400 3.145800
28.351000 3.141200
28.386700 3.125500
28.422300 3.211700
28.457900 3.235000
28.493600 3.313800
28.529200 3.418300
28.564900 3.601100
28.600500 3.722400
28.636100 3.531000
28.671800 3.277900
28.707400 3.319000
28.743100 3.471500
28.778700 3.472100
28.814300 3.302200
28.850000 3.075800
28.885600 2.666300
28.921300 2.402600
28.956900 2.280700
28.992500 2.048000
29.028200 1.907900
29.063800 1.896600
29.099500 1.945200
29.135100 1.970700
29.170700 1.967300
29.206400 1.805700
29.242000 1.743600
29.277700 1.712200
29.313300 1.722200
29.349000 1.668900
29.384600 1.575500
29.420200 1.534600
29.455900 1.369400
29.491500 1.172100
29.527200 1.093700
29.562800 1.045800
29.598400 1.050900
29.634100 1.027500
29.669700 0.989100
29.705400 0.999700
29.741000 0.957800
29.776600 0.833700
29.812300 0.743000
29.847900 0.707500
29.883600 0.674700
29.919200 0.641500
29.954800 0.609100
29.990500 0.575900
30.026100 0.530600
30.061800 0.480200
30.097400 0.439000
30.133000 0.421700
30.168700 0.388200
30.204300 0.321400
30.240000 0.271600
30.275600 0.225800
30.311200 0.188400
30.346900 0.160100
30.382500 0.140000
30.418200 0.123200
30.453800 0.108900
30.489500 0.096700
30.525100 0.085700
30.560700 0.075800
30.596400 0.067000
30.632000 0.059500
30.667700 0.058300
30.703300 0.057100
30.738900 0.055900
30.774600 0.054800
30.810200 0.053700
30.845900 0.052600
30.881500 0.051500
30.917100 0.050500
30.952800 0.049900
30.988400 0.049600
31.024100 0.049700
31.059700 0.050100
31.095300 0.050900
31.131000 0.052000
31.166600 0.056200
31.202300 0.060000
31.237900 0.062500
31.273500 0.063900
31.309200 0.064000
31.344800 0.062900
31.380500 0.060500
31.416100 0.051800
31.451700 0.044000
31.487400 0.037300
31.523000 0.031800
31.558700 0.027500
31.594300 0.024400
31.630000 0.022300
31.665600 0.020800
31.701200 0.019500
31.736900 0.018000
31.772500 0.016500
31.808200 0.015100
31.843800 0.014200
31.879400 0.013500
31.915100 0.012700
31.950700 0.012000
31.986400 0.011400
32.022000 0.010800
32.057600 0.010200
32.093300 0.009600
32.128900 0.009100
32.164600 0.008600
32.200200 0.008200
32.235800 0.007800
32.271500 0.007400
32.307100 0.007000
32.342800 0.006700
32.378400 0.006300
32.414000 0.006000
32.449700 0.005600
32.485300 0.005300
32.521000 0.005000
32.556600 0.004700
32.592200 0.004400
32.627900 0.004100
32.663500 0.003800
32.699200 0.003500
32.734800 0.003300
32.770500 0.003000
32.806100 0.002800
32.841700 0.002500
32.877400 0.002300
32.913000 0.002100
32.948700 0.001900
32.984300 0.001700
33.019900 0.001500
33.055600 0.001300
33.091200 0.001100
33.126900 0.000900
33.162500 0.000800
33.198100 0.000600
33.233800 0.000500
33.269400 0.000400
33.305100 0.000200
33.340700 0.000100
33.376300 0.000000
33.412000 0.000000
33.447600 0.000000
33.483300 0.000000
33.518900 0.000000
33.554500 0.000000
33.590200 0.000000
33.625800 0.000000
33.661500 0.000000
33.697100 0.000000
33.732700 0.000000
33.768400 0.000000
33.804000 0.000000
33.839700 0.000000
33.875300 0.000000
33.911000 0.000000
33.946600 0.000000
33.982200 0.000000
34.017900 0.000000
34.053500 0.000000
34.089200 0.000000
34.124800 0.000000
34.160400 0.000000
34.196100 0.000000
34.231700 0.000000
34.267400 0.000000
34.303000 0.000000
34.338600 0.000000
34.374300 0.000000
34.409900 0.000000
34.445600 0.000000
34.481200 0.000000
34.516800 0.000000
34.552500 0.000000
34.588100 0.000000
34.623800 0.000000
34.659400 0.000000
34.695000 0.000000
34.730700 0.000000
34.766300 0.000000
34.802000 0.000000
34.837600 0.000000
34.873200 0.000000
34.908900 0.000000
34.944500 0.000000
34.980200 0.000000
35.015800 0.000000
35.051500 0.000000
35.087100 0.000000
35.122700 0.000000
35.158400 0.000000
35.194000 0.000000
35.229700 0.000000
35.265300 0.000000
35.300900 0.000000
35.336600 0.000000
35.372200 0.000000
35.407900 0.000000
35.443500 0.000000
35.479100 0.000000
35.514800 0.000000
35.550400 0.000000
35.586100 0.000000
35.621700 0.000000
35.657300 0.000000
35.693000 0.000000
35.728600 0.000000
35.764300 0.000000
35.799900 0.000000
35.835500 0.000000
35.871200 0.000000
35.906800 0.000000
35.942500 0.000000
35.978100 0.000000
36.013700 0.000000
36.049400 0.000000
36.085000 0.000000
36.120700 0.000000
36.156300 0.000000
36.192000 0.000000
36.227600 0.000000
36.263200 0.000000
36.298900 0.000000
36.334500 0.000000
36.370200 0.000000
36.405800 0.000000
36.441400 0.000000
36.477100 0.000000
36.512700 0.000000
36.548400 0.000000
36.584000 0.000000
36.619600 0.000000
e
