set title 'mp-570964 - Density of States'
set xlabel 'Energy (eV)'
set ylabel 'DOS (states/eV)'
set grid
set xrange [-10:10]
set yrange [0:102.178]
set xzeroaxis lt -1
set terminal png size 800,600
set output 'mp-570964_dos_gnuplot.png'
plot '-' using 1:2 with lines title 'DOS'
-12.377000 0.000000
-12.355500 0.000000
-12.334000 0.000000
-12.312500 0.000000
-12.291000 0.000000
-12.269500 0.000000
-12.248000 0.000000
-12.226500 0.000000
-12.205000 0.000000
-12.183500 0.000000
-12.161900 0.000000
-12.140400 0.000000
-12.118900 0.000000
-12.097400 0.000000
-12.075900 0.000000
-12.054400 0.000000
-12.032900 0.000000
-12.011400 0.000000
-11.989900 0.000000
-11.968400 0.000000
-11.946900 0.000000
-11.925300 0.000000
-11.903800 0.000000
-11.882300 0.000000
-11.860800 0.000000
-11.839300 0.000000
-11.817800 0.000000
-11.796300 0.000000
-11.774800 0.000000
-11.753300 0.000000
-11.731800 0.000000
-11.710300 0.000000
-11.688700 0.000000
-11.667200 0.000000
-11.645700 0.000000
-11.624200 0.000000
-11.602700 0.000000
-11.581200 0.000000
-11.559700 0.000000
-11.538200 0.000000
-11.516700 0.000000
-11.495200 0.000000
-11.473700 0.000000
-11.452100 0.000000
-11.430600 0.000000
-11.409100 0.000000
-11.387600 0.000000
-11.366100 0.000000
-11.344600 0.000000
-11.323100 0.000000
-11.301600 0.000000
-11.280100 0.000000
-11.258600 0.000000
-11.237100 0.000000
-11.215500 0.000000
-11.194000 0.000000
-11.172500 0.000000
-11.151000 0.000000
-11.129500 0.000000
-11.108000 0.000000
-11.086500 0.000000
-11.065000 0.000000
-11.043500 0.000000
-11.022000 0.000000
-11.000500 0.000000
-10.978900 0.000000
-10.957400 0.000000
-10.935900 0.000000
-10.914400 0.000000
-10.892900 0.000000
-10.871400 0.000000
-10.849900 0.000000
-10.828400 0.000000
-10.806900 0.000000
-10.785400 0.000000
-10.763900 0.000000
-10.742300 0.000000
-10.720800 0.000000
-10.699300 0.000000
-10.677800 0.000000
-10.656300 0.000000
-10.634800 0.000000
-10.613300 0.000000
-10.591800 0.000000
-10.570300 0.000000
-10.548800 0.000000
-10.527200 0.000000
-10.505700 0.000000
-10.484200 0.000000
-10.462700 0.000000
-10.441200 0.000000
-10.419700 0.004700
-10.398200 0.091500
-10.376700 0.240300
-10.355200 0.443600
-10.333700 0.720600
-10.312200 1.004200
-10.290600 1.288000
-10.269100 1.572000
-10.247600 1.535000
-10.226100 1.547800
-10.204600 1.488800
-10.183100 1.336900
-10.161600 1.379900
-10.140100 1.423000
-10.118600 1.466100
-10.097100 1.509200
-10.075600 1.552300
-10.054000 1.595400
-10.032500 1.638500
-10.011000 1.681600
-9.989500 1.724600
-9.968000 1.782700
-9.946500 1.855500
-9.925000 1.945000
-9.903500 2.042100
-9.882000 2.139400
-9.860500 2.238200
-9.839000 2.340400
-9.817400 2.449700
-9.795900 2.561300
-9.774400 2.672900
-9.752900 2.930600
-9.731400 3.399500
-9.709900 4.005200
-9.688400 4.731000
-9.666900 5.265800
-9.645400 6.055200
-9.623900 10.705700
-9.602400 12.778100
-9.580800 7.186400
-9.559300 6.631400
-9.537800 7.039500
-9.516300 7.996600
-9.494800 10.409700
-9.473300 16.250600
-9.451800 31.742200
-9.430300 2.655900
-9.408800 0.000000
-9.387300 0.000000
-9.365800 0.000000
-9.344200 0.000000
-9.322700 0.000000
-9.301200 0.000000
-9.279700 0.000000
-9.258200 0.000000
-9.236700 0.000000
-9.215200 0.000000
-9.193700 0.000000
-9.172200 0.000000
-9.150700 0.000000
-9.129200 0.000000
-9.107600 0.000000
-9.086100 0.000000
-9.064600 0.000000
-9.043100 0.000000
-9.021600 0.000000
-9.000100 0.000000
-8.978600 0.000000
-8.957100 0.000000
-8.935600 0.000000
-8.914100 0.000000
-8.892500 0.000000
-8.871000 0.000000
-8.849500 0.000000
-8.828000 0.000000
-8.806500 0.000000
-8.785000 0.000000
-8.763500 0.000000
-8.742000 0.000000
-8.720500 0.000000
-8.699000 0.000000
-8.677500 0.000000
-8.655900 0.000000
-8.634400 0.000000
-8.612900 0.000000
-8.591400 0.000000
-8.569900 0.000000
-8.548400 0.000000
-8.526900 0.000000
-8.505400 0.000000
-8.483900 0.000000
-8.462400 0.000000
-8.440900 0.000000
-8.419300 0.000000
-8.397800 0.000000
-8.376300 0.000000
-8.354800 0.000000
-8.333300 0.000000
-8.311800 0.000000
-8.290300 0.000000
-8.268800 0.000000
-8.247300 0.000000
-8.225800 0.000000
-8.204300 0.000000
-8.182700 0.000000
-8.161200 0.000000
-8.139700 0.000000
-8.118200 0.000000
-8.096700 0.000000
-8.075200 0.000000
-8.053700 0.000000
-8.032200 0.000000
-8.010700 0.000000
-7.989200 0.000000
-7.967700 0.000000
-7.946100 0.000000
-7.924600 0.000000
-7.903100 0.000000
-7.881600 0.000000
-7.860100 0.000000
-7.838600 0.000000
-7.817100 0.000000
-7.795600 0.000000
-7.774100 0.000000
-7.752600 0.000000
-7.731100 0.000000
-7.709500 0.000000
-7.688000 0.000000
-7.666500 0.000000
-7.645000 0.000000
-7.623500 0.000000
-7.602000 0.000000
-7.580500 0.000000
-7.559000 0.000000
-7.537500 0.000000
-7.516000 0.000000
-7.494500 0.000000
-7.472900 0.000000
-7.451400 0.000000
-7.429900 0.000000
-7.408400 0.000000
-7.386900 0.000000
-7.365400 0.000000
-7.343900 0.000000
-7.322400 0.000000
-7.300900 0.000000
-7.279400 0.000000
-7.257800 0.000000
-7.236300 0.000000
-7.214800 0.000000
-7.193300 0.000000
-7.171800 0.000000
-7.150300 0.000000
-7.128800 0.000000
-7.107300 0.000000
-7.085800 0.000000
-7.064300 0.000000
-7.042800 0.000000
-7.021200 0.000000
-6.999700 0.000000
-6.978200 0.000000
-6.956700 0.000000
-6.935200 0.000000
-6.913700 0.000000
-6.892200 0.000000
-6.870700 0.000000
-6.849200 0.000000
-6.827700 0.000000
-6.806200 0.000000
-6.784600 0.000000
-6.763100 0.000000
-6.741600 0.000000
-6.720100 0.000000
-6.698600 0.000000
-6.677100 0.000000
-6.655600 0.000000
-6.634100 0.000000
-6.612600 0.000000
-6.591100 0.000000
-6.569600 0.000000
-6.548000 0.000000
-6.526500 0.000000
-6.505000 0.000000
-6.483500 0.000000
-6.462000 0.000000
-6.440500 0.000000
-6.419000 0.000000
-6.397500 0.000000
-6.376000 0.000000
-6.354500 0.000000
-6.333000 0.000000
-6.311400 0.000000
-6.289900 0.000000
-6.268400 0.000000
-6.246900 0.000000
-6.225400 0.000000
-6.203900 0.000000
-6.182400 0.000000
-6.160900 0.000000
-6.139400 0.000000
-6.117900 0.000000
-6.096400 0.000000
-6.074800 0.000000
-6.053300 0.000000
-6.031800 0.000000
-6.010300 0.000000
-5.988800 0.000000
-5.967300 0.000000
-5.945800 0.000000
-5.924300 0.000000
-5.902800 0.000000
-5.881300 0.000000
-5.859800 0.000000
-5.838200 0.000000
-5.816700 0.000000
-5.795200 0.000000
-5.773700 0.000000
-5.752200 0.000000
-5.730700 0.000000
-5.709200 0.000000
-5.687700 0.000000
-5.666200 0.000000
-5.644700 0.000000
-5.623100 0.000000
-5.601600 0.000000
-5.580100 0.000000
-5.558600 0.000000
-5.537100 0.000000
-5.515600 0.000000
-5.494100 0.000000
-5.472600 0.000000
-5.451100 0.000000
-5.429600 0.000000
-5.408100 0.000000
-5.386500 0.000000
-5.365000 0.000000
-5.343500 0.000000
-5.322000 0.000000
-5.300500 0.000000
-5.279000 0.000000
-5.257500 0.000000
-5.236000 0.000000
-5.214500 0.000000
-5.193000 0.000000
-5.171500 0.000000
-5.149900 0.000000
-5.128400 0.000000
-5.106900 0.000000
-5.085400 0.000000
-5.063900 0.000000
-5.042400 0.000000
-5.020900 0.000000
-4.999400 0.000000
-4.977900 0.000000
-4.956400 0.000000
-4.934900 0.000000
-4.913300 0.000000
-4.891800 0.000000
-4.870300 0.000000
-4.848800 0.000000
-4.827300 0.000000
-4.805800 0.000000
-4.784300 0.000000
-4.762800 0.000000
-4.741300 0.000000
-4.719800 0.000000
-4.698300 0.000000
-4.676700 0.000000
-4.655200 0.000000
-4.633700 0.000000
-4.612200 0.000000
-4.590700 0.000000
-4.569200 0.000000
-4.547700 0.000000
-4.526200 0.000000
-4.504700 0.000000
-4.483200 0.000000
-4.461700 0.000000
-4.440100 0.000000
-4.418600 0.000000
-4.397100 0.000000
-4.375600 0.000000
-4.354100 0.000000
-4.332600 0.000000
-4.311100 0.000000
-4.289600 0.000000
-4.268100 0.000000
-4.246600 0.000000
-4.225100 10.137900
-4.203500 60.439400
-4.182000 20.874600
-4.160500 42.404500
-4.139000 32.188200
-4.117500 15.417200
-4.096000 92.889000
-4.074500 60.600600
-4.053000 70.480500
-4.031500 23.952200
-4.010000 0.115900
-3.988400 0.000000
-3.966900 0.000000
-3.945400 0.000000
-3.923900 0.000000
-3.902400 0.000000
-3.880900 0.000000
-3.859400 0.000000
-3.837900 0.000000
-3.816400 0.000000
-3.794900 0.000000
-3.773400 0.000000
-3.751800 0.000000
-3.730300 0.000000
-3.708800 0.000000
-3.687300 0.000000
-3.665800 0.000000
-3.644300 0.000000
-3.622800 0.000000
-3.601300 0.000000
-3.579800 0.000000
-3.558300 0.000000
-3.536800 0.000000
-3.515200 0.000000
-3.493700 0.000000
-3.472200 0.000000
-3.450700 0.000000
-3.429200 0.000000
-3.407700 0.000000
-3.386200 0.000000
-3.364700 0.000000
-3.343200 0.000000
-3.321700 0.000000
-3.300200 0.000000
-3.278600 0.000000
-3.257100 0.000000
-3.235600 0.000000
-3.214100 0.000000
-3.192600 0.000000
-3.171100 0.000000
-3.149600 0.000000
-3.128100 0.000000
-3.106600 0.000000
-3.085100 0.000000
-3.063600 0.000000
-3.042000 0.000000
-3.020500 0.000000
-2.999000 0.000000
-2.977500 0.000000
-2.956000 0.000000
-2.934500 0.000000
-2.913000 0.000000
-2.891500 0.000000
-2.870000 0.000000
-2.848500 0.000000
-2.827000 0.000000
-2.805400 0.000000
-2.783900 0.000000
-2.762400 0.000000
-2.740900 0.000000
-2.719400 0.000000
-2.697900 0.000000
-2.676400 0.000000
-2.654900 0.000000
-2.633400 0.000000
-2.611900 0.000000
-2.590400 0.000000
-2.568800 0.000000
-2.547300 0.000000
-2.525800 0.000000
-2.504300 0.000000
-2.482800 0.000000
-2.461300 0.000000
-2.439800 0.125700
-2.418300 0.341800
-2.396800 0.642900
-2.375300 1.028000
-2.353700 1.538600
-2.332200 2.122200
-2.310700 2.711300
-2.289200 7.791300
-2.267700 6.490400
-2.246200 5.412100
-2.224700 3.005200
-2.203200 2.434100
-2.181700 2.376600
-2.160200 2.319300
-2.138700 2.262200
-2.117100 2.205400
-2.095600 2.148800
-2.074100 2.092500
-2.052600 2.040500
-2.031100 2.004200
-2.009600 1.999300
-1.988100 2.099800
-1.966600 2.214600
-1.945100 2.486900
-1.923600 2.817500
-1.902100 3.142300
-1.880500 4.480400
-1.859000 3.155000
-1.837500 2.495400
-1.816000 1.794600
-1.794500 1.485400
-1.773000 1.392800
-1.751500 1.272100
-1.730000 1.146000
-1.708500 1.014700
-1.687000 0.878100
-1.665500 0.757400
-1.643900 0.684500
-1.622400 0.659300
-1.600900 0.670500
-1.579400 0.713800
-1.557900 0.731800
-1.536400 0.019700
-1.514900 0.000000
-1.493400 0.000000
-1.471900 0.000000
-1.450400 0.000000
-1.428900 0.000800
-1.407300 0.045500
-1.385800 0.110100
-1.364300 0.194600
-1.342800 0.298800
-1.321300 0.422400
-1.299800 0.565300
-1.278300 0.738300
-1.256800 0.931500
-1.235300 1.124600
-1.213800 1.317800
-1.192300 1.510900
-1.170700 1.703900
-1.149200 1.891400
-1.127700 2.161500
-1.106200 2.584100
-1.084700 2.826500
-1.063200 3.027900
-1.041700 3.309800
-1.020200 3.536000
-0.998700 3.518600
-0.977200 3.244900
-0.955700 2.954200
-0.934100 2.671500
-0.912600 2.392300
-0.891100 2.116700
-0.869600 1.844400
-0.848100 1.573700
-0.826600 1.303200
-0.805100 1.183600
-0.783600 1.151700
-0.762100 1.120500
-0.740600 1.088900
-0.719000 1.088700
-0.697500 1.115600
-0.676000 1.142400
-0.654500 1.169100
-0.633000 1.195800
-0.611500 1.222400
-0.590000 1.248900
-0.568500 1.275400
-0.547000 1.301800
-0.525500 1.328200
-0.504000 1.354500
-0.482400 1.380700
-0.460900 1.406900
-0.439400 1.433000
-0.417900 1.459100
-0.396400 1.486300
-0.374900 1.522400
-0.353400 1.591100
-0.331900 1.677800
-0.310400 1.768200
-0.288900 1.900900
-0.267400 2.960700
-0.245800 3.177600
-0.224300 3.057900
-0.202800 3.228100
-0.181300 3.314800
-0.159800 3.342900
-0.138300 3.341900
-0.116800 3.343100
-0.095300 3.346500
-0.073800 3.352200
-0.052300 3.360100
-0.030800 3.370200
-0.009200 3.382200
0.012300 3.388900
0.033800 3.385200
0.055300 3.371300
0.076800 3.347100
0.098300 3.312700
0.119800 3.262100
0.141300 3.157800
0.162800 3.100000
0.184300 3.163100
0.205800 3.221400
0.227400 3.272000
0.248900 3.345400
0.270400 3.470000
0.291900 3.648200
0.313400 3.887800
0.334900 4.082200
0.356400 4.729700
0.377900 3.871600
0.399400 3.799500
0.420900 3.685300
0.442400 3.546300
0.464000 3.379900
0.485500 3.205400
0.507000 3.021800
0.528500 2.827700
0.550000 2.634500
0.571500 2.445200
0.593000 2.259700
0.614500 2.115300
0.636000 2.015800
0.657500 1.937700
0.679000 1.885100
0.700600 1.853900
0.722100 1.823400
0.743600 1.793500
0.765100 1.764300
0.786600 1.735800
0.808100 1.707900
0.829600 1.685800
0.851100 1.665900
0.872600 1.647400
0.894100 1.630300
0.915700 1.614500
0.937200 2.231800
0.958700 2.871200
0.980200 3.420400
1.001700 3.918500
1.023200 4.258300
1.044700 4.501500
1.066200 4.959600
1.087700 5.413100
1.109200 5.865100
1.130700 6.486800
1.152300 6.853000
1.173800 6.722700
1.195300 6.253900
1.216800 6.757600
1.238300 8.199000
1.259800 7.481800
1.281300 4.906300
1.302800 5.080000
1.324300 5.643100
1.345800 5.718800
1.367300 5.460800
1.388900 5.330300
1.410400 5.213500
1.431900 5.110300
1.453400 5.034000
1.474900 5.038500
1.496400 5.089200
1.517900 5.216500
1.539400 5.308800
1.560900 5.254200
1.582400 5.076600
1.603900 5.014700
1.625500 5.193200
1.647000 5.053200
1.668500 4.865800
1.690000 4.520400
1.711500 4.011400
1.733000 3.424200
1.754500 2.863200
1.776000 2.447100
1.797500 2.259200
1.819000 2.933700
1.840500 4.433900
1.862100 3.014000
1.883600 2.304000
1.905100 1.228500
1.926600 0.000000
1.948100 0.000000
1.969600 0.000000
1.991100 0.000000
2.012600 0.000000
2.034100 0.000000
2.055600 0.000000
2.077100 0.000000
2.098700 0.000000
2.120200 0.000000
2.141700 0.000000
2.163200 0.000000
2.184700 0.000000
2.206200 0.000000
2.227700 0.000000
2.249200 0.000000
2.270700 0.000000
2.292200 0.000000
2.313700 0.000000
2.335300 0.000000
2.356800 0.000000
2.378300 0.000000
2.399800 0.000000
2.421300 0.000000
2.442800 0.000000
2.464300 0.000000
2.485800 0.000000
2.507300 0.000000
2.528800 0.000000
2.550400 0.000000
2.571900 0.000000
2.593400 0.000000
2.614900 0.000000
2.636400 0.000000
2.657900 0.000000
2.679400 0.000000
2.700900 0.000000
2.722400 0.000000
2.743900 0.000000
2.765400 0.000000
2.787000 0.000000
2.808500 0.000000
2.830000 0.000000
2.851500 0.000000
2.873000 0.000000
2.894500 0.000000
2.916000 0.000000
2.937500 0.000000
2.959000 0.000000
2.980500 0.000000
3.002000 0.000000
3.023600 0.000000
3.045100 0.000000
3.066600 0.000000
3.088100 0.000000
3.109600 0.000000
3.131100 0.000000
3.152600 0.000000
3.174100 0.000000
3.195600 0.000000
3.217100 0.000000
3.238600 0.000000
3.260200 0.000000
3.281700 0.000000
3.303200 0.000000
3.324700 0.000000
3.346200 0.000000
3.367700 0.000000
3.389200 0.000000
3.410700 0.000000
3.432200 0.000000
3.453700 0.000000
3.475200 0.000000
3.496800 0.000000
3.518300 0.000000
3.539800 0.000000
3.561300 0.000000
3.582800 0.000000
3.604300 0.000000
3.625800 0.000000
3.647300 0.000000
3.668800 0.000000
3.690300 0.000000
3.711800 0.000000
3.733400 0.000000
3.754900 0.003000
3.776400 0.014300
3.797900 0.027900
3.819400 0.043600
3.840900 0.061600
3.862400 0.081800
3.883900 0.104200
3.905400 0.128800
3.926900 0.155600
3.948400 0.184600
3.970000 0.216100
3.991500 0.250300
4.013000 0.287000
4.034500 0.326400
4.056000 0.368400
4.077500 0.412900
4.099000 0.460100
4.120500 0.509900
4.142000 0.567400
4.163500 0.632700
4.185100 0.698200
4.206600 0.763900
4.228100 0.829800
4.249600 0.896000
4.271100 0.962100
4.292600 1.024500
4.314100 1.085000
4.335600 1.144600
4.357100 1.203300
4.378600 1.261100
4.400100 1.318000
4.421700 1.458400
4.443200 1.728100
4.464700 1.969400
4.486200 2.105800
4.507700 2.231000
4.529200 2.345000
4.550700 2.448400
4.572200 2.544600
4.593700 2.633700
4.615200 2.715900
4.636700 2.790900
4.658300 2.882100
4.679800 3.044200
4.701300 3.279700
4.722800 4.382000
4.744300 3.225400
4.765800 2.071300
4.787300 1.746000
4.808800 1.695200
4.830300 1.644700
4.851800 1.595200
4.873300 1.548700
4.894900 1.505300
4.916400 1.465100
4.937900 1.429000
4.959400 1.415200
4.980900 1.415000
5.002400 1.428300
5.023900 1.455300
5.045400 1.545000
5.066900 2.331000
5.088400 2.883400
5.109900 1.906200
5.131500 1.175700
5.153000 0.987700
5.174500 0.894500
5.196000 1.713700
5.217500 1.022000
5.239000 0.000000
5.260500 0.000000
5.282000 0.000000
5.303500 0.000000
5.325000 0.000000
5.346500 0.000000
5.368100 0.000000
5.389600 0.000000
5.411100 0.000000
5.432600 0.000000
5.454100 0.000000
5.475600 0.000000
5.497100 0.000000
5.518600 0.000000
5.540100 0.000000
5.561600 0.000000
5.583100 0.000000
5.604700 0.000000
5.626200 0.000000
5.647700 0.000000
5.669200 0.000000
5.690700 0.000000
5.712200 0.000000
5.733700 0.000000
5.755200 0.000000
5.776700 0.000000
5.798200 0.000000
5.819800 0.000000
5.841300 0.000000
5.862800 0.000000
5.884300 0.000000
5.905800 0.000000
5.927300 0.000000
5.948800 0.000000
5.970300 0.000000
5.991800 0.000000
6.013300 0.000000
6.034800 0.000000
6.056400 0.000000
6.077900 0.000000
6.099400 0.000000
6.120900 0.000000
6.142400 0.000000
6.163900 0.000000
6.185400 0.000000
6.206900 0.000000
6.228400 0.000000
6.249900 0.000000
6.271400 0.000000
6.293000 0.000000
6.314500 0.000000
6.336000 0.000000
6.357500 0.000000
6.379000 0.000000
6.400500 0.000000
6.422000 0.003100
6.443500 0.014800
6.465000 0.030600
6.486500 0.049400
6.508000 0.068000
6.529600 0.086500
6.551100 0.104800
6.572600 0.123000
6.594100 0.141100
6.615600 0.159000
6.637100 0.176800
6.658600 0.194500
6.680100 0.212000
6.701600 0.229400
6.723100 0.246700
6.744600 0.263800
6.766200 0.280800
6.787700 0.297600
6.809200 0.314300
6.830700 0.330900
6.852200 0.347300
6.873700 0.363600
6.895200 0.489000
6.916700 0.656500
6.938200 0.804500
6.959700 0.867500
6.981200 0.933000
7.002800 1.001100
7.024300 1.071700
7.045800 1.144900
7.067300 1.221000
7.088800 1.335100
7.110300 1.464300
7.131800 1.589400
7.153300 1.715700
7.174800 1.844200
7.196300 1.975300
7.217800 2.109800
7.239400 2.247600
7.260900 2.388900
7.282400 2.564000
7.303900 2.871300
7.325400 3.466700
7.346900 4.054200
7.368400 4.109200
7.389900 3.732500
7.411400 3.192600
7.432900 2.691300
7.454500 2.422900
7.476000 2.353300
7.497500 2.276000
7.519000 2.190900
7.540500 2.098100
7.562000 1.997500
7.583500 1.889200
7.605000 1.781100
7.626500 1.686200
7.648000 1.604700
7.669500 1.548200
7.691100 1.459100
7.712600 1.444700
7.734100 1.437900
7.755600 1.435000
7.777100 1.436300
7.798600 2.019400
7.820100 2.443200
7.841600 3.046700
7.863100 2.527100
7.884600 2.409100
7.906100 2.552700
7.927700 2.697200
7.949200 2.801200
7.970700 2.899400
7.992200 3.010600
8.013700 3.134000
8.035200 3.274700
8.056700 3.519900
8.078200 3.993500
8.099700 4.377800
8.121200 4.730800
8.142700 5.094600
8.164300 5.442900
8.185800 5.758800
8.207300 5.877500
8.228800 5.519000
8.250300 5.197600
8.271800 4.984500
8.293300 4.962300
8.314800 4.934800
8.336300 4.791900
8.357800 4.587000
8.379300 4.323200
8.400900 4.243100
8.422400 4.272900
8.443900 4.007100
8.465400 2.519400
8.486900 2.745300
8.508400 3.048900
8.529900 3.479700
8.551400 4.532800
8.572900 5.254400
8.594400 5.646400
8.615900 5.703600
8.637500 5.422300
8.659000 4.987200
8.680500 4.907600
8.702000 4.806300
8.723500 4.637300
8.745000 5.047800
8.766500 3.894000
8.788000 3.335200
8.809500 2.891500
8.831000 2.568600
8.852500 2.415100
8.874100 2.488900
8.895600 2.755400
8.917100 3.143100
8.938600 3.491400
8.960100 3.676700
8.981600 4.113700
9.003100 3.892100
9.024600 3.882200
9.046100 3.772500
9.067600 3.499400
9.089200 3.317300
9.110700 3.306900
9.132200 3.291100
9.153700 3.280600
9.175200 3.249700
9.196700 3.144300
9.218200 2.947100
9.239700 2.652600
9.261200 2.340900
9.282700 2.033000
9.304200 1.776500
9.325800 1.606500
9.347300 1.525500
9.368800 1.500800
9.390300 1.480500
9.411800 1.461700
9.433300 1.466800
9.454800 1.457700
9.476300 1.417800
9.497800 1.357200
9.519300 1.275900
9.540800 1.170500
9.562400 1.060800
9.583900 0.948400
9.605400 0.833200
9.626900 0.715200
9.648400 0.613600
9.669900 0.642600
9.691400 0.681300
9.712900 0.729900
9.734400 0.789800
9.755900 0.858900
9.777400 0.933700
9.799000 1.010300
9.820500 1.088000
9.842000 1.147800
9.863500 1.182300
9.885000 1.215400
9.906500 1.254300
9.928000 1.294800
9.949500 1.335600
9.971000 1.380000
9.992500 1.438700
10.014000 1.498100
10.035600 1.558300
10.057100 1.619200
10.078600 1.680800
10.100100 1.693900
10.121600 1.721600
10.143100 1.786800
10.164600 1.856600
10.186100 1.926600
10.207600 1.979800
10.229100 2.016300
10.250600 2.039200
10.272200 2.046400
10.293700 2.042300
10.315200 2.028300
10.336700 2.004300
10.358200 2.185500
10.379700 3.236400
10.401200 3.575300
10.422700 3.529800
10.444200 2.443400
10.465700 2.438400
10.487200 2.445700
10.508800 2.459100
10.530300 2.476200
10.551800 2.493600
10.573300 2.511100
10.594800 2.528600
10.616300 2.572300
10.637800 2.649800
10.659300 2.742800
10.680800 2.851400
10.702300 2.973400
10.723900 3.121100
10.745400 3.390100
10.766900 3.695400
10.788400 4.066900
10.809900 4.456800
10.831400 4.628600
10.852900 4.668400
10.874400 4.574800
10.895900 4.418500
10.917400 4.250400
10.938900 3.956100
10.960500 3.577600
10.982000 3.179000
11.003500 3.114400
11.025000 4.855900
11.046500 3.931800
11.068000 3.154200
11.089500 2.782500
11.111000 2.844000
11.132500 2.878700
11.154000 2.886300
11.175500 2.878000
11.197100 2.876200
11.218600 2.928400
11.240100 3.202700
11.261600 3.060300
11.283100 2.878800
11.304600 2.936600
11.326100 3.002600
11.347600 2.987300
11.369100 2.927700
11.390600 2.848000
11.412100 2.747600
11.433700 2.649000
11.455200 2.615000
11.476700 2.570300
11.498200 2.537900
11.519700 2.519100
11.541200 2.498300
11.562700 2.475600
11.584200 2.423800
11.605700 2.330400
11.627200 2.268200
11.648700 2.237200
11.670300 2.230100
11.691800 2.223400
11.713300 2.216200
11.734800 2.208700
11.756300 2.200700
11.777800 2.192300
11.799300 2.183500
11.820800 2.174400
11.842300 2.164900
11.863800 2.155800
11.885300 2.147600
11.906900 2.139800
11.928400 2.131500
11.949900 2.161200
11.971400 2.259100
11.992900 2.321700
12.014400 2.349100
12.035900 2.341100
12.057400 2.297900
12.078900 2.219300
12.100400 2.162500
12.121900 2.116300
12.143500 2.078600
12.165000 2.074900
12.186500 2.099900
12.208000 2.142800
12.229500 2.252900
12.251000 2.408200
12.272500 2.479100
12.294000 2.526000
12.315500 2.561900
12.337000 2.585000
12.358600 2.595800
12.380100 2.604300
12.401600 2.681900
12.423100 2.793100
12.444600 2.923400
12.466100 3.056000
12.487600 3.184500
12.509100 3.301900
12.530600 3.392000
12.552100 3.477300
12.573600 3.455200
12.595200 3.477400
12.616700 3.542500
12.638200 3.596700
12.659700 3.590700
12.681200 3.585300
12.702700 3.539500
12.724200 3.646300
12.745700 3.581600
12.767200 3.346800
12.788700 3.066600
12.810200 2.957700
12.831800 2.865000
12.853300 2.773800
12.874800 2.684900
12.896300 2.598400
12.917800 2.514000
12.939300 2.432000
12.960800 2.345100
12.982300 2.247500
13.003800 2.139300
13.025300 2.048700
13.046800 1.999100
13.068400 1.973700
13.089900 1.957800
13.111400 1.946300
13.132900 1.940500
13.154400 1.962600
13.175900 2.019600
13.197400 2.091300
13.218900 2.118200
13.240400 2.096500
13.261900 2.026100
13.283400 1.920800
13.305000 1.900500
13.326500 1.943300
13.348000 2.012400
13.369500 2.102400
13.391000 2.210600
13.412500 2.336900
13.434000 2.486000
13.455500 2.643800
13.477000 2.767600
13.498500 2.848900
13.520000 2.896200
13.541600 2.922400
13.563100 2.930500
13.584600 2.924600
13.606100 2.928900
13.627600 2.940200
13.649100 2.957900
13.670600 2.978800
13.692100 3.002600
13.713600 3.029200
13.735100 3.064400
13.756600 3.092600
13.778200 3.153200
13.799700 3.185300
13.821200 3.205300
13.842700 3.196300
13.864200 3.156200
13.885700 3.086200
13.907200 3.031800
13.928700 3.002100
13.950200 2.960000
13.971700 2.908300
13.993300 2.881100
14.014800 2.878100
14.036300 2.880700
14.057800 2.887500
14.079300 3.307200
14.100800 2.657700
14.122300 2.616400
14.143800 2.583400
14.165300 2.558600
14.186800 2.535400
14.208300 2.519800
14.229900 2.512300
14.251400 2.512900
14.272900 2.534000
14.294400 2.575600
14.315900 2.617300
14.337400 2.658800
14.358900 2.700000
14.380400 2.740000
14.401900 2.779000
14.423400 2.829000
14.444900 2.908400
14.466500 3.020700
14.488000 3.162600
14.509500 3.409800
14.531000 3.602200
14.552500 3.672800
14.574000 3.747000
14.595500 3.822200
14.617000 3.903100
14.638500 4.527500
14.660000 4.554200
14.681500 3.791100
14.703100 3.651200
14.724600 3.735800
14.746100 3.820100
14.767600 3.838400
14.789100 3.792300
14.810600 3.577000
14.832100 3.407400
14.853600 3.403500
14.875100 3.469900
14.896600 3.413900
14.918100 3.362000
14.939700 3.314200
14.961200 3.262100
14.982700 3.294300
15.004200 3.366500
15.025700 3.443000
15.047200 3.523700
15.068700 3.601300
15.090200 3.599900
15.111700 3.619900
15.133200 3.548400
15.154700 3.450200
15.176300 3.353200
15.197800 3.250000
15.219300 3.139900
15.240800 3.022400
15.262300 2.897300
15.283800 2.764600
15.305300 2.624300
15.326800 2.476300
15.348300 2.354900
15.369800 2.249400
15.391300 1.962700
15.412900 1.891300
15.434400 1.937000
15.455900 1.978700
15.477400 2.016500
15.498900 2.050300
15.520400 2.080100
15.541900 2.108500
15.563400 2.128500
15.584900 2.143900
15.606400 2.199400
15.628000 2.324800
15.649500 2.498100
15.671000 2.706700
15.692500 3.002300
15.714000 3.299400
15.735500 3.469500
15.757000 3.535900
15.778500 3.694400
15.800000 3.836200
15.821500 3.969400
15.843000 4.048300
15.864600 4.015600
15.886100 3.813700
15.907600 3.487900
15.929100 3.314800
15.950600 3.337100
15.972100 3.392200
15.993600 3.429900
16.015100 3.449800
16.036600 3.439000
16.058100 3.397400
16.079600 3.357800
16.101200 3.306800
16.122700 3.203800
16.144200 3.078100
16.165700 2.977400
16.187200 2.899100
16.208700 2.843400
16.230200 2.809900
16.251700 2.780300
16.273200 2.772400
16.294700 2.766400
16.316200 2.760700
16.337800 2.754300
16.359300 2.746300
16.380800 2.736800
16.402300 2.737000
16.423800 3.021200
16.445300 3.357900
16.466800 3.312700
16.488300 3.282200
16.509800 3.297900
16.531300 3.385000
16.552800 3.530100
16.574400 3.674900
16.595900 3.846000
16.617400 4.008600
16.638900 4.162200
16.660400 4.308600
16.681900 4.464300
16.703400 4.629300
16.724900 4.743000
16.746400 4.751600
16.767900 4.708400
16.789400 4.665000
16.811000 4.606300
16.832500 4.550800
16.854000 4.536800
16.875500 4.534100
16.897000 3.972000
16.918500 3.791500
16.940000 3.687700
16.961500 3.644700
16.983000 3.978700
17.004500 4.480300
17.026000 4.782800
17.047600 5.034900
17.069100 5.351900
17.090600 5.818800
17.112100 5.686900
17.133600 5.352900
17.155100 5.067900
17.176600 4.713100
17.198100 4.509400
17.219600 4.642900
17.241100 4.451300
17.262700 4.027900
17.284200 4.292100
17.305700 4.583300
17.327200 5.303600
17.348700 5.554100
17.370200 5.423700
17.391700 4.823000
17.413200 4.246800
17.434700 3.797300
17.456200 3.584700
17.477700 3.477400
17.499300 3.351700
17.520800 3.244400
17.542300 3.166600
17.563800 3.092500
17.585300 3.021300
17.606800 2.951400
17.628300 2.882900
17.649800 2.826500
17.671300 2.818500
17.692800 2.801100
17.714300 2.774500
17.735900 2.748700
17.757400 2.719100
17.778900 2.681100
17.800400 2.634800
17.821900 2.581100
17.843400 2.552400
17.864900 2.538400
17.886400 2.524200
17.907900 2.510100
17.929400 2.503200
17.950900 2.494800
17.972500 2.484900
17.994000 2.473600
18.015500 2.466600
18.037000 2.471400
18.058500 2.480400
18.080000 2.507100
18.101500 2.531300
18.123000 2.553000
18.144500 2.572200
18.166000 2.587900
18.187500 2.599800
18.209100 2.608800
18.230600 2.614000
18.252100 2.615300
18.273600 2.612700
18.295100 2.606400
18.316600 2.599000
18.338100 2.593900
18.359600 2.591100
18.381100 2.757400
18.402600 2.947300
18.424100 3.081300
18.445700 3.184800
18.467200 3.227400
18.488700 3.216300
18.510200 3.208900
18.531700 3.197000
18.553200 3.171800
18.574700 3.213300
18.596200 3.272100
18.617700 3.322100
18.639200 3.363200
18.660700 3.396000
18.682300 3.437000
18.703800 3.420400
18.725300 3.283100
18.746800 3.024600
18.768300 2.859900
18.789800 2.804800
18.811300 2.755000
18.832800 2.710800
18.854300 2.671700
18.875800 2.637800
18.897400 2.612000
18.918900 2.585100
18.940400 2.554700
18.961900 2.508800
18.983400 2.435300
19.004900 2.422200
19.026400 2.469600
19.047900 2.503300
19.069400 2.519500
19.090900 2.531500
19.112400 2.554800
19.134000 2.597300
19.155500 2.672200
19.177000 2.760500
19.198500 2.848800
19.220000 2.937600
19.241500 3.026900
19.263000 3.119300
19.284500 3.226000
19.306000 3.361300
19.327500 3.510800
19.349000 3.686100
19.370600 3.965000
19.392100 4.220800
19.413600 4.155600
19.435100 4.142900
19.456600 4.185900
19.478100 4.284100
19.499600 4.430900
19.521100 4.592300
19.542600 4.800200
19.564100 4.991000
19.585600 5.157700
19.607200 5.199700
19.628700 5.121200
19.650200 5.019600
19.671700 4.906200
19.693200 4.778800
19.714700 4.637600
19.736200 4.483800
19.757700 4.394900
19.779200 4.316800
19.800700 4.167600
19.822200 4.136500
19.843800 4.172900
19.865300 4.211500
19.886800 4.246100
19.908300 4.262800
19.929800 4.278200
19.951300 4.270500
19.972800 4.220700
19.994300 4.124100
20.015800 4.076300
20.037300 3.965200
20.058800 3.888900
20.080400 3.828400
20.101900 3.795000
20.123400 3.799900
20.144900 3.846300
20.166400 3.861000
20.187900 3.982400
20.209400 4.119000
20.230900 4.181900
20.252400 4.112500
20.273900 4.137400
20.295400 4.417700
20.317000 4.812800
20.338500 4.705100
20.360000 4.094600
20.381500 3.548800
20.403000 3.515800
20.424500 3.498900
20.446000 3.493400
20.467500 3.499100
20.489000 3.515900
20.510500 3.654600
20.532100 3.979700
20.553600 4.060600
20.575100 3.897900
20.596600 3.909700
20.618100 3.888100
20.639600 3.750200
20.661100 3.635000
20.682600 3.562400
20.704100 3.529300
20.725600 3.526800
20.747100 3.547300
20.768700 3.574000
20.790200 3.607200
20.811700 3.676600
20.833200 4.048900
20.854700 4.564900
20.876200 4.880600
20.897700 5.102300
20.919200 5.229500
20.940700 5.301800
20.962200 5.269100
20.983700 5.020400
21.005300 4.789600
21.026800 4.722400
21.048300 4.685100
21.069800 4.668800
21.091300 4.765700
21.112800 4.774500
21.134300 4.448500
21.155800 4.334600
21.177300 4.248900
21.198800 4.092700
21.220300 3.820000
21.241900 3.670600
21.263400 3.716700
21.284900 3.787500
21.306400 3.883600
21.327900 4.009400
21.349400 4.159200
21.370900 4.326400
21.392400 4.392100
21.413900 4.333900
21.435400 4.277600
21.456900 4.037700
21.478500 3.777900
21.500000 3.534100
21.521500 3.324700
21.543000 3.236600
21.564500 3.577800
21.586000 3.846700
21.607500 4.088700
21.629000 4.450400
21.650500 4.836700
21.672000 4.989200
21.693500 4.871100
21.715100 6.155900
21.736600 4.583600
21.758100 4.804000
21.779600 5.415500
21.801100 6.294800
21.822600 6.327500
21.844100 5.326400
21.865600 5.225000
21.887100 3.439200
21.908600 2.869500
21.930100 2.828200
21.951700 2.827300
21.973200 2.968500
21.994700 3.189500
22.016200 3.461200
22.037700 3.685700
22.059200 3.804900
22.080700 3.890800
22.102200 3.953200
22.123700 3.992200
22.145200 4.007900
22.166800 4.000100
22.188300 3.968900
22.209800 3.914400
22.231300 3.836500
22.252800 3.735200
22.274300 3.621200
22.295800 3.530100
22.317300 3.463900
22.338800 3.405000
22.360300 3.344900
22.381800 3.277300
22.403400 3.195900
22.424900 3.092200
22.446400 2.979700
22.467900 2.507600
22.489400 2.466900
22.510900 2.427300
22.532400 2.395900
22.553900 2.761400
22.575400 3.347200
22.596900 4.030300
22.618400 4.254200
22.640000 4.433000
22.661500 4.592200
22.683000 4.675400
22.704500 4.650500
22.726000 4.517500
22.747500 4.397900
22.769000 5.114300
22.790500 3.680900
22.812000 3.500000
22.833500 3.339300
22.855000 3.198800
22.876600 3.078300
22.898100 2.975000
22.919600 2.884600
22.941100 2.823300
22.962600 2.784400
22.984100 2.757900
23.005600 2.743900
23.027100 2.742300
23.048600 2.753300
23.070100 2.777900
23.091600 3.817400
23.113200 4.449300
23.134700 4.643700
23.156200 4.491600
23.177700 4.378600
23.199200 4.318800
23.220700 4.312100
23.242200 4.357500
23.263700 4.421400
23.285200 4.339000
23.306700 4.289600
23.328200 5.201300
23.349800 3.415000
23.371300 3.004000
23.392800 2.560800
23.414300 2.674200
23.435800 2.968900
23.457300 3.170900
23.478800 3.197200
23.500300 3.087100
23.521800 3.166900
23.543300 3.272400
23.564800 3.277000
23.586400 3.304500
23.607900 3.402300
23.629400 3.656000
23.650900 3.991000
23.672400 4.291100
23.693900 4.470900
23.715400 4.555400
23.736900 4.554100
23.758400 4.543500
23.779900 4.533200
23.801500 4.180500
23.823000 3.707200
23.844500 3.613800
23.866000 3.539300
23.887500 3.482000
23.909000 3.439300
23.930500 3.400200
23.952000 3.363300
23.973500 3.339200
23.995000 3.314800
24.016500 3.290600
24.038100 3.163300
24.059600 3.124500
24.081100 2.702200
24.102600 2.518100
24.124100 2.402600
24.145600 2.325500
24.167100 2.286900
24.188600 2.323600
24.210100 2.485800
24.231600 2.713100
24.253100 2.958600
24.274700 3.220700
24.296200 3.990700
24.317700 4.696900
24.339200 5.414500
24.360700 6.983800
24.382200 7.169500
24.403700 6.390000
24.425200 6.137900
24.446700 5.622500
24.468200 5.155000
24.489700 4.907900
24.511300 3.584000
24.532800 3.175600
24.554300 2.673700
24.575800 2.281500
24.597300 2.069300
24.618800 2.096400
24.640300 2.151800
24.661800 2.220700
24.683300 2.303600
24.704800 2.872700
24.726300 3.321300
24.747900 3.566900
24.769400 3.889300
24.790900 4.228200
24.812400 4.583500
24.833900 5.001500
24.855400 5.232900
24.876900 4.985200
24.898400 4.791700
24.919900 4.635100
24.941400 4.614700
24.962900 4.645100
24.984500 4.541100
25.006000 4.421900
25.027500 4.223700
25.049000 4.088800
25.070500 4.087700
25.092000 4.161400
25.113500 4.435300
25.135000 4.531900
25.156500 4.398500
25.178000 4.468700
25.199500 4.721500
25.221100 5.193900
25.242600 6.424500
25.264100 6.883600
25.285600 6.637300
25.307100 6.382400
25.328600 6.121800
25.350100 6.100100
25.371600 5.983900
25.393100 5.222000
25.414600 5.291000
25.436200 4.925500
25.457700 4.378100
25.479200 4.398100
25.500700 4.471700
25.522200 5.261100
25.543700 5.584000
25.565200 5.843400
25.586700 6.035200
25.608200 6.221300
25.629700 6.304700
25.651200 6.277500
25.672800 5.949100
25.694300 5.570800
25.715800 5.163700
25.737300 4.351400
25.758800 3.610300
25.780300 3.405200
25.801800 3.267400
25.823300 3.288600
25.844800 3.301600
25.866300 3.359200
25.887800 3.487300
25.909400 3.654800
25.930900 4.408700
25.952400 4.553900
25.973900 4.137200
25.995400 4.028600
26.016900 4.071900
26.038400 4.113700
26.059900 4.152200
26.081400 4.192400
26.102900 4.309500
26.124400 4.686500
26.146000 5.076500
26.167500 5.295900
26.189000 5.335600
26.210500 5.137700
26.232000 4.756500
26.253500 4.235800
26.275000 3.654500
26.296500 3.626900
26.318000 3.737500
26.339500 3.941900
26.361000 4.087900
26.382600 4.206100
26.404100 4.261600
26.425600 4.282700
26.447100 4.288400
26.468600 4.255300
26.490100 4.183500
26.511600 4.082000
26.533100 3.954400
26.554600 3.795900
26.576100 3.628900
26.597600 3.490500
26.619200 3.388500
26.640700 3.323600
26.662200 4.155500
26.683700 2.630300
26.705200 2.497800
26.726700 2.394000
26.748200 2.327300
26.769700 2.261300
26.791200 2.195300
26.812700 2.129300
26.834200 2.064100
26.855800 2.002300
26.877300 1.940100
26.898800 1.877600
26.920300 1.815700
26.941800 1.754800
26.963300 1.694100
26.984800 1.633800
27.006300 1.574900
27.027800 1.515800
27.049300 1.461600
27.070900 1.408000
27.092400 1.354500
27.113900 1.299800
27.135400 1.243900
27.156900 1.200800
27.178400 1.172400
27.199900 1.146500
27.221400 1.118900
27.242900 1.085700
27.264400 1.046700
27.285900 1.001900
27.307500 0.954400
27.329000 0.911000
27.350500 0.871900
27.372000 0.837100
27.393500 0.806300
27.415000 0.778400
27.436500 0.752300
27.458000 0.726500
27.479500 0.700900
27.501000 0.675000
27.522500 0.649100
27.544100 0.623700
27.565600 0.598800
27.587100 0.576100
27.608600 0.565100
27.630100 0.578600
27.651600 0.577400
27.673100 0.561500
27.694600 0.530900
27.716100 0.485700
27.737600 0.425700
27.759100 0.351100
27.780700 0.326200
27.802200 0.313700
27.823700 0.301500
27.845200 0.289600
27.866700 0.278000
27.888200 0.266700
27.909700 0.255800
27.931200 0.247700
27.952700 0.243100
27.974200 0.240200
27.995700 0.237100
28.017300 0.233600
28.038800 0.229800
28.060300 0.225700
28.081800 0.221300
28.103300 0.216600
28.124800 0.211600
28.146300 0.206300
28.167800 0.200600
28.189300 0.194700
28.210800 0.188700
28.232300 0.182100
28.253900 0.170000
28.275400 0.158200
28.296900 0.146800
28.318400 0.135700
28.339900 0.125000
28.361400 0.114600
28.382900 0.104600
28.404400 0.095000
28.425900 0.085700
28.447400 0.076800
28.468900 0.068200
28.490500 0.060000
28.512000 0.052100
28.533500 0.044900
28.555000 0.038100
28.576500 0.031400
28.598000 0.024900
28.619500 0.018500
28.641000 0.012400
28.662500 0.006400
28.684000 0.000500
28.705600 0.000000
28.727100 0.000000
28.748600 0.000000
28.770100 0.000000
28.791600 0.000000
28.813100 0.000000
28.834600 0.000000
28.856100 0.000000
28.877600 0.000000
28.899100 0.000000
28.920600 0.000000
28.942200 0.000000
28.963700 0.000000
28.985200 0.000000
29.006700 0.000000
29.028200 0.000000
29.049700 0.000000
29.071200 0.000000
29.092700 0.000000
29.114200 0.000000
29.135700 0.000000
29.157200 0.000000
29.178800 0.000000
29.200300 0.000000
29.221800 0.000000
29.243300 0.000000
29.264800 0.000000
29.286300 0.000000
29.307800 0.000000
29.329300 0.000000
29.350800 0.000000
29.372300 0.000000
29.393800 0.000000
29.415400 0.000000
29.436900 0.000000
29.458400 0.000000
29.479900 0.000000
29.501400 0.000000
29.522900 0.000000
29.544400 0.000000
29.565900 0.000000
29.587400 0.000000
29.608900 0.000000
29.630400 0.000000
29.652000 0.000000
29.673500 0.000000
29.695000 0.000000
29.716500 0.000000
29.738000 0.000000
29.759500 0.000000
29.781000 0.000000
29.802500 0.000000
29.824000 0.000000
29.845500 0.000000
29.867000 0.000000
29.888600 0.000000
29.910100 0.000000
29.931600 0.000000
29.953100 0.000000
29.974600 0.000000
29.996100 0.000000
30.017600 0.000000
30.039100 0.000000
30.060600 0.000000
30.082100 0.000000
30.103600 0.000000
30.125200 0.000000
30.146700 0.000000
30.168200 0.000000
30.189700 0.000000
30.211200 0.000000
30.232700 0.000000
30.254200 0.000000
30.275700 0.000000
30.297200 0.000000
30.318700 0.000000
30.340300 0.000000
30.361800 0.000000
30.383300 0.000000
30.404800 0.000000
30.426300 0.000000
30.447800 0.000000
30.469300 0.000000
30.490800 0.000000
30.512300 0.000000
30.533800 0.000000
30.555300 0.000000
30.576900 0.000000
30.598400 0.000000
30.619900 0.000000
30.641400 0.000000
e
