set title 'mp-1096866 - Density of States'
set xlabel 'Energy (eV)'
set ylabel 'DOS (states/eV)'
set grid
set xrange [-10:10]
set yrange [0:18.169]
set xzeroaxis lt -1
set terminal png size 800,600
set output 'mp-1096866_dos_gnuplot.png'
plot '-' using 1:2 with lines title 'DOS'
-20.285700 0.000000
-20.264300 0.000000
-20.243000 0.000000
-20.221600 0.000000
-20.200200 0.000000
-20.178800 0.000000
-20.157400 0.000000
-20.136000 0.000000
-20.114700 0.000000
-20.093300 0.000000
-20.071900 0.000000
-20.050500 0.000000
-20.029100 0.000000
-20.007700 0.000000
-19.986300 0.000000
-19.965000 0.000000
-19.943600 0.000000
-19.922200 0.000000
-19.900800 0.000000
-19.879400 0.000000
-19.858000 0.000000
-19.836700 0.000000
-19.815300 0.000000
-19.793900 0.000000
-19.772500 0.000000
-19.751100 0.000000
-19.729700 0.000000
-19.708300 0.000000
-19.687000 0.000000
-19.665600 0.000000
-19.644200 0.000000
-19.622800 0.000000
-19.601400 0.000000
-19.580000 0.000000
-19.558600 0.000000
-19.537300 0.000000
-19.515900 0.000000
-19.494500 0.000000
-19.473100 0.000000
-19.451700 0.000000
-19.430300 0.000000
-19.409000 0.000000
-19.387600 0.000000
-19.366200 0.000000
-19.344800 0.000000
-19.323400 0.000000
-19.302000 0.000000
-19.280600 0.000000
-19.259300 0.000000
-19.237900 0.000000
-19.216500 0.000000
-19.195100 0.000000
-19.173700 0.000000
-19.152300 0.000000
-19.131000 0.000000
-19.109600 0.000000
-19.088200 0.000000
-19.066800 0.000000
-19.045400 0.000000
-19.024000 0.000000
-19.002600 0.000000
-18.981300 0.000000
-18.959900 0.000000
-18.938500 0.000000
-18.917100 0.000000
-18.895700 0.000000
-18.874300 0.000000
-18.853000 0.000000
-18.831600 0.000000
-18.810200 0.000000
-18.788800 0.000000
-18.767400 0.000000
-18.746000 0.000000
-18.724600 0.000000
-18.703300 0.000000
-18.681900 0.000000
-18.660500 0.000000
-18.639100 0.000000
-18.617700 0.000000
-18.596300 0.000000
-18.574900 0.000000
-18.553600 0.000000
-18.532200 0.000000
-18.510800 0.000000
-18.489400 0.000000
-18.468000 0.000000
-18.446600 0.000000
-18.425300 0.000000
-18.403900 0.000000
-18.382500 0.000000
-18.361100 0.000000
-18.339700 0.000000
-18.318300 0.000000
-18.296900 0.000000
-18.275600 0.000000
-18.254200 0.000000
-18.232800 0.000000
-18.211400 0.000000
-18.190000 0.000000
-18.168600 0.000000
-18.147300 0.000000
-18.125900 0.000000
-18.104500 0.000000
-18.083100 0.000000
-18.061700 0.000000
-18.040300 0.000000
-18.018900 0.000000
-17.997600 0.000000
-17.976200 0.000000
-17.954800 0.000000
-17.933400 0.000000
-17.912000 0.000000
-17.890600 0.000000
-17.869200 0.000000
-17.847900 0.000000
-17.826500 0.000000
-17.805100 0.000000
-17.783700 0.000000
-17.762300 0.000000
-17.740900 0.000000
-17.719600 0.000000
-17.698200 0.000000
-17.676800 0.000000
-17.655400 0.000000
-17.634000 0.000000
-17.612600 0.000000
-17.591200 0.000000
-17.569900 0.000000
-17.548500 0.000000
-17.527100 0.000000
-17.505700 0.000000
-17.484300 0.000000
-17.462900 0.000000
-17.441600 0.000000
-17.420200 0.000000
-17.398800 0.000000
-17.377400 0.000000
-17.356000 0.000000
-17.334600 0.000000
-17.313200 0.000000
-17.291900 0.000000
-17.270500 0.000000
-17.249100 0.000000
-17.227700 0.000000
-17.206300 0.000000
-17.184900 0.000000
-17.163600 0.000000
-17.142200 0.000000
-17.120800 0.000000
-17.099400 0.000000
-17.078000 0.000000
-17.056600 0.000000
-17.035200 0.000000
-17.013900 0.000000
-16.992500 0.000000
-16.971100 0.000000
-16.949700 0.046700
-16.928300 0.118200
-16.906900 0.178800
-16.885500 0.208800
-16.864200 0.245800
-16.842800 0.283200
-16.821400 0.313200
-16.800000 0.343200
-16.778600 0.377800
-16.757200 0.411700
-16.735900 0.443400
-16.714500 0.477900
-16.693100 0.514200
-16.671700 0.553000
-16.650300 0.595000
-16.628900 0.637600
-16.607500 0.693800
-16.586200 0.756400
-16.564800 0.879500
-16.543400 0.875300
-16.522000 0.899300
-16.500600 0.933700
-16.479200 0.962500
-16.457900 0.995200
-16.436500 1.031600
-16.415100 1.075400
-16.393700 1.122900
-16.372300 1.174900
-16.350900 1.229200
-16.329500 1.286000
-16.308200 1.366300
-16.286800 1.457100
-16.265400 1.554800
-16.244000 1.662600
-16.222600 1.808200
-16.201200 2.008500
-16.179900 2.277100
-16.158500 2.674500
-16.137100 3.750900
-16.115700 3.412800
-16.094300 2.784500
-16.072900 1.684900
-16.051500 1.180000
-16.030200 5.593500
-16.008800 5.976300
-15.987400 5.140000
-15.966000 3.948500
-15.944600 3.369500
-15.923200 2.919300
-15.901800 2.445500
-15.880500 2.109500
-15.859100 1.820500
-15.837700 1.611600
-15.816300 1.437500
-15.794900 1.276300
-15.773500 1.150300
-15.752200 1.032200
-15.730800 0.924900
-15.709400 0.838000
-15.688000 0.753600
-15.666600 0.679000
-15.645200 0.606000
-15.623800 0.542100
-15.602500 0.482600
-15.581100 0.425500
-15.559700 0.366200
-15.538300 0.314600
-15.516900 0.258500
-15.495500 0.200700
-15.474200 0.133000
-15.452800 0.002700
-15.431400 0.000000
-15.410000 0.000000
-15.388600 0.000000
-15.367200 0.000000
-15.345800 0.000000
-15.324500 0.000000
-15.303100 0.000000
-15.281700 0.000000
-15.260300 0.000000
-15.238900 0.000000
-15.217500 0.000000
-15.196100 0.000000
-15.174800 0.000000
-15.153400 0.000000
-15.132000 0.000000
-15.110600 0.000000
-15.089200 0.000000
-15.067800 0.000000
-15.046500 0.000000
-15.025100 0.000000
-15.003700 0.000000
-14.982300 0.000000
-14.960900 0.000000
-14.939500 0.000000
-14.918100 0.000000
-14.896800 0.000000
-14.875400 0.000000
-14.854000 0.000000
-14.832600 0.000000
-14.811200 0.000000
-14.789800 0.000000
-14.768500 0.000000
-14.747100 0.000000
-14.725700 0.000000
-14.704300 0.000000
-14.682900 0.000000
-14.661500 0.000000
-14.640100 0.000000
-14.618800 0.000000
-14.597400 0.000000
-14.576000 0.000000
-14.554600 0.000000
-14.533200 0.000000
-14.511800 0.000000
-14.490500 0.000000
-14.469100 0.000000
-14.447700 0.000000
-14.426300 0.000000
-14.404900 0.000000
-14.383500 0.000000
-14.362100 0.000000
-14.340800 0.000000
-14.319400 0.000000
-14.298000 0.000000
-14.276600 0.000000
-14.255200 0.000000
-14.233800 0.000000
-14.212400 0.000000
-14.191100 0.000000
-14.169700 0.000000
-14.148300 0.000000
-14.126900 0.000000
-14.105500 0.000000
-14.084100 0.000000
-14.062800 0.000000
-14.041400 0.000000
-14.020000 0.000000
-13.998600 0.000000
-13.977200 0.000000
-13.955800 0.000000
-13.934400 0.000000
-13.913100 0.000000
-13.891700 0.000000
-13.870300 0.000000
-13.848900 0.000000
-13.827500 0.000000
-13.806100 0.000000
-13.784800 0.000000
-13.763400 0.000000
-13.742000 0.000000
-13.720600 0.000000
-13.699200 0.000000
-13.677800 0.000000
-13.656400 0.000000
-13.635100 0.000000
-13.613700 0.000000
-13.592300 0.000000
-13.570900 0.000000
-13.549500 0.000000
-13.528100 0.000000
-13.506800 0.000000
-13.485400 0.000000
-13.464000 0.000000
-13.442600 0.000000
-13.421200 0.000000
-13.399800 0.000000
-13.378400 0.000000
-13.357100 0.000000
-13.335700 0.000000
-13.314300 0.000000
-13.292900 0.000000
-13.271500 0.000000
-13.250100 0.000000
-13.228700 0.000000
-13.207400 0.000000
-13.186000 0.000000
-13.164600 0.000000
-13.143200 0.000000
-13.121800 0.000000
-13.100400 0.000000
-13.079100 0.000000
-13.057700 0.000000
-13.036300 0.000000
-13.014900 0.000000
-12.993500 0.000000
-12.972100 0.000000
-12.950700 0.000000
-12.929400 0.000000
-12.908000 0.000000
-12.886600 0.000000
-12.865200 0.000000
-12.843800 0.000000
-12.822400 0.000000
-12.801100 0.000000
-12.779700 0.000000
-12.758300 0.000000
-12.736900 0.000000
-12.715500 0.000000
-12.694100 0.000000
-12.672700 0.000000
-12.651400 0.000000
-12.630000 0.000000
-12.608600 0.000000
-12.587200 0.000000
-12.565800 0.000000
-12.544400 0.000000
-12.523000 0.000000
-12.501700 0.000000
-12.480300 0.000000
-12.458900 0.000000
-12.437500 0.000000
-12.416100 0.000000
-12.394700 0.000000
-12.373400 0.000000
-12.352000 0.000000
-12.330600 0.000000
-12.309200 0.000000
-12.287800 0.000000
-12.266400 0.000000
-12.245000 0.000000
-12.223700 0.000000
-12.202300 0.000000
-12.180900 0.000000
-12.159500 0.000000
-12.138100 0.000000
-12.116700 0.000000
-12.095400 0.000000
-12.074000 0.000000
-12.052600 0.000000
-12.031200 0.000000
-12.009800 0.000000
-11.988400 0.000000
-11.967000 0.000000
-11.945700 0.000000
-11.924300 0.000000
-11.902900 0.000000
-11.881500 0.000000
-11.860100 0.000000
-11.838700 0.000000
-11.817400 0.000000
-11.796000 0.000000
-11.774600 0.000000
-11.753200 0.000000
-11.731800 0.000000
-11.710400 0.000000
-11.689000 0.000000
-11.667700 0.000000
-11.646300 0.000000
-11.624900 0.000000
-11.603500 0.000000
-11.582100 0.000000
-11.560700 0.000000
-11.539300 0.000000
-11.518000 0.000000
-11.496600 0.000000
-11.475200 0.000000
-11.453800 0.000000
-11.432400 0.000000
-11.411000 0.000000
-11.389700 0.000000
-11.368300 0.000000
-11.346900 0.000000
-11.325500 0.000000
-11.304100 0.000000
-11.282700 0.000000
-11.261300 0.000000
-11.240000 0.000000
-11.218600 0.000000
-11.197200 0.000000
-11.175800 0.000000
-11.154400 0.000000
-11.133000 0.000000
-11.111700 0.000000
-11.090300 0.000000
-11.068900 0.000000
-11.047500 0.000000
-11.026100 0.000000
-11.004700 0.000000
-10.983300 0.000000
-10.962000 0.000000
-10.940600 0.000000
-10.919200 0.000000
-10.897800 0.000000
-10.876400 0.000000
-10.855000 0.000000
-10.833700 0.000000
-10.812300 0.000000
-10.790900 0.000000
-10.769500 0.000000
-10.748100 0.000000
-10.726700 0.000000
-10.705300 0.000000
-10.684000 0.000000
-10.662600 0.000000
-10.641200 0.000000
-10.619800 0.000000
-10.598400 0.000000
-10.577000 0.000000
-10.555600 0.000000
-10.534300 0.000000
-10.512900 0.000000
-10.491500 0.000000
-10.470100 0.000000
-10.448700 0.000000
-10.427300 0.000000
-10.406000 0.000000
-10.384600 0.000000
-10.363200 0.000000
-10.341800 0.000000
-10.320400 0.000000
-10.299000 0.000000
-10.277600 0.000000
-10.256300 0.000000
-10.234900 0.000000
-10.213500 0.000000
-10.192100 0.000000
-10.170700 0.000000
-10.149300 0.000000
-10.128000 0.000000
-10.106600 0.000000
-10.085200 0.000000
-10.063800 0.000000
-10.042400 0.000000
-10.021000 0.000000
-9.999600 0.000000
-9.978300 0.000000
-9.956900 0.000000
-9.935500 0.000000
-9.914100 0.000000
-9.892700 0.000000
-9.871300 0.000000
-9.849900 0.000000
-9.828600 0.000000
-9.807200 0.000000
-9.785800 0.000000
-9.764400 0.000000
-9.743000 0.000000
-9.721600 0.000000
-9.700300 0.000000
-9.678900 0.000000
-9.657500 0.000000
-9.636100 0.000000
-9.614700 0.000000
-9.593300 0.000000
-9.571900 0.000000
-9.550600 0.000000
-9.529200 0.000000
-9.507800 0.000000
-9.486400 0.000000
-9.465000 0.000000
-9.443600 0.000000
-9.422300 0.000000
-9.400900 0.000000
-9.379500 0.000000
-9.358100 0.000000
-9.336700 0.000000
-9.315300 0.000000
-9.293900 0.000000
-9.272600 0.000000
-9.251200 0.000000
-9.229800 0.000000
-9.208400 0.000000
-9.187000 0.000000
-9.165600 0.000000
-9.144300 0.000000
-9.122900 0.000000
-9.101500 0.000000
-9.080100 0.000000
-9.058700 0.000000
-9.037300 0.000000
-9.015900 0.000000
-8.994600 0.000000
-8.973200 0.000000
-8.951800 0.000000
-8.930400 0.000000
-8.909000 0.000000
-8.887600 0.000000
-8.866200 0.000000
-8.844900 0.000000
-8.823500 0.000000
-8.802100 0.000000
-8.780700 0.000000
-8.759300 0.000000
-8.737900 0.000000
-8.716600 0.000000
-8.695200 0.000000
-8.673800 0.000000
-8.652400 0.000000
-8.631000 0.000000
-8.609600 0.000000
-8.588200 0.000000
-8.566900 0.000000
-8.545500 0.000000
-8.524100 0.000000
-8.502700 0.000000
-8.481300 0.000000
-8.459900 0.000000
-8.438600 0.000000
-8.417200 0.000000
-8.395800 0.000000
-8.374400 0.000000
-8.353000 0.000000
-8.331600 0.000000
-8.310200 0.000000
-8.288900 0.000000
-8.267500 0.000000
-8.246100 0.000000
-8.224700 0.000000
-8.203300 0.000000
-8.181900 0.000000
-8.160600 0.000000
-8.139200 0.000000
-8.117800 0.000000
-8.096400 0.000000
-8.075000 0.000000
-8.053600 0.000000
-8.032200 0.000000
-8.010900 0.000000
-7.989500 0.000000
-7.968100 0.000000
-7.946700 0.000000
-7.925300 0.000000
-7.903900 0.000000
-7.882500 0.000000
-7.861200 0.000000
-7.839800 0.000000
-7.818400 0.000000
-7.797000 0.000000
-7.775600 0.000000
-7.754200 0.000000
-7.732900 0.000000
-7.711500 0.000000
-7.690100 0.000000
-7.668700 0.000000
-7.647300 0.000000
-7.625900 0.000000
-7.604500 0.000000
-7.583200 0.000000
-7.561800 0.000000
-7.540400 0.000000
-7.519000 0.000000
-7.497600 0.000000
-7.476200 0.142500
-7.454900 1.427900
-7.433500 1.268200
-7.412100 1.307300
-7.390700 1.348400
-7.369300 1.400600
-7.347900 1.465100
-7.326500 1.542200
-7.305200 1.628600
-7.283800 2.011300
-7.262400 2.484300
-7.241000 2.931300
-7.219600 3.593300
-7.198200 4.530600
-7.176800 5.505800
-7.155500 6.790900
-7.134100 7.744000
-7.112700 7.715300
-7.091300 8.076200
-7.069900 6.897700
-7.048500 6.012400
-7.027200 5.370700
-7.005800 4.923500
-6.984400 4.508700
-6.963000 3.961500
-6.941600 2.962700
-6.920200 1.907300
-6.898800 1.333100
-6.877500 1.662500
-6.856100 2.038800
-6.834700 2.407100
-6.813300 2.112500
-6.791900 2.059100
-6.770500 2.027500
-6.749200 2.134100
-6.727800 2.298600
-6.706400 2.515100
-6.685000 2.905800
-6.663600 9.671900
-6.642200 16.516900
-6.620800 10.915700
-6.599500 6.539300
-6.578100 6.096900
-6.556700 5.794800
-6.535300 5.691300
-6.513900 9.544300
-6.492500 8.677200
-6.471200 3.966000
-6.449800 1.556900
-6.428400 1.986800
-6.407000 2.442100
-6.385600 3.553500
-6.364200 2.453700
-6.342800 2.027600
-6.321500 1.808200
-6.300100 1.670800
-6.278700 1.556400
-6.257300 1.453800
-6.235900 1.397500
-6.214500 1.324000
-6.193100 1.126200
-6.171800 0.681900
-6.150400 0.101600
-6.129000 0.000000
-6.107600 0.000000
-6.086200 0.000000
-6.064800 0.000000
-6.043500 0.000000
-6.022100 0.000000
-6.000700 0.000000
-5.979300 0.000000
-5.957900 0.000000
-5.936500 0.000000
-5.915100 0.000000
-5.893800 0.000000
-5.872400 0.000000
-5.851000 0.000000
-5.829600 0.000000
-5.808200 0.000000
-5.786800 0.000000
-5.765500 0.000000
-5.744100 0.000000
-5.722700 0.000000
-5.701300 0.000000
-5.679900 0.000000
-5.658500 0.000000
-5.637100 0.000000
-5.615800 0.000000
-5.594400 0.000000
-5.573000 0.000000
-5.551600 0.000000
-5.530200 0.000000
-5.508800 0.000000
-5.487500 0.000000
-5.466100 0.000000
-5.444700 0.000000
-5.423300 0.000000
-5.401900 0.000000
-5.380500 0.000000
-5.359100 0.000000
-5.337800 0.000000
-5.316400 0.000000
-5.295000 0.000000
-5.273600 0.000000
-5.252200 0.000000
-5.230800 0.000000
-5.209400 0.000000
-5.188100 0.000000
-5.166700 0.000000
-5.145300 0.000000
-5.123900 0.000000
-5.102500 0.000000
-5.081100 0.000000
-5.059800 0.000000
-5.038400 0.000000
-5.017000 0.000000
-4.995600 0.000000
-4.974200 0.000000
-4.952800 0.000000
-4.931400 0.000000
-4.910100 0.000000
-4.888700 0.000000
-4.867300 0.000000
-4.845900 0.000000
-4.824500 0.000000
-4.803100 0.000000
-4.781800 0.000000
-4.760400 0.000000
-4.739000 0.000000
-4.717600 0.000000
-4.696200 0.000000
-4.674800 0.000000
-4.653400 0.000000
-4.632100 0.000000
-4.610700 0.000000
-4.589300 0.000000
-4.567900 0.000000
-4.546500 0.000000
-4.525100 0.000000
-4.503700 0.000000
-4.482400 0.000000
-4.461000 0.000000
-4.439600 0.000000
-4.418200 0.000000
-4.396800 0.000000
-4.375400 0.000000
-4.354100 0.000000
-4.332700 0.000000
-4.311300 0.000000
-4.289900 0.000000
-4.268500 0.000000
-4.247100 0.000000
-4.225700 0.000000
-4.204400 0.000000
-4.183000 0.000000
-4.161600 0.000000
-4.140200 0.000000
-4.118800 0.000000
-4.097400 0.000000
-4.076100 0.000000
-4.054700 0.006100
-4.033300 0.053300
-4.011900 0.101200
-3.990500 0.110300
-3.969100 0.136500
-3.947700 0.157300
-3.926400 0.178600
-3.905000 0.198200
-3.883600 0.214100
-3.862200 0.231300
-3.840800 0.248200
-3.819400 0.268100
-3.798100 0.288900
-3.776700 0.310400
-3.755300 0.334700
-3.733900 0.359100
-3.712500 0.383600
-3.691100 0.408800
-3.669700 0.435600
-3.648400 0.468600
-3.627000 0.504700
-3.605600 0.553300
-3.584200 0.614600
-3.562800 0.686500
-3.541400 0.764600
-3.520000 0.863500
-3.498700 1.125300
-3.477300 1.437600
-3.455900 1.365400
-3.434500 1.334400
-3.413100 1.287800
-3.391700 1.306500
-3.370400 1.348800
-3.349000 1.847000
-3.327600 1.447900
-3.306200 1.179000
-3.284800 1.044600
-3.263400 0.956300
-3.242000 0.845200
-3.220700 0.817600
-3.199300 0.797600
-3.177900 0.775300
-3.156500 0.746300
-3.135100 0.713400
-3.113700 0.689500
-3.092400 0.682500
-3.071000 0.680700
-3.049600 0.683200
-3.028200 0.674900
-3.006800 0.659300
-2.985400 0.649200
-2.964000 0.643600
-2.942700 0.642500
-2.921300 0.642800
-2.899900 0.645300
-2.878500 0.651000
-2.857100 0.660600
-2.835700 0.669000
-2.814400 0.669500
-2.793000 0.674300
-2.771600 0.683100
-2.750200 0.696600
-2.728800 0.712800
-2.707400 0.732500
-2.686000 0.754000
-2.664700 0.778300
-2.643300 0.809000
-2.621900 0.853700
-2.600500 0.894800
-2.579100 0.933100
-2.557700 0.910200
-2.536300 0.910700
-2.515000 0.912700
-2.493600 0.914100
-2.472200 0.915100
-2.450800 0.913900
-2.429400 0.939200
-2.408000 0.986600
-2.386700 1.012900
-2.365300 1.021600
-2.343900 1.046400
-2.322500 1.070400
-2.301100 1.099300
-2.279700 1.135000
-2.258300 1.166200
-2.237000 1.191700
-2.215600 1.242000
-2.194200 1.367100
-2.172800 1.447600
-2.151400 1.532700
-2.130000 1.674900
-2.108700 1.859700
-2.087300 2.039600
-2.065900 2.231000
-2.044500 2.133300
-2.023100 1.901100
-2.001700 1.804700
-1.980300 1.730100
-1.959000 1.629000
-1.937600 1.582600
-1.916200 1.552300
-1.894800 1.540700
-1.873400 1.535100
-1.852000 1.533400
-1.830600 1.539600
-1.809300 1.525900
-1.787900 1.524800
-1.766500 1.553400
-1.745100 1.542800
-1.723700 1.514100
-1.702300 1.513400
-1.681000 1.525700
-1.659600 1.630500
-1.638200 1.690600
-1.616800 1.716500
-1.595400 1.510000
-1.574000 1.274200
-1.552600 1.228400
-1.531300 1.167400
-1.509900 1.128300
-1.488500 1.095100
-1.467100 1.082700
-1.445700 1.070300
-1.424300 1.052200
-1.403000 1.035400
-1.381600 1.023300
-1.360200 1.007500
-1.338800 0.998500
-1.317400 1.002300
-1.296000 1.007100
-1.274600 1.019600
-1.253300 1.030900
-1.231900 1.104700
-1.210500 1.274600
-1.189100 1.319300
-1.167700 1.342700
-1.146300 1.330100
-1.125000 1.332200
-1.103600 1.333200
-1.082200 1.347700
-1.060800 1.378700
-1.039400 1.431700
-1.018000 1.531300
-0.996600 1.720300
-0.975300 1.878000
-0.953900 1.953200
-0.932500 1.824700
-0.911100 1.761400
-0.889700 1.541900
-0.868300 1.428300
-0.846900 1.355500
-0.825600 1.307300
-0.804200 1.269800
-0.782800 1.233200
-0.761400 1.197800
-0.740000 1.156400
-0.718600 1.168700
-0.697300 1.233800
-0.675900 1.257900
-0.654500 1.253400
-0.633100 1.270100
-0.611700 1.294700
-0.590300 1.237000
-0.568900 1.112900
-0.547600 1.060900
-0.526200 0.980500
-0.504800 0.928300
-0.483400 0.895300
-0.462000 0.865800
-0.440600 0.827400
-0.419300 0.824900
-0.397900 0.832000
-0.376500 0.855600
-0.355100 0.930400
-0.333700 1.150400
-0.312300 1.133600
-0.290900 1.151600
-0.269600 1.175500
-0.248200 1.190400
-0.226800 1.215200
-0.205400 1.265200
-0.184000 1.252700
-0.162600 1.313400
-0.141300 1.386400
-0.119900 1.457300
-0.098500 1.543000
-0.077100 1.619700
-0.055700 1.708100
-0.034300 1.786000
-0.012900 1.827700
0.008400 1.885000
0.029800 1.993700
0.051200 2.058300
0.072600 2.113200
0.094000 2.251600
0.115400 2.494200
0.136800 2.475000
0.158100 2.281200
0.179500 2.249100
0.200900 2.227800
0.222300 2.171900
0.243700 2.226000
0.265100 2.312700
0.286400 2.455400
0.307800 2.618900
0.329200 2.750000
0.350600 2.878000
0.372000 2.758800
0.393400 2.868700
0.414800 3.155300
0.436100 3.107900
0.457500 3.064200
0.478900 3.030400
0.500300 3.095700
0.521700 3.121600
0.543100 2.446200
0.564400 2.175400
0.585800 1.750100
0.607200 1.485900
0.628600 1.312000
0.650000 1.143500
0.671400 0.829000
0.692800 0.256300
0.714100 0.000000
0.735500 0.000000
0.756900 0.000000
0.778300 0.000000
0.799700 0.000000
0.821100 0.000000
0.842500 0.000000
0.863800 0.000000
0.885200 0.000000
0.906600 0.000000
0.928000 0.000000
0.949400 0.000000
0.970800 0.000000
0.992100 0.000000
1.013500 0.000000
1.034900 0.000000
1.056300 0.000000
1.077700 0.000000
1.099100 0.000000
1.120500 0.000000
1.141800 0.000000
1.163200 0.000000
1.184600 0.000000
1.206000 0.000000
1.227400 0.000000
1.248800 0.000000
1.270100 0.000000
1.291500 0.000000
1.312900 0.000000
1.334300 0.000000
1.355700 0.000000
1.377100 0.000000
1.398500 0.000000
1.419800 0.000000
1.441200 0.000000
1.462600 0.000000
1.484000 0.000000
1.505400 0.000000
1.526800 0.000000
1.548100 0.000000
1.569500 0.000000
1.590900 0.000000
1.612300 0.000000
1.633700 0.000000
1.655100 0.000000
1.676500 0.000000
1.697800 0.000000
1.719200 0.000000
1.740600 0.000000
1.762000 0.000000
1.783400 0.000000
1.804800 0.000000
1.826200 0.000000
1.847500 0.000000
1.868900 0.000000
1.890300 0.000000
1.911700 0.000000
1.933100 0.000000
1.954500 0.000000
1.975800 0.000000
1.997200 0.000000
2.018600 0.000000
2.040000 0.000000
2.061400 0.000000
2.082800 0.000000
2.104200 0.000000
2.125500 0.000000
2.146900 0.000000
2.168300 0.000000
2.189700 0.000000
2.211100 0.000000
2.232500 0.000000
2.253800 0.000000
2.275200 0.000000
2.296600 0.000000
2.318000 0.000000
2.339400 0.000000
2.360800 0.000000
2.382200 0.000000
2.403500 0.000000
2.424900 0.000000
2.446300 0.000000
2.467700 0.000000
2.489100 0.000000
2.510500 0.000000
2.531800 0.000000
2.553200 0.000000
2.574600 0.000000
2.596000 0.000000
2.617400 0.000000
2.638800 0.000000
2.660200 0.000000
2.681500 0.000000
2.702900 0.000000
2.724300 0.000000
2.745700 0.000000
2.767100 0.000000
2.788500 0.000000
2.809900 0.000000
2.831200 0.000000
2.852600 0.000000
2.874000 0.000000
2.895400 0.000000
2.916800 0.000000
2.938200 0.000000
2.959500 0.000000
2.980900 0.000000
3.002300 0.000000
3.023700 0.000000
3.045100 0.000000
3.066500 0.000000
3.087900 0.000000
3.109200 0.000400
3.130600 0.001300
3.152000 0.002600
3.173400 0.004400
3.194800 0.006600
3.216200 0.009200
3.237500 0.011800
3.258900 0.012800
3.280300 0.013600
3.301700 0.014000
3.323100 0.014200
3.344500 0.014800
3.365900 0.015900
3.387200 0.017000
3.408600 0.018200
3.430000 0.019300
3.451400 0.020500
3.472800 0.021700
3.494200 0.022900
3.515600 0.024000
3.536900 0.025100
3.558300 0.026000
3.579700 0.026700
3.601100 0.027600
3.622500 0.028500
3.643900 0.029400
3.665200 0.030300
3.686600 0.031200
3.708000 0.032100
3.729400 0.033100
3.750800 0.034100
3.772200 0.035100
3.793600 0.036100
3.814900 0.037100
3.836300 0.038100
3.857700 0.039200
3.879100 0.040300
3.900500 0.041500
3.921900 0.042600
3.943200 0.043800
3.964600 0.045000
3.986000 0.046200
4.007400 0.047400
4.028800 0.048500
4.050200 0.049500
4.071600 0.050600
4.092900 0.051700
4.114300 0.052800
4.135700 0.053900
4.157100 0.055000
4.178500 0.056200
4.199900 0.057400
4.221200 0.058800
4.242600 0.060200
4.264000 0.061500
4.285400 0.062900
4.306800 0.064200
4.328200 0.065600
4.349600 0.066900
4.370900 0.068200
4.392300 0.069600
4.413700 0.070900
4.435100 0.072200
4.456500 0.073600
4.477900 0.075000
4.499300 0.076300
4.520600 0.077900
4.542000 0.079500
4.563400 0.081100
4.584800 0.082800
4.606200 0.084400
4.627600 0.086100
4.648900 0.087700
4.670300 0.089400
4.691700 0.091100
4.713100 0.092800
4.734500 0.094400
4.755900 0.096200
4.777300 0.097900
4.798600 0.099600
4.820000 0.101300
4.841400 0.103100
4.862800 0.105100
4.884200 0.107100
4.905600 0.109100
4.926900 0.111200
4.948300 0.113300
4.969700 0.115400
4.991100 0.117400
5.012500 0.119500
5.033900 0.121500
5.055300 0.123600
5.076600 0.125600
5.098000 0.127800
5.119400 0.130100
5.140800 0.132300
5.162200 0.134700
5.183600 0.137600
5.204900 0.140900
5.226300 0.144000
5.247700 0.147100
5.269100 0.150200
5.290500 0.153400
5.311900 0.156600
5.333300 0.159800
5.354600 0.163100
5.376000 0.166300
5.397400 0.169500
5.418800 0.172800
5.440200 0.176100
5.461600 0.183500
5.483000 0.196500
5.504300 0.195000
5.525700 0.197800
5.547100 0.200500
5.568500 0.203200
5.589900 0.205700
5.611300 0.206800
5.632600 0.207200
5.654000 0.208300
5.675400 0.210500
5.696800 0.212800
5.718200 0.215000
5.739600 0.217100
5.761000 0.219200
5.782300 0.220900
5.803700 0.222700
5.825100 0.224900
5.846500 0.227200
5.867900 0.229400
5.889300 0.231700
5.910600 0.233900
5.932000 0.236100
5.953400 0.238300
5.974800 0.240500
5.996200 0.242600
6.017600 0.244300
6.039000 0.246200
6.060300 0.248500
6.081700 0.250900
6.103100 0.253300
6.124500 0.255700
6.145900 0.258000
6.167300 0.260400
6.188700 0.263000
6.210000 0.266700
6.231400 0.270200
6.252800 0.273900
6.274200 0.277400
6.295600 0.280600
6.317000 0.284200
6.338300 0.287800
6.359700 0.291600
6.381100 0.295500
6.402500 0.299400
6.423900 0.303400
6.445300 0.307300
6.466700 0.311200
6.488000 0.315100
6.509400 0.319100
6.530800 0.323100
6.552200 0.327200
6.573600 0.331200
6.595000 0.335300
6.616300 0.339600
6.637700 0.343900
6.659100 0.348900
6.680500 0.359300
6.701900 0.374700
6.723300 0.391400
6.744700 0.398700
6.766000 0.409700
6.787400 0.421000
6.808800 0.432900
6.830200 0.445100
6.851600 0.457700
6.873000 0.470300
6.894300 0.482900
6.915700 0.496200
6.937100 0.510700
6.958500 0.526000
6.979900 0.542600
7.001300 0.560500
7.022700 0.579900
7.044000 0.617300
7.065400 0.662500
7.086800 0.717500
7.108200 0.830200
7.129600 0.899800
7.151000 0.863800
7.172400 0.846500
7.193700 0.827700
7.215100 0.816900
7.236500 0.827000
7.257900 0.812800
7.279300 0.820500
7.300700 0.809100
7.322000 0.718500
7.343400 0.689800
7.364800 0.666800
7.386200 0.648600
7.407600 0.656800
7.429000 0.581000
7.450400 0.509600
7.471700 0.469100
7.493100 0.438700
7.514500 0.409400
7.535900 0.385300
7.557300 0.365200
7.578700 0.344100
7.600000 0.329400
7.621400 0.317200
7.642800 0.306900
7.664200 0.297100
7.685600 0.287300
7.707000 0.279000
7.728400 0.269900
7.749700 0.261000
7.771100 0.253300
7.792500 0.247800
7.813900 0.242400
7.835300 0.236000
7.856700 0.238500
7.878000 0.228800
7.899400 0.216700
7.920800 0.210800
7.942200 0.219000
7.963600 0.229700
7.985000 0.248400
8.006400 0.276500
8.027700 0.338100
8.049100 0.364500
8.070500 0.374000
8.091900 0.362100
8.113300 0.374700
8.134700 0.384800
8.156100 0.390500
8.177400 0.392300
8.198800 0.387800
8.220200 0.389100
8.241600 0.389100
8.263000 0.385200
8.284400 0.385800
8.305700 0.387700
8.327100 0.389500
8.348500 0.391000
8.369900 0.391800
8.391300 0.392400
8.412700 0.392700
8.434100 0.392800
8.455400 0.392500
8.476800 0.392600
8.498200 0.393300
8.519600 0.394200
8.541000 0.395300
8.562400 0.396100
8.583700 0.397200
8.605100 0.399500
8.626500 0.401800
8.647900 0.404000
8.669300 0.406200
8.690700 0.408200
8.712100 0.409900
8.733400 0.411700
8.754800 0.420300
8.776200 0.430200
8.797600 0.448600
8.819000 0.486400
8.840400 0.514600
8.861800 0.532500
8.883100 0.533500
8.904500 0.519200
8.925900 0.512200
8.947300 0.515900
8.968700 0.507300
8.990100 0.498900
9.011400 0.490500
9.032800 0.487700
9.054200 0.484600
9.075600 0.480400
9.097000 0.474200
9.118400 0.467300
9.139800 0.460700
9.161100 0.454800
9.182500 0.449800
9.203900 0.446100
9.225300 0.444100
9.246700 0.442500
9.268100 0.441100
9.289400 0.439400
9.310800 0.437700
9.332200 0.435700
9.353600 0.433200
9.375000 0.431700
9.396400 0.430700
9.417800 0.427300
9.439100 0.423600
9.460500 0.420500
9.481900 0.418100
9.503300 0.416400
9.524700 0.415400
9.546100 0.415000
9.567400 0.414900
9.588800 0.414900
9.610200 0.416600
9.631600 0.416000
9.653000 0.415100
9.674400 0.414700
9.695800 0.418700
9.717100 0.427200
9.738500 0.437900
9.759900 0.471500
9.781300 0.495900
9.802700 0.493200
9.824100 0.449800
9.845500 0.399400
9.866800 0.378100
9.888200 0.363300
9.909600 0.346200
9.931000 0.324200
9.952400 0.303600
9.973800 0.282900
9.995100 0.261100
10.016500 0.228400
10.037900 0.194700
10.059300 0.165500
10.080700 0.140600
10.102100 0.122000
10.123500 0.107200
10.144800 0.092700
10.166200 0.077600
10.187600 0.068000
10.209000 0.060300
10.230400 0.057300
10.251800 0.056500
10.273100 0.057200
10.294500 0.060100
10.315900 0.066700
10.337300 0.078100
10.358700 0.108400
10.380100 0.166000
10.401500 0.227000
10.422800 0.278300
10.444200 0.338700
10.465600 0.390100
10.487000 0.457800
10.508400 0.536900
10.529800 0.679200
10.551100 0.872200
10.572500 1.098500
10.593900 1.289400
10.615300 1.489700
10.636700 1.513900
10.658100 1.283100
10.679500 1.141600
10.700800 1.110300
10.722200 1.078600
10.743600 1.073900
10.765000 1.079500
10.786400 1.091100
10.807800 1.306500
10.829200 1.173900
10.850500 1.078800
10.871900 0.978300
10.893300 0.927300
10.914700 0.928800
10.936100 0.825900
10.957500 0.717600
10.978800 0.656900
11.000200 0.628100
11.021600 0.600200
11.043000 0.574000
11.064400 0.549800
11.085800 0.530000
11.107200 0.512400
11.128500 0.497800
11.149900 0.496200
11.171300 0.486500
11.192700 0.473400
11.214100 0.462900
11.235500 0.452100
11.256800 0.441300
11.278200 0.431100
11.299600 0.421200
11.321000 0.415200
11.342400 0.448700
11.363800 0.413200
11.385200 0.407600
11.406500 0.404000
11.427900 0.401500
11.449300 0.399400
11.470700 0.398400
11.492100 0.397900
11.513500 0.397400
11.534900 0.397200
11.556200 0.397200
11.577600 0.397700
11.599000 0.398200
11.620400 0.393800
11.641800 0.379600
11.663200 0.366400
11.684500 0.360200
11.705900 0.355800
11.727300 0.352900
11.748700 0.351600
11.770100 0.352000
11.791500 0.353700
11.812900 0.355600
11.834200 0.359100
11.855600 0.359300
11.877000 0.360900
11.898400 0.363300
11.919800 0.367700
11.941200 0.371200
11.962500 0.374400
11.983900 0.375500
12.005300 0.381800
12.026700 0.391500
12.048100 0.398200
12.069500 0.396700
12.090900 0.390700
12.112200 0.389200
12.133600 0.391500
12.155000 0.394800
12.176400 0.398800
12.197800 0.403300
12.219200 0.408000
12.240500 0.413200
12.261900 0.420900
12.283300 0.429500
12.304700 0.438700
12.326100 0.449500
12.347500 0.461800
12.368900 0.473600
12.390200 0.486000
12.411600 0.496800
12.433000 0.506900
12.454400 0.517200
12.475800 0.528500
12.497200 0.554900
12.518600 0.589700
12.539900 0.605400
12.561300 0.621500
12.582700 0.639700
12.604100 0.654700
12.625500 0.667400
12.646900 0.674100
12.668200 0.675000
12.689600 0.676600
12.711000 0.681300
12.732400 0.690900
12.753800 0.712200
12.775200 0.728300
12.796600 0.745900
12.817900 0.764000
12.839300 0.777700
12.860700 0.794700
12.882100 0.913200
12.903500 1.183500
12.924900 0.999000
12.946200 0.830600
12.967600 0.696100
12.989000 0.667200
13.010400 0.644000
13.031800 0.617800
13.053200 0.582500
13.074600 0.545700
13.095900 0.509500
13.117300 0.493200
13.138700 0.482400
13.160100 0.473200
13.181500 0.464200
13.202900 0.456100
13.224200 0.446900
13.245600 0.433600
13.267000 0.418500
13.288400 0.434800
13.309800 0.518600
13.331200 0.535700
13.352600 0.566700
13.373900 0.608400
13.395300 0.671500
13.416700 0.719500
13.438100 0.745700
13.459500 0.759300
13.480900 0.840000
13.502300 1.007900
13.523600 1.059800
13.545000 1.079800
13.566400 1.080800
13.587800 1.014300
13.609200 0.886300
13.630600 0.831100
13.651900 0.772600
13.673300 0.722600
13.694700 0.682600
13.716100 0.644700
13.737500 0.608700
13.758900 0.574200
13.780300 0.537100
13.801600 0.505100
13.823000 0.487400
13.844400 0.481500
13.865800 0.482900
13.887200 0.489300
13.908600 0.500000
13.929900 0.519400
13.951300 0.546900
13.972700 0.585600
13.994100 0.635600
14.015500 0.699100
14.036900 0.795100
14.058300 0.928000
14.079600 1.102200
14.101000 1.270700
14.122400 1.390700
14.143800 1.463800
14.165200 1.519900
14.186600 1.556400
14.208000 1.582400
14.229300 1.603000
14.250700 1.614400
14.272100 1.651700
14.293500 1.649900
14.314900 1.623600
14.336300 1.569300
14.357600 1.528900
14.379000 1.386200
14.400400 1.297500
14.421800 1.244600
14.443200 1.198100
14.464600 1.091700
14.486000 1.064500
14.507300 1.022500
14.528700 0.859400
14.550100 0.661200
14.571500 0.588500
14.592900 0.502600
14.614300 0.442600
14.635600 0.395000
14.657000 0.372800
14.678400 0.356300
14.699800 0.342400
14.721200 0.330500
14.742600 0.320300
14.764000 0.310900
14.785300 0.302800
14.806700 0.295400
14.828100 0.288400
14.849500 0.286400
14.870900 0.284700
14.892300 0.283300
14.913600 0.282700
14.935000 0.282800
14.956400 0.285200
14.977800 0.294200
14.999200 0.301600
15.020600 0.286200
15.042000 0.293400
15.063300 0.295500
15.084700 0.293800
15.106100 0.291700
15.127500 0.289200
15.148900 0.290400
15.170300 0.294100
15.191700 0.298300
15.213000 0.302900
15.234400 0.308700
15.255800 0.315200
15.277200 0.322300
15.298600 0.330100
15.320000 0.339600
15.341300 0.350700
15.362700 0.366800
15.384100 0.385200
15.405500 0.404600
15.426900 0.428500
15.448300 0.453500
15.469700 0.496000
15.491000 0.558500
15.512400 0.574100
15.533800 0.469000
15.555200 0.436700
15.576600 0.415100
15.598000 0.402200
15.619300 0.389900
15.640700 0.381000
15.662100 0.374700
15.683500 0.369000
15.704900 0.360700
15.726300 0.354800
15.747700 0.350700
15.769000 0.347700
15.790400 0.345900
15.811800 0.344700
15.833200 0.344500
15.854600 0.345800
15.876000 0.347500
15.897300 0.349500
15.918700 0.351800
15.940100 0.354400
15.961500 0.357800
15.982900 0.362200
16.004300 0.366800
16.025700 0.371900
16.047000 0.377400
16.068400 0.384400
16.089800 0.407300
16.111200 0.438400
16.132600 0.454600
16.154000 0.482100
16.175400 0.501000
16.196700 0.484900
16.218100 0.494500
16.239500 0.501600
16.260900 0.503700
16.282300 0.504800
16.303700 0.508500
16.325000 0.512600
16.346400 0.517600
16.367800 0.523600
16.389200 0.529800
16.410600 0.536900
16.432000 0.545800
16.453400 0.555600
16.474700 0.566000
16.496100 0.576600
16.517500 0.587900
16.538900 0.600000
16.560300 0.642400
16.581700 0.739200
16.603000 0.706600
16.624400 0.683300
16.645800 0.697400
16.667200 0.705100
16.688600 0.726800
16.710000 0.717100
16.731400 0.709500
16.752700 0.726800
16.774100 0.736900
16.795500 0.748100
16.816900 0.757400
16.838300 0.766800
16.859700 0.775600
16.881100 0.786600
16.902400 0.799800
16.923800 0.821800
16.945200 0.829800
16.966600 0.831000
16.988000 0.838700
17.009400 0.849300
17.030700 0.866300
17.052100 0.883400
17.073500 0.903600
17.094900 0.945900
17.116300 0.946200
17.137700 1.031500
17.159100 1.003300
17.180400 0.863100
17.201800 0.748400
17.223200 0.682500
17.244600 0.635900
17.266000 0.608000
17.287400 0.589300
17.308700 0.571400
17.330100 0.556300
17.351500 0.555000
17.372900 0.628000
17.394300 0.650800
17.415700 0.752900
17.437100 0.735800
17.458400 0.746700
17.479800 0.750200
17.501200 0.750100
17.522600 0.753200
17.544000 0.723000
17.565400 0.708900
17.586700 0.696700
17.608100 0.701300
17.629500 0.700900
17.650900 0.687400
17.672300 0.660900
17.693700 0.644800
17.715100 0.652300
17.736400 0.658100
17.757800 0.663000
17.779200 0.667100
17.800600 0.671900
17.822000 0.682800
17.843400 0.655300
17.864800 0.634100
17.886100 0.598700
17.907500 0.559800
17.928900 0.547900
17.950300 0.542500
17.971700 0.523400
17.993100 0.486600
18.014400 0.452100
18.035800 0.426200
18.057200 0.400700
18.078600 0.372900
18.100000 0.350500
18.121400 0.331200
18.142800 0.315600
18.164100 0.301400
18.185500 0.286100
18.206900 0.277500
18.228300 0.269200
18.249700 0.261000
18.271100 0.252900
18.292400 0.244800
18.313800 0.236600
18.335200 0.228300
18.356600 0.219300
18.378000 0.213500
18.399400 0.207900
18.420800 0.205400
18.442100 0.203700
18.463500 0.202100
18.484900 0.200300
18.506300 0.198400
18.527700 0.196100
18.549100 0.193600
18.570400 0.191100
18.591800 0.188500
18.613200 0.185900
18.634600 0.183200
18.656000 0.178900
18.677400 0.171300
18.698800 0.163600
18.720100 0.159000
18.741500 0.157200
18.762900 0.154800
18.784300 0.150700
18.805700 0.145000
18.827100 0.137700
18.848500 0.128000
18.869800 0.119200
18.891200 0.111900
18.912600 0.106100
18.934000 0.100900
18.955400 0.095800
18.976800 0.090600
18.998100 0.085100
19.019500 0.079900
19.040900 0.075500
19.062300 0.071700
19.083700 0.068100
19.105100 0.064200
19.126500 0.060200
19.147800 0.056000
19.169200 0.051900
19.190600 0.048900
19.212000 0.046200
19.233400 0.043700
19.254800 0.041600
19.276100 0.040000
19.297500 0.038700
19.318900 0.037800
19.340300 0.037000
19.361700 0.036200
19.383100 0.035500
19.404500 0.034800
19.425800 0.034200
19.447200 0.033500
19.468600 0.032800
19.490000 0.032100
19.511400 0.031300
19.532800 0.030500
19.554200 0.029700
19.575500 0.028800
19.596900 0.028000
19.618300 0.027100
19.639700 0.026200
19.661100 0.025400
19.682500 0.024600
19.703800 0.023800
19.725200 0.023100
19.746600 0.022400
19.768000 0.022100
19.789400 0.021500
19.810800 0.020800
19.832200 0.020100
19.853500 0.019500
19.874900 0.018800
19.896300 0.018200
19.917700 0.017700
19.939100 0.017100
19.960500 0.016500
19.981800 0.015900
20.003200 0.015300
20.024600 0.014700
20.046000 0.014200
20.067400 0.013600
20.088800 0.013000
20.110200 0.012500
20.131500 0.011900
20.152900 0.011400
20.174300 0.010900
20.195700 0.010300
20.217100 0.009800
20.238500 0.009500
20.259800 0.009500
20.281200 0.009600
20.302600 0.009700
20.324000 0.009900
20.345400 0.010200
20.366800 0.009700
20.388200 0.008200
20.409500 0.006700
20.430900 0.005400
20.452300 0.004100
20.473700 0.003000
20.495100 0.001900
20.516500 0.000900
20.537900 0.000100
20.559200 0.000000
20.580600 0.000000
20.602000 0.000000
20.623400 0.000000
20.644800 0.000000
20.666200 0.000000
20.687500 0.000000
20.708900 0.000000
20.730300 0.000000
20.751700 0.000000
20.773100 0.000000
20.794500 0.000000
20.815900 0.000000
20.837200 0.000000
20.858600 0.000000
20.880000 0.000000
20.901400 0.000000
20.922800 0.000000
20.944200 0.000000
20.965500 0.000000
20.986900 0.000000
21.008300 0.000000
21.029700 0.000000
21.051100 0.000000
21.072500 0.000000
21.093900 0.000000
21.115200 0.000000
21.136600 0.000000
21.158000 0.000000
21.179400 0.000000
21.200800 0.000000
21.222200 0.000000
21.243500 0.000000
21.264900 0.000000
21.286300 0.000000
21.307700 0.000000
21.329100 0.000000
21.350500 0.000000
21.371900 0.000000
21.393200 0.000000
21.414600 0.000000
21.436000 0.000000
21.457400 0.000000
21.478800 0.000000
21.500200 0.000000
21.521600 0.000000
21.542900 0.000000
21.564300 0.000000
21.585700 0.000000
21.607100 0.000000
21.628500 0.000000
21.649900 0.000000
21.671200 0.000000
21.692600 0.000000
21.714000 0.000000
21.735400 0.000000
21.756800 0.000000
21.778200 0.000000
21.799600 0.000000
21.820900 0.000000
21.842300 0.000000
21.863700 0.000000
21.885100 0.000000
21.906500 0.000000
21.927900 0.000000
21.949200 0.000000
21.970600 0.000000
21.992000 0.000000
22.013400 0.000000
22.034800 0.000000
22.056200 0.000000
22.077600 0.000000
22.098900 0.000000
22.120300 0.000000
22.141700 0.000000
22.163100 0.000000
22.184500 0.000000
22.205900 0.000000
22.227300 0.000000
22.248600 0.000000
22.270000 0.000000
22.291400 0.000000
22.312800 0.000000
22.334200 0.000000
22.355600 0.000000
22.376900 0.000000
22.398300 0.000000
22.419700 0.000000
22.441100 0.000000
22.462500 0.000000
22.483900 0.000000
e
