set title 'mp-1401938 - Density of States'
set xlabel 'Energy (eV)'
set ylabel 'DOS (states/eV)'
set grid
set xrange [-10:10]
set yrange [0:27.019]
set xzeroaxis lt -1
set terminal png size 800,600
set output 'mp-1401938_dos_gnuplot.png'
plot '-' using 1:2 with lines title 'DOS'
-24.536800 0.000000
-24.510200 0.000000
-24.483500 0.000000
-24.456800 0.000000
-24.430100 0.000000
-24.403400 0.000000
-24.376800 0.000000
-24.350100 0.000000
-24.323400 0.000000
-24.296700 0.000000
-24.270100 0.000000
-24.243400 0.000000
-24.216700 0.000000
-24.190000 0.000000
-24.163400 0.000000
-24.136700 0.000000
-24.110000 0.000000
-24.083300 0.000000
-24.056600 0.000000
-24.030000 0.000000
-24.003300 0.000000
-23.976600 0.000000
-23.949900 0.000000
-23.923300 0.000000
-23.896600 0.000000
-23.869900 0.000000
-23.843200 0.000000
-23.816600 0.000000
-23.789900 0.000000
-23.763200 0.000000
-23.736500 0.000000
-23.709800 0.000000
-23.683200 0.000000
-23.656500 0.000000
-23.629800 0.000000
-23.603100 0.000000
-23.576500 0.000000
-23.549800 0.000000
-23.523100 0.000000
-23.496400 0.000000
-23.469800 0.000000
-23.443100 0.000000
-23.416400 0.000000
-23.389700 0.000000
-23.363000 0.000000
-23.336400 0.000000
-23.309700 0.000000
-23.283000 0.000000
-23.256300 0.000000
-23.229700 0.000000
-23.203000 0.000000
-23.176300 0.000000
-23.149600 0.000000
-23.123000 0.000000
-23.096300 0.000000
-23.069600 0.000000
-23.042900 0.000000
-23.016200 0.000000
-22.989600 0.000000
-22.962900 0.000000
-22.936200 0.000000
-22.909500 0.000000
-22.882900 0.000000
-22.856200 0.000000
-22.829500 0.000000
-22.802800 0.000000
-22.776200 0.000000
-22.749500 0.000000
-22.722800 0.000000
-22.696100 0.000000
-22.669400 0.000000
-22.642800 0.000000
-22.616100 0.000000
-22.589400 0.000000
-22.562700 0.000000
-22.536100 0.000000
-22.509400 0.000000
-22.482700 0.000000
-22.456000 0.000000
-22.429400 0.000000
-22.402700 0.000000
-22.376000 0.000000
-22.349300 0.000000
-22.322700 0.000000
-22.296000 0.000000
-22.269300 0.000000
-22.242600 0.000000
-22.215900 0.000000
-22.189300 0.000000
-22.162600 0.000000
-22.135900 0.000000
-22.109200 0.008300
-22.082600 1.077300
-22.055900 3.668500
-22.029200 5.866500
-22.002500 6.477600
-21.975900 12.719900
-21.949200 18.359600
-21.922500 13.488500
-21.895800 10.610200
-21.869100 14.359100
-21.842500 14.843800
-21.815800 18.359900
-21.789100 22.323500
-21.762400 2.662000
-21.735800 0.158600
-21.709100 0.000000
-21.682400 20.496400
-21.655700 27.217000
-21.629100 38.135200
-21.602400 40.419900
-21.575700 13.714300
-21.549000 0.152700
-21.522300 11.628900
-21.495700 22.584900
-21.469000 18.295700
-21.442300 12.478600
-21.415600 12.470900
-21.389000 12.533300
-21.362300 12.908000
-21.335600 14.125500
-21.308900 26.464300
-21.282300 10.778800
-21.255600 1.224000
-21.228900 0.000000
-21.202200 0.963200
-21.175500 18.473400
-21.148900 16.882400
-21.122200 7.841900
-21.095500 4.912600
-21.068800 4.087300
-21.042200 3.705100
-21.015500 3.396500
-20.988800 3.161400
-20.962100 3.033600
-20.935500 4.402000
-20.908800 4.553900
-20.882100 4.760700
-20.855400 4.972900
-20.828700 4.752100
-20.802100 5.045300
-20.775400 5.445400
-20.748700 5.988500
-20.722000 6.081400
-20.695400 10.834400
-20.668700 3.782000
-20.642000 2.968700
-20.615300 2.551800
-20.588700 2.238100
-20.562000 2.071800
-20.535300 2.675400
-20.508600 1.788200
-20.481900 1.257800
-20.455300 1.083100
-20.428600 0.947900
-20.401900 0.820100
-20.375200 0.699800
-20.348600 0.586800
-20.321900 0.481300
-20.295200 0.383200
-20.268500 0.292500
-20.241900 0.209300
-20.215200 0.133400
-20.188500 0.065000
-20.161800 0.012700
-20.135200 0.000000
-20.108500 0.000000
-20.081800 0.000000
-20.055100 3.264100
-20.028400 22.110300
-20.001800 34.667000
-19.975100 97.218200
-19.948400 83.024300
-19.921700 22.598100
-19.895100 12.663500
-19.868400 11.660100
-19.841700 11.132200
-19.815000 10.559100
-19.788400 9.688600
-19.761700 9.173700
-19.735000 9.343400
-19.708300 10.026200
-19.681600 10.378600
-19.655000 10.599300
-19.628300 10.341000
-19.601600 9.070200
-19.574900 6.831400
-19.548300 5.828100
-19.521600 7.475800
-19.494900 4.080300
-19.468200 6.158500
-19.441600 16.300600
-19.414900 12.987200
-19.388200 5.877800
-19.361500 5.305800
-19.334800 4.891500
-19.308200 3.922400
-19.281500 4.070900
-19.254800 4.185600
-19.228100 4.233900
-19.201500 4.285800
-19.174800 4.341400
-19.148100 4.754500
-19.121400 4.927200
-19.094800 5.072000
-19.068100 4.070100
-19.041400 3.426800
-19.014700 6.529000
-18.988000 6.533900
-18.961400 7.083300
-18.934700 15.199600
-18.908000 19.409700
-18.881300 17.404400
-18.854700 17.192400
-18.828000 18.415400
-18.801300 20.524600
-18.774600 22.178000
-18.748000 8.613700
-18.721300 3.961200
-18.694600 2.187600
-18.667900 0.762300
-18.641200 0.000000
-18.614600 0.000000
-18.587900 0.000000
-18.561200 0.000000
-18.534500 0.000000
-18.507900 0.000000
-18.481200 0.000000
-18.454500 0.000000
-18.427800 0.000000
-18.401200 0.000000
-18.374500 0.000000
-18.347800 0.000000
-18.321100 0.000000
-18.294400 0.000000
-18.267800 0.000000
-18.241100 0.000000
-18.214400 0.000000
-18.187700 0.000000
-18.161100 0.000000
-18.134400 0.000000
-18.107700 0.000000
-18.081000 0.000000
-18.054400 0.000000
-18.027700 0.000000
-18.001000 0.000000
-17.974300 0.000000
-17.947600 0.000000
-17.921000 0.000000
-17.894300 0.000000
-17.867600 0.000000
-17.840900 0.000000
-17.814300 0.000000
-17.787600 0.000000
-17.760900 0.000000
-17.734200 0.000000
-17.707600 0.000000
-17.680900 0.000000
-17.654200 0.000000
-17.627500 0.000000
-17.600900 0.000000
-17.574200 0.000000
-17.547500 0.000000
-17.520800 0.000000
-17.494100 0.000000
-17.467500 0.000000
-17.440800 0.000000
-17.414100 0.000000
-17.387400 0.000000
-17.360800 0.000000
-17.334100 0.000000
-17.307400 0.000000
-17.280700 0.000000
-17.254100 0.000000
-17.227400 0.000000
-17.200700 0.000000
-17.174000 0.000000
-17.147300 0.000000
-17.120700 0.000000
-17.094000 0.000000
-17.067300 0.000000
-17.040600 0.000000
-17.014000 0.000000
-16.987300 0.000000
-16.960600 0.000000
-16.933900 0.000000
-16.907300 0.000000
-16.880600 0.000000
-16.853900 0.000000
-16.827200 0.000000
-16.800500 0.000000
-16.773900 0.000000
-16.747200 0.000000
-16.720500 0.000000
-16.693800 0.000000
-16.667200 0.000000
-16.640500 0.000000
-16.613800 0.000000
-16.587100 0.000000
-16.560500 0.000000
-16.533800 0.000000
-16.507100 0.000000
-16.480400 0.000000
-16.453700 0.000000
-16.427100 0.000000
-16.400400 0.000000
-16.373700 0.000000
-16.347000 0.000000
-16.320400 0.000000
-16.293700 0.000000
-16.267000 0.000000
-16.240300 0.000000
-16.213700 0.000000
-16.187000 0.000000
-16.160300 0.000000
-16.133600 0.000000
-16.106900 0.000000
-16.080300 0.000000
-16.053600 0.000000
-16.026900 0.000000
-16.000200 0.000000
-15.973600 0.000000
-15.946900 0.000000
-15.920200 0.000000
-15.893500 0.000000
-15.866900 0.000000
-15.840200 0.000000
-15.813500 0.000000
-15.786800 0.000000
-15.760100 0.000000
-15.733500 0.000000
-15.706800 0.000000
-15.680100 0.000000
-15.653400 0.000000
-15.626800 0.000000
-15.600100 0.000000
-15.573400 0.000000
-15.546700 0.000000
-15.520100 0.000000
-15.493400 0.000000
-15.466700 0.000000
-15.440000 0.000000
-15.413300 0.000000
-15.386700 0.000000
-15.360000 0.000000
-15.333300 0.000000
-15.306600 0.000000
-15.280000 0.000000
-15.253300 0.000000
-15.226600 0.000000
-15.199900 0.000000
-15.173300 0.000000
-15.146600 0.000000
-15.119900 0.000000
-15.093200 0.000000
-15.066600 0.000000
-15.039900 0.000000
-15.013200 0.000000
-14.986500 0.000000
-14.959800 0.000000
-14.933200 0.000000
-14.906500 0.000000
-14.879800 0.000000
-14.853100 0.000000
-14.826500 0.000000
-14.799800 0.000000
-14.773100 0.000000
-14.746400 0.000000
-14.719800 0.000000
-14.693100 0.000000
-14.666400 0.000000
-14.639700 0.000000
-14.613000 0.000000
-14.586400 0.000000
-14.559700 0.000000
-14.533000 0.000000
-14.506300 0.000000
-14.479700 0.000000
-14.453000 0.000000
-14.426300 0.000000
-14.399600 0.000000
-14.373000 0.000000
-14.346300 0.000000
-14.319600 0.000000
-14.292900 0.000000
-14.266200 0.000000
-14.239600 0.000000
-14.212900 0.000000
-14.186200 0.000000
-14.159500 0.000000
-14.132900 0.000000
-14.106200 0.000000
-14.079500 0.000000
-14.052800 0.000000
-14.026200 0.000000
-13.999500 0.000000
-13.972800 0.000000
-13.946100 0.000000
-13.919400 0.000000
-13.892800 0.000000
-13.866100 0.000000
-13.839400 0.000000
-13.812700 0.000000
-13.786100 0.000000
-13.759400 0.000000
-13.732700 0.000000
-13.706000 0.000000
-13.679400 0.000000
-13.652700 0.000000
-13.626000 0.000000
-13.599300 0.000000
-13.572600 0.000000
-13.546000 0.000000
-13.519300 0.000000
-13.492600 0.000000
-13.465900 0.000000
-13.439300 0.000000
-13.412600 0.000000
-13.385900 0.000000
-13.359200 0.000000
-13.332600 0.000000
-13.305900 0.000000
-13.279200 0.000000
-13.252500 0.000000
-13.225800 0.000000
-13.199200 0.000000
-13.172500 0.000000
-13.145800 0.000000
-13.119100 0.000000
-13.092500 0.000000
-13.065800 0.000000
-13.039100 0.000000
-13.012400 0.000000
-12.985800 0.000000
-12.959100 0.000000
-12.932400 0.000000
-12.905700 0.000000
-12.879000 0.000000
-12.852400 0.000000
-12.825700 0.000000
-12.799000 0.000000
-12.772300 0.000000
-12.745700 0.000000
-12.719000 0.000000
-12.692300 0.000000
-12.665600 0.000000
-12.639000 0.000000
-12.612300 0.000000
-12.585600 0.000000
-12.558900 0.000000
-12.532300 0.000000
-12.505600 0.000000
-12.478900 0.000000
-12.452200 0.000000
-12.425500 0.000000
-12.398900 0.000000
-12.372200 0.000000
-12.345500 0.000000
-12.318800 0.000000
-12.292200 0.000000
-12.265500 0.000000
-12.238800 0.000000
-12.212100 0.000000
-12.185500 0.000000
-12.158800 0.000000
-12.132100 0.000000
-12.105400 0.000000
-12.078700 0.000000
-12.052100 0.000000
-12.025400 0.000000
-11.998700 0.000000
-11.972000 0.000000
-11.945400 0.000000
-11.918700 0.000000
-11.892000 0.000000
-11.865300 0.000000
-11.838700 0.000000
-11.812000 0.000000
-11.785300 0.000000
-11.758600 0.000000
-11.731900 0.000000
-11.705300 0.000000
-11.678600 0.000000
-11.651900 0.000000
-11.625200 0.000000
-11.598600 0.000000
-11.571900 0.000000
-11.545200 0.000000
-11.518500 0.000000
-11.491900 0.000000
-11.465200 0.000000
-11.438500 0.000000
-11.411800 0.000000
-11.385100 0.000000
-11.358500 0.000000
-11.331800 0.000000
-11.305100 0.000000
-11.278400 0.000000
-11.251800 0.000000
-11.225100 0.000000
-11.198400 0.000000
-11.171700 0.000000
-11.145100 0.000000
-11.118400 0.000000
-11.091700 0.000000
-11.065000 0.000000
-11.038300 0.000000
-11.011700 0.000000
-10.985000 0.000000
-10.958300 0.000000
-10.931600 0.000000
-10.905000 0.000000
-10.878300 0.000000
-10.851600 0.000000
-10.824900 0.000000
-10.798300 0.000000
-10.771600 0.000000
-10.744900 0.000000
-10.718200 0.000000
-10.691500 0.000000
-10.664900 0.000000
-10.638200 0.000000
-10.611500 0.000000
-10.584800 0.000000
-10.558200 0.000000
-10.531500 0.000000
-10.504800 0.000000
-10.478100 0.000000
-10.451500 0.000000
-10.424800 0.000000
-10.398100 0.000000
-10.371400 0.000000
-10.344800 0.000000
-10.318100 0.000000
-10.291400 0.000000
-10.264700 0.000000
-10.238000 0.000000
-10.211400 0.000000
-10.184700 0.000000
-10.158000 0.000000
-10.131300 0.000000
-10.104700 0.000000
-10.078000 0.000000
-10.051300 0.000000
-10.024600 0.000000
-9.998000 0.000000
-9.971300 0.000000
-9.944600 0.000000
-9.917900 0.000000
-9.891200 0.000000
-9.864600 0.000000
-9.837900 0.000000
-9.811200 0.000000
-9.784500 0.000000
-9.757900 0.000000
-9.731200 0.000000
-9.704500 0.000000
-9.677800 0.000000
-9.651200 0.000000
-9.624500 0.000000
-9.597800 0.000000
-9.571100 0.000000
-9.544400 0.000000
-9.517800 0.000000
-9.491100 0.000000
-9.464400 0.000000
-9.437700 0.000000
-9.411100 0.000000
-9.384400 0.000000
-9.357700 0.000000
-9.331000 0.000000
-9.304400 0.000000
-9.277700 0.000000
-9.251000 0.000000
-9.224300 0.000000
-9.197600 0.000000
-9.171000 0.000000
-9.144300 0.000000
-9.117600 0.000000
-9.090900 0.000000
-9.064300 0.000000
-9.037600 0.000000
-9.010900 0.000000
-8.984200 0.000000
-8.957600 0.000000
-8.930900 0.000000
-8.904200 0.000000
-8.877500 0.000000
-8.850800 0.000000
-8.824200 0.000000
-8.797500 0.000000
-8.770800 0.000000
-8.744100 0.000000
-8.717500 0.000000
-8.690800 0.000000
-8.664100 0.000000
-8.637400 0.000000
-8.610800 0.000000
-8.584100 0.000000
-8.557400 0.000000
-8.530700 0.000000
-8.504000 0.000000
-8.477400 0.000000
-8.450700 0.000000
-8.424000 0.000000
-8.397300 0.000000
-8.370700 0.000000
-8.344000 0.000000
-8.317300 0.000000
-8.290600 0.000000
-8.264000 0.000000
-8.237300 0.000000
-8.210600 0.000000
-8.183900 0.000000
-8.157200 0.000000
-8.130600 0.000000
-8.103900 0.000000
-8.077200 0.000000
-8.050500 0.000000
-8.023900 0.000000
-7.997200 0.000000
-7.970500 0.000000
-7.943800 0.000000
-7.917200 0.000000
-7.890500 0.000000
-7.863800 0.000000
-7.837100 0.000000
-7.810500 0.000000
-7.783800 0.000000
-7.757100 0.001700
-7.730400 0.078000
-7.703700 0.235700
-7.677100 0.421400
-7.650400 0.607800
-7.623700 0.795000
-7.597000 0.982400
-7.570400 1.129200
-7.543700 1.221000
-7.517000 1.286400
-7.490300 1.301900
-7.463700 1.265000
-7.437000 1.216100
-7.410300 1.167200
-7.383600 1.118200
-7.356900 1.073600
-7.330300 1.061400
-7.303600 1.085100
-7.276900 1.113100
-7.250200 1.141400
-7.223600 1.170000
-7.196900 1.198800
-7.170200 1.227900
-7.143500 1.256800
-7.116900 1.277200
-7.090200 1.289100
-7.063500 1.299700
-7.036800 1.310700
-7.010100 1.322000
-6.983500 1.333800
-6.956800 1.346000
-6.930100 1.359100
-6.903400 1.377700
-6.876800 1.777700
-6.850100 2.338100
-6.823400 2.281500
-6.796700 2.223200
-6.770100 2.163200
-6.743400 1.894500
-6.716700 1.490100
-6.690000 1.484800
-6.663300 1.479600
-6.636700 1.474500
-6.610000 1.469500
-6.583300 1.464600
-6.556600 1.459900
-6.530000 1.455400
-6.503300 1.407800
-6.476600 1.355300
-6.449900 1.349100
-6.423300 1.344200
-6.396600 1.336800
-6.369900 1.336900
-6.343200 1.361400
-6.316500 1.395800
-6.289900 1.403000
-6.263200 1.413600
-6.236500 1.427700
-6.209800 1.445200
-6.183200 1.466100
-6.156500 1.490500
-6.129800 1.518300
-6.103100 1.739700
-6.076500 2.949300
-6.049800 3.413700
-6.023100 3.597500
-5.996400 4.434800
-5.969700 4.542100
-5.943100 4.904500
-5.916400 4.855800
-5.889700 3.097300
-5.863000 2.442000
-5.836400 2.239600
-5.809700 2.109600
-5.783000 2.024700
-5.756300 1.931600
-5.729700 1.814300
-5.703000 1.706500
-5.676300 1.608100
-5.649600 1.519200
-5.622900 1.439700
-5.596300 1.369700
-5.569600 1.338900
-5.542900 1.514200
-5.516200 1.618500
-5.489600 1.539100
-5.462900 1.536100
-5.436200 1.516900
-5.409500 1.471300
-5.382900 1.341400
-5.356200 1.146400
-5.329500 0.944700
-5.302800 0.722400
-5.276200 0.496100
-5.249500 0.330600
-5.222800 0.239000
-5.196100 0.270300
-5.169400 0.386200
-5.142800 0.517300
-5.116100 0.656500
-5.089400 0.785900
-5.062700 1.102700
-5.036100 1.292600
-5.009400 1.349800
-4.982700 1.384000
-4.956000 1.400100
-4.929400 1.361800
-4.902700 1.276900
-4.876000 1.204800
-4.849300 1.161200
-4.822600 1.144600
-4.796000 1.164100
-4.769300 1.199000
-4.742600 1.235100
-4.715900 1.272500
-4.689300 1.311200
-4.662600 1.351300
-4.635900 1.392200
-4.609200 1.433000
-4.582600 1.476700
-4.555900 1.522900
-4.529200 1.570600
-4.502500 1.619800
-4.475800 1.670500
-4.449200 3.010400
-4.422500 3.298800
-4.395800 4.453000
-4.369100 5.918400
-4.342500 7.081900
-4.315800 7.735500
-4.289100 8.218700
-4.262400 8.637500
-4.235800 9.560900
-4.209100 8.842200
-4.182400 9.099500
-4.155700 9.211700
-4.129000 9.137700
-4.102400 9.092800
-4.075700 8.801900
-4.049000 8.266800
-4.022300 8.024100
-3.995700 7.992800
-3.969000 9.826400
-3.942300 12.489300
-3.915600 10.060200
-3.889000 10.052400
-3.862300 9.829900
-3.835600 7.902000
-3.808900 6.557500
-3.782200 7.663100
-3.755600 16.006500
-3.728900 10.765800
-3.702200 8.053100
-3.675500 6.636500
-3.648900 8.548700
-3.622200 7.182600
-3.595500 9.580200
-3.568800 10.534000
-3.542200 12.613000
-3.515500 12.163700
-3.488800 11.361400
-3.462100 12.426900
-3.435400 15.181600
-3.408800 17.235500
-3.382100 13.886500
-3.355400 9.563300
-3.328700 7.166900
-3.302100 5.941100
-3.275400 4.315700
-3.248700 2.370900
-3.222000 1.042800
-3.195400 0.234800
-3.168700 0.000000
-3.142000 0.001000
-3.115300 0.149700
-3.088700 0.605500
-3.062000 1.591300
-3.035300 4.819900
-3.008600 6.485300
-2.981900 7.728100
-2.955300 6.504300
-2.928600 5.799600
-2.901900 5.716900
-2.875200 5.920100
-2.848600 5.759100
-2.821900 5.589000
-2.795200 6.683000
-2.768500 8.605900
-2.741900 10.124200
-2.715200 8.362600
-2.688500 9.572800
-2.661800 11.386700
-2.635100 13.791900
-2.608500 15.794300
-2.581800 15.628000
-2.555100 11.585600
-2.528400 9.116600
-2.501800 10.152500
-2.475100 15.772400
-2.448400 19.107700
-2.421700 19.500400
-2.395100 23.396100
-2.368400 12.815200
-2.341700 7.872200
-2.315000 4.252700
-2.288300 3.230800
-2.261700 3.287800
-2.235000 3.726300
-2.208300 4.537500
-2.181600 5.515200
-2.155000 7.734200
-2.128300 18.936600
-2.101600 11.776600
-2.074900 15.622400
-2.048300 11.834300
-2.021600 8.090300
-1.994900 8.869200
-1.968200 9.592100
-1.941500 11.108800
-1.914900 12.518400
-1.888200 13.343700
-1.861500 10.877100
-1.834800 9.470400
-1.808200 8.580900
-1.781500 7.756600
-1.754800 7.247000
-1.728100 8.055700
-1.701500 9.258200
-1.674800 11.354400
-1.648100 13.409300
-1.621400 10.146500
-1.594700 10.370000
-1.568100 11.775700
-1.541400 13.049300
-1.514700 13.824600
-1.488000 13.423400
-1.461400 12.874500
-1.434700 12.253700
-1.408000 11.468200
-1.381300 10.846900
-1.354700 10.529400
-1.328000 10.432100
-1.301300 10.695400
-1.274600 13.710000
-1.247900 15.551100
-1.221300 16.961600
-1.194600 18.032400
-1.167900 17.918700
-1.141200 19.596000
-1.114600 21.646300
-1.087900 24.563000
-1.061200 22.032400
-1.034500 23.682400
-1.007900 21.894200
-0.981200 19.700300
-0.954500 19.943300
-0.927800 16.880000
-0.901100 18.886400
-0.874500 20.048500
-0.847800 20.513600
-0.821100 19.631800
-0.794400 18.687500
-0.767800 15.395800
-0.741100 14.778000
-0.714400 13.178900
-0.687700 11.364600
-0.661100 8.206000
-0.634400 7.586100
-0.607700 7.389800
-0.581000 7.224800
-0.554400 7.282000
-0.527700 6.798400
-0.501000 6.653900
-0.474300 6.497200
-0.447600 6.186400
-0.421000 4.903500
-0.394300 4.308600
-0.367600 3.693000
-0.340900 3.075200
-0.314300 2.571000
-0.287600 2.562200
-0.260900 2.584600
-0.234200 2.588700
-0.207600 2.364800
-0.180900 1.835800
-0.154200 1.115100
-0.127500 0.364800
-0.100800 0.000000
-0.074200 0.000000
-0.047500 0.000000
-0.020800 0.000000
0.005900 0.000000
0.032500 0.000000
0.059200 0.000000
0.085900 0.000000
0.112600 0.000000
0.139200 0.000000
0.165900 0.000000
0.192600 0.000000
0.219300 0.000000
0.246000 0.000000
0.272600 0.000000
0.299300 0.000000
0.326000 0.000000
0.352700 0.000000
0.379300 0.000000
0.406000 0.000000
0.432700 0.000000
0.459400 0.000000
0.486000 0.000000
0.512700 0.000000
0.539400 0.000000
0.566100 0.000000
0.592800 0.000000
0.619400 0.000000
0.646100 0.000000
0.672800 0.000000
0.699500 0.000000
0.726100 0.000000
0.752800 0.000000
0.779500 0.000000
0.806200 0.000000
0.832800 0.000000
0.859500 0.000000
0.886200 0.000000
0.912900 0.000000
0.939600 0.000000
0.966200 0.000000
0.992900 0.000000
1.019600 0.000000
1.046300 0.000000
1.072900 0.000000
1.099600 0.000000
1.126300 0.000000
1.153000 0.000000
1.179600 0.000000
1.206300 0.000000
1.233000 0.000000
1.259700 0.000000
1.286400 0.000000
1.313000 0.000000
1.339700 0.000000
1.366400 0.000000
1.393100 0.000000
1.419700 0.000000
1.446400 0.000000
1.473100 0.000000
1.499800 0.000000
1.526400 0.000000
1.553100 0.000000
1.579800 0.000000
1.606500 0.000000
1.633200 0.000000
1.659800 0.000000
1.686500 0.000000
1.713200 0.000000
1.739900 0.000000
1.766500 0.000000
1.793200 0.000000
1.819900 0.000000
1.846600 0.000000
1.873200 0.000000
1.899900 0.000000
1.926600 0.000000
1.953300 0.000000
1.979900 0.000000
2.006600 0.000000
2.033300 0.000000
2.060000 0.000300
2.086700 0.002900
2.113300 0.008400
2.140000 0.016700
2.166700 0.027700
2.193400 0.041600
2.220000 0.058200
2.246700 0.077500
2.273400 0.098600
2.300100 0.121300
2.326700 0.145600
2.353400 0.171700
2.380100 0.199400
2.406800 0.228800
2.433500 0.259700
2.460100 0.290100
2.486800 0.319500
2.513500 0.349600
2.540200 0.389400
2.566800 0.429300
2.593500 0.468900
2.620200 0.504000
2.646900 0.538100
2.673500 0.571200
2.700200 0.602400
2.726900 0.631600
2.753600 0.658100
2.780300 0.681100
2.806900 0.700600
2.833600 0.716500
2.860300 0.727800
2.887000 0.737000
2.913600 0.744300
2.940300 0.749600
2.967000 0.753100
2.993700 0.756000
3.020300 0.759200
3.047000 0.763100
3.073700 0.767800
3.100400 0.773200
3.127100 0.779400
3.153700 0.786300
3.180400 0.796400
3.207100 0.811700
3.233800 0.827700
3.260400 0.844000
3.287100 0.860500
3.313800 0.877200
3.340500 0.894200
3.367100 0.911400
3.393800 0.928900
3.420500 0.946600
3.447200 0.964800
3.473900 0.983700
3.500500 1.003200
3.527200 1.023100
3.553900 1.045900
3.580600 1.086300
3.607200 1.146900
3.633900 1.238400
3.660600 1.415600
3.687300 1.564400
3.713900 1.684700
3.740600 1.776400
3.767300 1.825500
3.794000 1.775300
3.820700 1.694400
3.847300 1.593300
3.874000 1.481000
3.900700 1.411700
3.927400 1.377800
3.954000 1.372900
3.980700 1.378700
4.007400 1.383800
4.034100 1.374200
4.060700 1.340800
4.087400 1.289000
4.114100 1.239300
4.140800 1.195600
4.167500 1.173900
4.194100 1.217200
4.220800 1.291600
4.247500 1.376100
4.274200 1.451200
4.300800 1.506400
4.327500 1.545700
4.354200 1.573200
4.380900 1.608400
4.407500 1.652300
4.434200 1.705000
4.460900 1.766400
4.487600 2.053600
4.514200 2.812800
4.540900 4.974000
4.567600 6.332800
4.594300 6.885700
4.621000 5.474000
4.647600 3.430700
4.674300 2.810100
4.701000 2.592600
4.727700 2.458900
4.754300 2.391200
4.781000 2.297300
4.807700 2.140300
4.834400 1.998100
4.861000 1.870700
4.887700 1.758000
4.914400 1.660200
4.941100 1.631300
4.967800 1.809200
4.994400 2.030700
5.021100 2.148300
5.047800 2.097500
5.074500 1.798300
5.101100 1.386400
5.127800 0.909500
5.154500 0.511600
5.181200 0.236300
5.207800 0.055300
5.234500 0.000000
5.261200 0.000000
5.287900 0.000000
5.314600 0.000000
5.341200 0.000000
5.367900 0.000000
5.394600 0.000000
5.421300 0.000000
5.447900 0.000000
5.474600 0.000000
5.501300 0.000000
5.528000 0.000000
5.554600 0.000000
5.581300 0.000000
5.608000 0.000000
5.634700 0.000000
5.661400 0.000000
5.688000 0.000000
5.714700 0.000000
5.741400 0.000000
5.768100 0.000000
5.794700 0.000000
5.821400 0.000000
5.848100 0.000000
5.874800 0.000000
5.901400 0.000000
5.928100 0.000000
5.954800 0.000000
5.981500 0.000000
6.008200 0.000000
6.034800 0.000000
6.061500 0.000000
6.088200 0.000000
6.114900 0.000000
6.141500 0.000000
6.168200 0.000000
6.194900 0.000000
6.221600 0.000000
6.248200 0.000000
6.274900 0.000000
6.301600 0.000000
6.328300 0.000000
6.355000 0.000000
6.381600 0.000000
6.408300 0.000000
6.435000 0.000000
6.461700 0.000000
6.488300 0.000000
6.515000 0.000000
6.541700 0.000000
6.568400 0.000000
6.595000 0.000000
6.621700 0.000000
6.648400 0.000000
6.675100 0.000000
6.701700 0.000000
6.728400 0.000000
6.755100 0.000000
6.781800 0.000000
6.808500 0.000000
6.835100 0.000000
6.861800 0.000000
6.888500 0.000000
6.915200 0.000000
6.941800 0.000000
6.968500 0.000000
6.995200 0.000000
7.021900 0.000000
7.048500 0.000000
7.075200 0.000000
7.101900 0.000000
7.128600 0.000000
7.155300 0.000000
7.181900 0.011600
7.208600 0.027100
7.235300 0.043400
7.262000 0.060500
7.288600 0.078500
7.315300 0.097300
7.342000 0.117000
7.368700 0.137400
7.395300 0.158700
7.422000 0.180800
7.448700 0.203200
7.475400 0.225700
7.502100 0.248200
7.528700 0.270800
7.555400 0.293500
7.582100 0.315200
7.608800 0.335700
7.635400 0.354900
7.662100 0.373400
7.688800 0.391300
7.715500 0.408600
7.742100 0.425500
7.768800 0.441900
7.795500 0.458000
7.822200 0.474800
7.848900 0.492300
7.875500 0.510900
7.902200 0.531400
7.928900 0.552400
7.955600 0.573500
7.982200 0.594800
8.008900 0.616200
8.035600 0.637700
8.062300 0.659400
8.088900 0.680200
8.115600 0.696500
8.142300 0.709900
8.169000 0.724700
8.195700 0.740700
8.222300 0.758200
8.249000 0.766700
8.275700 0.770600
8.302400 0.773800
8.329000 0.778100
8.355700 0.784500
8.382400 0.793300
8.409100 0.804400
8.435700 0.817900
8.462400 0.833700
8.489100 0.851800
8.515800 0.872300
8.542500 0.895600
8.569100 0.921700
8.595800 0.950600
8.622500 0.982800
8.649200 1.018800
8.675800 1.059100
8.702500 1.110800
8.729200 1.182500
8.755900 1.276500
8.782500 1.389100
8.809200 1.522600
8.835900 1.678200
8.862600 1.856100
8.889300 2.133800
8.915900 3.120000
8.942600 4.340600
8.969300 5.416700
8.996000 5.192200
9.022600 4.465900
9.049300 5.795800
9.076000 6.246500
9.102700 5.896000
9.129300 6.006100
9.156000 6.192900
9.182700 5.759100
9.209400 5.493600
9.236000 5.220500
9.262700 5.123200
9.289400 5.114000
9.316100 4.451100
9.342800 3.871400
9.369400 3.567700
9.396100 3.282700
9.422800 2.985400
9.449500 2.974600
9.476100 3.268200
9.502800 4.028600
9.529500 4.685200
9.556200 5.162600
9.582800 5.731700
9.609500 6.634500
9.636200 7.633300
9.662900 8.562300
9.689600 9.034600
9.716200 8.398200
9.742900 7.298600
9.769600 5.181500
9.796300 3.709200
9.822900 1.769500
9.849600 0.592900
9.876300 0.243000
9.903000 0.183000
9.929600 0.194700
9.956300 0.302400
9.983000 0.566900
10.009700 1.020800
10.036400 1.533500
10.063000 2.024700
10.089700 2.481300
10.116400 2.750900
10.143100 2.993400
10.169700 3.180300
10.196400 3.311300
10.223100 3.386300
10.249800 3.415200
10.276400 3.587200
10.303100 3.456200
10.329800 3.583100
10.356500 4.025800
10.383200 4.677700
10.409800 5.371400
10.436500 5.147000
10.463200 4.040400
10.489900 3.064700
10.516500 2.250700
10.543200 1.491800
10.569900 1.180300
10.596600 1.138500
10.623200 1.202400
10.649900 1.362100
10.676600 1.577600
10.703300 1.804900
10.730000 2.090900
10.756600 2.336400
10.783300 2.501500
10.810000 2.542100
10.836700 2.740200
10.863300 3.069400
10.890000 3.445300
10.916700 3.922000
10.943400 5.067900
10.970000 5.593900
10.996700 5.726100
11.023400 5.689300
11.050100 5.577900
11.076800 5.603500
11.103400 5.798800
11.130100 5.882700
11.156800 5.973400
11.183500 6.135700
11.210100 6.221800
11.236800 6.474800
11.263500 6.671300
11.290200 6.401800
11.316800 5.886800
11.343500 5.150800
11.370200 4.501800
11.396900 4.059600
11.423600 3.752000
11.450200 3.651300
11.476900 4.926900
11.503600 3.417100
11.530300 0.853400
11.556900 0.741100
11.583600 0.684900
11.610300 0.661700
11.637000 0.640700
11.663600 0.596500
11.690300 0.535700
11.717000 0.480400
11.743700 0.448500
11.770300 0.464600
11.797000 0.513600
11.823700 0.549100
11.850400 0.572600
11.877100 0.585600
11.903700 0.588400
11.930400 0.596400
11.957100 0.617800
11.983800 0.651400
12.010400 0.695800
12.037100 0.757600
12.063800 0.896000
12.090500 0.988900
12.117100 1.086700
12.143800 1.189300
12.170500 1.296800
12.197200 1.409200
12.223900 1.573400
12.250500 1.758500
12.277200 1.921300
12.303900 2.070100
12.330600 2.205900
12.357200 2.385400
12.383900 2.658600
12.410600 2.890500
12.437300 3.131700
12.463900 3.380300
12.490600 3.636100
12.517300 3.824400
12.544000 3.878600
12.570700 3.986000
12.597300 4.158700
12.624000 4.211900
12.650700 4.341000
12.677400 4.502500
12.704000 4.397500
12.730700 4.256200
12.757400 4.140800
12.784100 4.051700
12.810700 3.990000
12.837400 3.961500
12.864100 3.825300
12.890800 4.210300
12.917500 3.176000
12.944100 2.989400
12.970800 2.868300
12.997500 2.813000
13.024200 2.846800
13.050800 3.032500
13.077500 3.254500
13.104200 3.534600
13.130900 3.744900
13.157500 4.162900
13.184200 4.593500
13.210900 4.938700
13.237600 5.230600
13.264300 5.001400
13.290900 4.577200
13.317600 4.134600
13.344300 3.730800
13.371000 3.377100
13.397600 3.007400
13.424300 2.621500
13.451000 2.330400
13.477700 2.036600
13.504300 1.703000
13.531000 1.477600
13.557700 1.514900
13.584400 1.595400
13.611100 1.705800
13.637700 1.974600
13.664400 2.919100
13.691100 3.614400
13.717800 3.938300
13.744400 4.259800
13.771100 4.558600
13.797800 4.705000
13.824500 4.668100
13.851100 4.495400
13.877800 4.295000
13.904500 4.047000
13.931200 3.790000
13.957800 3.541300
13.984500 3.246400
14.011200 3.135700
14.037900 3.548000
14.064600 4.824800
14.091200 5.435000
14.117900 4.679600
14.144600 5.272000
14.171300 3.793300
14.197900 3.067200
14.224600 2.641400
14.251300 2.282500
14.278000 2.100400
14.304600 2.341800
14.331300 2.660100
14.358000 2.732000
14.384700 2.861100
14.411400 3.055800
14.438000 3.161800
14.464700 3.318700
14.491400 3.526100
14.518100 3.577800
14.544700 3.343500
14.571400 3.070900
14.598100 2.842800
14.624800 2.655300
14.651400 2.565000
14.678100 2.465800
14.704800 2.357600
14.731500 2.240400
14.758200 2.155400
14.784800 2.069500
14.811500 1.947300
14.838200 1.776200
14.864900 1.763800
14.891500 1.787300
14.918200 1.817700
14.944900 1.853000
14.971600 1.896300
14.998200 2.094900
15.024900 2.241000
15.051600 2.302500
15.078300 2.239100
15.105000 1.859800
15.131600 1.535000
15.158300 1.373200
15.185000 1.260400
15.211700 1.158100
15.238300 1.067300
15.265000 0.988000
15.291700 0.920300
15.318400 0.869500
15.345000 0.849000
15.371700 0.841400
15.398400 0.841800
15.425100 0.866700
15.451800 0.941400
15.478400 1.120200
15.505100 1.378700
15.531800 1.637700
15.558500 1.862200
15.585100 2.167500
15.611800 2.428900
15.638500 2.634800
15.665200 2.784200
15.691800 2.829500
15.718500 2.806700
15.745200 2.721400
15.771900 2.609500
15.798600 2.505700
15.825200 2.429300
15.851900 2.354100
15.878600 2.280300
15.905300 2.214400
15.931900 2.158600
15.958600 2.111400
15.985300 2.062900
16.012000 1.927600
16.038600 1.755300
16.065300 1.622300
16.092000 1.547600
16.118700 1.475700
16.145400 1.382400
16.172000 1.342400
16.198700 1.304300
16.225400 1.268000
16.252100 1.233400
16.278700 1.201500
16.305400 1.203800
16.332100 1.247200
16.358800 1.303500
16.385400 1.371200
16.412100 1.457400
16.438800 1.505800
16.465500 1.447700
16.492100 1.275300
16.518800 1.108300
16.545500 0.970300
16.572200 0.944200
16.598900 0.888900
16.625500 0.778100
16.652200 0.588200
16.678900 0.517800
16.705600 0.476100
16.732200 0.438800
16.758900 0.412800
16.785600 0.398000
16.812300 0.403800
16.838900 0.425900
16.865600 0.463200
16.892300 0.532100
16.919000 0.607000
16.945700 0.687700
16.972300 0.774500
16.999000 0.890900
17.025700 1.072400
17.052400 1.360800
17.079000 1.954800
17.105700 2.915800
17.132400 3.173000
17.159100 3.735300
17.185700 4.190400
17.212400 4.199900
17.239100 4.258200
17.265800 4.344600
17.292500 4.428300
17.319100 4.675400
17.345800 4.853000
17.372500 4.882000
17.399200 4.963600
17.425800 5.497600
17.452500 5.718100
17.479200 6.479700
17.505900 6.002100
17.532500 5.888700
17.559200 5.791000
17.585900 5.598700
17.612600 5.812900
17.639300 5.152600
17.665900 4.906700
17.692600 4.718200
17.719300 4.676300
17.746000 5.110900
17.772600 5.572900
17.799300 5.612700
17.826000 4.383600
17.852700 2.619400
17.879300 2.764000
17.906000 2.924200
17.932700 3.272600
17.959400 3.638700
17.986100 4.024700
18.012700 4.439800
18.039400 5.158800
18.066100 5.332000
18.092800 5.583800
18.119400 5.771700
18.146100 5.840700
18.172800 5.923400
18.199500 5.840800
18.226100 6.255300
18.252800 6.675000
18.279500 6.714800
18.306200 6.587700
18.332900 6.300300
18.359500 5.694600
18.386200 5.092400
18.412900 4.628500
18.439600 4.215400
18.466200 3.902900
18.492900 3.470400
18.519600 3.140000
18.546300 2.877600
18.572900 2.730000
18.599600 2.658200
18.626300 2.623700
18.653000 2.532200
18.679700 2.489700
18.706300 2.616500
18.733000 2.749900
18.759700 2.903400
18.786400 3.835100
18.813000 4.073100
18.839700 4.553300
18.866400 5.005300
18.893100 5.347400
18.919700 5.716800
18.946400 6.024100
18.973100 5.786600
18.999800 5.559800
19.026400 5.486300
19.053100 4.743900
19.079800 4.346000
19.106500 4.021000
19.133200 3.739100
19.159800 3.482800
19.186500 3.268200
19.213200 3.133900
19.239900 3.224600
19.266500 3.545900
19.293200 3.959900
19.319900 4.429800
19.346600 4.711800
19.373200 4.871600
19.399900 4.990000
19.426600 4.859200
19.453300 4.640800
19.480000 4.441400
19.506600 4.252200
19.533300 4.080400
19.560000 3.906000
19.586700 3.835300
19.613300 3.570700
19.640000 3.282500
19.666700 3.289500
19.693400 3.452800
19.720000 3.620000
19.746700 3.702300
19.773400 4.021400
19.800100 4.425100
19.826800 4.596200
19.853400 4.544700
19.880100 4.353300
19.906800 4.158700
19.933500 3.964100
19.960100 3.922000
19.986800 4.296200
20.013500 4.094500
20.040200 4.275400
20.066800 4.520800
20.093500 4.754000
20.120200 4.977600
20.146900 5.159800
20.173600 5.263500
20.200200 5.528900
20.226900 5.741300
20.253600 5.445800
20.280300 5.251000
20.306900 4.952100
20.333600 4.673600
20.360300 4.380000
20.387000 4.142300
20.413600 3.952500
20.440300 3.775100
20.467000 3.641000
20.493700 3.545800
20.520400 3.380400
20.547000 3.114200
20.573700 2.794300
20.600400 2.478700
20.627100 2.213900
20.653700 2.017900
20.680400 1.943700
20.707100 1.803200
20.733800 1.390400
20.760400 1.732500
20.787100 2.040400
20.813800 2.221900
20.840500 2.391200
20.867200 2.542700
20.893800 2.675100
20.920500 2.790700
20.947200 2.888200
20.973900 3.152400
21.000500 3.443800
21.027200 3.744500
21.053900 4.098300
21.080600 4.614900
21.107200 5.306800
21.133900 7.107500
21.160600 5.294700
21.187300 5.020400
21.214000 4.733200
21.240600 4.521900
21.267300 4.520600
21.294000 4.570800
21.320700 4.465200
21.347300 4.496200
21.374000 4.380100
21.400700 4.470600
21.427400 5.044100
21.454000 5.370100
21.480700 5.668800
21.507400 5.982700
21.534100 5.790800
21.560700 5.394500
21.587400 4.444000
21.614100 4.092200
21.640800 4.178200
21.667500 4.851600
21.694100 5.194700
21.720800 5.291800
21.747500 5.466500
21.774200 5.661700
21.800800 5.966800
21.827500 6.422500
21.854200 6.856800
21.880900 7.498100
21.907500 8.708900
21.934200 9.480000
21.960900 10.420700
21.987600 9.915500
22.014300 9.759800
22.040900 10.416600
22.067600 9.574000
22.094300 9.725000
22.121000 10.799700
22.147600 10.938100
22.174300 10.284900
22.201000 9.927300
22.227700 9.295000
22.254300 8.613300
22.281000 8.044900
22.307700 7.859600
22.334400 7.659600
22.361100 7.483300
22.387700 7.327900
22.414400 7.131500
22.441100 7.237000
22.467800 7.243400
22.494400 7.522100
22.521100 7.650200
22.547800 7.585800
22.574500 7.205900
22.601100 6.640600
22.627800 6.898800
22.654500 6.589400
22.681200 6.334000
22.707900 6.416800
22.734500 6.536600
22.761200 5.920800
22.787900 5.711200
22.814600 5.799800
22.841200 5.993900
22.867900 6.299900
22.894600 6.688600
22.921300 6.989500
22.947900 7.548300
22.974600 7.705900
23.001300 8.436000
23.028000 9.252700
23.054700 8.790500
23.081300 8.491800
23.108000 8.869700
23.134700 9.309200
23.161400 8.511300
23.188000 7.877500
23.214700 7.809800
23.241400 7.256100
23.268100 7.588300
23.294700 7.157600
23.321400 6.534300
23.348100 6.413400
23.374800 6.256100
23.401500 6.049600
23.428100 5.747400
23.454800 5.098000
23.481500 4.490400
23.508200 4.504700
23.534800 3.776500
23.561500 3.800400
23.588200 3.997500
23.614900 4.552800
23.641500 5.037300
23.668200 5.676300
23.694900 6.130600
23.721600 6.264500
23.748200 6.057000
23.774900 5.577700
23.801600 4.946500
23.828300 3.990100
23.855000 3.365800
23.881600 3.269700
23.908300 3.148300
23.935000 3.031600
23.961700 2.930600
23.988300 2.884900
24.015000 3.612800
24.041700 3.973200
24.068400 4.379100
24.095000 4.820900
24.121700 5.203800
24.148400 5.540300
24.175100 5.888300
24.201800 6.001500
24.228400 5.973500
24.255100 6.402300
24.281800 6.737300
24.308500 7.137600
24.335100 7.340800
24.361800 7.257400
24.388500 7.783300
24.415200 7.883700
24.441800 7.869700
24.468500 7.583400
24.495200 7.315400
24.521900 8.101200
24.548600 7.637000
24.575200 7.552700
24.601900 7.416500
24.628600 7.568000
24.655300 7.723100
24.681900 7.824500
24.708600 8.241300
24.735300 8.917200
24.762000 9.158100
24.788600 9.103400
24.815300 8.335400
24.842000 8.159600
24.868700 7.665700
24.895400 6.847100
24.922000 6.273800
24.948700 5.719700
24.975400 5.263200
25.002100 4.875000
25.028700 4.593300
25.055400 4.485800
25.082100 4.499800
25.108800 4.389900
25.135400 5.336900
25.162100 5.586000
25.188800 5.780700
25.215500 5.924100
25.242200 6.058800
25.268800 5.953400
25.295500 5.785400
25.322200 5.552500
25.348900 5.256000
25.375500 5.071000
25.402200 5.160600
25.428900 4.964900
25.455600 4.751100
25.482200 4.529300
25.508900 4.402900
25.535600 4.281600
25.562300 4.188800
25.589000 4.253300
25.615600 3.485100
25.642300 3.343500
25.669000 3.383900
25.695700 3.576400
25.722300 3.877800
25.749000 4.135800
25.775700 4.353800
25.802400 4.792900
25.829000 5.139800
25.855700 5.057900
25.882400 4.806100
25.909100 4.507200
25.935800 4.333600
25.962400 4.160300
25.989100 3.326500
26.015800 2.782000
26.042500 2.341300
26.069100 1.986300
26.095800 1.652900
26.122500 1.374100
26.149200 1.179000
26.175800 0.989400
26.202500 0.824300
26.229200 0.679900
26.255900 0.545800
26.282500 0.407100
26.309200 0.243300
26.335900 0.111300
26.362600 0.030300
26.389300 0.000200
26.415900 0.000000
26.442600 0.000000
26.469300 0.000000
26.496000 0.000000
26.522600 0.000000
26.549300 0.000000
26.576000 0.000000
26.602700 0.000000
26.629300 0.000000
26.656000 0.000000
26.682700 0.000000
26.709400 0.000000
26.736100 0.000000
26.762700 0.000000
26.789400 0.000000
26.816100 0.000000
26.842800 0.000000
26.869400 0.000000
26.896100 0.000000
26.922800 0.000000
26.949500 0.000000
26.976100 0.000000
27.002800 0.000000
27.029500 0.000000
27.056200 0.000000
27.082900 0.000000
27.109500 0.000000
27.136200 0.000000
27.162900 0.000000
27.189600 0.000000
27.216200 0.000000
27.242900 0.000000
27.269600 0.000000
27.296300 0.000000
27.322900 0.000000
27.349600 0.000000
27.376300 0.000000
27.403000 0.000000
27.429700 0.000000
27.456300 0.000000
27.483000 0.000000
27.509700 0.000000
27.536400 0.000000
27.563000 0.000000
27.589700 0.000000
27.616400 0.000000
27.643100 0.000000
27.669700 0.000000
27.696400 0.000000
27.723100 0.000000
27.749800 0.000000
27.776500 0.000000
27.803100 0.000000
27.829800 0.000000
27.856500 0.000000
27.883200 0.000000
27.909800 0.000000
27.936500 0.000000
27.963200 0.000000
27.989900 0.000000
28.016500 0.000000
28.043200 0.000000
28.069900 0.000000
28.096600 0.000000
28.123300 0.000000
28.149900 0.000000
28.176600 0.000000
28.203300 0.000000
28.230000 0.000000
28.256600 0.000000
28.283300 0.000000
28.310000 0.000000
28.336700 0.000000
28.363300 0.000000
28.390000 0.000000
28.416700 0.000000
28.443400 0.000000
28.470100 0.000000
28.496700 0.000000
28.523400 0.000000
28.550100 0.000000
28.576800 0.000000
28.603400 0.000000
28.630100 0.000000
28.656800 0.000000
28.683500 0.000000
28.710100 0.000000
28.736800 0.000000
28.763500 0.000000
28.790200 0.000000
28.816800 0.000000
e
