set title 'mp-1067619 - Density of States'
set xlabel 'Energy (eV)'
set ylabel 'DOS (states/eV)'
set grid
set xrange [-10:10]
set yrange [0:14.317]
set xzeroaxis lt -1
set terminal png size 800,600
set output 'mp-1067619_dos_gnuplot.png'
plot '-' using 1:2 with lines title 'DOS'
-27.487400 0.000000
-27.459300 0.000000
-27.431100 0.000000
-27.402900 0.000000
-27.374700 0.000000
-27.346600 0.000000
-27.318400 0.000000
-27.290200 0.000000
-27.262000 0.000000
-27.233800 0.000000
-27.205700 0.000000
-27.177500 0.000000
-27.149300 0.000000
-27.121100 0.000000
-27.092900 0.000000
-27.064800 0.000000
-27.036600 0.000000
-27.008400 0.000000
-26.980200 0.000000
-26.952000 0.000000
-26.923900 0.000000
-26.895700 0.000000
-26.867500 0.000000
-26.839300 0.000000
-26.811100 0.000000
-26.783000 0.000000
-26.754800 0.000000
-26.726600 0.000000
-26.698400 0.000000
-26.670200 0.000000
-26.642100 0.000000
-26.613900 0.000000
-26.585700 0.000000
-26.557500 0.000000
-26.529300 0.000000
-26.501200 0.000000
-26.473000 0.000000
-26.444800 0.000000
-26.416600 0.000000
-26.388500 0.000000
-26.360300 0.000000
-26.332100 0.000000
-26.303900 0.000000
-26.275700 0.000000
-26.247600 0.000000
-26.219400 0.000000
-26.191200 0.000000
-26.163000 0.000000
-26.134800 0.000000
-26.106700 0.000000
-26.078500 0.000000
-26.050300 0.000000
-26.022100 0.000000
-25.993900 0.000000
-25.965800 0.000000
-25.937600 0.000000
-25.909400 0.000000
-25.881200 0.000000
-25.853000 0.000000
-25.824900 0.000000
-25.796700 0.000000
-25.768500 0.000000
-25.740300 0.000000
-25.712100 0.000000
-25.684000 0.000000
-25.655800 0.000000
-25.627600 0.000000
-25.599400 0.000000
-25.571200 0.000000
-25.543100 0.000000
-25.514900 0.000000
-25.486700 0.000000
-25.458500 0.000000
-25.430400 0.000000
-25.402200 0.000000
-25.374000 0.000000
-25.345800 0.000000
-25.317600 0.000000
-25.289500 0.000000
-25.261300 0.000000
-25.233100 0.000000
-25.204900 0.000000
-25.176700 0.000000
-25.148600 0.000000
-25.120400 0.000000
-25.092200 0.000000
-25.064000 0.000000
-25.035800 0.000000
-25.007700 0.000000
-24.979500 0.000000
-24.951300 0.000000
-24.923100 84.427000
-24.894900 255.149900
-24.866800 54.485500
-24.838600 25.445600
-24.810400 317.780600
-24.782200 49.676400
-24.754000 48.154400
-24.725900 105.016700
-24.697700 183.394800
-24.669500 15.818900
-24.641300 37.277300
-24.613100 173.273300
-24.585000 47.174400
-24.556800 67.952100
-24.528600 0.000000
-24.500400 0.000000
-24.472300 0.000000
-24.444100 0.000000
-24.415900 0.000000
-24.387700 0.000000
-24.359500 0.000000
-24.331400 0.000000
-24.303200 0.000000
-24.275000 0.000000
-24.246800 0.000000
-24.218600 0.000000
-24.190500 0.000000
-24.162300 0.000000
-24.134100 0.000000
-24.105900 0.000000
-24.077700 0.000000
-24.049600 0.000000
-24.021400 0.000000
-23.993200 0.000000
-23.965000 0.000000
-23.936800 0.000000
-23.908700 0.000000
-23.880500 0.000000
-23.852300 0.000000
-23.824100 0.000000
-23.795900 0.000000
-23.767800 0.000000
-23.739600 0.000000
-23.711400 0.000000
-23.683200 0.000000
-23.655000 0.000000
-23.626900 0.000000
-23.598700 0.000000
-23.570500 0.000000
-23.542300 0.000000
-23.514200 0.000000
-23.486000 0.000000
-23.457800 0.000000
-23.429600 0.000000
-23.401400 0.000000
-23.373300 0.000000
-23.345100 0.000000
-23.316900 0.000000
-23.288700 0.000000
-23.260500 0.000000
-23.232400 0.000000
-23.204200 0.000000
-23.176000 0.000000
-23.147800 0.000000
-23.119600 0.000000
-23.091500 0.000000
-23.063300 0.000000
-23.035100 0.000000
-23.006900 0.000000
-22.978700 0.000000
-22.950600 0.000000
-22.922400 0.000000
-22.894200 0.000000
-22.866000 0.000000
-22.837800 0.000000
-22.809700 0.000000
-22.781500 0.000000
-22.753300 0.000000
-22.725100 0.000000
-22.696900 0.000000
-22.668800 0.000000
-22.640600 0.000000
-22.612400 0.000000
-22.584200 0.000000
-22.556100 0.000000
-22.527900 0.000000
-22.499700 0.000000
-22.471500 0.000000
-22.443300 0.000000
-22.415200 0.000000
-22.387000 0.000000
-22.358800 0.000000
-22.330600 0.000000
-22.302400 0.000000
-22.274300 0.000000
-22.246100 0.000000
-22.217900 0.000000
-22.189700 0.000000
-22.161500 0.000000
-22.133400 0.000000
-22.105200 0.000000
-22.077000 0.000000
-22.048800 0.000000
-22.020600 0.000000
-21.992500 0.000000
-21.964300 0.000000
-21.936100 0.000000
-21.907900 0.000000
-21.879700 0.000000
-21.851600 0.000000
-21.823400 0.000000
-21.795200 0.000000
-21.767000 0.000000
-21.738800 0.000000
-21.710700 0.000000
-21.682500 0.000000
-21.654300 0.000000
-21.626100 0.000000
-21.598000 0.000000
-21.569800 0.000000
-21.541600 0.000000
-21.513400 0.000000
-21.485200 0.000000
-21.457100 0.000000
-21.428900 0.000000
-21.400700 0.000000
-21.372500 0.000000
-21.344300 0.000000
-21.316200 0.000000
-21.288000 0.000000
-21.259800 0.000000
-21.231600 0.000000
-21.203400 0.000000
-21.175300 0.000000
-21.147100 0.000000
-21.118900 0.000000
-21.090700 0.000000
-21.062500 0.000000
-21.034400 0.000000
-21.006200 0.000000
-20.978000 0.000000
-20.949800 0.000000
-20.921600 0.000000
-20.893500 0.000000
-20.865300 0.000000
-20.837100 0.000000
-20.808900 0.000000
-20.780700 0.000000
-20.752600 0.000000
-20.724400 0.000000
-20.696200 0.000000
-20.668000 0.000000
-20.639900 0.000000
-20.611700 0.000000
-20.583500 0.000000
-20.555300 0.000000
-20.527100 0.000000
-20.499000 0.000000
-20.470800 0.000000
-20.442600 0.000000
-20.414400 0.000000
-20.386200 0.000000
-20.358100 0.000000
-20.329900 0.000000
-20.301700 0.000000
-20.273500 0.000000
-20.245300 0.000000
-20.217200 0.000000
-20.189000 0.000000
-20.160800 0.000000
-20.132600 0.000000
-20.104400 0.000000
-20.076300 0.000000
-20.048100 0.000000
-20.019900 0.000000
-19.991700 0.000000
-19.963500 0.000000
-19.935400 0.000000
-19.907200 0.000000
-19.879000 0.000000
-19.850800 0.000000
-19.822600 0.000000
-19.794500 0.000000
-19.766300 0.000000
-19.738100 0.000000
-19.709900 0.000000
-19.681800 0.000000
-19.653600 0.000000
-19.625400 0.000000
-19.597200 0.000000
-19.569000 0.000000
-19.540900 0.000000
-19.512700 0.000000
-19.484500 0.000000
-19.456300 0.000000
-19.428100 0.000000
-19.400000 0.000000
-19.371800 0.000000
-19.343600 0.000000
-19.315400 0.000000
-19.287200 0.000000
-19.259100 0.000000
-19.230900 0.000000
-19.202700 0.000000
-19.174500 0.000000
-19.146300 0.000000
-19.118200 0.000000
-19.090000 0.000000
-19.061800 0.000000
-19.033600 0.000000
-19.005400 0.000000
-18.977300 0.000000
-18.949100 0.000000
-18.920900 0.000000
-18.892700 0.000000
-18.864500 0.000000
-18.836400 0.000000
-18.808200 0.000000
-18.780000 0.000000
-18.751800 0.000000
-18.723700 0.000000
-18.695500 0.000000
-18.667300 0.000000
-18.639100 0.000000
-18.610900 0.000000
-18.582800 0.000000
-18.554600 0.000000
-18.526400 0.000000
-18.498200 0.000000
-18.470000 0.000000
-18.441900 0.000000
-18.413700 0.000000
-18.385500 0.000000
-18.357300 0.000000
-18.329100 0.000000
-18.301000 0.000000
-18.272800 0.000000
-18.244600 0.000000
-18.216400 0.000000
-18.188200 0.000000
-18.160100 0.000000
-18.131900 0.000000
-18.103700 0.000000
-18.075500 0.000000
-18.047300 0.000000
-18.019200 0.000000
-17.991000 0.000000
-17.962800 0.000000
-17.934600 0.000000
-17.906400 0.000000
-17.878300 0.000000
-17.850100 0.000000
-17.821900 0.000000
-17.793700 0.000000
-17.765600 0.000000
-17.737400 0.000000
-17.709200 0.000000
-17.681000 0.000000
-17.652800 0.000000
-17.624700 0.000000
-17.596500 0.000000
-17.568300 0.000000
-17.540100 0.000000
-17.511900 0.000000
-17.483800 0.000000
-17.455600 0.000000
-17.427400 0.000000
-17.399200 0.000000
-17.371000 0.000000
-17.342900 0.000000
-17.314700 0.000000
-17.286500 0.000000
-17.258300 0.000000
-17.230100 0.000000
-17.202000 0.000000
-17.173800 0.000000
-17.145600 0.000000
-17.117400 0.000000
-17.089200 0.000000
-17.061100 0.000000
-17.032900 0.000000
-17.004700 0.000000
-16.976500 0.000000
-16.948300 0.000000
-16.920200 0.000000
-16.892000 0.000000
-16.863800 0.000000
-16.835600 0.000000
-16.807500 0.000000
-16.779300 0.000000
-16.751100 0.000000
-16.722900 0.000000
-16.694700 0.000000
-16.666600 0.000000
-16.638400 0.000000
-16.610200 0.000000
-16.582000 0.000000
-16.553800 0.000000
-16.525700 0.000000
-16.497500 0.000000
-16.469300 0.000000
-16.441100 0.000000
-16.412900 0.000000
-16.384800 0.000000
-16.356600 0.000000
-16.328400 0.000000
-16.300200 0.000000
-16.272000 0.000000
-16.243900 0.000000
-16.215700 0.000000
-16.187500 0.000000
-16.159300 0.000000
-16.131100 0.000000
-16.103000 0.000000
-16.074800 0.000000
-16.046600 0.000000
-16.018400 0.000000
-15.990200 0.000000
-15.962100 0.000000
-15.933900 0.000000
-15.905700 0.000000
-15.877500 0.000000
-15.849400 0.000000
-15.821200 0.000000
-15.793000 0.000000
-15.764800 0.000000
-15.736600 0.000000
-15.708500 0.000000
-15.680300 0.000000
-15.652100 0.000000
-15.623900 0.000000
-15.595700 0.000000
-15.567600 0.000000
-15.539400 0.000000
-15.511200 0.000000
-15.483000 0.000000
-15.454800 0.000000
-15.426700 0.000000
-15.398500 0.000000
-15.370300 0.000000
-15.342100 0.000000
-15.313900 0.000000
-15.285800 0.000000
-15.257600 0.000000
-15.229400 0.000000
-15.201200 0.000000
-15.173000 0.000000
-15.144900 0.000000
-15.116700 0.000000
-15.088500 0.000000
-15.060300 0.000000
-15.032100 0.000000
-15.004000 0.000000
-14.975800 0.000000
-14.947600 0.000000
-14.919400 0.000000
-14.891300 0.000000
-14.863100 0.000000
-14.834900 0.000000
-14.806700 0.000000
-14.778500 0.000000
-14.750400 0.000000
-14.722200 0.000000
-14.694000 0.000000
-14.665800 0.000000
-14.637600 0.000000
-14.609500 0.000000
-14.581300 0.000000
-14.553100 0.000000
-14.524900 0.000000
-14.496700 0.000000
-14.468600 0.000000
-14.440400 0.000000
-14.412200 0.000000
-14.384000 0.000000
-14.355800 0.000000
-14.327700 0.000000
-14.299500 0.000000
-14.271300 0.000000
-14.243100 0.000000
-14.214900 0.000000
-14.186800 0.000000
-14.158600 0.000000
-14.130400 0.000000
-14.102200 0.000000
-14.074000 0.000000
-14.045900 0.000000
-14.017700 0.000000
-13.989500 0.000000
-13.961300 0.000000
-13.933200 0.000000
-13.905000 0.000000
-13.876800 0.000000
-13.848600 0.000000
-13.820400 0.000000
-13.792300 0.000000
-13.764100 0.000000
-13.735900 0.000000
-13.707700 0.000000
-13.679500 0.000000
-13.651400 0.000000
-13.623200 0.000000
-13.595000 0.000000
-13.566800 0.000000
-13.538600 0.000000
-13.510500 0.000000
-13.482300 0.000000
-13.454100 0.000000
-13.425900 0.000000
-13.397700 0.000000
-13.369600 0.000000
-13.341400 0.000000
-13.313200 0.000000
-13.285000 0.000000
-13.256800 0.000000
-13.228700 0.000000
-13.200500 0.000000
-13.172300 0.000000
-13.144100 0.000000
-13.115900 0.000000
-13.087800 0.000000
-13.059600 0.000000
-13.031400 0.000000
-13.003200 0.000000
-12.975100 0.000000
-12.946900 0.000000
-12.918700 0.000000
-12.890500 0.000000
-12.862300 0.000000
-12.834200 0.000000
-12.806000 0.000000
-12.777800 0.000000
-12.749600 0.000000
-12.721400 0.000000
-12.693300 0.000000
-12.665100 0.000000
-12.636900 0.000000
-12.608700 0.000000
-12.580500 0.000000
-12.552400 0.000000
-12.524200 0.000000
-12.496000 0.000000
-12.467800 0.000000
-12.439600 0.000000
-12.411500 0.000000
-12.383300 0.000000
-12.355100 0.000000
-12.326900 0.000000
-12.298700 0.000000
-12.270600 0.000000
-12.242400 0.000000
-12.214200 0.000000
-12.186000 0.000000
-12.157800 0.000000
-12.129700 0.000000
-12.101500 0.000000
-12.073300 0.000000
-12.045100 0.000000
-12.017000 0.000000
-11.988800 0.000000
-11.960600 0.000000
-11.932400 0.000000
-11.904200 0.000000
-11.876100 0.000000
-11.847900 0.000000
-11.819700 0.000000
-11.791500 0.000000
-11.763300 0.000000
-11.735200 0.000000
-11.707000 0.000000
-11.678800 0.000000
-11.650600 0.000000
-11.622400 0.000000
-11.594300 0.000000
-11.566100 0.000000
-11.537900 0.041700
-11.509700 0.289900
-11.481500 0.574100
-11.453400 0.858400
-11.425200 1.142600
-11.397000 1.426800
-11.368800 1.711100
-11.340600 1.995300
-11.312500 1.464800
-11.284300 1.161600
-11.256100 1.187400
-11.227900 1.213100
-11.199700 1.238800
-11.171600 1.264500
-11.143400 1.290200
-11.115200 1.316000
-11.087000 1.341700
-11.058900 1.367400
-11.030700 1.393100
-11.002500 1.418800
-10.974300 1.444600
-10.946100 1.470300
-10.918000 1.496000
-10.889800 1.518800
-10.861600 1.506800
-10.833400 1.483500
-10.805200 1.460200
-10.777100 1.436900
-10.748900 1.413600
-10.720700 1.390400
-10.692500 1.367100
-10.664300 1.360100
-10.636200 1.374900
-10.608000 1.390000
-10.579800 1.405000
-10.551600 1.420000
-10.523400 1.435000
-10.495300 1.450000
-10.467100 1.465100
-10.438900 1.480100
-10.410700 1.495100
-10.382500 1.510100
-10.354400 1.525100
-10.326200 1.540200
-10.298000 1.555200
-10.269800 1.570200
-10.241600 1.585200
-10.213500 1.600300
-10.185300 1.615300
-10.157100 1.630300
-10.128900 1.645300
-10.100800 1.660400
-10.072600 1.653400
-10.044400 1.653300
-10.016200 1.703200
-9.988000 1.753000
-9.959900 1.802900
-9.931700 1.852800
-9.903500 1.902700
-9.875300 1.952500
-9.847100 2.002400
-9.819000 2.052300
-9.790800 2.102200
-9.762600 2.917000
-9.734400 3.131400
-9.706200 2.991700
-9.678100 2.851900
-9.649900 2.712200
-9.621700 2.572400
-9.593500 2.432700
-9.565300 2.292900
-9.537200 2.153100
-9.509000 2.013300
-9.480800 1.873500
-9.452600 1.733800
-9.424400 1.594000
-9.396300 1.454200
-9.368100 1.314400
-9.339900 1.199200
-9.311700 1.387000
-9.283500 1.593400
-9.255400 1.799600
-9.227200 2.005800
-9.199000 2.211700
-9.170800 2.417600
-9.142600 4.279800
-9.114500 0.000000
-9.086300 0.000000
-9.058100 0.000000
-9.029900 0.000000
-9.001800 0.000000
-8.973600 0.000000
-8.945400 0.000000
-8.917200 0.000000
-8.889000 0.000000
-8.860900 0.000000
-8.832700 0.000000
-8.804500 0.000000
-8.776300 0.000000
-8.748100 0.000000
-8.720000 0.000000
-8.691800 0.000000
-8.663600 0.000000
-8.635400 0.000000
-8.607200 0.000000
-8.579100 0.000000
-8.550900 0.000000
-8.522700 0.000000
-8.494500 0.000000
-8.466300 0.000000
-8.438200 0.000000
-8.410000 0.000000
-8.381800 0.000000
-8.353600 0.000000
-8.325400 0.000000
-8.297300 0.000000
-8.269100 0.000000
-8.240900 0.000000
-8.212700 0.000000
-8.184500 0.000000
-8.156400 0.000000
-8.128200 0.000000
-8.100000 0.000000
-8.071800 0.000000
-8.043700 0.000000
-8.015500 0.000000
-7.987300 0.000000
-7.959100 0.000000
-7.930900 0.000000
-7.902800 0.000000
-7.874600 5.410600
-7.846400 3.717100
-7.818200 2.020500
-7.790000 0.943700
-7.761900 1.060900
-7.733700 1.178200
-7.705500 1.295500
-7.677300 1.412800
-7.649100 1.530000
-7.621000 1.647300
-7.592800 1.764500
-7.564600 1.881800
-7.536400 1.999100
-7.508200 2.116300
-7.480100 2.233600
-7.451900 2.350800
-7.423700 2.468000
-7.395500 2.585300
-7.367300 2.702500
-7.339200 1.627100
-7.311000 1.598300
-7.282800 1.569400
-7.254600 1.540500
-7.226400 1.511700
-7.198300 1.482800
-7.170100 1.454000
-7.141900 1.425100
-7.113700 1.396300
-7.085600 1.367400
-7.057400 1.338500
-7.029200 1.309700
-7.001000 1.280800
-6.972800 1.252000
-6.944700 1.223100
-6.916500 1.194300
-6.888300 1.165400
-6.860100 1.136500
-6.831900 1.107700
-6.803800 1.078800
-6.775600 1.050000
-6.747400 0.902400
-6.719200 0.897400
-6.691000 0.892500
-6.662900 0.887600
-6.634700 0.882600
-6.606500 0.877700
-6.578300 0.872700
-6.550100 0.867800
-6.522000 0.862900
-6.493800 0.857900
-6.465600 0.853000
-6.437400 0.848000
-6.409200 0.843100
-6.381100 0.838200
-6.352900 0.833200
-6.324700 0.828300
-6.296500 0.823300
-6.268300 0.818400
-6.240200 0.813400
-6.212000 0.808500
-6.183800 0.803600
-6.155600 0.798600
-6.127500 0.793700
-6.099300 0.788700
-6.071100 0.783800
-6.042900 0.778900
-6.014700 0.773900
-5.986600 0.769000
-5.958400 0.764000
-5.930200 0.759100
-5.902000 0.754200
-5.873800 0.749200
-5.845700 0.744300
-5.817500 0.739300
-5.789300 0.734400
-5.761100 0.729400
-5.732900 0.724500
-5.704800 0.719700
-5.676600 0.714900
-5.648400 0.710000
-5.620200 0.705100
-5.592000 0.700200
-5.563900 0.695300
-5.535700 0.690500
-5.507500 0.685600
-5.479300 0.680700
-5.451100 0.675800
-5.423000 0.670900
-5.394800 0.666000
-5.366600 0.661100
-5.338400 0.656200
-5.310200 0.651300
-5.282100 0.646300
-5.253900 0.641400
-5.225700 0.636500
-5.197500 0.631600
-5.169400 0.626600
-5.141200 0.622200
-5.113000 0.618200
-5.084800 0.614100
-5.056600 0.610100
-5.028500 0.606100
-5.000300 0.602100
-4.972100 0.598000
-4.943900 0.594000
-4.915700 0.590000
-4.887600 0.586000
-4.859400 0.582000
-4.831200 0.577900
-4.803000 0.573900
-4.774800 0.569900
-4.746700 0.565900
-4.718500 0.561900
-4.690300 0.557800
-4.662100 0.553800
-4.633900 0.549800
-4.605800 0.545800
-4.577600 0.541800
-4.549400 0.537700
-4.521200 0.533700
-4.493000 0.529700
-4.464900 0.525700
-4.436700 0.521700
-4.408500 0.517600
-4.380300 0.513600
-4.352100 0.509600
-4.324000 0.505600
-4.295800 0.501600
-4.267600 0.497600
-4.239400 0.664500
-4.211300 0.816800
-4.183100 0.926400
-4.154900 0.993600
-4.126700 0.971500
-4.098500 0.927200
-4.070400 0.895500
-4.042200 0.867200
-4.014000 0.767500
-3.985800 0.625100
-3.957600 0.501100
-3.929500 0.395600
-3.901300 0.308600
-3.873100 0.240000
-3.844900 13.015600
-3.816700 0.941900
-3.788600 0.932300
-3.760400 0.928600
-3.732200 0.930800
-3.704000 0.939000
-3.675800 0.953000
-3.647700 0.973000
-3.619500 0.998900
-3.591300 1.027700
-3.563100 1.056400
-3.534900 1.085200
-3.506800 1.113900
-3.478600 1.142600
-3.450400 1.171400
-3.422200 1.200100
-3.394000 1.228900
-3.365900 1.257600
-3.337700 1.286300
-3.309500 1.315100
-3.281300 1.343800
-3.253200 1.372600
-3.225000 1.401300
-3.196800 1.430400
-3.168600 1.459900
-3.140400 1.489500
-3.112300 1.519100
-3.084100 1.548700
-3.055900 1.578300
-3.027700 1.607800
-2.999500 1.637400
-2.971400 1.667000
-2.943200 1.696600
-2.915000 2.121700
-2.886800 2.312000
-2.858600 2.397700
-2.830500 2.482900
-2.802300 2.567800
-2.774100 2.652200
-2.745900 2.736300
-2.717700 2.820000
-2.689600 2.903300
-2.661400 2.986200
-2.633200 3.068700
-2.605000 3.155000
-2.576800 3.316700
-2.548700 3.577700
-2.520500 3.842300
-2.492300 4.057900
-2.464100 4.224500
-2.435900 4.342100
-2.407800 4.410700
-2.379600 4.618000
-2.351400 4.495100
-2.323200 4.123700
-2.295100 3.638100
-2.266900 2.945500
-2.238700 2.431400
-2.210500 2.309500
-2.182300 2.205800
-2.154200 2.120300
-2.126000 2.053100
-2.097800 1.239700
-2.069600 0.367100
-2.041400 1.428300
-2.013300 2.408500
-1.985100 3.231800
-1.956900 3.911900
-1.928700 4.591800
-1.900500 5.292000
-1.872400 6.009700
-1.844200 6.108300
-1.816000 5.815900
-1.787800 5.489200
-1.759600 5.134300
-1.731500 4.857400
-1.703300 4.645800
-1.675100 4.499700
-1.646900 4.403500
-1.618700 4.298200
-1.590600 4.178100
-1.562400 4.043100
-1.534200 3.893300
-1.506000 3.741600
-1.477800 3.620400
-1.449700 3.482300
-1.421500 3.343500
-1.393300 3.203800
-1.365100 3.063400
-1.337000 2.922200
-1.308800 2.780300
-1.280600 2.637500
-1.252400 2.495100
-1.224200 2.378500
-1.196100 2.919800
-1.167900 2.822200
-1.139700 2.760900
-1.111500 2.703500
-1.083300 2.824000
-1.055200 2.605400
-1.027000 2.398700
-0.998800 2.179400
-0.970600 1.945600
-0.942400 1.697300
-0.914300 1.434500
-0.886100 1.200900
-0.857900 0.986100
-0.829700 0.771600
-0.801500 0.560000
-0.773400 0.434400
-0.745200 0.311600
-0.717000 0.000000
-0.688800 0.000000
-0.660600 0.000000
-0.632500 0.000000
-0.604300 0.000000
-0.576100 0.000000
-0.547900 0.000000
-0.519700 0.000000
-0.491600 0.000000
-0.463400 0.000000
-0.435200 0.000000
-0.407000 0.000000
-0.378900 0.000000
-0.350700 0.000000
-0.322500 0.000000
-0.294300 0.000000
-0.266100 0.000000
-0.238000 0.000000
-0.209800 0.000000
-0.181600 0.000000
-0.153400 0.000000
-0.125200 0.000000
-0.097100 0.000000
-0.068900 0.000000
-0.040700 0.000000
-0.012500 0.000000
0.015700 0.000000
0.043800 0.000000
0.072000 0.000000
0.100200 0.001400
0.128400 0.650700
0.156600 1.378400
0.184700 1.962700
0.212900 2.507900
0.241100 2.606300
0.269300 2.789600
0.297500 3.201800
0.325600 2.425300
0.353800 2.397600
0.382000 2.748900
0.410200 3.128300
0.438400 3.377600
0.466500 3.249100
0.494700 3.042400
0.522900 2.925500
0.551100 2.832900
0.579200 2.706300
0.607400 2.545900
0.635600 2.357800
0.663800 2.345800
0.692000 2.334000
0.720100 2.322200
0.748300 2.310600
0.776500 2.299100
0.804700 2.287700
0.832900 2.276400
0.861000 2.265300
0.889200 2.254200
0.917400 2.243300
0.945600 2.232500
0.973800 2.230300
1.001900 2.241000
1.030100 2.246800
1.058300 2.232000
1.086500 2.181400
1.114700 2.120000
1.142800 2.071300
1.171000 2.021000
1.199200 1.969300
1.227400 1.924000
1.255600 1.970500
1.283700 2.064700
1.311900 2.161000
1.340100 2.263400
1.368300 2.455300
1.396500 2.663900
1.424600 2.941600
1.452800 3.186000
1.481000 3.865300
1.509200 4.132000
1.537300 3.698300
1.565500 3.348600
1.593700 3.184600
1.621900 3.027900
1.650100 2.897000
1.678200 2.779500
1.706400 2.671600
1.734600 2.573400
1.762800 2.484900
1.791000 2.406100
1.819100 2.337100
1.847300 2.277700
1.875500 2.228000
1.903700 2.188000
1.931900 2.157600
1.960000 2.137000
1.988200 2.125100
2.016400 2.120200
2.044600 2.127400
2.072800 2.150500
2.100900 2.189600
2.129100 2.244700
2.157300 2.315700
2.185500 2.402700
2.213700 2.499600
2.241800 2.590900
2.270000 2.672400
2.298200 2.744600
2.326400 2.835100
2.354600 2.919200
2.382700 2.988800
2.410900 3.043800
2.439100 3.084300
2.467300 3.110300
2.495400 3.121700
2.523600 3.118700
2.551800 3.101100
2.580000 3.066900
2.608200 2.993800
2.636300 4.385200
2.664500 4.000200
2.692700 4.061600
2.720900 3.633700
2.749100 2.759700
2.777200 1.712400
2.805400 1.406100
2.833600 1.338800
2.861800 1.270400
2.890000 1.200800
2.918100 1.130200
2.946300 1.058500
2.974500 0.996200
3.002700 0.966600
3.030900 0.938000
3.059000 0.910500
3.087200 0.884100
3.115400 0.858700
3.143600 0.834400
3.171800 0.811200
3.199900 0.789100
3.228100 0.774500
3.256300 0.778900
3.284500 0.802500
3.312700 0.845300
3.340800 0.907300
3.369000 0.988500
3.397200 1.089000
3.425400 1.208600
3.453500 1.347100
3.481700 1.519200
3.509900 2.461900
3.538100 6.179100
3.566300 3.884300
3.594400 2.444000
3.622600 2.444000
3.650800 2.434300
3.679000 2.414900
3.707200 2.385900
3.735300 2.347200
3.763500 2.298800
3.791700 2.240700
3.819900 1.869200
3.848100 1.760800
3.876200 1.772200
3.904400 1.784000
3.932600 1.796100
3.960800 1.808700
3.989000 1.821600
4.017100 1.834800
4.045300 1.848500
4.073500 1.862500
4.101700 2.359900
4.129900 2.336400
4.158000 2.334300
4.186200 2.353600
4.214400 2.398400
4.242600 2.450300
4.270800 2.246800
4.298900 2.008000
4.327100 2.055800
4.355300 2.140800
4.383500 2.240000
4.411600 2.371200
4.439800 2.492600
4.468000 2.604100
4.496200 2.705700
4.524400 2.797500
4.552500 2.879400
4.580700 2.951400
4.608900 3.014000
4.637100 3.068500
4.665300 3.115200
4.693400 3.329600
4.721600 4.209800
4.749800 4.616000
4.778000 4.933200
4.806200 5.161400
4.834300 5.520800
4.862500 5.419900
4.890700 5.303800
4.918900 5.172300
4.947100 5.025700
4.975200 6.920300
5.003400 2.981100
5.031600 2.782900
5.059800 2.531600
5.088000 2.321900
5.116100 2.246500
5.144300 2.387200
5.172500 2.812700
5.200700 3.379700
5.228900 3.553500
5.257000 3.718100
5.285200 3.875700
5.313400 3.955500
5.341600 3.929500
5.369700 3.864200
5.397900 3.937700
5.426100 4.026900
5.454300 4.131800
5.482500 4.524200
5.510600 4.811000
5.538800 5.104700
5.567000 5.405200
5.595200 5.708400
5.623400 4.568500
5.651500 3.935800
5.679700 3.269700
5.707900 3.107500
5.736100 8.929100
5.764300 4.920800
5.792400 4.694500
5.820600 4.521800
5.848800 4.418900
5.877000 4.378200
5.905200 4.354700
5.933300 4.340100
5.961500 4.332100
5.989700 4.417600
6.017900 4.474600
6.046100 4.591200
6.074200 4.767500
6.102400 5.012700
6.130600 5.105500
6.158800 4.806400
6.187000 4.507400
6.215100 4.260600
6.243300 4.109700
6.271500 4.155900
6.299700 4.075500
6.327800 3.983700
6.356000 3.880600
6.384200 3.766000
6.412400 3.640000
6.440600 3.502700
6.468700 3.364600
6.496900 3.395800
6.525100 3.289100
6.553300 3.186800
6.581500 3.089000
6.609600 3.069900
6.637800 3.070200
6.666000 2.811800
6.694200 2.716200
6.722400 2.622400
6.750500 2.579700
6.778700 3.667800
6.806900 3.059800
6.835100 2.711600
6.863300 2.548700
6.891400 2.389500
6.919600 2.228900
6.947800 2.068900
6.976000 1.909500
7.004200 1.750700
7.032300 1.592500
7.060500 1.457900
7.088700 1.390400
7.116900 1.339400
7.145100 1.300300
7.173200 1.273000
7.201400 1.257600
7.229600 1.253900
7.257800 1.261800
7.285900 1.278300
7.314100 1.303200
7.342300 1.336400
7.370500 1.377800
7.398700 1.427600
7.426800 1.485600
7.455000 1.551900
7.483200 1.626100
7.511400 1.705700
7.539600 1.790400
7.567700 1.880100
7.595900 2.040000
7.624100 2.212100
7.652300 2.296900
7.680500 2.393100
7.708600 2.532500
7.736800 2.724500
7.765000 2.969100
7.793200 3.265100
7.821400 3.612600
7.849500 4.040800
7.877700 4.560400
7.905900 5.164900
7.934100 5.463600
7.962300 5.487200
7.990400 5.487900
8.018600 5.364700
8.046800 5.251100
8.075000 4.954400
8.103200 4.939400
8.131300 4.734200
8.159500 4.494200
8.187700 4.268000
8.215900 4.052900
8.244000 3.848900
8.272200 3.656100
8.300400 3.474500
8.328600 3.304000
8.356800 3.141100
8.384900 2.979800
8.413100 2.813800
8.441300 2.642600
8.469500 2.310700
8.497700 2.108800
8.525800 1.981000
8.554000 1.977200
8.582200 1.962600
8.610400 2.010900
8.638600 2.107000
8.666700 2.115500
8.694900 2.175000
8.723100 2.303400
8.751300 2.477200
8.779500 2.718400
8.807600 2.986400
8.835800 3.245300
8.864000 3.488100
8.892200 3.819900
8.920400 4.108800
8.948500 4.383700
8.976700 4.645400
9.004900 4.886200
9.033100 5.105400
9.061300 5.292300
9.089400 5.346600
9.117600 5.126500
9.145800 4.891700
9.174000 4.597800
9.202100 4.344900
9.230300 4.158100
9.258500 4.046700
9.286700 4.895000
9.314900 5.430000
9.343000 5.353200
9.371200 5.902600
9.399400 6.576100
9.427600 6.935200
9.455800 7.196500
9.483900 7.345400
9.512100 6.883700
9.540300 6.387800
9.568500 5.834200
9.596700 5.475100
9.624800 5.172300
9.653000 4.473900
9.681200 3.791300
9.709400 3.800300
9.737600 3.851600
9.765700 4.082800
9.793900 4.316200
9.822100 4.432900
9.850300 4.551900
9.878500 4.676100
9.906600 4.805300
9.934800 4.939700
9.963000 5.085000
9.991200 5.300600
10.019400 5.562000
10.047500 5.876200
10.075700 6.157000
10.103900 6.398900
10.132100 6.583400
10.160200 4.446900
10.188400 3.375700
10.216600 3.029000
10.244800 2.715200
10.273000 2.434000
10.301100 2.185700
10.329300 1.970000
10.357500 1.787000
10.385700 1.619100
10.413900 1.454100
10.442000 1.305500
10.470200 1.216200
10.498400 1.180400
10.526600 1.313300
10.554800 1.500500
10.582900 1.742100
10.611100 2.038000
10.639300 2.388300
10.667500 3.459200
10.695700 4.215900
10.723800 4.807200
10.752000 5.190900
10.780200 5.461800
10.808400 5.703300
10.836600 5.910200
10.864700 6.048000
10.892900 6.116800
10.921100 6.175600
10.949300 6.215300
10.977500 5.311000
11.005600 4.919800
11.033800 4.663800
11.062000 4.414000
11.090200 4.170400
11.118300 3.932900
11.146500 3.701700
11.174700 3.476600
11.202900 3.259700
11.231100 3.063700
11.259200 2.879400
11.287400 2.706200
11.315600 2.535200
11.343800 2.398800
11.372000 2.275800
11.400100 2.171800
11.428300 2.067700
11.456500 1.963400
11.484700 1.874200
11.512900 1.920400
11.541000 2.127900
11.569200 2.575200
11.597400 3.388900
11.625600 5.060800
11.653800 6.379300
11.681900 7.759500
11.710100 9.459000
11.738300 9.685600
11.766500 7.927700
11.794700 7.389600
11.822800 6.939000
11.851000 6.531700
11.879200 6.096500
11.907400 5.543800
11.935600 4.963400
11.963700 4.255100
11.991900 3.820300
12.020100 3.618000
12.048300 3.532400
12.076400 3.459500
12.104600 3.393700
12.132800 3.332000
12.161000 3.273600
12.189200 3.219100
12.217300 3.168500
12.245500 3.082700
12.273700 3.043600
12.301900 3.061100
12.330100 3.103900
12.358200 3.167900
12.386400 3.256900
12.414600 3.371100
12.442800 3.507900
12.471000 4.026900
12.499100 5.815200
12.527300 6.402500
12.555500 6.393400
12.583700 6.320200
12.611900 6.279300
12.640000 6.273000
12.668200 6.301400
12.696400 6.403800
12.724600 6.413700
12.752800 6.328900
12.780900 6.134300
12.809100 5.915400
12.837300 5.632900
12.865500 5.294100
12.893700 4.967500
12.921800 4.915100
12.950000 5.807500
12.978200 4.074700
13.006400 3.867300
13.034600 3.743600
13.062700 3.620800
13.090900 3.499100
13.119100 3.422500
13.147300 3.357900
13.175400 3.303000
13.203600 3.257700
13.231800 3.159100
13.260000 3.213500
13.288200 3.193800
13.316300 3.183400
13.344500 3.182200
13.372700 3.190000
13.400900 3.185900
13.429100 3.194200
13.457200 3.267700
13.485400 3.386700
13.513600 3.518100
13.541800 3.661900
13.570000 3.854000
13.598100 4.221200
13.626300 4.287300
13.654500 4.323000
13.682700 4.346300
13.710900 4.351300
13.739000 4.806100
13.767200 4.301100
13.795400 3.786500
13.823600 3.668300
13.851800 3.683000
13.879900 3.691300
13.908100 3.691500
13.936300 3.683300
13.964500 3.725100
13.992700 3.836000
14.020800 3.996800
14.049000 4.207500
14.077200 4.572800
14.105400 4.819500
14.133500 5.133500
14.161700 5.149700
14.189900 5.122200
14.218100 5.050900
14.246300 4.618100
14.274400 4.014000
14.302600 3.571700
14.330800 3.776800
14.359000 4.235800
14.387200 4.633900
14.415300 4.971300
14.443500 5.248000
14.471700 5.471900
14.499900 6.834800
14.528100 6.859300
14.556200 6.803200
14.584400 6.624400
14.612600 6.311700
14.640800 5.828200
14.669000 5.231200
14.697100 5.458100
14.725300 6.246600
14.753500 6.641000
14.781700 5.412600
14.809900 5.072300
14.838000 4.731400
14.866200 4.393200
14.894400 4.086300
14.922600 3.795500
14.950800 3.520800
14.978900 3.263300
15.007100 3.028300
15.035300 2.816400
15.063500 2.670800
15.091600 2.627600
15.119800 2.717600
15.148000 3.317400
15.176200 3.822900
15.204400 4.120200
15.232500 4.617500
15.260700 5.049000
15.288900 5.106500
15.317100 5.297300
15.345300 5.195100
15.373400 5.084200
15.401600 5.096200
15.429800 5.369700
15.458000 5.463100
15.486200 5.475900
15.514300 5.469600
15.542500 5.444400
15.570700 5.396300
15.598900 5.386000
15.627100 5.176400
15.655200 4.999500
15.683400 4.836500
15.711600 4.648200
15.739800 4.432400
15.768000 4.188900
15.796100 3.917700
15.824300 3.618600
15.852500 3.348000
15.880700 3.145900
15.908900 3.036700
15.937000 2.997300
15.965200 2.989400
15.993400 2.995200
16.021600 3.014700
16.049700 3.047900
16.077900 3.094600
16.106100 3.154300
16.134300 3.227100
16.162500 3.313000
16.190600 3.411900
16.218800 3.523800
16.247000 4.299200
16.275200 4.656800
16.303400 5.206100
16.331500 5.879500
16.359700 6.676800
16.387900 6.216000
16.416100 5.346800
16.444300 4.987800
16.472400 4.701300
16.500600 4.487100
16.528800 4.345200
16.557000 4.266800
16.585200 4.195200
16.613300 4.119600
16.641500 4.048100
16.669700 3.978500
16.697900 3.906700
16.726100 3.832700
16.754200 3.737300
16.782400 3.661100
16.810600 3.559800
16.838800 3.531600
16.867000 3.509200
16.895100 3.485500
16.923300 3.460900
16.951500 3.411100
16.979700 3.409400
17.007800 3.504200
17.036000 3.847300
17.064200 4.033700
17.092400 4.191600
17.120600 4.533000
17.148700 5.003600
17.176900 5.467500
17.205100 5.923700
17.233300 6.372400
17.261500 6.813600
17.289600 7.247100
17.317800 8.841100
17.346000 7.184500
17.374200 7.527100
17.402400 7.705900
17.430500 8.399500
17.458700 8.137200
17.486900 7.802500
17.515100 7.639000
17.543300 7.449600
17.571400 7.238500
17.599600 6.942900
17.627800 6.664000
17.656000 6.401600
17.684200 6.151100
17.712300 5.858800
17.740500 5.512600
17.768700 5.574800
17.796900 5.816200
17.825100 6.897300
17.853200 7.339600
17.881400 7.342200
17.909600 7.346000
17.937800 7.153800
17.965900 12.033300
17.994100 11.407100
18.022300 9.938500
18.050500 8.119000
18.078700 6.771900
18.106800 5.573300
18.135000 4.786200
18.163200 4.059700
18.191400 3.956700
18.219600 3.855500
18.247700 3.768500
18.275900 3.710100
18.304100 3.659500
18.332300 3.616600
18.360500 3.581400
18.388600 3.554000
18.416800 3.403200
18.445000 3.454800
18.473200 3.546100
18.501400 3.666300
18.529500 3.799900
18.557700 4.152100
18.585900 4.310100
18.614100 4.452800
18.642300 4.580300
18.670400 4.727700
18.698600 4.785000
18.726800 4.899700
18.755000 5.099100
18.783200 5.274300
18.811300 5.442000
18.839500 5.602400
18.867700 5.755500
18.895900 5.901400
18.924000 5.705600
18.952200 5.675200
18.980400 5.610100
19.008600 5.520600
19.036800 5.430400
19.064900 5.312100
19.093100 5.178800
19.121300 5.031300
19.149500 4.798600
19.177700 4.176100
19.205800 3.757000
19.234000 4.051000
19.262200 4.370300
19.290400 5.116000
19.318600 6.387700
19.346700 7.842700
19.374900 9.139100
19.403100 7.791400
19.431300 6.641000
19.459500 5.812700
19.487600 5.599500
19.515800 5.634000
19.544000 5.538600
19.572200 5.418200
19.600400 5.264400
19.628500 4.929400
19.656700 4.490100
19.684900 3.971800
19.713100 3.599300
19.741300 3.313100
19.769400 3.107700
19.797600 2.983300
19.825800 2.922500
19.854000 2.891600
19.882100 2.896700
19.910300 2.937900
19.938500 3.015300
19.966700 3.127400
19.994900 3.248500
20.023000 3.373700
20.051200 3.502900
20.079400 3.624900
20.107600 3.684200
20.135800 3.672300
20.163900 3.642800
20.192100 3.595900
20.220300 3.727400
20.248500 3.752600
20.276700 3.834800
20.304800 3.945200
20.333000 4.073800
20.361200 4.220500
20.389400 4.385400
20.417600 4.190200
20.445700 4.235400
20.473900 4.265100
20.502100 4.149300
20.530300 4.014000
20.558500 3.869600
20.586600 3.716000
20.614800 3.597500
20.643000 3.446800
20.671200 4.939200
20.699400 6.516100
20.727500 5.507500
20.755700 4.766700
20.783900 4.761700
20.812100 4.909200
20.840200 5.086800
20.868400 5.198300
20.896600 5.250100
20.924800 5.320700
20.953000 5.433600
20.981100 5.588800
21.009300 5.658600
21.037500 4.950400
21.065700 5.301400
21.093900 5.649900
21.122000 6.049200
21.150200 6.485100
21.178400 7.108000
21.206600 7.609400
21.234800 7.589600
21.262900 7.084300
21.291100 6.610200
21.319300 6.209500
21.347500 5.893000
21.375700 5.686200
21.403800 5.596500
21.432000 5.607300
21.460200 5.636400
21.488400 5.672600
21.516600 5.791700
21.544700 7.226900
21.572900 10.434000
21.601100 9.689400
21.629300 8.394200
21.657500 7.955900
21.685600 7.542900
21.713800 7.610500
21.742000 7.766700
21.770200 7.908700
21.798300 7.386200
21.826500 6.792500
21.854700 6.636200
21.882900 7.162500
21.911100 7.206600
21.939200 7.298100
21.967400 6.857500
21.995600 6.511300
22.023800 5.975200
22.052000 5.605400
22.080100 5.589000
22.108300 5.860700
22.136500 6.288300
22.164700 6.694900
22.192900 7.006800
22.221000 7.249300
22.249200 7.468300
22.277400 7.663700
22.305600 7.844500
22.333800 8.045200
22.361900 8.011100
22.390100 7.360800
22.418300 6.579100
22.446500 5.981100
22.474700 5.478500
22.502800 5.222300
22.531000 4.752900
22.559200 4.434000
22.587400 4.112400
22.615600 3.788100
22.643700 3.461200
22.671900 3.131700
22.700100 2.827900
22.728300 2.660600
22.756400 2.654300
22.784600 3.007200
22.812800 4.733300
22.841000 5.021700
22.869200 5.433600
22.897300 5.484200
22.925500 5.484100
22.953700 5.471000
22.981900 5.410100
23.010100 5.321300
23.038200 5.251500
23.066400 5.268200
23.094600 5.425300
23.122800 5.523900
23.151000 5.675100
23.179100 5.926700
23.207300 6.267600
23.235500 6.321500
23.263700 6.331700
23.291900 6.351600
23.320000 6.812300
23.348200 6.903900
23.376400 5.538200
23.404600 5.299200
23.432800 5.149700
23.460900 5.062700
23.489100 4.973800
23.517300 4.879400
23.545500 4.779500
23.573700 4.674200
23.601800 4.604100
23.630000 4.311000
23.658200 4.318400
23.686400 4.367100
23.714500 4.424900
23.742700 4.488300
23.770900 6.526300
23.799100 7.002000
23.827300 6.293900
23.855400 6.222300
23.883600 7.377000
23.911800 7.094900
23.940000 5.759100
23.968200 5.808800
23.996300 5.853800
24.024500 5.894200
24.052700 5.930000
24.080900 5.961200
24.109100 5.987800
24.137200 6.012300
24.165400 6.037900
24.193600 6.064700
24.221800 6.077400
24.250000 6.073200
24.278100 6.016300
24.306300 5.939300
24.334500 5.845900
24.362700 5.735400
24.390900 5.627300
24.419000 5.529100
24.447200 5.413300
24.475400 5.283700
24.503600 5.141200
24.531800 4.986000
24.559900 4.822500
24.588100 4.651700
24.616300 4.473700
24.644500 4.295800
24.672600 4.112800
24.700800 3.922400
24.729000 3.556500
24.757200 3.196500
24.785400 2.958000
24.813500 2.751700
24.841700 2.556600
24.869900 2.372900
24.898100 2.201400
24.926300 2.045200
24.954400 1.896500
24.982600 1.750400
25.010800 1.601900
25.039000 1.450900
25.067200 1.297400
25.095300 1.141300
25.123500 0.982700
25.151700 0.824100
25.179900 0.690300
25.208100 0.581300
25.236200 0.487400
25.264400 0.408600
25.292600 0.344900
25.320800 0.296400
25.349000 0.262900
25.377100 0.244000
25.405300 0.229300
25.433500 0.215200
25.461700 0.201900
25.489900 0.189200
25.518000 0.177000
25.546200 0.165200
25.574400 0.153500
25.602600 0.141900
25.630700 0.130500
25.658900 0.119600
25.687100 0.109200
25.715300 0.099200
25.743500 0.089800
25.771600 0.080800
25.799800 0.072200
25.828000 0.064200
25.856200 0.056600
25.884400 0.049500
25.912500 0.042900
25.940700 0.036700
25.968900 0.031100
25.997100 0.025900
26.025300 0.021200
26.053400 0.016900
26.081600 0.013200
26.109800 0.009900
26.138000 0.007100
26.166200 0.004700
26.194300 0.002900
26.222500 0.001500
26.250700 0.000600
26.278900 0.000100
26.307100 0.000000
26.335200 0.000000
26.363400 0.000000
26.391600 0.000000
26.419800 0.000000
26.448000 0.000000
26.476100 0.000000
26.504300 0.000000
26.532500 0.000000
26.560700 0.000000
26.588800 0.000000
26.617000 0.000000
26.645200 0.000000
26.673400 0.000000
26.701600 0.000000
26.729700 0.000000
26.757900 0.000000
26.786100 0.000000
26.814300 0.000000
26.842500 0.000000
26.870600 0.000000
26.898800 0.000000
26.927000 0.000000
26.955200 0.000000
26.983400 0.000000
27.011500 0.000000
27.039700 0.000000
27.067900 0.000000
27.096100 0.000000
27.124300 0.000000
27.152400 0.000000
27.180600 0.000000
27.208800 0.000000
27.237000 0.000000
27.265200 0.000000
27.293300 0.000000
27.321500 0.000000
27.349700 0.000000
27.377900 0.000000
27.406100 0.000000
27.434200 0.000000
27.462400 0.000000
27.490600 0.000000
27.518800 0.000000
27.546900 0.000000
27.575100 0.000000
27.603300 0.000000
27.631500 0.000000
27.659700 0.000000
27.687800 0.000000
27.716000 0.000000
27.744200 0.000000
27.772400 0.000000
27.800600 0.000000
27.828700 0.000000
27.856900 0.000000
27.885100 0.000000
27.913300 0.000000
27.941500 0.000000
27.969600 0.000000
27.997800 0.000000
28.026000 0.000000
28.054200 0.000000
28.082400 0.000000
28.110500 0.000000
28.138700 0.000000
28.166900 0.000000
28.195100 0.000000
28.223300 0.000000
28.251400 0.000000
28.279600 0.000000
28.307800 0.000000
28.336000 0.000000
28.364200 0.000000
28.392300 0.000000
28.420500 0.000000
28.448700 0.000000
28.476900 0.000000
28.505000 0.000000
28.533200 0.000000
28.561400 0.000000
28.589600 0.000000
28.617800 0.000000
28.645900 0.000000
28.674100 0.000000
28.702300 0.000000
28.730500 0.000000
28.758700 0.000000
28.786800 0.000000
28.815000 0.000000
28.843200 0.000000
28.871400 0.000000
e
