set title 'mp-7591 - Density of States'
set xlabel 'Energy (eV)'
set ylabel 'DOS (states/eV)'
set grid
set xrange [-10:10]
set yrange [0:1.581]
set xzeroaxis lt -1
set terminal png size 800,600
set output 'mp-7591_dos_gnuplot.png'
plot '-' using 1:2 with lines title 'DOS'
-22.712900 0.000000
-22.688800 0.000000
-22.664700 0.000000
-22.640600 0.000000
-22.616500 0.000000
-22.592400 0.000000
-22.568200 0.000000
-22.544100 0.000000
-22.520000 0.000000
-22.495900 0.000000
-22.471800 0.000000
-22.447600 0.000000
-22.423500 0.000000
-22.399400 0.000000
-22.375300 0.000000
-22.351200 0.000000
-22.327100 0.000000
-22.302900 0.000000
-22.278800 0.000000
-22.254700 0.000000
-22.230600 0.000000
-22.206500 0.000000
-22.182400 0.000000
-22.158200 0.000000
-22.134100 0.000000
-22.110000 0.000000
-22.085900 0.000000
-22.061800 0.000000
-22.037600 0.000000
-22.013500 0.000000
-21.989400 0.000000
-21.965300 0.000000
-21.941200 0.000000
-21.917100 0.000000
-21.892900 0.000000
-21.868800 0.000000
-21.844700 0.000000
-21.820600 0.000000
-21.796500 0.000000
-21.772300 0.000000
-21.748200 0.000000
-21.724100 0.000000
-21.700000 0.000000
-21.675900 0.000000
-21.651800 0.000000
-21.627600 0.000000
-21.603500 0.000000
-21.579400 0.000000
-21.555300 0.000000
-21.531200 0.000000
-21.507100 0.000000
-21.482900 0.000000
-21.458800 0.000000
-21.434700 0.000000
-21.410600 0.000000
-21.386500 0.000000
-21.362300 0.000000
-21.338200 0.000000
-21.314100 0.000000
-21.290000 0.000000
-21.265900 0.000000
-21.241800 0.000000
-21.217600 0.000000
-21.193500 0.000000
-21.169400 0.000000
-21.145300 0.000000
-21.121200 0.000000
-21.097000 0.000000
-21.072900 0.000000
-21.048800 0.000000
-21.024700 0.000000
-21.000600 0.000000
-20.976500 0.000000
-20.952300 0.000000
-20.928200 0.000000
-20.904100 0.000000
-20.880000 0.000000
-20.855900 0.000000
-20.831800 0.000000
-20.807600 0.000000
-20.783500 0.000000
-20.759400 0.000000
-20.735300 0.000000
-20.711200 0.000000
-20.687000 0.000000
-20.662900 0.000000
-20.638800 0.000000
-20.614700 0.000000
-20.590600 0.000000
-20.566500 0.000000
-20.542300 0.000000
-20.518200 78.324000
-20.494100 135.483400
-20.470000 0.000000
-20.445900 0.000000
-20.421700 0.000000
-20.397600 0.000000
-20.373500 0.000000
-20.349400 0.000000
-20.325300 0.000000
-20.301200 0.000000
-20.277000 0.000000
-20.252900 0.000000
-20.228800 0.000000
-20.204700 0.000000
-20.180600 0.000000
-20.156500 0.000000
-20.132300 0.000000
-20.108200 0.000000
-20.084100 0.000000
-20.060000 0.000000
-20.035900 0.000000
-20.011700 0.000000
-19.987600 0.000000
-19.963500 0.000000
-19.939400 0.000000
-19.915300 0.000000
-19.891200 0.000000
-19.867000 0.000000
-19.842900 0.000000
-19.818800 0.000000
-19.794700 0.000000
-19.770600 0.000000
-19.746400 0.000000
-19.722300 0.000000
-19.698200 0.000000
-19.674100 0.000000
-19.650000 0.000000
-19.625900 0.000000
-19.601700 0.000000
-19.577600 0.000000
-19.553500 0.000000
-19.529400 0.000000
-19.505300 0.000000
-19.481200 0.000000
-19.457000 0.000000
-19.432900 0.000000
-19.408800 0.000000
-19.384700 0.000000
-19.360600 0.000000
-19.336400 0.000000
-19.312300 0.000000
-19.288200 0.000000
-19.264100 0.000000
-19.240000 0.000000
-19.215900 0.000000
-19.191700 0.000000
-19.167600 0.000000
-19.143500 0.000000
-19.119400 0.000000
-19.095300 0.000000
-19.071100 0.000000
-19.047000 0.000000
-19.022900 0.000000
-18.998800 0.000000
-18.974700 0.000000
-18.950600 0.000000
-18.926400 0.000000
-18.902300 0.000000
-18.878200 0.000000
-18.854100 0.000000
-18.830000 0.000000
-18.805900 0.000000
-18.781700 0.000000
-18.757600 0.000000
-18.733500 0.000000
-18.709400 0.000000
-18.685300 0.000000
-18.661100 0.000000
-18.637000 0.000000
-18.612900 0.000000
-18.588800 0.000000
-18.564700 0.000000
-18.540600 0.000000
-18.516400 0.000000
-18.492300 0.000000
-18.468200 0.000000
-18.444100 0.000000
-18.420000 0.000000
-18.395800 0.000000
-18.371700 0.000000
-18.347600 0.000000
-18.323500 0.000000
-18.299400 0.000000
-18.275300 0.000000
-18.251100 0.000000
-18.227000 0.000000
-18.202900 0.000000
-18.178800 0.000000
-18.154700 0.000000
-18.130600 0.000000
-18.106400 0.000000
-18.082300 0.000000
-18.058200 0.000000
-18.034100 0.000000
-18.010000 0.000000
-17.985800 0.000000
-17.961700 0.000000
-17.937600 0.000000
-17.913500 0.000000
-17.889400 0.000000
-17.865300 0.000000
-17.841100 0.000000
-17.817000 0.000000
-17.792900 0.000000
-17.768800 0.000000
-17.744700 0.000000
-17.720600 0.000000
-17.696400 0.000000
-17.672300 0.000000
-17.648200 0.000000
-17.624100 0.000000
-17.600000 0.000000
-17.575800 0.000000
-17.551700 0.000000
-17.527600 0.000000
-17.503500 0.000000
-17.479400 0.000000
-17.455300 0.000000
-17.431100 0.000000
-17.407000 0.000000
-17.382900 0.000000
-17.358800 0.000000
-17.334700 0.000000
-17.310500 0.000000
-17.286400 0.000000
-17.262300 0.000000
-17.238200 0.000000
-17.214100 0.000000
-17.190000 0.000000
-17.165800 0.000000
-17.141700 0.000000
-17.117600 0.000000
-17.093500 0.000000
-17.069400 0.000000
-17.045300 0.000000
-17.021100 0.000000
-16.997000 0.000000
-16.972900 0.000000
-16.948800 0.000000
-16.924700 0.000000
-16.900500 0.000000
-16.876400 0.000000
-16.852300 0.000000
-16.828200 0.000000
-16.804100 0.000000
-16.780000 0.000000
-16.755800 0.000000
-16.731700 0.000000
-16.707600 0.000000
-16.683500 0.000000
-16.659400 0.000000
-16.635200 0.000000
-16.611100 0.000000
-16.587000 0.000000
-16.562900 0.000000
-16.538800 0.000000
-16.514700 0.000000
-16.490500 0.000000
-16.466400 0.000000
-16.442300 0.000000
-16.418200 0.000000
-16.394100 0.000000
-16.370000 0.000000
-16.345800 0.000000
-16.321700 0.000000
-16.297600 0.000000
-16.273500 0.000000
-16.249400 0.000000
-16.225200 0.000000
-16.201100 0.000000
-16.177000 0.000000
-16.152900 0.000000
-16.128800 0.000000
-16.104700 0.000000
-16.080500 0.000000
-16.056400 0.000000
-16.032300 0.000000
-16.008200 0.000000
-15.984100 0.000000
-15.959900 0.000000
-15.935800 0.000000
-15.911700 0.000000
-15.887600 0.000000
-15.863500 0.000000
-15.839400 0.000000
-15.815200 0.000000
-15.791100 0.000000
-15.767000 0.000000
-15.742900 0.000000
-15.718800 0.000000
-15.694700 0.000000
-15.670500 0.000000
-15.646400 0.000000
-15.622300 0.000000
-15.598200 0.000000
-15.574100 0.000000
-15.549900 0.000000
-15.525800 0.000000
-15.501700 0.000000
-15.477600 0.000000
-15.453500 0.000000
-15.429400 0.000000
-15.405200 0.000000
-15.381100 0.000000
-15.357000 0.000000
-15.332900 0.000000
-15.308800 0.000000
-15.284600 0.000000
-15.260500 0.000000
-15.236400 0.000000
-15.212300 0.000000
-15.188200 0.000000
-15.164100 0.000000
-15.139900 0.000000
-15.115800 0.000000
-15.091700 0.000000
-15.067600 0.000000
-15.043500 0.000000
-15.019400 0.000000
-14.995200 0.000000
-14.971100 0.000000
-14.947000 0.000000
-14.922900 0.000000
-14.898800 0.000000
-14.874600 0.000000
-14.850500 0.000000
-14.826400 0.000000
-14.802300 0.000000
-14.778200 0.000000
-14.754100 0.000000
-14.729900 0.000000
-14.705800 0.000000
-14.681700 0.000000
-14.657600 0.000000
-14.633500 0.000000
-14.609300 0.000000
-14.585200 0.000000
-14.561100 0.000000
-14.537000 0.000000
-14.512900 0.000000
-14.488800 0.000000
-14.464600 0.000000
-14.440500 0.000000
-14.416400 0.000000
-14.392300 0.000000
-14.368200 0.000000
-14.344100 0.000000
-14.319900 0.000000
-14.295800 0.000000
-14.271700 0.000000
-14.247600 0.000000
-14.223500 0.000000
-14.199300 0.000000
-14.175200 0.000000
-14.151100 0.000000
-14.127000 0.000000
-14.102900 0.000000
-14.078800 0.000000
-14.054600 0.000000
-14.030500 0.000000
-14.006400 0.000000
-13.982300 0.000000
-13.958200 0.000000
-13.934000 0.000000
-13.909900 0.000000
-13.885800 0.000000
-13.861700 0.000000
-13.837600 0.000000
-13.813500 0.000000
-13.789300 0.000000
-13.765200 0.000000
-13.741100 0.000000
-13.717000 0.000000
-13.692900 0.000000
-13.668800 0.000000
-13.644600 0.000000
-13.620500 0.000000
-13.596400 0.000000
-13.572300 0.000000
-13.548200 0.000000
-13.524000 0.000000
-13.499900 0.000000
-13.475800 0.000000
-13.451700 0.000000
-13.427600 0.000000
-13.403500 0.000000
-13.379300 0.000000
-13.355200 0.000000
-13.331100 0.000000
-13.307000 0.000000
-13.282900 0.000000
-13.258700 0.000000
-13.234600 0.000000
-13.210500 0.000000
-13.186400 0.000000
-13.162300 0.000000
-13.138200 0.000000
-13.114000 0.000000
-13.089900 0.000000
-13.065800 0.000000
-13.041700 0.000000
-13.017600 0.000000
-12.993500 0.000000
-12.969300 0.000000
-12.945200 0.000000
-12.921100 0.000000
-12.897000 0.000000
-12.872900 0.000000
-12.848700 0.000000
-12.824600 0.000000
-12.800500 0.000000
-12.776400 0.000000
-12.752300 0.000000
-12.728200 0.000000
-12.704000 0.000000
-12.679900 0.000000
-12.655800 0.000000
-12.631700 0.000000
-12.607600 0.000000
-12.583400 0.000000
-12.559300 0.000000
-12.535200 0.000000
-12.511100 0.000000
-12.487000 0.000000
-12.462900 0.000000
-12.438700 0.000000
-12.414600 0.000000
-12.390500 0.000000
-12.366400 0.000000
-12.342300 0.000000
-12.318200 0.000000
-12.294000 0.000000
-12.269900 0.000000
-12.245800 0.000000
-12.221700 0.000000
-12.197600 0.000000
-12.173400 0.000000
-12.149300 0.000000
-12.125200 0.000000
-12.101100 0.000000
-12.077000 0.000000
-12.052900 0.000000
-12.028700 0.000000
-12.004600 0.000000
-11.980500 0.000000
-11.956400 0.000000
-11.932300 0.000000
-11.908100 0.000000
-11.884000 0.000000
-11.859900 0.000000
-11.835800 0.000000
-11.811700 0.000000
-11.787600 0.000000
-11.763400 0.000000
-11.739300 0.000000
-11.715200 0.000000
-11.691100 0.000000
-11.667000 0.000000
-11.642900 0.000000
-11.618700 0.000000
-11.594600 0.000000
-11.570500 0.000000
-11.546400 0.000000
-11.522300 0.000000
-11.498100 0.000000
-11.474000 0.000000
-11.449900 0.000000
-11.425800 0.000000
-11.401700 0.000000
-11.377600 0.000000
-11.353400 0.000000
-11.329300 0.000000
-11.305200 0.000000
-11.281100 0.000000
-11.257000 0.000000
-11.232900 0.000000
-11.208700 0.000000
-11.184600 0.000000
-11.160500 0.000000
-11.136400 0.000000
-11.112300 0.000000
-11.088100 0.000000
-11.064000 0.000000
-11.039900 0.000000
-11.015800 0.000000
-10.991700 0.000000
-10.967600 0.000000
-10.943400 0.000000
-10.919300 0.000000
-10.895200 0.000000
-10.871100 0.000000
-10.847000 0.000000
-10.822800 0.000000
-10.798700 0.000000
-10.774600 0.000000
-10.750500 0.000000
-10.726400 0.000000
-10.702300 0.000000
-10.678100 0.000000
-10.654000 0.000000
-10.629900 0.000000
-10.605800 0.000000
-10.581700 0.000000
-10.557600 0.000000
-10.533400 0.000000
-10.509300 0.000000
-10.485200 0.000000
-10.461100 0.000000
-10.437000 0.000000
-10.412800 0.000000
-10.388700 0.000000
-10.364600 0.000000
-10.340500 0.000000
-10.316400 0.000000
-10.292300 0.000000
-10.268100 0.000000
-10.244000 0.000000
-10.219900 0.000000
-10.195800 0.000000
-10.171700 0.000000
-10.147500 0.000000
-10.123400 0.000000
-10.099300 0.000000
-10.075200 0.000000
-10.051100 0.000000
-10.027000 0.000000
-10.002800 0.000000
-9.978700 0.000000
-9.954600 0.000000
-9.930500 0.000000
-9.906400 0.000000
-9.882300 0.000000
-9.858100 0.000000
-9.834000 0.000000
-9.809900 0.000000
-9.785800 0.000000
-9.761700 0.000000
-9.737500 0.000000
-9.713400 0.000000
-9.689300 0.000000
-9.665200 0.000000
-9.641100 0.000000
-9.617000 0.000000
-9.592800 0.000000
-9.568700 0.000000
-9.544600 0.000000
-9.520500 0.000000
-9.496400 0.000000
-9.472200 0.000000
-9.448100 0.000000
-9.424000 0.009200
-9.399900 0.062200
-9.375800 0.074300
-9.351700 0.092400
-9.327500 0.115300
-9.303400 0.130300
-9.279300 0.135400
-9.255200 0.145900
-9.231100 0.157800
-9.207000 0.170300
-9.182800 0.181300
-9.158700 0.190400
-9.134600 0.197200
-9.110500 0.204300
-9.086400 0.211300
-9.062200 0.219200
-9.038100 0.228700
-9.014000 0.238300
-8.989900 0.245900
-8.965800 0.253400
-8.941700 0.259100
-8.917500 0.264400
-8.893400 0.270700
-8.869300 0.277500
-8.845200 0.284500
-8.821100 0.291700
-8.796900 0.299200
-8.772800 0.305900
-8.748700 0.312100
-8.724600 0.318500
-8.700500 0.325100
-8.676400 0.330500
-8.652200 0.336000
-8.628100 0.341900
-8.604000 0.348000
-8.579900 0.354300
-8.555800 0.360600
-8.531700 0.367000
-8.507500 0.373000
-8.483400 0.378900
-8.459300 0.385300
-8.435200 0.391700
-8.411100 0.398400
-8.386900 0.404400
-8.362800 0.409900
-8.338700 0.415700
-8.314600 0.421500
-8.290500 0.427300
-8.266400 0.433300
-8.242200 0.440100
-8.218100 0.446800
-8.194000 0.453400
-8.169900 0.459700
-8.145800 0.466100
-8.121600 0.472700
-8.097500 0.479400
-8.073400 0.486200
-8.049300 0.493200
-8.025200 0.499600
-8.001100 0.506400
-7.976900 0.513600
-7.952800 0.520900
-7.928700 0.528200
-7.904600 0.535700
-7.880500 0.543400
-7.856400 0.551200
-7.832200 0.558900
-7.808100 0.566800
-7.784000 0.575000
-7.759900 0.583400
-7.735800 0.592400
-7.711600 0.601700
-7.687500 0.611200
-7.663400 0.621200
-7.639300 0.631400
-7.615200 0.641900
-7.591100 0.652600
-7.566900 0.663800
-7.542800 0.675300
-7.518700 0.687300
-7.494600 0.699900
-7.470500 0.713200
-7.446300 0.727800
-7.422200 0.743600
-7.398100 0.760300
-7.374000 0.778300
-7.349900 0.797700
-7.325800 0.819800
-7.301600 0.844300
-7.277500 0.871200
-7.253400 0.910100
-7.229300 0.942500
-7.205200 0.971300
-7.181100 0.994700
-7.156900 1.018400
-7.132800 1.054500
-7.108700 1.123400
-7.084600 1.202200
-7.060500 1.212300
-7.036300 1.198200
-7.012200 1.183100
-6.988100 1.182600
-6.964000 1.171800
-6.939900 1.163000
-6.915800 1.179900
-6.891600 1.168200
-6.867500 1.151800
-6.843400 1.146800
-6.819300 1.133200
-6.795200 1.122200
-6.771000 1.126000
-6.746900 1.120400
-6.722800 1.113800
-6.698700 1.118000
-6.674600 1.120600
-6.650500 1.111300
-6.626300 1.042000
-6.602200 0.965700
-6.578100 0.930800
-6.554000 0.884900
-6.529900 0.864100
-6.505800 0.846700
-6.481600 0.832700
-6.457500 0.812000
-6.433400 0.798200
-6.409300 0.793800
-6.385200 0.791100
-6.361000 0.785300
-6.336900 0.800300
-6.312800 0.812100
-6.288700 0.906400
-6.264600 0.922900
-6.240500 0.939600
-6.216300 0.623200
-6.192200 0.241700
-6.168100 0.115900
-6.144000 0.012900
-6.119900 0.000000
-6.095700 0.000000
-6.071600 0.000000
-6.047500 0.000000
-6.023400 0.000000
-5.999300 0.000000
-5.975200 0.000000
-5.951000 0.000000
-5.926900 0.000000
-5.902800 0.000000
-5.878700 0.000000
-5.854600 0.000000
-5.830500 0.000000
-5.806300 0.000000
-5.782200 0.000000
-5.758100 0.000000
-5.734000 0.000000
-5.709900 0.000000
-5.685700 0.000000
-5.661600 0.000000
-5.637500 0.000000
-5.613400 0.000000
-5.589300 0.000000
-5.565200 0.000000
-5.541000 0.000000
-5.516900 0.000000
-5.492800 0.000000
-5.468700 0.000000
-5.444600 0.000000
-5.420400 0.000000
-5.396300 0.000000
-5.372200 0.000000
-5.348100 0.000000
-5.324000 0.000000
-5.299900 0.000000
-5.275700 0.000000
-5.251600 0.000000
-5.227500 0.000000
-5.203400 0.000000
-5.179300 0.000000
-5.155200 0.000000
-5.131000 0.000000
-5.106900 0.000000
-5.082800 0.000000
-5.058700 0.000000
-5.034600 0.000000
-5.010400 0.000000
-4.986300 0.000000
-4.962200 0.000000
-4.938100 0.000000
-4.914000 0.000000
-4.889900 0.000000
-4.865700 0.000000
-4.841600 0.002700
-4.817500 0.052800
-4.793400 0.124800
-4.769300 0.216600
-4.745200 0.262400
-4.721000 0.291600
-4.696900 0.373100
-4.672800 0.517900
-4.648700 0.577500
-4.624600 0.607300
-4.600400 0.649800
-4.576300 0.683200
-4.552200 0.679600
-4.528100 0.681500
-4.504000 0.682200
-4.479900 0.689500
-4.455700 0.697700
-4.431600 0.712100
-4.407500 0.717200
-4.383400 0.724700
-4.359300 0.740000
-4.335100 0.758900
-4.311000 0.774400
-4.286900 0.791700
-4.262800 0.810000
-4.238700 0.825300
-4.214600 0.852100
-4.190400 0.874800
-4.166300 0.912500
-4.142200 0.964600
-4.118100 0.994400
-4.094000 1.013900
-4.069900 0.979400
-4.045700 0.988500
-4.021600 0.983500
-3.997500 0.987100
-3.973400 0.982800
-3.949300 0.971900
-3.925100 0.958800
-3.901000 0.952500
-3.876900 0.950100
-3.852800 0.962000
-3.828700 0.946600
-3.804600 0.934400
-3.780400 0.935700
-3.756300 0.938500
-3.732200 0.932100
-3.708100 0.921700
-3.684000 0.908800
-3.659800 0.897400
-3.635700 0.894000
-3.611600 0.901800
-3.587500 0.908600
-3.563400 0.886000
-3.539300 0.856400
-3.515100 0.837000
-3.491000 0.822400
-3.466900 0.807700
-3.442800 0.794900
-3.418700 0.783200
-3.394600 0.770900
-3.370400 0.758000
-3.346300 0.744400
-3.322200 0.733500
-3.298100 0.727500
-3.274000 0.722600
-3.249800 0.717800
-3.225700 0.707200
-3.201600 0.691100
-3.177500 0.673600
-3.153400 0.655300
-3.129300 0.637700
-3.105100 0.624800
-3.081000 0.612700
-3.056900 0.600700
-3.032800 0.589600
-3.008700 0.579600
-2.984500 0.569700
-2.960400 0.559800
-2.936300 0.549900
-2.912200 0.541100
-2.888100 0.533800
-2.864000 0.526200
-2.839800 0.518400
-2.815700 0.511200
-2.791600 0.504100
-2.767500 0.497700
-2.743400 0.491100
-2.719300 0.483900
-2.695100 0.486600
-2.671000 0.470100
-2.646900 0.460700
-2.622800 0.433500
-2.598700 0.399800
-2.574500 0.369900
-2.550400 0.350400
-2.526300 0.330400
-2.502200 0.323400
-2.478100 0.316500
-2.454000 0.309200
-2.429800 0.301800
-2.405700 0.294700
-2.381600 0.288200
-2.357500 0.282200
-2.333400 0.276600
-2.309200 0.271800
-2.285100 0.268100
-2.261000 0.267300
-2.236900 0.255300
-2.212800 0.250900
-2.188700 0.246600
-2.164500 0.242300
-2.140400 0.238000
-2.116300 0.233700
-2.092200 0.229400
-2.068100 0.225500
-2.044000 0.221500
-2.019800 0.217400
-1.995700 0.213500
-1.971600 0.209600
-1.947500 0.205900
-1.923400 0.202400
-1.899200 0.198800
-1.875100 0.195400
-1.851000 0.192300
-1.826900 0.189300
-1.802800 0.186700
-1.778700 0.180300
-1.754500 0.177600
-1.730400 0.174900
-1.706300 0.172200
-1.682200 0.169300
-1.658100 0.166800
-1.633900 0.171400
-1.609800 0.183300
-1.585700 0.199400
-1.561600 0.219500
-1.537500 0.237500
-1.513400 0.240200
-1.489200 0.241700
-1.465100 0.249600
-1.441000 0.255900
-1.416900 0.278400
-1.392800 0.276600
-1.368700 0.278200
-1.344500 0.282300
-1.320400 0.288000
-1.296300 0.294000
-1.272200 0.299500
-1.248100 0.303600
-1.223900 0.308100
-1.199800 0.316500
-1.175700 0.323600
-1.151600 0.327900
-1.127500 0.329600
-1.103400 0.333500
-1.079200 0.338000
-1.055100 0.343100
-1.031000 0.348200
-1.006900 0.352800
-0.982800 0.360800
-0.958600 0.371300
-0.934500 0.379300
-0.910400 0.384500
-0.886300 0.399100
-0.862200 0.431600
-0.838100 0.480300
-0.813900 0.535700
-0.789800 0.538100
-0.765700 0.560500
-0.741600 0.585700
-0.717500 0.615000
-0.693400 0.641900
-0.669200 0.679000
-0.645100 0.751100
-0.621000 0.774200
-0.596900 0.782600
-0.572800 0.788700
-0.548600 0.795500
-0.524500 0.797000
-0.500400 0.798800
-0.476300 0.806800
-0.452200 0.811400
-0.428100 0.804400
-0.403900 0.796400
-0.379800 0.788700
-0.355700 0.782800
-0.331600 0.776500
-0.307500 0.771400
-0.283300 0.768500
-0.259200 0.767100
-0.235100 0.767100
-0.211000 0.769800
-0.186900 0.772900
-0.162800 0.776900
-0.138600 0.779600
-0.114500 0.781400
-0.090400 0.781500
-0.066300 0.781500
-0.042200 0.788000
-0.018100 0.794000
0.006100 0.794100
0.030200 0.797700
0.054300 0.802200
0.078400 0.807000
0.102500 0.813700
0.126700 0.820600
0.150800 0.827600
0.174900 0.835500
0.199000 0.844300
0.223100 0.857900
0.247200 0.874300
0.271400 0.889200
0.295500 0.898800
0.319600 0.910800
0.343700 0.919900
0.367800 0.930800
0.392000 0.943700
0.416100 0.931600
0.440200 0.937300
0.464300 0.942500
0.488400 0.946100
0.512500 0.994700
0.536700 0.942700
0.560800 0.947500
0.584900 0.953700
0.609000 0.959600
0.633100 0.964600
0.657200 0.969000
0.681400 0.973600
0.705500 0.978400
0.729600 0.988300
0.753700 1.005700
0.777800 0.998700
0.802000 1.000500
0.826100 1.006500
0.850200 1.014600
0.874300 1.022700
0.898400 1.030700
0.922500 1.038400
0.946700 1.047400
0.970800 1.056500
0.994900 1.070800
1.019000 1.087800
1.043100 1.108600
1.067200 1.124800
1.091400 1.102200
1.115500 1.099500
1.139600 1.097400
1.163700 1.096300
1.187800 1.095300
1.212000 1.107100
1.236100 1.113500
1.260200 1.112000
1.284300 1.119800
1.308400 1.126300
1.332500 1.131100
1.356700 1.136200
1.380800 1.144100
1.404900 1.155300
1.429000 1.175100
1.453100 1.181900
1.477300 1.187700
1.501400 1.193300
1.525500 1.197500
1.549600 1.197600
1.573700 1.200700
1.597800 1.210400
1.622000 1.218300
1.646100 1.235100
1.670200 1.249400
1.694300 1.250100
1.718400 1.251500
1.742500 1.256200
1.766700 1.261700
1.790800 1.265800
1.814900 1.266600
1.839000 1.269300
1.863100 1.270500
1.887300 1.272100
1.911400 1.273900
1.935500 1.280500
1.959600 1.284400
1.983700 1.287000
2.007800 1.285100
2.032000 1.286700
2.056100 1.312300
2.080200 1.328500
2.104300 1.314300
2.128400 1.302600
2.152600 1.277300
2.176700 1.254000
2.200800 1.233600
2.224900 1.219100
2.249000 1.203000
2.273100 1.185700
2.297300 1.177200
2.321400 1.172100
2.345500 1.171000
2.369600 1.168500
2.393700 1.164200
2.417800 1.158700
2.442000 1.154600
2.466100 1.152300
2.490200 1.159000
2.514300 1.158900
2.538400 1.158300
2.562600 1.154500
2.586700 1.144900
2.610800 1.143200
2.634900 1.147500
2.659000 1.147400
2.683100 1.147400
2.707300 1.155800
2.731400 1.150500
2.755500 1.155700
2.779600 1.158900
2.803700 1.157600
2.827900 1.151900
2.852000 1.142500
2.876100 1.133700
2.900200 1.130700
2.924300 1.134400
2.948400 1.150800
2.972600 1.137500
2.996700 1.124000
3.020800 1.115100
3.044900 1.119300
3.069000 1.133300
3.093100 1.134000
3.117300 1.131600
3.141400 1.149800
3.165500 1.153300
3.189600 1.146500
3.213700 1.151800
3.237900 1.159400
3.262000 1.175900
3.286100 1.227700
3.310200 1.217800
3.334300 1.143400
3.358400 1.081600
3.382600 1.033400
3.406700 0.996600
3.430800 0.882000
3.454900 0.837200
3.479000 0.807200
3.503200 0.774300
3.527300 0.725900
3.551400 0.690800
3.575500 0.667600
3.599600 0.663800
3.623700 0.669000
3.647900 0.666400
3.672000 0.663900
3.696100 0.662700
3.720200 0.663700
3.744300 0.661400
3.768400 0.658300
3.792600 0.654700
3.816700 0.649400
3.840800 0.643700
3.864900 0.639600
3.889000 0.636100
3.913200 0.634000
3.937300 0.634600
3.961400 0.633900
3.985500 0.639300
4.009600 0.660200
4.033700 0.627800
4.057900 0.612600
4.082000 0.596100
4.106100 0.584900
4.130200 0.576200
4.154300 0.567900
4.178500 0.559900
4.202600 0.553100
4.226700 0.547100
4.250800 0.540900
4.274900 0.535000
4.299000 0.529100
4.323200 0.525800
4.347300 0.524700
4.371400 0.525800
4.395500 0.530200
4.419600 0.532900
4.443700 0.534700
4.467900 0.538300
4.492000 0.542900
4.516100 0.548600
4.540200 0.555000
4.564300 0.561800
4.588500 0.568900
4.612600 0.576500
4.636700 0.585000
4.660800 0.601500
4.684900 0.627200
4.709000 0.636700
4.733200 0.656300
4.757300 0.667800
4.781400 0.684100
4.805500 0.706100
4.829600 0.739500
4.853800 0.756100
4.877900 0.783400
4.902000 0.799900
4.926100 0.812600
4.950200 0.826700
4.974300 0.842300
4.998500 0.858600
5.022600 0.869500
5.046700 0.875200
5.070800 0.880300
5.094900 0.877800
5.119000 0.868000
5.143200 0.856000
5.167300 0.852900
5.191400 0.860300
5.215500 0.874400
5.239600 0.886000
5.263800 0.892600
5.287900 0.876500
5.312000 0.855700
5.336100 0.837800
5.360200 0.814300
5.384300 0.786400
5.408500 0.746000
5.432600 0.703000
5.456700 0.664400
5.480800 0.632200
5.504900 0.597600
5.529100 0.563200
5.553200 0.536100
5.577300 0.503100
5.601400 0.434600
5.625500 0.390300
5.649600 0.366700
5.673800 0.352500
5.697900 0.331800
5.722000 0.318500
5.746100 0.311400
5.770200 0.310800
5.794300 0.313200
5.818500 0.304900
5.842600 0.306000
5.866700 0.310300
5.890800 0.323100
5.914900 0.346000
5.939100 0.402300
5.963200 0.422700
5.987300 0.454400
6.011400 0.492800
6.035500 0.533100
6.059600 0.570400
6.083800 0.601100
6.107900 0.608200
6.132000 0.615200
6.156100 0.634300
6.180200 0.654000
6.204400 0.682400
6.228500 0.716400
6.252600 0.757100
6.276700 0.837000
6.300800 0.900800
6.324900 0.973800
6.349100 1.032600
6.373200 1.052500
6.397300 1.067300
6.421400 1.095300
6.445500 1.128800
6.469600 1.136500
6.493800 1.161600
6.517900 1.161800
6.542000 1.187100
6.566100 1.208500
6.590200 1.227900
6.614400 1.241800
6.638500 1.240700
6.662600 1.258200
6.686700 1.244400
6.710800 1.262700
6.734900 1.289900
6.759100 1.340700
6.783200 1.385000
6.807300 1.384500
6.831400 1.385500
6.855500 1.376400
6.879700 1.364700
6.903800 1.354600
6.927900 1.349900
6.952000 1.349700
6.976100 1.356300
7.000200 1.360000
7.024400 1.366100
7.048500 1.387600
7.072600 1.393500
7.096700 1.398500
7.120800 1.403300
7.144900 1.414800
7.169100 1.422400
7.193200 1.425300
7.217300 1.428400
7.241400 1.423600
7.265500 1.415600
7.289700 1.399500
7.313800 1.372700
7.337900 1.354000
7.362000 1.351300
7.386100 1.314100
7.410200 1.280200
7.434400 1.275700
7.458500 1.249300
7.482600 1.223900
7.506700 1.193500
7.530800 1.164600
7.554900 1.155800
7.579100 1.154000
7.603200 1.165100
7.627300 1.195800
7.651400 1.238500
7.675500 1.271900
7.699700 1.293600
7.723800 1.331900
7.747900 1.358600
7.772000 1.361400
7.796100 1.383400
7.820200 1.345000
7.844400 1.281700
7.868500 1.232300
7.892600 1.218800
7.916700 1.197300
7.940800 1.175400
7.965000 1.161700
7.989100 1.153700
8.013200 1.150900
8.037300 1.175600
8.061400 1.137400
8.085500 1.129300
8.109700 1.143600
8.133800 1.138100
8.157900 1.147100
8.182000 1.156100
8.206100 1.160600
8.230200 1.171400
8.254400 1.202600
8.278500 1.196900
8.302600 1.215400
8.326700 1.244800
8.350800 1.278700
8.375000 1.315200
8.399100 1.393400
8.423200 1.437100
8.447300 1.367400
8.471400 1.355400
8.495500 1.348700
8.519700 1.343800
8.543800 1.342200
8.567900 1.346100
8.592000 1.347000
8.616100 1.345900
8.640300 1.340700
8.664400 1.334500
8.688500 1.335400
8.712600 1.334800
8.736700 1.336500
8.760800 1.346300
8.785000 1.349200
8.809100 1.300000
8.833200 1.288900
8.857300 1.278400
8.881400 1.269400
8.905500 1.262200
8.929700 1.259600
8.953800 1.260800
8.977900 1.263200
9.002000 1.275000
9.026100 1.273700
9.050300 1.244900
9.074400 1.217000
9.098500 1.202500
9.122600 1.187400
9.146700 1.170300
9.170800 1.153000
9.195000 1.138500
9.219100 1.125400
9.243200 1.116600
9.267300 1.101000
9.291400 1.085300
9.315600 1.069600
9.339700 1.057400
9.363800 1.032500
9.387900 1.009100
9.412000 1.004100
9.436100 1.008600
9.460300 1.006700
9.484400 0.989000
9.508500 0.972500
9.532600 0.957300
9.556700 0.945100
9.580800 0.940500
9.605000 0.947900
9.629100 0.962100
9.653200 0.974500
9.677300 0.983400
9.701400 0.983600
9.725600 0.983200
9.749700 0.977700
9.773800 0.967200
9.797900 0.967200
9.822000 0.963100
9.846100 0.954500
9.870300 0.945100
9.894400 0.935400
9.918500 0.927500
9.942600 0.925900
9.966700 0.926900
9.990900 0.927900
10.015000 0.927400
10.039100 0.926900
10.063200 0.927000
10.087300 0.932800
10.111400 0.938600
10.135600 0.966200
10.159700 0.967100
10.183800 0.986500
10.207900 1.007800
10.232000 1.029000
10.256100 1.037200
10.280300 1.036100
10.304400 1.036600
10.328500 1.037600
10.352600 1.035800
10.376700 1.031700
10.400900 1.021200
10.425000 1.000800
10.449100 0.983100
10.473200 0.971200
10.497300 0.960600
10.521400 0.954200
10.545600 0.955000
10.569700 0.957500
10.593800 0.959600
10.617900 0.961300
10.642000 0.962900
10.666200 0.967900
10.690300 0.972300
10.714400 0.976000
10.738500 0.977600
10.762600 0.981300
10.786700 0.987500
10.810900 0.996700
10.835000 1.012200
10.859100 1.025100
10.883200 1.027500
10.907300 1.037700
10.931400 1.050000
10.955600 1.062100
10.979700 1.068400
11.003800 1.076100
11.027900 1.076500
11.052000 1.076800
11.076200 1.079400
11.100300 1.088400
11.124400 1.101400
11.148500 1.092700
11.172600 1.097100
11.196700 1.101400
11.220900 1.115400
11.245000 1.131800
11.269100 1.137600
11.293200 1.142300
11.317300 1.148400
11.341500 1.148600
11.365600 1.149800
11.389700 1.146100
11.413800 1.144300
11.437900 1.147600
11.462000 1.146500
11.486200 1.151700
11.510300 1.145800
11.534400 1.140500
11.558500 1.137600
11.582600 1.135700
11.606700 1.121700
11.630900 1.098700
11.655000 1.081800
11.679100 1.064400
11.703200 1.051200
11.727300 1.041300
11.751500 1.034400
11.775600 1.029400
11.799700 1.025900
11.823800 1.028600
11.847900 1.084700
11.872000 1.113600
11.896200 1.132600
11.920300 1.151500
11.944400 1.166600
11.968500 1.186800
11.992600 1.219500
12.016800 1.244900
12.040900 1.268000
12.065000 1.290800
12.089100 1.309300
12.113200 1.329400
12.137300 1.352600
12.161500 1.386900
12.185600 1.406000
12.209700 1.422300
12.233800 1.397300
12.257900 1.379100
12.282000 1.366000
12.306200 1.343500
12.330300 1.309200
12.354400 1.275400
12.378500 1.257000
12.402600 1.245300
12.426800 1.235900
12.450900 1.227100
12.475000 1.235400
12.499100 1.222400
12.523200 1.203900
12.547300 1.185100
12.571500 1.169800
12.595600 1.161700
12.619700 1.155300
12.643800 1.131800
12.667900 1.121000
12.692100 1.113900
12.716200 1.102200
12.740300 1.092900
12.764400 1.091600
12.788500 1.096200
12.812600 1.101600
12.836800 1.096200
12.860900 1.091300
12.885000 1.086300
12.909100 1.083000
12.933200 1.082800
12.957300 1.082600
12.981500 1.085200
13.005600 1.098200
13.029700 1.088100
13.053800 1.082400
13.077900 1.083300
13.102100 1.079500
13.126200 1.062100
13.150300 1.054400
13.174400 1.045800
13.198500 1.040200
13.222600 1.038000
13.246800 1.037500
13.270900 1.035800
13.295000 1.032600
13.319100 1.030100
13.343200 1.026400
13.367400 1.023900
13.391500 1.026700
13.415600 1.027900
13.439700 1.031700
13.463800 1.038100
13.487900 1.044200
13.512100 1.052500
13.536200 1.066600
13.560300 1.068800
13.584400 1.081700
13.608500 1.090100
13.632600 1.096600
13.656800 1.111900
13.680900 1.118700
13.705000 1.120900
13.729100 1.130200
13.753200 1.147700
13.777400 1.160200
13.801500 1.172400
13.825600 1.182400
13.849700 1.194400
13.873800 1.203100
13.897900 1.206300
13.922100 1.212100
13.946200 1.208700
13.970300 1.209700
13.994400 1.211400
14.018500 1.212000
14.042600 1.215800
14.066800 1.216000
14.090900 1.197000
14.115000 1.194400
14.139100 1.181300
14.163200 1.180100
14.187400 1.175200
14.211500 1.167000
14.235600 1.158800
14.259700 1.160200
14.283800 1.172000
14.307900 1.145300
14.332100 1.144000
14.356200 1.142800
14.380300 1.140500
14.404400 1.138200
14.428500 1.138400
14.452700 1.142800
14.476800 1.153100
14.500900 1.169600
14.525000 1.189600
14.549100 1.213500
14.573200 1.228200
14.597400 1.241400
14.621500 1.256500
14.645600 1.271900
14.669700 1.287200
14.693800 1.302400
14.717900 1.313800
14.742100 1.318700
14.766200 1.322900
14.790300 1.327500
14.814400 1.329400
14.838500 1.327600
14.862700 1.327800
14.886800 1.316900
14.910900 1.309100
14.935000 1.301400
14.959100 1.292600
14.983200 1.278400
15.007400 1.263500
15.031500 1.240800
15.055600 1.222500
15.079700 1.211900
15.103800 1.205400
15.128000 1.200000
15.152100 1.187000
15.176200 1.185500
15.200300 1.181800
15.224400 1.173400
15.248500 1.159000
15.272700 1.150200
15.296800 1.142700
15.320900 1.137000
15.345000 1.133400
15.369100 1.131400
15.393200 1.128000
15.417400 1.121800
15.441500 1.118500
15.465600 1.116300
15.489700 1.125500
15.513800 1.120000
15.538000 1.125600
15.562100 1.130400
15.586200 1.134900
15.610300 1.137200
15.634400 1.139700
15.658500 1.141500
15.682700 1.142700
15.706800 1.146600
15.730900 1.151000
15.755000 1.152600
15.779100 1.153100
15.803300 1.155700
15.827400 1.158000
15.851500 1.154800
15.875600 1.144400
15.899700 1.132500
15.923800 1.120800
15.948000 1.107900
15.972100 1.101200
15.996200 1.072500
16.020300 1.051700
16.044400 1.047900
16.068500 1.046400
16.092700 1.023500
16.116800 1.031300
16.140900 1.051800
16.165000 1.082500
16.189100 1.108100
16.213300 1.147500
16.237400 1.213500
16.261500 1.294400
16.285600 1.362800
16.309700 1.419500
16.333800 1.456100
16.358000 1.476800
16.382100 1.498700
16.406200 1.517400
16.430300 1.539300
16.454400 1.516400
16.478600 1.479500
16.502700 1.430900
16.526800 1.362200
16.550900 1.340500
16.575000 1.325800
16.599100 1.311900
16.623300 1.305600
16.647400 1.304300
16.671500 1.315100
16.695600 1.324200
16.719700 1.332100
16.743800 1.341400
16.768000 1.349900
16.792100 1.361700
16.816200 1.368300
16.840300 1.383800
16.864400 1.406000
16.888600 1.419900
16.912700 1.421200
16.936800 1.421500
16.960900 1.423200
16.985000 1.441900
17.009100 1.432800
17.033300 1.436700
17.057400 1.417000
17.081500 1.407600
17.105600 1.403200
17.129700 1.398400
17.153900 1.392200
17.178000 1.387800
17.202100 1.383400
17.226200 1.382300
17.250300 1.379500
17.274400 1.391300
17.298600 1.410600
17.322700 1.412100
17.346800 1.411900
17.370900 1.406300
17.395000 1.385100
17.419100 1.364400
17.443300 1.362300
17.467400 1.361300
17.491500 1.360600
17.515600 1.357000
17.539700 1.348900
17.563900 1.341900
17.588000 1.325500
17.612100 1.306600
17.636200 1.300000
17.660300 1.311700
17.684400 1.324700
17.708600 1.329400
17.732700 1.314200
17.756800 1.305200
17.780900 1.296300
17.805000 1.277800
17.829200 1.270100
17.853300 1.262600
17.877400 1.244600
17.901500 1.224100
17.925600 1.211300
17.949700 1.203700
17.973900 1.202700
17.998000 1.203400
18.022100 1.206100
18.046200 1.213300
18.070300 1.228500
18.094400 1.246800
18.118600 1.274300
18.142700 1.303200
18.166800 1.343600
18.190900 1.371400
18.215000 1.384300
18.239200 1.409500
18.263300 1.445800
18.287400 1.470200
18.311500 1.478500
18.335600 1.483400
18.359700 1.482200
18.383900 1.474100
18.408000 1.450700
18.432100 1.435800
18.456200 1.443700
18.480300 1.455300
18.504500 1.464200
18.528600 1.478800
18.552700 1.495100
18.576800 1.518400
18.600900 1.546100
18.625000 1.576000
18.649200 1.593800
18.673300 1.597800
18.697400 1.599900
18.721500 1.608700
18.745600 1.620800
18.769700 1.617400
18.793900 1.597200
18.818000 1.585400
18.842100 1.565900
18.866200 1.557000
18.890300 1.552800
18.914500 1.560000
18.938600 1.537300
18.962700 1.524300
18.986800 1.527100
19.010900 1.515400
19.035000 1.493700
19.059200 1.468500
19.083300 1.448800
19.107400 1.431400
19.131500 1.408600
19.155600 1.384600
19.179800 1.367900
19.203900 1.347100
19.228000 1.362700
19.252100 1.347900
19.276200 1.358900
19.300300 1.370100
19.324500 1.392400
19.348600 1.410800
19.372700 1.421500
19.396800 1.427800
19.420900 1.444700
19.445000 1.462500
19.469200 1.487500
19.493300 1.509400
19.517400 1.535000
19.541500 1.554100
19.565600 1.579000
19.589800 1.629100
19.613900 1.652900
19.638000 1.654300
19.662100 1.674100
19.686200 1.699400
19.710300 1.722300
19.734500 1.717900
19.758600 1.662400
19.782700 1.627700
19.806800 1.618700
19.830900 1.600300
19.855000 1.583800
19.879200 1.564200
19.903300 1.548100
19.927400 1.533100
19.951500 1.518000
19.975600 1.500400
19.999800 1.494200
20.023900 1.492700
20.048000 1.479200
20.072100 1.471700
20.096200 1.477300
20.120300 1.469500
20.144500 1.459600
20.168600 1.452800
20.192700 1.411500
20.216800 1.406800
20.240900 1.376200
20.265100 1.342300
20.289200 1.330800
20.313300 1.335900
20.337400 1.369900
20.361500 1.396100
20.385600 1.426800
20.409800 1.441300
20.433900 1.448800
20.458000 1.480300
20.482100 1.470500
20.506200 1.451800
20.530300 1.429400
20.554500 1.417900
20.578600 1.393300
20.602700 1.377500
20.626800 1.363200
20.650900 1.352500
20.675100 1.340100
20.699200 1.358100
20.723300 1.336300
20.747400 1.335200
20.771500 1.335500
20.795600 1.341400
20.819800 1.365400
20.843900 1.369600
20.868000 1.366900
20.892100 1.365200
20.916200 1.359400
20.940400 1.354200
20.964500 1.345700
20.988600 1.339200
21.012700 1.331900
21.036800 1.313500
21.060900 1.299200
21.085100 1.286900
21.109200 1.269400
21.133300 1.254000
21.157400 1.244800
21.181500 1.238400
21.205600 1.228800
21.229800 1.213000
21.253900 1.206700
21.278000 1.202300
21.302100 1.199900
21.326200 1.194400
21.350400 1.200600
21.374500 1.208200
21.398600 1.224000
21.422700 1.298000
21.446800 1.288100
21.470900 1.298500
21.495100 1.313600
21.519200 1.326400
21.543300 1.323700
21.567400 1.324000
21.591500 1.329800
21.615700 1.336100
21.639800 1.328000
21.663900 1.275900
21.688000 1.219600
21.712100 1.167000
21.736200 1.119200
21.760400 1.079300
21.784500 1.045900
21.808600 1.016000
21.832700 0.989200
21.856800 0.963800
21.880900 0.936200
21.905100 0.912400
21.929200 0.890500
21.953300 0.842500
21.977400 0.790700
22.001500 0.739900
22.025700 0.687300
22.049800 0.633700
22.073900 0.580800
22.098000 0.539300
22.122100 0.505300
22.146200 0.470500
22.170400 0.441600
22.194500 0.422700
22.218600 0.402000
22.242700 0.372700
22.266800 0.346100
22.291000 0.324300
22.315100 0.304900
22.339200 0.284500
22.363300 0.264200
22.387400 0.245400
22.411500 0.227700
22.435700 0.212500
22.459800 0.202200
22.483900 0.197100
22.508000 0.183800
22.532100 0.162700
22.556200 0.146000
22.580400 0.134600
22.604500 0.124600
22.628600 0.115200
22.652700 0.105800
22.676800 0.095000
22.701000 0.084100
22.725100 0.074100
22.749200 0.065000
22.773300 0.057200
22.797400 0.051300
22.821500 0.046200
22.845700 0.041400
22.869800 0.036900
22.893900 0.032700
22.918000 0.028600
22.942100 0.025000
22.966300 0.024800
22.990400 0.020500
23.014500 0.013100
23.038600 0.010700
23.062700 0.008700
23.086800 0.006900
23.111000 0.005200
23.135100 0.003700
23.159200 0.002300
23.183300 0.001500
23.207400 0.001000
23.231500 0.000700
23.255700 0.000400
23.279800 0.000200
23.303900 0.000000
23.328000 0.000000
23.352100 0.000000
23.376300 0.000000
23.400400 0.000000
23.424500 0.000000
23.448600 0.000000
23.472700 0.000000
23.496800 0.000000
23.521000 0.000000
23.545100 0.000000
23.569200 0.000000
23.593300 0.000000
23.617400 0.000000
23.641600 0.000000
23.665700 0.000000
23.689800 0.000000
23.713900 0.000000
23.738000 0.000000
23.762100 0.000000
23.786300 0.000000
23.810400 0.000000
23.834500 0.000000
23.858600 0.000000
23.882700 0.000000
23.906800 0.000000
23.931000 0.000000
23.955100 0.000000
23.979200 0.000000
24.003300 0.000000
24.027400 0.000000
24.051600 0.000000
24.075700 0.000000
24.099800 0.000000
24.123900 0.000000
24.148000 0.000000
24.172100 0.000000
24.196300 0.000000
24.220400 0.000000
24.244500 0.000000
24.268600 0.000000
24.292700 0.000000
24.316900 0.000000
24.341000 0.000000
24.365100 0.000000
24.389200 0.000000
24.413300 0.000000
24.437400 0.000000
24.461600 0.000000
24.485700 0.000000
24.509800 0.000000
24.533900 0.000000
24.558000 0.000000
24.582100 0.000000
24.606300 0.000000
24.630400 0.000000
24.654500 0.000000
24.678600 0.000000
24.702700 0.000000
24.726900 0.000000
24.751000 0.000000
24.775100 0.000000
24.799200 0.000000
24.823300 0.000000
24.847400 0.000000
24.871600 0.000000
24.895700 0.000000
24.919800 0.000000
24.943900 0.000000
24.968000 0.000000
24.992200 0.000000
25.016300 0.000000
25.040400 0.000000
25.064500 0.000000
25.088600 0.000000
25.112700 0.000000
25.136900 0.000000
25.161000 0.000000
25.185100 0.000000
25.209200 0.000000
25.233300 0.000000
25.257400 0.000000
25.281600 0.000000
25.305700 0.000000
25.329800 0.000000
25.353900 0.000000
25.378000 0.000000
25.402200 0.000000
25.426300 0.000000
25.450400 0.000000
25.474500 0.000000
25.498600 0.000000
25.522700 0.000000
e
