set title 'mp-570082 - Density of States'
set xlabel 'Energy (eV)'
set ylabel 'DOS (states/eV)'
set grid
set xrange [-10:10]
set yrange [0:949.336]
set xzeroaxis lt -1
set terminal png size 800,600
set output 'mp-570082_dos_gnuplot.png'
plot '-' using 1:2 with lines title 'DOS'
-11.968500 0.000000
-11.955800 0.000000
-11.943100 0.000000
-11.930400 0.000000
-11.917700 0.000000
-11.905000 0.000000
-11.892300 0.000000
-11.879600 0.000000
-11.866900 0.000000
-11.854200 0.000000
-11.841500 0.000000
-11.828800 0.000000
-11.816100 0.000000
-11.803400 0.000000
-11.790700 0.000000
-11.778000 0.000000
-11.765300 0.000000
-11.752600 0.000000
-11.739900 0.000000
-11.727200 0.000000
-11.714500 0.000000
-11.701800 0.000000
-11.689100 0.000000
-11.676400 0.000000
-11.663700 0.000000
-11.651000 0.000000
-11.638300 0.000000
-11.625600 0.000000
-11.612900 0.000000
-11.600200 0.000000
-11.587500 0.000000
-11.574800 0.000000
-11.562100 0.000000
-11.549400 0.000000
-11.536700 0.000000
-11.523900 0.000000
-11.511200 0.000000
-11.498500 0.000000
-11.485800 0.000000
-11.473100 0.000000
-11.460400 0.000000
-11.447700 0.000000
-11.435000 0.000000
-11.422300 0.000000
-11.409600 0.000000
-11.396900 0.000000
-11.384200 0.000000
-11.371500 0.000000
-11.358800 0.000000
-11.346100 0.000000
-11.333400 0.000000
-11.320700 0.000000
-11.308000 0.000000
-11.295300 0.000000
-11.282600 0.000000
-11.269900 0.000000
-11.257200 0.000000
-11.244500 0.000000
-11.231800 0.000000
-11.219100 0.000000
-11.206400 0.000000
-11.193700 0.000000
-11.181000 0.000000
-11.168300 0.000000
-11.155600 0.000000
-11.142900 0.000000
-11.130200 0.000000
-11.117500 0.000000
-11.104800 0.000000
-11.092100 0.000000
-11.079400 0.000000
-11.066700 0.000000
-11.054000 0.000000
-11.041200 0.000000
-11.028500 0.000000
-11.015800 0.000000
-11.003100 0.000000
-10.990400 0.000000
-10.977700 0.000000
-10.965000 0.000000
-10.952300 0.000000
-10.939600 0.000000
-10.926900 0.000000
-10.914200 0.000000
-10.901500 0.000000
-10.888800 0.000000
-10.876100 0.000000
-10.863400 0.000000
-10.850700 0.000000
-10.838000 0.000000
-10.825300 0.000000
-10.812600 0.040300
-10.799900 0.894200
-10.787200 2.233900
-10.774500 4.338200
-10.761800 6.602700
-10.749100 9.878200
-10.736400 13.580700
-10.723700 15.862200
-10.711000 16.012500
-10.698300 15.768500
-10.685600 17.523100
-10.672900 16.237600
-10.660200 15.566000
-10.647500 16.089100
-10.634800 16.612200
-10.622100 17.135300
-10.609400 17.658400
-10.596700 18.181600
-10.584000 18.706600
-10.571300 19.282900
-10.558500 19.898800
-10.545800 20.564000
-10.533100 21.295500
-10.520400 22.094700
-10.507700 22.893900
-10.495000 23.688800
-10.482300 24.477300
-10.469600 25.251000
-10.456900 26.021700
-10.444200 26.792500
-10.431500 27.563200
-10.418800 28.333900
-10.406100 29.104700
-10.393400 29.875400
-10.380700 31.518500
-10.368000 37.437600
-10.355300 50.749200
-10.342600 72.099800
-10.329900 88.193300
-10.317200 112.813200
-10.304500 131.358300
-10.291800 141.882000
-10.279100 154.869400
-10.266400 178.738000
-10.253700 301.393700
-10.241000 251.567700
-10.228300 248.517600
-10.215600 0.000000
-10.202900 0.000000
-10.190200 0.000000
-10.177500 0.000000
-10.164800 0.000000
-10.152100 0.000000
-10.139400 0.000000
-10.126700 0.000000
-10.114000 0.000000
-10.101300 0.000000
-10.088600 0.000000
-10.075800 0.000000
-10.063100 0.000000
-10.050400 0.000000
-10.037700 0.000000
-10.025000 0.000000
-10.012300 0.000000
-9.999600 0.000000
-9.986900 0.000000
-9.974200 0.000000
-9.961500 0.000000
-9.948800 0.000000
-9.936100 0.000000
-9.923400 0.000000
-9.910700 0.000000
-9.898000 0.000000
-9.885300 0.000000
-9.872600 0.000000
-9.859900 0.000000
-9.847200 0.000000
-9.834500 0.000000
-9.821800 0.000000
-9.809100 0.000000
-9.796400 0.000000
-9.783700 0.000000
-9.771000 0.000000
-9.758300 0.000000
-9.745600 0.000000
-9.732900 0.000000
-9.720200 0.000000
-9.707500 0.000000
-9.694800 0.000000
-9.682100 0.000000
-9.669400 0.000000
-9.656700 0.000000
-9.644000 0.000000
-9.631300 0.000000
-9.618600 0.000000
-9.605900 0.000000
-9.593100 0.000000
-9.580400 0.000000
-9.567700 0.000000
-9.555000 0.000000
-9.542300 0.000000
-9.529600 0.000000
-9.516900 0.000000
-9.504200 0.000000
-9.491500 0.000000
-9.478800 0.000000
-9.466100 0.000000
-9.453400 0.000000
-9.440700 0.000000
-9.428000 0.000000
-9.415300 0.000000
-9.402600 0.000000
-9.389900 0.000000
-9.377200 0.000000
-9.364500 0.000000
-9.351800 0.000000
-9.339100 0.000000
-9.326400 0.000000
-9.313700 0.000000
-9.301000 0.000000
-9.288300 0.000000
-9.275600 0.000000
-9.262900 0.000000
-9.250200 0.000000
-9.237500 0.000000
-9.224800 0.000000
-9.212100 0.000000
-9.199400 0.000000
-9.186700 0.000000
-9.174000 0.000000
-9.161300 0.000000
-9.148600 0.000000
-9.135900 0.000000
-9.123200 0.000000
-9.110400 0.000000
-9.097700 0.000000
-9.085000 0.000000
-9.072300 0.000000
-9.059600 0.000000
-9.046900 0.000000
-9.034200 0.000000
-9.021500 0.000000
-9.008800 0.000000
-8.996100 0.000000
-8.983400 0.000000
-8.970700 0.000000
-8.958000 0.000000
-8.945300 0.000000
-8.932600 0.000000
-8.919900 0.000000
-8.907200 0.000000
-8.894500 0.000000
-8.881800 0.000000
-8.869100 0.000000
-8.856400 0.000000
-8.843700 0.000000
-8.831000 0.000000
-8.818300 0.000000
-8.805600 0.000000
-8.792900 0.000000
-8.780200 0.000000
-8.767500 0.000000
-8.754800 0.000000
-8.742100 0.000000
-8.729400 0.000000
-8.716700 0.000000
-8.704000 0.000000
-8.691300 0.000000
-8.678600 0.000000
-8.665900 0.000000
-8.653200 0.000000
-8.640500 0.000000
-8.627700 0.000000
-8.615000 0.000000
-8.602300 0.000000
-8.589600 0.000000
-8.576900 0.000000
-8.564200 0.000000
-8.551500 0.000000
-8.538800 0.000000
-8.526100 0.000000
-8.513400 0.000000
-8.500700 0.000000
-8.488000 0.000000
-8.475300 0.000000
-8.462600 0.000000
-8.449900 0.000000
-8.437200 0.000000
-8.424500 0.000000
-8.411800 0.000000
-8.399100 0.000000
-8.386400 0.000000
-8.373700 0.000000
-8.361000 0.000000
-8.348300 0.000000
-8.335600 0.000000
-8.322900 0.000000
-8.310200 0.000000
-8.297500 0.000000
-8.284800 0.000000
-8.272100 0.000000
-8.259400 0.000000
-8.246700 0.000000
-8.234000 0.000000
-8.221300 0.000000
-8.208600 0.000000
-8.195900 0.000000
-8.183200 0.000000
-8.170500 0.000000
-8.157800 0.000000
-8.145000 0.000000
-8.132300 0.000000
-8.119600 0.000000
-8.106900 0.000000
-8.094200 0.000000
-8.081500 0.000000
-8.068800 0.000000
-8.056100 0.000000
-8.043400 0.000000
-8.030700 0.000000
-8.018000 0.000000
-8.005300 0.000000
-7.992600 0.000000
-7.979900 0.000000
-7.967200 0.000000
-7.954500 0.000000
-7.941800 0.000000
-7.929100 0.000000
-7.916400 0.000000
-7.903700 0.000000
-7.891000 0.000000
-7.878300 0.000000
-7.865600 0.000000
-7.852900 0.000000
-7.840200 0.000000
-7.827500 0.000000
-7.814800 0.000000
-7.802100 0.000000
-7.789400 0.000000
-7.776700 0.000000
-7.764000 0.000000
-7.751300 0.000000
-7.738600 0.000000
-7.725900 0.000000
-7.713200 0.000000
-7.700500 0.000000
-7.687800 0.000000
-7.675100 0.000000
-7.662400 0.000000
-7.649600 0.000000
-7.636900 0.000000
-7.624200 0.000000
-7.611500 0.000000
-7.598800 0.000000
-7.586100 0.000000
-7.573400 0.000000
-7.560700 0.000000
-7.548000 0.000000
-7.535300 0.000000
-7.522600 0.000000
-7.509900 0.000000
-7.497200 0.000000
-7.484500 0.000000
-7.471800 0.000000
-7.459100 0.000000
-7.446400 0.000000
-7.433700 0.000000
-7.421000 0.000000
-7.408300 0.000000
-7.395600 0.000000
-7.382900 0.000000
-7.370200 0.000000
-7.357500 0.000000
-7.344800 0.000000
-7.332100 0.000000
-7.319400 0.000000
-7.306700 0.000000
-7.294000 0.000000
-7.281300 0.000000
-7.268600 0.000000
-7.255900 0.000000
-7.243200 0.000000
-7.230500 0.000000
-7.217800 0.000000
-7.205100 0.000000
-7.192400 0.000000
-7.179700 0.000000
-7.166900 0.000000
-7.154200 0.000000
-7.141500 0.000000
-7.128800 0.000000
-7.116100 0.000000
-7.103400 0.000000
-7.090700 0.000000
-7.078000 0.000000
-7.065300 0.000000
-7.052600 0.000000
-7.039900 0.000000
-7.027200 0.000000
-7.014500 0.000000
-7.001800 0.000000
-6.989100 0.000000
-6.976400 0.000000
-6.963700 0.000000
-6.951000 0.000000
-6.938300 0.000000
-6.925600 0.000000
-6.912900 0.000000
-6.900200 0.000000
-6.887500 0.000000
-6.874800 0.000000
-6.862100 0.000000
-6.849400 0.000000
-6.836700 0.000000
-6.824000 0.000000
-6.811300 0.000000
-6.798600 0.000000
-6.785900 0.000000
-6.773200 0.000000
-6.760500 0.000000
-6.747800 0.000000
-6.735100 0.000000
-6.722400 0.000000
-6.709700 0.000000
-6.697000 0.000000
-6.684200 0.000000
-6.671500 0.000000
-6.658800 0.000000
-6.646100 0.000000
-6.633400 0.000000
-6.620700 0.000000
-6.608000 0.000000
-6.595300 0.000000
-6.582600 0.000000
-6.569900 0.000000
-6.557200 0.000000
-6.544500 0.000000
-6.531800 0.000000
-6.519100 34.181900
-6.506400 147.818700
-6.493700 248.785400
-6.481000 362.428000
-6.468300 231.618700
-6.455600 131.595400
-6.442900 124.739900
-6.430200 118.310500
-6.417500 344.349600
-6.404800 395.185700
-6.392100 310.842700
-6.379400 203.460800
-6.366700 115.284800
-6.354000 180.191400
-6.341300 863.032600
-6.328600 309.638500
-6.315900 257.473000
-6.303200 429.814000
-6.290500 80.087300
-6.277800 168.173100
-6.265100 120.732600
-6.252400 103.318000
-6.239700 85.903400
-6.227000 140.881300
-6.214300 0.000000
-6.201500 0.000000
-6.188800 0.000000
-6.176100 0.000000
-6.163400 0.000000
-6.150700 0.000000
-6.138000 0.000000
-6.125300 0.000000
-6.112600 0.000000
-6.099900 0.000000
-6.087200 0.000000
-6.074500 0.000000
-6.061800 0.000000
-6.049100 0.000000
-6.036400 0.000000
-6.023700 0.000000
-6.011000 0.000000
-5.998300 0.000000
-5.985600 0.000000
-5.972900 0.000000
-5.960200 0.000000
-5.947500 0.000000
-5.934800 0.000000
-5.922100 0.000000
-5.909400 0.000000
-5.896700 0.000000
-5.884000 0.000000
-5.871300 0.000000
-5.858600 0.000000
-5.845900 0.000000
-5.833200 0.000000
-5.820500 0.000000
-5.807800 0.000000
-5.795100 0.000000
-5.782400 0.000000
-5.769700 0.000000
-5.757000 0.000000
-5.744300 0.000000
-5.731600 0.000000
-5.718800 0.000000
-5.706100 0.000000
-5.693400 0.000000
-5.680700 0.000000
-5.668000 0.000000
-5.655300 0.000000
-5.642600 0.000000
-5.629900 0.000000
-5.617200 0.000000
-5.604500 0.000000
-5.591800 0.000000
-5.579100 0.000000
-5.566400 0.000000
-5.553700 0.000000
-5.541000 0.000000
-5.528300 0.000000
-5.515600 0.000000
-5.502900 0.000000
-5.490200 0.000000
-5.477500 0.000000
-5.464800 0.000000
-5.452100 0.000000
-5.439400 0.000000
-5.426700 0.000000
-5.414000 0.000000
-5.401300 0.000000
-5.388600 0.000000
-5.375900 0.000000
-5.363200 0.000000
-5.350500 0.000000
-5.337800 0.000000
-5.325100 0.000000
-5.312400 0.000000
-5.299700 0.000000
-5.287000 0.000000
-5.274300 0.000000
-5.261600 0.000000
-5.248900 0.000000
-5.236100 0.000000
-5.223400 0.000000
-5.210700 0.000000
-5.198000 0.000000
-5.185300 0.000000
-5.172600 0.000000
-5.159900 0.000000
-5.147200 0.000000
-5.134500 0.000000
-5.121800 0.000000
-5.109100 0.000000
-5.096400 0.000000
-5.083700 0.000000
-5.071000 0.000000
-5.058300 0.000000
-5.045600 0.000000
-5.032900 0.000000
-5.020200 0.000000
-5.007500 0.000000
-4.994800 0.000000
-4.982100 0.000000
-4.969400 0.000000
-4.956700 0.000000
-4.944000 0.000000
-4.931300 0.000000
-4.918600 0.000000
-4.905900 0.000000
-4.893200 0.000000
-4.880500 0.000000
-4.867800 0.000000
-4.855100 0.000000
-4.842400 0.000000
-4.829700 0.000000
-4.817000 0.000000
-4.804300 0.000000
-4.791600 0.000000
-4.778900 0.000000
-4.766200 0.000000
-4.753400 0.000000
-4.740700 0.000000
-4.728000 0.000000
-4.715300 0.000000
-4.702600 0.000000
-4.689900 0.000000
-4.677200 0.000000
-4.664500 0.000000
-4.651800 0.000000
-4.639100 0.000000
-4.626400 0.000000
-4.613700 0.000000
-4.601000 0.000000
-4.588300 0.000000
-4.575600 0.000000
-4.562900 0.000000
-4.550200 0.000000
-4.537500 0.000000
-4.524800 0.000000
-4.512100 0.000000
-4.499400 0.000000
-4.486700 0.000000
-4.474000 0.000000
-4.461300 0.000000
-4.448600 0.000000
-4.435900 0.000000
-4.423200 0.000000
-4.410500 0.000000
-4.397800 0.000000
-4.385100 0.000000
-4.372400 0.000000
-4.359700 0.000000
-4.347000 0.000000
-4.334300 0.000000
-4.321600 0.000000
-4.308900 0.000000
-4.296200 0.000000
-4.283500 0.000000
-4.270700 0.000000
-4.258000 0.000000
-4.245300 0.000000
-4.232600 0.000000
-4.219900 0.000000
-4.207200 0.000000
-4.194500 0.000000
-4.181800 0.000000
-4.169100 0.000000
-4.156400 0.000000
-4.143700 0.000000
-4.131000 0.000000
-4.118300 0.000000
-4.105600 0.000000
-4.092900 0.000000
-4.080200 0.000000
-4.067500 0.000000
-4.054800 0.000000
-4.042100 0.000000
-4.029400 0.000000
-4.016700 0.000000
-4.004000 0.000000
-3.991300 0.000000
-3.978600 0.000000
-3.965900 0.000000
-3.953200 0.000000
-3.940500 0.000000
-3.927800 0.000000
-3.915100 0.000000
-3.902400 0.000000
-3.889700 0.000000
-3.877000 0.000000
-3.864300 0.000000
-3.851600 0.000000
-3.838900 0.000000
-3.826200 0.000000
-3.813500 0.000000
-3.800800 0.000000
-3.788000 0.000000
-3.775300 0.000000
-3.762600 0.000000
-3.749900 0.000000
-3.737200 0.000000
-3.724500 0.000000
-3.711800 0.000000
-3.699100 0.000000
-3.686400 0.000000
-3.673700 0.000000
-3.661000 0.000000
-3.648300 0.000000
-3.635600 0.000000
-3.622900 0.000000
-3.610200 0.000000
-3.597500 0.000000
-3.584800 0.000000
-3.572100 0.000000
-3.559400 0.000000
-3.546700 0.000000
-3.534000 0.000000
-3.521300 0.000000
-3.508600 0.000000
-3.495900 0.000000
-3.483200 0.000000
-3.470500 0.000000
-3.457800 0.000000
-3.445100 0.000000
-3.432400 0.000000
-3.419700 0.000000
-3.407000 0.000000
-3.394300 0.000000
-3.381600 0.000000
-3.368900 0.000000
-3.356200 0.000000
-3.343500 0.000000
-3.330800 0.000000
-3.318100 0.000000
-3.305300 0.000000
-3.292600 0.000000
-3.279900 0.000000
-3.267200 0.000000
-3.254500 0.000000
-3.241800 0.000000
-3.229100 0.000000
-3.216400 0.000000
-3.203700 0.000000
-3.191000 0.000000
-3.178300 0.000000
-3.165600 0.000000
-3.152900 0.000000
-3.140200 0.000000
-3.127500 0.000000
-3.114800 0.000000
-3.102100 0.000000
-3.089400 0.000000
-3.076700 0.000000
-3.064000 0.000000
-3.051300 0.000000
-3.038600 0.000000
-3.025900 0.000000
-3.013200 0.000000
-3.000500 0.000000
-2.987800 0.000000
-2.975100 0.000000
-2.962400 0.000000
-2.949700 0.000000
-2.937000 0.000000
-2.924300 0.000000
-2.911600 0.000000
-2.898900 0.000000
-2.886200 0.000000
-2.873500 0.000000
-2.860800 0.000000
-2.848100 0.000000
-2.835400 0.000000
-2.822700 0.000000
-2.809900 0.000000
-2.797200 0.000000
-2.784500 0.000000
-2.771800 0.000000
-2.759100 0.000000
-2.746400 0.000000
-2.733700 0.000000
-2.721000 0.000000
-2.708300 0.000000
-2.695600 0.000000
-2.682900 0.000000
-2.670200 0.000000
-2.657500 0.000000
-2.644800 0.000000
-2.632100 0.000000
-2.619400 0.000000
-2.606700 0.000000
-2.594000 19.272100
-2.581300 12.148200
-2.568600 15.247200
-2.555900 51.082200
-2.543200 48.163300
-2.530500 54.132000
-2.517800 52.047000
-2.505100 58.598000
-2.492400 54.114600
-2.479700 50.451600
-2.467000 41.654200
-2.454300 40.828800
-2.441600 40.003400
-2.428900 34.238800
-2.416200 29.360400
-2.403500 28.869400
-2.390800 24.944100
-2.378100 21.627900
-2.365400 21.533900
-2.352700 21.439900
-2.340000 21.346000
-2.327200 21.285400
-2.314500 22.190100
-2.301800 23.094800
-2.289100 25.810600
-2.276400 32.942100
-2.263700 39.486700
-2.251000 41.189700
-2.238300 43.228600
-2.225600 30.678200
-2.212900 14.802800
-2.200200 15.484200
-2.187500 16.214100
-2.174800 17.095300
-2.162100 17.965700
-2.149400 43.767700
-2.136700 7.191300
-2.124000 7.060100
-2.111300 6.929000
-2.098600 6.797800
-2.085900 6.666600
-2.073200 6.535500
-2.060500 6.404300
-2.047800 6.273100
-2.035100 14.475600
-2.022400 5.038100
-2.009700 1.735300
-1.997000 4.977200
-1.984300 3.680500
-1.971600 2.383900
-1.958900 1.087200
-1.946200 0.000000
-1.933500 0.000000
-1.920800 0.000000
-1.908100 0.000000
-1.895400 0.000000
-1.882700 0.000000
-1.870000 0.000000
-1.857300 0.000000
-1.844500 0.000000
-1.831800 0.000000
-1.819100 0.000000
-1.806400 0.000000
-1.793700 0.000000
-1.781000 0.000000
-1.768300 0.000000
-1.755600 0.000000
-1.742900 0.000000
-1.730200 0.000000
-1.717500 0.000000
-1.704800 0.000000
-1.692100 0.000000
-1.679400 5.296900
-1.666700 3.923800
-1.654000 7.495700
-1.641300 11.077500
-1.628600 8.533700
-1.615900 12.056000
-1.603200 9.806800
-1.590500 14.468500
-1.577800 12.396900
-1.565100 17.028300
-1.552400 15.193300
-1.539700 19.515900
-1.527000 17.275400
-1.514300 21.462800
-1.501600 20.406400
-1.488900 19.384000
-1.476200 19.632300
-1.463500 20.345300
-1.450800 21.058200
-1.438100 21.771100
-1.425400 22.484100
-1.412700 23.197000
-1.400000 23.910000
-1.387300 32.809100
-1.374600 38.717000
-1.361800 22.977600
-1.349100 18.496600
-1.336400 29.087900
-1.323700 23.099500
-1.311000 17.104800
-1.298300 32.287900
-1.285600 14.913900
-1.272900 21.660400
-1.260200 18.636800
-1.247500 15.613300
-1.234800 10.895800
-1.222100 21.839300
-1.209400 15.020900
-1.196700 8.583800
-1.184000 8.481900
-1.171300 8.380100
-1.158600 8.850800
-1.145900 8.788400
-1.133200 9.329000
-1.120500 9.920900
-1.107800 9.950100
-1.095100 10.604400
-1.082400 11.292000
-1.069700 12.022200
-1.057000 12.149500
-1.044300 12.947000
-1.031600 13.757300
-1.018900 13.937000
-1.006200 14.116600
-0.993500 14.296100
-0.980800 14.470900
-0.968100 14.643300
-0.955400 14.815800
-0.942700 14.988200
-0.930000 15.157900
-0.917300 15.320200
-0.904600 15.474300
-0.891900 15.623900
-0.879100 15.773500
-0.866400 15.923100
-0.853700 16.072700
-0.841000 16.222300
-0.828300 16.371900
-0.815600 16.521500
-0.802900 16.671100
-0.790200 16.820700
-0.777500 16.970300
-0.764800 17.824700
-0.752100 18.468000
-0.739400 19.813700
-0.726700 21.140500
-0.714000 24.639500
-0.701300 26.938900
-0.688600 27.393200
-0.675900 29.285700
-0.663200 30.394600
-0.650500 32.038600
-0.637800 33.765600
-0.625100 34.846700
-0.612400 35.280500
-0.599700 36.484100
-0.587000 36.799800
-0.574300 38.405400
-0.561600 39.189100
-0.548900 38.202000
-0.536200 38.290300
-0.523500 36.890300
-0.510800 36.932600
-0.498100 36.853600
-0.485400 36.780500
-0.472700 36.815800
-0.460000 36.894000
-0.447300 36.064300
-0.434600 36.341000
-0.421900 36.562300
-0.409200 35.794100
-0.396400 35.977000
-0.383700 36.469900
-0.371000 37.232200
-0.358300 38.135700
-0.345600 39.039200
-0.332900 39.921400
-0.320200 39.970500
-0.307500 40.697700
-0.294800 41.591500
-0.282100 41.062200
-0.269400 38.926700
-0.256700 39.440300
-0.244000 36.795600
-0.231300 35.265800
-0.218600 32.158100
-0.205900 29.913500
-0.193200 37.193100
-0.180500 31.205500
-0.167800 27.962400
-0.155100 27.104100
-0.142400 28.309700
-0.129700 27.209200
-0.117000 26.038600
-0.104300 25.096400
-0.091600 23.953500
-0.078900 22.821100
-0.066200 22.010400
-0.053500 20.897400
-0.040800 19.953000
-0.028100 19.353800
-0.015400 18.754600
-0.002700 18.220900
0.010000 17.714700
0.022700 17.228800
0.035400 16.813300
0.048100 16.419700
0.060800 16.114700
0.073500 15.890700
0.086300 15.702300
0.099000 16.332900
0.111700 16.342400
0.124400 16.351700
0.137100 16.361100
0.149800 17.494600
0.162500 17.775500
0.175200 19.172100
0.187900 19.671800
0.200600 20.351000
0.213300 20.845300
0.226000 21.339600
0.238700 21.833900
0.251400 25.938800
0.264100 27.938200
0.276800 28.891600
0.289500 29.574900
0.302200 33.543600
0.314900 36.479000
0.327600 39.103000
0.340300 41.309800
0.353000 41.772400
0.365700 43.412600
0.378400 45.652600
0.391100 46.948300
0.403800 55.782900
0.416500 60.217500
0.429200 69.468100
0.441900 64.002200
0.454600 62.762100
0.467300 65.055200
0.480000 62.570200
0.492700 77.246300
0.505400 73.045300
0.518100 55.228500
0.530800 63.038600
0.543500 53.361200
0.556200 61.557800
0.569000 52.408100
0.581700 48.221300
0.594400 45.576100
0.607100 61.238000
0.619800 51.719600
0.632500 62.441500
0.645200 66.757400
0.657900 104.100200
0.670600 91.614400
0.683300 63.496400
0.696000 61.166100
0.708700 65.234600
0.721400 70.469400
0.734100 58.492900
0.746800 57.439200
0.759500 56.883200
0.772200 51.953500
0.784900 49.031600
0.797600 46.237000
0.810300 44.140100
0.823000 38.259600
0.835700 33.558500
0.848400 30.220400
0.861100 27.166700
0.873800 24.259500
0.886500 21.335700
0.899200 30.421400
0.911900 27.298000
0.924600 23.516400
0.937300 8.276500
0.950000 13.598300
0.962700 14.124600
0.975400 0.000000
0.988100 0.000000
1.000800 0.000000
1.013500 0.000000
1.026200 0.000000
1.038900 0.000000
1.051700 0.000000
1.064400 0.000000
1.077100 0.000000
1.089800 0.000000
1.102500 0.000000
1.115200 0.000000
1.127900 0.000000
1.140600 0.000000
1.153300 0.000000
1.166000 0.000000
1.178700 0.000000
1.191400 0.000000
1.204100 0.000000
1.216800 0.000000
1.229500 0.000000
1.242200 0.000000
1.254900 0.000000
1.267600 0.000000
1.280300 0.000000
1.293000 0.000000
1.305700 0.000000
1.318400 0.000000
1.331100 0.000000
1.343800 0.000000
1.356500 0.000000
1.369200 0.000000
1.381900 0.000000
1.394600 0.000000
1.407300 0.000000
1.420000 0.000000
1.432700 0.000000
1.445400 0.000000
1.458100 0.000000
1.470800 0.000000
1.483500 0.000000
1.496200 0.000000
1.508900 0.000000
1.521600 0.000000
1.534400 0.000000
1.547100 0.000000
1.559800 0.000000
1.572500 0.000000
1.585200 0.000000
1.597900 0.000000
1.610600 0.000000
1.623300 0.000000
1.636000 0.000000
1.648700 0.000000
1.661400 0.000000
1.674100 0.000000
1.686800 0.000000
1.699500 0.000000
1.712200 0.000000
1.724900 0.000000
1.737600 0.000000
1.750300 0.000000
1.763000 0.000000
1.775700 0.000000
1.788400 0.000000
1.801100 0.000000
1.813800 0.000000
1.826500 0.000000
1.839200 0.000000
1.851900 0.000000
1.864600 0.000000
1.877300 0.000000
1.890000 0.000000
1.902700 0.000000
1.915400 0.000000
1.928100 0.000000
1.940800 0.000000
1.953500 0.000000
1.966200 0.000000
1.978900 0.000000
1.991600 0.000000
2.004300 0.000000
2.017100 0.000000
2.029800 0.000000
2.042500 0.000000
2.055200 0.000000
2.067900 0.000000
2.080600 0.000000
2.093300 0.000000
2.106000 0.000000
2.118700 0.000000
2.131400 0.000000
2.144100 0.000000
2.156800 0.000000
2.169500 0.000000
2.182200 0.000000
2.194900 0.000000
2.207600 0.000000
2.220300 0.000000
2.233000 0.000000
2.245700 0.000000
2.258400 0.000000
2.271100 0.000000
2.283800 0.000000
2.296500 0.000000
2.309200 0.000000
2.321900 0.000000
2.334600 0.000000
2.347300 0.000000
2.360000 0.000000
2.372700 0.000000
2.385400 0.000000
2.398100 0.000000
2.410800 0.000000
2.423500 0.000000
2.436200 0.000000
2.448900 0.000000
2.461600 0.000000
2.474300 0.000000
2.487000 0.000000
2.499700 0.000000
2.512500 0.000000
2.525200 0.000000
2.537900 0.000000
2.550600 0.000000
2.563300 0.000000
2.576000 0.000000
2.588700 0.000000
2.601400 0.000000
2.614100 0.000000
2.626800 0.000000
2.639500 0.000000
2.652200 0.000000
2.664900 0.000000
2.677600 0.000000
2.690300 0.000000
2.703000 0.000000
2.715700 0.000000
2.728400 0.000000
2.741100 0.000000
2.753800 0.000000
2.766500 0.000000
2.779200 0.000000
2.791900 0.000000
2.804600 0.000000
2.817300 0.000000
2.830000 0.000000
2.842700 0.000000
2.855400 0.000000
2.868100 0.000000
2.880800 0.000000
2.893500 0.000000
2.906200 0.000000
2.918900 0.000000
2.931600 0.000000
2.944300 0.000000
2.957000 0.000000
2.969700 0.000000
2.982400 0.000000
2.995200 0.000000
3.007900 0.000000
3.020600 0.000000
3.033300 0.000000
3.046000 0.000000
3.058700 0.000000
3.071400 0.000000
3.084100 0.000000
3.096800 0.000000
3.109500 0.000000
3.122200 0.000000
3.134900 0.000000
3.147600 0.000000
3.160300 0.000000
3.173000 0.000000
3.185700 0.000000
3.198400 0.000000
3.211100 0.000000
3.223800 0.000000
3.236500 0.000000
3.249200 0.000000
3.261900 0.000000
3.274600 0.000000
3.287300 0.000000
3.300000 0.000000
3.312700 0.000000
3.325400 0.000000
3.338100 0.000000
3.350800 0.000000
3.363500 0.000000
3.376200 0.000000
3.388900 0.002400
3.401600 0.877500
3.414300 1.766800
3.427000 1.848400
3.439700 1.930100
3.452400 2.917500
3.465100 3.032900
3.477900 3.148400
3.490600 4.255500
3.503300 4.407900
3.516000 4.565300
3.528700 5.854800
3.541400 6.056600
3.554100 6.258500
3.566800 7.692100
3.579500 9.190600
3.592200 9.436300
3.604900 10.970100
3.617600 11.235200
3.630300 11.500300
3.643000 11.765400
3.655700 12.030500
3.668400 12.295600
3.681100 12.560700
3.693800 12.940000
3.706500 13.376800
3.719200 13.918400
3.731900 14.547200
3.744600 15.268900
3.757300 16.077500
3.770000 16.934900
3.782700 17.872900
3.795400 18.839600
3.808100 19.863700
3.820800 20.902600
3.833500 21.941500
3.846200 22.980400
3.858900 24.202900
3.871600 25.475100
3.884300 39.120600
3.897000 29.687100
3.909700 28.582500
3.922400 27.938100
3.935100 34.213300
3.947800 32.128700
3.960600 29.775600
3.973300 27.626200
3.986000 32.844000
3.998700 34.156100
4.011400 30.993200
4.024100 33.540700
4.036800 33.936700
4.049500 31.503900
4.062200 28.292800
4.074900 26.700100
4.087600 24.969100
4.100300 23.388100
4.113000 22.481100
4.125700 21.537500
4.138400 20.080700
4.151100 20.668100
4.163800 21.660300
4.176500 19.583800
4.189200 17.625200
4.201900 15.705300
4.214600 13.785300
4.227300 11.866100
4.240000 10.314700
4.252700 9.883700
4.265400 9.077300
4.278100 14.413700
4.290800 4.662900
4.303500 5.386000
4.316200 6.109000
4.328900 0.000000
4.341600 0.000000
4.354300 0.000000
4.367000 0.000000
4.379700 0.000000
4.392400 0.000000
4.405100 0.000000
4.417800 0.000000
4.430500 0.000000
4.443300 0.000000
4.456000 0.000000
4.468700 0.000000
4.481400 0.000000
4.494100 0.000000
4.506800 0.000000
4.519500 0.000000
4.532200 0.000000
4.544900 0.000000
4.557600 0.000000
4.570300 0.000000
4.583000 0.000000
4.595700 0.000000
4.608400 0.000000
4.621100 0.000000
4.633800 0.000000
4.646500 0.000000
4.659200 0.000000
4.671900 0.000000
4.684600 0.000000
4.697300 0.000000
4.710000 0.000000
4.722700 0.000000
4.735400 0.000000
4.748100 0.000000
4.760800 0.000000
4.773500 0.000000
4.786200 0.000000
4.798900 0.000000
4.811600 0.000000
4.824300 0.000000
4.837000 0.000000
4.849700 0.000000
4.862400 0.000000
4.875100 0.000000
4.887800 0.000000
4.900500 0.000000
4.913200 0.000000
4.926000 0.000000
4.938700 0.000000
4.951400 0.000000
4.964100 0.000000
4.976800 0.000000
4.989500 0.000000
5.002200 0.000000
5.014900 0.000000
5.027600 0.000000
5.040300 0.000000
5.053000 0.000000
5.065700 0.000000
5.078400 0.000000
5.091100 0.000000
5.103800 0.000000
5.116500 0.000000
5.129200 0.000000
5.141900 0.000000
5.154600 0.000000
5.167300 0.000000
5.180000 0.000000
5.192700 0.000000
5.205400 0.000000
5.218100 0.000000
5.230800 0.000000
5.243500 0.000000
5.256200 0.000000
5.268900 0.000000
5.281600 0.000000
5.294300 0.000000
5.307000 0.000000
5.319700 0.000000
5.332400 0.000000
5.345100 0.000000
5.357800 0.000000
5.370500 0.000000
5.383200 0.000000
5.395900 0.000000
5.408700 0.000000
5.421400 0.000000
5.434100 0.000000
5.446800 0.000000
5.459500 0.000000
5.472200 0.002700
5.484900 0.027600
5.497600 0.091900
5.510300 0.164200
5.523000 0.236600
5.535700 0.308900
5.548400 0.381200
5.561100 0.453600
5.573800 0.525900
5.586500 0.598300
5.599200 0.670600
5.611900 0.742900
5.624600 0.815300
5.637300 0.887600
5.650000 0.960000
5.662700 1.032300
5.675400 1.104600
5.688100 1.177000
5.700800 1.249300
5.713500 1.321700
5.726200 1.394000
5.738900 1.466300
5.751600 1.538700
5.764300 1.611000
5.777000 1.683400
5.789700 1.755700
5.802400 1.828100
5.815100 1.900400
5.827800 1.972700
5.840500 2.045100
5.853200 2.117400
5.865900 2.189800
5.878600 2.262100
5.891400 2.334400
5.904100 2.406800
5.916800 2.479100
5.929500 2.551500
5.942200 2.623800
5.954900 2.696100
5.967600 3.950500
5.980300 4.977300
5.993000 6.461800
6.005700 7.800100
6.018400 8.423800
6.031100 9.160500
6.043800 9.528700
6.056500 11.088500
6.069200 12.294800
6.081900 12.554300
6.094600 12.917600
6.107300 13.288100
6.120000 14.247400
6.132700 14.644900
6.145400 15.273000
6.158100 15.461800
6.170800 15.650700
6.183500 15.839500
6.196200 16.541600
6.208900 16.779900
6.221600 17.018200
6.234300 17.256500
6.247000 18.065600
6.259700 18.309000
6.272400 18.429500
6.285100 18.549900
6.297800 18.670300
6.310500 18.790700
6.323200 18.911200
6.335900 18.995400
6.348600 19.000300
6.361300 19.005200
6.374100 22.749400
6.386800 22.533400
6.399500 22.317400
6.412200 22.101500
6.424900 25.364100
6.437600 24.260300
6.450300 23.156600
6.463000 22.052800
6.475700 21.036300
6.488400 20.065100
6.501100 28.262700
6.513800 20.804100
6.526500 20.230500
6.539200 19.656900
6.551900 24.249900
6.564600 21.509500
6.577300 17.208800
6.590000 16.089600
6.602700 15.883400
6.615400 15.872100
6.628100 15.860700
6.640800 15.849400
6.653500 13.015200
6.666200 13.959500
6.678900 13.344500
6.691600 14.261700
6.704300 17.225200
6.717000 14.216800
6.729700 13.955900
6.742400 15.924400
6.755100 17.719300
6.767800 17.284200
6.780500 16.849000
6.793200 16.413900
6.805900 15.978700
6.818600 15.543600
6.831300 14.809300
6.844000 14.136000
6.856800 15.800600
6.869500 18.129800
6.882200 17.008000
6.894900 15.262600
6.907600 14.499600
6.920300 13.739900
6.933000 12.125700
6.945700 11.669600
6.958400 11.315100
6.971100 11.232900
6.983800 11.154500
6.996500 11.076100
7.009200 10.997700
7.021900 14.304600
7.034600 13.955400
7.047300 18.317200
7.060000 25.633600
7.072700 23.876700
7.085400 21.582100
7.098100 23.487500
7.110800 24.785000
7.123500 30.974300
7.136200 33.716100
7.148900 32.102800
7.161600 34.535500
7.174300 29.011900
7.187000 26.723800
7.199700 25.883800
7.212400 27.379800
7.225100 30.691300
7.237800 30.383900
7.250500 44.160500
7.263200 21.732500
7.275900 22.187400
7.288600 23.081800
7.301300 32.342000
7.314000 32.080300
7.326700 27.153500
7.339500 24.041800
7.352200 19.265300
7.364900 20.448300
7.377600 21.631400
7.390300 25.116400
7.403000 31.349900
7.415700 44.549200
7.428400 36.502700
7.441100 28.233500
7.453800 32.027000
7.466500 34.501200
7.479200 29.847800
7.491900 29.468900
7.504600 30.887700
7.517300 31.196700
7.530000 33.192300
7.542700 35.228900
7.555400 36.089000
7.568100 36.243600
7.580800 37.299400
7.593500 35.864700
7.606200 38.204000
7.618900 42.315300
7.631600 46.252600
7.644300 39.402100
7.657000 37.698900
7.669700 33.107300
7.682400 32.294800
7.695100 34.302100
7.707800 44.942000
7.720500 84.945400
7.733200 38.139700
7.745900 39.441500
7.758600 41.285300
7.771300 38.893000
7.784000 34.123400
7.796700 32.899800
7.809400 39.119500
7.822100 34.848700
7.834900 31.333400
7.847600 35.785200
7.860300 39.983400
7.873000 36.708700
7.885700 32.825500
7.898400 28.860000
7.911100 25.811700
7.923800 23.367700
7.936500 25.683900
7.949200 25.546800
7.961900 23.993100
7.974600 23.997100
7.987300 23.739000
8.000000 30.226000
8.012700 30.031500
8.025400 31.292100
8.038100 30.567800
8.050800 29.858200
8.063500 32.546500
8.076200 31.936800
8.088900 34.262500
8.101600 33.718600
8.114300 33.174800
8.127000 32.630900
8.139700 32.103100
8.152400 31.580000
8.165100 36.550200
8.177800 35.229900
8.190500 33.125200
8.203200 31.603100
8.215900 32.973000
8.228600 30.687400
8.241300 28.706400
8.254000 29.319000
8.266700 34.043800
8.279400 27.007300
8.292100 25.189400
8.304800 27.071500
8.317600 24.405900
8.330300 18.627800
8.343000 16.387600
8.355700 14.379900
8.368400 12.970600
8.381100 12.086900
8.393800 11.300000
8.406500 11.021400
8.419200 10.293000
8.431900 10.054400
8.444600 9.815800
8.457300 9.577200
8.470000 9.338600
8.482700 9.100000
8.495400 8.861400
8.508100 8.622800
8.520800 8.384300
8.533500 8.145700
8.546200 7.907100
8.558900 9.222400
8.571600 8.863600
8.584300 8.504800
8.597000 8.311400
8.609700 10.654000
8.622400 9.176900
8.635100 8.199000
8.647800 7.290800
8.660500 6.889300
8.673200 7.279600
8.685900 8.587900
8.698600 9.995000
8.711300 11.402100
8.724000 12.386800
8.736700 13.646000
8.749400 10.227600
8.762100 10.824400
8.774800 11.421300
8.787500 8.441900
8.800300 8.723900
8.813000 8.582200
8.825700 8.832800
8.838400 8.317000
8.851100 8.414000
8.863800 10.937600
8.876500 11.396400
8.889200 11.981600
8.901900 14.168800
8.914600 15.183800
8.927300 15.442000
8.940000 14.972000
8.952700 14.502100
8.965400 14.032200
8.978100 13.562300
8.990800 13.662300
9.003500 13.533200
9.016200 15.810500
9.028900 18.188500
9.041600 17.587100
9.054300 16.985800
9.067000 17.581500
9.079700 16.749600
9.092400 23.401800
9.105100 16.683300
9.117800 18.659800
9.130500 19.950100
9.143200 21.733500
9.155900 22.981500
9.168600 25.255900
9.181300 26.932400
9.194000 26.830000
9.206700 27.097900
9.219400 28.650300
9.232100 28.613400
9.244800 35.397400
9.257500 24.074700
9.270200 25.189200
9.283000 26.303700
9.295700 27.396100
9.308400 20.399300
9.321100 20.614700
9.333800 29.188900
9.346500 27.337000
9.359200 30.324400
9.371900 27.898500
9.384600 28.052900
9.397300 28.317900
9.410000 24.687300
9.422700 29.693200
9.435400 37.594000
9.448100 27.944200
9.460800 28.302300
9.473500 28.320500
9.486200 25.605800
9.498900 25.451700
9.511600 28.076600
9.524300 27.608800
9.537000 27.141100
9.549700 27.108700
9.562400 24.967200
9.575100 24.131100
9.587800 23.295200
9.600500 30.103600
9.613200 28.513800
9.625900 27.364100
9.638600 25.104400
9.651300 25.389400
9.664000 25.959300
9.676700 25.241700
9.689400 25.943900
9.702100 24.964600
9.714800 25.654500
9.727500 26.401800
9.740200 27.676800
9.752900 29.445500
9.765700 28.906500
9.778400 30.093300
9.791100 92.389200
9.803800 24.084000
9.816500 24.533900
9.829200 24.983700
9.841900 21.864100
9.854600 22.926400
9.867300 24.055800
9.880000 23.691400
9.892700 25.021300
9.905400 26.589800
9.918100 28.196100
9.930800 30.297100
9.943500 28.961900
9.956200 23.236000
9.968900 24.955500
9.981600 23.177700
9.994300 24.652500
10.007000 41.496900
10.019700 27.398500
10.032400 29.296100
10.045100 18.233600
10.057800 20.209100
10.070500 22.666400
10.083200 25.123700
10.095900 19.680500
10.108600 19.933300
10.121300 27.352700
10.134000 17.652200
10.146700 23.947500
10.159400 21.295000
10.172100 21.322700
10.184800 21.350400
10.197500 21.378200
10.210200 18.264800
10.222900 18.704100
10.235600 18.732500
10.248400 18.798800
10.261100 18.865200
10.273800 19.767300
10.286500 19.836100
10.299200 19.904900
10.311900 19.978100
10.324600 20.398000
10.337300 19.233700
10.350000 19.544900
10.362700 20.470000
10.375400 18.887200
10.388100 19.195800
10.400800 19.744000
10.413500 17.722800
10.426200 18.086800
10.438900 18.450800
10.451600 18.814800
10.464300 19.178800
10.477000 19.542800
10.489700 17.059200
10.502400 14.805700
10.515100 14.676900
10.527800 14.572100
10.540500 14.477500
10.553200 14.396100
10.565900 14.314700
10.578600 14.233300
10.591300 14.667000
10.604000 15.834400
10.616700 16.043400
10.629400 16.268000
10.642100 16.492700
10.654800 16.720400
10.667500 15.629500
10.680200 15.835900
10.692900 16.052700
10.705600 17.047700
10.718300 16.249300
10.731100 16.720300
10.743800 17.213000
10.756500 16.688200
10.769200 17.180100
10.781900 17.657900
10.794600 14.734500
10.807300 14.783200
10.820000 14.833600
10.832700 14.883000
10.845400 14.890500
10.858100 14.905600
10.870800 14.920700
10.883500 14.935800
10.896200 14.950900
10.908900 14.837000
10.921600 16.074400
10.934300 15.846600
10.947000 15.618700
10.959700 17.092800
10.972400 17.088500
10.985100 18.639400
10.997800 18.751600
11.010500 19.445100
11.023200 19.241300
11.035900 20.931000
11.048600 20.851100
11.061300 21.324600
11.074000 21.315300
11.086700 21.305900
11.099400 21.155300
11.112100 20.911300
11.124800 20.670600
11.137500 20.269100
11.150200 19.798200
11.162900 19.327300
11.175600 18.857200
11.188300 18.390000
11.201000 17.935200
11.213800 17.484600
11.226500 19.157300
11.239200 18.580200
11.251900 18.559500
11.264600 19.755500
11.277300 18.975600
11.290000 18.275400
11.302700 17.592500
11.315400 16.915700
11.328100 16.255700
11.340800 16.198500
11.353500 16.068800
11.366200 19.133800
11.378900 17.816500
11.391600 16.499300
11.404300 15.182000
11.417000 15.418500
11.429700 14.842700
11.442400 14.629100
11.455100 14.048800
11.467800 13.841400
11.480500 16.947100
11.493200 15.406800
11.505900 14.248200
11.518600 13.089700
11.531300 12.953200
11.544000 12.703500
11.556700 12.474600
11.569400 12.379800
11.582100 12.285000
11.594800 12.190200
11.607500 11.760500
11.620200 11.154900
11.632900 11.918900
11.645600 12.168800
11.658300 11.844000
11.671000 12.101500
11.683700 10.340300
11.696500 10.470600
11.709200 10.639200
11.721900 10.839800
11.734600 11.040400
11.747300 11.241000
11.760000 8.916600
11.772700 8.814500
11.785400 8.806800
11.798100 11.555900
11.810800 16.474300
11.823500 10.537300
11.836200 10.567400
11.848900 9.577100
11.861600 9.591700
11.874300 9.606400
11.887000 9.621100
11.899700 8.360900
11.912400 6.609700
11.925100 6.660200
11.937800 6.710700
11.950500 6.781200
11.963200 6.925400
11.975900 7.069600
11.988600 7.213900
12.001300 7.358100
12.014000 6.253600
12.026700 4.218300
12.039400 4.192800
12.052100 4.167300
12.064800 4.159100
12.077500 4.219200
12.090200 4.279400
12.102900 2.751300
12.115600 2.754400
12.128300 2.757500
12.141000 2.811600
12.153700 2.907700
12.166400 3.003900
12.179200 3.100000
12.191900 3.196200
12.204600 1.415600
12.217300 1.455100
12.230000 1.494700
12.242700 1.534200
12.255400 1.573700
12.268100 1.613300
12.280800 1.652800
12.293500 0.000000
12.306200 0.000000
12.318900 0.000000
12.331600 0.000000
12.344300 0.000000
12.357000 0.000000
12.369700 0.000000
12.382400 0.000000
12.395100 0.000000
12.407800 0.000000
12.420500 0.000000
12.433200 0.000000
12.445900 0.000000
12.458600 0.000000
12.471300 0.000000
12.484000 0.000000
12.496700 0.000000
12.509400 0.000000
12.522100 0.000000
12.534800 0.000000
12.547500 0.000000
12.560200 0.000000
12.572900 0.000000
12.585600 0.000000
12.598300 0.000000
12.611000 0.000000
12.623700 0.000000
12.636400 0.000000
12.649100 0.000000
12.661900 0.000000
12.674600 0.000000
12.687300 0.000000
12.700000 0.000000
12.712700 0.000000
12.725400 0.000000
12.738100 0.000000
12.750800 0.000000
12.763500 0.000000
12.776200 0.000000
12.788900 0.000000
12.801600 0.000000
12.814300 0.000000
12.827000 0.000000
12.839700 0.000000
12.852400 0.000000
12.865100 0.000000
12.877800 0.000000
12.890500 0.000000
12.903200 0.000000
12.915900 0.000000
12.928600 0.000000
12.941300 0.000000
12.954000 0.000000
12.966700 0.000000
12.979400 0.000000
12.992100 0.000000
13.004800 0.000000
13.017500 0.000000
13.030200 0.000000
13.042900 0.000000
13.055600 0.000000
13.068300 0.000000
13.081000 0.000000
13.093700 0.000000
13.106400 0.000000
13.119100 0.000000
13.131800 0.000000
13.144500 0.000000
13.157300 0.000000
13.170000 0.000000
13.182700 0.000000
13.195400 0.000000
13.208100 0.000000
13.220800 0.000000
13.233500 0.000000
13.246200 0.000000
13.258900 0.000000
13.271600 0.000000
13.284300 0.000000
13.297000 0.000000
13.309700 0.000000
13.322400 0.000000
13.335100 0.000000
13.347800 0.000000
13.360500 0.000000
13.373200 0.000000
13.385900 0.000000
13.398600 0.000000
13.411300 0.000000
13.424000 0.000000
13.436700 0.000000
e
