set title 'mp-1077404 - Density of States'
set xlabel 'Energy (eV)'
set ylabel 'DOS (states/eV)'
set grid
set xrange [-10:10]
set yrange [0:5.861]
set xzeroaxis lt -1
set terminal png size 800,600
set output 'mp-1077404_dos_gnuplot.png'
plot '-' using 1:2 with lines title 'DOS'
-17.971700 0.000000
-17.956500 0.000000
-17.941300 0.000000
-17.926100 0.000000
-17.910900 0.000000
-17.895700 0.000000
-17.880500 0.000000
-17.865300 0.000000
-17.850100 0.000000
-17.834900 0.000000
-17.819700 0.000000
-17.804500 0.000000
-17.789300 0.000000
-17.774100 0.000000
-17.758900 0.000000
-17.743700 0.000000
-17.728500 0.000000
-17.713300 0.000000
-17.698100 0.000000
-17.682900 0.000000
-17.667700 0.000000
-17.652500 0.000000
-17.637300 0.000000
-17.622100 0.000000
-17.606900 0.000000
-17.591700 0.000000
-17.576500 0.000000
-17.561300 0.000000
-17.546100 0.000000
-17.530800 0.000000
-17.515600 0.000000
-17.500400 0.000000
-17.485200 0.000000
-17.470000 0.000000
-17.454800 0.000000
-17.439600 0.000000
-17.424400 0.000000
-17.409200 0.000000
-17.394000 0.000000
-17.378800 0.000000
-17.363600 0.000000
-17.348400 0.000000
-17.333200 0.000000
-17.318000 0.000000
-17.302800 0.000000
-17.287600 0.000000
-17.272400 0.000000
-17.257200 0.000000
-17.242000 0.000000
-17.226800 0.000000
-17.211600 0.000000
-17.196400 0.000000
-17.181200 0.000000
-17.166000 0.000000
-17.150800 0.000000
-17.135600 0.000000
-17.120400 0.000000
-17.105200 0.000000
-17.090000 0.000000
-17.074800 0.000000
-17.059600 0.000000
-17.044400 0.000000
-17.029200 0.000000
-17.014000 0.000000
-16.998700 0.000000
-16.983500 0.000000
-16.968300 0.000000
-16.953100 0.000000
-16.937900 0.000000
-16.922700 0.000000
-16.907500 0.000000
-16.892300 0.000000
-16.877100 0.000000
-16.861900 0.000000
-16.846700 0.000000
-16.831500 0.000000
-16.816300 0.000000
-16.801100 0.000000
-16.785900 0.000000
-16.770700 0.000000
-16.755500 0.000000
-16.740300 0.000000
-16.725100 0.000000
-16.709900 0.000000
-16.694700 0.000000
-16.679500 0.000000
-16.664300 0.000000
-16.649100 0.000000
-16.633900 0.000000
-16.618700 0.000000
-16.603500 0.000000
-16.588300 4.308300
-16.573100 37.392800
-16.557900 116.746300
-16.542700 81.832800
-16.527500 56.729700
-16.512300 77.566500
-16.497100 104.784400
-16.481900 103.769400
-16.466600 96.300300
-16.451400 18.378100
-16.436200 55.323600
-16.421000 37.352300
-16.405800 16.537400
-16.390600 0.000000
-16.375400 0.000000
-16.360200 0.000000
-16.345000 0.000000
-16.329800 0.000000
-16.314600 0.000000
-16.299400 0.000000
-16.284200 0.000000
-16.269000 0.000000
-16.253800 0.000000
-16.238600 0.000000
-16.223400 0.000000
-16.208200 0.000000
-16.193000 0.000000
-16.177800 0.000000
-16.162600 0.000000
-16.147400 0.000000
-16.132200 0.000000
-16.117000 0.000000
-16.101800 0.000000
-16.086600 0.000000
-16.071400 0.000000
-16.056200 0.000000
-16.041000 0.000000
-16.025800 0.000000
-16.010600 0.000000
-15.995400 0.000000
-15.980200 0.000000
-15.965000 0.000000
-15.949800 0.000000
-15.934500 0.000000
-15.919300 0.000000
-15.904100 0.000000
-15.888900 0.000000
-15.873700 0.000000
-15.858500 0.000000
-15.843300 0.000000
-15.828100 0.000000
-15.812900 0.000000
-15.797700 0.000000
-15.782500 0.000000
-15.767300 0.000000
-15.752100 0.000000
-15.736900 0.000000
-15.721700 0.000000
-15.706500 0.000000
-15.691300 0.000000
-15.676100 0.000000
-15.660900 0.000000
-15.645700 0.000000
-15.630500 0.000000
-15.615300 0.000000
-15.600100 0.000000
-15.584900 0.000000
-15.569700 0.000000
-15.554500 0.000000
-15.539300 0.000000
-15.524100 0.000000
-15.508900 0.000000
-15.493700 0.000000
-15.478500 0.000000
-15.463300 0.000000
-15.448100 0.000000
-15.432900 0.000000
-15.417700 0.000000
-15.402400 0.000000
-15.387200 0.000000
-15.372000 0.000000
-15.356800 0.000000
-15.341600 0.000000
-15.326400 0.000000
-15.311200 0.000000
-15.296000 0.000000
-15.280800 0.000000
-15.265600 0.000000
-15.250400 0.000000
-15.235200 0.000000
-15.220000 0.000000
-15.204800 0.000000
-15.189600 0.000000
-15.174400 0.000000
-15.159200 0.000000
-15.144000 0.000000
-15.128800 0.000000
-15.113600 0.000000
-15.098400 0.000000
-15.083200 0.000000
-15.068000 0.000000
-15.052800 0.000000
-15.037600 0.000000
-15.022400 0.000000
-15.007200 0.000000
-14.992000 0.000000
-14.976800 0.000000
-14.961600 0.000000
-14.946400 0.000000
-14.931200 0.000000
-14.916000 0.000000
-14.900800 0.000000
-14.885600 0.000000
-14.870300 0.000000
-14.855100 0.000000
-14.839900 0.000000
-14.824700 0.000000
-14.809500 0.000000
-14.794300 0.000000
-14.779100 0.000000
-14.763900 0.000000
-14.748700 0.000000
-14.733500 0.000000
-14.718300 0.000000
-14.703100 0.000000
-14.687900 0.000000
-14.672700 0.000000
-14.657500 0.000000
-14.642300 0.000000
-14.627100 0.000000
-14.611900 0.000000
-14.596700 0.000000
-14.581500 0.000000
-14.566300 0.000000
-14.551100 0.000000
-14.535900 0.000000
-14.520700 0.000000
-14.505500 0.000000
-14.490300 0.000000
-14.475100 0.000000
-14.459900 0.000000
-14.444700 0.000000
-14.429500 0.000000
-14.414300 0.000000
-14.399100 0.000000
-14.383900 0.000000
-14.368700 0.000000
-14.353500 0.000000
-14.338200 0.000000
-14.323000 0.000000
-14.307800 0.000000
-14.292600 0.000000
-14.277400 0.000000
-14.262200 0.000000
-14.247000 0.000000
-14.231800 0.000000
-14.216600 0.000000
-14.201400 0.000000
-14.186200 0.000000
-14.171000 0.000000
-14.155800 0.000000
-14.140600 0.000000
-14.125400 0.000000
-14.110200 0.000000
-14.095000 0.000000
-14.079800 0.000000
-14.064600 0.000000
-14.049400 0.000000
-14.034200 0.000000
-14.019000 0.000000
-14.003800 0.000000
-13.988600 0.000000
-13.973400 0.000000
-13.958200 0.000000
-13.943000 0.000000
-13.927800 0.000000
-13.912600 0.000000
-13.897400 0.000000
-13.882200 0.000000
-13.867000 0.000000
-13.851800 0.000000
-13.836600 0.000000
-13.821400 0.000000
-13.806100 0.000000
-13.790900 0.000000
-13.775700 0.000000
-13.760500 0.000000
-13.745300 0.000000
-13.730100 0.000000
-13.714900 0.000000
-13.699700 0.000000
-13.684500 0.000000
-13.669300 0.000000
-13.654100 0.000000
-13.638900 0.000000
-13.623700 0.000000
-13.608500 0.000000
-13.593300 0.000000
-13.578100 0.000000
-13.562900 0.000000
-13.547700 0.000000
-13.532500 0.000000
-13.517300 0.000000
-13.502100 0.000000
-13.486900 0.000000
-13.471700 0.000000
-13.456500 0.000000
-13.441300 0.000000
-13.426100 0.000000
-13.410900 0.000000
-13.395700 0.000000
-13.380500 0.000000
-13.365300 0.000000
-13.350100 0.000000
-13.334900 0.000000
-13.319700 0.000000
-13.304500 0.000000
-13.289300 0.000000
-13.274000 0.000000
-13.258800 0.000000
-13.243600 0.000000
-13.228400 0.000000
-13.213200 0.000000
-13.198000 0.000000
-13.182800 0.000000
-13.167600 0.000000
-13.152400 0.000000
-13.137200 0.000000
-13.122000 0.000000
-13.106800 0.000000
-13.091600 0.000000
-13.076400 0.000000
-13.061200 0.000000
-13.046000 0.000000
-13.030800 0.000000
-13.015600 0.000000
-13.000400 0.000000
-12.985200 0.000000
-12.970000 0.000000
-12.954800 0.000000
-12.939600 0.000000
-12.924400 0.000000
-12.909200 0.000000
-12.894000 0.000000
-12.878800 0.000000
-12.863600 0.000000
-12.848400 0.000000
-12.833200 0.000000
-12.818000 0.000000
-12.802800 0.000000
-12.787600 0.000000
-12.772400 0.000000
-12.757200 0.000000
-12.741900 0.000000
-12.726700 0.000000
-12.711500 0.000000
-12.696300 0.000000
-12.681100 0.000000
-12.665900 0.000000
-12.650700 0.000000
-12.635500 0.000000
-12.620300 0.000000
-12.605100 0.000000
-12.589900 0.000000
-12.574700 0.000000
-12.559500 0.000000
-12.544300 0.000000
-12.529100 0.000000
-12.513900 0.000000
-12.498700 0.000000
-12.483500 0.000000
-12.468300 0.000000
-12.453100 0.000000
-12.437900 0.000000
-12.422700 0.000000
-12.407500 0.000000
-12.392300 0.000000
-12.377100 0.000000
-12.361900 0.000000
-12.346700 0.000000
-12.331500 0.000000
-12.316300 0.000000
-12.301100 0.000000
-12.285900 0.000000
-12.270700 0.000000
-12.255500 0.000000
-12.240300 0.000000
-12.225100 0.000000
-12.209800 0.000000
-12.194600 0.000000
-12.179400 0.000000
-12.164200 0.000000
-12.149000 0.000000
-12.133800 0.000000
-12.118600 0.000000
-12.103400 0.000000
-12.088200 0.000000
-12.073000 0.000000
-12.057800 0.000000
-12.042600 0.000000
-12.027400 0.000000
-12.012200 0.000000
-11.997000 0.000000
-11.981800 0.000000
-11.966600 0.000000
-11.951400 0.000000
-11.936200 0.000000
-11.921000 0.000000
-11.905800 0.000000
-11.890600 0.000000
-11.875400 0.000000
-11.860200 0.000000
-11.845000 0.000000
-11.829800 0.000000
-11.814600 0.000000
-11.799400 0.000000
-11.784200 0.000000
-11.769000 0.000000
-11.753800 0.000000
-11.738600 0.000000
-11.723400 0.000000
-11.708200 0.000000
-11.693000 0.000000
-11.677700 0.000000
-11.662500 0.000000
-11.647300 0.000000
-11.632100 0.000000
-11.616900 0.000000
-11.601700 0.000000
-11.586500 0.000000
-11.571300 0.000000
-11.556100 0.000000
-11.540900 0.000000
-11.525700 0.000000
-11.510500 0.000000
-11.495300 0.000000
-11.480100 0.000000
-11.464900 0.000000
-11.449700 0.000000
-11.434500 0.000000
-11.419300 0.000000
-11.404100 0.000000
-11.388900 0.000000
-11.373700 0.000000
-11.358500 0.000000
-11.343300 0.000000
-11.328100 0.000000
-11.312900 0.000000
-11.297700 0.000000
-11.282500 0.000000
-11.267300 0.000000
-11.252100 0.000000
-11.236900 0.000000
-11.221700 0.000000
-11.206500 0.000000
-11.191300 0.000000
-11.176100 0.000000
-11.160900 0.000000
-11.145600 0.000000
-11.130400 0.000000
-11.115200 0.000000
-11.100000 0.000000
-11.084800 0.000000
-11.069600 0.000000
-11.054400 0.000000
-11.039200 0.000000
-11.024000 0.000000
-11.008800 0.000000
-10.993600 0.000000
-10.978400 0.000000
-10.963200 0.000000
-10.948000 0.000000
-10.932800 0.000000
-10.917600 0.000000
-10.902400 0.000000
-10.887200 0.000000
-10.872000 0.000000
-10.856800 0.000000
-10.841600 0.000000
-10.826400 0.000000
-10.811200 0.000000
-10.796000 0.000000
-10.780800 0.000000
-10.765600 0.000000
-10.750400 0.000000
-10.735200 0.000000
-10.720000 0.000000
-10.704800 0.000000
-10.689600 0.000000
-10.674400 0.000000
-10.659200 0.000000
-10.644000 0.000000
-10.628800 0.000000
-10.613500 0.000000
-10.598300 0.000000
-10.583100 0.000000
-10.567900 0.000000
-10.552700 0.000000
-10.537500 0.000000
-10.522300 0.000000
-10.507100 0.000000
-10.491900 0.000000
-10.476700 0.000000
-10.461500 0.000000
-10.446300 0.000000
-10.431100 0.000000
-10.415900 0.000000
-10.400700 0.000000
-10.385500 0.000000
-10.370300 0.000000
-10.355100 0.000000
-10.339900 0.000000
-10.324700 0.000000
-10.309500 0.000000
-10.294300 0.000000
-10.279100 0.000000
-10.263900 0.000000
-10.248700 0.000000
-10.233500 0.000000
-10.218300 0.000000
-10.203100 0.000000
-10.187900 0.000000
-10.172700 0.000000
-10.157500 0.000000
-10.142300 0.000000
-10.127100 0.000000
-10.111900 0.000000
-10.096700 0.000000
-10.081500 0.000000
-10.066200 0.000000
-10.051000 0.000000
-10.035800 0.000000
-10.020600 0.000000
-10.005400 0.000000
-9.990200 0.000000
-9.975000 0.000000
-9.959800 0.000000
-9.944600 0.000000
-9.929400 0.000000
-9.914200 0.000000
-9.899000 0.000000
-9.883800 0.000000
-9.868600 0.000000
-9.853400 0.000000
-9.838200 0.000000
-9.823000 0.000000
-9.807800 0.000000
-9.792600 0.000000
-9.777400 0.000000
-9.762200 0.000000
-9.747000 0.000000
-9.731800 0.000000
-9.716600 0.000000
-9.701400 0.000000
-9.686200 0.000000
-9.671000 0.000000
-9.655800 0.000000
-9.640600 0.000000
-9.625400 0.000000
-9.610200 0.000000
-9.595000 0.000000
-9.579800 0.000000
-9.564600 0.000000
-9.549400 0.000000
-9.534100 0.000000
-9.518900 0.000000
-9.503700 0.000000
-9.488500 0.000000
-9.473300 0.000000
-9.458100 0.000000
-9.442900 0.000000
-9.427700 0.000000
-9.412500 0.000000
-9.397300 0.000000
-9.382100 0.000000
-9.366900 0.000000
-9.351700 0.000000
-9.336500 0.000000
-9.321300 0.000000
-9.306100 0.000000
-9.290900 0.000000
-9.275700 0.000000
-9.260500 0.000000
-9.245300 0.000000
-9.230100 0.000000
-9.214900 0.000000
-9.199700 0.000000
-9.184500 0.000000
-9.169300 0.000000
-9.154100 0.000000
-9.138900 0.000000
-9.123700 0.000000
-9.108500 0.000000
-9.093300 0.000000
-9.078100 0.000000
-9.062900 0.000000
-9.047700 0.000000
-9.032500 0.000000
-9.017300 0.000000
-9.002000 0.000000
-8.986800 0.000000
-8.971600 0.000000
-8.956400 0.000000
-8.941200 0.000000
-8.926000 0.000000
-8.910800 0.000000
-8.895600 0.000000
-8.880400 0.000000
-8.865200 0.000000
-8.850000 0.000000
-8.834800 0.000000
-8.819600 0.000000
-8.804400 0.000000
-8.789200 0.000000
-8.774000 0.000000
-8.758800 0.000000
-8.743600 0.000000
-8.728400 0.000000
-8.713200 0.000000
-8.698000 0.000000
-8.682800 0.000000
-8.667600 0.000000
-8.652400 0.000000
-8.637200 0.000000
-8.622000 0.000000
-8.606800 0.000000
-8.591600 0.000000
-8.576400 0.000000
-8.561200 0.000000
-8.546000 0.000000
-8.530800 0.000000
-8.515600 0.000000
-8.500400 0.000000
-8.485200 0.000000
-8.469900 0.000000
-8.454700 0.000000
-8.439500 0.000000
-8.424300 0.000000
-8.409100 0.000000
-8.393900 0.000000
-8.378700 0.000000
-8.363500 0.000000
-8.348300 0.000000
-8.333100 0.000000
-8.317900 0.000000
-8.302700 0.000000
-8.287500 0.000000
-8.272300 0.000000
-8.257100 0.000000
-8.241900 0.000000
-8.226700 0.000000
-8.211500 0.000000
-8.196300 0.000000
-8.181100 0.000000
-8.165900 0.000000
-8.150700 0.000000
-8.135500 0.000000
-8.120300 0.000000
-8.105100 0.000000
-8.089900 0.000000
-8.074700 0.000000
-8.059500 0.000000
-8.044300 0.000000
-8.029100 0.000000
-8.013900 0.000000
-7.998700 0.000000
-7.983500 0.000000
-7.968300 0.000000
-7.953100 0.000000
-7.937800 0.000000
-7.922600 0.000000
-7.907400 0.000000
-7.892200 0.000000
-7.877000 0.000000
-7.861800 0.000000
-7.846600 0.000000
-7.831400 0.000000
-7.816200 0.000000
-7.801000 0.000000
-7.785800 0.000000
-7.770600 0.000000
-7.755400 0.000000
-7.740200 0.000000
-7.725000 0.000000
-7.709800 0.000000
-7.694600 0.000000
-7.679400 0.000000
-7.664200 0.000000
-7.649000 0.000000
-7.633800 0.000000
-7.618600 0.000000
-7.603400 0.000000
-7.588200 0.000000
-7.573000 0.000000
-7.557800 0.000000
-7.542600 0.000000
-7.527400 0.000000
-7.512200 0.000000
-7.497000 0.000000
-7.481800 0.000000
-7.466600 0.000000
-7.451400 0.000000
-7.436200 0.000000
-7.421000 0.000000
-7.405700 0.000000
-7.390500 0.000000
-7.375300 0.000000
-7.360100 0.000000
-7.344900 0.000000
-7.329700 0.000000
-7.314500 0.000000
-7.299300 0.000000
-7.284100 0.000000
-7.268900 0.000000
-7.253700 0.000000
-7.238500 0.000000
-7.223300 0.000000
-7.208100 0.000000
-7.192900 0.000000
-7.177700 0.000000
-7.162500 0.000000
-7.147300 0.000000
-7.132100 0.000000
-7.116900 0.000000
-7.101700 0.000000
-7.086500 0.000000
-7.071300 0.000000
-7.056100 0.000000
-7.040900 0.000000
-7.025700 0.000000
-7.010500 0.000000
-6.995300 0.000000
-6.980100 0.000000
-6.964900 0.000000
-6.949700 0.000000
-6.934500 0.000000
-6.919300 0.000000
-6.904100 0.000000
-6.888900 0.000000
-6.873600 0.000000
-6.858400 0.000000
-6.843200 0.000000
-6.828000 0.000000
-6.812800 0.000000
-6.797600 0.000000
-6.782400 0.000000
-6.767200 0.000000
-6.752000 0.000000
-6.736800 0.000000
-6.721600 0.000000
-6.706400 0.000000
-6.691200 0.000000
-6.676000 0.000000
-6.660800 0.000000
-6.645600 0.000000
-6.630400 0.000000
-6.615200 0.000000
-6.600000 0.000000
-6.584800 0.000000
-6.569600 0.000000
-6.554400 0.000000
-6.539200 0.000000
-6.524000 0.000000
-6.508800 0.000000
-6.493600 0.000000
-6.478400 0.000000
-6.463200 0.000000
-6.448000 0.000000
-6.432800 0.000000
-6.417600 0.000000
-6.402400 0.000000
-6.387200 0.000000
-6.372000 0.000000
-6.356800 0.000000
-6.341500 0.000000
-6.326300 0.000000
-6.311100 0.000000
-6.295900 0.000000
-6.280700 0.006400
-6.265500 0.050200
-6.250300 0.136900
-6.235100 0.203600
-6.219900 0.208500
-6.204700 0.230800
-6.189500 0.261000
-6.174300 0.293500
-6.159100 0.323900
-6.143900 0.353000
-6.128700 0.366600
-6.113500 0.384900
-6.098300 0.402400
-6.083100 0.420800
-6.067900 0.440200
-6.052700 0.459600
-6.037500 0.479100
-6.022300 0.496700
-6.007100 0.515300
-5.991900 0.535100
-5.976700 0.553000
-5.961500 0.568700
-5.946300 0.585100
-5.931100 0.602000
-5.915900 0.619500
-5.900700 0.636700
-5.885500 0.653100
-5.870300 0.669800
-5.855100 0.686700
-5.839900 0.703400
-5.824700 0.720800
-5.809400 0.738400
-5.794200 0.756200
-5.779000 0.773600
-5.763800 0.790100
-5.748600 0.806600
-5.733400 0.823800
-5.718200 0.841900
-5.703000 0.861300
-5.687800 0.882100
-5.672600 0.903600
-5.657400 0.925400
-5.642200 0.947700
-5.627000 0.970500
-5.611800 1.001100
-5.596600 1.039300
-5.581400 1.070100
-5.566200 1.098600
-5.551000 1.127500
-5.535800 1.133900
-5.520600 1.142700
-5.505400 1.153800
-5.490200 1.166900
-5.475000 1.180500
-5.459800 1.193800
-5.444600 1.196000
-5.429400 1.219100
-5.414200 1.253200
-5.399000 1.285700
-5.383800 1.315800
-5.368600 1.351100
-5.353400 1.386300
-5.338200 1.420500
-5.323000 1.462400
-5.307800 1.511600
-5.292600 1.561300
-5.277300 1.611700
-5.262100 1.682800
-5.246900 1.747200
-5.231700 1.774300
-5.216500 1.829400
-5.201300 1.903500
-5.186100 1.997700
-5.170900 2.084700
-5.155700 2.156200
-5.140500 2.313300
-5.125300 2.563100
-5.110100 2.993000
-5.094900 3.045700
-5.079700 2.927200
-5.064500 3.238200
-5.049300 2.739800
-5.034100 2.398000
-5.018900 2.276600
-5.003700 2.151500
-4.988500 2.048100
-4.973300 1.960400
-4.958100 1.915000
-4.942900 1.874200
-4.927700 1.816300
-4.912500 1.763800
-4.897300 1.721600
-4.882100 1.677300
-4.866900 1.629300
-4.851700 1.604000
-4.836500 1.590300
-4.821300 1.578300
-4.806100 1.559900
-4.790900 1.535700
-4.775700 1.516600
-4.760500 1.506800
-4.745200 1.485100
-4.730000 1.445500
-4.714800 1.413300
-4.699600 1.401400
-4.684400 1.394000
-4.669200 1.386600
-4.654000 1.378200
-4.638800 1.367700
-4.623600 1.354600
-4.608400 1.342700
-4.593200 1.331300
-4.578000 1.319300
-4.562800 1.309200
-4.547600 1.298000
-4.532400 1.292300
-4.517200 1.292000
-4.502000 1.269700
-4.486800 1.260300
-4.471600 1.261700
-4.456400 1.257000
-4.441200 1.254900
-4.426000 1.267800
-4.410800 1.268100
-4.395600 1.257900
-4.380400 1.246500
-4.365200 1.253300
-4.350000 1.232700
-4.334800 1.216600
-4.319600 1.233700
-4.304400 1.255000
-4.289200 1.301300
-4.274000 1.222500
-4.258800 1.142000
-4.243600 1.116400
-4.228400 1.117900
-4.213100 1.115900
-4.197900 1.121100
-4.182700 1.141800
-4.167500 1.173600
-4.152300 1.213900
-4.137100 1.267500
-4.121900 1.323500
-4.106700 1.384400
-4.091500 1.456300
-4.076300 1.555300
-4.061100 1.697100
-4.045900 1.840400
-4.030700 1.871000
-4.015500 1.870700
-4.000300 1.869400
-3.985100 1.863700
-3.969900 1.892100
-3.954700 1.926300
-3.939500 1.965900
-3.924300 2.015800
-3.909100 2.076500
-3.893900 2.125600
-3.878700 2.147600
-3.863500 2.163300
-3.848300 2.186200
-3.833100 2.228900
-3.817900 2.297600
-3.802700 2.411700
-3.787500 2.525800
-3.772300 2.540300
-3.757100 2.491900
-3.741900 2.413900
-3.726700 2.310500
-3.711500 2.178000
-3.696300 2.017200
-3.681000 1.862800
-3.665800 1.745600
-3.650600 1.671900
-3.635400 1.622800
-3.620200 1.557600
-3.605000 1.499300
-3.589800 1.439600
-3.574600 1.387000
-3.559400 1.343000
-3.544200 1.297600
-3.529000 1.226200
-3.513800 1.182500
-3.498600 1.109100
-3.483400 1.054600
-3.468200 1.004600
-3.453000 0.948600
-3.437800 0.891100
-3.422600 0.832300
-3.407400 0.785400
-3.392200 0.750000
-3.377000 0.710900
-3.361800 0.668400
-3.346600 0.655600
-3.331400 0.586800
-3.316200 0.502800
-3.301000 0.424100
-3.285800 0.339100
-3.270600 0.243800
-3.255400 0.151500
-3.240200 0.081600
-3.225000 0.035900
-3.209800 0.014400
-3.194600 0.000000
-3.179400 0.000000
-3.164200 0.000000
-3.148900 0.000000
-3.133700 0.000000
-3.118500 0.000200
-3.103300 0.004200
-3.088100 0.015500
-3.072900 0.032900
-3.057700 0.056100
-3.042500 0.085300
-3.027300 0.133300
-3.012100 0.200000
-2.996900 0.267600
-2.981700 0.337800
-2.966500 0.412400
-2.951300 0.494100
-2.936100 0.571100
-2.920900 0.623800
-2.905700 0.680300
-2.890500 0.763400
-2.875300 0.839200
-2.860100 0.910900
-2.844900 0.982500
-2.829700 1.054000
-2.814500 1.141600
-2.799300 1.267300
-2.784100 1.375600
-2.768900 1.498000
-2.753700 1.701000
-2.738500 1.924700
-2.723300 2.145800
-2.708100 2.218400
-2.692900 2.166200
-2.677700 2.045800
-2.662500 1.950300
-2.647300 1.873500
-2.632100 1.821200
-2.616800 1.790400
-2.601600 1.762800
-2.586400 1.745900
-2.571200 1.739500
-2.556000 1.737900
-2.540800 1.725300
-2.525600 1.703800
-2.510400 1.674100
-2.495200 1.658200
-2.480000 1.644100
-2.464800 1.633500
-2.449600 1.622500
-2.434400 1.612300
-2.419200 1.603600
-2.404000 1.594500
-2.388800 1.583300
-2.373600 1.570200
-2.358400 1.557900
-2.343200 1.546300
-2.328000 1.535000
-2.312800 1.524000
-2.297600 1.511800
-2.282400 1.502500
-2.267200 1.479700
-2.252000 1.464600
-2.236800 1.444900
-2.221600 1.418500
-2.206400 1.393800
-2.191200 1.371500
-2.176000 1.351000
-2.160800 1.331800
-2.145600 1.314200
-2.130400 1.299700
-2.115200 1.290800
-2.100000 1.297500
-2.084700 1.296400
-2.069500 1.295800
-2.054300 1.278300
-2.039100 1.218000
-2.023900 1.137200
-2.008700 1.060400
-1.993500 1.000200
-1.978300 0.954700
-1.963100 0.915600
-1.947900 0.881000
-1.932700 0.849900
-1.917500 0.821000
-1.902300 0.793500
-1.887100 0.766700
-1.871900 0.742200
-1.856700 0.720700
-1.841500 0.703500
-1.826300 0.696200
-1.811100 0.691800
-1.795900 0.690000
-1.780700 0.690700
-1.765500 0.694800
-1.750300 0.705300
-1.735100 0.731900
-1.719900 0.774200
-1.704700 0.807900
-1.689500 0.797000
-1.674300 0.774400
-1.659100 0.765400
-1.643900 0.749100
-1.628700 0.746500
-1.613500 0.750000
-1.598300 0.754700
-1.583100 0.762000
-1.567900 0.763100
-1.552700 0.753400
-1.537400 0.760700
-1.522200 0.761200
-1.507000 0.750800
-1.491800 0.738800
-1.476600 0.735200
-1.461400 0.733900
-1.446200 0.733900
-1.431000 0.735600
-1.415800 0.738400
-1.400600 0.742000
-1.385400 0.747300
-1.370200 0.754300
-1.355000 0.761400
-1.339800 0.758700
-1.324600 0.755800
-1.309400 0.755100
-1.294200 0.756700
-1.279000 0.758600
-1.263800 0.760300
-1.248600 0.761600
-1.233400 0.762500
-1.218200 0.762700
-1.203000 0.762400
-1.187800 0.762700
-1.172600 0.763000
-1.157400 0.764000
-1.142200 0.764100
-1.127000 0.760700
-1.111800 0.759600
-1.096600 0.759900
-1.081400 0.761200
-1.066200 0.763700
-1.051000 0.768100
-1.035800 0.774900
-1.020600 0.784000
-1.005300 0.795300
-0.990100 0.797800
-0.974900 0.797500
-0.959700 0.798500
-0.944500 0.800800
-0.929300 0.803800
-0.914100 0.807600
-0.898900 0.812300
-0.883700 0.818200
-0.868500 0.833400
-0.853300 0.849300
-0.838100 0.861200
-0.822900 0.871600
-0.807700 0.881200
-0.792500 0.890500
-0.777300 0.899500
-0.762100 0.908300
-0.746900 0.917000
-0.731700 0.925700
-0.716500 0.934600
-0.701300 0.943700
-0.686100 0.951500
-0.670900 0.958100
-0.655700 0.966500
-0.640500 0.976200
-0.625300 1.022400
-0.610100 1.086100
-0.594900 1.155100
-0.579700 1.231700
-0.564500 1.305900
-0.549300 1.367400
-0.534100 1.414500
-0.518900 1.456500
-0.503700 1.619100
-0.488500 2.000000
-0.473200 2.763000
-0.458000 3.060600
-0.442800 2.919700
-0.427600 2.919500
-0.412400 3.089900
-0.397200 2.937600
-0.382000 2.774800
-0.366800 2.529600
-0.351600 2.218500
-0.336400 1.932900
-0.321200 1.743500
-0.306000 1.626700
-0.290800 1.535800
-0.275600 1.454900
-0.260400 1.415700
-0.245200 1.380300
-0.230000 1.353000
-0.214800 1.335400
-0.199600 1.315100
-0.184400 1.295000
-0.169200 1.287900
-0.154000 1.261400
-0.138800 1.227500
-0.123600 1.180800
-0.108400 1.118100
-0.093200 1.068400
-0.078000 1.025200
-0.062800 1.002300
-0.047600 0.967700
-0.032400 0.934400
-0.017200 0.903000
-0.002000 0.874300
0.013200 0.846400
0.028400 0.797100
0.043600 0.747400
0.058900 0.718100
0.074100 0.703100
0.089300 0.761000
0.104500 0.689200
0.119700 0.649900
0.134900 0.624300
0.150100 0.604900
0.165300 0.592200
0.180500 0.584200
0.195700 0.576300
0.210900 0.567900
0.226100 0.558800
0.241300 0.546100
0.256500 0.529500
0.271700 0.509200
0.286900 0.487600
0.302100 0.468900
0.317300 0.453400
0.332500 0.439200
0.347700 0.424900
0.362900 0.410600
0.378100 0.399300
0.393300 0.390600
0.408500 0.382100
0.423700 0.372000
0.438900 0.360700
0.454100 0.350500
0.469300 0.342300
0.484500 0.349400
0.499700 0.300400
0.514900 0.295800
0.530100 0.291200
0.545300 0.286800
0.560500 0.282400
0.575700 0.278100
0.591000 0.288700
0.606200 0.323700
0.621400 0.372300
0.636600 0.430700
0.651800 0.498600
0.667000 0.576100
0.682200 0.663900
0.697400 0.803000
0.712600 0.977400
0.727800 1.186200
0.743000 1.251900
0.758200 1.362100
0.773400 1.479900
0.788600 1.614300
0.803800 1.758800
0.819000 1.876900
0.834200 2.019200
0.849400 2.177600
0.864600 2.378000
0.879800 2.624400
0.895000 2.886700
0.910200 3.194300
0.925400 3.589900
0.940600 4.103100
0.955800 4.563100
0.971000 5.042800
0.986200 5.328100
1.001400 5.051700
1.016600 4.350600
1.031800 3.814600
1.047000 3.622800
1.062200 3.320300
1.077400 3.193800
1.092600 3.051700
1.107800 2.940700
1.123100 2.838300
1.138300 2.753000
1.153500 2.770600
1.168700 2.767900
1.183900 2.776800
1.199100 2.775800
1.214300 2.811600
1.229500 2.964500
1.244700 3.184400
1.259900 2.821500
1.275100 2.898800
1.290300 3.064700
1.305500 3.482500
1.320700 4.054300
1.335900 4.399300
1.351100 3.895500
1.366300 3.723200
1.381500 3.799800
1.396700 3.737400
1.411900 3.692400
1.427100 3.664100
1.442300 3.648100
1.457500 3.626500
1.472700 3.623800
1.487900 3.581600
1.503100 3.527800
1.518300 3.471200
1.533500 3.439700
1.548700 3.382200
1.563900 3.322000
1.579100 3.291100
1.594300 3.270400
1.609500 3.140900
1.624700 3.061500
1.639900 3.108700
1.655200 3.362100
1.670400 3.484300
1.685600 3.482500
1.700800 3.611800
1.716000 3.637100
1.731200 3.651600
1.746400 3.633500
1.761600 3.580200
1.776800 3.516000
1.792000 3.237700
1.807200 2.893100
1.822400 2.713800
1.837600 2.445100
1.852800 2.328200
1.868000 2.250700
1.883200 2.195000
1.898400 2.232700
1.913600 2.148500
1.928800 2.083000
1.944000 2.006000
1.959200 1.899700
1.974400 1.931600
1.989600 1.784400
2.004800 1.809400
2.020000 1.822300
2.035200 1.848900
2.050400 1.884300
2.065600 1.953800
2.080800 2.040200
2.096000 2.120900
2.111200 2.208100
2.126400 2.335200
2.141600 2.390300
2.156800 2.392400
2.172000 2.427600
2.187300 2.448200
2.202500 2.452200
2.217700 2.438700
2.232900 2.432200
2.248100 2.433900
2.263300 2.433900
2.278500 2.445300
2.293700 2.468500
2.308900 2.499000
2.324100 2.537400
2.339300 2.591500
2.354500 2.695800
2.369700 2.852000
2.384900 3.045300
2.400100 3.086300
2.415300 3.121100
2.430500 2.949000
2.445700 2.810900
2.460900 2.722300
2.476100 2.646000
2.491300 2.590100
2.506500 2.545300
2.521700 2.499400
2.536900 2.305800
2.552100 2.140700
2.567300 1.951800
2.582500 1.822200
2.597700 1.749500
2.612900 1.699500
2.628100 1.621200
2.643300 1.557300
2.658500 1.509000
2.673700 1.465300
2.688900 1.544000
2.704100 1.547500
2.719400 1.546600
2.734600 1.543900
2.749800 1.541800
2.765000 1.544800
2.780200 1.541100
2.795400 1.539000
2.810600 1.537400
2.825800 1.549800
2.841000 1.570400
2.856200 1.597400
2.871400 1.889500
2.886600 1.926800
2.901800 2.095000
2.917000 2.366400
2.932200 2.587400
2.947400 2.696100
2.962600 2.609800
2.977800 2.572800
2.993000 2.422400
3.008200 2.345000
3.023400 2.313500
3.038600 2.294100
3.053800 2.277400
3.069000 2.365300
3.084200 2.324000
3.099400 2.230800
3.114600 2.210900
3.129800 2.150800
3.145000 2.129400
3.160200 2.127100
3.175400 2.172400
3.190600 2.241300
3.205800 2.199700
3.221000 2.305600
3.236200 2.345700
3.251500 2.287400
3.266700 2.454900
3.281900 2.457700
3.297100 2.442900
3.312300 2.459800
3.327500 2.457800
3.342700 2.535700
3.357900 2.944700
3.373100 2.913100
3.388300 3.101300
3.403500 3.315400
3.418700 3.414000
3.433900 3.212800
3.449100 3.080800
3.464300 3.103400
3.479500 3.042000
3.494700 3.020300
3.509900 3.048700
3.525100 3.101900
3.540300 3.125200
3.555500 3.032800
3.570700 2.972300
3.585900 2.863400
3.601100 2.779000
3.616300 2.640200
3.631500 2.605400
3.646700 2.578200
3.661900 2.551100
3.677100 2.524100
3.692300 2.502400
3.707500 2.492500
3.722700 2.488100
3.737900 2.487100
3.753100 2.501800
3.768300 2.551800
3.783600 2.619200
3.798800 2.776800
3.814000 2.857800
3.829200 2.914500
3.844400 2.979300
3.859600 2.979400
3.874800 2.953700
3.890000 2.979300
3.905200 3.005200
3.920400 3.029700
3.935600 3.011800
3.950800 2.984100
3.966000 2.912800
3.981200 2.852200
3.996400 2.827700
4.011600 2.827200
4.026800 2.830500
4.042000 2.836800
4.057200 2.895700
4.072400 2.951000
4.087600 3.016500
4.102800 3.066600
4.118000 3.118600
4.133200 3.076100
4.148400 3.013600
4.163600 3.058200
4.178800 3.148900
4.194000 3.202700
4.209200 3.184500
4.224400 3.142400
4.239600 3.133200
4.254800 3.087800
4.270000 3.045000
4.285200 3.002000
4.300400 2.954400
4.315700 2.898300
4.330900 2.835900
4.346100 2.779100
4.361300 2.728700
4.376500 2.681500
4.391700 2.636400
4.406900 2.596000
4.422100 2.566600
4.437300 2.548900
4.452500 2.536000
4.467700 2.532700
4.482900 2.583100
4.498100 2.569600
4.513300 2.545600
4.528500 2.541300
4.543700 2.562200
4.558900 2.563600
4.574100 2.563000
4.589300 2.554300
4.604500 2.541400
4.619700 2.527900
4.634900 2.507500
4.650100 2.492200
4.665300 2.428000
4.680500 2.345500
4.695700 2.277900
4.710900 2.220500
4.726100 2.158400
4.741300 2.100400
4.756500 2.055100
4.771700 2.020600
4.786900 1.991600
4.802100 1.968600
4.817300 1.956800
4.832500 1.917200
4.847800 1.881800
4.863000 1.887700
4.878200 1.927500
4.893400 2.024800
4.908600 2.104200
4.923800 2.204500
4.939000 2.355900
4.954200 2.552300
4.969400 2.698000
4.984600 2.862400
4.999800 2.976400
5.015000 2.264700
5.030200 1.983900
5.045400 1.868500
5.060600 1.829100
5.075800 1.800600
5.091000 1.778700
5.106200 1.763100
5.121400 1.746800
5.136600 1.719100
5.151800 1.670100
5.167000 1.620800
5.182200 1.576700
5.197400 1.529700
5.212600 1.495900
5.227800 1.470400
5.243000 1.451000
5.258200 1.438600
5.273400 1.432900
5.288600 1.425900
5.303800 1.417700
5.319000 1.411800
5.334200 1.409200
5.349400 1.410200
5.364600 1.412500
5.379900 1.415700
5.395100 1.427000
5.410300 1.442900
5.425500 1.422400
5.440700 1.409900
5.455900 1.405100
5.471100 1.402300
5.486300 1.401600
5.501500 1.402900
5.516700 1.408900
5.531900 1.420500
5.547100 1.435500
5.562300 1.453200
5.577500 1.516200
5.592700 1.536800
5.607900 1.528500
5.623100 1.529900
5.638300 1.554000
5.653500 1.545800
5.668700 1.519300
5.683900 1.495900
5.699100 1.473200
5.714300 1.455700
5.729500 1.444600
5.744700 1.424400
5.759900 1.390900
5.775100 1.375700
5.790300 1.357700
5.805500 1.288900
5.820700 1.270700
5.835900 1.263700
5.851100 1.260000
5.866300 1.310800
5.881500 1.371700
5.896700 1.440100
5.912000 1.511600
5.927200 1.584100
5.942400 1.648400
5.957600 1.713200
5.972800 1.823200
5.988000 1.917500
6.003200 2.072800
6.018400 2.208500
6.033600 2.286400
6.048800 2.322600
6.064000 2.339300
6.079200 2.394900
6.094400 2.625200
6.109600 2.786000
6.124800 2.721000
6.140000 2.660300
6.155200 2.619600
6.170400 2.579000
6.185600 2.572600
6.200800 2.558700
6.216000 2.543400
6.231200 2.577900
6.246400 2.692300
6.261600 3.123500
6.276800 3.198200
6.292000 3.251100
6.307200 3.256800
6.322400 3.235200
6.337600 3.342900
6.352800 3.466100
6.368000 3.607300
6.383200 3.681600
6.398400 3.638600
6.413600 3.573900
6.428800 3.572600
6.444100 3.581300
6.459300 3.591900
6.474500 3.828800
6.489700 3.953600
6.504900 3.491900
6.520100 3.220800
6.535300 2.925000
6.550500 2.789900
6.565700 2.639700
6.580900 2.560800
6.596100 2.582200
6.611300 2.660300
6.626500 2.771000
6.641700 2.740500
6.656900 2.629800
6.672100 2.558100
6.687300 2.514400
6.702500 2.456000
6.717700 2.363600
6.732900 2.254200
6.748100 2.231200
6.763300 2.232900
6.778500 2.258500
6.793700 2.331800
6.808900 2.450500
6.824100 2.687700
6.839300 2.958100
6.854500 2.998800
6.869700 3.023800
6.884900 3.096300
6.900100 3.131200
6.915300 3.180200
6.930500 3.214600
6.945700 3.160900
6.960900 3.074100
6.976200 3.052800
6.991400 3.040400
7.006600 3.052100
7.021800 3.059700
7.037000 3.061100
7.052200 3.069200
7.067400 3.063300
7.082600 3.062100
7.097800 3.103800
7.113000 3.115600
7.128200 3.138700
7.143400 3.193600
7.158600 3.145800
7.173800 3.057700
7.189000 3.002900
7.204200 2.925900
7.219400 2.850700
7.234600 2.818500
7.249800 2.748500
7.265000 2.733600
7.280200 2.756700
7.295400 2.787500
7.310600 2.777500
7.325800 2.810100
7.341000 2.844800
7.356200 2.832200
7.371400 2.845000
7.386600 2.694400
7.401800 2.618000
7.417000 2.552600
7.432200 2.501300
7.447400 2.484800
7.462600 2.521200
7.477800 2.563500
7.493000 2.613600
7.508200 2.675200
7.523500 2.749500
7.538700 2.849300
7.553900 3.010600
7.569100 3.138300
7.584300 3.222000
7.599500 3.317600
7.614700 3.380500
7.629900 3.458000
7.645100 3.559500
7.660300 3.771000
7.675500 4.021400
7.690700 4.245800
7.705900 4.448800
7.721100 4.397100
7.736300 4.357100
7.751500 4.276100
7.766700 4.156100
7.781900 4.122800
7.797100 4.152500
7.812300 4.143500
7.827500 4.088300
7.842700 4.028800
7.857900 3.965600
7.873100 3.873500
7.888300 3.759500
7.903500 3.645800
7.918700 3.455500
7.933900 3.314600
7.949100 3.217400
7.964300 3.144600
7.979500 3.150300
7.994700 3.216100
8.009900 3.309800
8.025100 3.572200
8.040300 3.639800
8.055600 3.930000
8.070800 3.913300
8.086000 3.843200
8.101200 3.794600
8.116400 3.672700
8.131600 3.466300
8.146800 3.312900
8.162000 3.261400
8.177200 3.223700
8.192400 3.188300
8.207600 3.145300
8.222800 3.129800
8.238000 3.131300
8.253200 3.133700
8.268400 3.140900
8.283600 3.106500
8.298800 3.062400
8.314000 3.020200
8.329200 2.978200
8.344400 2.979900
8.359600 3.033100
8.374800 3.108500
8.390000 3.204700
8.405200 3.365600
8.420400 3.627300
8.435600 4.037700
8.450800 4.059100
8.466000 4.064700
8.481200 4.129600
8.496400 4.288100
8.511600 4.390100
8.526800 4.449200
8.542000 4.576700
8.557200 4.594000
8.572400 4.543600
8.587700 4.451900
8.602900 4.385100
8.618100 4.349900
8.633300 4.326000
8.648500 4.332600
8.663700 4.369400
8.678900 4.421800
8.694100 4.506000
8.709300 4.552500
8.724500 4.600800
8.739700 4.577400
8.754900 4.571800
8.770100 4.560000
8.785300 4.463100
8.800500 4.379100
8.815700 4.346600
8.830900 4.378500
8.846100 4.410700
8.861300 4.287400
8.876500 4.199400
8.891700 4.071700
8.906900 3.901100
8.922100 3.752500
8.937300 3.707200
8.952500 3.724300
8.967700 3.819100
8.982900 3.882800
8.998100 3.876500
9.013300 3.829500
9.028500 3.808200
9.043700 3.716700
9.058900 3.656700
9.074100 3.582500
9.089300 3.478000
9.104500 3.389900
9.119800 3.326800
9.135000 3.258300
9.150200 3.205600
9.165400 3.185400
9.180600 3.146400
9.195800 3.093500
9.211000 3.074100
9.226200 3.078500
9.241400 3.072600
9.256600 3.036100
9.271800 3.030500
9.287000 3.062000
9.302200 3.096500
9.317400 3.103500
9.332600 3.081600
9.347800 3.069900
9.363000 3.074000
9.378200 3.089900
9.393400 3.119100
9.408600 3.175900
9.423800 3.271900
9.439000 3.394500
9.454200 3.488500
9.469400 3.534600
9.484600 3.707600
9.499800 3.782600
9.515000 3.676400
9.530200 3.723400
9.545400 3.808700
9.560600 3.897000
9.575800 3.961000
9.591000 4.062200
9.606200 3.845900
9.621400 3.731300
9.636600 3.708800
9.651900 3.752400
9.667100 3.746300
9.682300 3.826500
9.697500 3.784600
9.712700 3.697700
9.727900 3.681000
9.743100 3.653900
9.758300 3.614400
9.773500 3.525100
9.788700 3.436300
9.803900 3.337600
9.819100 3.283900
9.834300 3.247600
9.849500 3.204600
9.864700 3.200800
9.879900 3.250900
9.895100 3.299900
9.910300 3.389700
9.925500 3.625800
9.940700 3.655400
9.955900 3.747100
9.971100 3.910900
9.986300 3.761900
10.001500 3.580900
10.016700 3.481700
10.031900 3.372900
10.047100 3.298300
10.062300 3.206900
10.077500 3.203500
10.092700 3.245200
10.107900 3.251200
10.123100 3.238500
10.138300 3.182700
10.153500 3.124800
10.168700 3.177800
10.184000 2.906000
10.199200 2.702800
10.214400 2.638400
10.229600 2.576600
10.244800 2.546100
10.260000 2.502000
10.275200 2.414300
10.290400 2.340000
10.305600 2.285500
10.320800 2.261400
10.336000 2.244600
10.351200 2.197100
10.366400 2.084600
10.381600 2.002300
10.396800 1.868400
10.412000 1.756900
10.427200 1.632900
10.442400 1.531400
10.457600 1.448200
10.472800 1.375200
10.488000 1.307700
10.503200 1.259100
10.518400 1.224500
10.533600 1.182000
10.548800 1.126300
10.564000 1.090900
10.579200 1.070800
10.594400 1.031300
10.609600 1.012000
10.624800 1.003600
10.640000 0.916900
10.655200 0.866900
10.670400 0.844800
10.685600 0.826900
10.700800 0.811600
10.716100 0.803700
10.731300 0.784300
10.746500 0.751800
10.761700 0.733800
10.776900 0.723200
10.792100 0.720800
10.807300 0.734200
10.822500 0.726500
10.837700 0.716800
10.852900 0.615200
10.868100 0.635000
10.883300 0.729400
10.898500 0.633800
10.913700 0.586200
10.928900 0.569000
10.944100 0.595800
10.959300 0.671500
10.974500 0.776000
10.989700 0.891400
11.004900 1.236600
11.020100 0.305100
11.035300 0.068200
11.050500 0.000500
11.065700 0.000000
11.080900 0.000000
11.096100 0.000000
11.111300 0.000000
11.126500 0.000000
11.141700 0.000000
11.156900 0.000000
11.172100 0.000000
11.187300 0.000000
11.202500 0.000000
11.217700 0.000000
11.232900 0.000000
11.248200 0.000000
11.263400 0.000000
11.278600 0.000000
11.293800 0.000000
11.309000 0.000000
11.324200 0.000000
11.339400 0.000000
11.354600 0.000000
11.369800 0.000000
11.385000 0.000000
11.400200 0.000000
11.415400 0.000000
11.430600 0.000000
11.445800 0.000000
11.461000 0.000000
11.476200 0.000000
11.491400 0.000000
11.506600 0.000000
11.521800 0.000000
11.537000 0.000000
11.552200 0.000000
11.567400 0.000000
11.582600 0.000000
11.597800 0.000000
11.613000 0.000000
11.628200 0.000000
11.643400 0.000000
11.658600 0.000000
11.673800 0.000000
11.689000 0.000000
11.704200 0.000000
11.719400 0.000000
11.734600 0.000000
11.749800 0.000000
11.765000 0.000000
11.780300 0.000000
11.795500 0.000000
11.810700 0.000000
11.825900 0.000000
11.841100 0.000000
11.856300 0.000000
11.871500 0.000000
11.886700 0.000000
11.901900 0.000000
11.917100 0.000000
11.932300 0.000000
11.947500 0.000000
11.962700 0.000000
11.977900 0.000000
11.993100 0.000000
12.008300 0.000000
12.023500 0.000000
12.038700 0.000000
12.053900 0.000000
12.069100 0.000000
12.084300 0.000000
12.099500 0.000000
12.114700 0.000000
12.129900 0.000000
12.145100 0.000000
12.160300 0.000000
12.175500 0.000000
12.190700 0.000000
12.205900 0.000000
12.221100 0.000000
12.236300 0.000000
12.251500 0.000000
12.266700 0.000000
12.281900 0.000000
12.297100 0.000000
12.312400 0.000000
12.327600 0.000000
12.342800 0.000000
12.358000 0.000000
12.373200 0.000000
12.388400 0.000000
12.403600 0.000000
12.418800 0.000000
12.434000 0.000000
e
