set title 'mp-1184001 - Density of States'
set xlabel 'Energy (eV)'
set ylabel 'DOS (states/eV)'
set grid
set xrange [-10:10]
set yrange [0:197.170]
set xzeroaxis lt -1
set terminal png size 800,600
set output 'mp-1184001_dos_gnuplot.png'
plot '-' using 1:2 with lines title 'DOS'
-69.102000 0.000000
-69.042600 0.000000
-68.983300 0.000000
-68.923900 0.000000
-68.864500 0.000000
-68.805100 0.000000
-68.745800 0.000000
-68.686400 0.000000
-68.627000 0.000000
-68.567600 0.000000
-68.508300 0.000000
-68.448900 0.000000
-68.389500 0.000000
-68.330100 0.000000
-68.270800 0.000000
-68.211400 0.000000
-68.152000 0.000000
-68.092600 0.000000
-68.033300 0.000000
-67.973900 0.000000
-67.914500 0.000000
-67.855100 0.000000
-67.795800 0.000000
-67.736400 0.000000
-67.677000 0.000000
-67.617600 0.000000
-67.558300 0.000000
-67.498900 0.000000
-67.439500 0.000000
-67.380100 0.000000
-67.320800 0.000000
-67.261400 0.000000
-67.202000 0.000000
-67.142600 0.000000
-67.083300 0.000000
-67.023900 0.000000
-66.964500 0.000000
-66.905100 0.000000
-66.845800 0.000000
-66.786400 0.000000
-66.727000 0.000000
-66.667600 0.000000
-66.608300 0.000000
-66.548900 0.000000
-66.489500 0.000000
-66.430100 0.000000
-66.370800 0.000000
-66.311400 0.000000
-66.252000 0.000000
-66.192600 0.000000
-66.133300 0.000000
-66.073900 0.000000
-66.014500 0.000000
-65.955100 0.000000
-65.895800 0.000000
-65.836400 0.000000
-65.777000 0.000000
-65.717600 0.000000
-65.658300 0.000000
-65.598900 0.000000
-65.539500 0.000000
-65.480100 0.000000
-65.420800 0.000000
-65.361400 0.000000
-65.302000 0.000000
-65.242600 0.000000
-65.183300 0.000000
-65.123900 0.000000
-65.064500 0.000000
-65.005100 0.000000
-64.945800 0.000000
-64.886400 0.000000
-64.827000 0.000000
-64.767700 0.000000
-64.708300 0.000000
-64.648900 0.000000
-64.589500 0.000000
-64.530200 0.000000
-64.470800 0.000000
-64.411400 0.000000
-64.352000 0.000000
-64.292700 0.000000
-64.233300 0.000000
-64.173900 0.000000
-64.114500 0.000000
-64.055200 0.000000
-63.995800 0.000000
-63.936400 0.000000
-63.877000 0.000000
-63.817700 0.000000
-63.758300 0.000000
-63.698900 858.309500
-63.639500 0.000000
-63.580200 111.571900
-63.520800 0.000000
-63.461400 0.000000
-63.402000 0.000000
-63.342700 0.000000
-63.283300 0.000000
-63.223900 0.000000
-63.164500 0.000000
-63.105200 0.000000
-63.045800 0.000000
-62.986400 0.000000
-62.927000 0.000000
-62.867700 0.000000
-62.808300 0.000000
-62.748900 0.000000
-62.689500 0.000000
-62.630200 0.000000
-62.570800 0.000000
-62.511400 0.000000
-62.452000 0.000000
-62.392700 0.000000
-62.333300 0.000000
-62.273900 0.000000
-62.214500 0.000000
-62.155200 0.000000
-62.095800 0.000000
-62.036400 0.000000
-61.977000 0.000000
-61.917700 0.000000
-61.858300 0.000000
-61.798900 0.000000
-61.739500 0.000000
-61.680200 0.000000
-61.620800 0.000000
-61.561400 0.000000
-61.502000 0.000000
-61.442700 0.000000
-61.383300 0.000000
-61.323900 0.000000
-61.264500 0.000000
-61.205200 0.000000
-61.145800 0.000000
-61.086400 0.000000
-61.027000 0.000000
-60.967700 0.000000
-60.908300 0.000000
-60.848900 0.000000
-60.789500 0.000000
-60.730200 0.000000
-60.670800 0.000000
-60.611400 0.000000
-60.552000 0.000000
-60.492700 0.000000
-60.433300 0.000000
-60.373900 0.000000
-60.314500 0.000000
-60.255200 0.000000
-60.195800 0.000000
-60.136400 0.000000
-60.077000 0.000000
-60.017700 0.000000
-59.958300 0.000000
-59.898900 0.000000
-59.839500 0.000000
-59.780200 0.000000
-59.720800 0.000000
-59.661400 0.000000
-59.602000 0.000000
-59.542700 0.000000
-59.483300 0.000000
-59.423900 0.000000
-59.364500 0.000000
-59.305200 0.000000
-59.245800 0.000000
-59.186400 0.000000
-59.127000 0.000000
-59.067700 0.000000
-59.008300 0.000000
-58.948900 0.000000
-58.889500 0.000000
-58.830200 0.000000
-58.770800 0.000000
-58.711400 0.000000
-58.652000 0.000000
-58.592700 0.000000
-58.533300 0.000000
-58.473900 0.000000
-58.414500 0.000000
-58.355200 0.000000
-58.295800 0.000000
-58.236400 0.000000
-58.177000 0.000000
-58.117700 0.000000
-58.058300 0.000000
-57.998900 0.000000
-57.939500 0.000000
-57.880200 0.000000
-57.820800 0.000000
-57.761400 0.000000
-57.702000 0.000000
-57.642700 0.000000
-57.583300 0.000000
-57.523900 0.000000
-57.464500 0.000000
-57.405200 0.000000
-57.345800 0.000000
-57.286400 0.000000
-57.227000 0.000000
-57.167700 0.000000
-57.108300 0.000000
-57.048900 0.000000
-56.989500 0.000000
-56.930200 0.000000
-56.870800 0.000000
-56.811400 0.000000
-56.752000 0.000000
-56.692700 0.000000
-56.633300 0.000000
-56.573900 0.000000
-56.514500 0.000000
-56.455200 0.000000
-56.395800 0.000000
-56.336400 0.000000
-56.277000 0.000000
-56.217700 0.000000
-56.158300 0.000000
-56.098900 0.000000
-56.039500 0.000000
-55.980200 0.000000
-55.920800 0.000000
-55.861400 0.000000
-55.802000 0.000000
-55.742700 0.000000
-55.683300 0.000000
-55.623900 0.000000
-55.564500 0.000000
-55.505200 0.000000
-55.445800 0.000000
-55.386400 0.000000
-55.327000 0.000000
-55.267700 0.000000
-55.208300 0.000000
-55.148900 0.000000
-55.089600 0.000000
-55.030200 0.000000
-54.970800 0.000000
-54.911400 0.000000
-54.852100 0.000000
-54.792700 0.000000
-54.733300 0.000000
-54.673900 0.000000
-54.614600 0.000000
-54.555200 0.000000
-54.495800 0.000000
-54.436400 0.000000
-54.377100 0.000000
-54.317700 0.000000
-54.258300 0.000000
-54.198900 0.000000
-54.139600 0.000000
-54.080200 0.000000
-54.020800 0.000000
-53.961400 0.000000
-53.902100 0.000000
-53.842700 0.000000
-53.783300 0.000000
-53.723900 0.000000
-53.664600 0.000000
-53.605200 0.000000
-53.545800 0.000000
-53.486400 0.000000
-53.427100 0.000000
-53.367700 0.000000
-53.308300 0.000000
-53.248900 0.000000
-53.189600 0.000000
-53.130200 0.000000
-53.070800 0.000000
-53.011400 0.000000
-52.952100 0.000000
-52.892700 0.000000
-52.833300 0.000000
-52.773900 0.000000
-52.714600 0.000000
-52.655200 0.000000
-52.595800 0.000000
-52.536400 0.000000
-52.477100 0.000000
-52.417700 0.000000
-52.358300 0.000000
-52.298900 0.000000
-52.239600 0.000000
-52.180200 0.000000
-52.120800 0.000000
-52.061400 0.000000
-52.002100 0.000000
-51.942700 0.000000
-51.883300 0.000000
-51.823900 0.000000
-51.764600 0.000000
-51.705200 0.000000
-51.645800 0.000000
-51.586400 0.000000
-51.527100 0.000000
-51.467700 0.000000
-51.408300 0.000000
-51.348900 0.000000
-51.289600 0.000000
-51.230200 0.000000
-51.170800 0.000000
-51.111400 0.000000
-51.052100 0.000000
-50.992700 0.000000
-50.933300 0.000000
-50.873900 0.000000
-50.814600 0.000000
-50.755200 0.000000
-50.695800 0.000000
-50.636400 0.000000
-50.577100 0.000000
-50.517700 0.000000
-50.458300 0.000000
-50.398900 0.000000
-50.339600 0.000000
-50.280200 0.000000
-50.220800 0.000000
-50.161400 0.000000
-50.102100 0.000000
-50.042700 0.000000
-49.983300 0.000000
-49.923900 0.000000
-49.864600 0.000000
-49.805200 0.000000
-49.745800 0.000000
-49.686400 0.000000
-49.627100 0.000000
-49.567700 0.000000
-49.508300 0.000000
-49.448900 0.000000
-49.389600 0.000000
-49.330200 0.000000
-49.270800 0.000000
-49.211400 0.000000
-49.152100 0.000000
-49.092700 0.000000
-49.033300 0.000000
-48.973900 0.000000
-48.914600 0.000000
-48.855200 0.000000
-48.795800 0.000000
-48.736400 0.000000
-48.677100 0.000000
-48.617700 0.000000
-48.558300 0.000000
-48.498900 0.000000
-48.439600 0.000000
-48.380200 0.000000
-48.320800 0.000000
-48.261400 0.000000
-48.202100 0.000000
-48.142700 0.000000
-48.083300 0.000000
-48.023900 0.000000
-47.964600 0.000000
-47.905200 0.000000
-47.845800 0.000000
-47.786400 0.000000
-47.727100 0.000000
-47.667700 0.000000
-47.608300 0.000000
-47.548900 0.000000
-47.489600 0.000000
-47.430200 0.000000
-47.370800 0.000000
-47.311400 0.000000
-47.252100 0.000000
-47.192700 0.000000
-47.133300 0.000000
-47.073900 0.000000
-47.014600 0.000000
-46.955200 0.000000
-46.895800 0.000000
-46.836400 0.000000
-46.777100 0.000000
-46.717700 0.000000
-46.658300 0.000000
-46.598900 0.000000
-46.539600 0.000000
-46.480200 0.000000
-46.420800 0.000000
-46.361400 0.000000
-46.302100 0.000000
-46.242700 0.000000
-46.183300 0.000000
-46.123900 0.000000
-46.064600 0.000000
-46.005200 0.000000
-45.945800 0.000000
-45.886400 0.000000
-45.827100 0.000000
-45.767700 0.000000
-45.708300 0.000000
-45.648900 0.000000
-45.589600 0.000000
-45.530200 0.000000
-45.470800 0.000000
-45.411500 0.000000
-45.352100 0.000000
-45.292700 0.000000
-45.233300 0.000000
-45.174000 0.000000
-45.114600 0.000000
-45.055200 0.000000
-44.995800 0.000000
-44.936500 0.000000
-44.877100 0.000000
-44.817700 0.000000
-44.758300 0.000000
-44.699000 0.000000
-44.639600 0.000000
-44.580200 0.000000
-44.520800 0.000000
-44.461500 0.000000
-44.402100 0.000000
-44.342700 0.000000
-44.283300 0.000000
-44.224000 0.000000
-44.164600 0.000000
-44.105200 0.000000
-44.045800 0.000000
-43.986500 0.000000
-43.927100 0.000000
-43.867700 0.000000
-43.808300 0.000000
-43.749000 0.000000
-43.689600 0.000000
-43.630200 0.000000
-43.570800 0.000000
-43.511500 0.000000
-43.452100 0.000000
-43.392700 0.000000
-43.333300 0.000000
-43.274000 0.000000
-43.214600 0.000000
-43.155200 0.000000
-43.095800 0.000000
-43.036500 0.000000
-42.977100 0.000000
-42.917700 0.000000
-42.858300 0.000000
-42.799000 0.000000
-42.739600 0.000000
-42.680200 0.000000
-42.620800 0.000000
-42.561500 0.000000
-42.502100 0.000000
-42.442700 0.000000
-42.383300 0.000000
-42.324000 0.000000
-42.264600 0.000000
-42.205200 0.000000
-42.145800 0.000000
-42.086500 0.000000
-42.027100 0.000000
-41.967700 0.000000
-41.908300 0.000000
-41.849000 0.000000
-41.789600 0.000000
-41.730200 0.000000
-41.670800 0.000000
-41.611500 0.000000
-41.552100 0.000000
-41.492700 0.000000
-41.433300 0.000000
-41.374000 0.000000
-41.314600 0.000000
-41.255200 0.000000
-41.195800 0.000000
-41.136500 0.000000
-41.077100 0.000000
-41.017700 0.000000
-40.958300 0.000000
-40.899000 0.000000
-40.839600 0.000000
-40.780200 0.000000
-40.720800 0.000000
-40.661500 0.000000
-40.602100 0.000000
-40.542700 0.000000
-40.483300 0.000000
-40.424000 0.000000
-40.364600 0.000000
-40.305200 0.000000
-40.245800 0.000000
-40.186500 0.000000
-40.127100 0.000000
-40.067700 0.000000
-40.008300 0.000000
-39.949000 0.000000
-39.889600 0.000000
-39.830200 0.000000
-39.770800 0.000000
-39.711500 0.000000
-39.652100 0.000000
-39.592700 0.000000
-39.533300 0.000000
-39.474000 0.000000
-39.414600 0.000000
-39.355200 0.000000
-39.295800 0.000000
-39.236500 0.000000
-39.177100 0.000000
-39.117700 0.000000
-39.058300 0.000000
-38.999000 0.000000
-38.939600 0.000000
-38.880200 0.000000
-38.820800 0.000000
-38.761500 0.000000
-38.702100 0.000000
-38.642700 0.000000
-38.583300 0.000000
-38.524000 0.000000
-38.464600 0.000000
-38.405200 0.000000
-38.345800 0.000000
-38.286500 0.000000
-38.227100 0.000000
-38.167700 0.000000
-38.108300 0.000000
-38.049000 0.000000
-37.989600 0.000000
-37.930200 0.000000
-37.870800 0.000000
-37.811500 0.000000
-37.752100 0.000000
-37.692700 0.000000
-37.633300 0.000000
-37.574000 0.000000
-37.514600 0.000000
-37.455200 0.000000
-37.395800 0.000000
-37.336500 0.000000
-37.277100 0.000000
-37.217700 0.000000
-37.158300 0.000000
-37.099000 0.000000
-37.039600 0.000000
-36.980200 0.000000
-36.920800 0.000000
-36.861500 0.000000
-36.802100 0.000000
-36.742700 0.000000
-36.683300 0.000000
-36.624000 0.000000
-36.564600 0.000000
-36.505200 0.000000
-36.445800 0.000000
-36.386500 0.000000
-36.327100 0.000000
-36.267700 0.000000
-36.208300 0.000000
-36.149000 0.000000
-36.089600 0.000000
-36.030200 0.000000
-35.970800 0.000000
-35.911500 0.000000
-35.852100 0.000000
-35.792700 0.000000
-35.733400 0.000000
-35.674000 0.000000
-35.614600 0.000000
-35.555200 0.000000
-35.495900 0.000000
-35.436500 0.000000
-35.377100 0.000000
-35.317700 0.000000
-35.258400 0.000000
-35.199000 0.000000
-35.139600 0.000000
-35.080200 0.000000
-35.020900 0.000000
-34.961500 0.000000
-34.902100 0.000000
-34.842700 0.000000
-34.783400 0.000000
-34.724000 0.000000
-34.664600 0.000000
-34.605200 0.000000
-34.545900 0.000000
-34.486500 0.000000
-34.427100 0.000000
-34.367700 0.000000
-34.308400 0.000000
-34.249000 0.000000
-34.189600 0.000000
-34.130200 0.000000
-34.070900 0.000000
-34.011500 0.000000
-33.952100 0.000000
-33.892700 0.000000
-33.833400 0.000000
-33.774000 0.000000
-33.714600 0.000000
-33.655200 0.000000
-33.595900 0.000000
-33.536500 0.000000
-33.477100 0.000000
-33.417700 0.000000
-33.358400 0.000000
-33.299000 0.000000
-33.239600 0.000000
-33.180200 0.000000
-33.120900 0.000000
-33.061500 0.000000
-33.002100 0.000000
-32.942700 0.000000
-32.883400 0.000000
-32.824000 0.000000
-32.764600 0.000000
-32.705200 0.000000
-32.645900 0.000000
-32.586500 0.000000
-32.527100 0.000000
-32.467700 0.000000
-32.408400 0.000000
-32.349000 0.000000
-32.289600 0.000000
-32.230200 0.000000
-32.170900 0.000000
-32.111500 0.000000
-32.052100 0.000000
-31.992700 0.000000
-31.933400 0.000000
-31.874000 0.000000
-31.814600 0.000000
-31.755200 0.000000
-31.695900 0.000000
-31.636500 0.000000
-31.577100 0.000000
-31.517700 0.000000
-31.458400 0.000000
-31.399000 0.000000
-31.339600 0.000000
-31.280200 0.000000
-31.220900 0.000000
-31.161500 0.000000
-31.102100 0.000000
-31.042700 0.000000
-30.983400 0.000000
-30.924000 0.000000
-30.864600 0.000000
-30.805200 0.000000
-30.745900 0.000000
-30.686500 0.000000
-30.627100 0.000000
-30.567700 0.000000
-30.508400 0.000000
-30.449000 0.000000
-30.389600 0.000000
-30.330200 0.000000
-30.270900 0.000000
-30.211500 0.000000
-30.152100 0.000000
-30.092700 0.000000
-30.033400 0.000000
-29.974000 0.000000
-29.914600 0.000000
-29.855200 0.000000
-29.795900 0.000000
-29.736500 0.000000
-29.677100 0.000000
-29.617700 0.000000
-29.558400 0.000000
-29.499000 0.000000
-29.439600 0.000000
-29.380200 0.000000
-29.320900 0.000000
-29.261500 0.000000
-29.202100 0.000000
-29.142700 0.000000
-29.083400 0.000000
-29.024000 0.000000
-28.964600 0.000000
-28.905200 0.000000
-28.845900 0.000000
-28.786500 0.000000
-28.727100 0.000000
-28.667700 0.000000
-28.608400 0.000000
-28.549000 0.000000
-28.489600 0.000000
-28.430200 0.000000
-28.370900 0.000000
-28.311500 0.000000
-28.252100 0.000000
-28.192700 0.000000
-28.133400 0.000000
-28.074000 0.000000
-28.014600 0.000000
-27.955200 0.000000
-27.895900 0.000000
-27.836500 0.000000
-27.777100 0.000000
-27.717700 0.000000
-27.658400 0.000000
-27.599000 0.000000
-27.539600 0.000000
-27.480200 0.000000
-27.420900 0.000000
-27.361500 0.000000
-27.302100 0.000000
-27.242700 0.000000
-27.183400 0.000000
-27.124000 0.000000
-27.064600 0.000000
-27.005200 0.000000
-26.945900 0.000000
-26.886500 0.000000
-26.827100 0.000000
-26.767700 0.000000
-26.708400 0.000000
-26.649000 0.000000
-26.589600 0.000000
-26.530200 0.000000
-26.470900 0.000000
-26.411500 0.000000
-26.352100 0.000000
-26.292700 0.000000
-26.233400 0.000000
-26.174000 0.000000
-26.114600 0.000000
-26.055300 0.000000
-25.995900 0.000000
-25.936500 0.000000
-25.877100 0.000000
-25.817800 0.000000
-25.758400 0.000000
-25.699000 0.000000
-25.639600 0.000000
-25.580300 0.000000
-25.520900 0.000000
-25.461500 0.000000
-25.402100 0.000000
-25.342800 0.000000
-25.283400 0.000000
-25.224000 0.000000
-25.164600 0.000000
-25.105300 0.000000
-25.045900 0.000000
-24.986500 0.000000
-24.927100 0.000000
-24.867800 0.000000
-24.808400 0.000000
-24.749000 0.000000
-24.689600 0.000000
-24.630300 0.000000
-24.570900 0.000000
-24.511500 0.000000
-24.452100 0.000000
-24.392800 0.000000
-24.333400 0.000000
-24.274000 0.000000
-24.214600 0.000000
-24.155300 0.000000
-24.095900 0.000000
-24.036500 0.000000
-23.977100 0.000000
-23.917800 0.000000
-23.858400 0.000000
-23.799000 0.000000
-23.739600 0.000000
-23.680300 0.000000
-23.620900 0.000000
-23.561500 0.000000
-23.502100 0.000000
-23.442800 0.000000
-23.383400 0.000000
-23.324000 0.000000
-23.264600 0.000000
-23.205300 0.000000
-23.145900 0.000000
-23.086500 0.000000
-23.027100 0.000000
-22.967800 0.000000
-22.908400 0.000000
-22.849000 0.000000
-22.789600 0.000000
-22.730300 0.000000
-22.670900 0.000000
-22.611500 0.000000
-22.552100 0.000000
-22.492800 0.000000
-22.433400 0.000000
-22.374000 0.000000
-22.314600 0.000000
-22.255300 0.000000
-22.195900 0.000000
-22.136500 0.000000
-22.077100 0.000000
-22.017800 0.000000
-21.958400 0.000000
-21.899000 0.000000
-21.839600 0.000000
-21.780300 0.000000
-21.720900 0.000000
-21.661500 0.000000
-21.602100 0.000000
-21.542800 0.000000
-21.483400 0.000000
-21.424000 0.000000
-21.364600 0.000000
-21.305300 0.000000
-21.245900 0.000000
-21.186500 0.000000
-21.127100 0.000000
-21.067800 0.000000
-21.008400 0.000000
-20.949000 0.000000
-20.889600 0.000000
-20.830300 0.000000
-20.770900 0.000000
-20.711500 0.000000
-20.652100 0.000000
-20.592800 0.000000
-20.533400 0.000000
-20.474000 0.000000
-20.414600 0.000000
-20.355300 0.000000
-20.295900 0.000000
-20.236500 0.000000
-20.177100 0.000000
-20.117800 0.000000
-20.058400 0.000000
-19.999000 0.000000
-19.939600 0.000000
-19.880300 0.000000
-19.820900 0.000000
-19.761500 0.000000
-19.702100 0.000000
-19.642800 0.000000
-19.583400 0.000000
-19.524000 0.000000
-19.464600 0.000000
-19.405300 0.000000
-19.345900 0.000000
-19.286500 0.000000
-19.227100 0.000000
-19.167800 0.000000
-19.108400 0.000000
-19.049000 0.000000
-18.989600 0.000000
-18.930300 0.000000
-18.870900 0.000000
-18.811500 0.000000
-18.752100 0.000000
-18.692800 0.000000
-18.633400 0.000000
-18.574000 0.000000
-18.514600 0.000000
-18.455300 0.000000
-18.395900 0.000000
-18.336500 0.000000
-18.277100 0.000000
-18.217800 0.000000
-18.158400 0.000000
-18.099000 0.000000
-18.039600 0.000000
-17.980300 0.000000
-17.920900 0.000000
-17.861500 0.000000
-17.802100 0.000000
-17.742800 0.000000
-17.683400 0.000000
-17.624000 0.000000
-17.564600 0.000000
-17.505300 0.000000
-17.445900 0.000000
-17.386500 0.000000
-17.327100 0.000000
-17.267800 0.000000
-17.208400 0.000000
-17.149000 0.000000
-17.089600 0.000000
-17.030300 0.000000
-16.970900 0.000000
-16.911500 0.000000
-16.852100 0.000000
-16.792800 0.000000
-16.733400 0.000000
-16.674000 0.000000
-16.614600 0.000000
-16.555300 0.000000
-16.495900 0.000000
-16.436500 0.000000
-16.377100 0.000000
-16.317800 0.000000
-16.258400 0.000000
-16.199000 0.000000
-16.139700 0.000000
-16.080300 0.000000
-16.020900 0.000000
-15.961500 0.000000
-15.902200 0.000000
-15.842800 0.000000
-15.783400 0.000000
-15.724000 0.000000
-15.664700 0.000000
-15.605300 0.000000
-15.545900 0.000000
-15.486500 0.000000
-15.427200 0.000000
-15.367800 0.000000
-15.308400 0.000000
-15.249000 0.000000
-15.189700 0.000000
-15.130300 0.000000
-15.070900 0.000000
-15.011500 0.000000
-14.952200 0.000000
-14.892800 0.000000
-14.833400 0.000000
-14.774000 0.000000
-14.714700 0.000000
-14.655300 0.000000
-14.595900 0.000000
-14.536500 0.000000
-14.477200 0.000000
-14.417800 0.000000
-14.358400 0.000000
-14.299000 0.000000
-14.239700 0.000000
-14.180300 0.000000
-14.120900 0.000000
-14.061500 0.000000
-14.002200 0.000000
-13.942800 0.000000
-13.883400 0.000000
-13.824000 0.000000
-13.764700 0.000000
-13.705300 0.000000
-13.645900 0.000000
-13.586500 0.000000
-13.527200 0.000000
-13.467800 0.000000
-13.408400 0.000000
-13.349000 0.000000
-13.289700 0.000000
-13.230300 0.000000
-13.170900 0.000000
-13.111500 0.000000
-13.052200 0.000000
-12.992800 0.000000
-12.933400 0.000000
-12.874000 0.000000
-12.814700 0.000000
-12.755300 0.000000
-12.695900 0.000000
-12.636500 0.000000
-12.577200 0.000000
-12.517800 0.000000
-12.458400 0.000000
-12.399000 0.000000
-12.339700 0.000000
-12.280300 0.000000
-12.220900 0.000000
-12.161500 0.000000
-12.102200 0.000000
-12.042800 0.000000
-11.983400 0.000000
-11.924000 0.000000
-11.864700 0.000000
-11.805300 0.000000
-11.745900 0.000000
-11.686500 0.000000
-11.627200 0.000000
-11.567800 0.000000
-11.508400 0.000000
-11.449000 0.000000
-11.389700 0.000000
-11.330300 0.000000
-11.270900 0.000000
-11.211500 0.000000
-11.152200 0.000000
-11.092800 0.000000
-11.033400 0.000000
-10.974000 0.000000
-10.914700 0.000000
-10.855300 0.000000
-10.795900 0.000000
-10.736500 0.000000
-10.677200 0.000000
-10.617800 0.000000
-10.558400 0.000000
-10.499000 0.000000
-10.439700 0.000000
-10.380300 0.000000
-10.320900 0.000000
-10.261500 0.000000
-10.202200 0.000000
-10.142800 0.000000
-10.083400 0.000000
-10.024000 0.000000
-9.964700 0.000000
-9.905300 0.000000
-9.845900 0.000000
-9.786500 0.000000
-9.727200 0.000000
-9.667800 0.000000
-9.608400 0.000000
-9.549000 0.000000
-9.489700 0.000000
-9.430300 0.000000
-9.370900 0.000000
-9.311500 0.000000
-9.252200 0.000000
-9.192800 0.000000
-9.133400 0.000000
-9.074000 0.000000
-9.014700 0.000000
-8.955300 0.000000
-8.895900 0.000000
-8.836500 0.000000
-8.777200 0.000000
-8.717800 0.000000
-8.658400 0.000000
-8.599000 0.000000
-8.539700 0.000000
-8.480300 0.000000
-8.420900 0.000000
-8.361500 179.245600
-8.302200 19.313600
-8.242800 0.000000
-8.183400 0.000000
-8.124000 0.000000
-8.064700 0.000000
-8.005300 0.000000
-7.945900 0.000000
-7.886500 0.000000
-7.827200 0.000000
-7.767800 0.000000
-7.708400 0.000000
-7.649000 0.000000
-7.589700 0.000000
-7.530300 0.000000
-7.470900 0.000000
-7.411500 0.000000
-7.352200 0.000000
-7.292800 0.000000
-7.233400 0.000000
-7.174000 0.000000
-7.114700 0.000000
-7.055300 0.000000
-6.995900 0.000000
-6.936500 0.000000
-6.877200 0.000000
-6.817800 0.000000
-6.758400 0.000000
-6.699000 0.000000
-6.639700 0.000000
-6.580300 0.000000
-6.520900 0.000000
-6.461600 0.000000
-6.402200 0.000000
-6.342800 0.000000
-6.283400 0.000000
-6.224100 0.000000
-6.164700 0.000000
-6.105300 0.000000
-6.045900 0.000000
-5.986600 0.000000
-5.927200 0.000000
-5.867800 0.000000
-5.808400 0.000000
-5.749100 0.000000
-5.689700 0.000000
-5.630300 0.000000
-5.570900 0.000000
-5.511600 0.000000
-5.452200 0.000000
-5.392800 0.000000
-5.333400 0.000000
-5.274100 0.000000
-5.214700 0.000000
-5.155300 0.000000
-5.095900 0.000000
-5.036600 0.000000
-4.977200 0.000000
-4.917800 0.000000
-4.858400 0.000000
-4.799100 0.000000
-4.739700 0.000000
-4.680300 0.000000
-4.620900 0.000000
-4.561600 0.000000
-4.502200 0.000000
-4.442800 0.000000
-4.383400 0.000000
-4.324100 0.000000
-4.264700 0.000000
-4.205300 0.033100
-4.145900 0.098800
-4.086600 0.121900
-4.027200 0.146800
-3.967800 0.177300
-3.908400 0.192500
-3.849100 0.210400
-3.789700 0.225100
-3.730300 0.240500
-3.670900 0.258600
-3.611600 0.278400
-3.552200 0.291200
-3.492800 0.301200
-3.433400 0.313600
-3.374100 0.326300
-3.314700 0.340300
-3.255300 0.355600
-3.195900 0.370900
-3.136600 0.385600
-3.077200 0.396200
-3.017800 0.407800
-2.958400 0.420500
-2.899100 0.434300
-2.839700 0.448600
-2.780300 0.463600
-2.720900 0.479400
-2.661600 0.496300
-2.602200 0.514600
-2.542800 0.535900
-2.483400 0.558400
-2.424100 0.591200
-2.364700 0.611700
-2.305300 0.629800
-2.245900 0.638000
-2.186600 0.638700
-2.127200 0.642500
-2.067800 0.654300
-2.008400 0.666100
-1.949100 0.677300
-1.889700 0.688300
-1.830300 0.706400
-1.770900 0.726500
-1.711600 0.752100
-1.652200 0.786400
-1.592800 0.833500
-1.533400 0.923000
-1.474100 0.978600
-1.414700 0.987500
-1.355300 1.022000
-1.295900 1.064700
-1.236600 0.951500
-1.177200 0.821400
-1.117800 0.719000
-1.058400 0.665300
-0.999100 0.628900
-0.939700 0.596700
-0.880300 0.561800
-0.820900 0.530100
-0.761600 0.530400
-0.702200 0.548400
-0.642800 0.541500
-0.583400 0.548200
-0.524100 0.537900
-0.464700 0.499800
-0.405300 0.587900
-0.345900 0.122600
-0.286600 0.136200
-0.227200 0.148900
-0.167800 0.191300
-0.108400 0.372400
-0.049100 0.408100
0.010300 0.473400
0.069700 0.547000
0.129100 0.624700
0.188400 0.751300
0.247800 0.905300
0.307200 1.049000
0.366600 1.134800
0.425900 1.048200
0.485300 1.059700
0.544700 1.080100
0.604100 1.091400
0.663400 1.118600
0.722800 1.187000
0.782200 1.270900
0.841600 1.415500
0.900900 1.597500
0.960300 1.942200
1.019700 2.120300
1.079100 2.146800
1.138400 1.957900
1.197800 1.723800
1.257200 1.506900
1.316600 1.384000
1.375900 1.312300
1.435300 1.432200
1.494700 1.619300
1.554100 2.015100
1.613400 2.135100
1.672800 2.284000
1.732200 2.562600
1.791600 2.999400
1.850900 3.533400
1.910300 3.403800
1.969700 3.121600
2.029100 3.240800
2.088400 4.371000
2.147800 5.582600
2.207200 4.218400
2.266600 4.450700
2.325900 6.294400
2.385300 9.297800
2.444700 12.403700
2.504100 18.121900
2.563400 11.895400
2.622800 10.250000
2.682200 10.079400
2.741600 12.514400
2.800900 11.292300
2.860300 12.593200
2.919700 6.834500
2.979100 5.830600
3.038400 6.897400
3.097800 12.212100
3.157200 11.266300
3.216500 12.511700
3.275900 13.653100
3.335300 16.306900
3.394700 14.113600
3.454000 9.721000
3.513400 8.984700
3.572800 8.715200
3.632200 8.541700
3.691500 10.629800
3.750900 12.269900
3.810300 10.333900
3.869700 12.883700
3.929000 22.147900
3.988400 12.020100
4.047800 15.860000
4.107200 14.362300
4.166500 10.031700
4.225900 8.930600
4.285300 7.285000
4.344700 21.391000
4.404000 11.286200
4.463400 8.296800
4.522800 8.015600
4.582200 5.485300
4.641500 4.071000
4.700900 3.316600
4.760300 2.921800
4.819700 2.175800
4.879000 1.993000
4.938400 1.867800
4.997800 1.756400
5.057200 1.673000
5.116500 1.609700
5.175900 1.521400
5.235300 1.459300
5.294700 1.462900
5.354000 1.401800
5.413400 1.360700
5.472800 1.369200
5.532200 1.417300
5.591500 1.448800
5.650900 1.491700
5.710300 1.547000
5.769700 1.519000
5.829000 1.497900
5.888400 1.492600
5.947800 1.466400
6.007200 1.391500
6.066500 1.382400
6.125900 1.379200
6.185300 1.374000
6.244700 1.388900
6.304000 1.395700
6.363400 1.381500
6.422800 1.338400
6.482200 1.321700
6.541500 1.285100
6.600900 1.247000
6.660300 1.202700
6.719700 1.023600
6.779000 0.993200
6.838400 1.006600
6.897800 1.014800
6.957200 0.869300
7.016500 0.810600
7.075900 0.777200
7.135300 0.757000
7.194700 0.742700
7.254000 0.781800
7.313400 0.807900
7.372800 0.872900
7.432200 0.918900
7.491500 0.956800
7.550900 1.000900
7.610300 1.065500
7.669700 1.133800
7.729000 1.129300
7.788400 1.130000
7.847800 1.098800
7.907200 1.069600
7.966500 1.022700
8.025900 1.064900
8.085300 1.230400
8.144700 1.347400
8.204000 1.343200
8.263400 1.351600
8.322800 1.289100
8.382200 1.172400
8.441500 1.137800
8.500900 1.082600
8.560300 1.023700
8.619700 0.991100
8.679000 0.964900
8.738400 0.936600
8.797800 0.914300
8.857200 0.898500
8.916500 0.897500
8.975900 0.897300
9.035300 0.890800
9.094700 0.889000
9.154000 0.905700
9.213400 0.974200
9.272800 1.227400
9.332200 1.179000
9.391500 1.174500
9.450900 1.155600
9.510300 1.165400
9.569700 1.125900
9.629000 1.124300
9.688400 1.103000
9.747800 1.100500
9.807200 1.091000
9.866500 1.083900
9.925900 1.085700
9.985300 1.078400
10.044700 1.074900
10.104000 1.108400
10.163400 1.132400
10.222800 1.155300
10.282200 1.147500
10.341500 1.127500
10.400900 1.124900
10.460300 1.146600
10.519700 1.176900
10.579000 1.185600
10.638400 1.153900
10.697800 1.120600
10.757200 1.116200
10.816500 1.116400
10.875900 1.118200
10.935300 1.127200
10.994700 1.134900
11.054000 1.098000
11.113400 1.090000
11.172800 1.070600
11.232200 1.052900
11.291500 1.057100
11.350900 1.070400
11.410300 1.093600
11.469700 1.109600
11.529000 1.137200
11.588400 1.205600
11.647800 1.203000
11.707200 1.227700
11.766500 1.254400
11.825900 1.277200
11.885300 1.272400
11.944700 1.273400
12.004000 1.288300
12.063400 1.311400
12.122800 1.344800
12.182200 1.390300
12.241500 1.449800
12.300900 1.497700
12.360300 1.526400
12.419700 1.562400
12.479000 1.586200
12.538400 1.602000
12.597800 1.566200
12.657200 1.538400
12.716500 1.503900
12.775900 1.467500
12.835300 1.464100
12.894600 1.473700
12.954000 1.475900
13.013400 1.457100
13.072800 1.431700
13.132100 1.429200
13.191500 1.522600
13.250900 1.476900
13.310300 1.528400
13.369600 1.568500
13.429000 1.550200
13.488400 1.518900
13.547800 1.510700
13.607100 1.459800
13.666500 1.426600
13.725900 1.412500
13.785300 1.408500
13.844600 1.363400
13.904000 1.331100
13.963400 1.344900
14.022800 1.321200
14.082100 1.323800
14.141500 1.323500
14.200900 1.290000
14.260300 1.286500
14.319600 1.326200
14.379000 1.366200
14.438400 1.437700
14.497800 1.448600
14.557100 1.449200
14.616500 1.452200
14.675900 1.454600
14.735300 1.423800
14.794600 1.396100
14.854000 1.372100
14.913400 1.354800
14.972800 1.330800
15.032100 1.338600
15.091500 1.365000
15.150900 1.397200
15.210300 1.425800
15.269600 1.453300
15.329000 1.484800
15.388400 1.520700
15.447800 1.578700
15.507100 1.696400
15.566500 1.789000
15.625900 1.890800
15.685300 1.927800
15.744600 1.896200
15.804000 1.771800
15.863400 1.630300
15.922800 1.570000
15.982100 1.590900
16.041500 1.607400
16.100900 1.698100
16.160300 1.713800
16.219600 1.704100
16.279000 1.713300
16.338400 1.740700
16.397800 1.681000
16.457100 1.621800
16.516500 1.588900
16.575900 1.574600
16.635300 1.561300
16.694600 1.552300
16.754000 1.546100
16.813400 1.577600
16.872800 1.583000
16.932100 1.547600
16.991500 1.546700
17.050900 1.629700
17.110300 1.666600
17.169600 1.704600
17.229000 1.692900
17.288400 1.698000
17.347800 1.709000
17.407100 1.739100
17.466500 1.835400
17.525900 1.849200
17.585300 1.870600
17.644600 1.837800
17.704000 1.863000
17.763400 1.956400
17.822800 1.924800
17.882100 1.802900
17.941500 1.680400
18.000900 1.651900
18.060300 1.657600
18.119600 1.650500
18.179000 1.680400
18.238400 1.653300
18.297800 1.647400
18.357100 1.619700
18.416500 1.577800
18.475900 1.548100
18.535300 1.495300
18.594600 1.511300
18.654000 1.571800
18.713400 1.598900
18.772800 1.611900
18.832100 1.625700
18.891500 1.632600
18.950900 1.636900
19.010300 1.655300
19.069600 1.664000
19.129000 1.678800
19.188400 1.694300
19.247800 1.723400
19.307100 1.695700
19.366500 1.666100
19.425900 1.669600
19.485300 1.677800
19.544600 1.662100
19.604000 1.678900
19.663400 1.677300
19.722800 1.617900
19.782100 1.559600
19.841500 1.576500
19.900900 1.535000
19.960300 1.536700
20.019600 1.436300
20.079000 1.395000
20.138400 1.370800
20.197800 1.391300
20.257100 1.420700
20.316500 1.454200
20.375900 1.484600
20.435300 1.512200
20.494600 1.507900
20.554000 1.493200
20.613400 1.483600
20.672800 1.477000
20.732100 1.486700
20.791500 1.496800
20.850900 1.500000
20.910300 1.490300
20.969600 1.459700
21.029000 1.439100
21.088400 1.517500
21.147800 1.459600
21.207100 1.435700
21.266500 1.399700
21.325900 1.423500
21.385300 1.346400
21.444600 1.348700
21.504000 1.356800
21.563400 1.429400
21.622800 1.420900
21.682100 1.397400
21.741500 1.363400
21.800900 1.325100
21.860300 1.287400
21.919600 1.265300
21.979000 1.240200
22.038400 1.254600
22.097800 1.268000
22.157100 1.272300
22.216500 1.255800
22.275900 1.234700
22.335300 1.225400
22.394600 1.271000
22.454000 1.322900
22.513400 1.365700
22.572700 1.419300
22.632100 1.480500
22.691500 1.535400
22.750900 1.605400
22.810200 1.689000
22.869600 1.711300
22.929000 1.773100
22.988400 1.844400
23.047700 1.848500
23.107100 1.816100
23.166500 1.796500
23.225900 1.818500
23.285200 1.835900
23.344600 1.889300
23.404000 1.901100
23.463400 1.836500
23.522700 1.689800
23.582100 1.630400
23.641500 1.564500
23.700900 1.550800
23.760200 1.596300
23.819600 1.601800
23.879000 1.640500
23.938400 1.654000
23.997700 1.722300
24.057100 1.768900
24.116500 1.791300
24.175900 1.842400
24.235200 1.814000
24.294600 1.830100
24.354000 1.880600
24.413400 1.927500
24.472700 1.982000
24.532100 2.068400
24.591500 2.214300
24.650900 2.128000
24.710200 2.034600
24.769600 1.975600
24.829000 1.914000
24.888400 1.863500
24.947700 1.878200
25.007100 1.923100
25.066500 1.938300
25.125900 1.965400
25.185200 1.960500
25.244600 2.016600
25.304000 2.053800
25.363400 2.109100
25.422700 2.186200
25.482100 2.148200
25.541500 2.166300
25.600900 2.197400
25.660200 2.032700
25.719600 2.031400
25.779000 1.987500
25.838400 1.979900
25.897700 2.047500
25.957100 2.082000
26.016500 2.120500
26.075900 2.144700
26.135200 2.210400
26.194600 2.233800
26.254000 2.338000
26.313400 2.390200
26.372700 2.338900
26.432100 2.200500
26.491500 2.068600
26.550900 1.996900
26.610200 2.031900
26.669600 2.034700
26.729000 1.992100
26.788400 1.965800
26.847700 1.983100
26.907100 2.020400
26.966500 1.942800
27.025900 1.911100
27.085200 1.920700
27.144600 1.893300
27.204000 1.844600
27.263400 1.813800
27.322700 1.819900
27.382100 1.772800
27.441500 1.767800
27.500900 1.784800
27.560200 1.828200
27.619600 1.920400
27.679000 2.100100
27.738400 2.175800
27.797700 2.103800
27.857100 2.135200
27.916500 1.907800
27.975900 1.870400
28.035200 1.827400
28.094600 1.821600
28.154000 1.928600
28.213400 1.908600
28.272700 2.030500
28.332100 2.121100
28.391500 2.005300
28.450900 1.965000
28.510200 2.021300
28.569600 2.037300
28.629000 2.049300
28.688400 2.011500
28.747700 1.932800
28.807100 1.823300
28.866500 1.767500
28.925900 1.690900
28.985200 1.606300
29.044600 1.547200
29.104000 1.518400
29.163400 1.527000
29.222700 1.556000
29.282100 1.582100
29.341500 1.638700
29.400900 1.696900
29.460200 1.707300
29.519600 1.775100
29.579000 1.815600
29.638400 1.809700
29.697700 1.775600
29.757100 1.752200
29.816500 1.745000
29.875900 1.702800
29.935200 1.665700
29.994600 1.639500
30.054000 1.635400
30.113400 1.658900
30.172700 1.714300
30.232100 1.889600
30.291500 2.016800
30.350900 2.090700
30.410200 2.092000
30.469600 2.072700
30.529000 2.069200
30.588400 2.062100
30.647700 2.010400
30.707100 1.968500
30.766500 2.027100
30.825900 1.956100
30.885200 1.821800
30.944600 1.733700
31.004000 1.712900
31.063400 1.694100
31.122700 1.710300
31.182100 1.760700
31.241500 1.690000
31.300900 1.704900
31.360200 1.767400
31.419600 1.720600
31.479000 1.707000
31.538400 1.709800
31.597700 1.801100
31.657100 1.942200
31.716500 1.907600
31.775900 1.922600
31.835200 1.944600
31.894600 1.956200
31.954000 2.082500
32.013400 2.205500
32.072700 2.140600
32.132100 1.921300
32.191500 1.811200
32.250800 1.763000
32.310200 1.735400
32.369600 1.767500
32.429000 1.866400
32.488300 1.924000
32.547700 2.032700
32.607100 2.034900
32.666500 2.145500
32.725800 2.233000
32.785200 2.264900
32.844600 2.195400
32.904000 2.152700
32.963300 2.125100
33.022700 1.950600
33.082100 1.877000
33.141500 1.868000
33.200800 1.852300
33.260200 2.008400
33.319600 2.036200
33.379000 2.064600
33.438300 2.194500
33.497700 2.193900
33.557100 2.068200
33.616500 2.094300
33.675800 2.128600
33.735200 2.199300
33.794600 2.169300
33.854000 2.072400
33.913300 2.073400
33.972700 2.087000
34.032100 2.091100
34.091500 2.172000
34.150800 2.070400
34.210200 2.072000
34.269600 2.031000
34.329000 1.962100
34.388300 1.884400
34.447700 1.854200
34.507100 1.839600
34.566500 1.805600
34.625800 1.814500
34.685200 1.848000
34.744600 1.880700
34.804000 1.912500
34.863300 1.955700
34.922700 2.016700
34.982100 2.095900
35.041500 2.199400
35.100800 2.313200
35.160200 2.456300
35.219600 2.414300
35.279000 2.395300
35.338300 2.411900
35.397700 2.472700
35.457100 2.471200
35.516500 2.498500
35.575800 2.421200
35.635200 2.324400
35.694600 2.267300
35.754000 2.244800
35.813300 2.219800
35.872700 2.218500
35.932100 2.221800
35.991500 2.264400
36.050800 2.235800
36.110200 2.254600
36.169600 2.252300
36.229000 2.265900
36.288300 2.225000
36.347700 2.157200
36.407100 2.073800
36.466500 2.010300
36.525800 1.944200
36.585200 1.918100
36.644600 1.929600
36.704000 1.938500
36.763300 1.934500
36.822700 1.927800
36.882100 1.916900
36.941500 1.965900
37.000800 2.044600
37.060200 2.115200
37.119600 2.247300
37.179000 2.359500
37.238300 2.485500
37.297700 2.457300
37.357100 2.454500
37.416500 2.391200
37.475800 2.384000
37.535200 2.360500
37.594600 2.362700
37.654000 2.344600
37.713300 2.355300
37.772700 2.287500
37.832100 2.266600
37.891500 2.259100
37.950800 2.258600
38.010200 2.256500
38.069600 2.267000
38.129000 2.303300
38.188300 2.326000
38.247700 2.284400
38.307100 2.307000
38.366500 2.332500
38.425800 2.425400
38.485200 2.434700
38.544600 2.389200
38.604000 2.382400
38.663300 2.336100
38.722700 2.378400
38.782100 2.470000
38.841500 2.633100
38.900800 2.827600
38.960200 3.096100
39.019600 3.392900
39.079000 3.605700
39.138300 3.745300
39.197700 3.972600
39.257100 4.544900
39.316500 5.353000
39.375800 7.234500
39.435200 9.680000
39.494600 14.438500
39.554000 21.941200
39.613300 14.704200
39.672700 7.090900
39.732100 4.906500
39.791500 3.894200
39.850800 3.343500
39.910200 2.837600
39.969600 2.441600
40.029000 2.149000
40.088300 1.950400
40.147700 1.819700
40.207100 1.666500
40.266500 1.547000
40.325800 1.400300
40.385200 1.283700
40.444600 1.200800
40.504000 1.106200
40.563300 1.017600
40.622700 0.953400
40.682100 0.888000
40.741500 0.826400
40.800800 0.775200
40.860200 0.738300
40.919600 0.683400
40.979000 0.654600
41.038300 0.636600
41.097700 0.619700
41.157100 0.604100
41.216500 0.595000
41.275800 0.584600
41.335200 0.530500
41.394600 0.500800
41.454000 0.480400
41.513300 0.450600
41.572700 0.419500
41.632100 0.391900
41.691500 0.369600
41.750800 0.352400
41.810200 0.338000
41.869600 0.335400
41.928900 0.333200
41.988300 0.317700
42.047700 0.305200
42.107100 0.297800
42.166400 0.289900
42.225800 0.282300
42.285200 0.276400
42.344600 0.281800
42.403900 0.291300
42.463300 0.265500
42.522700 0.242200
42.582100 0.222100
42.641400 0.187000
42.700800 0.169200
42.760200 0.147100
42.819600 0.140600
42.878900 0.137900
42.938300 0.135200
42.997700 0.138300
43.057100 0.127700
43.116400 0.103500
43.175800 0.092400
43.235200 0.084400
43.294600 0.078400
43.353900 0.072500
43.413300 0.066700
43.472700 0.061100
43.532100 0.058200
43.591400 0.050000
43.650800 0.043800
43.710200 0.039800
43.769600 0.036600
43.828900 0.031100
43.888300 0.030200
43.947700 0.027300
44.007100 0.023600
44.066400 0.019700
44.125800 0.015600
44.185200 0.011400
44.244600 0.010300
44.303900 0.000000
44.363300 0.000000
44.422700 0.000000
44.482100 0.000000
44.541400 0.000000
44.600800 0.000000
44.660200 0.000000
44.719600 0.000000
44.778900 0.000000
44.838300 0.000000
44.897700 0.000000
44.957100 0.000000
45.016400 0.000000
45.075800 0.000000
45.135200 0.000000
45.194600 0.000000
45.253900 0.000000
45.313300 0.000000
45.372700 0.000000
45.432100 0.000000
45.491400 0.000000
45.550800 0.000000
45.610200 0.000000
45.669600 0.000000
45.728900 0.000000
45.788300 0.000000
45.847700 0.000000
45.907100 0.000000
45.966400 0.000000
46.025800 0.000000
46.085200 0.000000
46.144600 0.000000
46.203900 0.000000
46.263300 0.000000
46.322700 0.000000
46.382100 0.000000
46.441400 0.000000
46.500800 0.000000
46.560200 0.000000
46.619600 0.000000
46.678900 0.000000
46.738300 0.000000
46.797700 0.000000
46.857100 0.000000
46.916400 0.000000
46.975800 0.000000
47.035200 0.000000
47.094600 0.000000
47.153900 0.000000
47.213300 0.000000
47.272700 0.000000
47.332100 0.000000
47.391400 0.000000
47.450800 0.000000
47.510200 0.000000
47.569600 0.000000
47.628900 0.000000
47.688300 0.000000
47.747700 0.000000
47.807100 0.000000
47.866400 0.000000
47.925800 0.000000
47.985200 0.000000
48.044600 0.000000
48.103900 0.000000
48.163300 0.000000
48.222700 0.000000
48.282100 0.000000
48.341400 0.000000
48.400800 0.000000
48.460200 0.000000
48.519600 0.000000
48.578900 0.000000
48.638300 0.000000
48.697700 0.000000
48.757100 0.000000
48.816400 0.000000
48.875800 0.000000
48.935200 0.000000
48.994600 0.000000
49.053900 0.000000
49.113300 0.000000
49.172700 0.000000
49.232100 0.000000
49.291400 0.000000
49.350800 0.000000
49.410200 0.000000
49.469600 0.000000
49.528900 0.000000
49.588300 0.000000
49.647700 0.000000
e
