set title 'mp-30358 - Density of States'
set xlabel 'Energy (eV)'
set ylabel 'DOS (states/eV)'
set grid
set xrange [-10:10]
set yrange [0:26.111]
set xzeroaxis lt -1
set terminal png size 800,600
set output 'mp-30358_dos_gnuplot.png'
plot '-' using 1:2 with lines title 'DOS'
-21.134000 0.000000
-21.115700 0.000000
-21.097400 0.000000
-21.079200 0.000000
-21.060900 0.000000
-21.042600 0.000000
-21.024300 0.000000
-21.006000 0.000000
-20.987800 0.000000
-20.969500 0.000000
-20.951200 0.000000
-20.932900 0.000000
-20.914700 0.000000
-20.896400 0.000000
-20.878100 0.000000
-20.859800 0.000000
-20.841500 0.000000
-20.823300 0.000000
-20.805000 0.000000
-20.786700 0.000000
-20.768400 0.000000
-20.750200 0.000000
-20.731900 0.000000
-20.713600 0.000000
-20.695300 0.000000
-20.677100 0.000000
-20.658800 0.000000
-20.640500 0.000000
-20.622200 0.000000
-20.603900 0.000000
-20.585700 0.000000
-20.567400 0.000000
-20.549100 0.000000
-20.530800 0.000000
-20.512600 0.000000
-20.494300 0.000000
-20.476000 0.000000
-20.457700 0.000000
-20.439400 0.000000
-20.421200 0.000000
-20.402900 0.000000
-20.384600 0.000000
-20.366300 0.000000
-20.348100 0.000000
-20.329800 0.000000
-20.311500 0.000000
-20.293200 0.000000
-20.274900 0.000000
-20.256700 0.000000
-20.238400 0.000000
-20.220100 0.000000
-20.201800 0.000000
-20.183600 0.000000
-20.165300 0.000000
-20.147000 0.000000
-20.128700 0.000000
-20.110400 0.000000
-20.092200 0.000000
-20.073900 0.000000
-20.055600 0.000000
-20.037300 0.000000
-20.019100 0.000000
-20.000800 0.000000
-19.982500 0.000000
-19.964200 0.000000
-19.946000 0.000000
-19.927700 0.000000
-19.909400 0.000000
-19.891100 0.000000
-19.872800 0.000000
-19.854600 0.000000
-19.836300 0.000000
-19.818000 0.000000
-19.799700 0.000000
-19.781500 0.000000
-19.763200 0.000000
-19.744900 0.000000
-19.726600 0.000000
-19.708300 0.000000
-19.690100 0.000000
-19.671800 0.000000
-19.653500 0.000000
-19.635200 0.000000
-19.617000 0.000000
-19.598700 0.000000
-19.580400 0.000000
-19.562100 0.000000
-19.543800 0.000000
-19.525600 0.000000
-19.507300 0.000000
-19.489000 0.000000
-19.470700 13.621500
-19.452500 20.449100
-19.434200 20.752700
-19.415900 14.425800
-19.397600 12.278500
-19.379400 20.429200
-19.361100 34.482500
-19.342800 84.347400
-19.324500 17.437100
-19.306200 11.259700
-19.288000 12.641400
-19.269700 17.292200
-19.251400 18.842500
-19.233100 23.574900
-19.214900 0.000000
-19.196600 0.000000
-19.178300 0.000000
-19.160000 0.000000
-19.141700 0.000000
-19.123500 0.000000
-19.105200 0.000000
-19.086900 0.000000
-19.068600 0.000000
-19.050400 0.000000
-19.032100 0.000000
-19.013800 0.000000
-18.995500 0.000000
-18.977200 0.000000
-18.959000 0.000000
-18.940700 0.000000
-18.922400 0.000000
-18.904100 0.000000
-18.885900 0.000000
-18.867600 0.000000
-18.849300 0.000000
-18.831000 0.000000
-18.812700 0.000000
-18.794500 0.000000
-18.776200 0.000000
-18.757900 0.000000
-18.739600 0.000000
-18.721400 0.000000
-18.703100 0.000000
-18.684800 0.000000
-18.666500 0.000000
-18.648300 0.000000
-18.630000 0.000000
-18.611700 0.000000
-18.593400 0.000000
-18.575100 0.000000
-18.556900 0.000000
-18.538600 0.000000
-18.520300 0.000000
-18.502000 0.000000
-18.483800 0.000000
-18.465500 0.000000
-18.447200 0.000000
-18.428900 0.000000
-18.410600 0.000000
-18.392400 0.000000
-18.374100 0.000000
-18.355800 0.000000
-18.337500 0.000000
-18.319300 0.000000
-18.301000 0.000000
-18.282700 0.000000
-18.264400 0.000000
-18.246100 0.000000
-18.227900 0.000000
-18.209600 0.000000
-18.191300 0.000000
-18.173000 0.000000
-18.154800 0.000000
-18.136500 0.000000
-18.118200 0.000000
-18.099900 0.000000
-18.081600 0.000000
-18.063400 0.000000
-18.045100 0.000000
-18.026800 0.000000
-18.008500 0.000000
-17.990300 0.000000
-17.972000 0.000000
-17.953700 0.000000
-17.935400 0.000000
-17.917200 0.000000
-17.898900 0.000000
-17.880600 0.000000
-17.862300 0.000000
-17.844000 0.000000
-17.825800 0.000000
-17.807500 0.000000
-17.789200 0.000000
-17.770900 0.000000
-17.752700 0.000000
-17.734400 0.000000
-17.716100 0.000000
-17.697800 0.000000
-17.679500 0.000000
-17.661300 0.000000
-17.643000 0.000000
-17.624700 0.000000
-17.606400 0.000000
-17.588200 0.000000
-17.569900 0.000000
-17.551600 0.000000
-17.533300 0.000000
-17.515000 0.000000
-17.496800 0.000000
-17.478500 0.000000
-17.460200 0.000000
-17.441900 0.000000
-17.423700 0.000000
-17.405400 0.000000
-17.387100 0.000000
-17.368800 0.000000
-17.350600 0.000000
-17.332300 0.000000
-17.314000 0.000000
-17.295700 0.000000
-17.277400 0.000000
-17.259200 0.000000
-17.240900 0.000000
-17.222600 0.000000
-17.204300 0.000000
-17.186100 0.000000
-17.167800 0.000000
-17.149500 0.000000
-17.131200 0.000000
-17.112900 0.000000
-17.094700 0.000000
-17.076400 0.000000
-17.058100 0.000000
-17.039800 0.000000
-17.021600 0.000000
-17.003300 0.000000
-16.985000 0.000000
-16.966700 0.000000
-16.948400 0.000000
-16.930200 0.000000
-16.911900 0.000000
-16.893600 0.000000
-16.875300 0.000000
-16.857100 0.000000
-16.838800 0.000000
-16.820500 0.000000
-16.802200 0.000000
-16.783900 0.000000
-16.765700 0.000000
-16.747400 0.000000
-16.729100 0.000000
-16.710800 0.000000
-16.692600 0.000000
-16.674300 0.000000
-16.656000 0.000000
-16.637700 0.000000
-16.619500 0.000000
-16.601200 0.000000
-16.582900 0.000000
-16.564600 0.000000
-16.546300 0.000000
-16.528100 0.000000
-16.509800 0.000000
-16.491500 0.000000
-16.473200 0.000000
-16.455000 0.000000
-16.436700 0.000000
-16.418400 0.000000
-16.400100 0.000000
-16.381800 0.000000
-16.363600 0.000000
-16.345300 0.000000
-16.327000 0.000000
-16.308700 0.000000
-16.290500 0.000000
-16.272200 0.000000
-16.253900 0.000000
-16.235600 0.000000
-16.217300 0.000000
-16.199100 0.000000
-16.180800 0.000000
-16.162500 0.000000
-16.144200 0.000000
-16.126000 0.000000
-16.107700 0.000000
-16.089400 0.000000
-16.071100 0.000000
-16.052800 0.000000
-16.034600 0.000000
-16.016300 0.000000
-15.998000 0.000000
-15.979700 0.000000
-15.961500 0.000000
-15.943200 0.000000
-15.924900 0.000000
-15.906600 0.000000
-15.888400 0.000000
-15.870100 0.000000
-15.851800 0.000000
-15.833500 0.000000
-15.815200 0.000000
-15.797000 0.000000
-15.778700 0.000000
-15.760400 0.000000
-15.742100 0.000000
-15.723900 0.000000
-15.705600 0.000000
-15.687300 0.000000
-15.669000 0.000000
-15.650700 0.000000
-15.632500 0.000000
-15.614200 0.000000
-15.595900 0.000000
-15.577600 0.000000
-15.559400 0.000000
-15.541100 0.000000
-15.522800 0.000000
-15.504500 0.000000
-15.486200 0.000000
-15.468000 0.000000
-15.449700 0.000000
-15.431400 0.000000
-15.413100 0.000000
-15.394900 0.000000
-15.376600 0.000000
-15.358300 0.000000
-15.340000 0.000000
-15.321700 0.000000
-15.303500 0.000000
-15.285200 0.000000
-15.266900 0.000000
-15.248600 0.000000
-15.230400 0.000000
-15.212100 0.000000
-15.193800 0.000000
-15.175500 0.000000
-15.157300 0.000000
-15.139000 0.000000
-15.120700 0.000000
-15.102400 0.000000
-15.084100 0.000000
-15.065900 0.000000
-15.047600 0.000000
-15.029300 0.000000
-15.011000 0.000000
-14.992800 0.000000
-14.974500 0.000000
-14.956200 0.000000
-14.937900 0.000000
-14.919600 0.000000
-14.901400 0.000000
-14.883100 0.000000
-14.864800 0.000000
-14.846500 0.000000
-14.828300 0.000000
-14.810000 0.000000
-14.791700 0.000000
-14.773400 0.000000
-14.755100 0.000000
-14.736900 0.000000
-14.718600 0.000000
-14.700300 0.000000
-14.682000 0.000000
-14.663800 0.000000
-14.645500 0.000000
-14.627200 0.000000
-14.608900 0.000000
-14.590700 0.000000
-14.572400 0.000000
-14.554100 0.000000
-14.535800 0.000000
-14.517500 0.000000
-14.499300 0.000000
-14.481000 0.000000
-14.462700 0.000000
-14.444400 0.000000
-14.426200 0.000000
-14.407900 0.000000
-14.389600 0.000000
-14.371300 0.000000
-14.353000 0.000000
-14.334800 0.000000
-14.316500 0.000000
-14.298200 0.000000
-14.279900 0.000000
-14.261700 0.000000
-14.243400 0.000000
-14.225100 0.000000
-14.206800 0.000000
-14.188500 0.000000
-14.170300 0.000000
-14.152000 0.000000
-14.133700 0.000000
-14.115400 0.000000
-14.097200 0.000000
-14.078900 0.000000
-14.060600 0.000000
-14.042300 0.000000
-14.024000 0.000000
-14.005800 0.000000
-13.987500 0.000000
-13.969200 0.000000
-13.950900 0.000000
-13.932700 0.000000
-13.914400 0.000000
-13.896100 0.000000
-13.877800 0.000000
-13.859600 0.000000
-13.841300 0.000000
-13.823000 0.000000
-13.804700 0.000000
-13.786400 0.000000
-13.768200 0.000000
-13.749900 0.000000
-13.731600 0.000000
-13.713300 0.000000
-13.695100 0.000000
-13.676800 0.000000
-13.658500 0.000000
-13.640200 0.000000
-13.621900 0.000000
-13.603700 0.000000
-13.585400 0.000000
-13.567100 0.000000
-13.548800 0.000000
-13.530600 0.000000
-13.512300 0.000000
-13.494000 0.000000
-13.475700 0.000000
-13.457400 0.000000
-13.439200 0.000000
-13.420900 0.000000
-13.402600 0.000000
-13.384300 0.000000
-13.366100 0.000000
-13.347800 0.000000
-13.329500 0.000000
-13.311200 0.000000
-13.292900 0.000000
-13.274700 0.000000
-13.256400 0.000000
-13.238100 0.000000
-13.219800 0.000000
-13.201600 0.000000
-13.183300 0.000000
-13.165000 0.000000
-13.146700 0.000000
-13.128500 0.000000
-13.110200 0.000000
-13.091900 0.000000
-13.073600 0.000000
-13.055300 0.000000
-13.037100 0.000000
-13.018800 0.000000
-13.000500 0.000000
-12.982200 0.000000
-12.964000 0.000000
-12.945700 0.000000
-12.927400 0.000000
-12.909100 0.000000
-12.890800 0.000000
-12.872600 0.000000
-12.854300 0.000000
-12.836000 0.000000
-12.817700 0.000000
-12.799500 0.000000
-12.781200 0.000000
-12.762900 0.000000
-12.744600 0.000000
-12.726300 0.000000
-12.708100 0.000000
-12.689800 0.000000
-12.671500 0.000000
-12.653200 0.000000
-12.635000 0.000000
-12.616700 0.000000
-12.598400 0.000000
-12.580100 0.000000
-12.561900 0.000000
-12.543600 0.000000
-12.525300 0.000000
-12.507000 0.000000
-12.488700 0.000000
-12.470500 0.000000
-12.452200 0.000000
-12.433900 0.000000
-12.415600 0.000000
-12.397400 0.000000
-12.379100 0.000000
-12.360800 0.000000
-12.342500 0.000000
-12.324200 0.000000
-12.306000 0.000000
-12.287700 0.000000
-12.269400 0.000000
-12.251100 0.000000
-12.232900 0.000000
-12.214600 0.000000
-12.196300 0.000000
-12.178000 0.000000
-12.159700 0.000000
-12.141500 0.000000
-12.123200 0.000000
-12.104900 0.000000
-12.086600 0.000000
-12.068400 0.000000
-12.050100 0.000000
-12.031800 0.000000
-12.013500 0.000000
-11.995200 0.000000
-11.977000 0.000000
-11.958700 0.000000
-11.940400 0.000000
-11.922100 0.000000
-11.903900 0.000000
-11.885600 0.000000
-11.867300 0.000000
-11.849000 0.000000
-11.830800 0.000000
-11.812500 0.000000
-11.794200 0.000000
-11.775900 0.000000
-11.757600 0.000000
-11.739400 0.000000
-11.721100 0.000000
-11.702800 0.000000
-11.684500 0.000000
-11.666300 0.000000
-11.648000 0.000000
-11.629700 0.000000
-11.611400 0.000000
-11.593100 0.000000
-11.574900 0.000000
-11.556600 0.000000
-11.538300 0.000000
-11.520000 0.000000
-11.501800 0.000000
-11.483500 0.000000
-11.465200 0.000000
-11.446900 0.000000
-11.428600 0.000000
-11.410400 0.000000
-11.392100 0.000000
-11.373800 0.000000
-11.355500 0.000000
-11.337300 0.000000
-11.319000 0.000000
-11.300700 0.000000
-11.282400 0.000000
-11.264100 0.000000
-11.245900 0.000000
-11.227600 0.000000
-11.209300 0.000000
-11.191000 0.000000
-11.172800 0.000000
-11.154500 0.000000
-11.136200 0.000000
-11.117900 0.000000
-11.099700 0.000000
-11.081400 0.000000
-11.063100 0.000000
-11.044800 0.000000
-11.026500 0.000000
-11.008300 0.000000
-10.990000 0.000000
-10.971700 0.000000
-10.953400 0.000000
-10.935200 0.000000
-10.916900 0.000000
-10.898600 0.000000
-10.880300 0.000000
-10.862000 0.000000
-10.843800 0.000000
-10.825500 0.000000
-10.807200 0.000000
-10.788900 0.000000
-10.770700 0.000000
-10.752400 0.000000
-10.734100 0.000000
-10.715800 0.000000
-10.697500 0.000000
-10.679300 0.000000
-10.661000 0.000000
-10.642700 0.000000
-10.624400 0.000000
-10.606200 0.000000
-10.587900 0.000000
-10.569600 0.000000
-10.551300 0.000000
-10.533000 0.000000
-10.514800 0.000000
-10.496500 0.000000
-10.478200 0.000000
-10.459900 0.000000
-10.441700 0.000000
-10.423400 0.000000
-10.405100 0.000000
-10.386800 0.000000
-10.368600 0.000000
-10.350300 0.000000
-10.332000 0.000000
-10.313700 0.000000
-10.295400 0.000000
-10.277200 0.000000
-10.258900 0.000000
-10.240600 0.000000
-10.222300 0.000000
-10.204100 0.000000
-10.185800 0.000000
-10.167500 0.000000
-10.149200 0.000000
-10.130900 0.000000
-10.112700 0.000000
-10.094400 0.000000
-10.076100 0.000000
-10.057800 0.000000
-10.039600 0.000000
-10.021300 0.000000
-10.003000 0.000000
-9.984700 0.000000
-9.966400 0.000000
-9.948200 0.000000
-9.929900 0.000000
-9.911600 0.000000
-9.893300 0.000000
-9.875100 0.000000
-9.856800 0.000000
-9.838500 0.000000
-9.820200 0.000000
-9.802000 0.000000
-9.783700 0.000000
-9.765400 0.000000
-9.747100 0.000000
-9.728800 0.000000
-9.710600 0.000000
-9.692300 0.000000
-9.674000 0.000000
-9.655700 0.000000
-9.637500 0.000000
-9.619200 0.000000
-9.600900 0.000000
-9.582600 0.000000
-9.564300 0.000000
-9.546100 0.000000
-9.527800 0.000000
-9.509500 0.000000
-9.491200 0.000000
-9.473000 0.000000
-9.454700 0.000000
-9.436400 0.000000
-9.418100 0.000000
-9.399800 0.000000
-9.381600 0.000000
-9.363300 0.000000
-9.345000 0.000000
-9.326700 0.000000
-9.308500 0.000000
-9.290200 0.000000
-9.271900 0.000000
-9.253600 0.000000
-9.235300 0.000000
-9.217100 0.000000
-9.198800 0.000000
-9.180500 0.000000
-9.162200 0.000000
-9.144000 0.000000
-9.125700 0.000000
-9.107400 0.000000
-9.089100 0.000000
-9.070900 0.000000
-9.052600 0.000000
-9.034300 0.000000
-9.016000 0.000000
-8.997700 0.000000
-8.979500 0.000000
-8.961200 0.000000
-8.942900 0.000000
-8.924600 0.000000
-8.906400 0.000000
-8.888100 0.000000
-8.869800 0.000000
-8.851500 0.000000
-8.833200 0.000000
-8.815000 0.000000
-8.796700 0.000000
-8.778400 0.000000
-8.760100 0.000000
-8.741900 0.000000
-8.723600 0.000000
-8.705300 0.000000
-8.687000 0.000000
-8.668700 0.000000
-8.650500 0.000000
-8.632200 0.000000
-8.613900 0.000000
-8.595600 0.000000
-8.577400 0.000000
-8.559100 0.000000
-8.540800 0.000000
-8.522500 0.000000
-8.504200 0.000000
-8.486000 0.000000
-8.467700 0.000000
-8.449400 0.000000
-8.431100 0.000000
-8.412900 0.000000
-8.394600 0.000000
-8.376300 0.000000
-8.358000 0.000000
-8.339800 0.000000
-8.321500 0.000000
-8.303200 0.000000
-8.284900 0.000000
-8.266600 0.000000
-8.248400 0.000000
-8.230100 0.000000
-8.211800 0.000000
-8.193500 0.000000
-8.175300 0.000000
-8.157000 0.000000
-8.138700 0.000000
-8.120400 0.000000
-8.102100 0.000000
-8.083900 0.000000
-8.065600 0.000000
-8.047300 0.000000
-8.029000 0.000000
-8.010800 0.000000
-7.992500 0.000000
-7.974200 0.000000
-7.955900 0.000000
-7.937600 0.000000
-7.919400 0.000000
-7.901100 0.000000
-7.882800 0.000000
-7.864500 0.000000
-7.846300 0.000000
-7.828000 0.000000
-7.809700 0.000000
-7.791400 0.000000
-7.773100 0.000000
-7.754900 0.000000
-7.736600 0.000000
-7.718300 0.000000
-7.700000 0.000000
-7.681800 0.000000
-7.663500 0.000000
-7.645200 0.000000
-7.626900 0.000000
-7.608700 0.000000
-7.590400 0.000000
-7.572100 0.000000
-7.553800 0.000000
-7.535500 0.000000
-7.517300 0.000000
-7.499000 0.000000
-7.480700 0.000000
-7.462400 0.000000
-7.444200 0.000000
-7.425900 0.000000
-7.407600 0.000000
-7.389300 0.000000
-7.371000 0.000000
-7.352800 0.000000
-7.334500 0.000000
-7.316200 0.000000
-7.297900 0.000000
-7.279700 0.000000
-7.261400 0.000000
-7.243100 0.000000
-7.224800 0.000000
-7.206500 0.000000
-7.188300 0.000000
-7.170000 0.000000
-7.151700 0.000000
-7.133400 0.000000
-7.115200 0.000000
-7.096900 0.000000
-7.078600 0.000000
-7.060300 0.000000
-7.042100 0.000000
-7.023800 0.000000
-7.005500 0.000000
-6.987200 0.000000
-6.968900 0.000000
-6.950700 0.000000
-6.932400 0.000000
-6.914100 0.000000
-6.895800 0.000000
-6.877600 0.000000
-6.859300 0.000000
-6.841000 0.000000
-6.822700 0.000000
-6.804400 0.000000
-6.786200 0.000000
-6.767900 0.000000
-6.749600 0.000000
-6.731300 0.000000
-6.713100 0.000000
-6.694800 0.000000
-6.676500 0.000000
-6.658200 0.000000
-6.639900 0.000000
-6.621700 0.000000
-6.603400 0.000000
-6.585100 0.000000
-6.566800 0.000000
-6.548600 0.000000
-6.530300 0.000000
-6.512000 0.000000
-6.493700 0.000000
-6.475400 0.000000
-6.457200 0.000000
-6.438900 0.000000
-6.420600 0.000000
-6.402300 0.000000
-6.384100 0.000000
-6.365800 0.000000
-6.347500 0.000000
-6.329200 0.000000
-6.311000 0.000000
-6.292700 0.000000
-6.274400 0.000000
-6.256100 0.000000
-6.237800 0.000000
-6.219600 0.000000
-6.201300 0.000000
-6.183000 0.000000
-6.164700 0.000000
-6.146500 0.000000
-6.128200 0.000000
-6.109900 0.000000
-6.091600 0.000000
-6.073300 0.000000
-6.055100 0.000000
-6.036800 0.000000
-6.018500 0.000000
-6.000200 0.000000
-5.982000 0.000000
-5.963700 0.000000
-5.945400 0.000000
-5.927100 0.000000
-5.908800 0.000000
-5.890600 0.000000
-5.872300 0.000000
-5.854000 0.000000
-5.835700 0.000000
-5.817500 0.000000
-5.799200 0.000000
-5.780900 0.000000
-5.762600 0.000000
-5.744300 0.000000
-5.726100 0.000000
-5.707800 0.000000
-5.689500 0.000000
-5.671200 0.000000
-5.653000 0.000000
-5.634700 0.000000
-5.616400 0.000000
-5.598100 0.000000
-5.579900 0.000000
-5.561600 0.000000
-5.543300 0.000000
-5.525000 0.000000
-5.506700 0.000000
-5.488500 0.000000
-5.470200 0.000000
-5.451900 0.000000
-5.433600 0.000000
-5.415400 0.000000
-5.397100 0.000000
-5.378800 0.000000
-5.360500 0.000000
-5.342200 0.000000
-5.324000 0.000000
-5.305700 0.000000
-5.287400 0.000000
-5.269100 0.000000
-5.250900 0.000000
-5.232600 0.000000
-5.214300 0.000000
-5.196000 0.000000
-5.177700 0.000000
-5.159500 0.000000
-5.141200 0.000000
-5.122900 0.000000
-5.104600 0.000000
-5.086400 0.000000
-5.068100 0.000000
-5.049800 0.000000
-5.031500 0.000000
-5.013300 0.000000
-4.995000 0.000000
-4.976700 0.000000
-4.958400 0.000000
-4.940100 0.000000
-4.921900 0.000000
-4.903600 0.000000
-4.885300 0.000000
-4.867000 0.000000
-4.848800 0.000000
-4.830500 0.000000
-4.812200 0.000000
-4.793900 0.000000
-4.775600 0.000000
-4.757400 0.000000
-4.739100 0.000000
-4.720800 0.000000
-4.702500 0.000000
-4.684300 0.000000
-4.666000 0.000000
-4.647700 0.000000
-4.629400 0.000000
-4.611100 0.000000
-4.592900 0.000000
-4.574600 0.000000
-4.556300 0.000000
-4.538000 0.000000
-4.519800 0.000000
-4.501500 0.000000
-4.483200 0.000000
-4.464900 0.000000
-4.446600 0.000000
-4.428400 0.000000
-4.410100 0.000000
-4.391800 0.000000
-4.373500 0.000000
-4.355300 0.000000
-4.337000 0.000000
-4.318700 0.000000
-4.300400 0.000000
-4.282200 0.000000
-4.263900 0.000000
-4.245600 0.000000
-4.227300 0.000000
-4.209000 0.000000
-4.190800 0.000000
-4.172500 0.000000
-4.154200 0.000000
-4.135900 0.000000
-4.117700 0.000000
-4.099400 0.000000
-4.081100 0.000000
-4.062800 0.000000
-4.044500 0.000000
-4.026300 0.000000
-4.008000 0.000000
-3.989700 0.000000
-3.971400 0.000000
-3.953200 0.000000
-3.934900 0.000000
-3.916600 0.000000
-3.898300 0.000000
-3.880000 0.000000
-3.861800 0.000000
-3.843500 0.000000
-3.825200 0.000000
-3.806900 0.000000
-3.788700 0.000000
-3.770400 0.000000
-3.752100 0.000000
-3.733800 0.000000
-3.715500 0.000000
-3.697300 0.000000
-3.679000 0.000000
-3.660700 0.000000
-3.642400 0.000000
-3.624200 0.000000
-3.605900 0.000000
-3.587600 0.000000
-3.569300 0.000000
-3.551100 0.000000
-3.532800 0.000000
-3.514500 0.000000
-3.496200 0.000000
-3.477900 0.000000
-3.459700 0.000000
-3.441400 0.000000
-3.423100 0.000000
-3.404800 0.000000
-3.386600 0.000000
-3.368300 0.000000
-3.350000 0.000000
-3.331700 0.000000
-3.313400 0.000000
-3.295200 0.000000
-3.276900 0.000000
-3.258600 0.000000
-3.240300 0.000000
-3.222100 0.000000
-3.203800 0.000000
-3.185500 0.000000
-3.167200 0.000000
-3.148900 0.000000
-3.130700 0.000000
-3.112400 0.000300
-3.094100 0.008900
-3.075800 0.029100
-3.057600 0.062400
-3.039300 0.075800
-3.021000 0.076600
-3.002700 0.084600
-2.984400 0.094100
-2.966200 0.104800
-2.947900 0.116200
-2.929600 0.126100
-2.911300 0.135300
-2.893100 0.140300
-2.874800 0.143800
-2.856500 0.150600
-2.838200 0.156600
-2.820000 0.163000
-2.801700 0.170100
-2.783400 0.177400
-2.765100 0.184800
-2.746800 0.191000
-2.728600 0.197800
-2.710300 0.205200
-2.692000 0.213200
-2.673700 0.220700
-2.655500 0.226900
-2.637200 0.232700
-2.618900 0.238900
-2.600600 0.245400
-2.582300 0.252000
-2.564100 0.258700
-2.545800 0.266500
-2.527500 0.276100
-2.509200 0.284900
-2.491000 0.293800
-2.472700 0.302800
-2.454400 0.312300
-2.436100 0.322300
-2.417800 0.332400
-2.399600 0.342800
-2.381300 0.354300
-2.363000 0.367500
-2.344700 0.384900
-2.326500 0.403500
-2.308200 0.423300
-2.289900 0.444700
-2.271600 0.469400
-2.253400 0.499800
-2.235100 0.823700
-2.216800 1.319300
-2.198500 2.683500
-2.180200 4.186300
-2.162000 6.225600
-2.143700 8.392800
-2.125400 8.141900
-2.107100 8.645100
-2.088900 9.156000
-2.070600 10.704700
-2.052300 11.453800
-2.034000 10.347400
-2.015700 8.683500
-1.997500 7.453400
-1.979200 6.053500
-1.960900 6.316800
-1.942600 7.615400
-1.924400 12.394000
-1.906100 13.945300
-1.887800 13.976400
-1.869500 15.304800
-1.851200 18.660100
-1.833000 20.840600
-1.814700 23.737300
-1.796400 19.517900
-1.778100 20.869600
-1.759900 20.099900
-1.741600 18.865200
-1.723300 19.075100
-1.705000 23.672400
-1.686700 21.190000
-1.668500 18.762400
-1.650200 18.855200
-1.631900 15.332800
-1.613600 15.601700
-1.595400 14.758800
-1.577100 14.199600
-1.558800 14.239600
-1.540500 14.272800
-1.522300 12.473300
-1.504000 10.508200
-1.485700 9.060000
-1.467400 7.560500
-1.449100 6.954600
-1.430900 6.649500
-1.412600 6.614600
-1.394300 6.581700
-1.376000 5.675400
-1.357800 5.133800
-1.339500 4.537800
-1.321200 4.207800
-1.302900 3.528800
-1.284600 3.863200
-1.266400 4.220400
-1.248100 4.848400
-1.229800 6.903100
-1.211500 6.793200
-1.193300 8.488000
-1.175000 11.170500
-1.156700 12.302400
-1.138400 12.348900
-1.120100 14.772800
-1.101900 16.087900
-1.083600 13.966100
-1.065300 13.333400
-1.047000 13.112000
-1.028800 14.384600
-1.010500 13.001200
-0.992200 13.069100
-0.973900 15.070700
-0.955600 14.107100
-0.937400 12.540000
-0.919100 12.200100
-0.900800 12.034800
-0.882500 12.191000
-0.864300 12.830500
-0.846000 13.250500
-0.827700 14.170400
-0.809400 16.222100
-0.791200 20.871800
-0.772900 17.524100
-0.754600 17.391600
-0.736300 12.686000
-0.718000 12.315500
-0.699800 14.184300
-0.681500 13.535300
-0.663200 12.809700
-0.644900 8.932500
-0.626700 7.982000
-0.608400 7.788700
-0.590100 7.917200
-0.571800 8.092000
-0.553500 12.729800
-0.535300 8.854900
-0.517000 5.981600
-0.498700 2.156700
-0.480400 1.696300
-0.462200 1.424500
-0.443900 1.277100
-0.425600 1.162700
-0.407300 1.079200
-0.389000 1.016400
-0.370800 0.968200
-0.352500 0.931200
-0.334200 0.901900
-0.315900 0.875800
-0.297700 0.851800
-0.279400 0.830800
-0.261100 0.812500
-0.242800 0.798500
-0.224600 0.788400
-0.206300 0.780100
-0.188000 0.772400
-0.169700 0.763100
-0.151400 0.754100
-0.133200 0.746000
-0.114900 0.738800
-0.096600 0.738400
-0.078300 0.734800
-0.060100 0.731000
-0.041800 0.727100
-0.023500 0.723800
-0.005200 0.721100
0.013100 0.718800
0.031300 0.717100
0.049600 0.717000
0.067900 0.718200
0.086200 0.728700
0.104400 0.760300
0.122700 0.811900
0.141000 0.814800
0.159300 0.829400
0.177600 0.840200
0.195800 0.843300
0.214100 0.847700
0.232400 0.851100
0.250700 0.854600
0.268900 0.869800
0.287200 0.876900
0.305500 0.882400
0.323800 0.889300
0.342100 0.897200
0.360300 0.910700
0.378600 0.929400
0.396900 0.943700
0.415200 0.959300
0.433400 0.959900
0.451700 0.959100
0.470000 0.957500
0.488300 0.954500
0.506500 0.950300
0.524800 0.945400
0.543100 0.942700
0.561400 0.941200
0.579700 0.943200
0.597900 0.943100
0.616200 0.939900
0.634500 0.937000
0.652800 0.933800
0.671000 0.930400
0.689300 0.926800
0.707600 0.923400
0.725900 0.921600
0.744200 0.921000
0.762400 0.923600
0.780700 0.928000
0.799000 0.931900
0.817300 0.935000
0.835500 0.940600
0.853800 0.946600
0.872100 0.952100
0.890400 0.959100
0.908700 0.966800
0.926900 0.971700
0.945200 0.982300
0.963500 0.983200
0.981800 0.982300
1.000000 0.983000
1.018300 0.987700
1.036600 0.995200
1.054900 1.007700
1.073200 1.043000
1.091400 1.051300
1.109700 1.059700
1.128000 1.098800
1.146300 1.187700
1.164500 1.312500
1.182800 1.485300
1.201100 1.778800
1.219400 6.063600
1.237600 1.860700
1.255900 1.281000
1.274200 1.077900
1.292500 0.909900
1.310800 0.724200
1.329000 0.600000
1.347300 0.514100
1.365600 0.351100
1.383900 0.433800
1.402100 0.413900
1.420400 0.622000
1.438700 0.835700
1.457000 1.076800
1.475300 1.330600
1.493500 1.448400
1.511800 1.456300
1.530100 1.425200
1.548400 1.452000
1.566600 1.499500
1.584900 1.525100
1.603200 1.548400
1.621500 1.569900
1.639800 1.582300
1.658000 1.602700
1.676300 1.598200
1.694600 1.598600
1.712900 1.582200
1.731100 1.506000
1.749400 1.414100
1.767700 1.369800
1.786000 1.363100
1.804300 1.359300
1.822500 1.351300
1.840800 1.339900
1.859100 1.332000
1.877400 1.322400
1.895600 1.311600
1.913900 1.300200
1.932200 1.291700
1.950500 1.288700
1.968700 1.275800
1.987000 1.262800
2.005300 1.254100
2.023600 1.246700
2.041900 1.241200
2.060100 1.239900
2.078400 1.236300
2.096700 1.233400
2.115000 1.233600
2.133200 1.232700
2.151500 1.231500
2.169800 1.232800
2.188100 1.234300
2.206400 1.249800
2.224600 1.257400
2.242900 1.266900
2.261200 1.274400
2.279500 1.279700
2.297700 1.286500
2.316000 1.275200
2.334300 1.259200
2.352600 1.245400
2.370900 1.238700
2.389100 1.257400
2.407400 1.243300
2.425700 1.200200
2.444000 1.173300
2.462200 1.159500
2.480500 1.119400
2.498800 1.086100
2.517100 1.059000
2.535300 1.041200
2.553600 1.029600
2.571900 1.011000
2.590200 0.982200
2.608500 0.959800
2.626700 0.949500
2.645000 0.943800
2.663300 0.942900
2.681600 0.943400
2.699800 0.964000
2.718100 1.027500
2.736400 1.125000
2.754700 1.221100
2.773000 1.365900
2.791200 1.474100
2.809500 1.563000
2.827800 1.667100
2.846100 1.656900
2.864300 1.591500
2.882600 1.577900
2.900900 1.576000
2.919200 1.559700
2.937500 1.546100
2.955700 1.545900
2.974000 1.547000
2.992300 1.543800
3.010600 1.537800
3.028800 1.527600
3.047100 1.509800
3.065400 1.487800
3.083700 1.468700
3.102000 1.455300
3.120200 1.424500
3.138500 1.392900
3.156800 1.362800
3.175100 1.337800
3.193300 1.324300
3.211600 1.316100
3.229900 1.298500
3.248200 1.263800
3.266400 1.233200
3.284700 1.198300
3.303000 1.187700
3.321300 1.190500
3.339600 1.190400
3.357800 1.179300
3.376100 1.166500
3.394400 1.161600
3.412700 1.159600
3.430900 1.175500
3.449200 1.201200
3.467500 1.240400
3.485800 1.279100
3.504100 1.303600
3.522300 1.325200
3.540600 1.336500
3.558900 1.344300
3.577200 1.354900
3.595400 1.387600
3.613700 1.425800
3.632000 1.451100
3.650300 1.474800
3.668600 1.516400
3.686800 1.527900
3.705100 1.555200
3.723400 1.617300
3.741700 1.641700
3.759900 1.651100
3.778200 1.565600
3.796500 1.403900
3.814800 1.199300
3.833100 1.117400
3.851300 1.053700
3.869600 0.997300
3.887900 0.938600
3.906200 0.875900
3.924400 0.822600
3.942700 0.810900
3.961000 0.767800
3.979300 0.742500
3.997500 0.727600
4.015800 0.718400
4.034100 0.716800
4.052400 0.739600
4.070700 0.761100
4.088900 0.806400
4.107200 0.835800
4.125500 0.773500
4.143800 0.787400
4.162000 0.856700
4.180300 1.052100
4.198600 1.548500
4.216900 2.211800
4.235200 3.013000
4.253400 4.447000
4.271700 3.332600
4.290000 1.739900
4.308300 1.054200
4.326500 0.884600
4.344800 0.834200
4.363100 0.812200
4.381400 0.894500
4.399700 1.001000
4.417900 1.221400
4.436200 1.308000
4.454500 1.310100
4.472800 1.362000
4.491000 1.411600
4.509300 1.440000
4.527600 1.470100
4.545900 1.507900
4.564200 1.537800
4.582400 1.568600
4.600700 1.616200
4.619000 1.654700
4.637300 1.685700
4.655500 1.735800
4.673800 1.762100
4.692100 1.790500
4.710400 1.828900
4.728600 1.862100
4.746900 1.888400
4.765200 1.921800
4.783500 1.964500
4.801800 1.996800
4.820000 2.000600
4.838300 2.053700
4.856600 2.128100
4.874900 2.198200
4.893100 2.264600
4.911400 2.337400
4.929700 2.411800
4.948000 2.452900
4.966300 2.517700
4.984500 2.614100
5.002800 2.739700
5.021100 2.897200
5.039400 3.074300
5.057600 3.240100
5.075900 3.088100
5.094200 3.002100
5.112500 2.858000
5.130800 2.663500
5.149000 2.497600
5.167300 2.480000
5.185600 2.476200
5.203900 2.439600
5.222100 2.272000
5.240400 2.110000
5.258700 2.074400
5.277000 2.360300
5.295200 3.156100
5.313500 3.769300
5.331800 3.946100
5.350100 4.900800
5.368400 5.423000
5.386600 4.942000
5.404900 4.506600
5.423200 4.180600
5.441500 3.868300
5.459700 3.754500
5.478000 3.702400
5.496300 3.682700
5.514600 3.640300
5.532900 3.869400
5.551100 3.699700
5.569400 3.346600
5.587700 3.169100
5.606000 2.947400
5.624200 2.784900
5.642500 2.662700
5.660800 2.549100
5.679100 2.540200
5.697400 2.573400
5.715600 2.712100
5.733900 2.852700
5.752200 2.982700
5.770500 3.101300
5.788700 3.320200
5.807000 3.443500
5.825300 3.609300
5.843600 3.837300
5.861900 4.115900
5.880100 4.251400
5.898400 4.538900
5.916700 4.549700
5.935000 4.504100
5.953200 4.185900
5.971500 3.696800
5.989800 3.538600
6.008100 3.474000
6.026300 3.430500
6.044600 3.399800
6.062900 3.397300
6.081200 3.302200
6.099500 3.179700
6.117700 3.016400
6.136000 2.837300
6.154300 2.709500
6.172600 2.609600
6.190800 2.538900
6.209100 2.466800
6.227400 2.398100
6.245700 2.344800
6.264000 2.334200
6.282200 2.179600
6.300500 2.042500
6.318800 1.948100
6.337100 1.867600
6.355300 1.776500
6.373600 1.685700
6.391900 1.643100
6.410200 1.612500
6.428500 1.619900
6.446700 2.028200
6.465000 1.628400
6.483300 1.407000
6.501600 1.110000
6.519800 1.094200
6.538100 1.103000
6.556400 1.131000
6.574700 1.215800
6.593000 1.324100
6.611200 1.448900
6.629500 1.535600
6.647800 1.416300
6.666100 1.379100
6.684300 1.389400
6.702600 1.411900
6.720900 1.444500
6.739200 1.486300
6.757400 1.534100
6.775700 1.660900
6.794000 1.925400
6.812300 1.980900
6.830600 2.097200
6.848800 2.226600
6.867100 2.405400
6.885400 2.623200
6.903700 2.801300
6.921900 2.978700
6.940200 3.078700
6.958500 3.069000
6.976800 3.150100
6.995100 3.316000
7.013300 3.339500
7.031600 3.246600
7.049900 3.167900
7.068200 3.155600
7.086400 3.262400
7.104700 3.331100
7.123000 3.394200
7.141300 3.517500
7.159600 3.674100
7.177800 3.884100
7.196100 3.938200
7.214400 4.032400
7.232700 4.622500
7.250900 4.565400
7.269200 4.243500
7.287500 3.994500
7.305800 1.182200
7.324000 0.787700
7.342300 0.678800
7.360600 0.577100
7.378900 0.496600
7.397200 0.465900
7.415400 0.438000
7.433700 0.412100
7.452000 0.388400
7.470300 0.367200
7.488500 0.351600
7.506800 0.344600
7.525100 0.336100
7.543400 0.324400
7.561700 0.305600
7.579900 0.266500
7.598200 0.217800
7.616500 0.192700
7.634800 0.171200
7.653000 0.142100
7.671300 0.142700
7.689600 0.148000
7.707900 0.160000
7.726200 0.177700
7.744400 0.194000
7.762700 0.220600
7.781000 0.262400
7.799300 0.317000
7.817500 0.408400
7.835800 0.447100
7.854100 0.454200
7.872400 0.450000
7.890700 0.458700
7.908900 0.476400
7.927200 0.477500
7.945500 0.493900
7.963800 0.503200
7.982000 0.513500
8.000300 0.523500
8.018600 0.534100
8.036900 0.545400
8.055100 0.556800
8.073400 0.567700
8.091700 0.588400
8.110000 0.602300
8.128300 0.614400
8.146500 0.624300
8.164800 0.627100
8.183100 0.630400
8.201400 0.640600
8.219600 0.652400
8.237900 0.667500
8.256200 0.682700
8.274500 0.700100
8.292800 0.719400
8.311000 0.739600
8.329300 0.762100
8.347600 0.785000
8.365900 0.806000
8.384100 0.824600
8.402400 0.852000
8.420700 0.874900
8.439000 0.897600
8.457300 0.921600
8.475500 0.948400
8.493800 0.982000
8.512100 1.023500
8.530400 1.068900
8.548600 1.123000
8.566900 1.175900
8.585200 1.229300
8.603500 1.289100
8.621800 1.433500
8.640000 1.718000
8.658300 1.940500
8.676600 2.153400
8.694900 2.341900
8.713100 2.497400
8.731400 2.643000
8.749700 2.494600
8.768000 2.420200
8.786200 2.261500
8.804500 2.128800
8.822800 1.983900
8.841100 1.878400
8.859400 1.767400
8.877600 1.613200
8.895900 1.506500
8.914200 1.436200
8.932500 1.371200
8.950700 1.317300
8.969000 1.274200
8.987300 1.236200
9.005600 1.190800
9.023900 1.158500
9.042100 1.136400
9.060400 1.118100
9.078700 1.096200
9.097000 1.076300
9.115200 1.057200
9.133500 1.039300
9.151800 1.023100
9.170100 1.008300
9.188400 1.015500
9.206600 0.994700
9.224900 0.978100
9.243200 0.965800
9.261500 0.953600
9.279700 0.942600
9.298000 0.935700
9.316300 0.932000
9.334600 0.928900
9.352900 0.925900
9.371100 0.923100
9.389400 0.920300
9.407700 0.916700
9.426000 0.914600
9.444200 0.913100
9.462500 0.912800
9.480800 0.913200
9.499100 0.913700
9.517300 0.914400
9.535600 0.916900
9.553900 0.951900
9.572200 0.941300
9.590500 0.939600
9.608700 0.944000
9.627000 0.949400
9.645300 0.955500
9.663600 0.962400
9.681800 0.969400
9.700100 0.978700
9.718400 0.988600
9.736700 0.999600
9.755000 1.014700
9.773200 1.034200
9.791500 1.057400
9.809800 1.148600
9.828100 1.143900
9.846300 1.178900
9.864600 1.215400
9.882900 1.247600
9.901200 1.280000
9.919500 1.317100
9.937700 1.344900
9.956000 1.319800
9.974300 1.295200
9.992600 1.289300
10.010800 1.281600
10.029100 1.264000
10.047400 1.258700
10.065700 1.255200
10.083900 1.250500
10.102200 1.247600
10.120500 1.245400
10.138800 1.243500
10.157100 1.243400
10.175300 1.245200
10.193600 1.244300
10.211900 1.247100
10.230200 1.249000
10.248400 1.247500
10.266700 1.251000
10.285000 1.257800
10.303300 1.268100
10.321600 1.282800
10.339800 1.286200
10.358100 1.267400
10.376400 1.268500
10.394700 1.305200
10.412900 1.312200
10.431200 1.315100
10.449500 1.334300
10.467800 1.415600
10.486100 1.570300
10.504300 1.584000
10.522600 1.614600
10.540900 1.621500
10.559200 1.632300
10.577400 1.651600
10.595700 1.677500
10.614000 1.718700
10.632300 1.733100
10.650600 1.738500
10.668800 1.765000
10.687100 1.820400
10.705400 1.896300
10.723700 1.944600
10.741900 1.742700
10.760200 1.654700
10.778500 1.615700
10.796800 1.583600
10.815000 1.564600
10.833300 1.560000
10.851600 1.574000
10.869900 1.608200
10.888200 1.639300
10.906400 1.661000
10.924700 1.665100
10.943000 1.659900
10.961300 1.660300
10.979500 1.650800
10.997800 1.630400
11.016100 1.592400
11.034400 1.550100
11.052700 1.521500
11.070900 1.517500
11.089200 1.512500
11.107500 1.506500
11.125800 1.501500
11.144000 1.504000
11.162300 1.498200
11.180600 1.483300
11.198900 1.470300
11.217200 1.473200
11.235400 1.492300
11.253700 1.540600
11.272000 1.586200
11.290300 1.621300
11.308500 1.674900
11.326800 1.760100
11.345100 1.881400
11.363400 1.988000
11.381700 2.166100
11.399900 2.561600
11.418200 2.640200
11.436500 2.521500
11.454800 2.737500
11.473000 3.138200
11.491300 3.523300
11.509600 3.481800
11.527900 3.397100
11.546100 3.367300
11.564400 3.307000
11.582700 3.215200
11.601000 3.116500
11.619300 3.049400
11.637500 2.984700
11.655800 2.917000
11.674100 2.826000
11.692400 2.755400
11.710600 2.696700
11.728900 2.629800
11.747200 2.579000
11.765500 2.491900
11.783800 2.399500
11.802000 2.259900
11.820300 2.094800
11.838600 1.947100
11.856900 1.828900
11.875100 1.723800
11.893400 1.645900
11.911700 1.585400
11.930000 1.540700
11.948300 1.503200
11.966500 1.476500
11.984800 1.457500
12.003100 1.438500
12.021400 1.418600
12.039600 1.401000
12.057900 1.385700
12.076200 1.373500
12.094500 1.367900
12.112700 1.366800
12.131000 1.363200
12.149300 1.361800
12.167600 1.362800
12.185900 1.368600
12.204100 1.399600
12.222400 1.427600
12.240700 1.429700
12.259000 1.437600
12.277200 1.448100
12.295500 1.461800
12.313800 1.475200
12.332100 1.490900
12.350400 1.514900
12.368600 1.546900
12.386900 1.548300
12.405200 1.541600
12.423500 1.542300
12.441700 1.553000
12.460000 1.575800
12.478300 1.652400
12.496600 1.838800
12.514900 1.872200
12.533100 1.823200
12.551400 1.804100
12.569700 1.784400
12.588000 1.757300
12.606200 1.733200
12.624500 1.709600
12.642800 1.697500
12.661100 1.690200
12.679400 1.693600
12.697600 1.681800
12.715900 1.635000
12.734200 1.589900
12.752500 1.545800
12.770700 1.501800
12.789000 1.459800
12.807300 1.416600
12.825600 1.376800
12.843800 1.334700
12.862100 1.293300
12.880400 1.255100
12.898700 1.230500
12.917000 1.217600
12.935200 1.202800
12.953500 1.179300
12.971800 1.168400
12.990100 1.153600
13.008300 1.146000
13.026600 1.150900
13.044900 1.166800
13.063200 1.194400
13.081500 1.230600
13.099700 1.291500
13.118000 1.390400
13.136300 1.592100
13.154600 2.171700
13.172800 3.840500
13.191100 0.676600
13.209400 0.501300
13.227700 0.413700
13.246000 0.357900
13.264200 0.309200
13.282500 0.265500
13.300800 0.234900
13.319100 0.204900
13.337300 0.173000
13.355600 0.156700
13.373900 0.143600
13.392200 0.131300
13.410500 0.119900
13.428700 0.109400
13.447000 0.099400
13.465300 0.089900
13.483600 0.081000
13.501800 0.072600
13.520100 0.064800
13.538400 0.057500
13.556700 0.050800
13.574900 0.044600
13.593200 0.035800
13.611500 0.024400
13.629800 0.017900
13.648100 0.012700
13.666300 0.008400
13.684600 0.005300
13.702900 0.002900
13.721200 0.001300
13.739400 0.000300
13.757700 0.000000
13.776000 0.000000
13.794300 0.000000
13.812600 0.000000
13.830800 0.000000
13.849100 0.000000
13.867400 0.000000
13.885700 0.000000
13.903900 0.000000
13.922200 0.000000
13.940500 0.000000
13.958800 0.000000
13.977100 0.000000
13.995300 0.000000
14.013600 0.000000
14.031900 0.000000
14.050200 0.000000
14.068400 0.000000
14.086700 0.000000
14.105000 0.000000
14.123300 0.000000
14.141600 0.000000
14.159800 0.000000
14.178100 0.000000
14.196400 0.000000
14.214700 0.000000
14.232900 0.000000
14.251200 0.000000
14.269500 0.000000
14.287800 0.000000
14.306000 0.000000
14.324300 0.000000
14.342600 0.000000
14.360900 0.000000
14.379200 0.000000
14.397400 0.000000
14.415700 0.000000
14.434000 0.000000
14.452300 0.000000
14.470500 0.000000
14.488800 0.000000
14.507100 0.000000
14.525400 0.000000
14.543700 0.000000
14.561900 0.000000
14.580200 0.000000
14.598500 0.000000
14.616800 0.000000
14.635000 0.000000
14.653300 0.000000
14.671600 0.000000
14.689900 0.000000
14.708200 0.000000
14.726400 0.000000
14.744700 0.000000
14.763000 0.000000
14.781300 0.000000
14.799500 0.000000
14.817800 0.000000
14.836100 0.000000
14.854400 0.000000
14.872600 0.000000
14.890900 0.000000
14.909200 0.000000
14.927500 0.000000
14.945800 0.000000
14.964000 0.000000
14.982300 0.000000
15.000600 0.000000
15.018900 0.000000
15.037100 0.000000
15.055400 0.000000
15.073700 0.000000
15.092000 0.000000
15.110300 0.000000
15.128500 0.000000
15.146800 0.000000
15.165100 0.000000
15.183400 0.000000
15.201600 0.000000
15.219900 0.000000
15.238200 0.000000
15.256500 0.000000
15.274800 0.000000
15.293000 0.000000
15.311300 0.000000
15.329600 0.000000
15.347900 0.000000
15.366100 0.000000
15.384400 0.000000
15.402700 0.000000
15.421000 0.000000
e
